FZ,C3,CZ,C4,PZ,PO7,OZ,PO8,Counter,Validation,Label
231142.984375,271887.34375,318246.3125,291737.3125,242229.265625,276184.96875,247646.96875,244003.09375,115155.0,1.0,3
230332.0625,270648.15625,316926.125,291389.96875,240487.265625,275432.78125,247099.703125,243321.015625,115156.0,1.0,3
230345.828125,270891.25,317287.78125,291578.25,240276.796875,275385.84375,247158.09375,243416.859375,115157.0,1.0,3
231151.65625,272256.875,318812.0625,292035.375,241871.71875,276091.25,247729.3125,244148.828125,115158.0,1.0,3
231642.140625,272877.09375,319414.5,292137.21875,243082.921875,276577.1875,248025.34375,244515.40625,115159.0,1.0,3
231141.375,271886.28125,318248.0,291738.1875,242225.0625,276167.25,247628.90625,244002.296875,115160.0,1.0,3
230333.390625,270650.84375,316928.4375,291390.84375,240489.578125,275427.3125,247092.828125,243327.453125,115161.0,1.0,3
230342.609375,270890.28125,317284.90625,291579.59375,240275.546875,275384.0625,247156.21875,243418.46875,115162.0,1.0,3
231147.171875,272257.75,318807.9375,292039.25,241868.59375,276100.28125,247737.0,244158.390625,115163.0,1.0,3
231657.0625,272893.1875,319422.4375,292148.125,243094.09375,276605.1875,248046.96875,244523.796875,115164.0,1.0,3
231154.421875,271899.875,318259.09375,291746.4375,242246.15625,276188.375,247643.390625,244002.828125,115165.0,1.0,3
230336.4375,270654.96875,316930.6875,291392.65625,240503.625,275437.4375,247101.3125,243321.640625,115166.0,1.0,3
230343.765625,270889.125,317275.59375,291577.53125,240276.96875,275386.75,247157.375,243421.78125,115167.0,1.0,3
231152.1875,272255.4375,318794.71875,292035.3125,241865.015625,276094.40625,247726.984375,244151.6875,115168.0,1.0,3
231653.578125,272887.09375,319418.15625,292145.1875,243094.984375,276591.59375,248036.609375,244527.015625,115169.0,1.0,3
231157.8125,271906.03125,318265.15625,291747.84375,242254.5625,276193.0,247650.359375,244015.4375,115170.0,1.0,3
230350.5625,270666.9375,316933.0,291393.28125,240511.3125,275446.625,247106.421875,243329.0625,115171.0,1.0,3
230344.125,270887.40625,317266.5625,291572.96875,240272.234375,275386.5625,247157.109375,243426.421875,115172.0,1.0,3
231143.421875,272248.8125,318783.8125,292027.0,241852.328125,276089.125,247723.328125,244153.921875,115173.0,1.0,3
231649.734375,272888.53125,319411.1875,292140.4375,243090.515625,276594.90625,248037.5,244527.734375,115174.0,1.0,3
231160.328125,271917.375,318267.03125,291744.90625,242262.703125,276207.5,247659.390625,244019.109375,115175.0,1.0,3
230344.296875,270675.25,316933.0,291391.125,240518.640625,275462.90625,247120.984375,243337.28125,115176.0,1.0,3
230339.390625,270889.5625,317256.46875,291567.625,240267.3125,275393.1875,247158.625,243418.828125,115177.0,1.0,3
231138.5,272244.78125,318774.25,292022.34375,241843.03125,276085.53125,247711.515625,244140.609375,115178.0,1.0,3
231653.046875,272897.5625,319415.90625,292140.53125,243091.421875,276592.3125,248030.875,244522.375,115179.0,1.0,3
231165.328125,271926.40625,318275.8125,291744.90625,242269.3125,276203.03125,247658.140625,244021.25,115180.0,1.0,3
230350.03125,270672.5,316934.25,291388.09375,240520.515625,275451.5625,247107.125,243335.671875,115181.0,1.0,3
230341.0,270877.75,317251.375,291566.0,240261.5,275382.28125,247151.125,243415.515625,115182.0,1.0,3
231142.34375,272238.8125,318769.6875,292024.5625,241835.25,276081.59375,247721.71875,244143.46875,115183.0,1.0,3
231655.375,272893.0,319414.21875,292139.5625,243086.9375,276590.5,248031.6875,244526.9375,115184.0,1.0,3
231167.828125,271923.125,318276.15625,291745.8125,242274.5,276204.0,247656.0,244024.28125,115185.0,1.0,3
230348.5,270663.375,316930.9375,291385.3125,240523.46875,275447.4375,247099.34375,243325.21875,115186.0,1.0,3
230333.3125,270859.25,317244.125,291563.6875,240254.703125,275376.46875,247139.3125,243402.734375,115187.0,1.0,3
231130.8125,272221.09375,318766.375,292027.53125,241823.796875,276084.125,247717.328125,244142.578125,115188.0,1.0,3
231656.4375,272887.8125,319419.5,292144.75,243080.234375,276588.375,248030.875,244526.84375,115189.0,1.0,3
231176.953125,271928.21875,318286.8125,291749.09375,242274.234375,276195.15625,247648.125,244020.625,115190.0,1.0,3
230351.546875,270665.875,316938.625,291388.1875,240527.046875,275451.8125,247103.46875,243331.03125,115191.0,1.0,3
230330.0,270854.6875,317239.9375,291557.875,240248.546875,275377.0,247137.796875,243397.09375,115192.0,1.0,3
231128.3125,272214.21875,318754.9375,292016.625,241813.15625,276071.6875,247701.234375,244128.625,115193.0,1.0,3
231656.984375,272891.375,319418.25,292140.25,243084.984375,276589.96875,248024.625,244518.796875,115194.0,1.0,3
231181.6875,271939.03125,318295.375,291750.28125,242296.140625,276209.90625,247656.71875,244024.734375,115195.0,1.0,3
230357.265625,270676.5,316941.3125,291386.28125,240545.375,275458.4375,247107.578125,243328.796875,115196.0,1.0,3
230334.640625,270861.3125,317232.875,291556.625,240256.234375,275374.3125,247139.5,243400.765625,115197.0,1.0,3
231128.5,272215.84375,318748.5,292015.0,241818.625,276067.3125,247707.5,244134.171875,115198.0,1.0,3
231654.296875,272891.84375,319413.6875,292134.90625,243090.515625,276581.75,248030.703125,244519.25,115199.0,1.0,3
231184.46875,271946.34375,318297.0,291748.75,242309.734375,276211.34375,247668.34375,244027.6875,115200.0,1.0,3
230363.96875,270684.03125,316941.3125,291385.125,240558.0625,275456.46875,247112.671875,243332.359375,115201.0,1.0,3
230325.53125,270851.75,317218.03125,291547.3125,240255.0625,275360.71875,247131.8125,243392.53125,115202.0,1.0,3
231116.25,272204.5625,318730.71875,292006.15625,241810.390625,276054.25,247698.28125,244122.71875,115203.0,1.0,3
231650.265625,272891.84375,319408.40625,292135.625,243090.515625,276578.8125,248034.375,244525.40625,115204.0,1.0,3
231184.015625,271952.53125,318300.5625,291752.59375,242319.203125,276213.40625,247672.265625,244041.625,115205.0,1.0,3
230354.859375,270680.53125,316934.59375,291385.75,240560.484375,275457.375,247114.46875,243340.6875,115206.0,1.0,3
230313.1875,270842.1875,317203.375,291546.6875,240243.625,275364.03125,247136.015625,243394.859375,115207.0,1.0,3
231104.171875,272194.46875,318719.875,292010.71875,241796.0,276058.28125,247697.75,244120.3125,115208.0,1.0,3
231644.375,272889.25,319407.78125,292141.59375,243083.8125,276585.5,248026.0625,244519.515625,115209.0,1.0,3
231190.0,271962.0,318311.03125,291761.34375,242323.59375,276225.03125,247672.359375,244040.65625,115210.0,1.0,3
230364.0625,270687.15625,316942.21875,291392.1875,240568.171875,275464.25,247119.921875,243344.96875,115211.0,1.0,3
230308.8125,270825.71875,317191.375,291543.03125,240232.984375,275345.875,247116.78125,243381.71875,115212.0,1.0,3
231099.609375,272180.59375,318705.3125,292002.21875,241778.46875,276036.5625,247678.0,244102.703125,115213.0,1.0,3
231645.09375,272887.71875,319406.1875,292137.21875,243078.890625,276573.4375,248024.0,244516.5625,115214.0,1.0,3
231188.21875,271965.125,318313.96875,291756.8125,242332.4375,276221.09375,247674.6875,244046.453125,115215.0,1.0,3
230354.671875,270686.34375,316941.84375,291386.125,240576.671875,275469.625,247119.640625,243350.609375,115216.0,1.0,3
230299.6875,270825.1875,317189.78125,291536.59375,240236.5625,275357.9375,247121.609375,243381.265625,115217.0,1.0,3
231089.953125,272177.5625,318699.5,291993.0,241773.28125,276039.40625,247681.21875,244102.078125,115218.0,1.0,3
231640.078125,272891.9375,319409.3125,292135.4375,243081.765625,276580.84375,248029.984375,244522.109375,115219.0,1.0,3
231188.484375,271972.8125,318323.1875,291757.96875,242340.84375,276229.75,247681.5625,244048.421875,115220.0,1.0,3
230355.390625,270688.40625,316944.625,291383.0,240579.171875,275462.65625,247114.28125,243338.796875,115221.0,1.0,3
230303.359375,270826.28125,317186.90625,291534.25,240232.265625,275351.875,247125.015625,243382.875,115222.0,1.0,3
231091.296875,272178.90625,318700.125,291996.40625,241771.671875,276042.09375,247689.96875,244113.0625,115223.0,1.0,3
231637.484375,272891.21875,319415.90625,292138.03125,243085.515625,276579.0625,248032.671875,244528.1875,115224.0,1.0,3
231189.734375,271977.8125,318330.78125,291756.875,242351.03125,276223.3125,247676.828125,244052.1875,115225.0,1.0,3
230359.234375,270695.375,316950.34375,291383.625,240590.4375,275464.78125,247119.375,243352.125,115226.0,1.0,3
230297.546875,270820.09375,317179.40625,291530.5,240231.46875,275352.84375,247124.828125,243384.84375,115227.0,1.0,3
231087.640625,272171.3125,318692.8125,291995.875,241766.5,276042.96875,247691.765625,244111.546875,115228.0,1.0,3
231648.21875,272897.46875,319420.40625,292143.75,243088.734375,276586.75,248052.15625,244537.65625,115229.0,1.0,3
231200.46875,271983.28125,318339.5625,291763.40625,242357.828125,276231.90625,247694.4375,244061.84375,115230.0,1.0,3
230368.09375,270694.9375,316954.71875,291386.90625,240597.671875,275476.84375,247126.078125,243349.4375,115231.0,1.0,3
230304.875,270819.1875,317178.25,291537.46875,240233.078125,275362.875,247132.96875,243384.84375,115232.0,1.0,3
231093.171875,272170.3125,318685.90625,292001.3125,241759.609375,276042.34375,247688.984375,244106.1875,115233.0,1.0,3
231647.59375,272896.40625,319412.78125,292143.125,243084.265625,276578.96875,248034.453125,244526.671875,115234.0,1.0,3
231201.453125,271992.5,318343.65625,291764.84375,242367.390625,276240.46875,247700.703125,244064.78125,115235.0,1.0,3
230368.796875,270705.84375,316957.84375,291388.09375,240603.9375,275480.0,247134.84375,243360.265625,115236.0,1.0,3
230292.265625,270811.0625,317167.15625,291529.625,240219.9375,275349.46875,247124.75,243380.46875,115237.0,1.0,3
231072.25,272157.4375,318672.5,291989.0,241737.078125,276031.4375,247681.75,244097.421875,115238.0,1.0,3
231639.546875,272900.34375,319413.78125,292137.65625,243071.125,276581.40625,248035.625,244523.796875,115239.0,1.0,3
231204.75,272002.5,318349.21875,291762.875,242362.125,276234.59375,247683.09375,244056.5625,115240.0,1.0,3
230370.953125,270710.75,316957.6875,291386.375,240595.625,275473.28125,247120.8125,243347.390625,115241.0,1.0,3
230294.859375,270814.03125,317166.4375,291531.03125,240207.328125,275349.625,247118.03125,243371.265625,115242.0,1.0,3
231082.53125,272164.6875,318674.75,291995.34375,241727.515625,276026.4375,247679.328125,244100.109375,115243.0,1.0,3
231648.9375,272909.53125,319421.5625,292147.25,243073.0,276579.34375,248038.484375,244534.4375,115244.0,1.0,3
231214.140625,272016.09375,318364.0625,291772.53125,242379.734375,276243.34375,247694.984375,244070.0625,115245.0,1.0,3
230384.453125,270728.0,316969.5625,291394.625,240617.25,275487.3125,247135.921875,243359.09375,115246.0,1.0,3
230301.484375,270819.46875,317162.40625,291534.8125,240216.359375,275356.6875,247127.0625,243376.0,115247.0,1.0,3
231082.890625,272162.375,318666.5,291995.4375,241725.90625,276033.15625,247683.890625,244096.078125,115248.0,1.0,3
231651.53125,272913.125,319421.90625,292151.09375,243076.84375,276590.5,248046.4375,244534.265625,115249.0,1.0,3
231219.421875,272022.34375,318367.71875,291777.8125,242389.75,276255.3125,247703.203125,244078.46875,115250.0,1.0,3
230379.265625,270716.46875,316963.40625,291391.3125,240621.546875,275485.8125,247127.6875,243355.171875,115251.0,1.0,3
230299.0625,270806.25,317152.75,291530.59375,240215.1875,275350.875,247127.515625,243375.734375,115252.0,1.0,3
231083.4375,272153.78125,318661.6875,292002.125,241728.5,276032.96875,247692.203125,244100.90625,115253.0,1.0,3
231659.484375,272917.5,319428.625,292161.09375,243089.984375,276594.28125,248049.390625,244537.84375,115254.0,1.0,3
231232.65625,272035.40625,318384.625,291791.3125,242415.671875,276263.1875,247713.75,244092.328125,115255.0,1.0,3
230388.65625,270720.6875,316975.28125,291404.0,240643.8125,275489.5625,247140.296875,243373.671875,115256.0,1.0,3
230290.84375,270792.375,317144.71875,291533.1875,240217.15625,275344.28125,247115.71875,243374.5625,115257.0,1.0,3
231070.375,272136.78125,318643.0,291994.09375,241716.515625,276019.125,247669.328125,244085.4375,115258.0,1.0,3
231647.59375,272900.40625,319411.4375,292149.46875,243077.734375,276580.15625,248030.53125,244523.453125,115259.0,1.0,3
231232.46875,272029.6875,318376.5625,291781.5625,242413.53125,276254.0625,247696.140625,244076.5,115260.0,1.0,3
230391.875,270723.71875,316974.03125,291400.25,240650.6875,275498.0625,247138.875,243367.6875,115261.0,1.0,3
230293.34375,270793.71875,317143.8125,291531.84375,240218.671875,275359.375,247130.90625,243378.140625,115262.0,1.0,3
231067.25,272134.65625,318639.875,291991.65625,241708.109375,276023.59375,247675.21875,244095.28125,115263.0,1.0,3
231646.25,272907.5625,319416.09375,292147.25,243072.453125,276580.0625,248031.78125,244533.90625,115264.0,1.0,3
231236.046875,272046.75,318388.71875,291780.3125,242419.875,276259.78125,247701.328125,244087.234375,115265.0,1.0,3
230406.0,270743.5625,316978.78125,291397.03125,240657.125,275497.875,247139.046875,243375.640625,115266.0,1.0,3
230303.09375,270798.09375,317137.65625,291524.34375,240214.5625,275350.09375,247118.9375,243380.015625,115267.0,1.0,3
231071.8125,272134.90625,318635.5625,291985.15625,241700.515625,276021.34375,247672.890625,244093.75,115268.0,1.0,3
231657.78125,272918.65625,319423.625,292147.5,243078.453125,276590.6875,248041.609375,244540.171875,115269.0,1.0,3
231246.953125,272057.03125,318398.03125,291780.21875,242431.40625,276267.21875,247707.5,244090.1875,115270.0,1.0,3
230404.75,270742.5,316985.40625,291393.53125,240662.046875,275500.8125,247139.3125,243369.296875,115271.0,1.0,3
230298.796875,270793.625,317134.53125,291520.6875,240209.828125,275347.5,247115.0,243364.203125,115272.0,1.0,3
231070.640625,272128.84375,318631.1875,291981.65625,241693.71875,276013.125,247667.171875,244075.515625,115273.0,1.0,3
231661.359375,272915.15625,319427.71875,292151.1875,243078.1875,276580.78125,248034.28125,244527.734375,115274.0,1.0,3
231255.265625,272059.8125,318411.6875,291792.03125,242446.609375,276271.5,247718.046875,244098.578125,115275.0,1.0,3
230408.765625,270741.0625,316988.53125,291402.84375,240674.203125,275505.28125,247148.96875,243376.71875,115276.0,1.0,3
230303.796875,270789.96875,317128.875,291526.3125,240213.84375,275350.96875,247123.765625,243361.328125,115277.0,1.0,3
231070.640625,272119.90625,318620.75,291986.3125,241693.171875,276009.46875,247671.109375,244074.265625,115278.0,1.0,3
231658.59375,272905.59375,319419.75,292152.5,243079.796875,276577.28125,248033.390625,244528.1875,115279.0,1.0,3
231252.859375,272052.46875,318402.5,291786.21875,242449.203125,276264.28125,247702.21875,244085.078125,115280.0,1.0,3
230412.15625,270739.4375,316977.53125,291393.90625,240679.03125,275499.3125,247135.03125,243365.453125,115281.0,1.0,3
230294.421875,270776.65625,317112.78125,291514.3125,240204.828125,275338.28125,247103.90625,243354.453125,115282.0,1.0,3
231057.59375,272106.5625,318607.5,291976.75,241674.765625,276006.78125,247653.046875,244065.765625,115283.0,1.0,3
231651.34375,272910.4375,319416.1875,292150.0,243067.546875,276585.5,248030.796875,244528.90625,115284.0,1.0,3
231253.75,272073.125,318413.3125,291786.65625,242450.8125,276276.4375,247712.421875,244103.5,115285.0,1.0,3
230414.84375,270758.6875,316990.40625,291393.1875,240680.015625,275512.625,247145.21875,243378.59375,115286.0,1.0,3
230291.375,270785.0625,317110.5625,291511.09375,240194.71875,275345.78125,247110.078125,243353.828125,115287.0,1.0,3
231055.890625,272116.9375,318600.96875,291973.15625,241664.125,276011.0625,247666.8125,244066.671875,115288.0,1.0,3
231659.03125,272932.5,319419.21875,292148.125,243065.671875,276597.125,248051.265625,244525.328125,115289.0,1.0,3
231269.484375,272103.25,318422.4375,291786.21875,242460.015625,276298.5,247735.84375,244090.453125,115290.0,1.0,3
230425.125,270784.15625,316994.59375,291392.03125,240689.40625,275531.84375,247165.875,243373.046875,115291.0,1.0,3
230293.703125,270801.59375,317108.9375,291510.46875,240196.421875,275357.21875,247122.953125,243358.5625,115292.0,1.0,3
231049.28125,272121.59375,318591.9375,291967.53125,241651.78125,276001.40625,247653.671875,244054.0625,115293.0,1.0,3
231658.9375,272940.46875,319420.84375,292144.375,243064.0625,276589.09375,248046.796875,244526.3125,115294.0,1.0,3
231274.5,272118.28125,318438.0,291790.15625,242468.875,276298.40625,247737.453125,244108.6875,115295.0,1.0,3
230426.203125,270791.3125,317004.4375,291390.40625,240694.140625,275524.96875,247148.96875,243369.65625,115296.0,1.0,3
230296.203125,270801.59375,317107.53125,291504.21875,240192.390625,275346.9375,247107.84375,243346.40625,115297.0,1.0,3
231053.65625,272122.9375,318596.0625,291970.9375,241653.125,276011.34375,247661.71875,244060.859375,115298.0,1.0,3
231655.453125,272939.5,319428.875,292151.96875,243069.25,276598.03125,248050.734375,244530.875,115299.0,1.0,3
231272.265625,272117.84375,318443.1875,291792.28125,242479.78125,276294.03125,247732.703125,244110.390625,115300.0,1.0,3
230426.296875,270789.875,317007.375,291395.59375,240709.875,275529.875,247155.765625,243383.328125,115301.0,1.0,3
230285.03125,270783.71875,317098.03125,291504.40625,240196.328125,275346.59375,247101.234375,243341.75,115302.0,1.0,3
231041.859375,272100.59375,318579.53125,291964.3125,241642.3125,275990.5,247642.40625,244049.140625,115303.0,1.0,3
231654.296875,272927.25,319423.34375,292149.46875,243064.421875,276579.15625,248033.75,244527.734375,115304.0,1.0,3
231275.65625,272112.21875,318447.375,291797.21875,242489.34375,276294.5,247720.1875,244103.328125,115305.0,1.0,3
230422.359375,270777.0,317006.21875,291398.625,240715.421875,275534.625,247154.15625,243380.015625,115306.0,1.0,3
230278.140625,270771.375,317090.34375,291505.21875,240188.375,275348.125,247111.6875,243349.796875,115307.0,1.0,3
231035.78125,272091.46875,318572.0,291963.59375,241628.53125,275990.5,247641.78125,244048.0625,115308.0,1.0,3
231650.890625,272923.84375,319418.6875,292150.1875,243055.5625,276582.03125,248034.546875,244527.734375,115309.0,1.0,3
231275.296875,272115.15625,318448.28125,291794.78125,242487.65625,276297.875,247726.71875,244111.109375,115310.0,1.0,3
230431.921875,270787.28125,317005.34375,291392.1875,240717.84375,275532.75,247151.5625,243381.890625,115311.0,1.0,3
230280.375,270769.84375,317078.65625,291496.34375,240181.21875,275345.0625,247102.921875,243345.234375,115312.0,1.0,3
231030.859375,272083.40625,318555.5625,291954.3125,241615.84375,275991.40625,247638.65625,244044.3125,115313.0,1.0,3
231644.375,272923.9375,319406.875,292137.40625,243045.546875,276584.34375,248030.53125,244523.890625,115314.0,1.0,3
231277.53125,272132.78125,318451.9375,291792.46875,242491.671875,276319.53125,247741.65625,244122.28125,115315.0,1.0,3
230431.921875,270800.875,317007.46875,291389.25,240721.234375,275548.90625,247161.671875,243391.375,115316.0,1.0,3
230280.5625,270780.59375,317072.375,291488.5,240175.234375,275355.09375,247109.71875,243346.671875,115317.0,1.0,3
231029.515625,272094.6875,318550.28125,291949.375,241605.375,275995.875,247638.65625,244046.453125,115318.0,1.0,3
231647.140625,272936.53125,319411.28125,292139.90625,243046.0,276584.0625,248029.546875,244532.828125,115319.0,1.0,3
231277.171875,272140.625,318454.4375,291789.0625,242497.9375,276307.90625,247729.9375,244122.28125,115320.0,1.0,3
230430.3125,270803.75,317009.1875,291386.5625,240728.65625,275540.96875,247155.671875,243388.875,115321.0,1.0,3
230275.90625,270773.34375,317067.03125,291484.90625,240175.578125,275343.1875,247097.296875,243344.265625,115322.0,1.0,3
231025.5,272083.875,318544.375,291949.375,241607.609375,275991.5625,247640.171875,244045.203125,115323.0,1.0,3
231642.671875,272928.3125,319408.40625,292137.21875,243050.90625,276588.8125,248036.96875,244524.609375,115324.0,1.0,3
231278.34375,272138.65625,318460.15625,291790.5,242507.859375,276315.6875,247740.40625,244122.453125,115325.0,1.0,3
230428.703125,270800.25,317010.59375,291388.71875,240737.15625,275548.125,247163.015625,243393.15625,115326.0,1.0,3
230267.859375,270761.0,317062.71875,291488.75,240181.484375,275351.34375,247105.515625,243348.1875,115327.0,1.0,3
231008.859375,272061.96875,318530.15625,291944.90625,241597.15625,275980.03125,247629.0,244035.1875,115328.0,1.0,3
231630.515625,272915.15625,319404.75,292140.09375,243040.625,276579.59375,248028.015625,244526.84375,115329.0,1.0,3
231278.15625,272139.125,318469.09375,291798.71875,242514.296875,276319.25,247744.59375,244137.296875,115330.0,1.0,3
230432.546875,270800.59375,317016.15625,291394.53125,240743.140625,275543.28125,247160.859375,243408.453125,115331.0,1.0,3
230262.859375,270751.625,317056.375,291490.28125,240170.9375,275336.84375,247096.84375,243361.15625,115332.0,1.0,3
231006.71875,272056.40625,318527.46875,291950.0,241584.015625,275977.4375,247632.21875,244049.234375,115333.0,1.0,3
231635.25,272914.90625,319406.25,292140.34375,243033.65625,276575.03125,248023.28125,244525.953125,115334.0,1.0,3
231277.890625,272136.4375,318471.34375,291793.625,242512.953125,276309.78125,247727.609375,244123.171875,115335.0,1.0,3
230428.796875,270795.34375,317014.1875,291386.21875,240741.171875,275544.09375,247153.625,243393.4375,115336.0,1.0,3
230262.59375,270745.625,317045.46875,291475.96875,240157.4375,275330.9375,247086.75,243333.34375,115337.0,1.0,3
231006.453125,272050.59375,318516.125,291934.4375,241566.484375,275966.53125,247623.8125,244028.84375,115338.0,1.0,3
231640.609375,272916.5,319407.53125,292133.125,243028.921875,276572.375,248028.375,244523.453125,115339.0,1.0,3
231286.65625,272143.59375,318479.65625,291793.1875,242519.03125,276312.1875,247741.921875,244129.703125,115340.0,1.0,3
230433.984375,270798.28125,317016.875,291385.21875,240745.734375,275542.3125,247161.40625,243396.5625,115341.0,1.0,3
230257.9375,270737.21875,317039.65625,291475.96875,240157.609375,275330.59375,247096.40625,243336.65625,115342.0,1.0,3
231001.71875,272040.40625,318503.34375,291932.84375,241563.8125,275962.6875,247626.5,244026.875,115343.0,1.0,3
231631.9375,272907.5625,319394.46875,292126.84375,243026.78125,276564.84375,248023.8125,244520.40625,115344.0,1.0,3
231280.578125,272143.3125,318473.84375,291789.78125,242525.921875,276308.34375,247740.3125,244133.359375,115345.0,1.0,3
230427.546875,270795.0625,317013.28125,291384.6875,240756.375,275542.03125,247160.140625,243400.140625,115346.0,1.0,3
230248.109375,270724.34375,317029.1875,291473.5625,240157.34375,275327.28125,247088.53125,243337.28125,115347.0,1.0,3
230980.53125,272016.375,318488.5,291930.59375,241553.4375,275955.375,247615.671875,244025.0,115348.0,1.0,3
231614.953125,272894.15625,319386.59375,292127.84375,243020.875,276561.0,248020.953125,244517.28125,115349.0,1.0,3
231276.640625,272142.5,318475.8125,291793.0,242529.84375,276311.125,247745.3125,244134.796875,115350.0,1.0,3
230425.21875,270794.0,317011.9375,291384.78125,240758.34375,275541.5,247161.9375,243397.359375,115351.0,1.0,3
230242.375,270717.71875,317018.125,291472.65625,240148.5,275324.6875,247088.796875,243327.71875,115352.0,1.0,3
230981.5,272016.8125,318482.5,291935.0625,241544.046875,275961.90625,247626.3125,244021.515625,115353.0,1.0,3
231623.359375,272902.5625,319392.0625,292136.78125,243021.046875,276565.46875,248026.953125,244524.875,115354.0,1.0,3
231292.640625,272158.6875,318490.28125,291802.65625,242541.65625,276316.03125,247748.53125,244146.859375,115355.0,1.0,3
230443.546875,270808.21875,317023.21875,291389.96875,240769.0625,275547.75,247165.515625,243406.390625,115356.0,1.0,3
230255.4375,270727.75,317021.25,291471.3125,240150.640625,275326.03125,247085.21875,243328.34375,115357.0,1.0,3
230984.1875,272020.75,318476.875,291928.1875,241536.625,275947.6875,247610.484375,244011.59375,115358.0,1.0,3
231623.1875,272909.8125,319388.5625,292132.125,243013.453125,276556.28125,248017.203125,244518.265625,115359.0,1.0,3
231296.84375,272174.96875,318492.71875,291800.53125,242543.171875,276315.84375,247746.390625,244153.84375,115360.0,1.0,3
230451.328125,270830.1875,317027.78125,291388.8125,240778.90625,275554.1875,247168.28125,243410.6875,115361.0,1.0,3
230259.90625,270739.0,317018.75,291468.90625,240155.46875,275330.6875,247090.765625,243331.921875,115362.0,1.0,3
230985.796875,272022.875,318472.21875,291924.0,241533.765625,275951.0625,247608.4375,244014.90625,115363.0,1.0,3
231629.890625,272916.5,319391.15625,292127.75,243018.09375,276570.75,248020.875,244517.90625,115364.0,1.0,3
231306.6875,272184.90625,318499.6875,291792.03125,242555.15625,276339.5625,247757.03125,244146.859375,115365.0,1.0,3
230463.21875,270835.75,317031.53125,291379.5,240788.734375,275569.21875,247178.828125,243411.671875,115366.0,1.0,3
230258.5625,270728.0,317010.0625,291457.03125,240148.234375,275325.5,247081.5625,243323.421875,115367.0,1.0,3
230982.40625,272010.1875,318461.6875,291915.40625,241519.46875,275947.125,247603.609375,244004.078125,115368.0,1.0,3
231624.078125,272907.125,319388.46875,292127.21875,243009.15625,276568.53125,248021.40625,244518.796875,115369.0,1.0,3
231300.875,272178.8125,318502.71875,291797.5625,242555.875,276335.4375,247759.265625,244156.078125,115370.0,1.0,3
230450.25,270824.46875,317026.6875,291386.5625,240787.125,275570.46875,247181.515625,243422.40625,115371.0,1.0,3
230255.609375,270723.53125,317004.34375,291468.1875,240148.40625,275340.78125,247098.546875,243337.640625,115372.0,1.0,3
230974.796875,272001.6875,318454.78125,291922.65625,241515.171875,275954.75,247616.03125,244019.546875,115373.0,1.0,3
231630.0625,272907.125,319389.28125,292134.53125,243008.09375,276575.21875,248031.328125,244530.875,115374.0,1.0,3
231312.3125,272181.9375,318508.71875,291804.53125,242562.125,276342.5,247762.84375,244157.6875,115375.0,1.0,3
230455.34375,270819.90625,317030.53125,291389.5,240793.484375,275573.5,247181.34375,243418.640625,115376.0,1.0,3
230252.75,270706.375,316996.65625,291461.3125,240140.53125,275332.03125,247085.140625,243326.28125,115377.0,1.0,3
230975.421875,271988.46875,318445.6875,291916.46875,241501.40625,275945.625,247602.890625,244004.703125,115378.0,1.0,3
231621.9375,272896.40625,319383.28125,292131.40625,243000.671875,276566.09375,248019.4375,244519.421875,115379.0,1.0,3
231307.84375,272183.09375,318510.125,291805.71875,242569.375,276344.8125,247762.84375,244158.75,115380.0,1.0,3
230457.765625,270830.1875,317031.09375,291385.3125,240800.984375,275576.0,247183.390625,243422.40625,115381.0,1.0,3
230242.640625,270707.71875,316986.5625,291453.625,240136.515625,275328.90625,247087.453125,243326.46875,115382.0,1.0,3
230961.484375,271987.84375,318434.6875,291909.6875,241495.140625,275947.5,247609.15625,244003.359375,115383.0,1.0,3
231614.0625,272901.3125,319377.65625,292123.0,242996.375,276567.625,248021.671875,244520.40625,115384.0,1.0,3
231306.953125,272191.59375,318512.28125,291797.21875,242573.296875,276340.34375,247762.75,244163.40625,115385.0,1.0,3
230455.96875,270834.21875,317034.9375,291379.0625,240811.265625,275574.3125,247186.171875,243427.671875,115386.0,1.0,3
230243.0,270708.59375,316983.0625,291444.3125,240139.46875,275321.5625,247085.40625,243325.84375,115387.0,1.0,3
230961.5625,271986.5,318424.65625,291898.78125,241487.453125,275929.09375,247604.046875,244003.359375,115388.0,1.0,3
231616.203125,272904.71875,319375.5,292116.21875,242992.171875,276554.65625,248019.4375,244520.046875,115389.0,1.0,3
231304.171875,272192.6875,318514.78125,291789.34375,242571.421875,276335.34375,247752.46875,244151.78125,115390.0,1.0,3
230455.34375,270836.28125,317035.09375,291374.6875,240812.4375,275575.375,247184.640625,243412.5625,115391.0,1.0,3
230237.1875,270698.15625,316972.34375,291440.03125,240134.1875,275324.875,247087.28125,243310.109375,115392.0,1.0,3
230955.578125,271967.8125,318409.65625,291895.1875,241476.375,275929.625,247596.359375,243987.625,115393.0,1.0,3
231612.0,272889.5,319362.375,292113.625,242985.296875,276550.90625,248017.203125,244514.234375,115394.0,1.0,3
231305.703125,272190.34375,318510.84375,291793.46875,242580.1875,276336.25,247761.140625,244159.828125,115395.0,1.0,3
230459.375,270835.75,317032.59375,291380.9375,240824.40625,275578.0625,247189.5625,243427.140625,115396.0,1.0,3
230231.46875,270687.40625,316961.0625,291442.4375,240129.453125,275319.3125,247079.234375,243316.90625,115397.0,1.0,3
230945.65625,271957.625,318397.5,291895.8125,241462.953125,275924.25,247587.421875,243985.21875,115398.0,1.0,3
231606.375,272885.3125,319359.40625,292116.9375,242977.15625,276547.875,248009.15625,244510.9375,115399.0,1.0,3
231312.765625,272198.21875,318518.71875,291800.0625,242581.703125,276342.5,247762.84375,244169.65625,115400.0,1.0,3
230471.984375,270845.40625,317040.09375,291386.21875,240825.75,275586.65625,247188.3125,243435.0,115401.0,1.0,3
230244.96875,270696.0,316967.6875,291448.34375,240130.96875,275333.53125,247086.296875,243319.578125,115402.0,1.0,3
230947.984375,271952.25,318395.34375,291897.71875,241460.546875,275924.4375,247591.171875,243988.796875,115403.0,1.0,3
231618.265625,272893.71875,319368.28125,292123.71875,242983.859375,276562.0,248028.109375,244523.359375,115404.0,1.0,3
231325.28125,272211.09375,318529.4375,291802.5625,242594.9375,276344.71875,247770.34375,244176.015625,115405.0,1.0,3
230469.203125,270841.5625,317039.125,291378.34375,240832.546875,275571.4375,247184.828125,243425.34375,115406.0,1.0,3
230238.53125,270681.78125,316953.375,291436.4375,240126.046875,275305.8125,247068.59375,243310.46875,115407.0,1.0,3
230946.640625,271943.3125,318384.625,291889.21875,241450.625,275909.40625,247577.5,243979.21875,115408.0,1.0,3
231624.703125,272892.71875,319364.96875,292118.375,242981.171875,276553.3125,248018.640625,244518.265625,115409.0,1.0,3
231337.796875,272218.6875,318539.1875,291803.03125,242606.46875,276357.6875,247779.65625,244180.21875,115410.0,1.0,3
230482.53125,270852.28125,317048.59375,291378.53125,240845.953125,275592.65625,247203.328125,243436.53125,115411.0,1.0,3
230247.03125,270686.4375,316955.96875,291436.0,240130.875,275322.90625,247087.453125,243319.84375,115412.0,1.0,3
230953.25,271944.5625,318385.25,291888.5,241450.078125,275914.59375,247584.828125,243986.828125,115413.0,1.0,3
231617.8125,272889.59375,319369.0625,292118.53125,242981.359375,276556.4375,248023.28125,244522.734375,115414.0,1.0,3
231334.21875,272224.40625,318548.21875,291808.75,242611.484375,276365.375,247785.109375,244186.65625,115415.0,1.0,3
230491.015625,270858.8125,317058.09375,291390.21875,240852.84375,275591.46875,247197.515625,243443.953125,115416.0,1.0,3
230245.953125,270676.875,316955.625,291445.84375,240131.59375,275323.78125,247088.359375,243329.953125,115417.0,1.0,3
230947.0,271928.46875,318372.625,291892.59375,241438.28125,275909.84375,247585.1875,243983.078125,115418.0,1.0,3
231629.265625,272883.25,319360.03125,292122.21875,242973.125,276543.03125,248011.484375,244513.4375,115419.0,1.0,3
231355.765625,272228.25,318551.0,291817.15625,242619.078125,276354.84375,247774.375,244189.515625,115420.0,1.0,3
230493.796875,270853.0,317054.9375,291392.8125,240856.78125,275587.90625,247183.578125,243442.34375,115421.0,1.0,3
230237.28125,270662.28125,316940.0625,291442.53125,240116.3125,275307.6875,247060.375,243314.671875,115422.0,1.0,3
230944.765625,271927.84375,318364.3125,291897.0,241425.046875,275907.09375,247573.03125,243984.5,115423.0,1.0,3
231624.703125,272892.28125,319361.375,292127.5625,242966.6875,276552.15625,248010.859375,244521.390625,115424.0,1.0,3
231348.875,272236.125,318554.75,291819.84375,242618.0,276362.625,247777.5,244196.75,115425.0,1.0,3
230492.0,270864.1875,317059.59375,291394.78125,240861.875,275600.875,247199.578125,243452.890625,115426.0,1.0,3
230236.484375,270670.34375,316935.78125,291437.09375,240114.96875,275320.40625,247072.171875,243311.53125,115427.0,1.0,3
230938.328125,271922.65625,318353.5,291885.71875,241412.359375,275905.375,247572.5,243971.359375,115428.0,1.0,3
231621.390625,272891.5625,319354.40625,292119.0,242959.546875,276547.0625,248013.265625,244519.875,115429.0,1.0,3
231350.578125,272239.625,318550.28125,291806.96875,242617.46875,276355.90625,247778.75,244193.171875,115430.0,1.0,3
230498.984375,270868.46875,317054.6875,291380.40625,240865.0,275594.96875,247198.328125,243446.625,115431.0,1.0,3
230238.359375,270663.375,316921.8125,291421.0625,240108.796875,275307.15625,247064.125,243304.203125,115432.0,1.0,3
230936.890625,271913.71875,318340.4375,291870.96875,241400.109375,275894.21875,247574.1875,243967.328125,115433.0,1.0,3
231625.59375,272888.875,319349.84375,292107.71875,242950.15625,276540.4375,248021.3125,244518.171875,115434.0,1.0,3
231358.53125,272243.625,318554.03125,291801.3125,242618.359375,276355.375,247779.5625,244188.265625,115435.0,1.0,3
230498.703125,270860.15625,317052.625,291373.6875,240862.765625,275587.28125,247191.53125,243439.921875,115436.0,1.0,3
230235.671875,270653.09375,316915.5625,291417.0625,240101.015625,275296.96875,247065.734375,243301.796875,115437.0,1.0,3
230926.875,271900.21875,318330.96875,291870.96875,241390.453125,275884.5625,247569.0,243961.34375,115438.0,1.0,3
231622.734375,272884.9375,319354.6875,292118.71875,242954.0,276540.96875,248016.9375,244519.78125,115439.0,1.0,3
231362.296875,272249.53125,318568.4375,291815.90625,242636.609375,276366.09375,247790.734375,244202.828125,115440.0,1.0,3
230498.890625,270865.59375,317062.625,291384.78125,240875.734375,275598.90625,247201.28125,243448.328125,115441.0,1.0,3
230232.640625,270651.84375,316915.9375,291425.90625,240103.171875,275304.03125,247066.09375,243304.734375,115442.0,1.0,3
230923.921875,271900.125,318330.59375,291877.75,241385.265625,275896.1875,247572.21875,243966.890625,115443.0,1.0,3
231613.53125,272885.9375,319353.34375,292121.03125,242947.921875,276553.3125,248028.296875,244522.640625,115444.0,1.0,3
231357.28125,272254.1875,318575.0625,291820.375,242639.28125,276372.625,247800.75,244214.28125,115445.0,1.0,3
230505.6875,270872.59375,317065.15625,291387.90625,240881.1875,275595.15625,247194.65625,243461.296875,115446.0,1.0,3
230231.921875,270644.40625,316908.6875,291424.75,240099.234375,275300.0,247067.96875,243309.84375,115447.0,1.0,3
230922.5,271889.5,318318.0,291873.03125,241373.453125,275883.9375,247561.9375,243955.359375,115448.0,1.0,3
231625.5,272889.40625,319351.625,292119.0625,242945.59375,276544.03125,248008.796875,244512.359375,115449.0,1.0,3
231377.140625,272267.875,318581.21875,291819.28125,242645.1875,276372.28125,247789.578125,244208.203125,115450.0,1.0,3
230515.34375,270882.6875,317072.5625,291387.8125,240890.296875,275600.34375,247200.65625,243458.4375,115451.0,1.0,3
230237.015625,270654.15625,316908.0625,291420.8125,240101.375,275304.75,247064.84375,243300.890625,115452.0,1.0,3
230935.015625,271903.875,318318.09375,291870.78125,241375.609375,275891.09375,247568.65625,243958.03125,115453.0,1.0,3
231631.9375,272897.28125,319352.09375,292113.1875,242945.234375,276541.96875,248012.828125,244519.875,115454.0,1.0,3
231378.921875,272276.09375,318587.75,291813.125,242652.34375,276373.4375,247792.25,244209.71875,115455.0,1.0,3
230518.828125,270890.28125,317078.1875,291383.0625,240902.28125,275612.59375,247212.09375,243464.875,115456.0,1.0,3
230235.578125,270652.28125,316902.4375,291413.75,240101.375,275304.125,247068.234375,243302.765625,115457.0,1.0,3
230917.578125,271887.34375,318301.0,291858.1875,241360.046875,275873.8125,247553.625,243949.453125,115458.0,1.0,3
231620.765625,272887.90625,319342.4375,292107.4375,242936.921875,276536.59375,248008.078125,244516.828125,115459.0,1.0,3
231370.78125,272272.6875,318580.6875,291808.84375,242649.125,276371.09375,247784.125,244206.5,115460.0,1.0,3
230505.234375,270883.3125,317066.21875,291376.71875,240891.28125,275604.53125,247192.515625,243451.015625,115461.0,1.0,3
230223.6875,270643.53125,316887.75,291410.0625,240083.859375,275295.90625,247050.265625,243291.234375,115462.0,1.0,3
230910.96875,271883.15625,318290.28125,291861.75,241344.21875,275872.5625,247551.75,243944.984375,115463.0,1.0,3
231610.9375,272886.28125,319339.46875,292114.875,242927.171875,276536.34375,248005.40625,244509.234375,115464.0,1.0,3
231367.75,272279.9375,318589.09375,291818.3125,242657.515625,276380.9375,247797.359375,244214.1875,115465.0,1.0,3
230510.6875,270898.78125,317077.75,291384.875,240910.328125,275621.34375,247218.4375,243467.90625,115466.0,1.0,3
230221.28125,270646.8125,316889.28125,291410.78125,240094.9375,275313.15625,247075.125,243302.6875,115467.0,1.0,3
230906.578125,271880.65625,318288.5,291859.53125,241346.015625,275882.59375,247565.078125,243952.5,115468.0,1.0,3
231607.359375,272883.875,319334.46875,292107.375,242924.765625,276538.46875,248009.609375,244513.703125,115469.0,1.0,3
231367.484375,272281.625,318587.28125,291808.46875,242655.828125,276373.625,247787.96875,244208.203125,115470.0,1.0,3
230514.53125,270897.34375,317073.5625,291372.71875,240911.859375,275607.21875,247201.71875,243458.515625,115471.0,1.0,3
230221.640625,270636.46875,316872.5625,291394.25,240087.515625,275292.40625,247055.546875,243291.234375,115472.0,1.0,3
230908.640625,271873.59375,318275.34375,291850.5,241339.671875,275874.375,247561.046875,243952.21875,115473.0,1.0,3
231612.546875,272882.625,319336.71875,292104.78125,242926.640625,276538.84375,248019.265625,244518.34375,115474.0,1.0,3
231382.046875,272292.625,318602.0625,291814.8125,242672.359375,276385.6875,247811.5625,244224.015625,115475.0,1.0,3
230526.34375,270910.9375,317090.4375,291383.96875,240929.46875,275628.125,247235.875,243482.03125,115476.0,1.0,3
230232.640625,270644.59375,316885.4375,291405.6875,240095.390625,275306.625,247075.84375,243302.6875,115477.0,1.0,3
230908.28125,271862.40625,318273.5625,291847.53125,241329.828125,275864.09375,247553.890625,243935.234375,115478.0,1.0,3
231614.6875,272880.75,319340.625,292106.375,242924.40625,276534.53125,248023.546875,244516.296875,115479.0,1.0,3
231390.640625,272300.84375,318615.28125,291820.46875,242686.9375,276391.75,247820.328125,244229.5625,115480.0,1.0,3
230531.875,270907.1875,317092.9375,291379.84375,240943.140625,275619.5625,247220.859375,243473.0,115481.0,1.0,3
230226.375,270622.78125,316870.6875,291397.03125,240098.34375,275288.9375,247058.21875,243292.140625,115482.0,1.0,3
230900.328125,271841.5625,318257.75,291845.65625,241327.328125,275856.125,247553.8125,243938.1875,115483.0,1.0,3
231605.484375,272861.0,319330.0,292105.84375,242921.984375,276528.65625,248019.796875,244514.421875,115484.0,1.0,3
231384.203125,272287.71875,318613.3125,291820.53125,242689.984375,276386.40625,247815.953125,244232.34375,115485.0,1.0,3
230530.984375,270903.15625,317094.03125,291381.375,240947.53125,275621.4375,247220.765625,243476.3125,115486.0,1.0,3
230217.875,270609.71875,316862.53125,291393.34375,240089.75,275287.125,247046.59375,243281.5,115487.0,1.0,3
230879.140625,271821.1875,318246.03125,291841.65625,241307.5625,275849.59375,247539.6875,243922.984375,115488.0,1.0,3
231604.671875,272865.28125,319333.5,292109.40625,242913.140625,276528.90625,248016.75,244512.8125,115489.0,1.0,3
231393.671875,272307.1875,318629.59375,291826.53125,242695.25,276394.34375,247820.0625,244234.296875,115490.0,1.0,3
230533.046875,270915.9375,317104.46875,291381.75,240955.390625,275625.09375,247221.03125,243471.390625,115491.0,1.0,3
230214.75,270619.75,316865.59375,291392.03125,240091.28125,275288.46875,247053.484375,243283.375,115492.0,1.0,3
230881.8125,271837.28125,318244.96875,291839.21875,241304.890625,275849.25,247541.203125,243919.5,115493.0,1.0,3
231600.375,272872.4375,319330.53125,292104.3125,242909.734375,276514.6875,248011.578125,244504.046875,115494.0,1.0,3
231390.71875,272314.1875,318630.3125,291820.71875,242700.4375,276383.1875,247822.03125,244232.6875,115495.0,1.0,3
230540.1875,270932.5625,317107.625,291378.34375,240967.109375,275627.25,247231.140625,243474.96875,115496.0,1.0,3
230224.671875,270634.3125,316861.46875,291391.3125,240099.953125,275290.625,247062.421875,243286.046875,115497.0,1.0,3
230881.734375,271837.71875,318230.5625,291835.21875,241302.5625,275845.21875,247546.296875,243919.5,115498.0,1.0,3
231601.453125,272880.5625,319319.1875,292100.9375,242909.46875,276523.09375,248016.84375,244503.78125,115499.0,1.0,3
231393.765625,272326.875,318623.875,291821.625,242710.359375,276395.78125,247825.25,244234.75,115500.0,1.0,3
230536.265625,270935.875,317099.5625,291381.75,240979.71875,275642.96875,247241.6875,243485.34375,115501.0,1.0,3
230214.75,270625.46875,316841.8125,291385.03125,240098.6875,275292.6875,247057.953125,243287.21875,115502.0,1.0,3
230874.484375,271827.90625,318210.0,291828.0625,241297.203125,275841.375,247540.75,243921.109375,115503.0,1.0,3
231599.21875,272876.1875,319309.78125,292096.375,242912.15625,276523.71875,248013.71875,244503.328125,115504.0,1.0,3
231403.421875,272339.5625,318629.75,291824.03125,242728.875,276410.53125,247831.6875,244243.25,115505.0,1.0,3
230546.71875,270948.84375,317104.75,291383.78125,240997.328125,275652.625,247247.046875,243494.90625,115506.0,1.0,3
230214.03125,270627.59375,316838.75,291388.34375,240104.5,275305.09375,247069.484375,243290.796875,115507.0,1.0,3
230860.265625,271819.40625,318201.40625,291830.90625,241289.59375,275849.96875,247545.140625,243916.46875,115508.0,1.0,3
231585.1875,272870.28125,319305.15625,292104.84375,242905.359375,276530.53125,248023.90625,244511.828125,115509.0,1.0,3
231389.5625,272340.375,318632.09375,291834.84375,242726.8125,276416.4375,247847.515625,244252.1875,115510.0,1.0,3
230537.515625,270956.625,317110.375,291394.53125,240999.296875,275661.3125,247262.25,243492.765625,115511.0,1.0,3
230202.765625,270627.59375,316836.09375,291390.40625,240096.90625,275303.78125,247074.5,243280.78125,115512.0,1.0,3
230853.03125,271819.5625,318196.78125,291831.4375,241276.90625,275848.53125,247545.671875,243909.40625,115513.0,1.0,3
231579.8125,272877.25,319308.8125,292105.65625,242897.046875,276532.75,248025.515625,244509.859375,115514.0,1.0,3
231390.09375,272352.09375,318643.625,291832.25,242727.34375,276417.40625,247841.78125,244251.65625,115515.0,1.0,3
230539.296875,270964.5,317120.40625,291388.71875,240998.390625,275660.15625,247244.546875,243496.34375,115516.0,1.0,3
230201.875,270630.5625,316842.59375,291384.40625,240088.59375,275303.59375,247055.28125,243284.09375,115517.0,1.0,3
230853.125,271821.90625,318201.3125,291825.1875,241265.546875,275847.0,247534.578125,243912.625,115518.0,1.0,3
231588.578125,272887.375,319314.625,292099.84375,242891.6875,276530.6875,248012.28125,244507.0,115519.0,1.0,3
231402.4375,272372.5625,318657.5625,291831.0,242738.25,276429.5,247839.1875,244257.90625,115520.0,1.0,3
230553.875,270984.4375,317135.3125,291388.96875,241020.296875,275669.96875,247255.640625,243512.703125,115521.0,1.0,3
230209.5625,270635.84375,316839.5625,291381.75,240100.9375,275307.25,247068.78125,243290.609375,115522.0,1.0,3
230854.8125,271819.40625,318190.40625,291822.0625,241266.4375,275845.9375,247540.75,243910.109375,115523.0,1.0,3
231588.3125,272884.3125,319313.71875,292099.59375,242899.1875,276529.1875,248014.34375,244511.90625,115524.0,1.0,3
231412.0,272379.34375,318669.5625,291836.28125,242759.890625,276435.75,247846.96875,244265.6875,115525.0,1.0,3
230557.0,270981.46875,317139.15625,291390.125,241034.78125,275675.96875,247257.953125,243512.515625,115526.0,1.0,3
230210.375,270626.625,316837.875,291382.0,240105.84375,275309.125,247069.9375,243292.140625,115527.0,1.0,3
230853.484375,271804.1875,318185.6875,291824.65625,241263.578125,275842.25,247541.203125,243913.78125,115528.0,1.0,3
231591.265625,272873.78125,319312.21875,292104.0625,242894.09375,276527.21875,248019.078125,244513.796875,115529.0,1.0,3
231417.640625,272369.25,318673.40625,291838.25,242759.53125,276430.03125,247848.578125,244266.484375,115530.0,1.0,3
230564.421875,270975.40625,317145.6875,291396.03125,241043.015625,275677.5625,247263.0625,243517.171875,115531.0,1.0,3
230210.46875,270614.46875,316833.125,291386.21875,240104.0625,275308.3125,247070.46875,243293.203125,115532.0,1.0,3
230850.703125,271794.71875,318182.375,291829.5625,241254.8125,275848.15625,247554.875,243914.40625,115533.0,1.0,3
231583.21875,272871.28125,319320.0,292113.625,242891.59375,276539.0,248045.640625,244524.609375,115534.0,1.0,3
231409.40625,272375.5,318684.84375,291846.21875,242765.796875,276436.65625,247855.828125,244273.734375,115535.0,1.0,3
230564.875,270990.0625,317153.75,291396.65625,241051.859375,275681.5,247258.9375,243510.90625,115536.0,1.0,3
230207.15625,270617.3125,316832.5,291378.96875,240104.0625,275304.5625,247059.390625,243281.21875,115537.0,1.0,3
230838.71875,271785.6875,318174.875,291818.40625,241245.421875,275833.5,247533.15625,243899.828125,115538.0,1.0,3
231578.296875,272868.59375,319318.1875,292106.8125,242888.734375,276528.90625,248027.484375,244508.25,115539.0,1.0,3
231415.75,272385.15625,318694.84375,291843.875,242777.328125,276439.6875,247859.671875,244270.15625,115540.0,1.0,3
230574.171875,271002.21875,317167.96875,291398.28125,241068.046875,275690.28125,247278.078125,243523.078125,115541.0,1.0,3
230212.96875,270625.375,316837.15625,291377.71875,240111.5625,275311.46875,247075.75,243292.40625,115542.0,1.0,3
230842.484375,271790.25,318169.84375,291811.96875,241242.75,275836.28125,247537.171875,243908.328125,115543.0,1.0,3
231575.34375,272874.5,319312.3125,292094.75,242880.421875,276535.875,248028.015625,244506.015625,115544.0,1.0,3
231413.796875,272397.875,318694.3125,291833.40625,242774.734375,276445.84375,247862.796875,244266.84375,115545.0,1.0,3
230579.984375,271011.875,317166.96875,291388.1875,241068.21875,275685.4375,247267.53125,243511.890625,115546.0,1.0,3
230218.328125,270625.0,316832.0625,291376.8125,240108.625,275312.15625,247072.703125,243278.71875,115547.0,1.0,3
230837.734375,271779.78125,318157.53125,291811.15625,241227.453125,275830.8125,247537.0,243887.671875,115548.0,1.0,3
231574.90625,272865.46875,319305.78125,292097.09375,242867.890625,276514.34375,248013.53125,244498.859375,115549.0,1.0,3
231425.140625,272397.6875,318699.9375,291844.15625,242777.59375,276435.84375,247861.8125,244278.46875,115550.0,1.0,3
230585.25,271010.34375,317168.21875,291395.9375,241069.46875,275680.875,247265.203125,243517.890625,115551.0,1.0,3
230211.0,270610.25,316816.875,291374.125,240092.265625,275296.0,247054.203125,243275.140625,115552.0,1.0,3
230838.015625,271768.0,318140.34375,291811.78125,241209.75,275818.65625,247514.46875,243880.875,115553.0,1.0,3
231580.984375,272859.65625,319293.96875,292101.46875,242859.671875,276513.25,248003.4375,244494.03125,115554.0,1.0,3
231434.71875,272398.9375,318699.9375,291851.9375,242782.515625,276436.90625,247857.515625,244280.265625,115555.0,1.0,3
230589.640625,271010.34375,317174.3125,291409.09375,241082.34375,275693.84375,247278.515625,243534.421875,115556.0,1.0,3
230215.375,270608.1875,316817.40625,291380.65625,240100.21875,275303.0625,247066.265625,243281.859375,115557.0,1.0,3
230832.109375,271756.8125,318136.5,291812.0625,241208.6875,275814.1875,247529.3125,243891.25,115558.0,1.0,3
231576.421875,272856.59375,319298.71875,292102.71875,242861.8125,276513.0,248013.890625,244503.0625,115559.0,1.0,3
231439.453125,272410.03125,318711.40625,291852.71875,242792.171875,276445.40625,247858.953125,244281.59375,115560.0,1.0,3
230599.46875,271024.5625,317183.53125,291406.40625,241096.03125,275701.4375,247280.21875,243537.28125,115561.0,1.0,3
230216.1875,270609.09375,316813.5625,291375.65625,240102.984375,275302.5,247061.890625,243287.390625,115562.0,1.0,3
230835.6875,271757.53125,318127.5625,291807.5,241206.171875,275813.46875,247520.1875,243884.71875,115563.0,1.0,3
231581.34375,272860.8125,319297.625,292101.5625,242865.75,276513.09375,248012.109375,244499.84375,115564.0,1.0,3
231441.78125,272416.46875,318722.125,291855.40625,242808.359375,276448.4375,247862.171875,244291.4375,115565.0,1.0,3
230599.5625,271027.15625,317191.375,291408.125,241111.5,275707.0,247285.140625,243551.859375,115566.0,1.0,3
230214.390625,270604.0,316808.8125,291368.5,240103.34375,275303.84375,247059.390625,243280.59375,115567.0,1.0,3
230827.015625,271747.5,318118.625,291798.28125,241195.453125,275810.4375,247515.8125,243879.09375,115568.0,1.0,3
231584.109375,272864.3125,319294.15625,292096.53125,242857.171875,276510.84375,248008.703125,244497.25,115569.0,1.0,3
231444.90625,272419.5,318720.78125,291848.0,242806.296875,276446.65625,247862.4375,244278.296875,115570.0,1.0,3
230604.65625,271025.28125,317190.21875,291401.3125,241114.71875,275712.71875,247287.734375,243535.5,115571.0,1.0,3
230222.625,270597.90625,316806.9375,291371.0,240105.84375,275315.21875,247071.8125,243280.515625,115572.0,1.0,3
230829.421875,271731.4375,318107.71875,291798.28125,241184.359375,275809.8125,247520.8125,243872.65625,115573.0,1.0,3
231587.421875,272851.25,319290.46875,292098.25,242851.265625,276515.9375,248023.734375,244505.125,115574.0,1.0,3
231459.75,272423.25,318726.6875,291854.4375,242816.484375,276458.1875,247879.0625,244305.109375,115575.0,1.0,3
230615.828125,271027.53125,317186.28125,291400.96875,241120.609375,275713.4375,247290.6875,243544.34375,115576.0,1.0,3
230216.359375,270589.78125,316786.90625,291362.96875,240093.875,275310.375,247070.65625,243272.640625,115577.0,1.0,3
230821.828125,271730.96875,318092.6875,291796.9375,241170.328125,275815.25,247529.578125,243868.625,115578.0,1.0,3
231580.984375,272854.8125,319280.46875,292096.1875,242840.890625,276511.03125,248016.578125,244492.953125,115579.0,1.0,3
231459.65625,272435.0625,318725.0625,291850.6875,242814.96875,276452.90625,247872.546875,244287.59375,115580.0,1.0,3
230613.6875,271039.59375,317188.78125,291400.5,241128.3125,275714.59375,247294.171875,243542.03125,115581.0,1.0,3
230213.140625,270591.40625,316779.75,291357.875,240097.53125,275299.125,247061.53125,243269.15625,115582.0,1.0,3
230817.359375,271721.84375,318076.59375,291789.53125,241164.875,275795.40625,247504.1875,243861.125,115583.0,1.0,3
231573.828125,272847.9375,319270.0,292093.3125,242840.71875,276507.1875,248008.796875,244496.984375,115584.0,1.0,3
231454.921875,272439.25,318730.34375,291856.75,242833.03125,276468.90625,247885.15625,244305.203125,115585.0,1.0,3
230618.875,271057.21875,317197.5625,291405.53125,241149.578125,275724.96875,247302.9375,243550.875,115586.0,1.0,3
230211.265625,270597.46875,316777.4375,291356.34375,240107.28125,275301.0,247057.78125,243271.75,115587.0,1.0,3
230808.328125,271717.03125,318064.8125,291780.84375,241164.0625,275790.59375,247496.3125,243858.703125,115588.0,1.0,3
231567.75,272850.34375,319264.375,292084.03125,242840.359375,276501.5625,247998.34375,244486.34375,115589.0,1.0,3
231456.171875,272450.0,318733.46875,291852.5625,242842.234375,276464.90625,247878.09375,244300.734375,115590.0,1.0,3
230618.25,271060.25,317199.53125,291402.3125,241160.671875,275724.6875,247299.796875,243556.0625,115591.0,1.0,3
230202.6875,270590.0625,316771.0,291354.75,240106.734375,275306.1875,247060.109375,243272.375,115592.0,1.0,3
230790.265625,271704.15625,318053.8125,291778.78125,241152.09375,275795.59375,247498.734375,243850.65625,115593.0,1.0,3
231557.734375,272846.6875,319261.78125,292087.25,242833.203125,276507.53125,248008.0,244487.328125,115594.0,1.0,3
231452.59375,272451.59375,318739.75,291855.3125,242842.421875,276470.875,247881.578125,244302.875,115595.0,1.0,3
230613.234375,271060.875,317206.75,291405.59375,241166.21875,275737.84375,247301.40625,243551.859375,115596.0,1.0,3
230198.21875,270588.25,316770.53125,291355.8125,240109.0625,275306.0,247057.421875,243263.703125,115597.0,1.0,3
230792.859375,271703.53125,318053.0,291782.90625,241150.84375,275792.5625,247498.28125,243844.671875,115598.0,1.0,3
231557.375,272843.03125,319263.46875,292093.15625,242834.8125,276509.78125,248004.78125,244481.609375,115599.0,1.0,3
231460.734375,272461.78125,318749.21875,291864.90625,242856.90625,276479.75,247891.5,244304.578125,115600.0,1.0,3
230621.734375,271068.8125,317212.84375,291410.34375,241179.796875,275736.59375,247308.296875,243561.96875,115601.0,1.0,3
230196.96875,270585.40625,316770.90625,291360.1875,240112.546875,275309.40625,247066.359375,243281.3125,115602.0,1.0,3
230785.171875,271695.65625,318045.21875,291780.03125,241144.9375,275785.84375,247491.125,243850.75,115603.0,1.0,3
231556.9375,272843.8125,319257.84375,292085.5625,242831.421875,276498.4375,247994.21875,244477.84375,115604.0,1.0,3
231459.03125,272461.78125,318749.40625,291858.46875,242865.84375,276471.96875,247886.3125,244308.25,115605.0,1.0,3
230622.265625,271073.5625,317215.34375,291406.78125,241196.4375,275737.65625,247308.5625,243571.984375,115606.0,1.0,3
230197.046875,270582.8125,316759.625,291345.875,240117.296875,275301.625,247049.109375,243266.203125,115607.0,1.0,3
230781.6875,271688.5,318028.78125,291769.6875,241142.34375,275778.59375,247488.453125,243839.84375,115608.0,1.0,3
231551.390625,272836.9375,319247.65625,292081.6875,242828.828125,276494.3125,247993.515625,244475.171875,115609.0,1.0,3
231462.25,272467.25,318748.40625,291854.53125,242869.421875,276474.46875,247880.328125,244302.609375,115610.0,1.0,3
230631.296875,271080.375,317214.0,291399.34375,241202.875,275740.875,247301.59375,243558.5625,115611.0,1.0,3
230203.484375,270582.4375,316756.0625,291341.5,240122.390625,275303.21875,247051.875,243263.875,115612.0,1.0,3
230778.546875,271674.90625,318022.15625,291764.75,241135.90625,275779.15625,247487.734375,243840.203125,115613.0,1.0,3
231550.5,272832.03125,319250.0625,292084.21875,242826.5,276508.4375,248012.546875,244491.703125,115614.0,1.0,3
231462.703125,272465.625,318751.0,291855.59375,242870.578125,276474.46875,247890.953125,244313.078125,115615.0,1.0,3
230632.640625,271077.3125,317214.8125,291401.84375,241207.15625,275734.09375,247307.140625,243566.4375,115616.0,1.0,3
230203.125,270575.125,316746.75,291343.65625,240115.59375,275292.0625,247050.0,243272.640625,115617.0,1.0,3
230772.921875,271662.125,318008.03125,291763.5,241121.6875,275769.40625,247481.125,243837.78125,115618.0,1.0,3
231548.34375,272824.15625,319241.84375,292081.625,242815.765625,276494.3125,248002.625,244479.015625,115619.0,1.0,3
231463.40625,272465.8125,318758.40625,291860.5,242872.71875,276471.96875,247884.703125,244311.375,115620.0,1.0,3
230631.65625,271081.875,317226.0,291409.4375,241211.1875,275735.5,247302.75,243573.765625,115621.0,1.0,3
230189.8125,270567.78125,316745.875,291345.53125,240109.953125,275291.4375,247047.140625,243263.25,115622.0,1.0,3
230756.65625,271651.03125,318001.6875,291765.375,241105.78125,275765.28125,247487.46875,243827.6875,115623.0,1.0,3
231541.203125,272822.71875,319242.5625,292087.59375,242801.734375,276488.21875,247999.234375,244478.03125,115624.0,1.0,3
231467.609375,272476.375,318770.59375,291870.96875,242875.046875,276473.21875,247878.71875,244317.1875,115625.0,1.0,3
230641.046875,271093.0625,317236.625,291414.71875,241219.859375,275744.28125,247303.5625,243573.3125,115626.0,1.0,3
230200.09375,270574.6875,316749.53125,291348.65625,240113.0,275303.78125,247047.9375,243266.828125,115627.0,1.0,3
230762.453125,271655.34375,318000.59375,291768.59375,241102.46875,275772.625,247476.203125,243830.546875,115628.0,1.0,3
231544.328125,272825.0625,319241.75,292086.0,242800.84375,276478.21875,247983.859375,244475.171875,115629.0,1.0,3
231475.21875,272485.9375,318778.71875,291868.90625,242884.4375,276471.34375,247886.125,244324.15625,115630.0,1.0,3
230643.90625,271098.59375,317244.125,291413.375,241231.390625,275744.46875,247310.265625,243581.640625,115631.0,1.0,3
230193.75,270569.75,316746.84375,291343.28125,240114.4375,275295.1875,247050.359375,243268.265625,115632.0,1.0,3
230759.515625,271649.34375,317989.875,291760.375,241093.34375,275756.53125,247470.84375,243827.0625,115633.0,1.0,3
231541.828125,272823.25,319236.46875,292081.78125,242794.765625,276480.28125,247988.234375,244477.484375,115634.0,1.0,3
231478.078125,272493.53125,318783.28125,291870.25,242892.84375,276485.09375,247900.4375,244331.046875,115635.0,1.0,3
230652.671875,271109.0625,317251.46875,291416.34375,241248.296875,275756.875,247324.390625,243594.328125,115636.0,1.0,3
230200.984375,270573.0625,316743.1875,291341.9375,240121.5,275300.71875,247052.953125,243273.0,115637.0,1.0,3
230757.625,271640.0625,317977.71875,291751.875,241090.484375,275754.65625,247464.3125,243815.796875,115638.0,1.0,3
231536.09375,272812.4375,319227.71875,292074.5625,242792.265625,276477.78125,247984.03125,244469.171875,115639.0,1.0,3
231479.140625,272492.8125,318779.96875,291864.625,242896.953125,276482.875,247893.015625,244328.1875,115640.0,1.0,3
230655.796875,271109.25,317245.46875,291411.6875,241254.453125,275755.90625,247318.40625,243592.625,115641.0,1.0,3
230204.734375,270566.625,316734.4375,291340.78125,240125.0625,275300.90625,247054.5625,243280.0625,115642.0,1.0,3
230761.125,271631.8125,317967.96875,291754.125,241087.09375,275754.90625,247469.046875,243824.734375,115643.0,1.0,3
231540.484375,272808.96875,319221.90625,292077.6875,242791.09375,276475.71875,247983.140625,244471.859375,115644.0,1.0,3
231487.015625,272495.59375,318785.34375,291870.53125,242903.921875,276480.90625,247892.03125,244330.0625,115645.0,1.0,3
230665.984375,271113.53125,317252.71875,291416.5,241266.265625,275756.0,247314.28125,243588.515625,115646.0,1.0,3
230199.46875,270558.40625,316727.28125,291337.65625,240122.203125,275296.0,247043.5625,243263.53125,115647.0,1.0,3
230751.90625,271625.375,317958.84375,291754.46875,241075.203125,275754.75,247472.796875,243816.5,115648.0,1.0,3
231545.3125,272818.4375,319226.375,292083.59375,242783.5,276484.375,247996.375,244474.984375,115649.0,1.0,3
231497.296875,272512.03125,318799.0,291875.53125,242908.484375,276491.1875,247901.421875,244337.21875,115650.0,1.0,3
230674.21875,271128.375,317267.03125,291422.40625,241273.0625,275764.46875,247324.5625,243599.78125,115651.0,1.0,3
230204.5625,270564.125,316733.0,291340.96875,240119.265625,275293.75,247040.15625,243266.828125,115652.0,1.0,3
230748.328125,271618.3125,317956.1875,291754.75,241059.46875,275742.125,247450.8125,243809.625,115653.0,1.0,3
231549.6875,272819.78125,319232.0,292089.3125,242777.78125,276476.78125,247979.921875,244467.296875,115654.0,1.0,3
231506.953125,272523.84375,318816.0,291886.25,242917.34375,276492.53125,247899.359375,244340.25,115655.0,1.0,3
230678.859375,271136.15625,317279.71875,291423.65625,241281.1875,275772.09375,247323.21875,243594.59375,115656.0,1.0,3
230211.09375,270571.28125,316739.6875,291339.8125,240121.859375,275301.1875,247047.234375,243262.984375,115657.0,1.0,3
230751.546875,271619.21875,317955.8125,291753.125,241057.140625,275741.9375,247459.84375,243809.53125,115658.0,1.0,3
231540.296875,272811.0,319227.28125,292084.21875,242770.890625,276464.34375,247979.03125,244467.921875,115659.0,1.0,3
231505.171875,272522.59375,318817.15625,291882.875,242918.59375,276483.125,247899.546875,244342.3125,115660.0,1.0,3
230687.1875,271139.0,317281.34375,291422.40625,241288.703125,275762.96875,247324.125,243599.515625,115661.0,1.0,3
230210.28125,270556.71875,316727.09375,291333.1875,240121.5,275292.40625,247043.65625,243261.46875,115662.0,1.0,3
230748.25,271597.59375,317934.625,291743.84375,241043.640625,275730.6875,247451.609375,243804.4375,115663.0,1.0,3
231542.359375,272796.875,319212.96875,292079.8125,242757.296875,276466.875,247989.578125,244471.140625,115664.0,1.0,3
231511.421875,272520.15625,318815.46875,291885.53125,242919.390625,276497.71875,247919.21875,244355.546875,115665.0,1.0,3
230691.375,271138.375,317280.4375,291423.03125,241296.75,275772.625,247334.046875,243606.40625,115666.0,1.0,3
230207.875,270554.28125,316717.25,291330.78125,240119.265625,275299.125,247049.015625,243257.359375,115667.0,1.0,3
230735.28125,271586.5,317916.375,291736.0625,241030.40625,275728.375,247455.1875,243794.59375,115668.0,1.0,3
231527.515625,272786.875,319196.6875,292070.09375,242748.1875,276454.25,247971.6875,244461.390625,115669.0,1.0,3
231504.359375,272522.3125,318810.46875,291880.96875,242926.015625,276495.21875,247912.0625,244359.203125,115670.0,1.0,3
230687.71875,271145.625,317281.59375,291423.125,241311.046875,275782.375,247335.390625,243615.703125,115671.0,1.0,3
230203.9375,270550.28125,316708.6875,291326.3125,240122.484375,275295.09375,247036.5,243259.765625,115672.0,1.0,3
230732.421875,271580.78125,317903.25,291731.125,241023.96875,275727.1875,247435.25,243786.734375,115673.0,1.0,3
231526.4375,272788.40625,319191.6875,292069.625,242744.0625,276461.0625,247971.875,244457.828125,115674.0,1.0,3
231502.921875,272523.46875,318810.625,291875.8125,242925.390625,276489.65625,247903.5625,244354.5625,115675.0,1.0,3
230693.078125,271155.46875,317286.875,291424.84375,241320.265625,275784.5,247337.625,243626.78125,115676.0,1.0,3
230207.875,270560.28125,316706.71875,291327.71875,240129.984375,275300.375,247040.96875,243261.109375,115677.0,1.0,3
230733.40625,271585.875,317897.53125,291733.375,241025.9375,275725.40625,247442.765625,243792.640625,115678.0,1.0,3
231528.40625,272796.53125,319189.90625,292072.5,242744.78125,276459.625,247972.671875,244460.234375,115679.0,1.0,3
231508.734375,272542.78125,318817.0625,291878.84375,242934.6875,276504.59375,247909.828125,244347.578125,115680.0,1.0,3
230701.484375,271170.125,317290.4375,291421.875,241328.9375,275799.8125,247348.703125,243614.984375,115681.0,1.0,3
230205.90625,270554.8125,316698.5,291322.71875,240124.984375,275299.65625,247042.578125,243256.1875,115682.0,1.0,3
230721.25,271567.375,317882.59375,291726.03125,241006.796875,275716.1875,247434.8125,243785.390625,115683.0,1.0,3
231518.75,272782.3125,319183.28125,292068.84375,242731.375,276453.4375,247974.109375,244463.28125,115684.0,1.0,3
231507.21875,272535.625,318821.1875,291879.71875,242934.5,276500.125,247913.484375,244348.03125,115685.0,1.0,3
230694.25,271157.34375,317291.15625,291418.3125,241326.703125,275787.375,247338.78125,243605.328125,115686.0,1.0,3
230190.4375,270535.96875,316694.625,291314.59375,240113.09375,275284.90625,247030.328125,243243.671875,115687.0,1.0,3
230709.625,271553.21875,317881.4375,291723.4375,240994.109375,275705.75,247430.34375,243774.125,115688.0,1.0,3
231519.46875,272782.3125,319191.78125,292073.46875,242725.734375,276455.5,247980.28125,244456.484375,115689.0,1.0,3
231517.0625,272549.0625,318840.9375,291889.46875,242943.0,276509.96875,247923.59375,244355.71875,115690.0,1.0,3
230701.65625,271171.46875,317310.75,291426.34375,241339.9375,275795.6875,247344.5,243614.09375,115691.0,1.0,3
230208.140625,270555.28125,316707.34375,291326.5625,240124.265625,275297.5,247039.8125,243258.875,115692.0,1.0,3
230722.9375,271560.84375,317877.9375,291728.1875,240987.21875,275705.90625,247422.734375,243777.4375,115693.0,1.0,3
231524.75,272779.90625,319184.28125,292074.1875,242715.640625,276446.3125,247961.5,244447.453125,115694.0,1.0,3
231526.796875,272553.53125,318841.84375,291891.71875,242942.734375,276506.375,247914.203125,244355.890625,115695.0,1.0,3
230722.578125,271187.03125,317316.90625,291432.6875,241350.03125,275799.15625,247351.65625,243624.546875,115696.0,1.0,3
230211.09375,270549.0,316703.3125,291326.46875,240120.953125,275297.0625,247045.96875,243263.53125,115697.0,1.0,3
230722.9375,271550.09375,317869.8125,291724.96875,240977.125,275708.0625,247426.84375,243775.375,115698.0,1.0,3
231535.203125,272782.9375,319183.46875,292071.78125,242712.59375,276448.28125,247964.8125,244449.0625,115699.0,1.0,3
231538.875,272565.5,318851.40625,291893.15625,242956.234375,276508.96875,247919.921875,244360.28125,115700.0,1.0,3
230725.0,271188.09375,317320.84375,291429.9375,241363.625,275799.96875,247348.796875,243626.515625,115701.0,1.0,3
230217.25,270548.3125,316695.8125,291318.25,240129.984375,275297.25,247041.5,243252.609375,115702.0,1.0,3
230721.328125,271543.21875,317853.8125,291716.03125,240976.5,275702.875,247425.515625,243766.609375,115703.0,1.0,3
231526.359375,272774.90625,319168.34375,292063.8125,242708.9375,276442.0,247963.734375,244447.453125,115704.0,1.0,3
231534.21875,272560.84375,318841.46875,291885.09375,242954.984375,276506.5625,247914.5625,244358.578125,115705.0,1.0,3
230719.359375,271184.25,317314.59375,291423.3125,241365.6875,275799.8125,247345.84375,243622.40625,115706.0,1.0,3
230206.34375,270538.65625,316683.375,291309.21875,240124.71875,275292.9375,247033.90625,243248.765625,115707.0,1.0,3
230709.265625,271527.9375,317836.8125,291700.90625,240961.46875,275692.96875,247416.484375,243758.484375,115708.0,1.0,3
231515.890625,272763.71875,319158.15625,292055.0625,242698.46875,276434.125,247959.890625,244440.5625,115709.0,1.0,3
231522.328125,272556.65625,318843.53125,291882.40625,242954.53125,276505.125,247922.609375,244363.9375,115710.0,1.0,3
230720.625,271194.71875,317324.78125,291424.125,241374.984375,275807.75,247359.96875,243632.5,115711.0,1.0,3
230204.828125,270544.09375,316684.09375,291308.34375,240123.640625,275291.34375,247042.21875,243252.171875,115712.0,1.0,3
230694.25,271521.75,317829.40625,291701.8125,240946.8125,275682.6875,247413.96875,243758.921875,115713.0,1.0,3
231504.8125,272761.75,319159.5,292058.90625,242688.375,276431.09375,247964.625,244447.546875,115714.0,1.0,3
231532.25,272576.5,318859.1875,291890.71875,242966.515625,276514.59375,247935.3125,244370.65625,115715.0,1.0,3
230730.359375,271212.15625,317334.25,291428.21875,241390.890625,275813.75,247359.890625,243635.453125,115716.0,1.0,3
230205.359375,270546.59375,316681.3125,291309.3125,240134.640625,275295.625,247037.21875,243251.0,115717.0,1.0,3
230687.359375,271517.90625,317821.4375,291700.84375,240953.875,275687.0625,247417.1875,243756.875,115718.0,1.0,3
231499.53125,272763.09375,319153.59375,292057.84375,242695.078125,276431.90625,247957.65625,244446.46875,115719.0,1.0,3
231533.328125,272583.65625,318864.46875,291894.03125,242979.5625,276517.46875,247927.890625,244384.234375,115720.0,1.0,3
230734.46875,271220.625,317344.0,291431.71875,241410.46875,275822.6875,247364.0,243645.46875,115721.0,1.0,3
230199.90625,270539.53125,316675.34375,291303.15625,240137.140625,275286.4375,247018.609375,243238.3125,115722.0,1.0,3
230691.828125,271514.15625,317811.59375,291702.71875,240947.171875,275681.59375,247403.328125,243751.6875,115723.0,1.0,3
231504.359375,272761.75,319144.5625,292058.28125,242687.109375,276429.3125,247948.71875,244435.375,115724.0,1.0,3
231531.359375,272579.4375,318853.1875,291889.75,242978.3125,276511.3125,247914.03125,244363.140625,115725.0,1.0,3
230739.125,271221.8125,317340.6875,291437.78125,241421.296875,275822.96875,247360.234375,243649.5,115726.0,1.0,3
230211.984375,270546.5,316670.84375,291311.46875,240146.078125,275295.375,247030.953125,243252.96875,115727.0,1.0,3
230693.96875,271508.25,317796.9375,291701.375,240939.65625,275681.59375,247402.359375,243750.609375,115728.0,1.0,3
231507.21875,272757.375,319141.09375,292064.0,242680.328125,276429.9375,247950.0625,244445.03125,115729.0,1.0,3
231546.203125,272594.375,318867.84375,291904.84375,242981.71875,276523.53125,247932.265625,244392.015625,115730.0,1.0,3
230750.75,271237.4375,317346.875,291442.71875,241414.5,275829.75,247371.15625,243662.71875,115731.0,1.0,3
230210.90625,270550.96875,316668.8125,291313.6875,240132.671875,275306.53125,247044.359375,243258.25,115732.0,1.0,3
230692.359375,271515.25,317793.625,291701.8125,240926.515625,275689.65625,247417.375,243754.09375,115733.0,1.0,3
231505.609375,272769.25,319136.625,292060.78125,242666.546875,276435.46875,247964.09375,244443.34375,115734.0,1.0,3
231546.46875,272612.0,318867.9375,291900.28125,242979.390625,276534.0,247944.6875,244385.578125,115735.0,1.0,3
230745.46875,271249.59375,317349.90625,291437.96875,241422.015625,275843.6875,247383.125,243658.34375,115736.0,1.0,3
230207.15625,270561.53125,316669.53125,291310.5625,240133.5625,275317.1875,247055.8125,243260.125,115737.0,1.0,3
230687.71875,271524.90625,317791.84375,291703.0625,240917.75,275699.75,247426.140625,243750.703125,115738.0,1.0,3
231494.96875,272777.03125,319137.15625,292062.9375,242658.6875,276444.0625,247961.40625,244439.671875,115739.0,1.0,3
231542.625,272628.34375,318878.75,291905.84375,242983.59375,276542.3125,247939.328125,244391.21875,115740.0,1.0,3
230757.28125,271274.90625,317367.34375,291446.09375,241437.03125,275855.0625,247378.75,243671.671875,115741.0,1.0,3
230218.421875,270578.25,316679.34375,291314.78125,240144.828125,275325.84375,247047.046875,243265.765625,115742.0,1.0,3
230688.34375,271528.65625,317791.5,291702.25,240917.125,275704.75,247414.15625,243752.671875,115743.0,1.0,3
231504.984375,272784.375,319143.40625,292064.1875,242661.640625,276449.875,247957.65625,244450.578125,115744.0,1.0,3
231552.109375,272638.09375,318895.75,291910.9375,242995.921875,276552.59375,247943.625,244407.03125,115745.0,1.0,3
230766.84375,271285.28125,317382.53125,291446.8125,241448.734375,275859.78125,247378.5625,243671.390625,115746.0,1.0,3
230220.296875,270577.09375,316679.625,291309.6875,240146.796875,275324.34375,247037.125,243258.703125,115747.0,1.0,3
230677.703125,271509.78125,317782.46875,291694.84375,240906.671875,275694.84375,247395.015625,243741.9375,115748.0,1.0,3
231489.96875,272761.375,319135.625,292055.15625,242646.34375,276433.96875,247943.078125,244432.515625,115749.0,1.0,3
231548.34375,272624.96875,318892.96875,291903.15625,242989.3125,276545.90625,247940.671875,244398.09375,115750.0,1.0,3
230762.90625,271272.125,317383.0,291445.84375,241452.859375,275862.84375,247382.6875,243677.75,115751.0,1.0,3
230206.265625,270549.71875,316669.6875,291307.4375,240140.09375,275320.3125,247042.671875,243266.296875,115752.0,1.0,3
230674.75,271489.125,317769.125,291691.96875,240893.609375,275689.75,247409.421875,243747.9375,115753.0,1.0,3
231495.953125,272754.875,319131.59375,292056.125,242641.78125,276436.8125,247958.375,244446.640625,115754.0,1.0,3
231552.375,272622.8125,318898.53125,291905.03125,242997.984375,276548.40625,247948.1875,244406.59375,115755.0,1.0,3
230766.03125,271274.46875,317387.71875,291444.6875,241464.390625,275866.6875,247392.78125,243680.515625,115756.0,1.0,3
230215.921875,270558.65625,316672.28125,291306.90625,240148.5,275328.0,247055.09375,243267.71875,115757.0,1.0,3
230672.875,271483.40625,317763.9375,291688.21875,240887.09375,275684.8125,247408.609375,243745.34375,115758.0,1.0,3
231490.859375,272748.15625,319128.03125,292052.28125,242632.21875,276430.84375,247961.328125,244437.703125,115759.0,1.0,3
231556.484375,272630.84375,318909.25,291906.90625,243001.828125,276551.71875,247956.046875,244405.703125,115760.0,1.0,3
230774.984375,271283.40625,317399.0,291444.15625,241473.859375,275869.8125,247392.0625,243683.828125,115761.0,1.0,3
230217.171875,270558.3125,316672.375,291300.5625,240150.015625,275327.71875,247048.296875,243262.890625,115762.0,1.0,3
230668.046875,271481.09375,317756.34375,291680.8125,240880.5625,275681.4375,247396.8125,243733.09375,115763.0,1.0,3
231489.15625,272754.59375,319126.40625,292050.5,242630.796875,276427.25,247954.96875,244438.953125,115764.0,1.0,3
231558.09375,272651.59375,318921.0625,291909.0625,243013.453125,276558.5,247961.140625,244414.1875,115765.0,1.0,3
230778.46875,271306.125,317414.1875,291448.34375,241492.375,275878.5625,247395.828125,243687.578125,115766.0,1.0,3
230208.765625,270555.1875,316672.1875,291296.25,240154.390625,275313.78125,247030.78125,243253.234375,115767.0,1.0,3
230658.84375,271469.71875,317750.90625,291673.75,240877.703125,275671.5,247389.203125,243726.03125,115768.0,1.0,3
231484.59375,272747.25,319125.875,292044.59375,242628.640625,276429.03125,247953.546875,244431.0,115769.0,1.0,3
231562.109375,272648.5625,318922.9375,291903.875,243018.09375,276552.6875,247953.359375,244409.90625,115770.0,1.0,3
230779.8125,271298.4375,317413.84375,291443.4375,241499.078125,275871.21875,247396.453125,243695.265625,115771.0,1.0,3
230205.90625,270547.125,316665.75,291291.15625,240154.65625,275319.0625,247039.0,243253.515625,115772.0,1.0,3
230654.90625,271459.96875,317736.6875,291671.40625,240862.234375,275671.5,247389.390625,243716.546875,115773.0,1.0,3
231478.078125,272738.40625,319115.5,292048.0,242612.1875,276424.3125,247948.453125,244422.0625,115774.0,1.0,3
231562.109375,272646.6875,318924.53125,291911.21875,243012.921875,276553.84375,247955.0625,244408.5625,115775.0,1.0,3
230781.140625,271296.28125,317416.6875,291448.0625,241494.703125,275875.71875,247402.625,243692.5,115776.0,1.0,3
230212.515625,270545.15625,316662.90625,291297.25,240143.484375,275316.90625,247047.140625,243261.28125,115777.0,1.0,3
230664.03125,271460.53125,317729.09375,291677.9375,240848.375,275666.75,247392.96875,243727.28125,115778.0,1.0,3
231486.5625,272742.4375,319106.5625,292051.5625,242601.28125,276422.0625,247947.28125,244431.0,115779.0,1.0,3
231570.515625,272655.4375,318918.28125,291912.28125,243008.171875,276559.40625,247955.78125,244412.140625,115780.0,1.0,3
230795.71875,271314.6875,317414.1875,291450.03125,241502.65625,275891.25,247407.171875,243702.0625,115781.0,1.0,3
230222.890625,270555.625,316649.40625,291293.3125,240148.578125,275327.28125,247048.125,243274.25,115782.0,1.0,3
230652.671875,271445.84375,317701.28125,291661.9375,240834.515625,275664.15625,247384.46875,243716.640625,115783.0,1.0,3
231477.359375,272728.5,319087.8125,292037.0,242589.75,276419.46875,247936.5625,244415.71875,115784.0,1.0,3
231572.671875,272656.4375,318915.0625,291906.09375,243014.34375,276560.03125,247948.8125,244410.609375,115785.0,1.0,3
230804.75,271318.71875,317414.8125,291445.9375,241513.828125,275887.25,247396.890625,243695.53125,115786.0,1.0,3
230229.953125,270555.1875,316648.5,291290.1875,240157.4375,275327.625,247045.890625,243263.703125,115787.0,1.0,3
230655.171875,271439.34375,317695.46875,291656.9375,240836.84375,275661.21875,247385.359375,243714.3125,115788.0,1.0,3
231476.828125,272724.65625,319087.4375,292035.375,242597.0,276425.28125,247949.34375,244420.265625,115789.0,1.0,3
231577.578125,272661.4375,318923.03125,291905.65625,243032.40625,276565.84375,247964.984375,244419.203125,115790.0,1.0,3
230804.484375,271318.28125,317420.28125,291441.09375,241535.28125,275886.34375,247403.78125,243700.015625,115791.0,1.0,3
230221.453125,270542.5,316644.03125,291281.78125,240168.515625,275326.375,247050.359375,243255.203125,115792.0,1.0,3
230647.9375,271426.46875,317691.96875,291657.8125,240843.359375,275666.84375,247402.625,243716.375,115793.0,1.0,3
231476.46875,272717.5,319085.03125,292036.46875,242597.4375,276414.46875,247952.5625,244418.9375,115794.0,1.0,3
231573.109375,272650.96875,318925.34375,291905.40625,243036.25,276552.4375,247954.0,244415.078125,115795.0,1.0,3
230801.078125,271310.75,317428.5,291447.375,241547.796875,275886.15625,247403.78125,243709.21875,115796.0,1.0,3
230216.1875,270528.09375,316641.8125,291281.96875,240169.859375,275318.4375,247033.8125,243248.328125,115797.0,1.0,3
230630.5,271398.03125,317675.25,291646.375,240821.375,275642.09375,247362.125,243688.390625,115798.0,1.0,3
231461.796875,272701.21875,319073.03125,292030.46875,242575.171875,276397.3125,247926.09375,244401.9375,115799.0,1.0,3
231574.8125,272657.40625,318930.4375,291909.875,243029.546875,276552.4375,247950.5,244406.765625,115800.0,1.0,3
230807.703125,271322.125,317436.375,291453.4375,241549.140625,275894.65625,247415.5,243705.46875,115801.0,1.0,3
230212.875,270532.21875,316642.78125,291291.0625,240166.46875,275325.6875,247052.859375,243261.734375,115802.0,1.0,3
230631.484375,271408.84375,317671.3125,291659.96875,240812.25,275647.4375,247370.703125,243701.625,115803.0,1.0,3
231468.953125,272715.53125,319071.0,292042.375,242567.3125,276401.40625,247925.109375,244398.09375,115804.0,1.0,3
231583.390625,272679.125,318936.875,291922.03125,243034.375,276559.40625,247960.875,244413.03125,115805.0,1.0,3
230811.8125,271340.53125,317440.46875,291461.75,241553.171875,275898.40625,247417.375,243705.46875,115806.0,1.0,3
230218.515625,270543.5625,316636.09375,291294.125,240162.625,275320.9375,247041.5,243254.40625,115807.0,1.0,3
230635.859375,271409.8125,317658.34375,291657.46875,240800.09375,275635.8125,247359.53125,243694.640625,115808.0,1.0,3
231471.90625,272718.84375,319068.5625,292044.0625,242560.6875,276398.03125,247927.625,244409.71875,115809.0,1.0,3
231590.546875,272690.125,318946.0,291926.40625,243038.9375,276568.53125,247961.953125,244425.546875,115810.0,1.0,3
230828.078125,271359.3125,317452.375,291464.71875,241567.921875,275908.6875,247418.359375,243721.46875,115811.0,1.0,3
230221.375,270548.375,316638.40625,291289.1875,240167.890625,275326.03125,247044.71875,243262.09375,115812.0,1.0,3
230625.3125,271399.8125,317649.15625,291647.90625,240793.484375,275636.1875,247359.609375,243687.9375,115813.0,1.0,3
231466.1875,272709.90625,319060.625,292035.3125,242559.71875,276400.78125,247927.703125,244407.75,115814.0,1.0,3
231588.84375,272685.46875,318944.9375,291917.90625,243049.578125,276563.0625,247966.78125,244436.359375,115815.0,1.0,3
230828.078125,271360.03125,317454.0625,291455.5,241584.1875,275903.25,247425.6875,243730.40625,115816.0,1.0,3
230222.4375,270543.5625,316632.0625,291278.1875,240181.046875,275321.46875,247043.46875,243254.9375,115817.0,1.0,3
230622.984375,271389.71875,317640.9375,291641.1875,240800.546875,275635.5625,247363.90625,243687.9375,115818.0,1.0,3
231457.875,272697.90625,319058.46875,292031.28125,242562.75,276398.65625,247935.9375,244411.6875,115819.0,1.0,3
231587.15625,272681.1875,318950.375,291916.375,243056.546875,276571.28125,247969.015625,244429.390625,115820.0,1.0,3
230828.984375,271353.21875,317460.21875,291454.0625,241591.53125,275914.59375,247426.765625,243715.5625,115821.0,1.0,3
230223.78125,270536.9375,316636.53125,291279.53125,240181.75,275328.71875,247050.359375,243254.40625,115822.0,1.0,3
230622.53125,271378.4375,317637.25,291638.34375,240789.1875,275634.40625,247366.671875,243683.296875,115823.0,1.0,3
231457.59375,272686.75,319052.9375,292029.3125,242545.234375,276394.1875,247932.171875,244400.6875,115824.0,1.0,3
231589.390625,272683.78125,318955.90625,291922.5625,243050.734375,276576.84375,247983.9375,244435.203125,115825.0,1.0,3
230832.109375,271365.84375,317472.3125,291463.71875,241597.6875,275926.21875,247437.3125,243726.65625,115826.0,1.0,3
230221.09375,270541.0625,316638.75,291283.375,240181.484375,275335.25,247051.515625,243255.5625,115827.0,1.0,3
230610.015625,271372.53125,317632.4375,291641.71875,240777.734375,275634.21875,247362.65625,243681.328125,115828.0,1.0,3
231444.640625,272685.125,319052.125,292031.90625,242534.859375,276387.46875,247926.71875,244401.765625,115829.0,1.0,3
231583.75,272688.4375,318963.78125,291923.90625,243052.796875,276572.90625,247979.5625,244440.828125,115830.0,1.0,3
230829.421875,271368.15625,317478.28125,291461.03125,241602.15625,275923.625,247443.921875,243726.03125,115831.0,1.0,3
230217.703125,270537.9375,316634.03125,291281.25,240179.78125,275328.25,247053.671875,243257.4375,115832.0,1.0,3
230611.09375,271372.09375,317621.25,291637.96875,240771.578125,275629.125,247357.296875,243677.65625,115833.0,1.0,3
231450.984375,272688.25,319042.375,292026.28125,242534.5,276388.8125,247921.71875,244389.25,115834.0,1.0,3
231595.28125,272699.0625,318962.0,291921.3125,243062.984375,276574.875,247977.421875,244431.359375,115835.0,1.0,3
230848.734375,271384.25,317483.125,291461.21875,241623.796875,275929.625,247443.203125,243734.15625,115836.0,1.0,3
230234.25,270546.6875,316634.65625,291278.125,240197.765625,275339.8125,247061.359375,243262.625,115837.0,1.0,3
230612.34375,271361.375,317608.65625,291629.65625,240773.09375,275632.25,247362.125,243677.125,115838.0,1.0,3
231453.578125,272683.875,319033.4375,292023.6875,242533.78125,276389.09375,247929.671875,244396.21875,115839.0,1.0,3
231600.109375,272701.03125,318963.4375,291923.53125,243073.796875,276583.1875,247986.171875,244444.859375,115840.0,1.0,3
230851.6875,271386.75,317483.46875,291463.53125,241638.8125,275940.0,247454.296875,243750.34375,115841.0,1.0,3
230230.671875,270542.9375,316622.9375,291274.90625,240201.0625,275343.5625,247063.328125,243262.09375,115842.0,1.0,3
230603.3125,271353.21875,317593.625,291626.71875,240765.84375,275627.25,247358.09375,243673.90625,115843.0,1.0,3
231439.265625,272671.4375,319022.875,292021.34375,242523.5,276382.8125,247923.953125,244398.28125,115844.0,1.0,3
231600.828125,272704.625,318961.8125,291920.9375,243069.421875,276578.8125,247980.09375,244438.875,115845.0,1.0,3
230852.40625,271390.34375,317480.4375,291460.875,241637.921875,275934.96875,247447.953125,243739.34375,115846.0,1.0,3
230225.921875,270538.1875,316613.0,291272.9375,240197.046875,275336.3125,247055.71875,243258.421875,115847.0,1.0,3
230601.703125,271346.53125,317576.09375,291624.125,240752.96875,275618.9375,247351.65625,243665.859375,115848.0,1.0,3
231437.296875,272665.1875,319009.46875,292021.1875,242510.71875,276376.84375,247918.9375,244388.078125,115849.0,1.0,3
231597.078125,272706.40625,318964.15625,291928.625,243070.9375,276581.75,247984.65625,244443.703125,115850.0,1.0,3
230862.953125,271408.75,317497.96875,291478.75,241652.234375,275948.65625,247457.421875,243757.3125,115851.0,1.0,3
230234.875,270549.90625,316625.53125,291288.65625,240204.28125,275342.84375,247060.8125,243268.890625,115852.0,1.0,3
230600.640625,271343.5,317577.96875,291632.25,240748.140625,275611.6875,247351.921875,243667.28125,115853.0,1.0,3
231437.125,272663.84375,319010.71875,292028.40625,242504.28125,276373.0,247920.640625,244384.953125,115854.0,1.0,3
231599.75,272710.875,318972.90625,291934.0,243072.640625,276583.4375,247986.265625,244442.984375,115855.0,1.0,3
230866.171875,271413.75,317505.28125,291477.75,241660.453125,275950.28125,247461.265625,243755.078125,115856.0,1.0,3
230235.046875,270544.1875,316622.75,291282.75,240206.96875,275342.21875,247059.65625,243258.34375,115857.0,1.0,3
230597.6875,271332.40625,317569.84375,291624.46875,240742.515625,275614.71875,247346.828125,243651.8125,115858.0,1.0,3
231436.59375,272659.65625,319010.625,292022.96875,242500.875,276372.0,247916.265625,244380.65625,115859.0,1.0,3
231610.390625,272718.21875,318983.5625,291934.90625,243084.265625,276586.9375,247993.78125,244448.078125,115860.0,1.0,3
230876.0,271417.5,317517.4375,291476.6875,241681.015625,275964.3125,247471.015625,243755.265625,115861.0,1.0,3
230236.75,270536.40625,316623.46875,291274.0,240216.984375,275341.84375,247053.390625,243255.484375,115862.0,1.0,3
230592.046875,271315.3125,317561.09375,291613.375,240736.609375,275599.625,247326.984375,243648.421875,115863.0,1.0,3
231432.03125,272644.625,319004.46875,292013.40625,242494.0,276359.84375,247897.125,244374.140625,115864.0,1.0,3
231614.515625,272715.25,318987.46875,291928.0,243089.453125,276579.34375,247977.78125,244444.046875,115865.0,1.0,3
230874.125,271410.8125,317518.96875,291469.8125,241686.109375,275947.40625,247453.3125,243760.453125,115866.0,1.0,3
230229.140625,270529.0625,316618.28125,291268.46875,240216.53125,275334.0625,247049.28125,243261.109375,115867.0,1.0,3
230588.03125,271314.0625,317551.96875,291610.875,240730.0,275601.125,247334.3125,243643.953125,115868.0,1.0,3
231427.015625,272646.9375,318994.90625,292011.15625,242489.078125,276364.65625,247911.4375,244367.515625,115869.0,1.0,3
231604.234375,272720.625,318980.6875,291925.25,243085.875,276587.28125,247990.46875,244440.828125,115870.0,1.0,3
230871.0,271424.40625,317518.0,291468.0,241687.09375,275955.28125,247458.234375,243757.765625,115871.0,1.0,3
230233.34375,270543.5625,316614.875,291268.28125,240216.265625,275338.28125,247052.5,243261.921875,115872.0,1.0,3
230585.53125,271316.5625,317541.5,291611.96875,240720.96875,275600.0625,247342.1875,243650.65625,115873.0,1.0,3
231421.125,272646.0625,318985.15625,292015.09375,242477.1875,276358.21875,247908.21875,244377.796875,115874.0,1.0,3
231605.125,272726.78125,318982.65625,291928.28125,243085.78125,276575.5,247980.015625,244446.46875,115875.0,1.0,3
230879.9375,271438.53125,317530.15625,291476.6875,241699.609375,275955.28125,247466.015625,243764.03125,115876.0,1.0,3
230238.53125,270550.4375,316622.84375,291275.0625,240222.96875,275342.5625,247057.421875,243264.328125,115877.0,1.0,3
230580.96875,271309.40625,317535.96875,291609.1875,240713.546875,275590.6875,247330.734375,243647.703125,115878.0,1.0,3
231420.046875,272643.8125,318986.5,292013.75,242469.59375,276350.625,247905.53125,244379.6875,115879.0,1.0,3
231619.15625,272741.90625,318996.78125,291934.0,243091.6875,276582.71875,247991.359375,244453.703125,115880.0,1.0,3
230883.515625,271441.9375,317536.125,291471.0625,241705.25,275954.46875,247463.59375,243762.859375,115881.0,1.0,3
230228.875,270538.28125,316614.875,291264.96875,240219.84375,275334.875,247053.9375,243259.765625,115882.0,1.0,3
230576.5,271299.59375,317527.09375,291605.15625,240702.90625,275588.53125,247334.671875,243646.71875,115883.0,1.0,3
231423.453125,272637.03125,318978.90625,292008.5625,242460.203125,276351.4375,247906.15625,244366.1875,115884.0,1.0,3
231619.875,272735.09375,318996.78125,291932.65625,243097.5,276592.65625,248001.828125,244453.265625,115885.0,1.0,3
230891.125,271445.59375,317546.15625,291478.90625,241722.59375,275981.28125,247483.53125,243773.59375,115886.0,1.0,3
230237.640625,270534.96875,316616.6875,291264.78125,240225.203125,275340.96875,247055.625,243258.875,115887.0,1.0,3
230573.8125,271283.75,317517.375,291595.15625,240692.09375,275578.78125,247319.03125,243633.765625,115888.0,1.0,3
231420.859375,272626.21875,318970.0625,292000.53125,242448.484375,276340.53125,247891.234375,244361.359375,115889.0,1.0,3
231628.28125,272735.375,318996.4375,291927.9375,243091.140625,276583.09375,247989.484375,244456.921875,115890.0,1.0,3
230899.25,271447.28125,317547.6875,291474.09375,241718.390625,275967.25,247468.515625,243776.71875,115891.0,1.0,3
230246.9375,270544.46875,316619.90625,291268.1875,240226.09375,275349.71875,247061.796875,243267.015625,115892.0,1.0,3
230585.796875,271295.5625,317518.875,291605.625,240689.765625,275595.59375,247338.875,243644.125,115893.0,1.0,3
231427.203125,272632.65625,318976.9375,292016.25,242446.25,276351.25,247909.5625,244378.078125,115894.0,1.0,3
231633.1875,272746.1875,319014.125,291945.71875,243098.65625,276595.78125,248009.15625,244470.34375,115895.0,1.0,3
230914.625,271466.40625,317564.03125,291488.75,241733.59375,275977.71875,247483.359375,243780.75,115896.0,1.0,3
230249.890625,270545.34375,316618.8125,291273.5625,240232.359375,275347.40625,247054.015625,243258.15625,115897.0,1.0,3
230571.578125,271278.03125,317501.4375,291603.375,240682.078125,275581.71875,247320.984375,243625.796875,115898.0,1.0,3
231416.46875,272624.25,318961.09375,292010.28125,242432.390625,276337.125,247894.09375,244360.1875,115899.0,1.0,3
231633.90625,272753.34375,319014.21875,291949.46875,243101.875,276594.4375,248009.15625,244470.515625,115900.0,1.0,3
230915.25,271473.3125,317566.90625,291492.78125,241745.578125,275980.59375,247483.625,243787.53125,115901.0,1.0,3
230249.71875,270547.40625,316614.96875,291274.90625,240237.28125,275348.125,247058.40625,243260.84375,115902.0,1.0,3
230572.65625,271279.8125,317496.96875,291604.90625,240682.96875,275587.71875,247333.0625,243629.90625,115903.0,1.0,3
231423.359375,272632.65625,318965.21875,292016.4375,242441.421875,276353.59375,247919.65625,244368.6875,115904.0,1.0,3
231639.1875,272764.34375,319021.375,291951.15625,243115.015625,276604.5625,248024.625,244476.515625,115905.0,1.0,3
230914.0,271479.65625,317571.625,291490.375,241760.328125,275985.59375,247500.96875,243798.890625,115906.0,1.0,3
230252.484375,270553.84375,316613.625,291269.875,240249.171875,275357.78125,247075.84375,243268.265625,115907.0,1.0,3
230557.0,271257.75,317475.0625,291585.5,240669.640625,275575.21875,247323.21875,243613.109375,115908.0,1.0,3
231397.25,272599.125,318936.6875,291991.21875,242416.484375,276323.0,247890.515625,244343.03125,115909.0,1.0,3
231619.96875,272742.09375,319002.78125,291928.71875,243097.046875,276576.375,247994.21875,244452.375,115910.0,1.0,3
230901.40625,271468.03125,317564.03125,291475.6875,241754.953125,275974.84375,247487.28125,243789.234375,115911.0,1.0,3
230229.59375,270530.59375,316593.4375,291249.0625,240232.8125,275334.78125,247055.625,243259.234375,115912.0,1.0,3
230543.859375,271243.53125,317451.65625,291567.0,240647.03125,275551.4375,247305.703125,243600.40625,115913.0,1.0,3
231397.78125,272600.5625,318927.75,291985.84375,242407.71875,276320.15625,247888.09375,244340.609375,115914.0,1.0,3
231626.125,272749.78125,319003.5625,291931.21875,243106.171875,276585.15625,247998.78125,244462.921875,115915.0,1.0,3
230914.625,271481.96875,317563.84375,291476.25,241768.1875,275981.125,247487.28125,243793.53125,115916.0,1.0,3
230240.765625,270540.96875,316589.59375,291249.78125,240241.296875,275338.90625,247057.328125,243260.125,115917.0,1.0,3
230542.4375,271242.28125,317447.8125,291573.25,240652.125,275558.9375,247316.25,243619.09375,115918.0,1.0,3
231390.015625,272595.4375,318920.875,291987.1875,242403.78125,276320.25,247893.015625,244353.84375,115919.0,1.0,3
231627.390625,272758.71875,319005.53125,291930.6875,243103.84375,276583.4375,247998.515625,244463.90625,115920.0,1.0,3
230920.078125,271489.125,317570.46875,291480.71875,241771.859375,275983.625,247489.703125,243801.03125,115921.0,1.0,3
230241.9375,270541.59375,316593.25,291255.5,240242.734375,275345.875,247064.03125,243269.953125,115922.0,1.0,3
230548.234375,271247.1875,317447.1875,291580.9375,240648.546875,275567.875,247325.46875,243616.6875,115923.0,1.0,3
231397.703125,272604.9375,318921.15625,291996.84375,242404.953125,276331.84375,247904.90625,244355.890625,115924.0,1.0,3
231625.0625,272757.625,319005.28125,291935.34375,243107.421875,276586.84375,248002.09375,244473.015625,115925.0,1.0,3
230921.0625,271495.375,317575.46875,291479.09375,241781.875,275983.09375,247486.84375,243798.796875,115926.0,1.0,3
230245.59375,270543.5625,316592.1875,291251.5625,240251.84375,275341.59375,247055.546875,243264.421875,115927.0,1.0,3
230540.28125,271228.40625,317431.8125,291568.15625,240642.375,275553.125,247306.59375,243610.6875,115928.0,1.0,3
231382.40625,272576.75,318906.03125,291982.1875,242392.875,276317.46875,247888.71875,244350.4375,115929.0,1.0,3
231629.265625,272756.84375,319007.5,291931.78125,243117.4375,276596.78125,248009.421875,244474.8125,115930.0,1.0,3
230928.125,271494.03125,317579.15625,291476.0625,241801.453125,275989.53125,247493.90625,243804.96875,115931.0,1.0,3
230242.109375,270527.125,316586.625,291242.625,240261.859375,275334.96875,247052.140625,243265.046875,115932.0,1.0,3
230539.5625,271215.46875,317420.8125,291557.78125,240638.53125,275542.03125,247296.046875,243604.875,115933.0,1.0,3
231390.984375,272574.53125,318903.96875,291977.625,242387.96875,276307.8125,247879.34375,244345.609375,115934.0,1.0,3
231639.359375,272758.875,319017.625,291929.53125,243121.1875,276591.40625,248013.09375,244483.21875,115935.0,1.0,3
230938.40625,271503.6875,317588.8125,291473.90625,241807.984375,275992.90625,247491.40625,243805.15625,115936.0,1.0,3
230248.375,270534.625,316586.0,291237.4375,240259.71875,275339.625,247048.03125,243258.875,115937.0,1.0,3
230530.984375,271210.53125,317411.25,291552.15625,240626.90625,275543.8125,247296.046875,243601.65625,115938.0,1.0,3
231376.421875,272568.28125,318891.8125,291971.90625,242373.65625,276306.65625,247876.65625,244337.03125,115939.0,1.0,3
231634.171875,272764.25,319013.59375,291927.5625,243117.25,276590.875,248007.8125,244467.65625,115940.0,1.0,3
230944.3125,271522.375,317597.75,291481.0625,241818.890625,276006.96875,247513.3125,243812.125,115941.0,1.0,3
230258.828125,270551.59375,316590.46875,291242.96875,240265.890625,275350.53125,247063.328125,243262.453125,115942.0,1.0,3
230540.015625,271219.9375,317409.0,291555.8125,240624.234375,275546.40625,247306.234375,243598.0,115943.0,1.0,3
231387.421875,272580.15625,318895.9375,291980.0625,242376.421875,276307.90625,247890.15625,244338.28125,115944.0,1.0,3
231639.09375,272774.34375,319020.90625,291935.34375,243126.28125,276584.625,248012.640625,244471.140625,115945.0,1.0,3
230945.484375,271531.5,317606.9375,291487.59375,241832.75,276006.25,247520.546875,243818.296875,115946.0,1.0,3
230251.40625,270554.90625,316597.1875,291253.34375,240281.078125,275358.84375,247086.296875,243274.4375,115947.0,1.0,3
230529.28125,271213.75,317403.71875,291561.53125,240628.4375,275541.6875,247313.03125,243600.3125,115948.0,1.0,3
231377.3125,272572.28125,318885.75,291982.09375,242373.921875,276297.4375,247881.65625,244336.5,115949.0,1.0,3
231638.46875,272775.6875,319021.1875,291939.625,243129.6875,276587.28125,248010.140625,244473.46875,115950.0,1.0,3
230939.484375,271518.1875,317602.03125,291483.84375,241832.203125,275999.1875,247502.046875,243813.5625,115951.0,1.0,3
230242.46875,270532.65625,316579.5625,291239.5,240271.078125,275339.4375,247048.5625,243259.234375,115952.0,1.0,3
230525.078125,271196.9375,317389.15625,291555.625,240616.890625,275541.9375,247295.78125,243592.0,115953.0,1.0,3
231373.921875,272558.875,318877.96875,291979.34375,242361.765625,276304.15625,247884.34375,244337.484375,115954.0,1.0,3
231635.703125,272770.96875,319021.625,291937.75,243125.03125,276588.71875,248016.046875,244483.125,115955.0,1.0,3
230947.4375,271532.84375,317612.84375,291487.15625,241843.03125,276009.09375,247519.03125,243829.015625,115956.0,1.0,3
230254.71875,270548.3125,316589.40625,291245.75,240279.75,275353.375,247064.21875,243274.078125,115957.0,1.0,3
230531.515625,271204.625,317386.125,291551.59375,240607.875,275540.59375,247295.328125,243585.65625,115958.0,1.0,3
231379.71875,272573.375,318877.78125,291974.3125,242350.5,276302.875,247878.53125,244326.578125,115959.0,1.0,3
231644.109375,272795.09375,319031.65625,291936.40625,243124.9375,276595.96875,248014.15625,244476.953125,115960.0,1.0,3
230959.609375,271563.25,317629.21875,291489.1875,241850.71875,276022.78125,247521.53125,243826.25,115961.0,1.0,3
230264.109375,270574.0625,316600.9375,291247.09375,240281.796875,275362.15625,247070.65625,243269.953125,115962.0,1.0,3
230532.859375,271221.28125,317390.21875,291554.65625,240603.484375,275545.96875,247300.96875,243593.875,115963.0,1.0,3
231382.046875,272588.84375,318883.40625,291980.0625,242350.234375,276307.90625,247888.015625,244341.5,115964.0,1.0,3
231647.5,272813.4375,319043.0,291945.8125,243133.96875,276607.6875,248024.796875,244488.671875,115965.0,1.0,3
230967.828125,271585.25,317642.1875,291499.3125,241865.734375,276033.25,247526.453125,243830.8125,115966.0,1.0,3
230275.734375,270593.90625,316609.875,291254.25,240298.96875,275377.09375,247078.78125,243274.15625,115967.0,1.0,3
230531.703125,271222.875,317389.0625,291556.15625,240608.5,275551.25,247295.78125,243586.734375,115968.0,1.0,3
231375.34375,272586.78125,318883.6875,291985.3125,242349.78125,276311.03125,247884.25,244336.046875,115969.0,1.0,3
231652.59375,272826.46875,319053.1875,291954.46875,243142.015625,276612.40625,248018.09375,244487.765625,115970.0,1.0,3
230977.75,271604.46875,317658.1875,291509.40625,241884.6875,276042.96875,247529.578125,243845.296875,115971.0,1.0,3
230273.21875,270600.59375,316618.1875,291262.375,240310.953125,275386.90625,247089.34375,243293.46875,115972.0,1.0,3
230525.890625,271222.15625,317388.875,291556.53125,240608.21875,275553.75,247294.171875,243589.40625,115973.0,1.0,3
231373.28125,272583.03125,318881.4375,291978.0,242346.203125,276308.96875,247874.234375,244326.84375,115974.0,1.0,3
231661.625,272830.40625,319065.71875,291952.15625,243153.015625,276627.34375,248034.546875,244497.78125,115975.0,1.0,3
230989.375,271606.34375,317669.28125,291505.125,241900.421875,276053.8125,247541.640625,243853.609375,115976.0,1.0,3
230274.296875,270584.96875,316608.71875,291245.375,240312.375,275378.78125,247073.15625,243273.625,115977.0,1.0,3
230512.75,271190.6875,317364.9375,291537.65625,240592.21875,275540.15625,247286.03125,243571.53125,115978.0,1.0,3
231360.859375,272555.5625,318860.25,291964.125,242327.25,276293.6875,247866.640625,244317.90625,115979.0,1.0,3
231656.265625,272815.65625,319056.5,291944.5625,243147.5625,276616.53125,248030.96875,244493.578125,115980.0,1.0,3
230984.8125,271597.9375,317666.5,291497.875,241906.0625,276055.40625,247543.796875,243852.359375,115981.0,1.0,3
230274.828125,270579.40625,316604.78125,291238.25,240314.609375,275379.21875,247074.046875,243273.09375,115982.0,1.0,3
230520.796875,271188.28125,317361.0,291535.96875,240590.703125,275540.4375,247292.828125,243579.84375,115983.0,1.0,3
231366.765625,272558.71875,318861.15625,291968.5,242326.0,276301.90625,247882.640625,244331.9375,115984.0,1.0,3
231658.765625,272822.8125,319059.625,291945.0,243147.921875,276615.90625,248030.078125,244491.625,115985.0,1.0,3
230985.703125,271602.75,317666.9375,291494.9375,241905.96875,276045.65625,247531.09375,243847.171875,115986.0,1.0,3
230274.203125,270582.625,316604.6875,291238.3125,240315.6875,275377.875,247071.1875,243273.53125,115987.0,1.0,3
230508.1875,271182.375,317352.6875,291532.03125,240582.5625,275534.53125,247281.734375,243566.171875,115988.0,1.0,3
231350.125,272551.28125,318852.9375,291963.59375,242313.9375,276287.0625,247861.71875,244309.578125,115989.0,1.0,3
231651.171875,272824.0625,319063.5625,291946.25,243145.859375,276609.375,248018.453125,244489.296875,115990.0,1.0,3
230983.03125,271609.75,317679.0,291500.375,241912.859375,276049.34375,247530.03125,243849.859375,115991.0,1.0,3
230264.28125,270579.3125,316606.84375,291241.46875,240316.21875,275375.5625,247070.390625,243274.875,115992.0,1.0,3
230501.21875,271175.65625,317346.875,291534.96875,240572.640625,275532.28125,247281.03125,243572.421875,115993.0,1.0,3
231349.0625,272549.6875,318847.28125,291966.8125,242302.84375,276287.5,247867.890625,244323.171875,115994.0,1.0,3
231655.09375,272832.65625,319069.28125,291952.875,243149.34375,276617.0625,248036.515625,244500.734375,115995.0,1.0,3
230994.03125,271624.21875,317688.84375,291506.90625,241926.53125,276061.75,247548.796875,243857.546875,115996.0,1.0,3
230279.390625,270589.4375,316609.4375,291244.75,240324.984375,275385.9375,247083.609375,243282.5625,115997.0,1.0,3
230507.375,271173.625,317338.625,291535.25,240570.40625,275531.9375,247291.9375,243571.53125,115998.0,1.0,3
231347.8125,272541.1875,318841.9375,291967.8125,242300.34375,276290.28125,247875.3125,244317.90625,115999.0,1.0,3
231656.53125,272828.09375,319068.125,291949.375,243145.953125,276613.5,248031.328125,244498.40625,116000.0,1.0,3
231001.09375,271622.6875,317691.4375,291503.25,241927.609375,276056.21875,247542.359375,243860.671875,116001.0,1.0,3
230283.59375,270583.78125,316609.71875,291239.40625,240325.15625,275381.65625,247077.171875,243276.75,116002.0,1.0,3
230507.734375,271160.125,317329.875,291521.84375,240559.046875,275525.125,247277.1875,243558.125,116003.0,1.0,3
231353.4375,272530.1875,318829.15625,291952.0625,242283.171875,276277.15625,247856.8125,244304.671875,116004.0,1.0,3
231662.25,272823.78125,319067.84375,291944.90625,243144.796875,276617.34375,248035.4375,244500.375,116005.0,1.0,3
231011.640625,271628.59375,317702.09375,291505.28125,241940.65625,276069.4375,247553.1875,243871.671875,116006.0,1.0,3
230284.484375,270580.9375,316602.375,291231.4375,240323.828125,275377.78125,247069.125,243279.078125,116007.0,1.0,3
230499.15625,271152.4375,317317.0,291520.9375,240547.515625,275523.09375,247275.9375,243569.109375,116008.0,1.0,3
231346.109375,272529.28125,318826.28125,291957.96875,242277.28125,276278.5625,247863.953125,244316.015625,116009.0,1.0,3
231670.484375,272835.875,319070.8125,291947.59375,243150.6875,276609.65625,248029.453125,244503.15625,116010.0,1.0,3
231005.828125,271627.4375,317695.375,291497.0625,241944.40625,276051.9375,247533.6875,243861.484375,116011.0,1.0,3
230279.578125,270579.15625,316599.0625,291231.09375,240331.15625,275376.71875,247071.8125,243276.75,116012.0,1.0,3
230499.875,271147.40625,317307.0,291519.34375,240547.875,275518.0,247277.546875,243559.453125,116013.0,1.0,3
231346.734375,272523.5625,318812.25,291952.59375,242274.328125,276269.71875,247860.734375,244312.265625,116014.0,1.0,3
231667.171875,272832.65625,319065.28125,291944.5625,243156.59375,276609.90625,248030.703125,244499.3125,116015.0,1.0,3
231009.046875,271632.1875,317698.5,291500.28125,241960.953125,276063.09375,247550.859375,243867.921875,116016.0,1.0,3
230274.5625,270571.1875,316592.28125,291233.40625,240338.578125,275375.21875,247077.171875,243290.796875,116017.0,1.0,3
230487.984375,271132.5,317290.625,291515.65625,240540.1875,275506.4375,247266.359375,243561.515625,116018.0,1.0,3
231329.5625,272506.5,318797.9375,291945.8125,242260.375,276260.59375,247848.40625,244290.546875,116019.0,1.0,3
231661.453125,272831.75,319067.78125,291948.03125,243153.203125,276609.8125,248033.65625,244499.3125,116020.0,1.0,3
231004.3125,271633.53125,317705.9375,291504.125,241965.953125,276062.65625,247549.515625,243871.140625,116021.0,1.0,3
230269.203125,270570.03125,316596.21875,291228.03125,240341.4375,275378.5,247071.90625,243273.359375,116022.0,1.0,3
230477.875,271124.78125,317285.1875,291507.0,240530.265625,275506.375,247262.703125,243541.765625,116023.0,1.0,3
231323.21875,272503.8125,318801.4375,291945.28125,242251.078125,276262.3125,247854.296875,244294.125,116024.0,1.0,3
231652.953125,272830.78125,319077.0625,291946.59375,243152.5625,276615.46875,248039.46875,244506.640625,116025.0,1.0,3
231011.28125,271647.28125,317718.34375,291504.21875,241973.375,276076.59375,247557.921875,243877.921875,116026.0,1.0,3
230282.25,270586.3125,316602.90625,291234.9375,240349.03125,275397.28125,247086.03125,243285.421875,116027.0,1.0,3
230486.734375,271133.90625,317286.4375,291516.21875,240533.03125,275522.0,247278.96875,243552.484375,116028.0,1.0,3
231328.3125,272507.65625,318799.28125,291954.75,242248.125,276263.90625,247856.8125,244299.125,116029.0,1.0,3
231663.421875,272848.125,319082.15625,291955.0,243150.953125,276614.375,248033.125,244500.734375,116030.0,1.0,3
231015.84375,271665.71875,317724.875,291513.0625,241977.578125,276077.125,247553.8125,243875.515625,116031.0,1.0,3
230279.484375,270596.3125,316599.40625,291238.15625,240347.15625,275390.75,247082.8125,243280.59375,116032.0,1.0,3
230476.09375,271131.21875,317271.84375,291514.9375,240517.828125,275508.875,247267.609375,243544.890625,116033.0,1.0,3
231322.421875,272509.09375,318785.875,291951.875,242233.375,276250.78125,247841.078125,244290.265625,116034.0,1.0,3
231666.640625,272853.84375,319080.1875,291959.21875,243155.4375,276611.625,248033.46875,244511.375,116035.0,1.0,3
231024.421875,271671.96875,317730.78125,291516.75,241993.671875,276081.875,247561.9375,243889.375,116036.0,1.0,3
230281.453125,270590.59375,316598.96875,291233.0625,240358.0625,275387.4375,247077.359375,243279.890625,116037.0,1.0,3
230477.515625,271117.375,317257.28125,291503.5,240512.921875,275496.71875,247255.546875,243530.21875,116038.0,1.0,3
231324.390625,272498.71875,318774.78125,291946.59375,242227.125,276251.65625,247849.296875,244284.46875,116039.0,1.0,3
231668.15625,272848.84375,319078.59375,291956.0,243156.234375,276613.59375,248032.84375,244504.9375,116040.0,1.0,3
231034.4375,271676.875,317735.6875,291521.375,242003.953125,276087.25,247561.765625,243891.078125,116041.0,1.0,3
230300.21875,270599.25,316601.65625,291240.65625,240368.4375,275393.96875,247087.90625,243290.34375,116042.0,1.0,3
230475.90625,271106.28125,317252.90625,291503.6875,240509.96875,275495.375,247255.546875,243531.125,116043.0,1.0,3
231317.046875,272482.53125,318769.34375,291944.03125,242217.90625,276241.125,247836.515625,244282.9375,116044.0,1.0,3
231669.9375,272845.0,319083.0625,291955.71875,243157.484375,276611.4375,248034.8125,244507.53125,116045.0,1.0,3
231043.015625,271678.84375,317742.75,291513.96875,242014.515625,276088.75,247566.0625,243884.28125,116046.0,1.0,3
230294.765625,270587.1875,316599.34375,291227.96875,240370.765625,275394.59375,247083.703125,243283.28125,116047.0,1.0,3
230474.484375,271097.0,317248.25,291495.375,240507.46875,275504.21875,247260.640625,243533.796875,116048.0,1.0,3
231313.5625,272473.3125,318763.53125,291931.3125,242213.703125,276248.8125,247839.8125,244278.203125,116049.0,1.0,3
231671.109375,272848.5625,319084.03125,291945.4375,243158.015625,276615.71875,248036.515625,244507.625,116050.0,1.0,3
231043.640625,271688.6875,317748.9375,291510.40625,242020.3125,276094.84375,247570.96875,243896.078125,116051.0,1.0,3
230288.96875,270589.59375,316596.65625,291221.53125,240367.09375,275397.5625,247080.9375,243282.484375,116052.0,1.0,3
230461.25,271091.0,317233.5,291485.0,240489.671875,275492.3125,247246.875,243517.890625,116053.0,1.0,3
231312.9375,272485.21875,318758.78125,291931.78125,242203.15625,276245.40625,247838.296875,244275.34375,116054.0,1.0,3
231674.234375,272866.625,319091.09375,291952.25,243164.8125,276624.40625,248040.09375,244511.375,116055.0,1.0,3
231040.0625,271701.125,317756.875,291515.9375,242034.796875,276106.71875,247581.25,243902.15625,116056.0,1.0,3
230289.234375,270598.90625,316599.34375,291225.28125,240379.796875,275403.09375,247088.09375,243287.03125,116057.0,1.0,3
230455.265625,271085.28125,317221.4375,291483.3125,240485.375,275485.09375,247243.921875,243517.53125,116058.0,1.0,3
231295.6875,272463.21875,318741.6875,291926.125,242185.90625,276233.40625,247826.140625,244262.921875,116059.0,1.0,3
231669.046875,272853.75,319086.0,291952.96875,243158.015625,276615.625,248035.796875,244513.609375,116060.0,1.0,3
231047.21875,271700.125,317759.125,291519.0625,242039.28125,276097.96875,247572.9375,243913.15625,116061.0,1.0,3
230290.84375,270592.375,316593.53125,291224.28125,240382.46875,275396.84375,247081.46875,243286.765625,116062.0,1.0,3
230448.1875,271070.25,317208.1875,291481.34375,240483.0625,275480.25,247238.5625,243512.25,116063.0,1.0,3
231293.1875,272458.375,318730.09375,291926.3125,242186.703125,276226.53125,247820.6875,244262.640625,116064.0,1.0,3
231664.84375,272855.96875,319079.03125,291950.71875,243165.4375,276612.59375,248034.640625,244513.078125,116065.0,1.0,3
231039.796875,271698.0625,317753.125,291513.6875,242050.625,276100.5625,247571.328125,243903.234375,116066.0,1.0,3
230284.84375,270586.03125,316584.125,291220.09375,240386.9375,275400.15625,247081.375,243284.625,116067.0,1.0,3
230449.0,271063.71875,317195.6875,291477.40625,240475.90625,275477.9375,247239.1875,243514.046875,116068.0,1.0,3
231288.890625,272442.84375,318714.78125,291921.3125,242169.8125,276219.90625,247816.03125,244261.84375,116069.0,1.0,3
231666.90625,272849.375,319080.46875,291951.4375,243160.34375,276612.25,248032.671875,244511.640625,116070.0,1.0,3
231046.859375,271698.96875,317761.4375,291515.40625,242055.71875,276103.25,247578.03125,243909.75,116071.0,1.0,3
230290.21875,270585.03125,316587.25,291221.0625,240391.765625,275401.125,247087.375,243293.296875,116072.0,1.0,3
230446.9375,271057.75,317194.15625,291476.78125,240471.96875,275477.9375,247242.765625,243526.640625,116073.0,1.0,3
231285.3125,272439.0,318715.6875,291918.53125,242162.125,276217.96875,247821.484375,244266.84375,116074.0,1.0,3
231667.078125,272854.90625,319088.15625,291948.65625,243157.3125,276611.6875,248033.65625,244506.8125,116075.0,1.0,3
231057.59375,271718.09375,317778.625,291519.4375,242066.453125,276109.9375,247582.859375,243911.015625,116076.0,1.0,3
230295.578125,270596.3125,316595.40625,291222.0625,240395.265625,275405.59375,247088.09375,243289.453125,116077.0,1.0,3
230445.421875,271056.84375,317188.78125,291472.125,240462.765625,275475.4375,247236.5,243505.90625,116078.0,1.0,3
231284.859375,272436.3125,318713.8125,291917.5625,242155.234375,276219.21875,247823.28125,244253.53125,116079.0,1.0,3
231665.921875,272854.03125,319095.5,291953.125,243160.078125,276620.71875,248049.03125,244512.890625,116080.0,1.0,3
231068.046875,271725.0625,317792.03125,291526.5625,242080.046875,276119.96875,247596.8125,243924.59375,116081.0,1.0,3
230305.328125,270595.78125,316601.75,291224.8125,240409.203125,275411.5,247095.234375,243301.515625,116082.0,1.0,3
230442.734375,271042.375,317182.09375,291472.03125,240461.328125,275477.5625,247236.59375,243516.546875,116083.0,1.0,3
231287.640625,272429.78125,318708.25,291920.3125,242150.578125,276222.4375,247825.34375,244263.1875,116084.0,1.0,3
231674.40625,272855.71875,319093.34375,291956.53125,243164.109375,276623.0625,248051.171875,244522.640625,116085.0,1.0,3
231067.515625,271722.84375,317788.71875,291522.46875,242081.296875,276118.625,247589.75,243915.296875,116086.0,1.0,3
230299.0625,270585.3125,316594.6875,291216.5,240402.671875,275400.40625,247082.09375,243282.125,116087.0,1.0,3
230433.171875,271025.03125,317169.84375,291464.09375,240448.28125,275463.1875,247225.328125,243492.40625,116088.0,1.0,3
231269.75,272409.40625,318695.03125,291915.0625,242135.921875,276211.34375,247820.15625,244243.6875,116089.0,1.0,3
231672.53125,272856.53125,319095.03125,291956.53125,243162.3125,276624.65625,248057.890625,244518.796875,116090.0,1.0,3
231071.546875,271723.28125,317793.1875,291520.84375,242090.234375,276107.4375,247589.84375,243928.53125,116091.0,1.0,3
230298.34375,270580.5,316588.25,291210.4375,240407.234375,275388.78125,247079.234375,243291.953125,116092.0,1.0,3
230429.421875,271015.71875,317153.84375,291455.59375,240442.640625,275449.40625,247217.90625,243491.875,116093.0,1.0,3
231270.203125,272403.9375,318681.625,291905.65625,242129.21875,276195.6875,247810.3125,244246.375,116094.0,1.0,3
231669.671875,272852.6875,319087.0,291946.78125,243161.59375,276610.28125,248044.109375,244519.15625,116095.0,1.0,3
231072.171875,271730.0,317792.46875,291515.3125,242097.203125,276116.5625,247592.609375,243928.890625,116096.0,1.0,3
230295.046875,270584.78125,316585.90625,291208.28125,240410.90625,275403.1875,247086.484375,243291.0625,116097.0,1.0,3
230427.1875,271015.8125,317144.625,291453.15625,240436.65625,275457.625,247225.765625,243496.15625,116098.0,1.0,3
231271.0,272405.5625,318675.09375,291903.6875,242121.890625,276196.5,247812.28125,244249.5,116099.0,1.0,3
231678.25,272864.125,319092.28125,291945.90625,243164.109375,276609.375,248045.453125,244521.484375,116100.0,1.0,3
231079.40625,271745.28125,317803.71875,291518.4375,242109.90625,276122.8125,247608.53125,243941.59375,116101.0,1.0,3
230302.46875,270597.375,316588.0625,291207.3125,240416.453125,275403.28125,247098.8125,243298.125,116102.0,1.0,3
230423.78125,271016.34375,317138.1875,291447.90625,240429.859375,275457.8125,247234.53125,243493.296875,116103.0,1.0,3
231261.34375,272400.28125,318669.625,291902.09375,242111.78125,276204.375,247822.828125,244248.609375,116104.0,1.0,3
231675.21875,272866.53125,319095.21875,291948.9375,243160.265625,276620.90625,248051.984375,244524.609375,116105.0,1.0,3
231087.640625,271758.25,317816.53125,291526.03125,242120.1875,276142.40625,247616.296875,243939.4375,116106.0,1.0,3
230306.21875,270602.65625,316592.71875,291212.9375,240424.671875,275413.8125,247099.796875,243295.890625,116107.0,1.0,3
230426.46875,271014.8125,317135.3125,291452.375,240429.234375,275456.65625,247225.765625,243487.3125,116108.0,1.0,3
231258.578125,272398.9375,318666.78125,291904.6875,242105.25,276197.21875,247811.296875,244247.265625,116109.0,1.0,3
231656.890625,272859.8125,319094.875,291951.71875,243156.6875,276613.5,248050.109375,244532.484375,116110.0,1.0,3
231077.078125,271756.375,317816.875,291523.0,242122.59375,276128.8125,247609.5,243938.09375,116111.0,1.0,3
230306.9375,270600.59375,316593.0,291208.28125,240429.859375,275413.28125,247100.328125,243292.40625,116112.0,1.0,3
230415.46875,270999.4375,317121.90625,291444.5,240420.203125,275455.5,247224.15625,243477.03125,116113.0,1.0,3
231255.0,272388.375,318652.03125,291895.5625,242090.953125,276189.15625,247803.875,244229.03125,116114.0,1.0,3
231679.6875,272872.15625,319099.59375,291952.5,243162.578125,276614.65625,248054.046875,244519.953125,116115.0,1.0,3
231092.8125,271763.53125,317825.28125,291525.15625,242132.890625,276129.71875,247608.875,243937.203125,116116.0,1.0,3
230312.296875,270601.6875,316594.25,291210.53125,240432.625,275407.84375,247100.609375,243295.0,116117.0,1.0,3
230429.859375,271003.125,317118.15625,291445.40625,240416.453125,275447.8125,247219.15625,243477.03125,116118.0,1.0,3
231265.375,272385.34375,318645.9375,291895.375,242082.90625,276175.75,247791.8125,244224.921875,116119.0,1.0,3
231686.65625,272871.375,319099.25,291952.78125,243155.78125,276604.71875,248040.53125,244518.078125,116120.0,1.0,3
231114.015625,271781.40625,317838.15625,291531.59375,242142.265625,276137.5625,247617.109375,243948.296875,116121.0,1.0,3
230330.984375,270615.0,316602.0,291212.125,240442.46875,275412.9375,247105.515625,243303.75,116122.0,1.0,3
230426.203125,270997.375,317111.0,291440.375,240406.4375,275441.28125,247220.40625,243477.828125,116123.0,1.0,3
231248.921875,272374.78125,318638.25,291889.3125,242064.578125,276172.96875,247795.109375,244221.515625,116124.0,1.0,3
231684.25,272880.40625,319101.84375,291948.5625,243151.140625,276609.1875,248051.171875,244526.390625,116125.0,1.0,3
231113.296875,271791.5,317837.25,291523.8125,242146.03125,276139.375,247618.71875,243952.046875,116126.0,1.0,3
230320.96875,270611.59375,316592.1875,291202.21875,240441.03125,275412.03125,247100.328125,243299.734375,116127.0,1.0,3
230412.875,270988.1875,317092.6875,291430.65625,240397.578125,275440.84375,247221.125,243476.9375,116128.0,1.0,3
231246.6875,272376.3125,318624.84375,291884.5625,242056.34375,276173.96875,247796.015625,244219.828125,116129.0,1.0,3
231684.0625,272884.9375,319100.9375,291947.875,243153.90625,276610.0,248046.625,244520.765625,116130.0,1.0,3
231116.421875,271801.6875,317847.46875,291529.96875,242159.796875,276145.34375,247620.6875,243963.484375,116131.0,1.0,3
230323.65625,270620.53125,316598.0,291207.84375,240451.859375,275418.46875,247103.90625,243313.59375,116132.0,1.0,3
230412.703125,270985.3125,317086.5,291429.46875,240396.0625,275436.71875,247213.53125,243474.609375,116133.0,1.0,3
231242.84375,272368.4375,318619.03125,291884.84375,242054.65625,276172.0,247794.9375,244227.328125,116134.0,1.0,3
231678.96875,272882.625,319100.21875,291947.875,243156.234375,276615.625,248051.796875,244527.921875,116135.0,1.0,3
231105.875,271797.59375,317846.03125,291526.9375,242164.890625,276155.46875,247626.3125,243962.421875,116136.0,1.0,3
230311.578125,270612.6875,316589.21875,291197.65625,240452.84375,275422.78125,247102.390625,243296.25,116137.0,1.0,3
230399.375,270976.375,317075.0625,291422.59375,240388.28125,275439.5625,247205.5625,243461.65625,116138.0,1.0,3
231234.53125,272364.0625,318607.0625,291875.875,242042.5,276172.71875,247786.796875,244209.71875,116139.0,1.0,3
231670.921875,272876.71875,319093.78125,291939.1875,243151.59375,276611.0625,248041.796875,244514.5,116140.0,1.0,3
231105.6875,271800.4375,317847.8125,291523.28125,242169.8125,276150.53125,247619.15625,243955.796875,116141.0,1.0,3
230318.734375,270621.6875,316592.0,291201.125,240460.34375,275426.15625,247105.15625,243307.328125,116142.0,1.0,3
230395.0,270968.34375,317063.625,291416.5,240381.21875,275429.21875,247204.5,243465.765625,116143.0,1.0,3
231221.125,272347.25,318590.5,291868.03125,242025.5,276157.25,247781.53125,244206.5,116144.0,1.0,3
231668.15625,272876.71875,319094.9375,291940.25,243146.84375,276613.9375,248044.921875,244522.734375,116145.0,1.0,3
231112.046875,271807.59375,317859.15625,291524.78125,242180.09375,276156.0,247623.640625,243967.15625,116146.0,1.0,3
230317.390625,270613.5625,316590.5625,291195.9375,240463.296875,275417.84375,247095.78125,243307.953125,116147.0,1.0,3
230386.6875,270954.46875,317051.28125,291414.1875,240372.375,275425.4375,247194.5625,243460.9375,116148.0,1.0,3
231212.53125,272334.84375,318583.53125,291871.5,242018.078125,276159.84375,247782.953125,244206.953125,116149.0,1.0,3
231667.265625,272874.75,319093.59375,291943.3125,243147.5625,276608.9375,248043.75,244525.328125,116150.0,1.0,3
231116.609375,271812.25,317861.03125,291526.21875,242187.328125,276156.1875,247619.078125,243967.78125,116151.0,1.0,3
230324.8125,270617.78125,316591.09375,291197.28125,240467.5,275422.9375,247094.875,243305.640625,116152.0,1.0,3
230394.015625,270951.34375,317046.0,291412.125,240363.421875,275423.5625,247193.140625,243457.359375,116153.0,1.0,3
231222.640625,272336.0,318581.5625,291870.53125,242006.90625,276151.34375,247777.5,244206.765625,116154.0,1.0,3
231678.796875,272881.46875,319104.53125,291947.3125,243147.296875,276612.5,248055.921875,244527.5625,116155.0,1.0,3
231137.875,271830.40625,317882.78125,291535.875,242198.234375,276166.28125,247636.859375,243974.84375,116156.0,1.0,3
230340.90625,270627.5,316608.8125,291204.71875,240477.15625,275424.46875,247104.984375,243311.171875,116157.0,1.0,3
230397.140625,270945.90625,317052.34375,291415.71875,240363.34375,275417.65625,247200.203125,243456.828125,116158.0,1.0,3
231219.953125,272326.4375,318585.59375,291875.0,242000.65625,276144.28125,247783.9375,244211.59375,116159.0,1.0,3
231682.453125,272885.21875,319114.875,291955.46875,243147.296875,276605.96875,248060.921875,244539.8125,116160.0,1.0,3
231138.859375,271835.75,317891.96875,291537.125,242205.03125,276162.25,247642.953125,243974.046875,116161.0,1.0,3
230335.453125,270628.59375,316608.71875,291202.75,240481.453125,275424.1875,247110.265625,243305.546875,116162.0,1.0,3
230386.953125,270940.4375,317040.46875,291411.6875,240358.25,275411.875,247192.515625,243445.640625,116163.0,1.0,3
231214.59375,272325.25,318574.5,291872.03125,241994.296875,276140.34375,247776.34375,244196.3125,116164.0,1.0,3
231685.3125,272893.4375,319119.34375,291958.59375,243155.703125,276610.375,248056.8125,244533.453125,116165.0,1.0,3
231144.046875,271847.28125,317900.90625,291542.59375,242223.8125,276168.5,247641.515625,243983.078125,116166.0,1.0,3
230334.375,270632.15625,316607.8125,291202.375,240494.671875,275425.28125,247103.28125,243312.15625,116167.0,1.0,3
230384.09375,270940.34375,317032.0625,291404.53125,240356.1875,275415.34375,247186.34375,243442.609375,116168.0,1.0,3
231211.46875,272325.0,318562.96875,291862.84375,241981.78125,276139.53125,247768.828125,244189.78125,116169.0,1.0,3
231678.171875,272896.3125,319113.0,291950.53125,243143.625,276611.96875,248055.296875,244527.828125,116170.0,1.0,3
231142.984375,271864.375,317906.46875,291543.03125,242223.453125,276179.34375,247645.984375,243988.703125,116171.0,1.0,3
230341.078125,270656.21875,316614.09375,291204.1875,240495.9375,275444.5,247115.796875,243320.203125,116172.0,1.0,3
230388.5625,270958.0625,317030.09375,291406.3125,240351.984375,275435.5625,247199.671875,243451.546875,116173.0,1.0,3
231205.109375,272332.6875,318556.4375,291862.375,241974.09375,276143.21875,247767.21875,244191.65625,116174.0,1.0,3
231673.515625,272906.40625,319107.90625,291948.03125,243139.609375,276610.09375,248049.03125,244531.40625,116175.0,1.0,3
231150.046875,271881.4375,317907.96875,291542.03125,242229.078125,276187.71875,247651.96875,243995.140625,116176.0,1.0,3
230350.109375,270667.3125,316613.46875,291203.1875,240500.578125,275451.8125,247120.984375,243321.90625,116177.0,1.0,3
230388.109375,270957.25,317019.8125,291403.09375,240342.421875,275431.4375,247199.84375,243441.71875,116178.0,1.0,3
231204.484375,272331.0625,318543.3125,291858.09375,241957.90625,276142.6875,247766.328125,244178.328125,116179.0,1.0,3
231684.875,272915.71875,319110.78125,291952.78125,243140.046875,276623.6875,248059.9375,244528.0,116180.0,1.0,3
231157.109375,271885.125,317914.59375,291543.75,242236.421875,276194.4375,247654.21875,243994.0625,116181.0,1.0,3
230354.046875,270667.125,316616.59375,291202.21875,240507.640625,275457.625,247125.453125,243326.5625,116182.0,1.0,3
230385.15625,270944.90625,317013.5625,291398.8125,240337.859375,275426.0,247194.390625,243448.59375,116183.0,1.0,3
231199.578125,272318.28125,318540.1875,291857.03125,241951.03125,276141.78125,247764.625,244188.625,116184.0,1.0,3
231687.109375,272914.625,319114.875,291948.21875,243143.546875,276622.4375,248054.578125,244532.5625,116185.0,1.0,3
231163.8125,271894.84375,317926.40625,291539.4375,242253.046875,276203.65625,247659.390625,244000.234375,116186.0,1.0,3
230355.5625,270671.59375,316623.28125,291198.625,240525.171875,275463.4375,247130.109375,243330.75,116187.0,1.0,3
230388.734375,270950.375,317013.28125,291395.78125,240348.3125,275428.125,247194.5625,243450.03125,116188.0,1.0,3
231198.046875,272318.75,318537.0625,291848.34375,241955.234375,276143.125,247764.71875,244183.078125,116189.0,1.0,3
231688.1875,272921.0625,319123.28125,291944.5625,243154.265625,276633.6875,248065.296875,244535.703125,116190.0,1.0,3
231164.25,271903.96875,317941.5,291541.0625,242269.5,276214.1875,247668.609375,244011.59375,116191.0,1.0,3
230352.703125,270673.03125,316631.0625,291196.46875,240531.0625,275460.59375,247126.171875,243334.953125,116192.0,1.0,3
230381.5,270939.0,317011.6875,291394.6875,240342.6875,275427.40625,247200.921875,243456.46875,116193.0,1.0,3
231191.53125,272307.75,318532.84375,291849.5,241942.0,276140.09375,247771.421875,244189.15625,116194.0,1.0,3
231680.40625,272917.40625,319125.625,291952.875,243146.578125,276632.71875,248075.140625,244545.0,116195.0,1.0,3
