FZ,C3,CZ,C4,PZ,PO7,OZ,PO8,Counter,Validation,Label
223684.734375,250011.78125,295611.125,304873.6875,219112.015625,248089.71875,208100.03125,236400.015625,17458.0,1.0,1
223748.21875,250269.1875,296422.6875,304997.53125,219842.65625,248495.4375,208482.234375,236742.265625,17459.0,1.0,1
223763.0625,250489.578125,297081.15625,305061.8125,220497.640625,248834.65625,208796.421875,237014.328125,17460.0,1.0,1
223705.5625,250356.265625,296646.71875,304970.4375,220146.09375,248620.796875,208595.25,236829.625,17461.0,1.0,1
223649.6875,250063.8125,295745.59375,304841.59375,219300.03125,248164.1875,208170.5625,236451.515625,17462.0,1.0,1
223666.40625,250004.90625,295591.65625,304846.4375,219102.890625,248077.46875,208097.25,236391.875,17463.0,1.0,1
223743.921875,250269.8125,296408.375,304984.46875,219834.421875,248486.5,208482.15625,236741.109375,17464.0,1.0,1
223777.546875,250492.34375,297079.5625,305062.53125,220499.515625,248833.9375,208802.140625,237020.953125,17465.0,1.0,1
223737.84375,250362.34375,296650.9375,304970.0625,220159.15625,248628.484375,208603.125,236837.125,17466.0,1.0,1
223701.640625,250076.15625,295753.03125,304844.8125,219316.671875,248176.96875,208179.515625,236461.34375,17467.0,1.0,1
223733.8125,250013.03125,295587.34375,304849.1875,219104.6875,248081.125,208097.34375,236389.734375,17468.0,1.0,1
223825.1875,250286.4375,296403.46875,304993.0625,219832.1875,248492.84375,208484.921875,236739.9375,17469.0,1.0,1
223864.984375,250524.078125,297091.625,305081.5625,220509.265625,248849.21875,208814.75,237032.9375,17470.0,1.0,1
223810.796875,250381.65625,296664.34375,304981.78125,220162.375,248632.140625,208608.484375,236840.703125,17471.0,1.0,1
223774.140625,250100.03125,295773.40625,304858.59375,219326.328125,248185.921875,208190.5,236471.90625,17472.0,1.0,1
223800.421875,250046.203125,295604.53125,304865.375,219116.03125,248092.75,208115.40625,236410.390625,17473.0,1.0,1
223854.15625,250293.859375,296390.03125,304989.84375,219822.984375,248483.546875,208482.515625,236740.125,17474.0,1.0,1
223884.46875,250532.046875,297080.96875,305078.15625,220509.359375,248847.53125,208816.265625,237031.234375,17475.0,1.0,1
223827.34375,250397.484375,296668.8125,304977.125,220183.375,248647.875,208623.59375,236854.46875,17476.0,1.0,1
223781.109375,250107.71875,295772.96875,304851.0625,219339.109375,248192.703125,208196.859375,236477.796875,17477.0,1.0,1
223802.3125,250043.875,295587.875,304860.28125,219106.203125,248083.71875,208099.125,236401.453125,17478.0,1.0,1
223866.671875,250306.375,296390.9375,305002.1875,219829.0625,248487.75,208480.1875,236744.6875,17479.0,1.0,1
223879.640625,250537.9375,297084.1875,305072.0,220519.015625,248844.578125,208810.359375,237031.953125,17480.0,1.0,1
223826.453125,250423.6875,296694.21875,304987.0625,220213.953125,248658.078125,208633.34375,236866.8125,17481.0,1.0,1
223756.96875,250117.46875,295779.03125,304847.3125,219353.59375,248187.078125,208190.6875,236473.78125,17482.0,1.0,1
223753.671875,250027.96875,295567.78125,304842.3125,219100.84375,248063.609375,208085.984375,236390.265625,17483.0,1.0,1
223800.078125,250278.484375,296349.09375,304972.65625,219803.3125,248454.21875,208456.046875,236720.984375,17484.0,1.0,1
223822.59375,250516.125,297054.96875,305061.4375,220506.140625,248824.8125,208802.046875,237021.125,17485.0,1.0,1
223763.6875,250387.921875,296660.9375,304960.34375,220198.21875,248636.703125,208616.984375,236844.8125,17486.0,1.0,1
223701.90625,250085.015625,295748.90625,304818.4375,219344.46875,248179.03125,208180.578125,236454.828125,17487.0,1.0,1
223723.984375,250016.4375,295542.75,304823.53125,219096.734375,248069.5,208081.96875,236383.921875,17488.0,1.0,1
223790.421875,250273.03125,296327.28125,304957.1875,219797.953125,248458.78125,208456.21875,236713.75,17489.0,1.0,1
223810.078125,250504.0625,297033.78125,305037.3125,220491.75,248807.5625,208787.75,237006.375,17490.0,1.0,1
223759.390625,250386.84375,296658.625,304947.28125,220197.421875,248633.484375,208610.1875,236844.28125,17491.0,1.0,1
223718.796875,250099.671875,295759.46875,304824.53125,219358.15625,248192.984375,208186.21875,236471.09375,17492.0,1.0,1
223741.515625,250029.578125,295542.65625,304824.53125,219103.96875,248075.671875,208085.0,236387.671875,17493.0,1.0,1
223791.75,250267.671875,296308.6875,304944.875,219789.546875,248454.046875,208443.078125,236710.171875,17494.0,1.0,1
223812.765625,250506.296875,297024.84375,305030.34375,220493.078125,248822.40625,208783.359375,237007.8125,17495.0,1.0,1
223759.921875,250395.96875,296657.46875,304939.21875,220208.859375,248645.5625,208612.15625,236844.734375,17496.0,1.0,1
223700.203125,250092.609375,295742.90625,304796.34375,219350.546875,248177.59375,208171.546875,236452.328125,17497.0,1.0,1
223725.6875,250012.140625,295516.0,304797.34375,219084.03125,248055.109375,208064.890625,236367.109375,17498.0,1.0,1
223800.515625,250269.1875,296291.96875,304936.8125,219774.96875,248442.78125,208433.0625,236703.90625,17499.0,1.0,1
223829.125,250513.984375,297018.3125,305024.78125,220487.984375,248817.9375,208782.828125,237008.078125,17500.0,1.0,1
223773.703125,250393.109375,296657.65625,304937.96875,220208.859375,248644.484375,208611.171875,236845.4375,17501.0,1.0,1
223714.6875,250096.546875,295748.90625,304801.09375,219357.34375,248189.21875,208179.15625,236458.484375,17502.0,1.0,1
223722.5625,250023.859375,295513.3125,304802.78125,219084.03125,248068.25,208070.078125,236368.640625,17503.0,1.0,1
223781.828125,250277.765625,296282.40625,304936.71875,219771.390625,248456.375,208437.0,236698.1875,17504.0,1.0,1
223807.21875,250529.359375,297017.5,305024.34375,220497.109375,248837.6875,208793.5625,237010.484375,17505.0,1.0,1
223741.6875,250409.203125,296668.8125,304932.0,220232.109375,248665.671875,208634.953125,236858.859375,17506.0,1.0,1
223670.4375,250102.890625,295751.40625,304790.5625,219373.359375,248197.265625,208195.421875,236466.453125,17507.0,1.0,1
223682.5,250009.734375,295488.65625,304778.3125,219074.203125,248050.375,208068.375,236361.9375,17508.0,1.0,1
223774.765625,250270.609375,296262.8125,304923.40625,219766.65625,248441.890625,208444.78125,236703.109375,17509.0,1.0,1
223800.421875,250509.6875,296993.375,305006.90625,220484.234375,248817.75,208791.140625,237007.890625,17510.0,1.0,1
223741.59375,250396.59375,296654.34375,304919.75,220230.140625,248653.15625,208631.90625,236854.921875,17511.0,1.0,1
223692.15625,250105.65625,295751.5,304790.5625,219388.8125,248202.09375,208206.515625,236474.578125,17512.0,1.0,1
223698.421875,250006.953125,295475.5,304770.53125,219079.296875,248053.140625,208072.3125,236362.828125,17513.0,1.0,1
223750.0,250249.515625,296227.9375,304897.03125,219748.6875,248429.015625,208427.703125,236685.40625,17514.0,1.0,1
223783.34375,250503.078125,296984.0625,304996.0,220491.296875,248823.125,208796.421875,237010.75,17515.0,1.0,1
223735.875,250405.171875,296664.53125,304916.0,220251.953125,248674.4375,208650.140625,236872.53125,17516.0,1.0,1
223687.859375,250112.28125,295753.46875,304780.0,219408.125,248222.75,208220.453125,236488.078125,17517.0,1.0,1
223699.3125,250009.90625,295465.59375,304764.0,219089.578125,248069.328125,208081.875,236369.796875,17518.0,1.0,1
223761.453125,250250.140625,296209.1875,304885.3125,219753.6875,248440.90625,208437.0,236688.796875,17519.0,1.0,1
223791.21875,250502.53125,296962.4375,304979.65625,220490.9375,248835.8125,208800.4375,237007.359375,17520.0,1.0,1
223748.296875,250411.4375,296656.375,304904.625,220262.59375,248692.578125,208660.515625,236876.921875,17521.0,1.0,1
223681.78125,250102.265625,295736.46875,304758.71875,219403.75,248222.75,208217.328125,236480.03125,17522.0,1.0,1
223684.28125,250005.703125,295446.09375,304750.40625,219083.40625,248068.515625,208083.03125,236369.34375,17523.0,1.0,1
223743.03125,250252.921875,296194.34375,304887.375,219749.9375,248445.109375,208439.59375,236696.3125,17524.0,1.0,1
223769.3125,250500.921875,296948.21875,304976.5,220483.515625,248827.40625,208792.390625,237009.0625,17525.0,1.0,1
223720.5,250400.703125,296639.84375,304887.28125,220253.203125,248675.421875,208645.140625,236868.0625,17526.0,1.0,1
223670.25,250099.484375,295726.5625,304744.25,219402.5,248207.46875,208208.65625,236481.734375,17527.0,1.0,1
223691.703125,250000.15625,295428.90625,304732.875,219070.703125,248043.484375,208067.578125,236358.171875,17528.0,1.0,1
223762.34375,250240.84375,296169.3125,304865.84375,219725.609375,248414.265625,208418.765625,236677.171875,17529.0,1.0,1
223800.703125,250505.75,296947.6875,304975.8125,220484.59375,248824.640625,208795.96875,237014.328125,17530.0,1.0,1
223735.25,250405.171875,296649.6875,304886.3125,220265.640625,248680.421875,208651.578125,236876.46875,17531.0,1.0,1
223660.0625,250112.09375,295739.625,304748.09375,219416.359375,248215.6875,208212.765625,236486.46875,17532.0,1.0,1
223661.40625,250009.734375,295430.53125,304736.71875,219078.484375,248050.46875,208068.46875,236366.21875,17533.0,1.0,1
223722.828125,250245.765625,296163.84375,304868.78125,219728.828125,248420.25,208420.546875,236683.53125,17534.0,1.0,1
223734.09375,250504.140625,296934.09375,304964.4375,220479.140625,248819.453125,208789.53125,237003.6875,17535.0,1.0,1
223671.59375,250417.421875,296653.8125,304889.875,220274.03125,248684.09375,208657.296875,236876.46875,17536.0,1.0,1
223609.546875,250121.21875,295747.3125,304748.53125,219427.984375,248223.109375,208221.796875,236490.671875,17537.0,1.0,1
223610.796875,250014.015625,295424.0,304728.5,219077.59375,248053.765625,208070.515625,236364.25,17538.0,1.0,1
223668.203125,250250.328125,296148.03125,304861.0,219722.671875,248423.015625,208420.015625,236682.09375,17539.0,1.0,1
223697.078125,250510.765625,296927.375,304960.6875,220484.234375,248833.046875,208795.34375,237014.15625,17540.0,1.0,1
223635.203125,250417.609375,296646.46875,304876.28125,220282.625,248695.4375,208664.984375,236887.46875,17541.0,1.0,1
223571.8125,250125.953125,295735.59375,304737.53125,219437.453125,248236.421875,208234.5,236499.96875,17542.0,1.0,1
223576.734375,250012.671875,295397.625,304712.0625,219074.109375,248058.515625,208076.875,236364.078125,17543.0,1.0,1
223644.234375,250255.421875,296125.9375,304853.21875,219724.359375,248433.484375,208434.140625,236691.65625,17544.0,1.0,1
223665.78125,250510.578125,296902.53125,304949.6875,220482.0,248836.53125,208804.109375,237018.890625,17545.0,1.0,1
223608.65625,250426.359375,296635.1875,304866.46875,220291.5625,248705.09375,208678.9375,236897.5625,17546.0,1.0,1
223550.171875,250126.21875,295725.46875,304728.0625,219445.765625,248244.03125,208244.328125,236507.21875,17547.0,1.0,1
223569.9375,250008.828125,295383.5,304710.25,219074.828125,248060.75,208080.265625,236367.109375,17548.0,1.0,1
223632.875,250235.84375,296092.84375,304828.90625,219700.765625,248414.4375,208415.546875,236672.53125,17549.0,1.0,1
223677.84375,250502.265625,296885.625,304937.1875,220469.125,248825.078125,208794.625,237012.015625,17550.0,1.0,1
223652.015625,250427.4375,296636.375,304863.59375,220296.03125,248709.125,208679.921875,236894.96875,17551.0,1.0,1
223617.234375,250131.953125,295727.90625,304721.625,219457.125,248249.9375,208248.890625,236510.796875,17552.0,1.0,1
223656.21875,250023.3125,295386.625,304714.46875,219089.84375,248073.34375,208090.546875,236380.265625,17553.0,1.0,1
223721.578125,250246.921875,296086.0625,304835.6875,219702.015625,248421.234375,208415.90625,236678.875,17554.0,1.0,1
223748.9375,250503.703125,296875.34375,304928.15625,220469.390625,248823.46875,208790.609375,237007.453125,17555.0,1.0,1
223707.53125,250429.21875,296638.875,304861.0,220310.515625,248708.9375,208681.265625,236900.609375,17556.0,1.0,1
223650.9375,250137.21875,295733.34375,304722.78125,219471.703125,248251.984375,208248.359375,236514.453125,17557.0,1.0,1
223642.53125,250016.703125,295369.09375,304703.09375,219081.609375,248059.5,208074.09375,236370.875,17558.0,1.0,1
223685.359375,250237.71875,296068.625,304835.59375,219697.1875,248408.359375,208407.578125,236676.734375,17559.0,1.0,1
223721.84375,250507.71875,296875.78125,304946.03125,220476.28125,248821.328125,208792.390625,237015.765625,17560.0,1.0,1
223696.265625,250442.015625,296654.0625,304875.9375,220326.34375,248719.765625,208691.359375,236914.46875,17561.0,1.0,1
223646.375,250138.65625,295742.125,304724.125,219477.25,248254.9375,208251.484375,236522.328125,17562.0,1.0,1
223661.765625,250006.328125,295361.875,304690.3125,219067.84375,248049.65625,208064.0,236363.71875,17563.0,1.0,1
223739.90625,250230.390625,296055.84375,304818.4375,219672.78125,248397.71875,208392.921875,236660.8125,17564.0,1.0,1
223784.25,250502.8125,296866.75,304927.96875,220456.078125,248818.921875,208779.421875,237004.5,17565.0,1.0,1
223743.03125,250441.46875,296654.59375,304865.03125,220319.28125,248718.421875,208682.25,236910.890625,17566.0,1.0,1
223687.15625,250148.578125,295749.625,304722.40625,219481.265625,248259.859375,208251.390625,236522.78125,17567.0,1.0,1
223695.109375,250014.828125,295360.875,304688.71875,219066.15625,248052.875,208065.15625,236362.90625,17568.0,1.0,1
223773.515625,250246.03125,296056.375,304826.59375,219674.390625,248402.015625,208398.375,236668.15625,17569.0,1.0,1
223818.9375,250521.3125,296876.34375,304943.4375,220467.6875,248823.828125,208794.0,237017.90625,17570.0,1.0,1
223776.375,250461.6875,296674.625,304881.46875,220340.640625,248731.03125,208700.75,236929.484375,17571.0,1.0,1
223696.359375,250149.03125,295755.53125,304719.90625,219490.75,248260.21875,208255.0625,236532.34375,17572.0,1.0,1
223701.359375,250015.265625,295356.5,304687.625,219068.65625,248052.609375,208065.96875,236367.5625,17573.0,1.0,1
223766.71875,250232.265625,296031.625,304810.5625,219660.96875,248389.21875,208387.5625,236657.6875,17574.0,1.0,1
223810.265625,250507.90625,296853.09375,304924.9375,220454.640625,248813.90625,208779.96875,237004.59375,17575.0,1.0,1
223760.28125,250444.515625,296658.96875,304857.0625,220334.203125,248724.5,208693.15625,236914.5625,17576.0,1.0,1
223694.84375,250148.484375,295754.625,304705.4375,219501.921875,248262.71875,208263.109375,236530.1875,17577.0,1.0,1
223708.25,250014.640625,295351.40625,304679.40625,219078.484375,248052.078125,208073.828125,236368.640625,17578.0,1.0,1
223772.171875,250227.4375,296015.4375,304799.40625,219664.109375,248381.625,208390.0625,236654.296875,17579.0,1.0,1
223806.78125,250498.15625,296832.875,304905.34375,220455.625,248800.671875,208778.09375,236997.875,17580.0,1.0,1
223761.171875,250447.375,296651.65625,304841.96875,220347.171875,248721.1875,208693.234375,236915.53125,17581.0,1.0,1
223694.75,250152.234375,295744.71875,304695.5,219511.9375,248264.5,208261.578125,236530.640625,17582.0,1.0,1
223698.234375,250013.296875,295323.34375,304661.53125,219068.921875,248046.34375,208060.234375,236358.359375,17583.0,1.0,1
223756.890625,250215.8125,295974.46875,304776.5,219634.15625,248368.484375,208366.375,236635.515625,17584.0,1.0,1
223796.5,250487.609375,296801.75,304886.9375,220432.203125,248793.796875,208760.65625,236984.296875,17585.0,1.0,1
223763.40625,250449.96875,296645.40625,304839.28125,220347.171875,248729.859375,208696.8125,236919.828125,17586.0,1.0,1
223700.375,250148.9375,295741.65625,304693.90625,219515.15625,248276.75,208264.71875,236534.3125,17587.0,1.0,1
223700.828125,250003.734375,295309.125,304656.0,219063.921875,248050.1875,208058.71875,236357.28125,17588.0,1.0,1
223752.859375,250207.5,295953.375,304758.375,219621.8125,248362.671875,208361.90625,236628.90625,17589.0,1.0,1
223799.625,250491.453125,296791.9375,304875.5625,220425.671875,248796.203125,208762.078125,236981.78125,17590.0,1.0,1
223765.46875,250454.890625,296644.0625,304824.875,220348.15625,248736.390625,208699.953125,236917.140625,17591.0,1.0,1
223691.703125,250150.359375,295736.125,304668.0625,219512.015625,248270.40625,208260.515625,236520.453125,17592.0,1.0,1
223686.34375,249992.828125,295287.375,304624.59375,219047.734375,248029.984375,208043.15625,236334.296875,17593.0,1.0,1
223759.03125,250209.015625,295943.1875,304761.3125,219621.546875,248364.90625,208361.8125,236624.25,17594.0,1.0,1
223796.140625,250486.71875,296779.15625,304869.40625,220425.40625,248794.5,208763.0625,236977.859375,17595.0,1.0,1
223739.984375,250430.390625,296620.4375,304793.9375,220335.90625,248721.1875,208684.65625,236903.828125,17596.0,1.0,1
223687.421875,250148.046875,295732.28125,304660.90625,219521.234375,248278.0,208265.703125,236526.078125,17597.0,1.0,1
223696.625,250006.421875,295284.71875,304626.40625,219061.140625,248046.96875,208056.390625,236343.328125,17598.0,1.0,1
223760.90625,250216.796875,295919.78125,304747.90625,219617.515625,248363.921875,208360.375,236618.890625,17599.0,1.0,1
223793.1875,250491.984375,296756.15625,304855.0,220422.625,248792.71875,208760.203125,236972.484375,17600.0,1.0,1
223742.5,250444.875,296618.65625,304793.40625,220354.328125,248725.21875,208699.953125,236906.0625,17601.0,1.0,1
223683.65625,250150.8125,295729.15625,304654.46875,219538.484375,248276.9375,208277.859375,236526.4375,17602.0,1.0,1
223688.484375,249996.234375,295270.84375,304615.9375,219062.75,248036.96875,208057.296875,236340.03125,17603.0,1.0,1
223771.546875,250217.953125,295915.46875,304751.65625,219622.53125,248366.609375,208370.390625,236628.984375,17604.0,1.0,1
223810.703125,250495.203125,296758.5,304863.875,220430.59375,248796.296875,208770.75,236983.84375,17605.0,1.0,1
223752.5,250446.390625,296617.125,304789.65625,220361.03125,248723.25,208699.5,236908.75,17606.0,1.0,1
223695.109375,250160.828125,295729.40625,304650.34375,219550.109375,248282.65625,208278.484375,236534.578125,17607.0,1.0,1
223700.203125,250007.765625,295262.90625,304617.0,219067.765625,248040.984375,208058.0,236348.609375,17608.0,1.0,1
223774.140625,250210.71875,295893.03125,304749.15625,219612.515625,248357.390625,208362.171875,236627.46875,17609.0,1.0,1
223803.109375,250482.25,296735.78125,304845.4375,220420.578125,248781.09375,208757.078125,236977.140625,17610.0,1.0,1
223750.1875,250442.8125,296618.3125,304778.9375,220370.59375,248723.421875,208698.25,236917.234375,17611.0,1.0,1
223692.78125,250158.046875,295734.4375,304639.0,219556.453125,248279.34375,208277.40625,236541.734375,17612.0,1.0,1
223704.21875,250006.328125,295263.78125,304609.9375,219072.046875,248038.21875,208060.0625,236357.28125,17613.0,1.0,1
223774.140625,250208.484375,295879.8125,304738.6875,219604.375,248346.40625,208353.5,236625.328125,17614.0,1.0,1
223802.484375,250480.8125,296720.6875,304836.0625,220410.65625,248773.671875,208747.6875,236971.328125,17615.0,1.0,1
223754.03125,250450.953125,296615.875,304770.15625,220379.625,248731.125,208703.875,236923.671875,17616.0,1.0,1
223686.703125,250155.375,295723.53125,304625.78125,219565.046875,248281.671875,208279.734375,236544.671875,17617.0,1.0,1
223683.65625,249990.6875,295230.15625,304580.4375,219056.578125,248024.625,208040.65625,236341.90625,17618.0,1.0,1
223755.640625,250194.796875,295844.21875,304706.25,219584.265625,248333.078125,208333.734375,236614.765625,17619.0,1.0,1
223802.9375,250479.65625,296706.625,304826.40625,220407.34375,248776.453125,208743.390625,236978.578125,17620.0,1.0,1
223772.625,250462.3125,296632.53125,304784.90625,220397.953125,248748.90625,208716.390625,236948.796875,17621.0,1.0,1
223719.609375,250178.890625,295756.25,304649.71875,219590.609375,248302.40625,208301.546875,236579.90625,17622.0,1.0,1
223699.125,249998.109375,295239.125,304587.9375,219060.515625,248024.796875,208046.109375,236359.421875,17623.0,1.0,1
223746.15625,250177.546875,295825.25,304692.46875,219563.25,248316.1875,208320.953125,236607.078125,17624.0,1.0,1
223782.71875,250457.390625,296687.3125,304806.0,220385.171875,248760.890625,208731.59375,236974.453125,17625.0,1.0,1
223739.8125,250437.984375,296615.0,304757.28125,220378.734375,248735.671875,208704.859375,236944.234375,17626.0,1.0,1
223683.65625,250155.375,295739.15625,304621.125,219579.875,248297.859375,208293.328125,236579.1875,17627.0,1.0,1
223677.84375,249980.140625,295222.46875,304564.71875,219053.71875,248026.6875,208043.96875,236363.71875,17628.0,1.0,1
223743.828125,250172.625,295812.375,304681.46875,219557.4375,248321.1875,208325.59375,236620.046875,17629.0,1.0,1
223787.28125,250467.765625,296685.28125,304803.875,220389.640625,248775.546875,208748.859375,236994.03125,17630.0,1.0,1
223724.078125,250442.015625,296615.96875,304752.5625,220387.578125,248748.46875,208720.328125,236955.59375,17631.0,1.0,1
223663.375,250155.015625,295735.40625,304613.78125,219584.265625,248308.484375,208303.0625,236579.28125,17632.0,1.0,1
223664.078125,249982.71875,295213.1875,304563.375,219050.765625,248035.796875,208052.90625,236364.078125,17633.0,1.0,1
223720.59375,250162.96875,295782.71875,304663.3125,219535.796875,248306.171875,208316.75,236604.765625,17634.0,1.0,1
223764.125,250441.109375,296644.40625,304769.4375,220357.359375,248745.515625,208726.046875,236964.625,17635.0,1.0,1
223733.90625,250430.828125,296596.5625,304727.4375,220374.625,248738.53125,208712.375,236944.859375,17636.0,1.0,1
223672.484375,250145.453125,295723.6875,304587.15625,219577.109375,248302.046875,208295.5625,236573.203125,17637.0,1.0,1
223679.1875,249975.578125,295199.78125,304543.96875,219046.75,248032.484375,208045.9375,236358.359375,17638.0,1.0,1
223738.203125,250155.109375,295761.25,304653.9375,219531.515625,248307.421875,208310.046875,236601.09375,17639.0,1.0,1
223782.1875,250440.125,296636.375,304770.4375,220369.078125,248759.734375,208733.03125,236977.859375,17640.0,1.0,1
223750.71875,250437.265625,296603.46875,304733.6875,220400.109375,248754.28125,208724.71875,236962.65625,17641.0,1.0,1
223693.40625,250155.375,295733.96875,304597.4375,219604.828125,248315.546875,208308.25,236591.34375,17642.0,1.0,1
223677.578125,249968.59375,295185.03125,304535.75,219048.890625,248024.453125,208039.140625,236358.53125,17643.0,1.0,1
223730.953125,250139.8125,295731.375,304635.875,219515.6875,248290.609375,208294.21875,236589.109375,17644.0,1.0,1
223780.484375,250432.4375,296609.28125,304758.625,220350.578125,248738.890625,208709.78125,236960.328125,17645.0,1.0,1
223747.046875,250428.328125,296584.0625,304721.0,220387.234375,248736.65625,208702.1875,236947.1875,17646.0,1.0,1
223682.328125,250147.5,295714.40625,304575.625,219595.890625,248302.953125,208290.375,236577.40625,17647.0,1.0,1
223680.4375,249970.828125,295171.15625,304522.9375,219046.125,248020.6875,208031.984375,236351.921875,17648.0,1.0,1
223734.796875,250144.90625,295720.125,304626.21875,219512.46875,248294.90625,208291.71875,236588.484375,17649.0,1.0,1
223773.25,250426.1875,296592.90625,304742.625,220339.390625,248741.046875,208703.515625,236954.078125,17650.0,1.0,1
223745.984375,250433.515625,296585.84375,304712.0625,220390.359375,248749.09375,208705.671875,236950.859375,17651.0,1.0,1
223691.265625,250151.171875,295720.65625,304580.4375,219605.625,248317.609375,208295.921875,236584.640625,17652.0,1.0,1
223680.71875,249968.515625,295155.78125,304515.8125,219039.78125,248025.78125,208028.140625,236349.5,17653.0,1.0,1
223743.65625,250149.46875,295700.71875,304622.28125,219501.734375,248296.875,208289.65625,236584.46875,17654.0,1.0,1
223787.734375,250432.71875,296579.84375,304741.71875,220334.921875,248740.6875,208704.953125,236950.59375,17655.0,1.0,1
223758.859375,250438.875,296582.0,304710.625,220400.1875,248744.34375,208710.765625,236946.203125,17656.0,1.0,1
223703.953125,250163.953125,295729.0625,304572.40625,219621.453125,248316.890625,208305.84375,236584.640625,17657.0,1.0,1
223698.0625,249977.265625,295164.28125,304515.71875,219048.8125,248027.125,208036.71875,236353.609375,17658.0,1.0,1
223757.875,250148.046875,295694.46875,304621.9375,219497.625,248289.09375,208290.8125,236587.5,17659.0,1.0,1
223794.265625,250432.984375,296569.3125,304734.59375,220327.6875,248734.34375,208702.890625,236953.0,17660.0,1.0,1
223750.265625,250437.8125,296576.625,304695.875,220395.90625,248744.4375,208713.984375,236953.625,17661.0,1.0,1
223687.0625,250164.140625,295719.3125,304557.65625,219619.21875,248320.03125,208312.375,236593.765625,17662.0,1.0,1
223684.734375,249966.1875,295142.28125,304504.28125,219039.78125,248022.390625,208039.59375,236359.15625,17663.0,1.0,1
223739.0,250128.546875,295657.28125,304602.875,219473.484375,248272.28125,208278.21875,236578.828125,17664.0,1.0,1
223792.921875,250429.21875,296556.625,304732.15625,220326.25,248731.390625,208710.859375,236961.40625,17665.0,1.0,1
223760.015625,250440.9375,296578.53125,304699.625,220406.625,248749.359375,208725.875,236965.421875,17666.0,1.0,1
223691.890625,250161.890625,295719.21875,304553.625,219628.078125,248317.25,208317.546875,236597.25,17667.0,1.0,1
223681.25,249963.765625,295128.34375,304491.03125,219034.671875,248011.484375,208035.828125,236347.0,17668.0,1.0,1
223742.9375,250129.53125,295641.34375,304594.21875,219465.0,248266.109375,208277.671875,236566.84375,17669.0,1.0,1
223798.46875,250433.609375,296542.9375,304726.96875,220319.015625,248733.796875,208711.125,236952.109375,17670.0,1.0,1
223763.859375,250443.796875,296576.71875,304699.1875,220413.609375,248761.0625,208731.859375,236959.796875,17671.0,1.0,1
223697.25,250157.34375,295722.90625,304548.78125,219638.171875,248332.984375,208324.078125,236589.921875,17672.0,1.0,1
223687.59375,249962.15625,295131.03125,304487.46875,219045.046875,248024.453125,208040.125,236342.96875,17673.0,1.0,1
223752.5,250133.90625,295642.875,304593.59375,219478.140625,248274.34375,208284.828125,236571.859375,17674.0,1.0,1
223801.046875,250430.296875,296539.09375,304719.28125,220326.15625,248731.46875,208710.859375,236950.671875,17675.0,1.0,1
223751.25,250441.734375,296581.65625,304688.96875,220425.40625,248760.890625,208733.03125,236962.828125,17676.0,1.0,1
223684.46875,250165.203125,295736.3125,304552.1875,219658.734375,248338.890625,208331.59375,236605.828125,17677.0,1.0,1
223681.515625,249969.046875,295132.34375,304488.34375,219057.65625,248025.34375,208045.75,236357.453125,17678.0,1.0,1
223739.984375,250125.234375,295620.4375,304584.5625,219470.71875,248265.84375,208277.671875,236570.515625,17679.0,1.0,1
223797.390625,250425.65625,296521.21875,304717.3125,220323.21875,248730.765625,208710.140625,236958.453125,17680.0,1.0,1
223765.015625,250447.109375,296575.375,304682.09375,220435.15625,248770.09375,208737.046875,236972.046875,17681.0,1.0,1
223693.9375,250164.671875,295720.75,304533.9375,219661.875,248340.140625,208325.421875,236599.9375,17682.0,1.0,1
223686.703125,249967.890625,295112.15625,304470.46875,219054.265625,248026.5,208040.5625,236351.828125,17683.0,1.0,1
223741.59375,250122.828125,295593.875,304568.71875,219460.703125,248265.75,208273.75,236565.0625,17684.0,1.0,1
223789.875,250415.90625,296491.53125,304693.09375,220312.65625,248726.015625,208701.015625,236945.125,17685.0,1.0,1
223752.234375,250434.234375,296554.1875,304654.5625,220430.328125,248767.15625,208731.6875,236959.53125,17686.0,1.0,1
223691.171875,250159.9375,295714.21875,304513.5625,219670.8125,248347.46875,208331.140625,236601.625,17687.0,1.0,1
223687.421875,249966.8125,295103.3125,304454.1875,219059.0,248034.09375,208042.453125,236352.09375,17688.0,1.0,1
223749.828125,250123.28125,295581.53125,304558.71875,219455.515625,248271.03125,208268.203125,236564.609375,17689.0,1.0,1
223798.90625,250423.234375,296484.5625,304684.78125,220307.390625,248731.828125,208695.65625,236943.4375,17690.0,1.0,1
223765.65625,250456.40625,296565.71875,304656.625,220441.5,248778.765625,208737.046875,236967.390625,17691.0,1.0,1
223697.078125,250175.84375,295728.25,304510.875,219685.03125,248359.0,208340.53125,236609.59375,17692.0,1.0,1
223689.109375,249967.34375,295102.40625,304451.15625,219059.53125,248036.875,208043.609375,236352.625,17693.0,1.0,1
223757.78125,250123.09375,295576.4375,304564.15625,219452.203125,248273.4375,208272.9375,236563.90625,17694.0,1.0,1
223798.015625,250411.875,296469.34375,304681.1875,220296.03125,248725.578125,208694.40625,236938.515625,17695.0,1.0,1
223769.5,250452.734375,296564.21875,304658.59375,220445.78125,248784.765625,208748.765625,236976.15625,17696.0,1.0,1
223692.6875,250173.34375,295724.40625,304502.65625,219683.328125,248359.546875,208346.34375,236611.015625,17697.0,1.0,1
223682.671875,249961.71875,295090.0625,304434.71875,219051.046875,248032.578125,208047.1875,236345.84375,17698.0,1.0,1
223751.078125,250117.734375,295551.6875,304545.03125,219433.96875,248263.609375,208274.28125,236555.3125,17699.0,1.0,1
223797.65625,250414.734375,296452.4375,304672.1875,220286.640625,248724.234375,208704.6875,236938.15625,17700.0,1.0,1
223759.390625,250443.171875,296548.65625,304641.40625,220439.53125,248780.5625,208749.75,236969.890625,17701.0,1.0,1
223706.546875,250180.9375,295730.84375,304508.90625,219704.0625,248376.625,208364.578125,236625.6875,17702.0,1.0,1
223697.34375,249975.390625,295088.71875,304439.4375,219067.765625,248049.21875,208059.796875,236361.578125,17703.0,1.0,1
223751.34375,250116.296875,295531.5625,304532.25,219430.9375,248267.71875,208268.375,236552.453125,17704.0,1.0,1
223796.5,250407.953125,296433.125,304652.59375,220279.484375,248723.515625,208693.15625,236927.875,17705.0,1.0,1
223769.21875,250452.5625,296550.96875,304634.09375,220450.171875,248792.359375,208753.140625,236970.34375,17706.0,1.0,1
223705.5625,250185.140625,295732.0,304497.5625,219710.78125,248380.203125,208363.328125,236620.765625,17707.0,1.0,1
223697.4375,249976.296875,295087.125,304431.03125,219070.0,248050.734375,208057.640625,236356.65625,17708.0,1.0,1
223757.953125,250117.546875,295522.09375,304530.1875,219426.734375,248267.359375,208264.984375,236554.25,17709.0,1.0,1
223807.84375,250416.890625,296428.9375,304656.71875,220280.203125,248728.34375,208697.625,236937.265625,17710.0,1.0,1
223782.09375,250458.8125,296557.15625,304639.375,220459.828125,248798.078125,208761.28125,236983.578125,17711.0,1.0,1
223729.53125,250200.171875,295747.5625,304515.09375,219733.21875,248394.765625,208379.421875,236643.296875,17712.0,1.0,1
223703.15625,249978.4375,295076.9375,304427.09375,219071.609375,248046.078125,208056.578125,236362.109375,17713.0,1.0,1
223764.84375,250119.96875,295506.71875,304526.875,219425.65625,248259.671875,208264.265625,236555.5,17714.0,1.0,1
223803.109375,250405.359375,296404.625,304644.53125,220271.171875,248712.4375,208686.359375,236930.5625,17715.0,1.0,1
223779.0625,250456.40625,296547.40625,304632.46875,220463.3125,248794.5,208760.75,236985.71875,17716.0,1.0,1
223721.65625,250201.234375,295743.0,304501.9375,219741.984375,248395.84375,208381.203125,236646.6875,17717.0,1.0,1
223694.921875,249976.921875,295071.375,304417.90625,219075.890625,248048.5,208057.734375,236361.75,17718.0,1.0,1
223758.5,250116.125,295491.0625,304516.4375,219417.703125,248252.875,208259.171875,236546.5625,17719.0,1.0,1
223811.609375,250415.015625,296400.25,304646.78125,220268.859375,248712.703125,208689.84375,236927.078125,17720.0,1.0,1
223785.3125,250472.234375,296558.21875,304630.25,220473.0625,248799.15625,208773.703125,236990.90625,17721.0,1.0,1
223723.8125,250206.515625,295752.84375,304488.96875,219749.390625,248398.796875,208393.546875,236647.671875,17722.0,1.0,1
223708.078125,249988.0,295075.6875,304416.125,219078.3125,248052.4375,208072.046875,236366.3125,17723.0,1.0,1
223747.953125,250105.921875,295463.625,304492.90625,219388.546875,248237.5,208251.125,236532.078125,17724.0,1.0,1
223799.171875,250405.171875,296373.3125,304620.84375,220242.125,248699.296875,208684.296875,236916.796875,17725.0,1.0,1
223775.03125,250461.953125,296541.59375,304613.0,220460.0,248792.453125,208769.234375,236984.296875,17726.0,1.0,1
223700.5625,250188.8125,295732.0,304465.71875,219735.453125,248383.59375,208377.640625,236628.8125,17727.0,1.0,1
223680.265625,249959.84375,295043.5625,304387.0625,219059.09375,248029.359375,208046.203125,236335.734375,17728.0,1.0,1
223746.609375,250097.53125,295443.21875,304486.5625,219384.796875,248226.140625,208241.46875,236517.046875,17729.0,1.0,1
223802.9375,250400.609375,296356.25,304620.84375,220243.109375,248694.8125,208679.296875,236908.46875,17730.0,1.0,1
223772.09375,250456.765625,296529.78125,304606.375,220464.125,248796.03125,208764.671875,236973.65625,17731.0,1.0,1
223715.578125,250208.203125,295745.0625,304479.59375,219760.75,248408.984375,208395.609375,236641.421875,17732.0,1.0,1
223698.328125,249984.0625,295055.1875,304399.125,219081.078125,248055.921875,208068.46875,236353.265625,17733.0,1.0,1
223749.5625,250102.265625,295432.78125,304476.46875,219380.6875,248236.875,208244.78125,236514.90625,17734.0,1.0,1
223807.3125,250403.828125,296351.15625,304611.90625,220241.9375,248704.46875,208682.875,236905.96875,17735.0,1.0,1
223788.265625,250474.546875,296546.96875,304608.78125,220489.78125,248815.703125,208784.890625,236988.046875,17736.0,1.0,1
223720.953125,250220.375,295756.875,304468.59375,219784.625,248417.390625,208408.65625,236647.5,17737.0,1.0,1
223690.8125,249979.859375,295048.84375,304377.75,219090.296875,248051.53125,208068.28125,236350.21875,17738.0,1.0,1
223752.953125,250099.140625,295424.625,304478.4375,219394.71875,248238.671875,208248.625,236522.234375,17739.0,1.0,1
223819.109375,250409.734375,296349.53125,304623.4375,220261.796875,248711.1875,208689.125,236916.96875,17740.0,1.0,1
223786.21875,250465.875,296539.28125,304611.5625,220497.90625,248809.265625,208771.828125,236991.359375,17741.0,1.0,1
223711.203125,250206.6875,295747.21875,304463.59375,219790.4375,248412.296875,208391.9375,236650.984375,17742.0,1.0,1
223686.875,249976.203125,295042.875,304374.71875,219097.078125,248054.125,208057.015625,236355.3125,17743.0,1.0,1
223756.4375,250106.28125,295415.25,304476.0,219392.65625,248242.78125,208239.859375,236526.625,17744.0,1.0,1
223801.59375,250393.90625,296317.34375,304593.125,220234.78125,248699.640625,208664.625,236900.25,17745.0,1.0,1
223773.421875,250458.546875,296523.875,304579.28125,220488.96875,248813.90625,208766.640625,236979.90625,17746.0,1.0,1
223708.96875,250208.484375,295744.96875,304440.59375,219793.296875,248424.265625,208397.75,236647.578125,17747.0,1.0,1
223692.6875,249982.015625,295036.0625,304362.28125,219097.0,248059.3125,208061.3125,236356.5625,17748.0,1.0,1
223740.4375,250086.34375,295377.5,304443.5625,219365.9375,248222.75,208220.453125,236505.703125,17749.0,1.0,1
223801.140625,250392.390625,296302.34375,304582.6875,220232.109375,248697.40625,208665.25,236903.109375,17750.0,1.0,1
223785.5,250471.515625,296535.96875,304586.0625,220509.890625,248825.359375,208780.328125,236997.96875,17751.0,1.0,1
223717.09375,250217.421875,295758.21875,304450.34375,219815.015625,248436.609375,208407.765625,236663.40625,17752.0,1.0,1
223686.96875,249980.40625,295029.4375,304352.625,219102.8125,248060.390625,208061.9375,236360.859375,17753.0,1.0,1
223741.515625,250094.484375,295366.78125,304438.1875,219366.28125,248222.921875,208221.890625,236512.140625,17754.0,1.0,1
223800.78125,250397.390625,296285.625,304577.75,220226.203125,248696.15625,208662.578125,236903.5625,17755.0,1.0,1
223791.125,250493.859375,296534.34375,304583.40625,220516.234375,248837.953125,208789.796875,237004.40625,17756.0,1.0,1
223710.03125,250222.6875,295751.9375,304430.25,219818.15625,248437.234375,208410.265625,236658.3125,17757.0,1.0,1
223682.5,249972.625,295015.3125,304338.59375,219093.859375,248051.890625,208053.265625,236345.21875,17758.0,1.0,1
223739.71875,250085.015625,295347.5625,304427.5625,219350.203125,248216.21875,208213.125,236498.546875,17759.0,1.0,1
223804.8125,250392.5625,296273.46875,304569.4375,220213.234375,248690.265625,208658.90625,236896.859375,17760.0,1.0,1
223782.1875,250470.625,296519.59375,304566.59375,220497.203125,248816.953125,208775.671875,236990.640625,17761.0,1.0,1
223720.953125,250224.03125,295758.125,304437.46875,219817.703125,248437.78125,208415.90625,236665.375,17762.0,1.0,1
223696.265625,249981.921875,295020.59375,304344.0625,219099.140625,248060.390625,208069.71875,236359.0625,17763.0,1.0,1
223750.1875,250083.21875,295335.21875,304424.4375,219342.6875,248211.21875,208221.796875,236502.5625,17764.0,1.0,1
223807.484375,250387.46875,296251.28125,304563.8125,220198.75,248676.9375,208657.390625,236893.015625,17765.0,1.0,1
223786.84375,250475.09375,296510.03125,304562.125,220499.4375,248818.5625,208783.984375,236996.265625,17766.0,1.0,1
223722.015625,250229.84375,295753.03125,304425.3125,219825.84375,248440.640625,208423.5,236670.46875,17767.0,1.0,1
223703.25,249997.03125,295018.71875,304343.34375,219109.78125,248066.203125,208081.609375,236369.34375,17768.0,1.0,1
223743.203125,250080.984375,295311.34375,304411.1875,219332.21875,248206.484375,208216.96875,236496.9375,17769.0,1.0,1
223794.53125,250374.0625,296220.625,304541.46875,220182.9375,248671.578125,208647.375,236881.5625,17770.0,1.0,1
223782.375,250471.875,296498.84375,304551.375,220502.828125,248824.546875,208785.515625,236998.328125,17771.0,1.0,1
223721.296875,250232.078125,295750.25,304420.59375,219840.859375,248448.765625,208431.28125,236680.125,17772.0,1.0,1
223704.140625,249997.390625,295011.125,304337.0,219119.609375,248071.03125,208081.609375,236371.9375,17773.0,1.0,1
223766.71875,250106.90625,295320.5625,304430.875,219359.5,248227.9375,208237.09375,236515.265625,17774.0,1.0,1
223811.875,250395.078125,296225.90625,304550.59375,220204.75,248682.921875,208664.71875,236894.890625,17775.0,1.0,1
223795.328125,250491.90625,296509.125,304557.28125,220526.4375,248831.171875,208800.703125,237004.140625,17776.0,1.0,1
223725.6875,250244.515625,295759.90625,304418.15625,219860.890625,248450.46875,208438.703125,236678.875,17777.0,1.0,1
223704.5,250002.75,295009.4375,304333.40625,219129.984375,248066.90625,208085.0,236370.875,17778.0,1.0,1
223753.40625,250089.921875,295287.21875,304408.6875,219340.09375,248201.03125,208218.671875,236495.6875,17779.0,1.0,1
223808.75,250386.125,296199.78125,304533.6875,220187.765625,248664.6875,208649.796875,236877.546875,17780.0,1.0,1
223792.65625,250487.875,296501.09375,304543.53125,220521.0625,248819.71875,208793.375,236997.25,17781.0,1.0,1
223723.625,250250.328125,295759.5625,304406.90625,219862.859375,248446.0,208437.984375,236678.875,17782.0,1.0,1
223690.28125,250003.921875,294994.40625,304310.875,219118.09375,248056.28125,208072.046875,236357.453125,17783.0,1.0,1
223742.140625,250082.765625,295266.8125,304391.25,219324.09375,248193.421875,208208.390625,236487.8125,17784.0,1.0,1
223816.875,250401.15625,296198.0,304546.09375,220190.359375,248672.921875,208657.390625,236889.609375,17785.0,1.0,1
223776.015625,250484.03125,296487.5,304535.125,220514.28125,248815.875,208785.15625,236994.03125,17786.0,1.0,1
223712.09375,250249.0625,295759.71875,304401.1875,219875.46875,248456.453125,208444.6875,236687.8125,17787.0,1.0,1
223690.546875,250007.046875,294996.375,304312.84375,219132.9375,248073.625,208083.21875,236370.328125,17788.0,1.0,1
223740.703125,250087.25,295253.5,304382.21875,219315.78125,248193.875,208202.578125,236481.375,17789.0,1.0,1
223803.640625,250381.84375,296166.96875,304519.65625,220163.53125,248658.609375,208635.125,236869.84375,17790.0,1.0,1
223789.78125,250485.375,296485.09375,304529.3125,220516.59375,248822.578125,208786.578125,236996.984375,17791.0,1.0,1
223724.25,250252.015625,295762.40625,304398.9375,219879.84375,248461.90625,208444.59375,236688.796875,17792.0,1.0,1
223699.484375,249997.390625,294990.125,304304.53125,219133.296875,248071.390625,208080.09375,236372.296875,17793.0,1.0,1
223742.21875,250071.234375,295230.25,304364.6875,219303.078125,248185.203125,208191.21875,236479.5,17794.0,1.0,1
223797.65625,250368.703125,296139.71875,304501.0625,220147.890625,248650.109375,208623.140625,236864.125,17795.0,1.0,1
223781.5625,250471.15625,296467.90625,304509.28125,220507.03125,248821.78125,208777.1875,236992.25,17796.0,1.0,1
223725.6875,250246.125,295757.03125,304382.75,219882.53125,248474.515625,208446.03125,236690.140625,17797.0,1.0,1
223696.359375,249994.4375,294973.3125,304279.59375,219123.453125,248073.265625,208072.40625,236362.203125,17798.0,1.0,1
223738.015625,250060.0625,295201.8125,304343.5,219285.28125,248177.328125,208182.015625,236466.171875,17799.0,1.0,1
223797.125,250357.25,296114.21875,304487.625,220134.390625,248642.15625,208619.390625,236856.34375,17800.0,1.0,1
223791.125,250481.4375,296466.65625,304510.0625,220523.484375,248835.640625,208796.953125,237010.21875,17801.0,1.0,1
223728.546875,250259.0,295759.0,304383.65625,219901.84375,248483.546875,208460.6875,236707.21875,17802.0,1.0,1
223682.953125,249988.265625,294959.96875,304266.8125,219125.0625,248067.265625,208068.640625,236362.28125,17803.0,1.0,1
223732.296875,250056.9375,295184.84375,304335.46875,219278.484375,248173.3125,208175.21875,236462.328125,17804.0,1.0,1
223808.65625,250372.453125,296112.625,304490.6875,220138.234375,248646.71875,208623.328125,236861.890625,17805.0,1.0,1
223806.78125,250498.96875,296477.5,304517.78125,220532.6875,248841.71875,208802.234375,237011.5625,17806.0,1.0,1
223727.65625,250250.40625,295761.25,304377.125,219898.53125,248475.5,208452.109375,236693.90625,17807.0,1.0,1
223684.5625,249985.9375,294963.65625,304267.875,219125.15625,248062.53125,208068.734375,236362.015625,17808.0,1.0,1
223726.484375,250045.578125,295169.65625,304324.03125,219263.109375,248158.109375,208166.984375,236457.859375,17809.0,1.0,1
223790.765625,250349.46875,296082.9375,304467.0625,220109.796875,248624.640625,208604.8125,236850.625,17810.0,1.0,1
223789.15625,250481.625,296457.09375,304500.0625,220516.6875,248823.921875,208790.6875,237011.5625,17811.0,1.0,1
223725.328125,250256.671875,295760.875,304372.5625,219907.46875,248478.984375,208462.296875,236713.125,17812.0,1.0,1
223691.078125,249988.8125,294955.875,304267.25,219127.296875,248064.953125,208073.921875,236366.84375,17813.0,1.0,1
223747.5,250057.5625,295162.75,304337.25,219264.359375,248161.234375,208172.171875,236461.890625,17814.0,1.0,1
223813.75,250364.671875,296078.03125,304478.4375,220110.875,248626.78125,208608.9375,236849.5625,17815.0,1.0,1
223786.390625,250478.40625,296447.4375,304480.5625,220509.53125,248817.390625,208784.53125,236992.96875,17816.0,1.0,1
223726.75,250259.0,295762.78125,304362.5625,219912.390625,248479.609375,208461.765625,236703.109375,17817.0,1.0,1
223698.59375,249994.96875,294958.8125,304261.4375,219137.578125,248069.5,208076.78125,236364.875,17818.0,1.0,1
223747.5,250059.96875,295147.65625,304325.71875,219263.734375,248155.421875,208169.5,236455.1875,17819.0,1.0,1
223802.9375,250354.5625,296052.34375,304460.625,220102.90625,248611.84375,208599.09375,236843.03125,17820.0,1.0,1
223801.234375,250488.765625,296451.75,304493.90625,220528.21875,248828.03125,208795.171875,237009.6875,17821.0,1.0,1
223726.40625,250255.6875,295759.90625,304357.09375,219927.046875,248481.5,208465.703125,236709.984375,17822.0,1.0,1
223689.5625,249992.921875,294948.0,304248.21875,219147.59375,248068.703125,208082.40625,236371.40625,17823.0,1.0,1
223735.078125,250048.703125,295127.4375,304308.5625,219260.78125,248154.796875,208172.890625,236464.125,17824.0,1.0,1
223791.84375,250340.0,296030.375,304446.34375,220091.734375,248613.90625,208601.15625,236848.390625,17825.0,1.0,1
223788.890625,250484.125,296437.15625,304477.53125,220524.109375,248830.53125,208801.609375,237016.84375,17826.0,1.0,1
223725.421875,250268.828125,295765.28125,304352.1875,219937.953125,248491.328125,208482.78125,236723.578125,17827.0,1.0,1
223698.421875,250012.140625,294958.375,304253.21875,219162.359375,248084.53125,208098.0625,236385.265625,17828.0,1.0,1
223750.359375,250069.8125,295131.375,304318.375,219267.859375,248163.5625,208181.65625,236467.875,17829.0,1.0,1
223801.234375,250349.296875,296025.09375,304448.125,220091.296875,248608.984375,208600.171875,236843.390625,17830.0,1.0,1
223790.421875,250483.578125,296434.125,304470.65625,220525.546875,248826.421875,208793.734375,237009.0625,17831.0,1.0,1
223728.28125,250272.40625,295771.15625,304354.34375,219950.390625,248503.125,208480.8125,236729.921875,17832.0,1.0,1
223681.875,249986.484375,294939.15625,304230.0625,219149.390625,248070.765625,208073.5625,236375.25,17833.0,1.0,1
223733.734375,250039.859375,295098.65625,304290.21875,219247.921875,248145.765625,208156.265625,236458.125,17834.0,1.0,1
223817.234375,250356.890625,296022.59375,304449.0,220099.6875,248624.453125,208605.796875,236862.34375,17835.0,1.0,1
223795.15625,250483.859375,296434.03125,304463.5,220531.4375,248832.5,208796.234375,237023.625,17836.0,1.0,1
223733.1875,250272.671875,295781.4375,304344.5,219962.0,248508.9375,208490.28125,236745.484375,17837.0,1.0,1
223689.828125,249993.640625,294951.75,304226.3125,219160.03125,248082.5625,208090.640625,236397.515625,17838.0,1.0,1
223737.671875,250042.546875,295099.09375,304288.25,219244.78125,248156.046875,208164.671875,236475.203125,17839.0,1.0,1
223797.125,250339.375,295996.65625,304426.84375,220073.140625,248616.5,208596.953125,236862.96875,17840.0,1.0,1
223797.65625,250494.578125,296438.9375,304464.75,220539.21875,248851.734375,208818.328125,237056.890625,17841.0,1.0,1
223731.3125,250282.59375,295782.78125,304332.34375,219970.6875,248527.53125,208508.265625,236774.640625,17842.0,1.0,1
223694.484375,250006.15625,294950.0625,304218.625,219169.765625,248101.328125,208109.765625,236421.03125,17843.0,1.0,1
223741.6875,250045.578125,295081.5,304280.46875,219236.46875,248158.015625,208174.6875,236486.03125,17844.0,1.0,1
223798.8125,250330.34375,295976.4375,304420.125,220057.9375,248608.90625,208597.671875,236864.125,17845.0,1.0,1
223796.40625,250481.890625,296425.1875,304452.9375,220527.78125,248842.78125,208814.390625,237049.5625,17846.0,1.0,1
223732.390625,250269.984375,295780.75,304324.90625,219965.578125,248519.578125,208504.765625,236768.203125,17847.0,1.0,1
223696.453125,250001.234375,294949.34375,304209.3125,219164.140625,248096.6875,208107.0,236417.359375,17848.0,1.0,1
223721.84375,250028.953125,295054.125,304242.9375,219209.46875,248133.4375,208151.796875,236463.3125,17849.0,1.0,1
223798.015625,250334.546875,295963.40625,304399.40625,220050.515625,248596.828125,208589.0,236859.125,17850.0,1.0,1
223800.15625,250486.890625,296424.28125,304436.75,220532.78125,248838.40625,208810.984375,237051.171875,17851.0,1.0,1
223736.328125,250282.15625,295786.09375,304309.71875,219982.03125,248520.5625,208508.34375,236773.46875,17852.0,1.0,1
223698.59375,250006.15625,294946.5625,304193.5625,219177.015625,248089.53125,208104.578125,236417.546875,17853.0,1.0,1
223741.421875,250035.203125,295048.3125,304246.6875,219218.140625,248130.921875,208147.140625,236464.484375,17854.0,1.0,1
223804.8125,250331.140625,295944.53125,304392.25,220043.8125,248588.875,208577.640625,236848.9375,17855.0,1.0,1
223807.484375,250495.03125,296418.9375,304433.09375,220536.53125,248837.328125,208809.828125,237045.53125,17856.0,1.0,1
223733.109375,250289.03125,295782.25,304301.03125,219984.984375,248516.625,208500.296875,236760.953125,17857.0,1.0,1
223698.140625,250016.609375,294945.0625,304192.15625,219180.953125,248097.671875,208101.453125,236413.609375,17858.0,1.0,1
223739.71875,250041.640625,295041.96875,304245.4375,219216.359375,248139.953125,208149.828125,236465.828125,17859.0,1.0,1
223798.375,250325.6875,295929.78125,304385.625,220029.953125,248587.4375,208569.5,236843.46875,17860.0,1.0,1
223782.90625,250474.640625,296393.625,304412.96875,220512.578125,248821.515625,208783.359375,237024.53125,17861.0,1.0,1
223721.921875,250276.78125,295773.59375,304291.84375,219978.90625,248514.03125,208488.40625,236752.1875,17862.0,1.0,1
223686.53125,249997.5625,294929.6875,304185.0,219172.453125,248080.59375,208085.28125,236396.359375,17863.0,1.0,1
223724.25,250020.015625,295011.3125,304225.84375,219195.34375,248112.953125,208123.984375,236441.140625,17864.0,1.0,1
223800.15625,250323.09375,295912.4375,304373.90625,220022.796875,248571.609375,208557.34375,236833.375,17865.0,1.0,1
223799.4375,250487.25,296398.71875,304409.6875,220524.28125,248824.015625,208788.28125,237032.390625,17866.0,1.0,1
223740.171875,250294.9375,295790.125,304295.0625,220005.015625,248526.640625,208505.9375,236774.09375,17867.0,1.0,1
223687.421875,250006.6875,294931.09375,304171.84375,219185.0625,248081.75,208094.390625,236409.40625,17868.0,1.0,1
223722.90625,250029.84375,295004.25,304217.53125,219196.234375,248108.21875,208128.375,236448.46875,17869.0,1.0,1
223799.359375,250336.59375,295906.8125,304369.875,220021.109375,248569.296875,208561.90625,236835.4375,17870.0,1.0,1
223789.15625,250491.90625,296393.96875,304398.59375,220526.4375,248821.234375,208791.234375,237027.03125,17871.0,1.0,1
223721.21875,250283.9375,295779.84375,304272.0625,220000.0,248515.46875,208498.15625,236754.515625,17872.0,1.0,1
223694.484375,250013.03125,294932.96875,304166.65625,219189.984375,248088.90625,208097.609375,236403.765625,17873.0,1.0,1
223736.0625,250036.90625,294995.9375,304216.5625,219199.015625,248113.9375,208134.453125,236441.765625,17874.0,1.0,1
223802.9375,250325.328125,295880.0625,304359.59375,220009.578125,248565.453125,208557.34375,236821.84375,17875.0,1.0,1
223802.578125,250491.0,296385.21875,304404.3125,220530.015625,248830.53125,208798.734375,237034.09375,17876.0,1.0,1
223723.625,250281.171875,295772.15625,304269.03125,220004.921875,248522.796875,208503.609375,236762.03125,17877.0,1.0,1
223687.59375,250008.203125,294914.90625,304157.71875,219186.046875,248086.40625,208095.90625,236403.59375,17878.0,1.0,1
223731.3125,250021.171875,294965.25,304206.71875,219180.859375,248103.21875,208124.796875,236439.53125,17879.0,1.0,1
223794.96875,250311.03125,295846.90625,304342.96875,219990.265625,248552.484375,208547.234375,236816.828125,17880.0,1.0,1
223796.9375,250484.296875,296365.71875,304391.34375,220522.140625,248827.59375,208797.578125,237029.625,17881.0,1.0,1
223730.15625,250290.640625,295777.25,304268.3125,220019.9375,248536.125,208521.9375,236775.265625,17882.0,1.0,1
223691.0,250014.203125,294919.9375,304148.25,219201.6875,248099.90625,208115.578125,236415.9375,17883.0,1.0,1
223728.09375,250019.734375,294955.78125,304191.0,219180.6875,248107.5,208129.984375,236436.5,17884.0,1.0,1
223792.828125,250307.625,295834.46875,304328.65625,219984.8125,248555.25,208549.03125,236811.921875,17885.0,1.0,1
223802.03125,250490.46875,296367.0625,304382.0625,220533.046875,248834.921875,208806.703125,237035.25,17886.0,1.0,1
223746.875,250310.765625,295795.84375,304273.78125,220049.8125,248554.265625,208540.09375,236793.3125,17887.0,1.0,1
223697.515625,250019.109375,294923.5,304148.34375,219219.03125,248108.578125,208121.65625,236420.9375,17888.0,1.0,1
223728.546875,250018.125,294940.3125,304181.40625,219181.65625,248109.375,208127.65625,236430.328125,17889.0,1.0,1
223798.1875,250308.34375,295819.90625,304330.46875,219984.265625,248554.8125,208545.453125,236805.203125,17890.0,1.0,1
223809.640625,250497.359375,296362.59375,304385.09375,220541.1875,248840.640625,208804.828125,237032.03125,17891.0,1.0,1
223745.71875,250311.5625,295787.71875,304261.0,220055.265625,248557.484375,208534.0,236785.8125,17892.0,1.0,1
223703.0625,250025.828125,294914.375,304141.8125,219223.5,248109.109375,208115.40625,236417.453125,17893.0,1.0,1
223728.71875,250021.171875,294920.375,304173.375,219172.984375,248098.46875,208114.515625,236425.953125,17894.0,1.0,1
223795.78125,250306.921875,295793.0625,304312.5625,219967.28125,248538.625,208526.046875,236799.84375,17895.0,1.0,1
223801.046875,250492.796875,296347.125,304365.40625,220531.34375,248828.21875,208792.03125,237032.84375,17896.0,1.0,1
223747.046875,250317.46875,295795.03125,304263.5,220064.828125,248560.0,208534.71875,236795.28125,17897.0,1.0,1
223710.484375,250036.109375,294930.75,304150.75,219241.296875,248122.703125,208123.890625,236433.640625,17898.0,1.0,1
223757.609375,250043.515625,294944.25,304201.09375,219197.21875,248120.734375,208131.234375,236452.046875,17899.0,1.0,1
223803.296875,250310.3125,295796.5625,304322.3125,219973.546875,248543.71875,208530.96875,236807.625,17900.0,1.0,1
223810.984375,250496.90625,296355.4375,304371.3125,220541.90625,248838.5,208801.875,237040.703125,17901.0,1.0,1
223743.03125,250305.484375,295791.65625,304249.28125,220062.859375,248555.609375,208525.953125,236786.25,17902.0,1.0,1
223707.265625,250030.296875,294923.78125,304128.59375,219238.796875,248120.109375,208120.953125,236425.046875,17903.0,1.0,1
223737.3125,250022.875,294906.96875,304158.8125,219171.65625,248104.109375,208116.03125,236424.15625,17904.0,1.0,1
223800.96875,250308.34375,295769.375,304298.53125,219961.921875,248543.984375,208531.5,236797.15625,17905.0,1.0,1
223811.515625,250489.84375,296335.25,304355.40625,220534.21875,248843.765625,208806.96875,237034.359375,17906.0,1.0,1
223756.4375,250321.125,295795.65625,304250.0,220078.953125,248580.109375,208555.640625,236801.359375,17907.0,1.0,1
223709.5,250035.203125,294918.5,304127.59375,219243.53125,248127.078125,208133.734375,236428.359375,17908.0,1.0,1
223730.953125,250014.109375,294890.0625,304154.40625,219159.40625,248093.734375,208115.765625,236421.65625,17909.0,1.0,1
223799.359375,250298.6875,295755.0625,304296.65625,219948.15625,248533.078125,208530.609375,236796.0,17910.0,1.0,1
223799.625,250483.578125,296326.125,304352.09375,220528.84375,248827.5,208804.015625,237034.265625,17911.0,1.0,1
223742.046875,250312.734375,295792.8125,304245.34375,220080.46875,248562.40625,208551.0,236801.09375,17912.0,1.0,1
223701.0,250024.65625,294911.0,304121.25,219247.015625,248116.984375,208132.296875,236429.703125,17913.0,1.0,1
223742.671875,250021.890625,294884.15625,304157.0,219169.5,248099.09375,208123.625,236429.96875,17914.0,1.0,1
223807.140625,250304.328125,295737.90625,304288.0,219945.734375,248532.71875,208527.84375,236791.359375,17915.0,1.0,1
223820.1875,250502.625,296328.28125,304349.0625,220544.046875,248846.09375,208817.25,237040.34375,17916.0,1.0,1
223750.890625,250319.609375,295793.15625,304234.53125,220093.25,248577.515625,208561.453125,236802.265625,17917.0,1.0,1
223697.703125,250023.5,294906.78125,304111.21875,219251.671875,248121.71875,208132.921875,236425.671875,17918.0,1.0,1
223726.3125,250010.53125,294861.0,304132.5,219156.0,248094.1875,208111.109375,236418.4375,17919.0,1.0,1
223786.921875,250288.046875,295708.59375,304264.75,219929.828125,248525.84375,208518.0,236784.203125,17920.0,1.0,1
223810.796875,250502.53125,296317.1875,304343.0625,220543.15625,248847.890625,208815.453125,237046.96875,17921.0,1.0,1
223743.921875,250327.390625,295792.8125,304229.4375,220100.859375,248582.34375,208557.96875,236809.0625,17922.0,1.0,1
223706.640625,250042.1875,294914.125,304111.78125,219269.1875,248140.671875,208142.859375,236441.0625,17923.0,1.0,1
223741.6875,250024.921875,294858.78125,304140.03125,219162.359375,248106.515625,208116.03125,236425.953125,17924.0,1.0,1
223805.703125,250298.515625,295705.46875,304276.90625,219929.203125,248529.140625,208513.890625,236781.25,17925.0,1.0,1
223821.34375,250499.859375,296313.34375,304339.125,220538.953125,248849.9375,208806.25,237030.34375,17926.0,1.0,1
223753.046875,250330.34375,295798.53125,304221.90625,220107.390625,248591.46875,208557.078125,236802.4375,17927.0,1.0,1
223697.25,250034.5,294904.90625,304093.8125,219261.140625,248130.578125,208127.828125,236427.015625,17928.0,1.0,1
223736.59375,250023.234375,294849.90625,304128.65625,219159.3125,248103.296875,208110.484375,236423.890625,17929.0,1.0,1
223790.421875,250286.4375,295687.125,304255.34375,219918.90625,248524.859375,208507.71875,236782.140625,17930.0,1.0,1
223796.671875,250488.859375,296294.28125,304315.0,220528.84375,248839.75,208798.828125,237036.859375,17931.0,1.0,1
223740.34375,250329.984375,295797.53125,304214.84375,220116.5,248601.296875,208565.5625,236823.625,17932.0,1.0,1
223701.640625,250043.96875,294914.84375,304094.25,219277.515625,248153.015625,208144.015625,236450.53125,17933.0,1.0,1
223740.171875,250022.6875,294841.53125,304129.84375,219152.15625,248105.984375,208110.671875,236431.484375,17934.0,1.0,1
223791.390625,250281.703125,295667.375,304250.0,219901.484375,248512.421875,208497.796875,236778.03125,17935.0,1.0,1
223805.25,250487.15625,296287.9375,304311.3125,220522.234375,248832.5,208796.0625,237034.546875,17936.0,1.0,1
223745.078125,250329.625,295799.0625,304210.9375,220120.96875,248590.921875,208566.640625,236823.53125,17937.0,1.0,1
223700.65625,250039.953125,294908.21875,304087.375,219281.0,248142.015625,208144.46875,236447.40625,17938.0,1.0,1
223724.515625,250000.703125,294808.25,304099.875,219130.609375,248080.0625,208093.234375,236404.21875,17939.0,1.0,1
223798.015625,250282.0625,295649.3125,304242.75,219892.8125,248508.765625,208497.796875,236766.59375,17940.0,1.0,1
223827.875,250511.03125,296291.875,304326.78125,220539.21875,248851.015625,208814.203125,237043.21875,17941.0,1.0,1
223756.34375,250345.1875,295799.96875,304211.625,220135.453125,248603.984375,208577.015625,236824.515625,17942.0,1.0,1
223698.859375,250046.46875,294900.34375,304076.53125,219287.25,248142.015625,208145.09375,236443.015625,17943.0,1.0,1
223722.828125,249998.8125,294792.0625,304091.84375,219131.0625,248077.203125,208091.53125,236404.9375,17944.0,1.0,1
223794.96875,250266.59375,295627.9375,304233.90625,219885.390625,248500.8125,208487.96875,236764.53125,17945.0,1.0,1
223813.84375,250490.921875,296276.59375,304315.09375,220535.828125,248845.109375,208804.90625,237043.75,17946.0,1.0,1
223743.65625,250334.28125,295795.40625,304192.78125,220140.375,248604.515625,208576.03125,236827.109375,17947.0,1.0,1
223680.625,250026.984375,294882.8125,304045.0625,219280.546875,248134.140625,208132.296875,236430.6875,17948.0,1.0,1
223717.09375,249992.03125,294775.09375,304070.1875,219129.0,248074.0625,208085.1875,236396.359375,17949.0,1.0,1
223791.84375,250266.328125,295607.46875,304218.6875,219881.1875,248495.703125,208484.296875,236754.6875,17950.0,1.0,1
223805.609375,250475.0,296251.375,304286.65625,220525.359375,248831.25,208793.46875,237026.140625,17951.0,1.0,1
223738.734375,250321.21875,295781.28125,304177.75,220143.140625,248596.03125,208568.78125,236818.4375,17952.0,1.0,1
223689.203125,250031.0,294884.34375,304049.625,219299.0625,248140.40625,208141.328125,236440.875,17953.0,1.0,1
223712.984375,249986.03125,294756.21875,304060.625,219124.078125,248065.390625,208077.046875,236388.75,17954.0,1.0,1
223787.46875,250262.125,295588.96875,304206.90625,219870.8125,248483.546875,208472.578125,236749.15625,17955.0,1.0,1
223816.34375,250492.4375,296259.6875,304297.28125,220539.21875,248835.359375,208799.359375,237039.28125,17956.0,1.0,1
223749.828125,250342.5,295805.875,304190.09375,220168.8125,248607.375,208584.171875,236838.734375,17957.0,1.0,1
223686.96875,250038.875,294893.5625,304044.34375,219312.734375,248146.125,208147.859375,236448.203125,17958.0,1.0,1
223705.5625,249985.40625,294743.0,304049.8125,219121.671875,248066.015625,208076.0625,236388.9375,17959.0,1.0,1
223774.40625,250250.671875,295558.03125,304186.15625,219857.578125,248477.734375,208464.265625,236740.125,17960.0,1.0,1
223802.65625,250481.890625,296229.65625,304271.375,220526.4375,248831.609375,208793.109375,237028.453125,17961.0,1.0,1
223739.8125,250342.328125,295787.875,304172.65625,220168.09375,248613.90625,208585.140625,236832.921875,17962.0,1.0,1
223685.8125,250047.015625,294884.6875,304036.65625,219319.265625,248156.5,208154.5625,236452.671875,17963.0,1.0,1
223708.609375,249990.765625,294730.375,304046.9375,219121.5,248068.796875,208079.015625,236394.296875,17964.0,1.0,1
223787.28125,250269.8125,295556.5,304197.25,219868.84375,248490.4375,208477.953125,236757.46875,17965.0,1.0,1
223792.734375,250487.15625,296214.90625,304258.65625,220523.578125,248825.359375,208788.375,237025.234375,17966.0,1.0,1
223735.875,250336.515625,295783.34375,304165.5,220174.34375,248616.3125,208584.609375,236834.53125,17967.0,1.0,1
223693.59375,250046.828125,294886.3125,304040.6875,219330.4375,248166.953125,208159.578125,236455.890625,17968.0,1.0,1
223715.84375,249996.671875,294722.53125,304045.4375,219123.28125,248068.078125,208079.375,236390.890625,17969.0,1.0,1
223785.5,250261.140625,295535.0625,304191.875,219853.203125,248479.609375,208470.34375,236743.078125,17970.0,1.0,1
223801.859375,250478.671875,296212.125,304272.15625,220524.46875,248831.875,208794.71875,237030.609375,17971.0,1.0,1
223742.5,250340.984375,295789.40625,304163.625,220179.171875,248620.078125,208592.75,236841.59375,17972.0,1.0,1
223686.53125,250040.125,294880.0625,304023.875,219321.234375,248151.40625,208156.703125,236454.640625,17973.0,1.0,1
223717.1875,249986.21875,294715.28125,304043.71875,219113.265625,248061.28125,208082.0625,236398.671875,17974.0,1.0,1
223788.8125,250249.96875,295523.15625,304187.6875,219839.515625,248468.703125,208468.109375,236749.0625,17975.0,1.0,1
223802.9375,250466.421875,296199.4375,304255.90625,220508.375,248814.359375,208784.703125,237025.0625,17976.0,1.0,1
223748.21875,250334.546875,295790.46875,304157.375,220181.765625,248614.4375,208593.828125,236844.28125,17977.0,1.0,1
223704.140625,250045.484375,294891.75,304030.6875,219338.578125,248162.578125,208168.15625,236465.109375,17978.0,1.0,1
223731.671875,249993.015625,294710.53125,304045.0625,219117.734375,248066.46875,208085.8125,236397.6875,17979.0,1.0,1
223795.328125,250252.5625,295507.0625,304176.0625,219832.453125,248469.0625,208464.984375,236737.96875,17980.0,1.0,1
223811.6875,250483.765625,296197.375,304251.59375,220518.65625,248833.75,208798.03125,237025.328125,17981.0,1.0,1
223742.84375,250345.453125,295781.09375,304146.375,220187.40625,248625.34375,208595.96875,236834.796875,17982.0,1.0,1
223690.71875,250047.8125,294874.59375,304014.21875,219335.53125,248167.046875,208164.84375,236449.546875,17983.0,1.0,1
223717.546875,249988.265625,294686.40625,304025.9375,219108.4375,248067.8125,208082.0625,236382.765625,17984.0,1.0,1
223790.765625,250252.46875,295483.90625,304166.21875,219822.984375,248473.453125,208464.8125,236727.609375,17985.0,1.0,1
223804.90625,250479.109375,296178.25,304233.53125,220504.078125,248825.53125,208789.359375,237014.421875,17986.0,1.0,1
223750.0,250354.84375,295791.65625,304143.96875,220198.046875,248635.0,208609.109375,236847.234375,17987.0,1.0,1
223699.21875,250057.5625,294888.09375,304010.90625,219351.0,248176.96875,208177.984375,236461.796875,17988.0,1.0,1
223729.4375,249994.4375,294690.15625,304023.53125,219111.84375,248071.65625,208086.53125,236385.171875,17989.0,1.0,1
223806.328125,250256.765625,295487.40625,304170.25,219822.4375,248473.171875,208467.484375,236731.53125,17990.0,1.0,1
223814.546875,250480.90625,296183.6875,304239.34375,220507.21875,248824.8125,208790.875,237018.171875,17991.0,1.0,1
223758.671875,250362.796875,295802.8125,304146.375,220212.34375,248639.921875,208615.015625,236852.953125,17992.0,1.0,1
223710.484375,250068.46875,294899.90625,304017.0,219367.265625,248182.515625,208187.203125,236477.09375,17993.0,1.0,1
223723.984375,249985.40625,294676.125,304013.5,219104.328125,248056.984375,208079.46875,236390.625,17994.0,1.0,1
223782.90625,250232.34375,295448.78125,304141.375,219798.03125,248445.015625,208445.140625,236717.765625,17995.0,1.0,1
223813.921875,250479.65625,296169.375,304227.71875,220509.09375,248823.75,208792.21875,237022.46875,17996.0,1.0,1
223757.328125,250362.34375,295799.0625,304133.75,220218.515625,248643.671875,208617.78125,236856.984375,17997.0,1.0,1
223695.90625,250059.703125,294883.90625,303995.90625,219359.046875,248172.328125,208174.59375,236463.859375,17998.0,1.0,1
223716.46875,249976.109375,294653.9375,303999.84375,219090.109375,248044.828125,208063.8125,236372.21875,17999.0,1.0,1
223798.90625,250241.109375,295446.09375,304151.1875,219795.984375,248450.46875,208446.296875,236719.640625,18000.0,1.0,1
223822.875,250480.8125,296167.15625,304237.46875,220503.546875,248823.125,208786.5,237017.109375,18001.0,1.0,1
223756.0,250363.875,295802.71875,304131.96875,220223.515625,248646.453125,208615.90625,236853.671875,18002.0,1.0,1
223699.21875,250070.703125,294894.0,303989.1875,219376.921875,248191.015625,208185.859375,236469.75,18003.0,1.0,1
223725.59375,249994.96875,294657.59375,304002.25,219105.578125,248071.203125,208079.28125,236383.203125,18004.0,1.0,1
223797.484375,250249.0625,295430.0,304143.40625,219793.75,248462.09375,208448.4375,236716.078125,18005.0,1.0,1
223815.09375,250488.765625,296156.6875,304217.625,220507.390625,248835.90625,208795.515625,237016.390625,18006.0,1.0,1
223756.265625,250375.21875,295805.59375,304128.40625,220235.421875,248661.65625,208628.59375,236855.015625,18007.0,1.0,1
223694.390625,250067.21875,294889.34375,303985.4375,219379.15625,248195.484375,208188.0,236468.0625,18008.0,1.0,1
223726.125,249991.671875,294650.28125,303996.875,219102.984375,248069.78125,208080.984375,236386.515625,18009.0,1.0,1
223788.53125,250232.53125,295408.53125,304126.6875,219778.640625,248444.21875,208439.328125,236711.25,18010.0,1.0,1
223809.09375,250468.203125,296137.28125,304202.6875,220492.640625,248815.078125,208781.484375,237009.59375,18011.0,1.0,1
223763.140625,250363.78125,295801.125,304121.0625,220237.65625,248653.25,208626.1875,236862.609375,18012.0,1.0,1
223714.15625,250068.828125,294894.96875,303991.78125,219394.546875,248198.34375,208198.828125,236483.078125,18013.0,1.0,1
223739.0,249987.828125,294634.90625,303994.125,219099.671875,248059.046875,208076.25,236383.203125,18014.0,1.0,1
223808.125,250241.65625,295393.53125,304128.03125,219774.796875,248440.1875,208437.09375,236709.8125,18015.0,1.0,1
223820.71875,250472.671875,296128.34375,304204.75,220491.828125,248820.34375,208783.90625,237010.578125,18016.0,1.0,1
223767.171875,250370.484375,295804.78125,304122.40625,220244.359375,248667.015625,208633.609375,236864.84375,18017.0,1.0,1
223720.3125,250081.96875,294902.40625,303992.0625,219399.28125,248207.46875,208204.8125,236481.015625,18018.0,1.0,1
223740.609375,249994.625,294627.84375,303986.96875,219091.1875,248057.796875,208074.28125,236371.765625,18019.0,1.0,1
223815.53125,250244.953125,295384.65625,304129.46875,219770.859375,248438.75,208439.6875,236707.3125,18020.0,1.0,1
223828.859375,250478.671875,296119.59375,304204.40625,220488.703125,248808.71875,208784.171875,237009.765625,18021.0,1.0,1
223771.453125,250370.125,295800.125,304117.21875,220245.0625,248649.84375,208629.21875,236866.28125,18022.0,1.0,1
223723.71875,250083.3125,294901.6875,303988.5625,219403.484375,248200.21875,208200.34375,236490.59375,18023.0,1.0,1
223730.78125,249985.234375,294613.53125,303973.46875,219082.515625,248047.953125,208061.84375,236374.453125,18024.0,1.0,1
223799.984375,250228.59375,295361.6875,304106.0625,219746.625,248425.4375,208418.046875,236693.90625,18025.0,1.0,1
223831.0,250484.921875,296124.875,304202.25,220491.5625,248818.375,208784.703125,237015.5,18026.0,1.0,1
223779.6875,250392.390625,295823.21875,304120.4375,220270.8125,248675.6875,208647.640625,236885.859375,18027.0,1.0,1
223712.8125,250085.453125,294899.8125,303973.1875,219414.75,248209.609375,208204.8125,236489.15625,18028.0,1.0,1
223722.28125,249987.828125,294600.84375,303963.90625,219089.65625,248055.375,208064.890625,236372.296875,18029.0,1.0,1
223783.265625,250228.15625,295340.125,304098.53125,219747.96875,248428.296875,208417.59375,236693.09375,18030.0,1.0,1
223794.96875,250468.828125,296088.65625,304179.8125,220474.125,248807.65625,208769.234375,236996.09375,18031.0,1.0,1
223747.140625,250387.921875,295802.46875,304106.3125,220261.515625,248670.40625,208640.40625,236871.546875,18032.0,1.0,1
223686.703125,250098.421875,294896.3125,303969.0,219418.6875,248209.609375,208210.359375,236489.421875,18033.0,1.0,1
223703.515625,249995.515625,294592.34375,303960.03125,219081.34375,248046.078125,208065.96875,236372.03125,18034.0,1.0,1
223764.9375,250227.703125,295322.78125,304084.59375,219726.515625,248410.6875,208410.53125,236687.46875,18035.0,1.0,1
223789.078125,250477.953125,296091.59375,304181.25,220471.359375,248806.3125,208773.890625,237010.3125,18036.0,1.0,1
223743.921875,250391.5,295816.21875,304110.96875,220268.140625,248677.46875,208646.484375,236891.125,18037.0,1.0,1
223686.875,250094.9375,294912.5,303972.28125,219424.765625,248220.25,208216.078125,236507.3125,18038.0,1.0,1
223696.0,249987.28125,294595.125,303954.3125,219079.296875,248052.875,208065.6875,236383.484375,18039.0,1.0,1
223753.9375,250219.828125,295317.4375,304075.28125,219716.140625,248411.21875,208407.9375,236695.15625,18040.0,1.0,1
223777.453125,250474.640625,296091.96875,304166.5,220470.375,248812.75,208780.0625,237025.953125,18041.0,1.0,1
223726.578125,250394.890625,295821.78125,304094.6875,220279.21875,248684.53125,208660.34375,236911.78125,18042.0,1.0,1
223667.5625,250103.34375,294912.15625,303957.46875,219437.28125,248228.203125,208231.359375,236528.859375,18043.0,1.0,1
223667.84375,249986.390625,294571.875,303931.53125,219070.703125,248049.21875,208068.90625,236391.875,18044.0,1.0,1
223729.34375,250214.640625,295283.90625,304059.65625,219703.4375,248409.515625,208408.84375,236700.609375,18045.0,1.0,1
223758.859375,250466.59375,296062.1875,304156.5625,220462.328125,248812.390625,208778.359375,237025.15625,18046.0,1.0,1
223709.765625,250385.59375,295802.90625,304077.53125,220278.78125,248690.078125,208657.03125,236907.765625,18047.0,1.0,1
223650.3125,250093.140625,294898.65625,303938.84375,219436.734375,248233.84375,208226.0,236523.40625,18048.0,1.0,1
223658.0,249975.3125,294555.5,303917.75,219068.390625,248051.71875,208062.03125,236386.15625,18049.0,1.0,1
223722.640625,250204.546875,295263.15625,304042.375,219693.421875,248405.234375,208395.421875,236691.03125,18050.0,1.0,1
223763.5,250472.59375,296059.25,304151.46875,220467.34375,248815.78125,208780.6875,237028.453125,18051.0,1.0,1
223710.21875,250387.65625,295807.03125,304073.25,220289.859375,248691.875,208661.59375,236908.65625,18052.0,1.0,1
223651.203125,250093.328125,294902.59375,303934.84375,219448.90625,248236.15625,208231.8125,236526.171875,18053.0,1.0,1
223669.453125,249990.765625,294556.3125,303920.15625,219076.609375,248055.5625,208071.59375,236393.671875,18054.0,1.0,1
223731.234375,250219.203125,295261.0,304051.78125,219702.28125,248407.109375,208406.515625,236699.890625,18055.0,1.0,1
223747.046875,250464.8125,296039.3125,304140.46875,220460.265625,248803.265625,208770.125,237019.875,18056.0,1.0,1
223693.40625,250386.484375,295795.9375,304057.9375,220298.625,248687.75,208662.65625,236913.390625,18057.0,1.0,1
223643.515625,250095.921875,294892.9375,303927.0625,219463.5625,248233.203125,208234.9375,236531.0,18058.0,1.0,1
223663.375,249986.484375,294539.3125,303912.65625,219083.140625,248052.609375,208068.375,236391.4375,18059.0,1.0,1
223720.40625,250202.21875,295228.84375,304027.09375,219687.53125,248395.9375,208388.546875,236682.546875,18060.0,1.0,1
223765.015625,250474.90625,296034.65625,304135.90625,220464.828125,248810.15625,208770.75,237019.421875,18061.0,1.0,1
223727.828125,250417.0625,295822.125,304081.0,220322.859375,248713.234375,208673.578125,236923.859375,18062.0,1.0,1
223666.671875,250117.640625,294914.375,303942.625,219482.421875,248257.4375,208238.515625,236537.890625,18063.0,1.0,1
223668.46875,249987.109375,294532.96875,303903.53125,219077.140625,248054.21875,208055.6875,236385.4375,18064.0,1.0,1
223740.171875,250212.765625,295226.78125,304034.0625,219685.828125,248402.640625,208387.203125,236687.90625,18065.0,1.0,1
223772.359375,250471.515625,296026.34375,304132.59375,220458.125,248811.578125,208765.296875,237022.734375,18066.0,1.0,1
223730.515625,250404.8125,295809.625,304063.21875,220317.3125,248711.09375,208668.5625,236926.359375,18067.0,1.0,1
223680.09375,250112.640625,294906.96875,303926.25,219482.875,248257.53125,208240.390625,236543.515625,18068.0,1.0,1
223691.171875,249977.71875,294518.65625,303898.8125,219068.03125,248050.015625,208055.40625,236385.890625,18069.0,1.0,1
223765.46875,250202.578125,295205.5,304021.03125,219667.046875,248392.625,208383.453125,236681.375,18070.0,1.0,1
223807.21875,250483.859375,296025.4375,304130.46875,220457.859375,248815.703125,208780.140625,237027.828125,18071.0,1.0,1
223767.34375,250430.203125,295827.84375,304070.09375,220332.6875,248727.90625,208698.875,236943.171875,18072.0,1.0,1
223692.6875,250121.3125,294904.375,303913.03125,219477.59375,248254.84375,208249.25,236542.078125,18073.0,1.0,1
223690.09375,249984.421875,294500.34375,303881.0,219053.09375,248040.53125,208055.234375,236377.3125,18074.0,1.0,1
223752.0625,250198.015625,295177.40625,304006.28125,219644.96875,248376.53125,208377.546875,236669.765625,18075.0,1.0,1
223796.3125,250477.328125,296001.40625,304117.75,220439.890625,248804.515625,208772.09375,237018.0,18076.0,1.0,1
223748.65625,250412.6875,295805.3125,304052.40625,220312.21875,248707.25,208674.5625,236922.6875,18077.0,1.0,1
223688.40625,250114.15625,294899.46875,303903.8125,219472.6875,248245.453125,208237.359375,236530.015625,18078.0,1.0,1
223703.515625,249988.359375,294496.75,303875.03125,219051.390625,248040.359375,208050.671875,236374.625,18079.0,1.0,1
223773.0625,250198.203125,295165.34375,304004.65625,219639.96875,248380.90625,208373.34375,236668.421875,18080.0,1.0,1
223818.84375,250477.953125,295996.21875,304121.34375,220441.765625,248811.765625,208773.703125,237023.359375,18081.0,1.0,1
223754.921875,250407.5,295799.25,304039.96875,220317.125,248711.53125,208673.65625,236918.75,18082.0,1.0,1
223691.53125,250107.984375,294894.4375,303892.0,219481.625,248248.59375,208239.328125,236529.65625,18083.0,1.0,1
223701.453125,249970.125,294478.34375,303860.1875,219042.546875,248031.953125,208043.4375,236359.515625,18084.0,1.0,1
223774.40625,250190.421875,295146.5625,303990.34375,219624.578125,248368.21875,208366.734375,236653.84375,18085.0,1.0,1
223815.53125,250467.140625,295975.03125,304100.9375,220424.328125,248798.890625,208766.109375,237007.71875,18086.0,1.0,1
223761.796875,250408.65625,295798.71875,304026.28125,220321.609375,248718.421875,208685.109375,236925.1875,18087.0,1.0,1
223715.578125,250127.125,294914.375,303898.1875,219509.15625,248277.734375,208271.6875,236558.0,18088.0,1.0,1
223726.484375,249987.640625,294490.3125,303873.0625,219066.328125,248058.421875,208073.203125,236390.453125,18089.0,1.0,1
223773.0625,250182.8125,295123.6875,303978.71875,219621.015625,248368.65625,208367.359375,236658.3125,18090.0,1.0,1
223813.484375,250463.921875,295958.21875,304088.6875,220426.125,248796.46875,208767.625,237014.875,18091.0,1.0,1
223772.265625,250423.234375,295804.0625,304029.875,220344.3125,248727.1875,208700.296875,236946.65625,18092.0,1.0,1
223705.828125,250125.6875,294901.6875,303884.6875,219515.953125,248270.578125,208268.5625,236561.578125,18093.0,1.0,1
223701.71875,249970.921875,294455.90625,303840.96875,219054.171875,248039.46875,208054.703125,236380.890625,18094.0,1.0,1
223764.3125,250175.75,295094.09375,303959.34375,219610.90625,248362.578125,208357.34375,236651.875,18095.0,1.0,1
223803.375,250452.828125,295928.875,304074.3125,220417.625,248793.53125,208754.65625,237001.640625,18096.0,1.0,1
223769.84375,250423.234375,295795.21875,304028.1875,220353.15625,248738.8125,208699.59375,236941.640625,18097.0,1.0,1
223705.125,250126.84375,294899.375,303882.8125,219524.359375,248285.78125,208269.90625,236554.421875,18098.0,1.0,1
223712.625,249982.453125,294453.65625,303846.6875,219061.328125,248053.5,208059.875,236375.4375,18099.0,1.0,1
223771.734375,250181.828125,295083.625,303956.28125,219607.234375,248362.40625,208355.375,236647.671875,18100.0,1.0,1
223804.09375,250454.265625,295918.59375,304057.84375,220410.203125,248788.25,208750.90625,237000.203125,18101.0,1.0,1
223768.953125,250423.5,295792.1875,304007.96875,220353.609375,248735.859375,208699.046875,236947.09375,18102.0,1.0,1
223702.53125,250122.296875,294893.09375,303863.40625,219527.9375,248281.40625,208267.125,236560.0625,18103.0,1.0,1
223709.5,249971.90625,294433.375,303825.75,219051.21875,248041.875,208048.796875,236371.671875,18104.0,1.0,1
223773.15625,250174.421875,295062.625,303949.59375,219592.3125,248352.296875,208348.3125,236639.71875,18105.0,1.0,1
223811.328125,250454.53125,295911.0,304061.78125,220408.15625,248793.078125,208758.0625,236996.90625,18106.0,1.0,1
223778.171875,250429.5,295799.6875,304010.125,220367.296875,248751.328125,208715.953125,236949.15625,18107.0,1.0,1
223724.25,250146.078125,294918.84375,303878.40625,219554.578125,248308.765625,208293.765625,236573.640625,18108.0,1.0,1
223713.53125,249984.515625,294441.5,303826.28125,219060.421875,248057.34375,208063.453125,236375.078125,18109.0,1.0,1
223775.65625,250183.53125,295060.125,303944.84375,219595.53125,248368.65625,208360.640625,236645.34375,18110.0,1.0,1
223818.046875,250460.078125,295910.1875,304058.75,220411.09375,248807.203125,208767.625,237006.828125,18111.0,1.0,1
223779.6875,250433.515625,295806.40625,304003.6875,220375.78125,248765.8125,208724.71875,236958.28125,18112.0,1.0,1
223726.84375,250160.640625,294928.5,303869.84375,219570.3125,248327.71875,208311.203125,236590.359375,18113.0,1.0,1
223709.765625,249984.515625,294427.90625,303810.5625,219060.78125,248060.5625,208066.9375,236380.796875,18114.0,1.0,1
223762.078125,250170.390625,295024.4375,303922.75,219578.453125,248350.421875,208347.6875,236635.34375,18115.0,1.0,1
223812.046875,250464.625,295886.96875,304045.6875,220409.046875,248798.359375,208767.359375,237008.796875,18116.0,1.0,1
223767.171875,250433.703125,295786.375,303990.71875,220379.53125,248754.71875,208723.375,236959.078125,18117.0,1.0,1
223692.328125,250132.578125,294889.53125,303841.21875,219552.609375,248294.984375,208287.78125,236564.53125,18118.0,1.0,1
223689.203125,249966.8125,294396.8125,303796.625,219040.484375,248028.203125,208047.546875,236360.140625,18119.0,1.0,1
223748.84375,250156.796875,294998.4375,303905.6875,219556.28125,248321.09375,208330.25,236616.109375,18120.0,1.0,1
223793.71875,250442.015625,295860.59375,304024.0625,220384.546875,248768.484375,208742.140625,236985.453125,18121.0,1.0,1
223748.03125,250423.140625,295775.65625,303974.34375,220368.625,248735.953125,208706.65625,236946.296875,18122.0,1.0,1
223683.84375,250147.0625,294901.25,303839.875,219565.3125,248301.609375,208294.578125,236576.78125,18123.0,1.0,1
223669.359375,249974.234375,294397.53125,303783.5625,219050.953125,248044.390625,208056.03125,236365.6875,18124.0,1.0,1
223726.484375,250169.5,294992.78125,303900.78125,219563.875,248343.0,208341.15625,236624.78125,18125.0,1.0,1
223774.140625,250460.34375,295861.65625,304028.71875,220397.0625,248799.875,208758.515625,236996.71875,18126.0,1.0,1
223730.25,250436.28125,295781.53125,303978.5625,220386.875,248764.5625,208720.78125,236956.390625,18127.0,1.0,1
223675.796875,250155.90625,294907.6875,303839.0,219587.484375,248322.625,208305.84375,236586.609375,18128.0,1.0,1
223665.609375,249975.125,294387.15625,303781.5,219053.359375,248046.625,208051.484375,236367.296875,18129.0,1.0,1
223720.953125,250164.671875,294970.34375,303896.65625,219554.484375,248339.15625,208330.609375,236619.875,18130.0,1.0,1
223746.421875,250439.5,295829.1875,304009.5625,220374.359375,248779.75,208740.1875,236980.265625,18131.0,1.0,1
223696.359375,250422.96875,295766.0,303961.125,220376.5,248754.90625,208713.890625,236950.59375,18132.0,1.0,1
223647.28125,250153.671875,294906.53125,303839.625,219590.34375,248325.125,208311.828125,236590.90625,18133.0,1.0,1
223634.84375,249973.421875,294378.84375,303783.28125,219049.875,248044.921875,208054.875,236366.9375,18134.0,1.0,1
223685.984375,250153.046875,294947.71875,303879.03125,219535.359375,248321.09375,208320.40625,236610.296875,18135.0,1.0,1
223724.078125,250436.28125,295812.3125,303990.53125,220361.484375,248760.0,208729.0,236971.328125,18136.0,1.0,1
223689.203125,250428.515625,295767.15625,303950.75,220381.140625,248746.9375,208711.921875,236944.859375,18137.0,1.0,1
223636.28125,250154.03125,294903.65625,303822.0,219590.96875,248314.921875,208301.8125,236579.453125,18138.0,1.0,1
223637.53125,249976.921875,294372.75,303769.25,219047.109375,248032.671875,208044.5,236358.171875,18139.0,1.0,1
223698.953125,250153.5,294934.0625,303874.46875,219522.390625,248305.90625,208306.734375,236595.734375,18140.0,1.0,1
223750.265625,250447.375,295812.65625,303999.75,220357.1875,248754.71875,208727.65625,236966.765625,18141.0,1.0,1
223733.28125,250447.46875,295784.9375,303967.03125,220391.78125,248750.515625,208722.390625,236951.21875,18142.0,1.0,1
223671.765625,250158.859375,294908.3125,303818.78125,219588.5625,248304.296875,208299.3125,236569.359375,18143.0,1.0,1
223666.140625,249983.4375,294373.90625,303768.53125,219045.5,248029.09375,208048.078125,236351.734375,18144.0,1.0,1
223736.40625,250173.796875,294943.625,303891.46875,219533.125,248324.234375,208326.671875,236604.765625,18145.0,1.0,1
223761.265625,250448.453125,295806.21875,303998.40625,220358.171875,248762.953125,208736.96875,236969.8125,18146.0,1.0,1
223714.0625,250436.015625,295771.53125,303947.8125,220390.625,248754.0,208724.984375,236951.484375,18147.0,1.0,1
223654.34375,250148.75,294901.25,303807.34375,219599.109375,248316.984375,208308.96875,236578.03125,18148.0,1.0,1
223652.90625,249972.890625,294360.25,303756.03125,219049.25,248037.234375,208053.984375,236361.125,18149.0,1.0,1
223714.59375,250158.765625,294915.09375,303869.5625,219521.234375,248311.890625,208318.453125,236607.171875,18150.0,1.0,1
223770.390625,250455.15625,295804.4375,304008.6875,220367.375,248769.296875,208744.65625,236987.953125,18151.0,1.0,1
223731.578125,250453.640625,295787.71875,303959.40625,220413.15625,248764.109375,208736.25,236971.78125,18152.0,1.0,1
223667.75,250168.328125,294917.25,303808.9375,219622.4375,248325.390625,208317.28125,236596.171875,18153.0,1.0,1
223657.015625,249976.921875,294356.03125,303748.25,219058.8125,248036.0625,208048.96875,236364.078125,18154.0,1.0,1
223717.734375,250155.1875,294897.65625,303859.375,219521.234375,248308.21875,208307.890625,236600.640625,18155.0,1.0,1
223770.921875,250450.59375,295783.78125,303984.46875,220364.515625,248766.703125,208730.703125,236975.265625,18156.0,1.0,1
223736.953125,250453.1875,295777.59375,303947.875,220421.203125,248772.515625,208730.34375,236964.53125,18157.0,1.0,1
223668.90625,250167.984375,294911.34375,303809.65625,219634.328125,248337.109375,208316.390625,236592.15625,18158.0,1.0,1
223658.546875,249982.453125,294342.90625,303743.5,219062.65625,248044.5625,208047.71875,236355.671875,18159.0,1.0,1
223713.96875,250152.0625,294873.25,303851.3125,219510.59375,248309.828125,208302.171875,236592.421875,18160.0,1.0,1
223751.078125,250436.015625,295752.75,303967.75,220346.546875,248759.375,208718.546875,236964.09375,18161.0,1.0,1
223727.03125,250454.796875,295774.375,303944.75,220427.546875,248782.796875,208737.859375,236973.390625,18162.0,1.0,1
223667.65625,250185.859375,294924.21875,303811.8125,219654.8125,248354.890625,208337.140625,236615.21875,18163.0,1.0,1
223647.546875,249987.546875,294338.96875,303742.15625,219067.9375,248048.9375,208057.296875,236371.40625,18164.0,1.0,1
223693.859375,250140.984375,294851.96875,303841.65625,219503.078125,248297.21875,208299.578125,236590.984375,18165.0,1.0,1
223742.578125,250437.0,295742.125,303970.25,220346.546875,248751.953125,208724.53125,236965.703125,18166.0,1.0,1
223710.484375,250453.359375,295764.90625,303937.15625,220424.953125,248770.90625,208739.28125,236966.40625,18167.0,1.0,1
223643.15625,250179.875,294915.1875,303800.8125,219651.3125,248344.078125,208336.953125,236603.0625,18168.0,1.0,1
223640.5625,249988.09375,294334.84375,303738.6875,219065.078125,248041.703125,208060.953125,236362.109375,18169.0,1.0,1
223710.3125,250161.265625,294857.6875,303847.40625,219507.8125,248305.8125,208312.71875,236595.546875,18170.0,1.0,1
223766.984375,250465.078125,295759.8125,303987.59375,220365.953125,248779.3125,208748.9375,236985.359375,18171.0,1.0,1
223737.03125,250472.3125,295785.9375,303951.46875,220452.046875,248797.015625,208764.3125,236987.6875,18172.0,1.0,1
223670.34375,250187.375,294923.59375,303796.78125,219667.234375,248355.078125,208347.140625,236611.109375,18173.0,1.0,1
223660.59375,249991.40625,294328.3125,303729.65625,219069.015625,248048.140625,208060.328125,236363.453125,18174.0,1.0,1
223734.984375,250161.546875,294841.875,303842.84375,219502.453125,248310.8125,208308.703125,236594.296875,18175.0,1.0,1
223785.59375,250450.765625,295732.71875,303968.71875,220347.890625,248767.6875,208733.03125,236973.109375,18176.0,1.0,1
223749.015625,250465.609375,295767.59375,303926.15625,220444.71875,248790.9375,208752.421875,236978.578125,18177.0,1.0,1
223695.203125,250195.421875,294928.96875,303795.8125,219682.15625,248372.234375,208355.015625,236623.984375,18178.0,1.0,1
223690.546875,249998.015625,294335.65625,303738.21875,219082.6875,248066.734375,208072.578125,236382.5,18179.0,1.0,1
223750.625,250152.875,294830.78125,303839.875,219492.625,248309.03125,208302.265625,236594.03125,18180.0,1.0,1
223800.078125,250449.4375,295728.4375,303963.34375,220344.40625,248767.421875,208729.546875,236973.46875,18181.0,1.0,1
223758.140625,250467.765625,295779.125,303925.1875,220453.03125,248796.203125,208760.65625,236987.421875,18182.0,1.0,1
223685.625,250194.359375,294938.0625,303788.21875,219690.296875,248375.28125,208363.421875,236632.203125,18183.0,1.0,1
223662.390625,249987.734375,294325.46875,303721.59375,219078.046875,248059.765625,208069.359375,236378.46875,18184.0,1.0,1
223702.265625,250134.890625,294800.75,303817.4375,219477.421875,248293.109375,208295.109375,236588.125,18185.0,1.0,1
223737.3125,250432.796875,295694.90625,303946.375,220323.296875,248746.671875,208719.609375,236968.109375,18186.0,1.0,1
223716.65625,250463.46875,295764.90625,303925.34375,220448.828125,248790.9375,208759.140625,236994.75,18187.0,1.0,1
223681.609375,250200.515625,294939.34375,303805.375,219697.71875,248378.234375,208368.34375,236643.5625,18188.0,1.0,1
223674.625,249991.84375,294314.03125,303727.40625,219072.140625,248048.9375,208065.15625,236378.03125,18189.0,1.0,1
223743.75,250151.609375,294793.0625,303824.5,219471.703125,248285.78125,208296.0,236590.0,18190.0,1.0,1
223793.8125,250443.984375,295687.84375,303946.1875,220320.796875,248746.40625,208723.8125,236968.375,18191.0,1.0,1
223772.984375,250481.625,295775.71875,303927.59375,220466.0,248805.6875,208774.0625,237006.90625,18192.0,1.0,1
223713.609375,250214.734375,294946.21875,303793.84375,219713.453125,248392.171875,208379.59375,236653.21875,18193.0,1.0,1
223698.0625,250004.625,294317.0625,303718.5625,219083.578125,248066.90625,208077.859375,236387.859375,18194.0,1.0,1
223754.921875,250156.0,294781.4375,303811.4375,219469.640625,248296.0625,208298.78125,236591.703125,18195.0,1.0,1
223794.96875,250442.015625,295673.28125,303931.0,220315.609375,248750.25,208720.515625,236965.421875,18196.0,1.0,1
223771.8125,250476.25,295766.15625,303913.1875,220465.640625,248813.46875,208773.4375,237002.796875,18197.0,1.0,1
223715.765625,250213.03125,294943.4375,303781.3125,219721.140625,248403.078125,208385.765625,236652.140625,18198.0,1.0,1
223698.328125,249995.875,294303.65625,303708.90625,219081.4375,248065.65625,208075.4375,236383.65625,18199.0,1.0,1
223746.34375,250134.09375,294750.3125,303797.25,219449.078125,248275.328125,208280.8125,236575.171875,18200.0,1.0,1
223799.171875,250437.546875,295660.3125,303927.78125,220307.5625,248736.75,208715.6875,236960.59375,18201.0,1.0,1
223774.765625,250475.984375,295766.0625,303910.5,220465.640625,248800.234375,208769.421875,236994.75,18202.0,1.0,1
223717.1875,250221.078125,294947.28125,303774.15625,219728.125,248396.109375,208385.59375,236645.703125,18203.0,1.0,1
223716.65625,250020.640625,294316.53125,303714.90625,219100.578125,248077.828125,208088.578125,236392.0625,18204.0,1.0,1
223772.890625,250158.140625,294758.46875,303804.5625,219463.203125,248294.1875,208293.140625,236580.890625,18205.0,1.0,1
223814.28125,250445.140625,295654.9375,303925.4375,220312.125,248750.15625,208720.234375,236955.40625,18206.0,1.0,1
223789.34375,250487.78125,295771.34375,303904.0625,220481.640625,248821.859375,208784.703125,237001.734375,18207.0,1.0,1
223730.328125,250226.71875,294952.90625,303766.84375,219742.6875,248410.859375,208395.875,236651.875,18208.0,1.0,1
223716.03125,250013.65625,294302.9375,303696.90625,219096.1875,248074.515625,208085.28125,236378.734375,18209.0,1.0,1
223766.359375,250138.5625,294734.84375,303787.125,219446.21875,248279.96875,208287.421875,236566.21875,18210.0,1.0,1
223819.296875,250440.671875,295646.90625,303916.5,220305.953125,248748.828125,208726.40625,236954.703125,18211.0,1.0,1
223790.234375,250485.546875,295768.65625,303894.6875,220483.25,248821.6875,208790.15625,237002.078125,18212.0,1.0,1
223728.359375,250219.828125,294949.25,303758.875,219748.140625,248414.796875,208403.828125,236656.078125,18213.0,1.0,1
223707.796875,249999.796875,294289.53125,303683.0625,219093.234375,248073.265625,208088.578125,236384.734375,18214.0,1.0,1
223765.015625,250139.375,294719.21875,303776.3125,219440.40625,248283.375,208290.640625,236573.46875,18215.0,1.0,1
223808.921875,250428.328125,295619.625,303897.09375,220290.578125,248738.265625,208713.09375,236950.5,18216.0,1.0,1
223782.8125,250477.234375,295755.875,303883.0625,220482.171875,248818.375,208783.625,237004.859375,18217.0,1.0,1
223737.671875,250234.40625,294958.71875,303763.1875,219766.65625,248429.453125,208411.34375,236673.328125,18218.0,1.0,1
223726.671875,250022.25,294296.75,303690.40625,219111.5625,248093.5625,208097.703125,236401.71875,18219.0,1.0,1
223759.84375,250132.390625,294689.625,303759.59375,219426.734375,248274.609375,208272.9375,236562.65625,18220.0,1.0,1
223820.09375,250435.296875,295606.84375,303903.4375,220294.25,248746.234375,208714.609375,236952.90625,18221.0,1.0,1
223798.375,250489.390625,295760.8125,303893.625,220500.5,248829.734375,208792.390625,237014.515625,18222.0,1.0,1
223730.15625,250222.515625,294948.53125,303749.125,219769.15625,248419.453125,208401.5,236663.765625,18223.0,1.0,1
223716.296875,250008.5625,294279.15625,303670.71875,219106.296875,248077.109375,208084.734375,236387.859375,18224.0,1.0,1
223782.546875,250147.765625,294694.1875,303768.09375,219443.0,248282.203125,208285.546875,236576.953125,18225.0,1.0,1
223832.890625,250442.28125,295602.375,303899.34375,220294.421875,248743.71875,208715.5,236957.5625,18226.0,1.0,1
223798.28125,250493.6875,295757.3125,303880.46875,220498.625,248829.375,208790.25,237013.703125,18227.0,1.0,1
223724.078125,250231.015625,294945.9375,303736.0,219771.84375,248425.4375,208404.90625,236663.40625,18228.0,1.0,1
223701.453125,250006.328125,294261.4375,303651.25,219098.78125,248074.328125,208079.28125,236377.84375,18229.0,1.0,1
223767.609375,250143.296875,294669.40625,303749.5,219430.03125,248277.921875,208278.296875,236564.96875,18230.0,1.0,1
223831.09375,250445.5,295586.53125,303890.65625,220291.46875,248746.578125,208716.578125,236957.46875,18231.0,1.0,1
223813.03125,250509.875,295762.84375,303883.5,220513.65625,248843.859375,208806.34375,237028.640625,18232.0,1.0,1
223742.140625,250249.78125,294959.34375,303739.75,219790.34375,248439.5625,208420.546875,236680.75,18233.0,1.0,1
223719.875,250019.390625,294265.75,303651.6875,219106.46875,248079.609375,208085.453125,236387.328125,18234.0,1.0,1
223775.65625,250140.0,294648.84375,303740.65625,219414.390625,248264.953125,208264.265625,236559.078125,18235.0,1.0,1
223831.09375,250442.015625,295565.625,303876.8125,220276.546875,248736.125,208703.34375,236953.453125,18236.0,1.0,1
223807.046875,250507.09375,295750.53125,303861.96875,220509.625,248838.3125,208795.703125,237028.453125,18237.0,1.0,1
223731.5,250232.4375,294943.71875,303713.1875,219786.5,248430.078125,208403.5625,236676.90625,18238.0,1.0,1
223714.59375,250004.546875,294252.78125,303635.59375,219104.59375,248075.140625,208074.28125,236392.78125,18239.0,1.0,1
223782.375,250140.796875,294643.03125,303739.75,219417.078125,248272.546875,208265.34375,236576.15625,18240.0,1.0,1
223840.390625,250442.375,295564.0,303880.90625,220276.359375,248744.53125,208706.109375,236967.21875,18241.0,1.0,1
223811.78125,250504.421875,295755.875,303865.71875,220514.625,248850.75,208801.78125,237039.28125,18242.0,1.0,1
223734.09375,250238.609375,294956.5,303715.34375,219798.921875,248445.90625,208417.15625,236691.75,18243.0,1.0,1
223714.328125,250009.109375,294253.3125,303631.65625,219108.53125,248085.421875,208081.875,236399.578125,18244.0,1.0,1
223769.3125,250128.90625,294621.40625,303721.59375,219401.96875,248266.828125,208258.015625,236566.5,18245.0,1.0,1
223827.515625,250429.671875,295538.625,303861.96875,220261.515625,248737.375,208697.796875,236960.0625,18246.0,1.0,1
223801.234375,250494.40625,295738.90625,303850.4375,220505.25,248844.578125,208792.9375,237034.984375,18247.0,1.0,1
223737.21875,250250.40625,294962.40625,303717.65625,219810.1875,248458.6875,208429.21875,236706.140625,18248.0,1.0,1
223705.296875,250024.296875,294257.0625,303628.96875,219117.640625,248099.28125,208096.71875,236417.8125,18249.0,1.0,1
223744.8125,250132.296875,294603.59375,303705.15625,219390.875,248266.296875,208259.53125,236570.78125,18250.0,1.0,1
223793.09375,250426.625,295515.65625,303836.5625,220250.703125,248739.4375,208699.765625,236963.8125,18251.0,1.0,1
223763.140625,250498.421875,295728.0,303828.0,220512.671875,248856.46875,208806.703125,237047.6875,18252.0,1.0,1
223700.65625,250245.578125,294951.3125,303695.21875,219819.84375,248467.546875,208438.25,236715.453125,18253.0,1.0,1
223679.546875,250014.734375,294240.34375,303611.0,219123.453125,248103.84375,208101.640625,236425.234375,18254.0,1.0,1
223726.3125,250121.21875,294579.8125,303691.5625,219389.890625,248264.765625,208259.53125,236572.21875,18255.0,1.0,1
223775.3125,250413.9375,295491.6875,303823.78125,220242.828125,248725.75,208687.96875,236954.25,18256.0,1.0,1
223754.390625,250490.296875,295719.5,303820.75,220512.84375,248845.375,208798.734375,237044.109375,18257.0,1.0,1
223702.171875,250248.625,294951.5,303688.96875,219828.171875,248460.296875,208435.75,236714.90625,18258.0,1.0,1
223683.9375,250015.890625,294228.375,303597.3125,219121.671875,248083.8125,208088.765625,236410.484375,18259.0,1.0,1
223734.625,250118.453125,294562.125,303680.03125,219379.96875,248245.015625,208245.140625,236557.828125,18260.0,1.0,1
223797.390625,250414.296875,295478.8125,303812.625,220237.828125,248710.546875,208682.0625,236942.71875,18261.0,1.0,1
223788.8125,250503.4375,295722.0,303814.40625,220525.09375,248842.78125,208800.96875,237039.09375,18262.0,1.0,1
223719.34375,250246.390625,294946.3125,303670.90625,219833.796875,248451.625,208426.71875,236702.75,18263.0,1.0,1
223702.34375,250016.171875,294224.53125,303588.84375,219126.765625,248084.4375,208084.375,236404.75,18264.0,1.0,1
223750.1875,250115.40625,294544.25,303665.28125,219372.90625,248236.703125,208233.6875,236545.9375,18265.0,1.0,1
223809.28125,250421.0,295463.0625,303804.84375,220232.28125,248707.609375,208675.265625,236940.390625,18266.0,1.0,1
223794.53125,250504.78125,295718.25,303815.9375,220528.84375,248848.15625,208799.453125,237042.859375,18267.0,1.0,1
223730.421875,250253.09375,294954.96875,303680.5625,219847.390625,248459.140625,208433.953125,236711.328125,18268.0,1.0,1
223695.203125,250004.625,294209.0625,303573.0,219116.9375,248071.03125,208071.59375,236391.4375,18269.0,1.0,1
223747.671875,250102.984375,294521.25,303651.25,219355.109375,248220.78125,208217.78125,236529.203125,18270.0,1.0,1
223803.828125,250399.359375,295433.125,303787.59375,220205.1875,248682.296875,208649.796875,236918.125,18271.0,1.0,1
223780.765625,250483.046875,295692.125,303785.6875,220503.8125,248819.28125,208772.09375,237018.171875,18272.0,1.0,1
223719.6875,250239.765625,294939.96875,303657.59375,219837.203125,248450.203125,208417.234375,236697.75,18273.0,1.0,1
223685.453125,249987.640625,294189.65625,303555.9375,219106.03125,248066.828125,208062.46875,236384.28125,18274.0,1.0,1
223740.171875,250091.984375,294497.125,303638.1875,219340.1875,248215.421875,208214.203125,236527.6875,18275.0,1.0,1
223802.484375,250396.59375,295415.78125,303778.625,220195.8125,248679.53125,208651.40625,236917.234375,18276.0,1.0,1
223780.578125,250486.171875,295683.1875,303779.34375,220504.171875,248817.03125,208777.640625,237018.171875,18277.0,1.0,1
223720.40625,250244.6875,294933.875,303647.375,219840.6875,248447.34375,208423.5,236698.90625,18278.0,1.0,1
223688.140625,249990.328125,294176.34375,303546.625,219102.53125,248056.0,208057.5625,236378.828125,18279.0,1.0,1
223741.78125,250086.96875,294473.59375,303629.875,219327.578125,248204.421875,208202.3125,236519.734375,18280.0,1.0,1
223809.8125,250397.125,295402.28125,303777.84375,220192.953125,248680.609375,208650.859375,236922.953125,18281.0,1.0,1
223794.4375,250491.8125,295686.6875,303786.40625,220516.59375,248830.265625,208788.453125,237036.59375,18282.0,1.0,1
223731.671875,250251.75,294941.84375,303653.1875,219857.484375,248458.0625,208433.25,236715.984375,18283.0,1.0,1
223710.125,250004.0,294190.375,303558.25,219121.21875,248069.5,208073.109375,236402.078125,18284.0,1.0,1
223766.28125,250102.0,294479.0625,303638.0,219335.265625,248210.40625,208213.484375,236531.53125,18285.0,1.0,1
223813.125,250389.171875,295380.65625,303762.375,220175.59375,248662.984375,208634.59375,236906.421875,18286.0,1.0,1
223793.453125,250477.421875,295665.21875,303762.375,220501.40625,248811.5,208768.703125,237015.765625,18287.0,1.0,1
223723.0,250238.15625,294926.0,303623.25,219848.546875,248437.234375,208418.21875,236698.09375,18288.0,1.0,1
223695.375,249992.5625,294170.875,303532.3125,219114.875,248051.265625,208063.1875,236381.78125,18289.0,1.0,1
223746.6875,250074.8125,294443.65625,303609.75,219313.1875,248182.96875,208193.546875,236505.875,18290.0,1.0,1
223802.125,250369.59375,295356.15625,303749.40625,220162.90625,248647.515625,208626.640625,236895.25,18291.0,1.0,1
223775.65625,250461.046875,295648.40625,303744.9375,220495.046875,248801.65625,208762.984375,237000.390625,18292.0,1.0,1
223709.6875,250221.796875,294912.6875,303609.03125,219847.65625,248435.0,208412.59375,236679.59375,18293.0,1.0,1
223683.390625,249973.515625,294146.375,303513.375,219102.53125,248043.671875,208049.15625,236357.546875,18294.0,1.0,1
223739.09375,250060.6875,294413.09375,303594.71875,219299.953125,248173.390625,208179.78125,236483.078125,18295.0,1.0,1
223791.125,250349.296875,295322.25,303725.25,220144.75,248632.59375,208607.40625,236865.734375,18296.0,1.0,1
223774.234375,250459.09375,295640.1875,303735.375,220500.328125,248803.1875,208762.078125,236995.296875,18297.0,1.0,1
223718.0,250236.546875,294920.65625,303614.125,219869.296875,248447.78125,208426.1875,236691.390625,18298.0,1.0,1
223685.0,249979.78125,294144.3125,303510.875,219111.484375,248045.015625,208049.6875,236363.09375,18299.0,1.0,1
223728.28125,250054.25,294392.875,303576.3125,219287.078125,248158.28125,208163.6875,236474.671875,18300.0,1.0,1
223789.078125,250357.078125,295311.09375,303713.1875,220138.234375,248623.921875,208599.359375,236863.59375,18301.0,1.0,1
223782.015625,250476.875,295646.0,303731.78125,220505.421875,248802.28125,208761.640625,236999.40625,18302.0,1.0,1
223718.703125,250248.359375,294930.3125,303603.125,219875.8125,248450.734375,208424.03125,236694.171875,18303.0,1.0,1
223685.8125,249989.34375,294151.5625,303503.53125,219116.75,248047.515625,208048.078125,236364.609375,18304.0,1.0,1
223730.328125,250066.953125,294390.28125,303569.96875,219286.1875,248156.671875,208164.40625,236474.578125,18305.0,1.0,1
223784.421875,250356.8125,295295.4375,303700.21875,220128.3125,248619.359375,208593.28125,236856.625,18306.0,1.0,1
223775.21875,250467.140625,295633.9375,303719.28125,220500.78125,248799.328125,208756.09375,236990.8125,18307.0,1.0,1
223701.546875,250230.5625,294916.34375,303582.46875,219868.75,248436.609375,208411.78125,236675.390625,18308.0,1.0,1
223675.171875,249981.203125,294141.90625,303490.84375,219117.734375,248042.5,208045.9375,236356.03125,18309.0,1.0,1
223721.84375,250054.34375,294370.15625,303555.375,219276.796875,248150.59375,208156.0,236462.328125,18310.0,1.0,1
223772.0,250338.75,295269.59375,303683.40625,220112.75,248602.734375,208582.828125,236839.0,18311.0,1.0,1
223762.4375,250458.375,295619.53125,303703.34375,220495.765625,248787.796875,208755.375,236984.203125,18312.0,1.0,1
223701.640625,250231.90625,294915.46875,303576.75,219874.203125,248436.25,208420.1875,236681.5625,18313.0,1.0,1
223676.6875,249981.125,294132.0625,303480.90625,219113.625,248037.765625,208045.390625,236354.6875,18314.0,1.0,1
223722.734375,250046.46875,294346.65625,303547.6875,219256.234375,248141.03125,208146.078125,236452.765625,18315.0,1.0,1
223779.0625,250343.65625,295256.375,303683.5,220100.140625,248610.515625,208586.3125,236841.421875,18316.0,1.0,1
223762.25,250459.71875,295609.96875,303695.75,220487.28125,248799.15625,208755.375,236984.46875,18317.0,1.0,1
223695.28125,250232.34375,294908.46875,303565.84375,219873.578125,248448.59375,208424.21875,236684.328125,18318.0,1.0,1
223675.078125,249980.9375,294128.3125,303474.125,219114.703125,248052.15625,208058.359375,236363.0,18319.0,1.0,1
223713.875,250034.671875,294325.90625,303521.78125,219241.65625,248138.53125,208145.625,236444.1875,18320.0,1.0,1
223771.1875,250329.0,295229.71875,303656.40625,220078.6875,248594.953125,208571.015625,236823.890625,18321.0,1.0,1
223773.96875,250465.34375,295613.09375,303690.75,220492.015625,248801.75,208760.203125,236984.828125,18322.0,1.0,1
223709.234375,250245.5,294922.625,303568.09375,219893.25,248460.390625,208434.40625,236688.359375,18323.0,1.0,1
223673.203125,249978.796875,294116.59375,303463.21875,219113.171875,248049.84375,208047.28125,236344.578125,18324.0,1.0,1
223717.640625,250040.75,294311.59375,303529.8125,219237.984375,248138.4375,208137.75,236436.234375,18325.0,1.0,1
223778.875,250343.03125,295223.375,303669.5625,220084.671875,248609.25,208575.21875,236827.5625,18326.0,1.0,1
223755.453125,250464.09375,295594.9375,303669.75,220490.046875,248805.421875,208753.5,236976.15625,18327.0,1.0,1
223689.921875,250235.03125,294905.0,303539.75,219889.953125,248462.265625,208427.53125,236681.296875,18328.0,1.0,1
223661.3125,249972.171875,294101.40625,303441.65625,219112.375,248046.4375,208041.375,236343.0625,18329.0,1.0,1
223712.0,250035.484375,294291.03125,303512.90625,219233.875,248136.390625,208131.140625,236435.953125,18330.0,1.0,1
223769.5,250321.484375,295191.375,303646.0625,220065.984375,248587.171875,208554.84375,236815.484375,18331.0,1.0,1
223763.859375,250454.796875,295589.40625,303670.0,220491.75,248795.140625,208751.71875,236982.6875,18332.0,1.0,1
223691.796875,250232.34375,294903.375,303537.6875,219891.5625,248448.6875,208423.046875,236681.109375,18333.0,1.0,1
223650.578125,249959.84375,294083.78125,303425.46875,219105.9375,248027.484375,208029.390625,236333.859375,18334.0,1.0,1
223697.515625,250016.34375,294258.75,303488.25,219215.1875,248109.203125,208110.671875,236418.703125,18335.0,1.0,1
223766.90625,250324.265625,295173.03125,303634.59375,220058.390625,248577.96875,208548.140625,236811.5625,18336.0,1.0,1
223759.5625,250460.609375,295577.34375,303661.25,220491.125,248789.40625,208743.390625,236974.1875,18337.0,1.0,1
223705.921875,250258.375,294916.8125,303546.625,219922.765625,248465.3125,208440.3125,236699.984375,18338.0,1.0,1
223662.03125,249981.5625,294094.875,303428.15625,219126.140625,248042.5,208042.171875,236346.546875,18339.0,1.0,1
223705.921875,250022.15625,294258.59375,303489.84375,219220.828125,248116.0,208118.53125,236418.34375,18340.0,1.0,1
223762.96875,250313.890625,295159.1875,303624.5,220051.421875,248570.453125,208546.96875,236800.734375,18341.0,1.0,1
223754.390625,250455.15625,295572.15625,303650.96875,220492.1875,248794.78125,208750.1875,236970.875,18342.0,1.0,1
223687.6875,250242.8125,294906.15625,303527.40625,219915.421875,248464.953125,208439.6875,236682.453125,18343.0,1.0,1
223667.484375,249992.46875,294104.8125,303438.96875,219139.734375,248061.109375,208062.828125,236351.734375,18344.0,1.0,1
223697.15625,250020.1875,294240.4375,303472.59375,219208.84375,248116.171875,208115.9375,236406.984375,18345.0,1.0,1
223754.390625,250304.6875,295137.46875,303606.625,220040.5,248571.609375,208542.234375,236791.984375,18346.0,1.0,1
223767.171875,250468.921875,295578.40625,303656.34375,220508.734375,248810.15625,208764.234375,236985.640625,18347.0,1.0,1
223689.921875,250245.5,294908.84375,303516.6875,219927.234375,248469.0625,208441.921875,236691.65625,18348.0,1.0,1
223648.34375,249962.515625,294077.34375,303403.3125,219125.15625,248035.796875,208042.09375,236343.6875,18349.0,1.0,1
223689.921875,250003.109375,294214.96875,303456.3125,219195.4375,248097.578125,208108.78125,236414.234375,18350.0,1.0,1
223747.765625,250294.125,295109.5625,303592.0625,220018.609375,248550.34375,208536.953125,236798.0625,18351.0,1.0,1
223739.71875,250435.578125,295541.3125,303621.46875,220476.1875,248775.46875,208745.453125,236977.765625,18352.0,1.0,1
223686.25,250231.28125,294895.78125,303505.78125,219919.09375,248455.203125,208443.53125,236698.09375,18353.0,1.0,1
223655.140625,249965.296875,294069.9375,303400.09375,219123.109375,248033.390625,208047.8125,236349.6875,18354.0,1.0,1
223701.71875,250010.359375,294204.21875,303457.9375,219195.078125,248096.859375,208114.875,236416.734375,18355.0,1.0,1
223755.71875,250293.421875,295095.0,303587.84375,220015.734375,248538.796875,208529.984375,236784.375,18356.0,1.0,1
223757.953125,250451.484375,295548.09375,303628.0,220494.25,248781.90625,208749.296875,236970.34375,18357.0,1.0,1
223709.140625,250258.375,294916.625,303517.46875,219952.890625,248480.15625,208455.234375,236703.46875,18358.0,1.0,1
223660.5,249974.140625,294075.21875,303397.9375,219143.578125,248047.6875,208048.171875,236346.015625,18359.0,1.0,1
223686.703125,249999.171875,294180.96875,303438.0,219183.8125,248085.234375,208093.046875,236391.4375,18360.0,1.0,1
223744.8125,250287.96875,295075.5,303573.1875,220006.71875,248542.296875,208519.34375,236773.5625,18361.0,1.0,1
223745.265625,250439.5,295534.59375,303612.78125,220488.25,248786.640625,208743.3125,236964.359375,18362.0,1.0,1
223686.25,250236.109375,294901.34375,303497.625,219937.953125,248469.609375,208443.53125,236690.046875,18363.0,1.0,1
223647.8125,249961.265625,294062.59375,303379.4375,219132.484375,248041.25,208043.609375,236338.234375,18364.0,1.0,1
223690.546875,249994.265625,294171.21875,303430.3125,219177.90625,248083.71875,208097.703125,236392.15625,18365.0,1.0,1
223757.15625,250286.0,295068.25,303568.875,219998.75,248538.09375,208522.734375,236773.109375,18366.0,1.0,1
223753.765625,250443.984375,295535.125,303608.125,220486.015625,248781.09375,208745.640625,236964.984375,18367.0,1.0,1
223680.0,250236.640625,294895.59375,303477.34375,219934.921875,248463.078125,208438.15625,236681.828125,18368.0,1.0,1
223647.453125,249961.984375,294059.21875,303366.28125,219131.6875,248038.390625,208040.03125,236330.09375,18369.0,1.0,1
223685.359375,249989.078125,294150.9375,303412.78125,219160.390625,248077.375,208080.265625,236376.328125,18370.0,1.0,1
223750.1875,250281.53125,295041.15625,303554.21875,219978.546875,248533.265625,208503.34375,236758.0,18371.0,1.0,1
223762.25,250451.671875,295530.5,303606.53125,220483.875,248794.953125,208744.109375,236967.390625,18372.0,1.0,1
223691.171875,250248.796875,294903.75,303474.21875,219943.234375,248476.671875,208440.671875,236689.515625,18373.0,1.0,1
223652.109375,249973.609375,294060.375,303360.125,219135.53125,248041.25,208038.515625,236334.296875,18374.0,1.0,1
223687.78125,249989.4375,294139.3125,303403.125,219153.40625,248070.9375,208075.4375,236374.71875,18375.0,1.0,1
223748.65625,250274.640625,295025.53125,303541.8125,219965.578125,248526.109375,208496.8125,236752.1875,18376.0,1.0,1
223760.640625,250451.390625,295522.1875,303596.875,220484.234375,248795.046875,208744.65625,236965.78125,18377.0,1.0,1
223692.875,250249.34375,294902.75,303474.84375,219954.046875,248483.453125,208452.734375,236698.453125,18378.0,1.0,1
223647.625,249961.890625,294044.625,303350.125,219130.609375,248040.359375,208040.296875,236330.09375,18379.0,1.0,1
223689.65625,249989.875,294115.09375,303396.0625,219140.796875,248066.90625,208071.5,236369.890625,18380.0,1.0,1
223764.046875,250286.4375,295010.5,303543.9375,219963.171875,248526.015625,208501.640625,236759.796875,18381.0,1.0,1
223772.4375,250453.71875,295516.53125,303594.71875,220486.375,248792.1875,208747.25,236972.140625,18382.0,1.0,1
223687.953125,250236.640625,294892.5625,303452.40625,219947.53125,248471.5625,208441.296875,236688.359375,18383.0,1.0,1
223651.203125,249961.265625,294041.78125,303337.15625,219131.0625,248036.609375,208033.328125,236330.015625,18384.0,1.0,1
223688.578125,249975.125,294104.28125,303383.625,219134.015625,248058.859375,208062.125,236364.515625,18385.0,1.0,1
223765.65625,250274.8125,294999.0625,303536.625,219957.8125,248519.40625,208493.859375,236753.625,18386.0,1.0,1
223774.671875,250447.90625,295507.96875,303585.53125,220482.359375,248787.625,208737.859375,236966.140625,18387.0,1.0,1
223714.15625,250259.171875,294917.0625,303474.375,219978.734375,248495.0,208462.84375,236716.875,18388.0,1.0,1
223660.328125,249965.203125,294044.28125,303344.46875,219144.375,248045.09375,208039.765625,236339.9375,18389.0,1.0,1
223691.4375,249976.828125,294086.65625,303374.4375,219129.625,248056.90625,208058.8125,236361.84375,18390.0,1.0,1
223759.484375,250268.375,294971.34375,303519.4375,219942.0625,248505.984375,208484.828125,236742.625,18391.0,1.0,1
223765.296875,250442.015625,295490.34375,303571.40625,220476.359375,248776.890625,208733.03125,236958.09375,18392.0,1.0,1
223695.28125,250248.359375,294896.5,303441.5625,219970.765625,248485.34375,208452.375,236697.390625,18393.0,1.0,1
223652.109375,249964.84375,294032.28125,303318.1875,219145.625,248042.859375,208041.109375,236333.3125,18394.0,1.0,1
223684.5625,249968.78125,294064.65625,303358.25,219120.234375,248047.78125,208053.265625,236351.65625,18395.0,1.0,1
223755.71875,250258.8125,294950.875,303506.5,219930.09375,248498.84375,208476.515625,236736.1875,18396.0,1.0,1
223762.515625,250438.25,295485.96875,303560.125,220480.125,248779.578125,208737.671875,236964.171875,18397.0,1.0,1
223692.78125,250242.0,294900.71875,303440.40625,219981.671875,248483.453125,208456.671875,236711.15625,18398.0,1.0,1
223658.265625,249966.0,294043.90625,303330.4375,219160.203125,248045.28125,208049.328125,236350.390625,18399.0,1.0,1
223691.625,249973.34375,294067.875,303374.53125,219127.03125,248049.65625,208061.21875,236366.9375,18400.0,1.0,1
223747.671875,250257.5625,294933.875,303493.625,219923.390625,248487.75,208476.078125,236735.390625,18401.0,1.0,1
223746.609375,250426.09375,295460.75,303536.625,220465.015625,248762.234375,208728.109375,236948.703125,18402.0,1.0,1
223688.9375,250242.625,294895.34375,303428.625,219984.265625,248486.671875,208461.9375,236705.34375,18403.0,1.0,1
223638.875,249960.375,294027.8125,303302.625,219157.171875,248044.109375,208049.0625,236340.109375,18404.0,1.0,1
223671.765625,249955.8125,294036.84375,303337.0625,219108.0,248037.5,208048.890625,236347.09375,18405.0,1.0,1
223740.4375,250245.40625,294911.0,303482.6875,219906.125,248482.75,208467.40625,236720.90625,18406.0,1.0,1
223756.265625,250439.421875,295470.40625,303546.1875,220478.78125,248780.5625,208743.125,236956.578125,18407.0,1.0,1
223691.890625,250259.625,294907.9375,303428.25,220003.140625,248496.6875,208473.84375,236705.609375,18408.0,1.0,1
223631.265625,249956.265625,294024.25,303292.90625,219162.0,248035.0,208043.703125,236322.765625,18409.0,1.0,1
223662.46875,249947.234375,294021.84375,303318.09375,219103.25,248026.859375,208039.234375,236330.1875,18410.0,1.0,1
223739.1875,250240.84375,294898.1875,303467.5,219902.28125,248472.828125,208460.25,236713.84375,18411.0,1.0,1
223749.90625,250427.34375,295455.03125,303526.34375,220469.921875,248763.125,208729.359375,236950.9375,18412.0,1.0,1
223692.875,250254.078125,294906.0625,303418.5,220004.65625,248493.65625,208470.625,236715.09375,18413.0,1.0,1
223651.828125,249964.046875,294034.1875,303302.71875,219175.21875,248047.515625,208051.203125,236346.90625,18414.0,1.0,1
223692.328125,249966.359375,294029.53125,303340.375,219115.234375,248035.4375,208048.34375,236354.328125,18415.0,1.0,1
223749.90625,250243.703125,294888.71875,303474.03125,219899.953125,248470.046875,208454.875,236719.375,18416.0,1.0,1
223737.671875,250411.609375,295439.375,303511.125,220463.671875,248750.78125,208714.4375,236940.21875,18417.0,1.0,1
223682.40625,250241.46875,294902.5,303404.1875,220014.84375,248489.1875,208461.671875,236706.234375,18418.0,1.0,1
223646.5625,249962.609375,294036.59375,303292.34375,219190.0625,248051.53125,208051.390625,236343.875,18419.0,1.0,1
223679.640625,249958.671875,294014.5,303324.0,219110.9375,248030.078125,208039.59375,236343.78125,18420.0,1.0,1
223742.84375,250240.3125,294874.34375,303462.3125,219895.21875,248464.0625,208448.0,236712.5,18421.0,1.0,1
223750.265625,250431.28125,295452.15625,303519.1875,220482.0,248769.390625,208729.359375,236953.09375,18422.0,1.0,1
223681.15625,250250.328125,294906.59375,303400.53125,220024.234375,248499.109375,208468.5625,236713.65625,18423.0,1.0,1
223645.671875,249976.375,294038.375,303289.125,219202.046875,248066.828125,208061.3125,236357.546875,18424.0,1.0,1
223680.0,249965.65625,294006.28125,303318.1875,219117.640625,248045.28125,208048.171875,236356.125,18425.0,1.0,1
223731.234375,250231.375,294846.0,303442.65625,219880.296875,248459.140625,208441.46875,236711.875,18426.0,1.0,1
223745.265625,250432.625,295429.1875,303504.0625,220471.0,248760.53125,208721.40625,236949.875,18427.0,1.0,1
223686.34375,250266.859375,294903.03125,303396.59375,220031.125,248500.890625,208470.53125,236720.28125,18428.0,1.0,1
223640.921875,249972.625,294020.59375,303271.78125,219195.15625,248054.671875,208047.90625,236349.234375,18429.0,1.0,1
223679.90625,249964.484375,293981.6875,303304.25,219099.140625,248025.78125,208029.84375,236340.46875,18430.0,1.0,1
223748.484375,250250.671875,294841.34375,303445.78125,219878.765625,248460.9375,208442.453125,236709.640625,18431.0,1.0,1
223762.875,250448.53125,295436.15625,303510.0625,220480.75,248770.71875,208731.59375,236958.09375,18432.0,1.0,1
223687.59375,250268.734375,294903.84375,303387.21875,220037.5625,248504.828125,208475.796875,236718.578125,18433.0,1.0,1
223640.21875,249977.359375,294013.59375,303262.03125,219196.5,248054.390625,208047.09375,236341.71875,18434.0,1.0,1
223677.046875,249967.4375,293964.0625,303298.4375,219094.40625,248022.65625,208025.8125,236329.65625,18435.0,1.0,1
223744.640625,250240.390625,294817.8125,303440.40625,219871.265625,248453.421875,208436.375,236696.765625,18436.0,1.0,1
223748.21875,250436.828125,295415.5,303496.75,220476.546875,248764.828125,208724.71875,236946.03125,18437.0,1.0,1
223689.65625,250278.65625,294910.53125,303382.375,220057.671875,248527.71875,208492.703125,236730.375,18438.0,1.0,1
223646.203125,249995.25,294027.65625,303260.71875,219223.421875,248083.90625,208073.828125,236361.65625,18439.0,1.0,1
223662.828125,249959.921875,293945.84375,303274.75,219091.1875,248026.6875,208029.21875,236325.8125,18440.0,1.0,1
223737.484375,250245.578125,294796.8125,303419.9375,219861.78125,248457.625,208437.890625,236690.765625,18441.0,1.0,1
223744.90625,250437.984375,295403.1875,303480.46875,220474.484375,248768.765625,208726.671875,236942.265625,18442.0,1.0,1
223686.34375,250279.640625,294905.53125,303372.46875,220063.125,248528.875,208497.0,236728.3125,18443.0,1.0,1
223631.53125,249982.8125,294007.09375,303238.4375,219213.671875,248068.96875,208064.078125,236341.640625,18444.0,1.0,1
223670.875,249961.71875,293934.9375,303273.03125,219092.25,248027.390625,208032.25,236328.5,18445.0,1.0,1
223741.328125,250240.046875,294778.65625,303416.8125,219858.390625,248454.765625,208435.921875,236698.09375,18446.0,1.0,1
223758.765625,250448.453125,295404.78125,303489.6875,220487.1875,248781.90625,208738.75,236967.03125,18447.0,1.0,1
223688.484375,250281.96875,294908.75,303375.3125,220072.78125,248528.078125,208501.375,236749.234375,18448.0,1.0,1
223634.046875,249984.0625,294012.53125,303243.1875,219218.328125,248065.65625,208064.625,236364.96875,18449.0,1.0,1
223666.859375,249955.90625,293927.875,303268.3125,219082.953125,248011.921875,208025.734375,236340.921875,18450.0,1.0,1
223743.5625,250233.15625,294771.96875,303416.71875,219846.046875,248448.6875,208430.5625,236708.921875,18451.0,1.0,1
223756.96875,250433.703125,295397.625,303480.375,220474.75,248778.421875,208729.890625,236973.46875,18452.0,1.0,1
223714.515625,250293.765625,294932.53125,303390.6875,220093.703125,248555.078125,208517.734375,236779.28125,18453.0,1.0,1
223653.796875,249992.5625,294026.125,303247.75,219236.921875,248083.90625,208076.515625,236385.53125,18454.0,1.0,1
223674.28125,249952.953125,293915.53125,303256.0625,219082.15625,248021.140625,208023.9375,236347.453125,18455.0,1.0,1
223748.390625,250226.546875,294751.40625,303402.5,219838.171875,248448.328125,208428.78125,236711.15625,18456.0,1.0,1
223763.59375,250435.484375,295388.5,303472.59375,220478.875,248783.421875,208741.96875,236977.046875,18457.0,1.0,1
223697.515625,250281.703125,294915.28125,303363.53125,220087.625,248548.546875,208516.65625,236767.21875,18458.0,1.0,1
223647.453125,249992.46875,294020.40625,303234.6875,219241.828125,248091.671875,208088.40625,236390.09375,18459.0,1.0,1
223673.015625,249950.546875,293901.84375,303250.875,219079.734375,248025.515625,208029.65625,236346.734375,18460.0,1.0,1
223738.375,250214.296875,294723.3125,303385.4375,219824.40625,248437.140625,208417.421875,236697.65625,18461.0,1.0,1
223765.921875,250433.515625,295377.34375,303465.28125,220476.453125,248777.78125,208733.390625,236975.796875,18462.0,1.0,1
223713.34375,250295.65625,294923.9375,303370.6875,220106.3125,248558.03125,208522.296875,236779.28125,18463.0,1.0,1
223665.875,250010.796875,294029.625,303245.59375,219262.390625,248101.515625,208092.25,236400.828125,18464.0,1.0,1
223675.171875,249949.109375,293885.40625,303246.59375,219072.671875,248007.90625,208009.453125,236342.96875,18465.0,1.0,1
223734.0,250208.921875,294703.21875,303377.5625,219815.375,248423.734375,208402.40625,236693.0,18466.0,1.0,1
223750.453125,250424.84375,295354.53125,303446.9375,220468.59375,248765.625,208719.078125,236966.859375,18467.0,1.0,1
223703.6875,250293.59375,294913.03125,303357.53125,220111.578125,248554.453125,208515.046875,236779.28125,18468.0,1.0,1
223653.078125,250002.578125,294016.1875,303226.46875,219262.578125,248096.859375,208082.328125,236391.609375,18469.0,1.0,1
223680.4375,249953.40625,293879.5,303239.15625,219075.8125,248018.015625,208014.546875,236338.0625,18470.0,1.0,1
223750.265625,250220.546875,294699.53125,303376.3125,219813.765625,248432.40625,208406.421875,236689.703125,18471.0,1.0,1
223756.4375,250427.34375,295353.65625,303446.40625,220465.90625,248771.890625,208718.0,236961.5,18472.0,1.0,1
223695.546875,250288.953125,294912.6875,303345.09375,220109.34375,248555.34375,208513.359375,236767.390625,18473.0,1.0,1
223642.796875,249995.953125,294008.34375,303206.25,219256.40625,248091.234375,208082.765625,236384.375,18474.0,1.0,1
223665.328125,249939.71875,293854.46875,303218.9375,219056.84375,248001.640625,208007.484375,236327.515625,18475.0,1.0,1
223730.953125,250204.8125,294669.59375,303355.9375,219790.96875,248409.796875,208395.6875,236679.859375,18476.0,1.0,1
223745.078125,250425.296875,295336.375,303429.0625,220452.9375,248755.53125,208711.296875,236956.3125,18477.0,1.0,1
223681.15625,250281.796875,294898.46875,303325.78125,220099.96875,248537.1875,208501.1875,236761.84375,18478.0,1.0,1
223629.125,249979.328125,293991.96875,303191.5,219250.15625,248074.609375,208068.203125,236379.359375,18479.0,1.0,1
223661.3125,249930.328125,293836.6875,303210.46875,219052.734375,247990.46875,207998.453125,236325.359375,18480.0,1.0,1
223719.875,250188.625,294637.9375,303338.3125,219779.703125,248393.515625,208384.25,236668.15625,18481.0,1.0,1
223734.984375,250411.96875,295311.53125,303410.28125,220448.03125,248743.09375,208707.90625,236946.734375,18482.0,1.0,1
223689.203125,250285.09375,294902.5,303327.40625,220119.8125,248551.5,208520.6875,236772.578125,18483.0,1.0,1
223640.125,249987.015625,293999.3125,303199.09375,219266.78125,248091.5,208086.796875,236389.640625,18484.0,1.0,1
223654.875,249922.734375,293821.03125,303199.5625,219043.265625,247989.578125,207998.109375,236318.390625,18485.0,1.0,1
223719.78125,250181.75,294622.90625,303336.625,219766.921875,248391.90625,208379.515625,236664.65625,18486.0,1.0,1
223744.1875,250412.78125,295312.25,303418.875,220449.546875,248748.015625,208713.53125,236955.5,18487.0,1.0,1
223693.40625,250288.40625,294903.125,303325.0625,220118.921875,248549.984375,208522.828125,236779.109375,18488.0,1.0,1
