FZ,C3,CZ,C4,PZ,PO7,OZ,PO8,Counter,Validation,Label
237973.3125,255411.515625,241142.703125,249991.125,225198.578125,254483.03125,229116.828125,229911.21875,380354.0,1.0,2
238035.984375,255429.578125,241149.140625,249996.578125,225192.5,254485.34375,229113.4375,229914.4375,380355.0,1.0,2
237997.625,255397.578125,241129.828125,249983.984375,225168.265625,254462.640625,229103.6875,229885.734375,380356.0,1.0,2
237923.953125,255378.34375,241118.296875,249976.921875,225168.265625,254452.453125,229108.609375,229876.703125,380357.0,1.0,2
237910.734375,255393.90625,241122.765625,249978.609375,225184.1875,254461.03125,229117.375,229891.09375,380358.0,1.0,2
237970.265625,255413.3125,241132.6875,249983.359375,225185.703125,254471.765625,229113.078125,229902.8125,380359.0,1.0,2
238029.90625,255424.125,241138.3125,249987.015625,225174.703125,254471.5,229105.75,229899.328125,380360.0,1.0,2
237997.0,255401.859375,241124.1875,249977.265625,225158.15625,254452.359375,229100.296875,229875.1875,380361.0,1.0,2
237919.484375,255375.3125,241110.875,249969.578125,225157.984375,254445.828125,229103.421875,229861.859375,380362.0,1.0,2
237908.765625,255387.015625,241120.4375,249976.640625,225178.90625,254464.15625,229114.59375,229882.421875,380363.0,1.0,2
237968.75,255411.703125,241133.671875,249985.3125,225184.09375,254474.53125,229112.640625,229899.5,380364.0,1.0,2
238029.90625,255427.078125,241139.484375,249989.4375,225177.5625,254475.78125,229107.265625,229900.9375,380365.0,1.0,2
237992.984375,255395.15625,241122.3125,249978.25,225157.890625,254455.671875,229101.8125,229874.203125,380366.0,1.0,2
237912.6875,255361.8125,241107.65625,249968.0625,225152.703125,254445.65625,229104.859375,229859.265625,380367.0,1.0,2
237903.03125,255379.0625,241116.234375,249974.765625,225174.96875,254459.953125,229114.328125,229881.890625,380368.0,1.0,2
237967.6875,255411.78125,241132.0625,249986.921875,225189.546875,254475.78125,229118.71875,229907.640625,380369.0,1.0,2
238019.796875,255413.671875,241133.140625,249985.765625,225170.5,254470.421875,229102.703125,229895.75,380370.0,1.0,2
237987.890625,255389.078125,241117.75,249972.625,225153.609375,254449.859375,229094.03125,229871.609375,380371.0,1.0,2
237922.4375,255376.375,241112.390625,249969.046875,225166.484375,254446.546875,229104.5,229871.515625,380372.0,1.0,2
237904.296875,255384.078125,241115.609375,249970.484375,225179.4375,254453.96875,229108.875,229882.15625,380373.0,1.0,2
237965.265625,255405.4375,241127.40625,249979.6875,225182.65625,254465.765625,229103.78125,229897.09375,380374.0,1.0,2
238025.34375,255416.890625,241130.90625,249983.265625,225171.21875,254464.875,229092.609375,229893.78125,380375.0,1.0,2
237999.234375,255399.53125,241121.59375,249976.921875,225154.765625,254448.34375,229088.40625,229875.0,380376.0,1.0,2
237932.359375,255390.234375,241119.640625,249976.375,225166.296875,254450.125,229106.203125,229875.28125,380377.0,1.0,2
237916.265625,255404.984375,241125.09375,249980.765625,225186.859375,254459.0625,229112.8125,229892.4375,380378.0,1.0,2
237977.515625,255429.3125,241137.875,249990.328125,225194.375,254468.625,229109.5,229907.8125,380379.0,1.0,2
238033.390625,255431.90625,241140.828125,249993.1875,225178.28125,254467.5625,229094.75,229900.484375,380380.0,1.0,2
238002.453125,255408.84375,241125.359375,249982.71875,225159.234375,254448.25,229086.34375,229873.578125,380381.0,1.0,2
237927.796875,255387.46875,241114.625,249975.9375,225161.5625,254440.5625,229091.359375,229864.015625,380382.0,1.0,2
237909.828125,255393.375,241119.640625,249979.515625,225177.5625,254451.734375,229100.921875,229878.671875,380383.0,1.0,2
237969.828125,255418.5,241130.984375,249987.546875,225182.296875,254466.9375,229101.453125,229896.015625,380384.0,1.0,2
238027.5,255427.515625,241136.53125,249990.0625,225170.046875,254468.546875,229094.03125,229893.0625,380385.0,1.0,2
237994.234375,255398.015625,241121.875,249979.515625,225151.71875,254447.71875,229084.109375,229869.546875,380386.0,1.0,2
237920.46875,255372.625,241111.671875,249971.8125,225154.5,254440.5625,229086.078125,229858.109375,380387.0,1.0,2
237904.296875,255382.90625,241118.828125,249975.578125,225170.859375,254453.96875,229095.28125,229871.25,380388.0,1.0,2
237968.484375,255415.546875,241136.703125,249988.09375,225185.25,254475.78125,229102.796875,229893.421875,380389.0,1.0,2
238027.84375,255426.984375,241140.203125,249992.734375,225177.390625,254479.1875,229098.6875,229890.65625,380390.0,1.0,2
237991.8125,255397.03125,241121.953125,249980.84375,225153.953125,254452.890625,229081.78125,229862.84375,380391.0,1.0,2
237920.390625,255376.828125,241113.734375,249978.609375,225161.734375,254446.734375,229091.796875,229862.84375,380392.0,1.0,2
237909.296875,255392.203125,241123.390625,249983.796875,225185.875,254460.234375,229101.640625,229885.921875,380393.0,1.0,2
237972.421875,255420.453125,241137.15625,249991.84375,225196.34375,254472.65625,229102.625,229902.546875,380394.0,1.0,2
238031.78125,255431.640625,241138.953125,249992.734375,225186.0625,254474.71875,229096.1875,229901.46875,380395.0,1.0,2
238001.03125,255408.5625,241123.125,249981.828125,225164.328125,254456.390625,229088.578125,229877.0625,380396.0,1.0,2
237921.640625,255375.484375,241110.421875,249972.890625,225158.4375,254443.234375,229083.75,229860.96875,380397.0,1.0,2
237903.390625,255383.171875,241114.71875,249975.9375,225174.53125,254454.859375,229091.4375,229873.84375,380398.0,1.0,2
237969.109375,255417.59375,241129.296875,249987.640625,225187.75,254470.15625,229097.171875,229899.234375,380399.0,1.0,2
238032.140625,255436.28125,241133.671875,249991.84375,225180.78125,254470.234375,229089.65625,229902.8125,380400.0,1.0,2
237996.640625,255407.140625,241118.46875,249978.171875,225159.953125,254446.546875,229078.21875,229875.546875,380401.0,1.0,2
237919.9375,255379.25,241108.71875,249969.9375,225159.234375,254436.796875,229082.859375,229862.046875,380402.0,1.0,2
237910.109375,255403.203125,241119.71875,249977.265625,225183.015625,254455.9375,229101.015625,229881.4375,380403.0,1.0,2
237967.5,255427.609375,241130.09375,249984.875,225191.515625,254468.625,229105.03125,229900.3125,380404.0,1.0,2
238024.984375,255435.65625,241130.453125,249984.25,225178.640625,254464.15625,229093.671875,229898.25,380405.0,1.0,2
237995.484375,255411.078125,241114.0,249973.34375,225160.390625,254442.609375,229080.265625,229873.125,380406.0,1.0,2
237918.328125,255382.546875,241101.3125,249965.203125,225161.375,254433.578125,229085.359375,229859.984375,380407.0,1.0,2
237899.734375,255392.65625,241109.265625,249969.3125,225179.890625,254449.140625,229098.234375,229877.875,380408.0,1.0,2
237958.734375,255415.1875,241121.421875,249978.4375,225187.125,254463.71875,229099.3125,229893.6875,380409.0,1.0,2
238021.140625,255425.828125,241124.640625,249980.84375,225176.3125,254464.609375,229088.671875,229891.640625,380410.0,1.0,2
237985.375,255386.65625,241108.09375,249967.171875,225151.71875,254443.234375,229077.046875,229861.328125,380411.0,1.0,2
237909.921875,255357.15625,241097.640625,249961.890625,225150.828125,254433.765625,229082.140625,229850.6875,380412.0,1.0,2
237897.046875,255375.390625,241104.34375,249968.6875,225172.921875,254451.46875,229095.734375,229871.875,380413.0,1.0,2
237955.78125,255401.765625,241116.953125,249976.109375,225183.546875,254466.046875,229097.703125,229890.75,380414.0,1.0,2
238011.75,255406.515625,241119.1875,249976.828125,225169.25,254464.515625,229086.796875,229885.203125,380415.0,1.0,2
237976.625,255369.234375,241104.171875,249966.09375,225141.359375,254444.046875,229076.515625,229852.75,380416.0,1.0,2
237910.453125,255355.640625,241099.515625,249964.3125,225150.734375,254443.59375,229088.9375,229850.6875,380417.0,1.0,2
237892.046875,255370.390625,241105.6875,249967.53125,225175.859375,254459.25,229100.5625,229872.6875,380418.0,1.0,2
237951.40625,255401.140625,241119.28125,249977.09375,225186.765625,254473.375,229101.28125,229892.078125,380419.0,1.0,2
238010.953125,255413.3125,241124.640625,249982.015625,225176.140625,254474.265625,229093.234375,229890.203125,380420.0,1.0,2
237984.484375,255390.421875,241112.84375,249973.96875,225157.71875,254456.109375,229088.5,229867.9375,380421.0,1.0,2
237912.78125,255372.984375,241105.78125,249967.703125,225161.5625,254449.859375,229098.15625,229858.90625,380422.0,1.0,2
237897.140625,255386.03125,241114.0,249973.703125,225183.46875,254462.640625,229103.96875,229876.34375,380423.0,1.0,2
237957.578125,255409.28125,241127.6875,249983.796875,225191.0625,254474.625,229100.65625,229897.71875,380424.0,1.0,2
238022.484375,255423.765625,241135.015625,249988.984375,225181.59375,254476.765625,229094.484375,229896.015625,380425.0,1.0,2
237999.0625,255403.734375,241123.75,249980.21875,225163.96875,254454.5,229087.15625,229871.078125,380426.0,1.0,2
237930.671875,255389.078125,241119.359375,249976.921875,225175.6875,254450.484375,229101.28125,229870.53125,380427.0,1.0,2
237908.9375,255396.5,241124.734375,249981.828125,225195.625,254462.90625,229109.859375,229886.0,380428.0,1.0,2
237963.921875,255413.484375,241134.46875,249986.21875,225195.984375,254472.921875,229105.578125,229890.46875,380429.0,1.0,2
238024.0,255418.21875,241138.046875,249988.1875,225184.8125,254475.15625,229097.4375,229886.8125,380430.0,1.0,2
237994.140625,255391.671875,241119.359375,249974.765625,225161.921875,254451.90625,229083.84375,229861.859375,380431.0,1.0,2
237921.28125,255366.546875,241106.765625,249966.984375,225157.0,254442.96875,229085.8125,229847.296875,380432.0,1.0,2
237908.21875,255382.46875,241118.296875,249976.375,225185.25,254464.34375,229104.140625,229875.984375,380433.0,1.0,2
237971.4375,255414.015625,241133.140625,249985.9375,225199.109375,254479.453125,229106.28125,229900.84375,380434.0,1.0,2
238033.03125,255424.921875,241133.40625,249986.125,225187.84375,254476.953125,229096.984375,229899.0625,380435.0,1.0,2
238003.796875,255393.8125,241118.296875,249976.015625,225165.765625,254457.28125,229086.078125,229871.96875,380436.0,1.0,2
237927.890625,255364.765625,241109.0,249971.546875,225167.640625,254447.890625,229089.65625,229862.125,380437.0,1.0,2
237909.296875,255373.703125,241114.1875,249976.296875,225187.3125,254460.671875,229099.3125,229877.0625,380438.0,1.0,2
237966.703125,255399.359375,241125.09375,249982.90625,225190.796875,254472.921875,229097.703125,229890.75,380439.0,1.0,2
238026.328125,255407.859375,241129.203125,249984.609375,225176.3125,254474.265625,229089.75,229887.96875,380440.0,1.0,2
238000.140625,255383.359375,241118.296875,249977.1875,225157.984375,254456.828125,229087.328125,229864.28125,380441.0,1.0,2
237924.859375,255360.28125,241108.09375,249969.046875,225155.84375,254444.765625,229087.421875,229848.453125,380442.0,1.0,2
237908.21875,255378.171875,241116.6875,249974.5,225176.671875,254456.390625,229095.203125,229868.5625,380443.0,1.0,2
237967.5,255406.875,241131.34375,249985.40625,225189.015625,254472.5625,229096.546875,229888.328125,380444.0,1.0,2
238025.890625,255413.75,241134.75,249987.109375,225176.765625,254472.203125,229085.453125,229882.96875,380445.0,1.0,2
238001.125,255386.578125,241123.390625,249981.390625,225158.34375,254454.859375,229079.640625,229861.0625,380446.0,1.0,2
237932.625,255370.65625,241118.828125,249979.953125,225164.6875,254450.390625,229091.4375,229858.015625,380447.0,1.0,2
237912.0625,255386.390625,241126.875,249983.703125,225185.796875,254463.625,229102.53125,229878.21875,380448.0,1.0,2
237962.859375,255404.8125,241132.6875,249984.875,225183.828125,254470.234375,229093.40625,229884.578125,380449.0,1.0,2
238025.890625,255414.828125,241138.5,249988.984375,225175.421875,254475.421875,229086.4375,229884.3125,380450.0,1.0,2
238006.21875,255393.546875,241128.21875,249982.8125,225156.640625,254460.5,229079.90625,229861.234375,380451.0,1.0,2
237937.28125,255372.09375,241123.03125,249980.9375,225161.46875,254456.5625,229092.515625,229851.9375,380452.0,1.0,2
237916.8125,255378.4375,241130.71875,249987.640625,225182.84375,254467.375,229103.421875,229870.0,380453.0,1.0,2
237977.609375,255409.015625,241143.234375,249997.484375,225197.234375,254479.8125,229104.59375,229897.359375,380454.0,1.0,2
238037.859375,255422.515625,241144.75,249996.5,225183.375,254478.640625,229096.984375,229892.0,380455.0,1.0,2
238007.90625,255393.015625,241125.171875,249981.5625,225156.90625,254453.703125,229084.109375,229862.046875,380456.0,1.0,2
237930.578125,255364.40625,241111.40625,249973.078125,225155.65625,254439.390625,229084.109375,229851.765625,380457.0,1.0,2
237913.140625,255375.75,241120.796875,249981.125,225179.796875,254456.921875,229098.328125,229873.046875,380458.0,1.0,2
237981.625,255417.0625,241140.734375,249996.765625,225199.921875,254480.4375,229108.15625,229902.8125,380459.0,1.0,2
238045.828125,255435.21875,241148.59375,250001.140625,225195.53125,254485.0,229101.1875,229907.90625,380460.0,1.0,2
238011.125,255394.265625,241130.90625,249986.65625,225165.859375,254461.65625,229087.78125,229874.828125,380461.0,1.0,2
237943.71875,255376.46875,241121.515625,249982.1875,225168.796875,254453.25,229092.0625,229866.25,380462.0,1.0,2
237921.640625,255384.875,241126.609375,249985.59375,225186.0625,254464.703125,229099.40625,229879.03125,380463.0,1.0,2
237979.21875,255413.484375,241142.703125,249996.3125,225197.5,254480.96875,229103.25,229900.046875,380464.0,1.0,2
238042.421875,255423.59375,241146.90625,249999.453125,225186.59375,254484.546875,229097.171875,229894.5,380465.0,1.0,2
238015.0625,255397.390625,241126.515625,249986.484375,225160.125,254458.4375,229083.671875,229865.0,380466.0,1.0,2
237942.640625,255379.953125,241117.75,249981.5625,225166.484375,254452.625,229095.375,229862.125,380467.0,1.0,2
237918.421875,255388.0,241119.984375,249982.640625,225185.609375,254465.6875,229103.6875,229877.6875,380468.0,1.0,2
237974.46875,255412.765625,241131.703125,249989.15625,225192.9375,254477.390625,229100.5625,229894.859375,380469.0,1.0,2
238036.34375,255425.28125,241137.421875,249991.21875,225181.9375,254478.28125,229093.859375,229893.6875,380470.0,1.0,2
238015.421875,255408.03125,241125.265625,249983.703125,225164.875,254461.921875,229090.90625,229871.34375,380471.0,1.0,2
237937.28125,255378.796875,241112.75,249977.359375,225163.96875,254452.453125,229093.859375,229855.6875,380472.0,1.0,2
237909.5625,255374.59375,241117.125,249980.578125,225175.328125,254462.46875,229098.0625,229863.921875,380473.0,1.0,2
237968.84375,255402.578125,241132.0625,249992.03125,225191.421875,254477.65625,229100.828125,229887.53125,380474.0,1.0,2
238035.453125,255420.1875,241140.828125,249999.890625,225190.96875,254482.484375,229101.1875,229898.796875,380475.0,1.0,2
238015.609375,255401.421875,241129.375,249990.953125,225170.671875,254465.234375,229093.59375,229876.703125,380476.0,1.0,2
237940.859375,255373.703125,241119.546875,249984.515625,225166.296875,254453.515625,229094.3125,229859.71875,380477.0,1.0,2
237912.6875,255371.90625,241124.90625,249986.65625,225179.890625,254463.71875,229102.796875,229867.40625,380478.0,1.0,2
237971.34375,255400.609375,241137.875,249998.46875,225192.140625,254478.46875,229104.046875,229888.421875,380479.0,1.0,2
238033.296875,255412.859375,241142.609375,250002.84375,225181.859375,254481.5,229095.46875,229889.3125,380480.0,1.0,2
238011.046875,255389.96875,241132.78125,249995.0625,225162.90625,254463.0,229087.328125,229868.125,380481.0,1.0,2
237934.875,255365.03125,241121.6875,249987.109375,225162.8125,254452.890625,229091.625,229853.90625,380482.0,1.0,2
237915.375,255379.0625,241130.8125,249992.296875,225184.53125,254467.375,229106.734375,229871.25,380483.0,1.0,2
237978.046875,255412.40625,241148.421875,250005.890625,225200.90625,254485.4375,229113.34375,229897.71875,380484.0,1.0,2
238044.5625,255428.234375,241152.625,250007.140625,225190.265625,254486.421875,229104.140625,229897.265625,380485.0,1.0,2
238022.671875,255406.15625,241137.6875,249997.75,225171.3125,254466.84375,229092.15625,229873.671875,380486.0,1.0,2
237944.4375,255376.46875,241126.78125,249992.5625,225168.265625,254456.65625,229094.484375,229857.75,380487.0,1.0,2
237919.046875,255386.21875,241133.484375,249998.46875,225189.640625,254471.140625,229108.34375,229873.9375,380488.0,1.0,2
237973.3125,255413.671875,241145.46875,250005.703125,225201.53125,254485.890625,229112.90625,229893.78125,380489.0,1.0,2
238039.109375,255428.234375,241152.09375,250009.90625,225195.09375,254491.25,229110.046875,229899.765625,380490.0,1.0,2
238029.1875,255421.53125,241147.265625,250009.015625,225188.109375,254482.40625,229114.328125,229892.0,380491.0,1.0,2
237950.328125,255391.84375,241131.4375,249996.140625,225181.234375,254467.109375,229109.328125,229874.734375,380492.0,1.0,2
237915.640625,255387.109375,241131.25,249994.703125,225189.453125,254473.015625,229111.921875,229880.640625,380493.0,1.0,2
237967.765625,255408.921875,241142.875,250002.484375,225198.03125,254485.34375,229111.03125,229899.421875,380494.0,1.0,2
238038.9375,255431.453125,241147.703125,250007.140625,225195.0,254491.703125,229107.890625,229905.21875,380495.0,1.0,2
238019.453125,255409.1875,241132.78125,249997.390625,225176.9375,254471.765625,229100.828125,229884.390625,380496.0,1.0,2
237942.734375,255383.0,241118.828125,249989.796875,225172.640625,254459.6875,229101.546875,229871.515625,380497.0,1.0,2
237918.421875,255394.53125,241125.359375,249993.546875,225197.0625,254476.671875,229114.875,229889.046875,380498.0,1.0,2
237961.6875,255404.453125,241130.546875,249994.96875,225195.265625,254482.84375,229108.34375,229890.75,380499.0,1.0,2
238032.328125,255424.484375,241139.21875,250002.671875,225191.875,254488.84375,229107.453125,229897.984375,380500.0,1.0,2
238022.484375,255415.625,241132.0625,249999.171875,225185.4375,254475.96875,229105.921875,229890.46875,380501.0,1.0,2
237949.625,255391.578125,241119.546875,249988.453125,225184.265625,254461.84375,229108.515625,229879.921875,380502.0,1.0,2
237926.28125,255403.65625,241127.328125,249995.59375,225205.015625,254477.21875,229120.40625,229898.875,380503.0,1.0,2
237977.421875,255427.515625,241140.375,250002.671875,225212.25,254490.359375,229118.625,229913.90625,380504.0,1.0,2
238030.078125,255422.25,241140.015625,249999.890625,225187.40625,254485.4375,229098.328125,229895.84375,380505.0,1.0,2
238008.53125,255391.671875,241129.203125,249991.75,225162.1875,254465.953125,229089.390625,229867.046875,380506.0,1.0,2
237929.234375,255359.125,241114.625,249981.296875,225155.296875,254451.828125,229089.390625,229845.59375,380507.0,1.0,2
237896.875,255356.265625,241114.625,249980.21875,225165.5,254459.6875,229093.671875,229850.234375,380508.0,1.0,2
237949.890625,255375.484375,241127.765625,249990.765625,225175.234375,254472.03125,229095.203125,229868.21875,380509.0,1.0,2
238019.171875,255392.296875,241133.578125,249996.765625,225169.25,254474.984375,229088.9375,229873.484375,380510.0,1.0,2
238012.921875,255387.5625,241125.984375,249993.8125,225158.96875,254463.625,229087.0625,229861.6875,380511.0,1.0,2
237940.859375,255367.796875,241118.375,249990.234375,225165.3125,254459.953125,229099.578125,229859.0,380512.0,1.0,2
237911.890625,255370.125,241121.421875,249988.890625,225183.015625,254469.609375,229102.984375,229868.84375,380513.0,1.0,2
237964.640625,255391.578125,241133.40625,249995.6875,225190.171875,254478.921875,229102.984375,229883.328125,380514.0,1.0,2
238030.984375,255406.25,241136.703125,249999.359375,225179.4375,254477.03125,229093.671875,229886.453125,380515.0,1.0,2
238015.953125,255388.71875,241126.78125,249992.65625,225164.421875,254462.28125,229090.640625,229870.890625,380516.0,1.0,2
237947.921875,255373.875,241121.421875,249989.15625,225171.65625,254457.90625,229101.90625,229869.90625,380517.0,1.0,2
237924.9375,255384.421875,241131.609375,249995.59375,225194.015625,254472.921875,229112.90625,229886.984375,380518.0,1.0,2
237971.171875,255401.859375,241141.09375,250001.0625,225196.78125,254481.421875,229109.328125,229896.375,380519.0,1.0,2
238041.34375,255418.21875,241149.3125,250006.515625,225189.984375,254486.515625,229102.890625,229897.0,380520.0,1.0,2
238030.359375,255404.640625,241141.0,250001.765625,225177.296875,254470.59375,229095.828125,229882.0625,380521.0,1.0,2
237950.953125,255378.4375,241125.0,249989.15625,225177.203125,254456.46875,229094.125,229868.5625,380522.0,1.0,2
237923.15625,255387.296875,241130.09375,249992.65625,225194.8125,254469.4375,229105.03125,229880.109375,380523.0,1.0,2
237983.0625,255427.34375,241148.328125,250006.234375,225216.09375,254492.859375,229116.203125,229911.3125,380524.0,1.0,2
238048.6875,255443.171875,241153.15625,250008.46875,225210.734375,254495.8125,229108.515625,229914.96875,380525.0,1.0,2
238019.453125,255404.09375,241134.75,249994.265625,225177.203125,254469.890625,229091.4375,229877.78125,380526.0,1.0,2
237941.578125,255369.5,241122.3125,249986.484375,225167.546875,254458.53125,229091.359375,229857.65625,380527.0,1.0,2
237918.140625,255380.046875,241128.03125,249992.03125,225187.671875,254474.359375,229103.328125,229874.203125,380528.0,1.0,2
237969.734375,255406.328125,241139.21875,250001.953125,225195.984375,254487.40625,229105.75,229892.078125,380529.0,1.0,2
238031.421875,255414.375,241143.59375,250004.28125,225184.8125,254486.953125,229099.671875,229893.421875,380530.0,1.0,2
238014.890625,255390.78125,241132.234375,249995.421875,225163.96875,254466.671875,229088.9375,229873.21875,380531.0,1.0,2
237941.484375,255366.09375,241118.375,249983.984375,225160.484375,254454.59375,229090.109375,229857.296875,380532.0,1.0,2
237912.6875,255371.90625,241121.515625,249986.65625,225179.625,254463.890625,229098.59375,229868.125,380533.0,1.0,2
237962.765625,255392.65625,241130.90625,249994.796875,225189.015625,254477.125,229101.28125,229885.921875,380534.0,1.0,2
238037.421875,255413.03125,241141.71875,250003.375,225192.578125,254486.25,229100.921875,229898.703125,380535.0,1.0,2
238020.78125,255385.5,241131.34375,249995.59375,225173.890625,254467.015625,229090.28125,229873.046875,380536.0,1.0,2
237953.46875,255367.171875,241122.671875,249991.84375,225174.703125,254460.234375,229094.3125,229860.703125,380537.0,1.0,2
237930.21875,255381.296875,241131.4375,249999.453125,225199.5625,254474.0,229111.03125,229884.9375,380538.0,1.0,2
237979.390625,255404.359375,241143.6875,250005.796875,225208.5,254490.09375,229114.875,229904.421875,380539.0,1.0,2
238049.21875,255424.84375,241149.046875,250008.921875,225201.53125,254494.5625,229107.890625,229904.6875,380540.0,1.0,2
238033.9375,255399.53125,241135.1875,249999.0,225176.9375,254473.1875,229096.359375,229876.890625,380541.0,1.0,2
237959.09375,255366.71875,241125.359375,249993.359375,225173.546875,254464.25,229102.625,229863.203125,380542.0,1.0,2
237929.234375,255367.171875,241129.109375,249995.515625,225186.5,254471.3125,229106.203125,229870.359375,380543.0,1.0,2
237984.578125,255394.890625,241143.0625,250005.703125,225195.09375,254484.546875,229104.046875,229886.71875,380544.0,1.0,2
238054.765625,255414.109375,241148.78125,250008.03125,225187.40625,254488.84375,229096.546875,229893.78125,380545.0,1.0,2
238048.421875,255409.1875,241140.375,250003.015625,225179.171875,254477.390625,229096.546875,229885.375,380546.0,1.0,2
237971.53125,255382.90625,241127.328125,249993.453125,225175.421875,254464.15625,229098.78125,229868.125,380547.0,1.0,2
237942.015625,255391.3125,241133.765625,249996.3125,225197.859375,254476.046875,229111.203125,229888.953125,380548.0,1.0,2
237986.09375,255409.28125,241141.359375,250000.34375,225202.6875,254487.859375,229107.625,229899.421875,380549.0,1.0,2
238060.484375,255434.234375,241153.421875,250011.0625,225198.75,254496.4375,229102.890625,229902.8125,380550.0,1.0,2
238051.28125,255422.15625,241142.96875,250005.890625,225184.625,254483.828125,229098.859375,229889.3125,380551.0,1.0,2
237970.625,255388.1875,241128.484375,249993.640625,225179.890625,254470.328125,229101.015625,229873.046875,380552.0,1.0,2
237937.734375,255391.40625,241131.53125,249993.984375,225196.34375,254478.921875,229109.140625,229882.875,380553.0,1.0,2
237987.703125,255419.390625,241141.265625,250001.859375,225208.671875,254490.8125,229112.359375,229903.890625,380554.0,1.0,2
238052.703125,255431.09375,241145.296875,250004.1875,225198.21875,254493.484375,229103.0625,229903.4375,380555.0,1.0,2
238039.734375,255408.84375,241134.203125,249995.953125,225177.65625,254476.328125,229090.734375,229877.328125,380556.0,1.0,2
237967.328125,255380.578125,241124.734375,249988.984375,225175.234375,254466.046875,229092.609375,229861.15625,380557.0,1.0,2
237939.15625,255388.453125,241130.90625,249994.53125,225198.390625,254481.328125,229106.546875,229881.4375,380558.0,1.0,2
237986.28125,255406.0625,241140.734375,250003.5625,225204.203125,254494.203125,229109.5,229898.4375,380559.0,1.0,2
238048.859375,255413.75,241143.859375,250004.0,225185.25,254491.15625,229095.015625,229892.078125,380560.0,1.0,2
238037.0625,255397.484375,241135.1875,249995.78125,225169.34375,254476.328125,229087.15625,229870.453125,380561.0,1.0,2
237966.515625,255374.140625,241127.328125,249992.375,225173.71875,254468.453125,229096.09375,229863.921875,380562.0,1.0,2
237936.125,255379.6875,241132.234375,249996.578125,225193.203125,254481.15625,229108.609375,229875.09375,380563.0,1.0,2
237991.46875,255413.390625,241149.3125,250008.65625,225209.75,254500.015625,229116.65625,229899.59375,380564.0,1.0,2
238058.703125,255427.796875,241151.640625,250006.859375,225196.515625,254497.328125,229099.9375,229898.15625,380565.0,1.0,2
238046.8125,255406.421875,241139.03125,249996.671875,225176.21875,254480.4375,229088.3125,229874.65625,380566.0,1.0,2
237974.390625,255386.21875,241126.703125,249989.875,225175.59375,254470.421875,229096.8125,229862.671875,380567.0,1.0,2
237939.609375,255392.03125,241128.9375,249992.296875,225193.125,254481.328125,229108.515625,229874.828125,380568.0,1.0,2
237982.609375,255408.75,241143.140625,250002.75,225203.3125,254497.0625,229111.921875,229891.09375,380569.0,1.0,2
238049.390625,255422.609375,241151.546875,250008.390625,225192.3125,254501.359375,229102.171875,229892.796875,380570.0,1.0,2
238041.890625,255407.140625,241140.5625,250000.34375,225175.15625,254486.15625,229092.78125,229874.828125,380571.0,1.0,2
237970.265625,255383.171875,241122.9375,249987.203125,225174.53125,254470.6875,229092.15625,229863.734375,380572.0,1.0,2
237928.78125,255378.171875,241120.703125,249985.140625,225183.90625,254476.59375,229099.046875,229866.6875,380573.0,1.0,2
237979.65625,255407.9375,241136.625,249997.65625,225200.1875,254496.4375,229108.78125,229891.71875,380574.0,1.0,2
238054.671875,255435.125,241145.5625,250006.59375,225200.984375,254502.703125,229109.328125,229903.890625,380575.0,1.0,2
238037.6875,255408.484375,241131.703125,249996.046875,225175.859375,254480.171875,229095.734375,229874.828125,380576.0,1.0,2
237964.1875,255381.921875,241118.46875,249988.09375,225176.765625,254468.71875,229100.109375,229862.484375,380577.0,1.0,2
237929.328125,255386.125,241120.265625,249986.03125,225193.390625,254475.421875,229105.390625,229872.40625,380578.0,1.0,2
237974.46875,255407.671875,241134.125,249993.71875,225201.171875,254489.375,229106.734375,229885.640625,380579.0,1.0,2
238043.234375,255420.90625,241139.921875,249999.453125,225193.296875,254492.859375,229103.0625,229886.546875,380580.0,1.0,2
238031.421875,255397.125,241126.703125,249990.765625,225169.96875,254473.375,229089.390625,229862.84375,380581.0,1.0,2
237950.328125,255360.734375,241112.296875,249978.609375,225156.109375,254454.859375,229085.8125,229838.96875,380582.0,1.0,2
237926.546875,255376.203125,241121.953125,249989.34375,225180.609375,254471.40625,229104.046875,229862.40625,380583.0,1.0,2
237983.765625,255415.90625,241137.78125,250002.03125,225201.53125,254493.9375,229112.09375,229893.328125,380584.0,1.0,2
238056.1875,255439.765625,241148.953125,250006.6875,225202.59375,254502.515625,229107.09375,229908.796875,380585.0,1.0,2
238045.28125,255419.5625,241137.515625,249998.8125,225183.640625,254484.90625,229096.546875,229889.3125,380586.0,1.0,2
237969.640625,255387.921875,241124.734375,249990.6875,225176.578125,254472.296875,229098.953125,229870.984375,380587.0,1.0,2
237936.03125,255391.765625,241125.984375,249992.734375,225193.125,254482.40625,229108.78125,229880.546875,380588.0,1.0,2
237981.890625,255417.234375,241137.34375,250000.703125,225203.140625,254498.578125,229112.09375,229898.34375,380589.0,1.0,2
238046.890625,255429.3125,241144.125,250003.296875,225195.796875,254503.953125,229105.75,229901.203125,380590.0,1.0,2
238038.125,255410.71875,241134.125,249996.765625,225175.953125,254487.59375,229097.875,229879.921875,380591.0,1.0,2
237969.109375,255389.078125,241125.0,249991.84375,225178.90625,254478.640625,229104.40625,229871.875,380592.0,1.0,2
237929.140625,255384.15625,241126.875,249991.125,225190.625,254484.640625,229109.5,229875.0,380593.0,1.0,2
237972.0625,255401.59375,241138.59375,249997.75,225193.03125,254492.59375,229104.59375,229884.84375,380594.0,1.0,2
238044.65625,255418.84375,241149.40625,250005.96875,225188.375,254499.65625,229101.90625,229892.53125,380595.0,1.0,2
238045.46875,255410.171875,241141.359375,250002.3125,225176.484375,254485.625,229098.0625,229880.640625,380596.0,1.0,2
237969.109375,255382.1875,241125.890625,249992.109375,225170.234375,254469.796875,229096.265625,229863.203125,380597.0,1.0,2
237933.265625,255389.53125,241131.796875,249997.296875,225189.546875,254481.421875,229109.0625,229877.59375,380598.0,1.0,2
237982.078125,255417.59375,241148.78125,250008.75,225207.609375,254497.6875,229117.546875,229905.671875,380599.0,1.0,2
238057.890625,255441.109375,241154.765625,250012.671875,225204.296875,254500.546875,229108.96875,229915.78125,380600.0,1.0,2
238054.21875,255429.75,241143.953125,250004.359375,225188.734375,254485.4375,229099.84375,229897.359375,380601.0,1.0,2
237974.46875,255395.96875,241128.75,249994.53125,225181.859375,254471.84375,229098.421875,229875.28125,380602.0,1.0,2
237926.828125,255383.890625,241125.359375,249989.34375,225189.015625,254474.890625,229101.640625,229874.5625,380603.0,1.0,2
237970.0,255406.25,241140.28125,249998.546875,225195.984375,254488.125,229103.875,229888.6875,380604.0,1.0,2
238046.453125,255435.125,241152.625,250008.390625,225195.71875,254498.140625,229102.53125,229900.671875,380605.0,1.0,2
238032.859375,255410.09375,241135.375,249995.59375,225170.953125,254474.53125,229084.296875,229876.171875,380606.0,1.0,2
237963.203125,255383.984375,241125.625,249992.375,225171.125,254468.8125,229095.46875,229864.90625,380607.0,1.0,2
237925.75,255384.78125,241128.578125,249994.078125,225186.0625,254476.5,229101.1875,229870.984375,380608.0,1.0,2
237969.015625,255404.1875,241139.65625,250001.59375,225194.8125,254488.03125,229100.390625,229885.828125,380609.0,1.0,2
238043.765625,255428.78125,241146.71875,250007.3125,225192.9375,254496.890625,229099.21875,229896.015625,380610.0,1.0,2
238032.046875,255405.703125,241132.234375,249994.796875,225168.890625,254475.515625,229084.65625,229868.5625,380611.0,1.0,2
237948.546875,255365.921875,241114.0,249979.6875,225158.78125,254456.203125,229079.640625,229846.390625,380612.0,1.0,2
237916.890625,255374.234375,241118.828125,249982.453125,225177.109375,254469.078125,229094.9375,229860.703125,380613.0,1.0,2
237965.53125,255403.65625,241133.484375,249993.984375,225192.046875,254489.640625,229105.484375,229888.15625,380614.0,1.0,2
238038.765625,255423.953125,241141.265625,250001.234375,225188.296875,254494.203125,229099.046875,229898.15625,380615.0,1.0,2
238031.421875,255403.65625,241128.484375,249993.546875,225165.9375,254474.09375,229084.5625,229874.109375,380616.0,1.0,2
237954.890625,255370.484375,241111.046875,249981.46875,225156.640625,254455.40625,229080.625,229852.03125,380617.0,1.0,2
237921.640625,255376.296875,241117.3125,249987.109375,225180.0625,254470.234375,229096.265625,229868.921875,380618.0,1.0,2
237968.9375,255406.328125,241130.8125,249998.46875,225196.078125,254489.734375,229104.5,229893.609375,380619.0,1.0,2
238040.8125,255424.03125,241137.421875,250002.84375,225188.5625,254493.671875,229097.4375,229897.625,380620.0,1.0,2
238031.15625,255396.765625,241124.109375,249991.671875,225164.15625,254471.671875,229080.265625,229871.4375,380621.0,1.0,2
237954.8125,255363.0625,241109.359375,249981.5625,225157.171875,254456.390625,229079.734375,229852.921875,380622.0,1.0,2
237918.5,255366.546875,241112.21875,249984.515625,225174.703125,254464.875,229090.546875,229864.09375,380623.0,1.0,2
237968.9375,255402.125,241125.0,249992.46875,225191.6875,254479.890625,229093.765625,229887.875,380624.0,1.0,2
238046.8125,255432.4375,241139.65625,250001.5,225195.453125,254494.203125,229091.890625,229901.203125,380625.0,1.0,2
238048.5,255421.890625,241139.65625,250003.734375,225188.296875,254492.59375,229096.546875,229892.796875,380626.0,1.0,2
237980.46875,255396.046875,241133.3125,250000.15625,225188.296875,254488.21875,229105.65625,229879.125,380627.0,1.0,2
237948.546875,255407.140625,241141.53125,250006.15625,225210.28125,254501.53125,229122.828125,229896.734375,380628.0,1.0,2
237993.609375,255433.421875,241155.578125,250016.703125,225226.015625,254520.125,229132.75,229919.53125,380629.0,1.0,2
238054.21875,255441.375,241155.21875,250014.109375,225210.109375,254518.96875,229120.953125,229915.953125,380630.0,1.0,2
238039.296875,255411.78125,241139.84375,250002.578125,225181.3125,254497.421875,229105.75,229887.53125,380631.0,1.0,2
237960.4375,255377.09375,241123.125,249993.09375,225170.859375,254479.09375,229105.125,229866.15625,380632.0,1.0,2
237916.984375,255377.90625,241121.515625,249989.796875,225180.515625,254481.59375,229109.765625,229870.8125,380633.0,1.0,2
237954.171875,255395.15625,241128.75,249994.078125,225186.140625,254488.390625,229104.859375,229882.703125,380634.0,1.0,2
238029.8125,255416.703125,241139.921875,250000.96875,225185.609375,254494.203125,229100.296875,229895.03125,380635.0,1.0,2
238026.234375,255403.109375,241129.296875,249992.375,225167.375,254477.65625,229088.765625,229874.921875,380636.0,1.0,2
237951.5,255371.640625,241115.96875,249983.0,225157.984375,254463.265625,229088.84375,229854.171875,380637.0,1.0,2
237914.578125,255372.453125,241119.1875,249987.546875,225176.578125,254472.5625,229100.390625,229868.03125,380638.0,1.0,2
237963.03125,255403.65625,241134.46875,249996.9375,225194.546875,254489.203125,229101.71875,229889.578125,380639.0,1.0,2
238040.453125,255427.25,241146.640625,250006.0625,225193.296875,254500.640625,229097.171875,229897.1875,380640.0,1.0,2
238037.0625,255409.28125,241135.453125,250000.875,225174.53125,254483.03125,229088.046875,229879.5625,380641.0,1.0,2
237966.25,255383.53125,241122.765625,249992.921875,225169.515625,254467.828125,229091.890625,229863.390625,380642.0,1.0,2
237925.65625,255385.59375,241121.0625,249990.0625,225182.75,254470.78125,229098.5,229871.34375,380643.0,1.0,2
237964.1875,255402.9375,241132.953125,249998.8125,225195.359375,254486.0625,229104.859375,229891.90625,380644.0,1.0,2
238032.765625,255421.0,241139.390625,250000.78125,225191.328125,254493.046875,229099.3125,229899.234375,380645.0,1.0,2
238018.28125,255388.625,241120.171875,249983.796875,225158.875,254469.609375,229081.34375,229867.40625,380646.0,1.0,2
237946.671875,255359.484375,241108.640625,249976.828125,225154.40625,254458.796875,229087.59375,229852.65625,380647.0,1.0,2
237911.0,255370.03125,241111.5,249979.15625,225173.359375,254467.109375,229096.625,229866.6875,380648.0,1.0,2
237958.203125,255397.125,241125.796875,249991.046875,225190.4375,254484.28125,229102.171875,229889.84375,380649.0,1.0,2
238031.515625,255418.765625,241136.984375,249999.453125,225187.9375,254493.21875,229101.015625,229901.375,380650.0,1.0,2
238023.921875,255391.578125,241126.515625,249989.15625,225162.8125,254474.0,229084.734375,229875.90625,380651.0,1.0,2
237950.953125,255365.65625,241112.21875,249979.59375,225157.359375,254461.75,229087.328125,229858.828125,380652.0,1.0,2
237910.109375,255366.8125,241113.109375,249980.140625,225172.921875,254468.0,229092.96875,229865.625,380653.0,1.0,2
237957.9375,255398.546875,241129.640625,249990.6875,225189.90625,254484.453125,229095.921875,229889.21875,380654.0,1.0,2
238030.53125,255421.796875,241137.421875,249995.328125,225186.328125,254492.59375,229092.0625,229895.21875,380655.0,1.0,2
238020.96875,255393.8125,241124.546875,249986.390625,225159.5,254474.625,229080.890625,229865.171875,380656.0,1.0,2
237946.3125,255359.484375,241111.59375,249977.71875,225151.640625,254458.890625,229081.15625,229844.703125,380657.0,1.0,2
237916.53125,255378.96875,241117.9375,249983.359375,225180.609375,254471.84375,229096.265625,229868.65625,380658.0,1.0,2
237964.375,255413.125,241133.40625,249993.90625,225200.0,254487.9375,229103.0625,229893.96875,380659.0,1.0,2
238028.296875,255420.09375,241138.671875,249996.234375,225187.9375,254489.375,229092.25,229887.4375,380660.0,1.0,2
238024.359375,255396.046875,241129.203125,249990.140625,225165.5,254475.34375,229082.40625,229867.3125,380661.0,1.0,2
237959.0,255372.09375,241122.046875,249987.734375,225163.703125,254468.28125,229092.15625,229858.109375,380662.0,1.0,2
237920.109375,255377.09375,241123.75,249987.46875,225180.328125,254475.875,229097.96875,229867.671875,380663.0,1.0,2
237958.296875,255395.96875,241131.875,249992.109375,225188.5625,254486.25,229096.8125,229881.0,380664.0,1.0,2
238029.28125,255413.9375,241139.296875,249998.109375,225182.484375,254491.15625,229090.28125,229884.03125,380665.0,1.0,2
238034.109375,255406.15625,241132.953125,249993.90625,225168.71875,254478.46875,229085.8125,229874.109375,380666.0,1.0,2
237959.453125,255374.6875,241117.046875,249981.390625,225161.5625,254459.25,229085.984375,229856.953125,380667.0,1.0,2
237911.71875,255369.671875,241115.796875,249980.484375,225174.796875,254460.140625,229094.3125,229861.859375,380668.0,1.0,2
237951.234375,255392.203125,241128.484375,249988.265625,225186.765625,254474.4375,229098.15625,229879.390625,380669.0,1.0,2
238025.609375,255414.109375,241139.84375,249992.828125,225182.125,254483.390625,229091.4375,229884.65625,380670.0,1.0,2
238025.796875,255399.359375,241130.90625,249985.859375,225161.375,254467.296875,229081.875,229867.046875,380671.0,1.0,2
237952.65625,255373.875,241120.96875,249979.234375,225156.46875,254451.46875,229089.03125,229854.53125,380672.0,1.0,2
237909.296875,255375.125,241122.671875,249979.0625,225174.34375,254458.703125,229100.75,229866.15625,380673.0,1.0,2
237947.03125,255394.703125,241132.234375,249983.984375,225186.328125,254471.21875,229101.90625,229883.5,380674.0,1.0,2
238016.859375,255409.8125,241135.1875,249985.234375,225176.046875,254466.046875,229088.578125,229885.109375,380675.0,1.0,2
238024.546875,255404.28125,241129.5625,249979.515625,225162.1875,254453.4375,229085.453125,229872.765625,380676.0,1.0,2
237955.25,255381.390625,241118.375,249970.203125,225157.71875,254439.671875,229091.0,229856.859375,380677.0,1.0,2
237911.4375,255380.859375,241117.75,249966.984375,225172.828125,254445.828125,229102.0,229865.4375,380678.0,1.0,2
237953.375,255401.328125,241127.859375,249972.625,225186.328125,254457.8125,229104.859375,229887.96875,380679.0,1.0,2
238024.90625,255414.734375,241133.84375,249974.59375,225178.1875,254461.75,229097.171875,229896.109375,380680.0,1.0,2
238029.109375,255403.921875,241124.640625,249967.96875,225160.671875,254447.359375,229090.109375,229880.015625,380681.0,1.0,2
237955.15625,255373.25,241110.25,249957.609375,225149.765625,254430.640625,229088.5,229859.1875,380682.0,1.0,2
237909.390625,255368.515625,241111.3125,249958.140625,225162.1875,254437.15625,229094.3125,229868.125,380683.0,1.0,2
237952.21875,255395.15625,241126.25,249967.796875,225178.71875,254454.421875,229099.671875,229890.75,380684.0,1.0,2
238023.65625,255417.515625,241132.515625,249971.28125,225170.234375,254458.171875,229088.671875,229892.0,380685.0,1.0,2
238023.375,255406.6875,241122.859375,249962.609375,225149.84375,254444.5,229078.75,229870.09375,380686.0,1.0,2
237953.546875,255383.265625,241109.890625,249953.84375,225145.828125,254429.734375,229079.28125,229853.8125,380687.0,1.0,2
237909.65625,255382.1875,241113.46875,249958.140625,225164.15625,254442.34375,229097.4375,229865.984375,380688.0,1.0,2
237952.84375,255415.0,241129.015625,249969.9375,225184.1875,254461.296875,229109.0625,229892.4375,380689.0,1.0,2
238024.984375,255435.390625,241134.75,249974.953125,225180.96875,254466.3125,229099.21875,229901.109375,380690.0,1.0,2
238024.453125,255420.453125,241123.296875,249965.734375,225161.5625,254453.796875,229090.109375,229881.796875,380691.0,1.0,2
237941.84375,255383.984375,241100.328125,249948.125,225143.859375,254430.71875,229080.171875,229851.84375,380692.0,1.0,2
237899.734375,255391.140625,241103.265625,249950.984375,225165.578125,254442.4375,229095.921875,229869.109375,380693.0,1.0,2
237940.140625,255413.9375,241117.9375,249959.5625,225179.625,254459.25,229103.25,229885.46875,380694.0,1.0,2
238016.140625,255430.03125,241130.265625,249970.65625,225176.84375,254468.71875,229099.765625,229893.25,380695.0,1.0,2
238018.1875,255412.6875,241119.09375,249962.609375,225157.09375,254450.65625,229085.359375,229872.328125,380696.0,1.0,2
237950.875,255392.296875,241107.828125,249956.078125,225153.953125,254440.734375,229088.140625,229854.71875,380697.0,1.0,2
237908.5,255394.984375,241110.875,249958.765625,225172.015625,254451.90625,229102.0,229866.421875,380698.0,1.0,2
237947.65625,255420.28125,241123.390625,249967.796875,225188.375,254470.875,229109.5,229890.65625,380699.0,1.0,2
238021.328125,255437.453125,241134.65625,249975.75,225186.953125,254480.703125,229103.515625,229898.796875,380700.0,1.0,2
238025.171875,255426.0,241127.140625,249969.21875,225171.75,254469.796875,229093.234375,229878.84375,380701.0,1.0,2
237951.140625,255393.09375,241114.359375,249959.21875,225162.359375,254456.5625,229093.859375,229857.390625,380702.0,1.0,2
237902.859375,255387.203125,241115.96875,249959.84375,225173.453125,254462.640625,229105.484375,229864.71875,380703.0,1.0,2
237938.09375,255408.390625,241126.25,249965.828125,225185.609375,254474.625,229106.734375,229884.21875,380704.0,1.0,2
238012.109375,255430.734375,241133.21875,249971.90625,225180.78125,254479.453125,229101.015625,229891.375,380705.0,1.0,2
238015.953125,255413.125,241122.671875,249963.953125,225158.34375,254461.390625,229091.53125,229872.5,380706.0,1.0,2
237950.6875,255390.859375,241111.046875,249955.28125,225155.84375,254446.8125,229095.015625,229860.515625,380707.0,1.0,2
237910.109375,255395.609375,241112.21875,249956.53125,225173.71875,254457.640625,229109.6875,229871.96875,380708.0,1.0,2
237944.078125,255418.40625,241121.15625,249963.5,225183.203125,254469.078125,229108.875,229889.140625,380709.0,1.0,2
238014.0,255435.390625,241131.875,249972.0,225178.1875,254477.84375,229102.890625,229897.890625,380710.0,1.0,2
238020.4375,255423.765625,241126.78125,249968.421875,225163.265625,254465.59375,229096.546875,229885.203125,380711.0,1.0,2
237951.140625,255397.65625,241113.28125,249958.859375,225160.21875,254446.546875,229095.375,229868.921875,380712.0,1.0,2
237898.921875,255391.21875,241104.96875,249952.234375,225170.671875,254444.765625,229095.921875,229868.921875,380713.0,1.0,2
237935.578125,255413.21875,241115.875,249957.875,225182.03125,254459.609375,229099.9375,229884.21875,380714.0,1.0,2
238008.8125,255432.53125,241125.09375,249964.578125,225177.03125,254469.609375,229094.03125,229891.1875,380715.0,1.0,2
238013.71875,255417.515625,241115.796875,249958.40625,225151.90625,254456.65625,229083.3125,229868.75,380716.0,1.0,2
237942.734375,255387.109375,241103.625,249951.34375,225141.625,254442.078125,229084.46875,229848.625,380717.0,1.0,2
237896.421875,255381.921875,241105.421875,249953.125,225154.859375,254445.921875,229092.515625,229855.78125,380718.0,1.0,2
237931.921875,255401.421875,241115.34375,249959.65625,225165.21875,254455.484375,229090.90625,229873.9375,380719.0,1.0,2
238014.4375,255430.734375,241128.484375,249969.9375,225168.265625,254467.46875,229090.734375,229890.921875,380720.0,1.0,2
238020.515625,255415.28125,241121.78125,249966.0,225148.6875,254455.484375,229084.015625,229872.765625,380721.0,1.0,2
237946.046875,255375.84375,241105.328125,249954.109375,225133.578125,254434.75,229077.046875,229844.078125,380722.0,1.0,2
237902.328125,255374.140625,241108.28125,249955.015625,225149.046875,254442.25,229084.65625,229851.140625,380723.0,1.0,2
237944.4375,255405.703125,241121.78125,249966.546875,225168.0,254459.328125,229091.53125,229879.921875,380724.0,1.0,2
238019.171875,255427.609375,241134.921875,249976.375,225170.328125,254469.890625,229089.03125,229894.140625,380725.0,1.0,2
238026.328125,255414.5625,241129.734375,249972.171875,225151.453125,254455.3125,229079.90625,229873.484375,380726.0,1.0,2
237959.71875,255389.25,241117.578125,249963.421875,225145.28125,254439.484375,229081.96875,229854.984375,380727.0,1.0,2
237916.265625,255391.3125,241119.8125,249964.671875,225163.265625,254448.609375,229092.25,229864.71875,380728.0,1.0,2
237961.328125,255432.265625,241134.828125,249979.15625,225190.53125,254471.5,229107.453125,229899.859375,380729.0,1.0,2
238039.65625,255463.546875,241141.8125,249985.59375,225193.125,254481.234375,229104.234375,229916.578125,380730.0,1.0,2
238038.765625,255442.09375,241126.96875,249972.890625,225167.546875,254459.6875,229084.203125,229889.84375,380731.0,1.0,2
237961.15625,255397.21875,241111.140625,249961.625,225147.875,254440.109375,229081.4375,229856.40625,380732.0,1.0,2
237908.5,255383.0,241110.0625,249960.375,225155.5625,254442.796875,229085.8125,229857.21875,380733.0,1.0,2
237944.515625,255405.4375,241123.5625,249970.03125,225168.53125,254456.5625,229086.890625,229875.453125,380734.0,1.0,2
238023.828125,255433.328125,241136.796875,249978.25,225168.53125,254465.765625,229083.125,229886.625,380735.0,1.0,2
238036.609375,255424.03125,241132.234375,249976.015625,225157.171875,254457.1875,229078.484375,229874.65625,380736.0,1.0,2
237959.90625,255383.796875,241115.4375,249961.71875,225144.65625,254435.90625,229072.84375,229849.25,380737.0,1.0,2
237905.90625,255372.0,241110.875,249956.625,225151.640625,254436.625,229074.453125,229847.46875,380738.0,1.0,2
237940.5,255392.296875,241121.515625,249964.125,225164.6875,254452.8125,229079.734375,229867.40625,380739.0,1.0,2
238024.546875,255423.140625,241136.984375,249977.1875,225170.953125,254469.078125,229083.671875,229886.265625,380740.0,1.0,2
238040.1875,255421.53125,241131.796875,249973.15625,225161.109375,254457.546875,229078.921875,229880.546875,380741.0,1.0,2
237966.78125,255386.9375,241113.828125,249961.265625,225147.25,254438.953125,229074.375,229856.671875,380742.0,1.0,2
237910.90625,255373.515625,241110.421875,249959.921875,225155.5625,254441.90625,229078.21875,229858.734375,380743.0,1.0,2
237950.0625,255403.203125,241126.078125,249972.0,225176.765625,254462.640625,229091.0,229884.125,380744.0,1.0,2
238020.96875,255420.375,241135.734375,249976.640625,225172.203125,254471.21875,229085.359375,229886.1875,380745.0,1.0,2
238027.671875,255405.96875,241125.890625,249969.046875,225150.03125,254454.78125,229075.890625,229864.71875,380746.0,1.0,2
237966.421875,255389.53125,241114.0,249961.0,225152.703125,254442.703125,229081.4375,229856.328125,380747.0,1.0,2
237920.828125,255390.6875,241118.921875,249966.0,225177.203125,254453.25,229092.703125,229872.328125,380748.0,1.0,2
237948.015625,255405.53125,241131.53125,249975.75,225191.15625,254470.0625,229097.96875,229887.171875,380749.0,1.0,2
238026.328125,255437.796875,241143.0625,249985.765625,225193.84375,254482.484375,229098.859375,229900.75,380750.0,1.0,2
238043.59375,255440.75,241137.6875,249983.53125,225183.828125,254472.75,229093.671875,229893.875,380751.0,1.0,2
237968.3125,255399.265625,241118.734375,249968.515625,225165.3125,254449.859375,229083.3125,229861.5,380752.0,1.0,2
237923.6875,255399.1875,241121.515625,249970.828125,225185.4375,254460.140625,229097.796875,229873.84375,380753.0,1.0,2
237967.5,255439.234375,241139.578125,249985.9375,225213.234375,254482.3125,229113.703125,229910.140625,380754.0,1.0,2
238037.6875,255454.4375,241146.984375,249988.890625,225205.09375,254485.4375,229103.6875,229910.765625,380755.0,1.0,2
238051.71875,255448.359375,241141.0,249984.421875,225188.03125,254475.34375,229096.265625,229894.140625,380756.0,1.0,2
237987.171875,255427.96875,241126.96875,249977.09375,225186.5,254461.921875,229101.90625,229884.21875,380757.0,1.0,2
237930.484375,255414.5625,241120.890625,249971.46875,225195.796875,254460.578125,229104.859375,229885.015625,380758.0,1.0,2
237957.390625,255428.5,241128.65625,249975.9375,225197.953125,254467.734375,229099.046875,229891.546875,380759.0,1.0,2
238019.796875,255432.890625,241133.765625,249979.515625,225182.03125,254469.34375,229087.78125,229889.046875,380760.0,1.0,2
238032.765625,255423.3125,241128.484375,249976.640625,225168.71875,254459.515625,229081.15625,229878.5,380761.0,1.0,2
237962.765625,255394.078125,241110.78125,249963.421875,225158.703125,254439.484375,229073.734375,229855.609375,380762.0,1.0,2
237913.59375,255387.828125,241110.0625,249961.625,225172.015625,254445.390625,229084.46875,229860.515625,380763.0,1.0,2
237942.921875,255401.328125,241123.296875,249970.828125,225184.09375,254461.75,229090.546875,229878.671875,380764.0,1.0,2
238015.25,255410.625,241132.328125,249977.359375,225175.59375,254466.578125,229082.765625,229881.984375,380765.0,1.0,2
238037.953125,255411.25,241128.75,249974.140625,225163.796875,254457.1875,229079.640625,229873.578125,380766.0,1.0,2
237970.90625,255384.25,241112.75,249962.703125,225156.734375,254442.078125,229080.453125,229854.984375,380767.0,1.0,2
237917.25,255375.125,241111.046875,249962.609375,225170.953125,254447.171875,229088.140625,229863.296875,380768.0,1.0,2
237948.71875,255395.875,241124.1875,249973.078125,225184.984375,254463.09375,229099.046875,229886.0,380769.0,1.0,2
238026.953125,255427.171875,241135.1875,249977.71875,225185.515625,254473.1875,229094.84375,229898.796875,380770.0,1.0,2
238032.328125,255408.484375,241121.953125,249967.53125,225158.4375,254453.96875,229072.671875,229868.65625,380771.0,1.0,2
237970.8125,255388.90625,241111.046875,249962.703125,225156.90625,254441.359375,229077.234375,229857.390625,380772.0,1.0,2
237913.859375,255377.453125,241111.234375,249964.3125,225164.875,254446.546875,229085.8125,229857.84375,380773.0,1.0,2
237944.4375,255399.0,241125.890625,249973.078125,225176.21875,254461.03125,229090.90625,229874.734375,380774.0,1.0,2
238022.21875,255426.265625,241135.640625,249978.171875,225174.796875,254468.359375,229088.671875,229884.484375,380775.0,1.0,2
238034.5625,255415.90625,241125.984375,249971.1875,225158.25,254453.34375,229077.140625,229867.9375,380776.0,1.0,2
237969.734375,255392.65625,241111.671875,249962.703125,225152.171875,254435.375,229078.03125,229851.9375,380777.0,1.0,2
237923.515625,255394.359375,241114.890625,249965.46875,225167.375,254443.234375,229086.265625,229859.359375,380778.0,1.0,2
237953.90625,255412.59375,241129.109375,249976.734375,225184.09375,254463.09375,229092.515625,229879.921875,380779.0,1.0,2
238024.984375,255431.28125,241136.078125,249980.21875,225179.4375,254469.4375,229085.984375,229889.140625,380780.0,1.0,2
238041.34375,255428.421875,241130.359375,249976.203125,225166.65625,254458.625,229078.84375,229879.5625,380781.0,1.0,2
237961.6875,255383.53125,241108.640625,249959.921875,225144.578125,254436.0,229072.40625,229845.953125,380782.0,1.0,2
237907.515625,255373.875,241105.421875,249957.6875,225154.40625,254439.84375,229078.921875,229850.0625,380783.0,1.0,2
237935.5,255389.078125,241116.859375,249967.53125,225167.734375,254457.28125,229085.71875,229868.484375,380784.0,1.0,2
238018.46875,255422.609375,241130.90625,249978.609375,225171.75,254469.96875,229088.5,229885.375,380785.0,1.0,2
238034.90625,255417.234375,241122.40625,249971.28125,225157.171875,254457.546875,229080.09375,229873.3125,380786.0,1.0,2
237965.890625,255384.25,241108.640625,249962.15625,225151.453125,254443.59375,229079.734375,229854.171875,380787.0,1.0,2
237915.640625,255382.46875,241108.28125,249962.4375,225166.484375,254449.859375,229091.171875,229860.34375,380788.0,1.0,2
237948.28125,255409.90625,241122.140625,249972.53125,225184.984375,254467.734375,229097.25,229881.171875,380789.0,1.0,2
238023.828125,255432.53125,241134.296875,249982.375,225185.796875,254475.96875,229091.984375,229891.375,380790.0,1.0,2
238030.53125,255413.21875,241123.125,249974.046875,225161.203125,254457.28125,229076.25,229870.453125,380791.0,1.0,2
237957.671875,255377.0,241105.328125,249962.34375,225148.0625,254439.03125,229075.34375,229846.21875,380792.0,1.0,2
237913.765625,255381.203125,241110.15625,249967.265625,225168.71875,254449.859375,229094.75,229860.078125,380793.0,1.0,2
237935.3125,255396.671875,241111.234375,249964.046875,225173.09375,254455.484375,229085.546875,229869.015625,380794.0,1.0,2
238012.296875,255425.28125,241121.421875,249972.71875,225176.40625,254467.734375,229082.328125,229883.046875,380795.0,1.0,2
238027.84375,255416.609375,241115.515625,249969.9375,225163.796875,254457.09375,229074.8125,229870.71875,380796.0,1.0,2
237950.515625,255368.515625,241097.375,249955.90625,225143.140625,254432.78125,229064.4375,229837.71875,380797.0,1.0,2
237899.1875,255361.890625,241096.75,249953.40625,225153.953125,254436.625,229074.1875,229841.65625,380798.0,1.0,2
237933.96875,255390.859375,241112.390625,249963.6875,225176.765625,254455.046875,229086.703125,229867.9375,380799.0,1.0,2
238018.015625,255427.515625,241127.765625,249975.65625,225184.09375,254470.6875,229090.453125,229889.765625,380800.0,1.0,2
238032.5,255417.515625,241121.515625,249973.609375,225168.09375,254459.78125,229081.96875,229878.3125,380801.0,1.0,2
237955.4375,255374.140625,241098.359375,249957.875,225149.21875,254436.984375,229073.03125,229850.59375,380802.0,1.0,2
237902.0625,255368.15625,241098.171875,249957.421875,225162.0,254443.15625,229079.546875,229852.296875,380803.0,1.0,2
237938.171875,255405.171875,241117.3125,249971.640625,225189.015625,254466.390625,229094.484375,229884.125,380804.0,1.0,2
238002.09375,255408.75,241121.78125,249971.8125,225173.890625,254466.390625,229080.453125,229876.078125,380805.0,1.0,2
238014.625,255387.734375,241111.234375,249963.953125,225148.953125,254451.28125,229067.390625,229852.46875,380806.0,1.0,2
237946.046875,255351.96875,241095.765625,249955.28125,225133.75,254431.53125,229065.25,229827.359375,380807.0,1.0,2
237894.015625,255348.9375,241096.125,249956.078125,225147.515625,254436.71875,229076.953125,229833.25,380808.0,1.0,2
237933.34375,255380.9375,241111.9375,249968.421875,225172.109375,254455.765625,229086.703125,229864.09375,380809.0,1.0,2
238023.46875,255424.921875,241130.90625,249982.28125,225188.46875,254475.875,229095.015625,229893.875,380810.0,1.0,2
238041.703125,255419.03125,241121.953125,249975.84375,225173.890625,254462.90625,229081.96875,229885.203125,380811.0,1.0,2
237965.984375,255371.640625,241099.15625,249957.6875,225150.203125,254437.78125,229071.328125,229850.234375,380812.0,1.0,2
237904.640625,255350.984375,241098.265625,249955.375,225152.0,254440.109375,229075.703125,229841.5625,380813.0,1.0,2
237932.1875,255375.390625,241110.875,249964.046875,225168.984375,254457.09375,229081.34375,229862.765625,380814.0,1.0,2
238007.734375,255401.140625,241120.890625,249970.203125,225167.109375,254466.9375,229074.453125,229870.171875,380815.0,1.0,2
238030.796875,255400.15625,241117.75,249968.421875,225156.640625,254459.515625,229069.8125,229863.828125,380816.0,1.0,2
237970.546875,255377.28125,241105.0625,249959.65625,225149.21875,254442.796875,229069.625,229845.953125,380817.0,1.0,2
237924.578125,255380.578125,241111.5,249964.84375,225171.3125,254452.984375,229086.265625,229859.359375,380818.0,1.0,2
237945.78125,255392.296875,241119.8125,249969.671875,225180.609375,254464.78125,229093.046875,229875.90625,380819.0,1.0,2
238015.953125,255411.875,241126.15625,249971.015625,225173.359375,254470.953125,229085.09375,229881.171875,380820.0,1.0,2
238034.46875,255404.984375,241116.953125,249964.75,225153.6875,254457.28125,229072.21875,229864.90625,380821.0,1.0,2
237971.609375,255373.703125,241103.1875,249956.34375,225145.015625,254439.671875,229072.21875,229845.328125,380822.0,1.0,2
237917.796875,255368.953125,241103.625,249957.953125,225162.0,254445.5625,229086.53125,229853.109375,380823.0,1.0,2
237943.984375,255392.109375,241113.28125,249965.921875,225179.53125,254460.859375,229092.34375,229873.578125,380824.0,1.0,2
238013.1875,255409.015625,241117.671875,249968.78125,225170.328125,254465.953125,229079.828125,229873.3125,380825.0,1.0,2
238033.484375,255402.484375,241114.453125,249964.671875,225152.625,254455.21875,229069.1875,229858.109375,380826.0,1.0,2
237965.53125,255368.78125,241099.875,249951.171875,225141.265625,254435.546875,229066.046875,229834.5,380827.0,1.0,2
237915.828125,255366.640625,241101.21875,249952.6875,225160.3125,254444.671875,229081.34375,229844.25,380828.0,1.0,2
237942.734375,255387.296875,241116.421875,249965.203125,225179.171875,254465.5,229092.0625,229866.515625,380829.0,1.0,2
238013.359375,255402.84375,241126.703125,249972.09375,225175.0625,254473.28125,229085.359375,229872.140625,380830.0,1.0,2
238035.625,255397.578125,241123.828125,249970.125,225160.21875,254464.96875,229079.015625,229858.90625,380831.0,1.0,2
237962.140625,255357.421875,241102.015625,249954.5625,225139.484375,254440.015625,229070.609375,229828.0625,380832.0,1.0,2
237905.09375,255348.84375,241097.90625,249951.078125,225147.515625,254437.34375,229073.46875,229828.515625,380833.0,1.0,2
237941.125,255380.40625,241116.6875,249965.46875,225172.5625,254462.375,229086.96875,229860.171875,380834.0,1.0,2
238020.078125,255407.859375,241129.015625,249974.6875,225175.5,254475.15625,229084.203125,229876.078125,380835.0,1.0,2
238036.875,255399.71875,241121.953125,249969.578125,225158.4375,254463.453125,229076.15625,229863.109375,380836.0,1.0,2
237964.8125,255362.96875,241102.109375,249954.5625,225140.546875,254438.953125,229067.296875,229831.90625,380837.0,1.0,2
237909.03125,255354.65625,241103.265625,249954.5625,225156.015625,254444.3125,229080.453125,229838.4375,380838.0,1.0,2
237934.78125,255373.703125,241116.140625,249964.390625,225170.953125,254460.40625,229089.390625,229860.96875,380839.0,1.0,2
238013.8125,255401.5,241129.203125,249973.96875,225170.953125,254469.703125,229084.203125,229874.921875,380840.0,1.0,2
238041.34375,255402.75,241128.65625,249973.34375,225159.765625,254464.15625,229076.6875,229867.234375,380841.0,1.0,2
237975.375,255371.28125,241114.09375,249963.421875,225150.65625,254447.53125,229078.390625,229846.671875,380842.0,1.0,2
237911.890625,255353.765625,241109.171875,249960.109375,225157.8125,254447.796875,229085.28125,229844.421875,380843.0,1.0,2
237935.21875,255371.203125,241117.125,249965.734375,225167.28125,254461.75,229086.4375,229857.390625,380844.0,1.0,2
238007.46875,255394.890625,241123.75,249971.109375,225163.796875,254469.796875,229076.6875,229865.703125,380845.0,1.0,2
238028.5625,255389.078125,241117.21875,249965.109375,225149.484375,254458.625,229067.296875,229852.296875,380846.0,1.0,2
237962.40625,255355.015625,241104.078125,249956.265625,225140.109375,254443.859375,229070.609375,229830.921875,380847.0,1.0,2
237901.25,255339.015625,241097.640625,249951.171875,225146.71875,254440.828125,229071.953125,229827.984375,380848.0,1.0,2
237930.578125,255369.046875,241109.890625,249959.75,225166.75,254458.0,229082.5,229854.0,380849.0,1.0,2
238006.578125,255393.71875,241123.390625,249969.765625,225169.15625,254473.1875,229082.40625,229867.859375,380850.0,1.0,2
238027.9375,255384.609375,241118.828125,249968.15625,225150.46875,254464.34375,229072.125,229852.828125,380851.0,1.0,2
237962.9375,255353.84375,241104.53125,249959.484375,225139.390625,254443.859375,229069.890625,229832.71875,380852.0,1.0,2
237910.015625,255350.28125,241105.859375,249960.109375,225158.078125,254449.671875,229083.390625,229841.125,380853.0,1.0,2
237931.65625,255368.328125,241114.890625,249966.640625,225173.265625,254462.828125,229088.40625,229859.8125,380854.0,1.0,2
238008.625,255393.8125,241128.9375,249975.484375,225173.984375,254474.09375,229085.546875,229874.109375,380855.0,1.0,2
238036.796875,255400.25,241122.9375,249969.671875,225164.421875,254466.3125,229078.484375,229869.640625,380856.0,1.0,2
237974.46875,255373.078125,241105.6875,249957.875,225156.828125,254449.046875,229076.609375,229851.84375,380857.0,1.0,2
237909.5625,255355.375,241099.703125,249953.21875,225161.03125,254447.71875,229081.4375,229848.984375,380858.0,1.0,2
237934.15625,255379.515625,241113.015625,249964.390625,225177.296875,254467.015625,229093.234375,229870.984375,380859.0,1.0,2
238012.296875,255407.9375,241127.40625,249975.75,225180.609375,254483.03125,229096.453125,229887.25,380860.0,1.0,2
238035.625,255402.125,241121.421875,249971.546875,225166.203125,254469.171875,229082.859375,229877.78125,380861.0,1.0,2
237969.109375,255369.40625,241102.921875,249959.484375,225152.34375,254447.171875,229074.90625,229851.84375,380862.0,1.0,2
237916.1875,255369.765625,241102.28125,249960.375,225170.328125,254449.859375,229083.671875,229863.734375,380863.0,1.0,2
237938.0,255393.546875,241114.359375,249966.984375,225189.015625,254467.65625,229093.140625,229886.890625,380864.0,1.0,2
238005.3125,255407.234375,241122.9375,249971.546875,225182.578125,254476.140625,229085.09375,229889.84375,380865.0,1.0,2
238016.765625,255380.578125,241111.140625,249961.890625,225151.28125,254457.546875,229067.03125,229861.234375,380866.0,1.0,2
237958.109375,255353.140625,241100.859375,249956.078125,225144.484375,254442.078125,229071.953125,229846.3125,380867.0,1.0,2
237907.421875,255356.171875,241101.75,249958.859375,225162.71875,254447.625,229081.96875,229851.671875,380868.0,1.0,2
237929.328125,255376.5625,241113.28125,249967.34375,225178.1875,254461.84375,229087.78125,229869.28125,380869.0,1.0,2
238008.0,255404.1875,241124.1875,249975.390625,225181.234375,254471.40625,229086.703125,229881.71875,380870.0,1.0,2
238029.640625,255397.390625,241115.4375,249971.734375,225165.3125,254461.484375,229075.53125,229869.828125,380871.0,1.0,2
237958.734375,255357.875,241097.8125,249958.3125,225149.9375,254442.25,229072.578125,229847.375,380872.0,1.0,2
237904.828125,255355.375,241099.421875,249959.484375,225163.96875,254450.296875,229085.8125,229854.078125,380873.0,1.0,2
237929.328125,255382.90625,241113.546875,249969.578125,225180.96875,254469.265625,229095.640625,229875.09375,380874.0,1.0,2
237999.515625,255397.21875,241124.1875,249975.578125,225173.8125,254477.9375,229090.109375,229880.1875,380875.0,1.0,2
238019.796875,255386.390625,241113.640625,249967.078125,225153.515625,254466.21875,229078.390625,229863.828125,380876.0,1.0,2
237954.8125,255351.078125,241096.5625,249953.84375,225137.234375,254446.28125,229075.796875,229835.671875,380877.0,1.0,2
237903.390625,255351.609375,241097.8125,249956.265625,225153.6875,254450.9375,229087.234375,229843.71875,380878.0,1.0,2
237926.640625,255375.484375,241111.046875,249966.90625,225174.25,254468.453125,229095.375,229869.828125,380879.0,1.0,2
237996.734375,255391.578125,241120.171875,249972.984375,225171.03125,254474.984375,229087.234375,229877.875,380880.0,1.0,2
238019.359375,255384.78125,241110.6875,249965.296875,225149.9375,254461.484375,229073.109375,229858.015625,380881.0,1.0,2
237956.5,255353.84375,241094.78125,249955.546875,225136.890625,254442.34375,229072.671875,229832.8125,380882.0,1.0,2
237902.40625,255348.484375,241095.40625,249956.0,225152.625,254449.140625,229086.96875,229839.515625,380883.0,1.0,2
237924.3125,255370.75,241106.84375,249961.890625,225169.515625,254465.59375,229094.65625,229860.078125,380884.0,1.0,2
237996.734375,255391.671875,241116.953125,249968.875,225169.15625,254473.640625,229086.53125,229870.453125,380885.0,1.0,2
238017.390625,255377.8125,241109.796875,249962.4375,225146.984375,254460.859375,229068.640625,229851.578125,380886.0,1.0,2
237967.046875,255359.578125,241102.828125,249959.484375,225145.90625,254450.578125,229077.765625,229841.921875,380887.0,1.0,2
237913.59375,255360.921875,241102.375,249958.9375,225165.5,254457.546875,229093.859375,229857.390625,380888.0,1.0,2
237927.0,255372.625,241110.328125,249962.78125,225177.65625,254469.53125,229095.015625,229870.8125,380889.0,1.0,2
238006.84375,255400.703125,241124.90625,249974.5,225182.484375,254483.03125,229094.75,229886.546875,380890.0,1.0,2
238039.03125,255407.046875,241121.59375,249972.4375,225169.515625,254476.328125,229088.9375,229878.765625,380891.0,1.0,2
237973.9375,255374.140625,241104.078125,249960.375,225156.109375,254457.359375,229086.078125,229854.53125,380892.0,1.0,2
237910.453125,255353.21875,241099.25,249956.4375,225163.078125,254455.9375,229091.625,229854.265625,380893.0,1.0,2
237925.21875,255361.359375,241109.703125,249963.6875,225173.453125,254466.484375,229092.15625,229869.46875,380894.0,1.0,2
238002.734375,255390.859375,241120.4375,249970.296875,225175.6875,254476.328125,229085.1875,229882.703125,380895.0,1.0,2
238034.828125,255394.890625,241118.375,249969.5,225162.359375,254470.234375,229078.65625,229873.578125,380896.0,1.0,2
237968.75,255360.28125,241101.75,249956.4375,225144.484375,254448.609375,229070.96875,229844.515625,380897.0,1.0,2
237909.5625,255352.953125,241096.296875,249954.5625,225156.375,254449.859375,229077.40625,229847.828125,380898.0,1.0,2
237926.546875,255370.65625,241105.859375,249962.96875,225175.859375,254467.5625,229090.453125,229872.0625,380899.0,1.0,2
237999.6875,255393.015625,241117.484375,249971.109375,225175.78125,254479.0,229088.9375,229885.734375,380900.0,1.0,2
238027.9375,255387.203125,241114.1875,249967.53125,225153.953125,254468.359375,229075.625,229869.109375,380901.0,1.0,2
237973.3125,255361.890625,241102.640625,249959.03125,225144.296875,254452.1875,229075.703125,229847.109375,380902.0,1.0,2
237909.828125,255347.953125,241099.15625,249956.34375,225154.765625,254455.3125,229085.625,229845.5,380903.0,1.0,2
237918.328125,255355.546875,241105.15625,249957.6875,225162.359375,254464.609375,229087.78125,229856.046875,380904.0,1.0,2
237992.265625,255379.328125,241117.3125,249965.734375,225165.140625,254474.984375,229086.078125,229872.328125,380905.0,1.0,2
238029.375,255385.40625,241119.546875,249966.09375,225156.46875,254471.40625,229080.265625,229866.421875,380906.0,1.0,2
237972.78125,255362.703125,241104.96875,249956.078125,225146.71875,254453.25,229078.125,229845.765625,380907.0,1.0,2
237910.015625,255353.578125,241099.34375,249951.53125,225157.625,254455.40625,229085.0,229845.140625,380908.0,1.0,2
237935.765625,255386.484375,241114.09375,249964.125,225186.953125,254476.046875,229098.0625,229878.84375,380909.0,1.0,2
238006.21875,255406.953125,241124.28125,249970.203125,225187.3125,254484.90625,229091.4375,229892.0,380910.0,1.0,2
238030.71875,255395.328125,241117.125,249964.21875,225162.640625,254472.75,229075.796875,229867.140625,380911.0,1.0,2
237970.625,255363.0625,241101.9375,249955.375,225147.515625,254453.703125,229074.375,229842.015625,380912.0,1.0,2
237912.515625,255355.375,241102.921875,249956.265625,225164.328125,254457.71875,229087.6875,229849.53125,380913.0,1.0,2
237927.53125,255370.390625,241116.59375,249967.078125,225182.296875,254474.625,229094.578125,229866.515625,380914.0,1.0,2
238006.125,255400.703125,241129.828125,249977.09375,225186.953125,254486.515625,229092.96875,229878.578125,380915.0,1.0,2
238044.5625,255409.734375,241132.328125,249979.78125,225180.96875,254483.921875,229092.34375,229876.796875,380916.0,1.0,2
237981.625,255373.078125,241112.65625,249964.3125,225161.46875,254456.828125,229079.90625,229848.546875,380917.0,1.0,2
237917.078125,255358.671875,241105.859375,249958.3125,225168.09375,254457.359375,229086.078125,229848.625,380918.0,1.0,2
237925.03125,255364.484375,241112.484375,249961.890625,225177.109375,254468.625,229087.59375,229860.25,380919.0,1.0,2
238000.84375,255387.375,241124.734375,249969.5,225172.015625,254475.78125,229083.390625,229866.25,380920.0,1.0,2
238029.546875,255381.484375,241120.34375,249967.078125,225153.953125,254466.046875,229073.46875,229852.65625,380921.0,1.0,2
237974.828125,255359.03125,241106.40625,249958.40625,225146.8125,254450.296875,229073.921875,229838.34375,380922.0,1.0,2
237919.21875,255358.046875,241103.625,249957.6875,225165.3125,254455.765625,229085.546875,229847.203125,380923.0,1.0,2
237933.078125,255375.578125,241112.75,249963.859375,225180.6875,254471.765625,229093.5,229866.609375,380924.0,1.0,2
237998.609375,255390.515625,241119.984375,249968.0625,225174.703125,254477.484375,229085.984375,229872.328125,380925.0,1.0,2
238022.84375,255378.890625,241111.234375,249960.015625,225152.078125,254462.828125,229069.265625,229853.8125,380926.0,1.0,2
237966.515625,255350.8125,241097.640625,249954.03125,225141.4375,254446.640625,229067.65625,229830.390625,380927.0,1.0,2
237911.890625,255349.109375,241100.953125,249958.9375,225161.46875,254457.015625,229083.75,229835.40625,380928.0,1.0,2
237930.390625,255368.609375,241113.46875,249967.4375,225180.515625,254474.984375,229093.40625,229854.890625,380929.0,1.0,2
238010.953125,255398.46875,241126.96875,249977.359375,225188.375,254489.46875,229096.625,229876.609375,380930.0,1.0,2
238043.671875,255399.625,241126.421875,249973.703125,225175.0625,254483.828125,229089.484375,229871.875,380931.0,1.0,2
237980.375,255364.3125,241109.265625,249960.375,225156.640625,254462.734375,229082.234375,229846.671875,380932.0,1.0,2
237915.46875,255349.203125,241100.953125,249955.546875,225165.21875,254462.375,229086.609375,229844.609375,380933.0,1.0,2
237931.5625,255371.109375,241112.390625,249963.859375,225184.8125,254481.6875,229096.265625,229864.90625,380934.0,1.0,2
238007.5625,255401.953125,241125.796875,249972.984375,225190.625,254493.3125,229095.375,229879.921875,380935.0,1.0,2
238040.640625,255401.953125,241122.40625,249971.734375,225177.5625,254483.921875,229084.921875,229875.1875,380936.0,1.0,2
237976.4375,255362.34375,241103.0,249957.421875,225157.265625,254459.953125,229077.234375,229846.671875,380937.0,1.0,2
237914.03125,255349.296875,241096.125,249952.6875,225165.765625,254458.0,229085.453125,229843.796875,380938.0,1.0,2
237925.65625,255363.0625,241103.890625,249956.265625,225178.09375,254469.078125,229085.0,229858.46875,380939.0,1.0,2
237998.4375,255389.875,241115.34375,249962.96875,225176.765625,254476.59375,229077.765625,229868.390625,380940.0,1.0,2
238032.328125,255389.609375,241112.125,249959.65625,225161.03125,254469.171875,229069.71875,229856.859375,380941.0,1.0,2
237977.328125,255360.203125,241097.453125,249950.71875,225147.875,254450.03125,229069.09375,229836.5625,380942.0,1.0,2
237911.171875,255343.21875,241090.21875,249945.984375,225151.90625,254448.0625,229073.734375,229833.875,380943.0,1.0,2
237917.703125,255351.609375,241095.21875,249950.265625,225161.375,254457.546875,229076.15625,229848.90625,380944.0,1.0,2
237995.9375,255382.375,241110.421875,249962.96875,225168.4375,254474.0,229080.53125,229868.84375,380945.0,1.0,2
238033.390625,255389.171875,241111.40625,249963.953125,225160.578125,254472.203125,229079.109375,229866.0625,380946.0,1.0,2
237970.0,255354.5625,241093.796875,249952.234375,225144.03125,254451.015625,229074.453125,229842.109375,380947.0,1.0,2
237904.46875,255340.171875,241089.234375,249949.015625,225154.765625,254450.296875,229079.640625,229843.71875,380948.0,1.0,2
237919.484375,255363.0625,241101.3125,249957.609375,225176.3125,254467.734375,229089.5625,229868.125,380949.0,1.0,2
237990.03125,255384.421875,241111.234375,249963.59375,225173.984375,254477.578125,229083.125,229876.703125,380950.0,1.0,2
238018.015625,255371.828125,241101.65625,249957.515625,225153.25,254461.921875,229066.671875,229860.34375,380951.0,1.0,2
237957.578125,255337.484375,241087.796875,249948.65625,225138.578125,254442.34375,229063.734375,229834.859375,380952.0,1.0,2
237894.640625,255326.5,241085.75,249946.875,225148.5,254445.03125,229075.078125,229836.5625,380953.0,1.0,2
237909.296875,255345.265625,241095.40625,249952.59375,225165.765625,254460.9375,229082.40625,229857.9375,380954.0,1.0,2
237982.96875,255369.9375,241105.6875,249957.6875,225166.390625,254469.609375,229076.328125,229868.125,380955.0,1.0,2
238016.40625,255370.484375,241102.109375,249953.578125,225149.046875,254460.140625,229065.96875,229856.046875,380956.0,1.0,2
237957.9375,255336.5,241083.953125,249940.609375,225130.71875,254439.21875,229059.4375,229828.15625,380957.0,1.0,2
237893.5625,255324.34375,241079.9375,249938.015625,225143.328125,254440.921875,229067.9375,229830.21875,380958.0,1.0,2
237912.6875,255349.5625,241096.390625,249950.984375,225166.484375,254460.671875,229078.484375,229857.21875,380959.0,1.0,2
237996.828125,255387.5625,241114.09375,249966.0,225175.59375,254475.96875,229080.796875,229876.34375,380960.0,1.0,2
238034.203125,255393.546875,241118.921875,249969.859375,225168.171875,254478.375,229084.5625,229871.703125,380961.0,1.0,2
237980.640625,255368.78125,241111.234375,249964.578125,225160.671875,254470.328125,229087.515625,229856.046875,380962.0,1.0,2
237924.5,255366.90625,241112.390625,249966.09375,225179.359375,254480.4375,229102.078125,229866.421875,380963.0,1.0,2
237933.96875,255376.734375,241120.265625,249970.828125,225194.90625,254495.09375,229111.5625,229883.046875,380964.0,1.0,2
238004.6875,255394.796875,241128.484375,249975.125,225190.078125,254499.921875,229104.140625,229887.171875,380965.0,1.0,2
238032.328125,255384.421875,241116.6875,249966.453125,225162.8125,254480.703125,229084.203125,229863.828125,380966.0,1.0,2
237962.578125,255337.21875,241091.203125,249946.34375,225136.265625,254448.609375,229069.625,229829.859375,380967.0,1.0,2
237897.234375,255322.734375,241084.40625,249940.796875,225144.484375,254443.78125,229073.46875,229829.046875,380968.0,1.0,2
237911.171875,255344.28125,241093.609375,249946.15625,225162.359375,254456.203125,229077.9375,229848.90625,380969.0,1.0,2
237987.625,255374.6875,241104.171875,249952.328125,225163.4375,254463.890625,229073.03125,229858.734375,380970.0,1.0,2
238024.984375,255374.0625,241103.359375,249952.953125,225149.40625,254458.4375,229067.21875,229849.609375,380971.0,1.0,2
237971.53125,255341.953125,241088.34375,249944.28125,225135.71875,254438.328125,229061.40625,229828.609375,380972.0,1.0,2
237907.328125,255326.3125,241082.703125,249939.984375,225141.4375,254436.265625,229061.40625,229825.203125,380973.0,1.0,2
237923.515625,255351.34375,241097.90625,249954.46875,225163.34375,254457.09375,229076.0625,229849.96875,380974.0,1.0,2
238001.828125,255383.09375,241114.890625,249968.328125,225173.359375,254473.1875,229081.4375,229868.296875,380975.0,1.0,2
238032.140625,255373.078125,241107.65625,249964.21875,225153.609375,254459.953125,229065.515625,229851.765625,380976.0,1.0,2
237969.640625,255334.359375,241086.28125,249950.546875,225131.515625,254433.40625,229054.703125,229820.375,380977.0,1.0,2
237905.90625,255322.828125,241083.953125,249948.75,225143.234375,254435.109375,229064.53125,229824.578125,380978.0,1.0,2
237922.0,255351.53125,241096.828125,249958.046875,225166.03125,254453.34375,229074.71875,229850.421875,380979.0,1.0,2
237996.296875,255382.109375,241109.171875,249966.546875,225170.859375,254464.703125,229071.78125,229867.671875,380980.0,1.0,2
238030.796875,255382.375,241107.75,249965.203125,225156.375,254462.640625,229065.421875,229861.421875,380981.0,1.0,2
237969.640625,255345.09375,241088.96875,249949.921875,225134.203125,254439.84375,229058.8125,229831.828125,380982.0,1.0,2
237910.453125,255336.328125,241089.0625,249949.109375,225146.09375,254444.046875,229073.65625,229835.3125,380983.0,1.0,2
237922.796875,255356.09375,241101.75,249960.203125,225170.40625,254465.765625,229091.4375,229863.203125,380984.0,1.0,2
237993.421875,255380.140625,241108.28125,249964.046875,225169.96875,254471.5,229083.578125,229875.8125,380985.0,1.0,2
238020.15625,255371.015625,241097.375,249954.921875,225145.640625,254453.875,229059.890625,229857.75,380986.0,1.0,2
237965.53125,255341.78125,241083.328125,249946.15625,225132.0625,254436.171875,229054.421875,229832.984375,380987.0,1.0,2
237900.890625,255328.28125,241081.28125,249945.796875,225142.78125,254437.609375,229065.6875,229832.625,380988.0,1.0,2
237912.515625,255350.90625,241095.5,249955.71875,225163.796875,254455.046875,229076.78125,229853.734375,380989.0,1.0,2
237983.421875,255376.203125,241109.078125,249961.984375,225169.15625,254465.765625,229074.1875,229865.4375,380990.0,1.0,2
238022.671875,255379.25,241108.375,249962.078125,225157.0,254460.671875,229067.65625,229860.34375,380991.0,1.0,2
237970.1875,255351.078125,241093.796875,249952.78125,225143.234375,254443.59375,229064.078125,229840.140625,380992.0,1.0,2
237906.796875,255339.546875,241088.96875,249949.828125,225154.59375,254446.546875,229071.78125,229839.78125,380993.0,1.0,2
237916.984375,255359.21875,241099.421875,249957.25,225174.53125,254463.0,229081.875,229861.234375,380994.0,1.0,2
237986.28125,255380.9375,241106.765625,249961.171875,225175.15625,254471.3125,229075.796875,229870.53125,380995.0,1.0,2
238022.578125,255378.703125,241105.15625,249960.546875,225159.0625,254462.90625,229063.640625,229857.84375,380996.0,1.0,2
237969.921875,255352.0625,241090.9375,249950.546875,225144.75,254445.203125,229060.78125,229837.359375,380997.0,1.0,2
237906.96875,255344.1875,241086.28125,249948.125,225153.515625,254446.546875,229069.8125,229838.890625,380998.0,1.0,2
237916.984375,255364.21875,241098.09375,249957.421875,225174.796875,254461.75,229081.515625,229862.21875,380999.0,1.0,2
237993.25,255395.515625,241112.125,249966.09375,225181.40625,254472.203125,229082.5,229876.796875,381000.0,1.0,2
238031.609375,255397.84375,241112.921875,249966.71875,225169.609375,254471.671875,229080.09375,229870.8125,381001.0,1.0,2
237969.375,255359.390625,241089.59375,249949.5625,225144.578125,254441.453125,229066.59375,229837.09375,381002.0,1.0,2
237897.3125,255335.875,241076.625,249938.921875,225144.65625,254432.515625,229065.6875,229824.9375,381003.0,1.0,2
237908.046875,255352.6875,241089.328125,249946.703125,225169.078125,254450.21875,229079.28125,229849.53125,381004.0,1.0,2
237983.953125,255379.0625,241103.0,249955.90625,225173.265625,254461.921875,229080.171875,229866.953125,381005.0,1.0,2
238025.171875,255388.265625,241101.9375,249953.84375,225156.109375,254452.625,229070.796875,229855.6875,381006.0,1.0,2
237970.09375,255361.453125,241088.34375,249943.921875,225140.28125,254431.703125,229069.453125,229830.921875,381007.0,1.0,2
237905.625,255346.609375,241085.296875,249940.703125,225149.40625,254431.796875,229081.515625,229833.96875,381008.0,1.0,2
237913.859375,255359.21875,241095.140625,249944.640625,225168.171875,254443.0625,229088.40625,229855.0625,381009.0,1.0,2
237988.6875,255386.75,241104.53125,249948.125,225168.171875,254450.125,229080.53125,229867.5,381010.0,1.0,2
238024.09375,255383.359375,241101.390625,249942.5,225147.609375,254441.09375,229068.28125,229851.578125,381011.0,1.0,2
237967.5,255349.296875,241087.171875,249929.890625,225128.5625,254421.609375,229063.453125,229825.203125,381012.0,1.0,2
237903.671875,255341.953125,241085.5625,249928.90625,225143.5,254423.125,229076.328125,229831.640625,381013.0,1.0,2
237910.28125,255357.34375,241096.75,249934.890625,225160.84375,254436.984375,229084.65625,229850.6875,381014.0,1.0,2
237980.015625,255379.875,241106.9375,249939.984375,225158.875,254445.03125,229079.828125,229859.984375,381015.0,1.0,2
238022.484375,255385.953125,241107.46875,249939.71875,225148.5,254443.0625,229073.921875,229856.140625,381016.0,1.0,2
237968.65625,255356.53125,241089.859375,249930.78125,225135.546875,254424.015625,229071.421875,229835.9375,381017.0,1.0,2
237903.484375,255343.296875,241086.546875,249928.453125,225147.796875,254424.203125,229080.453125,229837.640625,381018.0,1.0,2
237916.53125,255372.71875,241098.53125,249935.078125,225170.328125,254441.359375,229090.640625,229861.0625,381019.0,1.0,2
237988.78125,255401.6875,241108.546875,249941.234375,225172.109375,254454.0625,229089.125,229878.21875,381020.0,1.0,2
238021.859375,255396.859375,241101.125,249933.828125,225147.4375,254441.359375,229073.5625,229862.9375,381021.0,1.0,2
237963.203125,255357.609375,241085.296875,249922.828125,225126.25,254417.21875,229066.40625,229831.203125,381022.0,1.0,2
237898.921875,255345.265625,241084.3125,249922.5625,225141.0,254421.78125,229078.125,229834.0625,381023.0,1.0,2
237910.734375,255371.640625,241094.328125,249929.078125,225160.671875,254437.609375,229085.625,229855.6875,381024.0,1.0,2
237985.109375,255403.03125,241105.234375,249938.296875,225166.203125,254448.15625,229083.21875,229872.59375,381025.0,1.0,2
238027.046875,255406.515625,241105.234375,249938.203125,225153.6875,254445.65625,229075.625,229863.390625,381026.0,1.0,2
237974.109375,255375.3125,241088.15625,249927.03125,225134.65625,254424.375,229068.5625,229834.0625,381027.0,1.0,2
237911.625,255369.671875,241086.46875,249929.34375,225150.296875,254428.3125,229083.75,229838.96875,381028.0,1.0,2
237918.328125,255389.609375,241095.671875,249936.859375,225170.859375,254444.046875,229092.421875,229861.328125,381029.0,1.0,2
237982.15625,255405.171875,241102.828125,249939.09375,225165.3125,254450.578125,229083.390625,229867.046875,381030.0,1.0,2
238021.40625,255402.9375,241100.765625,249937.75,225149.671875,254443.15625,229072.671875,229859.8125,381031.0,1.0,2
237973.671875,255374.859375,241088.34375,249932.5625,225141.171875,254427.5,229072.578125,229843.71875,381032.0,1.0,2
237912.6875,255363.6875,241085.390625,249930.875,225154.140625,254429.828125,229080.0,229844.15625,381033.0,1.0,2
237916.359375,255376.203125,241094.953125,249937.125,225171.125,254447.53125,229089.921875,229863.203125,381034.0,1.0,2
237992.359375,255407.578125,241108.546875,249948.3125,225177.65625,254464.4375,229091.359375,229881.890625,381035.0,1.0,2
238033.484375,255409.734375,241103.8125,249945.796875,225162.0,254455.484375,229079.28125,229874.65625,381036.0,1.0,2
237978.3125,255372.359375,241084.5,249931.40625,225142.0625,254432.875,229073.390625,229848.90625,381037.0,1.0,2
237909.75,255352.953125,241080.734375,249928.1875,225150.109375,254432.875,229084.734375,229850.15625,381038.0,1.0,2
237916.265625,255370.75,241089.859375,249935.515625,225164.78125,254447.0,229091.796875,229866.515625,381039.0,1.0,2
237990.296875,255400.796875,241104.796875,249946.421875,225169.15625,254461.484375,229091.171875,229883.40625,381040.0,1.0,2
238032.046875,255404.1875,241105.78125,249947.328125,225156.546875,254455.484375,229081.515625,229877.234375,381041.0,1.0,2
237978.046875,255370.296875,241088.25,249933.015625,225137.78125,254433.5,229073.65625,229846.03125,381042.0,1.0,2
237907.859375,255352.6875,241080.828125,249929.0,225146.1875,254432.0625,229082.6875,229841.5625,381043.0,1.0,2
237916.0,255374.140625,241092.28125,249940.171875,225170.40625,254448.421875,229096.359375,229867.59375,381044.0,1.0,2
237984.40625,255400.078125,241103.453125,249946.515625,225169.78125,254455.484375,229091.0,229878.84375,381045.0,1.0,2
238024.453125,255403.03125,241098.265625,249940.890625,225150.109375,254448.0625,229075.625,229863.828125,381046.0,1.0,2
237972.328125,255370.84375,241082.625,249931.578125,225132.859375,254425.453125,229068.375,229838.4375,381047.0,1.0,2
237907.515625,255361.1875,241080.109375,249930.609375,225143.234375,254423.03125,229078.84375,229840.859375,381048.0,1.0,2
237915.375,255387.640625,241091.109375,249938.46875,225163.171875,254440.296875,229087.15625,229865.0,381049.0,1.0,2
237989.046875,255416.796875,241107.921875,249949.828125,225170.234375,254456.921875,229089.203125,229880.015625,381050.0,1.0,2
238034.28125,255419.46875,241107.828125,249950.1875,225159.953125,254454.234375,229079.28125,229875.359375,381051.0,1.0,2
237977.15625,255379.328125,241089.140625,249938.203125,225139.296875,254429.296875,229068.015625,229844.875,381052.0,1.0,2
237910.1875,255359.484375,241085.296875,249936.234375,225146.625,254425.890625,229077.3125,229843.53125,381053.0,1.0,2
237918.328125,255380.765625,241095.765625,249943.03125,225165.859375,254440.015625,229088.046875,229864.28125,381054.0,1.0,2
237995.9375,255416.53125,241112.21875,249954.734375,225175.0625,254454.0625,229089.203125,229887.34375,381055.0,1.0,2
238041.890625,255419.921875,241113.828125,249956.53125,225164.25,254451.46875,229083.578125,229884.21875,381056.0,1.0,2
237988.25,255383.625,241098.984375,249945.171875,225145.375,254431.53125,229072.3125,229853.453125,381057.0,1.0,2
237918.59375,255367.078125,241090.3125,249938.375,225152.078125,254425.890625,229075.796875,229847.5625,381058.0,1.0,2
237925.484375,255389.96875,241098.984375,249944.90625,225172.640625,254442.078125,229086.890625,229869.734375,381059.0,1.0,2
237995.75,255419.125,241111.671875,249955.09375,225177.65625,254456.296875,229087.15625,229887.875,381060.0,1.0,2
238037.859375,255417.78125,241110.421875,249954.390625,225161.65625,254451.203125,229075.890625,229874.828125,381061.0,1.0,2
237980.015625,255374.59375,241090.84375,249937.125,225136.796875,254425.8125,229064.53125,229839.6875,381062.0,1.0,2
237910.90625,255355.375,241085.5625,249932.21875,225144.84375,254424.5625,229070.078125,229838.0,381063.0,1.0,2
237913.40625,255374.140625,241095.140625,249939.0,225165.671875,254438.5,229079.828125,229860.25,381064.0,1.0,2
237987.171875,255408.65625,241108.015625,249950.71875,225174.796875,254449.671875,229081.609375,229881.796875,381065.0,1.0,2
238033.390625,255419.828125,241106.046875,249948.75,225162.359375,254446.28125,229071.953125,229875.546875,381066.0,1.0,2
237988.0625,255399.359375,241094.234375,249940.265625,225152.0,254430.015625,229070.34375,229855.609375,381067.0,1.0,2
237918.78125,255380.859375,241089.0625,249935.96875,225162.640625,254430.640625,229082.140625,229854.890625,381068.0,1.0,2
237922.625,255400.515625,241099.609375,249943.296875,225183.109375,254446.109375,229090.28125,229876.4375,381069.0,1.0,2
237993.15625,255426.625,241110.421875,249950.265625,225184.984375,254455.84375,229086.96875,229890.75,381070.0,1.0,2
238033.484375,255423.953125,241108.640625,249949.375,225166.203125,254448.34375,229076.421875,229879.75,381071.0,1.0,2
237979.75,255385.328125,241091.375,249937.84375,225144.484375,254427.78125,229069.359375,229849.796875,381072.0,1.0,2
237913.40625,255372.171875,241084.671875,249934.625,225152.078125,254429.203125,229077.5,229846.9375,381073.0,1.0,2
237909.203125,255379.6875,241089.859375,249936.234375,225162.984375,254439.84375,229078.84375,229856.765625,381074.0,1.0,2
237975.8125,255396.3125,241104.4375,249946.0625,225165.046875,254455.125,229077.765625,229870.71875,381075.0,1.0,2
238021.140625,255397.125,241103.71875,249945.53125,225148.953125,254450.65625,229067.125,229860.96875,381076.0,1.0,2
237980.28125,255377.09375,241090.3125,249937.578125,225139.828125,254435.28125,229065.421875,229842.015625,381077.0,1.0,2
237915.46875,255364.9375,241086.015625,249934.0,225152.171875,254434.65625,229073.296875,229841.5625,381078.0,1.0,2
237921.90625,255382.1875,241098.796875,249943.921875,225175.59375,254454.5,229088.84375,229866.0625,381079.0,1.0,2
238005.40625,255432.0,241115.796875,249957.78125,225197.234375,254474.71875,229097.4375,229905.3125,381080.0,1.0,2
238058.609375,255450.859375,241117.84375,249959.65625,225194.109375,254472.921875,229089.828125,229915.234375,381081.0,1.0,2
238014.53125,255428.6875,241106.140625,249952.328125,225184.09375,254457.8125,229089.65625,229896.015625,381082.0,1.0,2
237941.03125,255407.046875,241098.53125,249943.828125,225191.6875,254452.890625,229095.375,229885.921875,381083.0,1.0,2
237936.03125,255419.125,241105.234375,249946.515625,225204.03125,254463.0,229097.53125,229896.640625,381084.0,1.0,2
238002.375,255441.65625,241115.15625,249952.78125,225203.40625,254471.765625,229092.703125,229908.359375,381085.0,1.0,2
238044.921875,255439.859375,241111.40625,249950.8125,225186.953125,254459.6875,229076.953125,229896.375,381086.0,1.0,2
237998.609375,255410.171875,241096.921875,249941.59375,225170.5,254439.671875,229072.84375,229871.515625,381087.0,1.0,2
237930.484375,255392.03125,241092.71875,249937.75,225177.65625,254440.109375,229083.75,229867.046875,381088.0,1.0,2
237926.375,255401.859375,241103.625,249944.109375,225195.265625,254454.15625,229092.421875,229882.609375,381089.0,1.0,2
237999.15625,255434.3125,241118.03125,249953.40625,225204.46875,254467.5625,229093.953125,229900.75,381090.0,1.0,2
238050.203125,255448.984375,241117.671875,249952.953125,225193.65625,254464.78125,229088.046875,229897.1875,381091.0,1.0,2
237994.765625,255410.796875,241096.75,249938.828125,225166.921875,254438.5,229074.1875,229861.421875,381092.0,1.0,2
237927.453125,255395.6875,241090.3125,249934.796875,225172.375,254435.46875,229080.265625,229854.984375,381093.0,1.0,2
237928.15625,255407.859375,241101.21875,249943.828125,225194.109375,254449.40625,229090.90625,229878.40625,381094.0,1.0,2
237998.171875,255432.625,241115.34375,249955.90625,225198.578125,254463.53125,229091.359375,229897.359375,381095.0,1.0,2
238046.984375,255440.125,241115.34375,249956.34375,225184.984375,254459.421875,229079.546875,229890.921875,381096.0,1.0,2
237998.96875,255406.78125,241100.40625,249946.875,225167.546875,254438.5,229073.921875,229867.9375,381097.0,1.0,2
237928.515625,255380.40625,241094.234375,249941.515625,225171.3125,254435.46875,229080.625,229860.25,381098.0,1.0,2
237932.71875,255398.734375,241105.6875,249949.375,225191.25,254451.015625,229091.0,229879.5625,381099.0,1.0,2
238002.546875,255426.453125,241120.703125,249959.84375,225197.234375,254466.484375,229094.03125,229899.421875,381100.0,1.0,2
238050.296875,255429.578125,241122.21875,249959.921875,225184.09375,254463.453125,229086.34375,229894.765625,381101.0,1.0,2
238000.046875,255393.71875,241103.890625,249946.875,225163.890625,254436.53125,229070.4375,229865.796875,381102.0,1.0,2
237931.828125,255375.75,241098.265625,249945.09375,225171.578125,254432.421875,229075.34375,229860.796875,381103.0,1.0,2
237927.890625,255391.40625,241104.171875,249949.921875,225187.21875,254445.75,229084.203125,229874.65625,381104.0,1.0,2
237992.71875,255415.1875,241116.140625,249955.1875,225188.828125,254456.390625,229080.53125,229886.890625,381105.0,1.0,2
238040.09375,255418.578125,241116.234375,249955.453125,225174.171875,254453.171875,229070.609375,229880.28125,381106.0,1.0,2
237991.90625,255383.625,241097.640625,249944.1875,225156.375,254432.0625,229068.015625,229854.890625,381107.0,1.0,2
237927.09375,255371.203125,241092.984375,249942.9375,225168.4375,254435.015625,229085.09375,229855.15625,381108.0,1.0,2
237910.734375,255362.96875,241096.5625,249942.046875,225169.78125,254443.15625,229080.984375,229852.75,381109.0,1.0,2
237963.5625,255366.375,241101.21875,249943.296875,225152.078125,254441.359375,229060.328125,229842.46875,381110.0,1.0,2
238008.8125,255367.265625,241098.53125,249939.90625,225133.046875,254433.40625,229046.828125,229832.71875,381111.0,1.0,2
237970.453125,255344.375,241089.859375,249933.46875,225122.21875,254421.34375,229047.8125,229816.890625,381112.0,1.0,2
237903.21875,255330.6875,241083.6875,249929.96875,225131.15625,254421.0625,229058.359375,229816.171875,381113.0,1.0,2
237904.5625,255353.140625,241091.65625,249936.40625,225154.3125,254436.796875,229068.640625,229837.90625,381114.0,1.0,2
237964.375,255370.125,241098.984375,249941.15625,225152.265625,254445.203125,229062.921875,229844.96875,381115.0,1.0,2
238005.140625,255364.84375,241095.21875,249936.859375,225131.15625,254438.140625,229051.65625,229830.84375,381116.0,1.0,2
237963.75,255338.203125,241083.0625,249929.96875,225118.640625,254423.03125,229052.015625,229812.6875,381117.0,1.0,2
237902.0625,255328.640625,241082.34375,249931.140625,225132.140625,254425.0,229065.78125,229819.21875,381118.0,1.0,2
237900.71875,255343.390625,241091.734375,249937.9375,225150.734375,254440.203125,229074.8125,229839.609375,381119.0,1.0,2
237966.078125,255366.640625,241102.28125,249946.78125,225153.6875,254452.1875,229071.6875,229853.1875,381120.0,1.0,2
238014.265625,255372.171875,241102.734375,249946.703125,225140.8125,254448.875,229063.28125,229848.0,381121.0,1.0,2
237970.71875,255346.609375,241086.734375,249935.078125,225124.1875,254426.875,229059.34375,229827.890625,381122.0,1.0,2
237899.46875,255328.546875,241079.765625,249927.734375,225132.6875,254425.1875,229064.984375,229824.84375,381123.0,1.0,2
237899.28125,255347.765625,241088.78125,249934.890625,225156.734375,254441.0,229075.703125,229845.765625,381124.0,1.0,2
237971.078125,255379.25,241105.5,249950.546875,225169.078125,254458.890625,229081.34375,229869.375,381125.0,1.0,2
238014.890625,255376.5625,241101.84375,249947.328125,225148.234375,254450.578125,229066.140625,229855.0625,381126.0,1.0,2
237971.25,255348.046875,241085.5625,249933.46875,225127.140625,254427.0625,229055.328125,229824.578125,381127.0,1.0,2
237903.03125,255334.625,241079.484375,249929.625,225135.1875,254423.125,229060.421875,229821.453125,381128.0,1.0,2
237901.15625,255352.0625,241089.0625,249938.015625,225158.34375,254439.21875,229072.84375,229843.53125,381129.0,1.0,2
237970.0,255378.796875,241099.34375,249942.84375,225164.328125,254451.015625,229072.046875,229859.0,381130.0,1.0,2
238019.53125,255385.6875,241098.265625,249941.875,225148.953125,254444.3125,229060.953125,229849.96875,381131.0,1.0,2
237975.546875,255356.359375,241084.5,249932.21875,225130.453125,254424.28125,229053.09375,229823.421875,381132.0,1.0,2
237914.9375,255353.3125,241080.65625,249930.515625,225149.84375,254425.53125,229064.359375,229831.640625,381133.0,1.0,2
237915.90625,255375.046875,241089.6875,249938.375,225176.40625,254442.34375,229076.875,229859.09375,381134.0,1.0,2
237984.3125,255403.03125,241103.8125,249948.75,225183.828125,254453.703125,229076.15625,229875.09375,381135.0,1.0,2
238042.609375,255419.921875,241109.078125,249954.203125,225177.921875,254456.109375,229070.703125,229873.671875,381136.0,1.0,2
237998.609375,255388.0,241093.890625,249943.203125,225161.109375,254435.375,229062.828125,229850.515625,381137.0,1.0,2
237924.40625,255364.484375,241084.046875,249937.9375,225164.15625,254428.9375,229067.484375,229844.609375,381138.0,1.0,2
237921.8125,255381.125,241093.34375,249946.875,225183.203125,254445.390625,229082.6875,229866.25,381139.0,1.0,2
237981.625,255398.015625,241099.78125,249949.015625,225178.90625,254451.734375,229073.03125,229871.515625,381140.0,1.0,2
238031.78125,255403.46875,241100.140625,249945.796875,225165.40625,254448.875,229062.125,229863.46875,381141.0,1.0,2
237991.8125,255371.46875,241090.671875,249939.453125,225151.453125,254432.515625,229063.1875,229845.140625,381142.0,1.0,2
237919.671875,255350.90625,241082.625,249933.90625,225156.203125,254428.21875,229069.359375,229840.671875,381143.0,1.0,2
237915.015625,255369.5,241090.578125,249938.828125,225173.546875,254442.53125,229080.09375,229857.21875,381144.0,1.0,2
237987.703125,255405.53125,241108.640625,249952.328125,225185.96875,254463.359375,229088.046875,229880.1875,381145.0,1.0,2
238039.65625,255412.59375,241110.78125,249954.65625,225175.6875,254461.921875,229080.453125,229878.578125,381146.0,1.0,2
237991.375,255375.9375,241093.34375,249941.515625,225153.328125,254439.84375,229068.90625,229846.84375,381147.0,1.0,2
237915.203125,255352.328125,241082.890625,249934.09375,225155.5625,254433.765625,229073.734375,229835.578125,381148.0,1.0,2
237908.40625,255367.34375,241088.703125,249939.09375,225175.6875,254447.4375,229081.609375,229856.59375,381149.0,1.0,2
237973.140625,255391.9375,241103.1875,249949.734375,225182.21875,254460.234375,229082.140625,229873.671875,381150.0,1.0,2
238022.3125,255394.625,241103.0,249948.21875,225166.03125,254456.109375,229069.984375,229863.65625,381151.0,1.0,2
237984.75,255371.734375,241088.78125,249937.75,225150.734375,254437.34375,229064.359375,229843.265625,381152.0,1.0,2
237913.859375,255354.65625,241081.015625,249933.28125,225157.265625,254432.6875,229071.859375,229837.359375,381153.0,1.0,2
237906.703125,255367.625,241087.984375,249938.5625,225174.53125,254444.9375,229079.734375,229851.21875,381154.0,1.0,2
237972.234375,255390.0625,241101.3125,249946.609375,225180.0625,254456.03125,229076.78125,229863.921875,381155.0,1.0,2
238022.3125,255391.671875,241100.859375,249943.390625,225162.90625,254449.859375,229061.21875,229849.703125,381156.0,1.0,2
237977.15625,255358.328125,241082.625,249930.15625,225138.765625,254426.96875,229051.203125,229819.9375,381157.0,1.0,2
237909.390625,255342.234375,241078.234375,249931.3125,225147.078125,254427.859375,229064.265625,229819.390625,381158.0,1.0,2
237902.0625,255350.8125,241085.921875,249936.765625,225164.328125,254441.1875,229072.046875,229834.78125,381159.0,1.0,2
237972.859375,255383.4375,241099.703125,249947.140625,225173.71875,254456.203125,229076.15625,229855.609375,381160.0,1.0,2
238026.953125,255397.21875,241100.953125,249949.640625,225162.8125,254456.390625,229070.25,229854.265625,381161.0,1.0,2
237983.765625,255364.484375,241084.671875,249938.109375,225142.609375,254431.96875,229056.03125,229831.640625,381162.0,1.0,2
237916.71875,255348.578125,241078.59375,249934.0,225149.9375,254429.296875,229065.34375,229828.34375,381163.0,1.0,2
237911.4375,255365.296875,241086.015625,249939.0,225169.25,254446.109375,229077.3125,229845.328125,381164.0,1.0,2
237975.8125,255391.578125,241098.53125,249949.203125,225177.828125,254460.671875,229075.265625,229865.0,381165.0,1.0,2
238032.046875,255401.328125,241102.015625,249951.4375,225166.203125,254458.796875,229065.875,229861.78125,381166.0,1.0,2
237986.359375,255366.71875,241081.71875,249934.890625,225141.09375,254431.078125,229050.9375,229828.609375,381167.0,1.0,2
237911.359375,255341.953125,241073.234375,249928.90625,225144.03125,254426.4375,229057.921875,229819.578125,381168.0,1.0,2
237907.6875,255360.015625,241085.5625,249937.84375,225167.734375,254447.265625,229074.90625,229842.734375,381169.0,1.0,2
237971.4375,255389.25,241098.265625,249945.796875,225172.734375,254459.25,229075.265625,229858.90625,381170.0,1.0,2
238023.296875,255396.765625,241099.15625,249946.421875,225159.328125,254456.5625,229064.796875,229852.5625,381171.0,1.0,2
237984.125,255365.390625,241085.5625,249938.015625,225141.625,254436.265625,229056.75,229828.515625,381172.0,1.0,2
237915.90625,255347.5,241077.796875,249933.734375,225146.71875,254430.1875,229063.109375,229822.078125,381173.0,1.0,2
237911.890625,255364.765625,241089.140625,249942.765625,225170.671875,254448.609375,229079.546875,229847.734375,381174.0,1.0,2
237978.140625,255392.75,241100.953125,249950.1875,225177.390625,254460.046875,229078.03125,229865.796875,381175.0,1.0,2
238033.21875,255404.8125,241105.6875,249953.765625,225169.515625,254460.40625,229071.328125,229867.765625,381176.0,1.0,2
237995.75,255377.453125,241092.0,249943.03125,225153.0625,254440.015625,229064.0,229845.953125,381177.0,1.0,2
237922.890625,255354.484375,241081.90625,249935.25,225155.21875,254431.265625,229067.21875,229833.078125,381178.0,1.0,2
237913.59375,255366.28125,241088.4375,249940.609375,225172.28125,254445.125,229077.140625,229849.96875,381179.0,1.0,2
237975.8125,255388.1875,241098.171875,249946.875,225175.234375,254456.65625,229075.703125,229865.4375,381180.0,1.0,2
238029.8125,255394.078125,241098.796875,249945.890625,225161.5625,254453.96875,229066.40625,229860.078125,381181.0,1.0,2
237992.265625,255369.5,241085.75,249936.234375,225144.9375,254434.5625,229060.78125,229838.34375,381182.0,1.0,2
237916.359375,255345.796875,241074.65625,249928.09375,225147.078125,254427.140625,229063.90625,229830.125,381183.0,1.0,2
237901.515625,255350.8125,241073.953125,249929.078125,225162.453125,254435.640625,229068.828125,229841.75,381184.0,1.0,2
237961.875,255368.0625,241085.21875,249937.046875,225164.515625,254445.921875,229065.96875,229854.71875,381185.0,1.0,2
238024.1875,255388.1875,241095.84375,249945.71875,225160.21875,254452.984375,229066.671875,229862.125,381186.0,1.0,2
237987.796875,255367.0,241079.9375,249934.71875,225144.296875,254431.625,229059.703125,229841.21875,381187.0,1.0,2
237911.71875,255341.6875,241069.296875,249926.75,225145.015625,254425.359375,229064.71875,229830.84375,381188.0,1.0,2
237899.28125,255348.84375,241075.734375,249930.609375,225161.03125,254436.625,229072.671875,229845.59375,381189.0,1.0,2
237966.515625,255379.0625,241089.0625,249938.921875,225171.65625,254451.375,229072.21875,229862.9375,381190.0,1.0,2
238023.015625,255389.609375,241090.84375,249938.734375,225159.765625,254453.078125,229060.0625,229856.234375,381191.0,1.0,2
237983.59375,255358.40625,241074.65625,249928.015625,225138.9375,254431.171875,229051.75,229830.390625,381192.0,1.0,2
237909.921875,255334.8125,241066.171875,249923.265625,225142.6875,254425.8125,229065.421875,229824.578125,381193.0,1.0,2
237905.71875,255352.78125,241078.5,249933.109375,225164.421875,254441.359375,229075.796875,229847.828125,381194.0,1.0,2
237964.640625,255371.28125,241086.28125,249938.109375,225163.96875,254449.046875,229065.96875,229857.390625,381195.0,1.0,2
238017.75,255374.234375,241089.6875,249937.75,225150.390625,254448.421875,229058.71875,229849.703125,381196.0,1.0,2
237983.328125,255349.921875,241077.078125,249928.09375,225134.828125,254428.9375,229053.0,229827.0,381197.0,1.0,2
237915.46875,255335.34375,241074.65625,249927.921875,225144.03125,254430.1875,229065.0625,229826.375,381198.0,1.0,2
237904.109375,255348.578125,241082.0,249932.921875,225161.734375,254443.15625,229076.609375,229846.125,381199.0,1.0,2
237965.4375,255371.109375,241095.21875,249942.046875,225168.171875,254453.96875,229077.59375,229863.390625,381200.0,1.0,2
238021.6875,255378.890625,241098.09375,249943.75,225156.546875,254453.96875,229069.890625,229861.234375,381201.0,1.0,2
237990.125,255356.890625,241084.40625,249935.34375,225140.546875,254436.0,229063.640625,229838.625,381202.0,1.0,2
237922.265625,255343.03125,241079.40625,249933.28125,225150.390625,254434.484375,229073.46875,229837.71875,381203.0,1.0,2
237909.125,255354.390625,241086.640625,249935.96875,225167.015625,254446.90625,229079.734375,229852.75,381204.0,1.0,2
237971.703125,255374.140625,241098.359375,249943.5625,225171.578125,254459.328125,229079.015625,229864.640625,381205.0,1.0,2
238028.828125,255386.390625,241099.703125,249945.625,225159.328125,254456.46875,229070.796875,229859.359375,381206.0,1.0,2
237988.78125,255357.421875,241081.71875,249934.890625,225135.0,254435.1875,229060.0625,229830.296875,381207.0,1.0,2
237914.125,255332.296875,241072.34375,249928.640625,225134.828125,254430.09375,229064.984375,229821.625,381208.0,1.0,2
237905.09375,255346.875,241083.78125,249936.40625,225158.875,254446.453125,229076.421875,229844.703125,381209.0,1.0,2
237971.34375,255375.046875,241098.09375,249947.140625,225171.125,254461.75,229079.1875,229863.46875,381210.0,1.0,2
238022.75,255380.859375,241099.0625,249946.421875,225154.3125,254455.21875,229065.6875,229851.765625,381211.0,1.0,2
237991.015625,255358.046875,241084.9375,249937.671875,225138.21875,254436.0,229059.4375,229827.890625,381212.0,1.0,2
237923.609375,255344.828125,241080.828125,249936.953125,225149.765625,254435.015625,229072.046875,229827.625,381213.0,1.0,2
237914.75,255361.71875,241088.515625,249941.953125,225172.921875,254450.125,229081.96875,229845.859375,381214.0,1.0,2
237973.40625,255383.625,241098.171875,249948.3125,225177.5625,254461.03125,229079.640625,229860.25,381215.0,1.0,2
238026.875,255388.71875,241098.890625,249947.59375,225159.6875,254456.921875,229069.09375,229853.109375,381216.0,1.0,2
237986.546875,255356.171875,241081.8125,249934.796875,225134.015625,254431.53125,229055.234375,229821.09375,381217.0,1.0,2
237918.0625,255337.9375,241076.8125,249932.84375,225141.359375,254428.84375,229064.71875,229816.71875,381218.0,1.0,2
237907.859375,255352.328125,241084.859375,249939.453125,225162.453125,254441.8125,229071.15625,229834.859375,381219.0,1.0,2
237973.765625,255382.109375,241100.765625,249951.4375,225174.078125,254461.484375,229078.03125,229858.015625,381220.0,1.0,2
238032.765625,255396.046875,241104.96875,249954.03125,225164.875,254462.734375,229071.0625,229857.125,381221.0,1.0,2
237993.34375,255362.96875,241087.796875,249941.328125,225143.140625,254439.125,229060.0625,229826.09375,381222.0,1.0,2
237917.796875,255337.9375,241080.03125,249935.4375,225145.203125,254431.265625,229066.671875,229816.09375,381223.0,1.0,2
237906.25,255352.515625,241086.015625,249939.8125,225164.953125,254443.421875,229078.21875,229836.203125,381224.0,1.0,2
237972.421875,255379.953125,241101.9375,249950.890625,225178.09375,254461.65625,229083.125,229860.515625,381225.0,1.0,2
238026.328125,255384.703125,241100.328125,249947.40625,225161.296875,254456.03125,229066.328125,229852.75,381226.0,1.0,2
237994.59375,255362.703125,241084.671875,249936.234375,225142.78125,254435.734375,229058.546875,229826.90625,381227.0,1.0,2
237918.6875,255339.359375,241073.671875,249929.078125,225148.78125,254429.296875,229064.4375,229819.21875,381228.0,1.0,2
237907.15625,255354.296875,241082.4375,249935.4375,225171.03125,254449.234375,229080.71875,229838.890625,381229.0,1.0,2
237967.328125,255376.828125,241095.578125,249943.125,225174.4375,254462.375,229080.0,229850.953125,381230.0,1.0,2
238025.796875,255388.265625,241098.796875,249945.359375,225163.34375,254462.1875,229071.15625,229847.5625,381231.0,1.0,2
237992.453125,255362.796875,241084.59375,249934.625,225144.125,254438.953125,229061.21875,229822.96875,381232.0,1.0,2
237912.0625,255332.484375,241071.71875,249924.796875,225141.796875,254427.5,229063.1875,229808.75,381233.0,1.0,2
237894.1875,255338.734375,241079.578125,249929.96875,225156.109375,254439.390625,229072.046875,229821.90625,381234.0,1.0,2
237954.09375,255363.15625,241091.734375,249937.84375,225159.765625,254450.390625,229069.890625,229835.9375,381235.0,1.0,2
238016.765625,255380.671875,241098.09375,249943.5625,225152.625,254452.09375,229065.515625,229839.421875,381236.0,1.0,2
237988.328125,255358.046875,241084.3125,249935.703125,225135.71875,254433.140625,229056.671875,229816.796875,381237.0,1.0,2
237914.9375,255334.625,241074.03125,249929.53125,225140.1875,254425.984375,229059.25,229810.8125,381238.0,1.0,2
237900.625,255343.84375,241079.9375,249934.890625,225159.765625,254436.53125,229067.9375,229827.265625,381239.0,1.0,2
237973.140625,255381.03125,241096.75,249947.765625,225172.28125,254453.078125,229072.125,229853.375,381240.0,1.0,2
238036.875,255397.125,241103.546875,249952.6875,225167.546875,254457.8125,229067.65625,229856.953125,381241.0,1.0,2
238001.203125,255367.34375,241087.09375,249940.703125,225144.65625,254438.0625,229060.0625,229826.640625,381242.0,1.0,2
237920.734375,255335.703125,241078.234375,249933.828125,225145.5625,254427.140625,229065.6875,229816.265625,381243.0,1.0,2
237903.671875,255342.234375,241082.984375,249936.234375,225161.828125,254434.203125,229068.375,229831.109375,381244.0,1.0,2
237967.765625,255372.0,241093.796875,249944.1875,225166.125,254446.734375,229066.765625,229846.125,381245.0,1.0,2
238027.671875,255385.5,241097.8125,249947.765625,225157.890625,254451.109375,229060.59375,229845.6875,381246.0,1.0,2
237992.53125,255354.65625,241084.765625,249937.9375,225138.765625,254434.921875,229056.671875,229821.453125,381247.0,1.0,2
237922.703125,255335.875,241078.15625,249932.484375,225144.125,254429.734375,229065.515625,229815.46875,381248.0,1.0,2
237906.53125,255350.1875,241082.265625,249934.890625,225163.265625,254441.625,229074.453125,229835.046875,381249.0,1.0,2
237963.75,255373.25,241092.09375,249942.578125,225172.109375,254456.46875,229078.296875,229856.234375,381250.0,1.0,2
238021.40625,255382.1875,241095.046875,249942.9375,225159.0625,254453.875,229068.015625,229851.84375,381251.0,1.0,2
237992.09375,255359.21875,241079.578125,249930.78125,225137.515625,254430.984375,229054.78125,229823.859375,381252.0,1.0,2
237918.59375,255336.0625,241071.078125,249925.6875,225142.34375,254424.015625,229063.546875,229816.0,381253.0,1.0,2
237898.84375,255339.71875,241078.6875,249932.65625,225156.640625,254437.078125,229072.3125,229827.0,381254.0,1.0,2
237966.609375,255372.265625,241094.78125,249945.53125,225168.359375,254456.390625,229077.5,229848.71875,381255.0,1.0,2
238030.265625,255391.140625,241100.859375,249948.484375,225162.640625,254461.75,229072.21875,229855.0625,381256.0,1.0,2
237998.171875,255364.671875,241087.09375,249938.296875,225144.9375,254441.984375,229063.109375,229832.984375,381257.0,1.0,2
237918.328125,255334.8125,241072.78125,249928.1875,225143.953125,254430.1875,229063.015625,229816.0,381258.0,1.0,2
237898.5625,255344.1875,241079.125,249932.484375,225163.171875,254443.78125,229075.4375,229835.75,381259.0,1.0,2
237950.6875,255361.1875,241085.5625,249937.578125,225162.09375,254449.765625,229067.03125,229844.421875,381260.0,1.0,2
238010.6875,255373.078125,241090.3125,249943.390625,225150.65625,254452.359375,229060.953125,229842.375,381261.0,1.0,2
237980.203125,255345.984375,241074.21875,249931.859375,225134.46875,254432.515625,229055.140625,229820.109375,381262.0,1.0,2
237907.0625,255322.203125,241064.015625,249924.078125,225136.703125,254423.65625,229058.71875,229808.40625,381263.0,1.0,2
237894.71875,255338.5625,241072.875,249929.96875,225158.25,254436.984375,229067.484375,229827.796875,381264.0,1.0,2
237957.578125,255367.078125,241086.640625,249940.265625,225168.890625,254452.984375,229073.03125,229849.078125,381265.0,1.0,2
238017.65625,255377.71875,241091.5625,249944.109375,225160.9375,254454.859375,229065.609375,229850.6875,381266.0,1.0,2
237989.671875,255352.0625,241079.84375,249936.59375,225144.484375,254438.0625,229059.796875,229830.921875,381267.0,1.0,2
237923.421875,255340.0,241071.4375,249932.75,225148.328125,254433.578125,229066.40625,229821.8125,381268.0,1.0,2
237898.03125,255342.859375,241073.59375,249933.734375,225161.921875,254442.4375,229073.828125,229831.375,381269.0,1.0,2
237954.09375,255360.5625,241084.859375,249940.890625,225166.203125,254452.1875,229071.234375,229844.703125,381270.0,1.0,2
238016.9375,255374.59375,241090.84375,249943.484375,225157.265625,254455.578125,229066.59375,229848.71875,381271.0,1.0,2
237987.265625,255351.34375,241076.1875,249931.234375,225137.421875,254434.03125,229055.6875,229823.6875,381272.0,1.0,2
237907.59375,255318.09375,241065.09375,249923.625,225133.3125,254423.03125,229055.40625,229807.6875,381273.0,1.0,2
237893.03125,255328.8125,241073.328125,249929.078125,225154.859375,254437.78125,229066.140625,229825.828125,381274.0,1.0,2
237961.59375,255366.28125,241091.296875,249941.78125,225169.421875,254456.734375,229072.125,229849.796875,381275.0,1.0,2
238018.734375,255374.59375,241094.0625,249943.75,225155.390625,254455.125,229062.828125,229848.0,381276.0,1.0,2
237986.546875,255345.71875,241078.421875,249933.734375,225132.6875,254433.40625,229050.9375,229822.53125,381277.0,1.0,2
237911.890625,255321.671875,241068.40625,249926.9375,225131.515625,254426.875,229053.625,229812.421875,381278.0,1.0,2
237896.953125,255335.609375,241075.109375,249930.875,225151.640625,254441.625,229063.1875,229830.921875,381279.0,1.0,2
237960.34375,255367.34375,241092.359375,249942.84375,225166.828125,254461.5625,229071.15625,229855.421875,381280.0,1.0,2
238020.25,255376.109375,241098.53125,249944.28125,225155.65625,254461.84375,229063.28125,229853.1875,381281.0,1.0,2
237992.09375,255349.296875,241083.0625,249932.390625,225135.90625,254437.421875,229049.15625,229828.0625,381282.0,1.0,2
237919.21875,255327.828125,241072.515625,249924.875,225136.703125,254428.84375,229052.015625,229815.546875,381283.0,1.0,2
237898.921875,255335.4375,241078.59375,249928.71875,225155.65625,254440.375,229062.828125,229830.84375,381284.0,1.0,2
237957.390625,255359.21875,241093.34375,249939.984375,225166.75,254454.421875,229066.859375,229851.765625,381285.0,1.0,2
238017.03125,255369.5,241097.1875,249944.90625,225156.28125,254455.125,229060.15625,229853.1875,381286.0,1.0,2
237990.484375,255347.234375,241082.796875,249934.359375,225136.796875,254435.8125,229051.125,229827.4375,381287.0,1.0,2
237914.125,255322.109375,241070.1875,249925.140625,225135.359375,254425.71875,229053.453125,229814.484375,381288.0,1.0,2
237895.265625,255334.09375,241073.328125,249924.96875,225150.296875,254434.84375,229058.453125,229825.828125,381289.0,1.0,2
237956.59375,255362.609375,241090.390625,249938.828125,225164.953125,254452.71875,229066.40625,229850.59375,381290.0,1.0,2
238018.109375,255375.3125,241095.140625,249941.59375,225154.9375,254451.734375,229054.78125,229852.03125,381291.0,1.0,2
237991.1875,255350.90625,241080.203125,249930.0625,225133.390625,254430.1875,229041.734375,229825.46875,381292.0,1.0,2
237918.6875,255326.9375,241071.359375,249926.3125,225139.125,254424.203125,229051.125,229815.46875,381293.0,1.0,2
237905.984375,255344.015625,241084.3125,249937.578125,225165.9375,254443.234375,229073.03125,229839.875,381294.0,1.0,2
237973.578125,255381.75,241105.0625,249953.125,225182.484375,254463.0,229081.34375,229865.0,381295.0,1.0,2
238039.65625,255395.6875,241114.265625,249960.90625,225177.921875,254471.40625,229077.5,229867.9375,381296.0,1.0,2
238025.171875,255388.265625,241108.453125,249959.21875,225170.859375,254465.40625,229081.96875,229857.578125,381297.0,1.0,2
237949.0,255365.65625,241098.265625,249953.21875,225173.546875,254461.125,229090.109375,229848.453125,381298.0,1.0,2
237922.625,255366.8125,241100.234375,249955.546875,225185.34375,254470.59375,229100.109375,229857.84375,381299.0,1.0,2
237979.125,255387.734375,241110.0625,249961.625,225191.6875,254482.484375,229098.6875,229874.46875,381300.0,1.0,2
238032.40625,255388.1875,241107.921875,249957.6875,225175.328125,254477.578125,229084.46875,229868.65625,381301.0,1.0,2
237996.828125,255352.6875,241084.9375,249938.828125,225145.90625,254445.921875,229064.359375,229835.40625,381302.0,1.0,2
237921.1875,255325.78125,241073.671875,249930.953125,225141.984375,254431.890625,229064.796875,229819.84375,381303.0,1.0,2
237903.75,255338.734375,241080.921875,249936.0625,225161.734375,254441.8125,229074.453125,229836.828125,381304.0,1.0,2
237960.703125,255362.609375,241091.46875,249941.6875,225167.734375,254453.4375,229070.25,229852.203125,381305.0,1.0,2
238023.375,255374.859375,241096.203125,249942.046875,225156.375,254454.421875,229058.71875,229848.984375,381306.0,1.0,2
237991.109375,255341.875,241079.3125,249929.796875,225127.765625,254429.921875,229043.4375,229812.6875,381307.0,1.0,2
237910.734375,255305.84375,241070.015625,249924.4375,225117.578125,254419.015625,229041.90625,229788.109375,381308.0,1.0,2
237882.828125,255303.78125,241074.578125,249926.671875,225128.75,254430.640625,229049.875,229794.71875,381309.0,1.0,2
237935.5,255321.84375,241087.0,249934.796875,225134.015625,254444.140625,229050.9375,229812.25,381310.0,1.0,2
238000.40625,255338.03125,241092.984375,249940.265625,225126.25,254448.0625,229045.3125,229818.046875,381311.0,1.0,2
237987.53125,255333.46875,241082.53125,249934.171875,225119.265625,254435.734375,229043.875,229813.046875,381312.0,1.0,2
237916.0,255320.0625,241069.65625,249926.75,225127.578125,254426.609375,229053.625,229812.875,381313.0,1.0,2
237894.09375,255333.90625,241074.578125,249932.125,225150.65625,254439.125,229068.203125,229835.3125,381314.0,1.0,2
237956.140625,255366.28125,241089.234375,249941.6875,225163.078125,254454.59375,229071.15625,229857.84375,381315.0,1.0,2
238018.734375,255378.796875,241094.875,249944.28125,225154.40625,254454.328125,229061.84375,229858.28125,381316.0,1.0,2
238000.9375,255361.0,241084.40625,249936.859375,225139.203125,254435.375,229054.25,229840.140625,381317.0,1.0,2
237927.265625,255335.078125,241073.046875,249929.265625,225140.109375,254427.234375,229058.71875,229828.609375,381318.0,1.0,2
237902.234375,255334.8125,241075.828125,249932.21875,225157.453125,254440.5625,229068.5625,229843.09375,381319.0,1.0,2
237954.0,255357.609375,241084.859375,249937.046875,225163.078125,254449.234375,229066.59375,229859.546875,381320.0,1.0,2
238018.828125,255373.875,241088.078125,249941.328125,225154.859375,254450.03125,229056.671875,229859.625,381321.0,1.0,2
237999.59375,255354.75,241078.859375,249938.109375,225140.28125,254435.1875,229053.359375,229839.328125,381322.0,1.0,2
237917.609375,255321.578125,241066.25,249930.515625,225137.421875,254425.8125,229054.96875,229822.25,381323.0,1.0,2
237894.28125,255331.046875,241070.109375,249932.5625,225152.890625,254436.796875,229062.203125,229833.703125,381324.0,1.0,2
237956.140625,255363.78125,241087.796875,249945.4375,225164.875,254454.953125,229069.453125,229858.015625,381325.0,1.0,2
238019.625,255375.9375,241094.328125,249949.921875,225157.0,254458.96875,229067.578125,229862.046875,381326.0,1.0,2
237986.984375,255340.0,241074.125,249933.90625,225130.625,254432.0625,229049.15625,229831.28125,381327.0,1.0,2
237913.671875,255317.546875,241064.109375,249926.125,225131.25,254421.96875,229050.046875,229820.46875,381328.0,1.0,2
237896.6875,255332.84375,241074.65625,249934.53125,225154.140625,254438.40625,229067.296875,229840.578125,381329.0,1.0,2
237958.734375,255364.3125,241089.59375,249943.828125,225164.953125,254455.765625,229073.203125,229861.859375,381330.0,1.0,2
238018.1875,255371.828125,241093.890625,249945.171875,225155.21875,254458.0,229062.203125,229860.875,381331.0,1.0,2
237993.78125,255345.984375,241082.265625,249935.15625,225133.390625,254437.875,229049.15625,229834.421875,381332.0,1.0,2
237917.515625,255318.796875,241072.0625,249928.28125,225130.09375,254426.078125,229054.34375,229816.0,381333.0,1.0,2
237894.8125,255325.59375,241077.34375,249934.625,225151.640625,254437.96875,229067.84375,229831.90625,381334.0,1.0,2
237953.015625,255356.09375,241090.75,249946.703125,225165.3125,254455.578125,229075.703125,229857.21875,381335.0,1.0,2
238015.15625,255369.40625,241098.265625,249951.96875,225158.15625,254460.234375,229069.71875,229862.578125,381336.0,1.0,2
237987.171875,255340.53125,241082.0,249935.609375,225132.859375,254432.875,229052.546875,229831.109375,381337.0,1.0,2
237920.296875,255326.578125,241074.65625,249930.609375,225137.421875,254424.203125,229061.578125,229824.765625,381338.0,1.0,2
237899.28125,255339.71875,241081.8125,249936.765625,225157.890625,254436.09375,229073.109375,229841.5625,381339.0,1.0,2
237951.234375,255363.0625,241093.609375,249944.015625,225165.046875,254446.28125,229071.78125,229855.421875,381340.0,1.0,2
238021.234375,255384.515625,241100.140625,249947.5,225159.765625,254448.515625,229066.671875,229860.078125,381341.0,1.0,2
238000.40625,255360.015625,241087.625,249935.96875,225138.9375,254428.484375,229060.6875,229835.21875,381342.0,1.0,2
237927.265625,255336.328125,241078.859375,249928.09375,225138.765625,254417.3125,229064.53125,229825.65625,381343.0,1.0,2
237903.21875,255344.546875,241086.28125,249932.84375,225156.734375,254429.375,229078.65625,229842.546875,381344.0,1.0,2
237956.328125,255366.71875,241098.984375,249939.359375,225164.328125,254441.453125,229078.65625,229865.0,381345.0,1.0,2
238023.296875,255384.15625,241103.09375,249942.671875,225155.390625,254442.53125,229067.84375,229868.484375,381346.0,1.0,2
238004.0625,255363.234375,241091.203125,249933.90625,225136.4375,254424.015625,229059.96875,229846.03125,381347.0,1.0,2
237924.5,255333.90625,241077.4375,249922.28125,225132.0625,254410.515625,229059.171875,229826.453125,381348.0,1.0,2
237893.734375,255333.109375,241081.015625,249922.46875,225144.578125,254417.046875,229067.03125,229836.828125,381349.0,1.0,2
237951.40625,255363.0625,241093.4375,249930.15625,225154.5,254428.484375,229071.5,229855.34375,381350.0,1.0,2
238023.015625,255383.09375,241100.140625,249934.625,225149.671875,254432.515625,229066.40625,229860.171875,381351.0,1.0,2
238006.296875,255366.1875,241090.578125,249928.359375,225135.90625,254418.390625,229060.78125,229843.09375,381352.0,1.0,2
237926.90625,255340.4375,241075.28125,249916.921875,225130.171875,254404.53125,229058.546875,229824.484375,381353.0,1.0,2
237898.390625,255349.015625,241075.5625,249917.640625,225145.375,254415.53125,229066.046875,229837.71875,381354.0,1.0,2
237950.328125,255371.640625,241089.953125,249927.03125,225154.859375,254431.96875,229070.515625,229857.21875,381355.0,1.0,2
238019.171875,255390.59375,241099.703125,249932.84375,225151.640625,254437.515625,229069.453125,229865.265625,381356.0,1.0,2
238001.65625,255371.015625,241086.015625,249923.09375,225133.9375,254420.796875,229058.625,229842.46875,381357.0,1.0,2
