FZ,C3,CZ,C4,PZ,PO7,OZ,PO8,Counter,Validation,Label
252748.4375,267719.1875,295846.90625,334706.5625,278016.46875,253381.984375,242737.8125,238935.234375,16619.0,1.0,2
252200.015625,267640.59375,295699.8125,334555.28125,278440.34375,253222.484375,242981.4375,238817.140625,16620.0,1.0,2
252425.953125,267782.9375,295888.21875,334687.53125,278496.59375,253344.875,242992.984375,238911.015625,16621.0,1.0,2
253143.171875,267990.53125,296197.8125,334940.5625,278137.0,253615.328125,242772.953125,239106.8125,16622.0,1.0,2
253338.703125,267941.90625,296155.09375,334938.84375,277829.34375,253636.875,242603.875,239121.03125,16623.0,1.0,2
252759.703125,267726.34375,295849.3125,334701.84375,278023.78125,253401.03125,242738.796875,238951.96875,16624.0,1.0,2
252206.375,267646.15625,295699.03125,334548.0625,278445.71875,253240.984375,242987.53125,238827.5,16625.0,1.0,2
252426.21875,267790.28125,295886.78125,334681.1875,278508.375,253364.546875,243008.453125,238922.09375,16626.0,1.0,2
253140.578125,267993.0625,296192.625,334931.78125,278146.46875,253624.90625,242787.609375,239119.515625,16627.0,1.0,2
253342.546875,267942.4375,296149.53125,334929.46875,277832.8125,253644.296875,242612.015625,239131.3125,16628.0,1.0,2
252758.015625,267716.6875,295833.125,334682.15625,278013.78125,253402.71875,242739.421875,238950.265625,16629.0,1.0,2
252194.5625,267625.6875,295670.6875,334516.75,278426.75,253229.546875,242981.359375,238816.78125,16630.0,1.0,2
252403.421875,267763.90625,295853.875,334646.125,278492.125,253344.421875,243002.640625,238907.25,16631.0,1.0,2
253119.484375,267971.84375,296163.21875,334899.0625,278135.46875,253608.09375,242777.328125,239102.796875,16632.0,1.0,2
253336.828125,267935.375,296129.15625,334901.46875,277821.125,253633.578125,242605.484375,239123.625,16633.0,1.0,2
252760.0625,267714.375,295816.0625,334658.28125,277999.9375,253392.796875,242732.796875,238949.640625,16634.0,1.0,2
252183.921875,267613.59375,295652.875,334493.78125,278418.53125,253217.296875,242972.953125,238813.109375,16635.0,1.0,2
252401.359375,267765.875,295846.1875,334631.03125,278501.40625,253337.90625,243005.765625,238911.90625,16636.0,1.0,2
253129.3125,267987.0625,296165.90625,334891.65625,278154.875,253608.8125,242792.796875,239112.53125,16637.0,1.0,2
253350.328125,267946.1875,296136.9375,334900.5,277841.21875,253642.0625,242619.796875,239133.546875,16638.0,1.0,2
252775.0,267722.59375,295823.375,334658.46875,278015.3125,253404.421875,242744.96875,238961.34375,16639.0,1.0,2
252191.171875,267617.53125,295648.25,334482.53125,278423.0,253217.203125,242977.6875,238817.140625,16640.0,1.0,2
252387.328125,267755.21875,295821.15625,334600.96875,278493.375,253320.734375,242998.15625,238895.71875,16641.0,1.0,2
253100.796875,267961.125,296121.03125,334846.03125,278125.09375,253573.9375,242774.109375,239083.5625,16642.0,1.0,2
253332.359375,267927.59375,296098.21875,334862.0625,277804.03125,253607.203125,242600.390625,239110.296875,16643.0,1.0,2
252769.09375,267708.28125,295791.8125,334628.53125,277979.4375,253369.828125,242720.90625,238938.734375,16644.0,1.0,2
252204.484375,267623.8125,295635.28125,334469.71875,278408.34375,253200.484375,242968.21875,238808.90625,16645.0,1.0,2
252388.046875,267753.71875,295812.75,334592.5625,278492.8125,253308.125,242995.75,238895.8125,16646.0,1.0,2
253109.46875,267971.40625,296129.96875,334850.4375,278146.65625,253578.234375,242779.65625,239095.1875,16647.0,1.0,2
253338.53125,267932.25,296101.96875,334858.46875,277816.09375,253611.046875,242592.875,239115.671875,16648.0,1.0,2
252768.734375,267704.53125,295787.4375,334621.1875,277979.09375,253377.234375,242712.15625,238944.265625,16649.0,1.0,2
252192.859375,267612.53125,295623.5625,334461.40625,278407.34375,253211.296875,242965.53125,238814.1875,16650.0,1.0,2
252374.984375,267752.0,295798.8125,334582.03125,278498.71875,253324.671875,243003.890625,238899.75,16651.0,1.0,2
253084.703125,267957.46875,296100.53125,334827.90625,278138.15625,253578.140625,242778.046875,239088.9375,16652.0,1.0,2
253332.453125,267928.40625,296080.25,334844.15625,277807.875,253616.5,242595.390625,239116.5625,16653.0,1.0,2
252779.640625,267712.5625,295774.9375,334609.125,277972.65625,253391.09375,242720.109375,238949.375,16654.0,1.0,2
252179.8125,267598.0625,295590.5625,334429.15625,278382.84375,253205.765625,242960.4375,238806.140625,16655.0,1.0,2
252352.015625,267733.15625,295763.125,334549.3125,278479.0625,253313.9375,243002.015625,238891.96875,16656.0,1.0,2
253075.3125,267955.59375,296083.125,334810.09375,278141.71875,253585.734375,242790.5625,239095.109375,16657.0,1.0,2
253344.421875,267944.84375,296079.96875,334839.6875,277825.40625,253639.921875,242610.859375,239135.6875,16658.0,1.0,2
252793.765625,267725.53125,295773.6875,334605.90625,277990.1875,253410.5,242719.921875,238970.296875,16659.0,1.0,2
252204.3125,267621.21875,295600.03125,334433.0625,278420.6875,253232.484375,242964.546875,238834.125,16660.0,1.0,2
252362.46875,267742.4375,295766.0625,334546.1875,278520.53125,253331.828125,242999.5,238907.25,16661.0,1.0,2
253090.6875,267967.9375,296092.78125,334808.125,278186.15625,253606.125,242789.21875,239106.1875,16662.0,1.0,2
253356.40625,267943.34375,296082.75,334825.65625,277844.8125,253646.359375,242599.140625,239135.875,16663.0,1.0,2
252800.75,267710.34375,295768.5,334582.75,277977.75,253401.109375,242707.140625,238958.40625,16664.0,1.0,2
252209.3125,267603.21875,295591.5625,334402.6875,278385.1875,253211.03125,242956.59375,238813.5625,16665.0,1.0,2
252363.984375,267727.96875,295754.375,334508.625,278474.9375,253302.765625,243003.078125,238885.53125,16666.0,1.0,2
253075.5,267940.3125,296073.625,334765.03125,278128.03125,253564.734375,242792.078125,239082.40625,16667.0,1.0,2
253349.796875,267924.84375,296072.375,334794.625,277793.84375,253613.8125,242602.890625,239118.4375,16668.0,1.0,2
252812.640625,267713.75,295770.71875,334565.03125,277950.40625,253383.046875,242717.515625,238957.140625,16669.0,1.0,2
252217.359375,267615.5625,295595.65625,334392.9375,278388.03125,253199.765625,242970.890625,238825.1875,16670.0,1.0,2
252355.40625,267739.40625,295749.96875,334498.78125,278503.28125,253288.546875,243009.78125,238897.515625,16671.0,1.0,2
253066.28125,267955.6875,296065.9375,334754.59375,278171.5,253548.8125,242795.921875,239098.671875,16672.0,1.0,2
253345.859375,267942.25,296068.0,334785.4375,277837.75,253604.15625,242607.015625,239138.203125,16673.0,1.0,2
252806.375,267724.65625,295759.5625,334550.65625,277978.28125,253374.734375,242714.390625,238969.484375,16674.0,1.0,2
252205.03125,267621.75,295574.65625,334370.21875,278402.0625,253193.15625,242971.875,238830.09375,16675.0,1.0,2
252339.859375,267749.0625,295723.0625,334468.21875,278506.6875,253287.828125,243022.125,238895.546875,16676.0,1.0,2
253045.984375,267964.96875,296032.78125,334718.8125,278158.25,253558.203125,242811.296875,239087.859375,16677.0,1.0,2
253330.125,267950.125,296034.375,334753.59375,277809.21875,253623.921875,242621.046875,239131.40625,16678.0,1.0,2
252802.359375,267738.96875,295730.03125,334524.625,277941.375,253404.421875,242728.515625,238968.6875,16679.0,1.0,2
252200.46875,267639.4375,295545.34375,334344.65625,278362.1875,253225.25,242973.390625,238825.625,16680.0,1.0,2
252325.640625,267761.65625,295695.625,334449.0,278479.40625,253320.921875,243017.828125,238897.515625,16681.0,1.0,2
253054.03125,268000.65625,296024.8125,334719.4375,278161.03125,253607.46875,242815.140625,239107.0,16682.0,1.0,2
253359.09375,267998.84375,296036.1875,334762.625,277821.8125,253677.5625,242615.59375,239156.171875,16683.0,1.0,2
252827.65625,267772.3125,295725.75,334530.15625,277949.21875,253450.640625,242706.703125,238993.265625,16684.0,1.0,2
252214.0625,267657.40625,295535.84375,334346.34375,278370.34375,253262.71875,242952.5625,238849.140625,16685.0,1.0,2
252328.671875,267771.3125,295683.90625,334443.71875,278483.25,253345.140625,242999.140625,238909.671875,16686.0,1.0,2
253038.390625,267984.71875,296006.84375,334701.84375,278147.96875,253615.78125,242793.25,239102.703125,16687.0,1.0,2
253351.578125,267981.0625,296026.15625,334744.125,277799.84375,253688.015625,242605.046875,239151.15625,16688.0,1.0,2
252840.703125,267766.59375,295729.96875,334517.375,277927.15625,253469.15625,242708.578125,238993.453125,16689.0,1.0,2
252233.09375,267653.125,295543.71875,334334.8125,278351.125,253281.75,242970.8125,238852.890625,16690.0,1.0,2
252348.171875,267773.90625,295696.6875,334433.625,278484.15625,253368.296875,243038.84375,238924.6875,16691.0,1.0,2
253067.796875,268002.25,296024.625,334695.75,278167.75,253638.84375,242838.65625,239127.828125,16692.0,1.0,2
253382.875,267997.96875,296042.25,334738.84375,277823.96875,253701.078125,242633.734375,239174.859375,16693.0,1.0,2
252863.234375,267772.21875,295737.09375,334509.34375,277948.6875,253474.25,242721.09375,239007.578125,16694.0,1.0,2
252245.34375,267659.03125,295542.1875,334320.5,278374.1875,253274.25,242965.53125,238853.96875,16695.0,1.0,2
252342.359375,267772.5625,295683.71875,334414.125,278507.65625,253349.25,243025.875,238917.0,16696.0,1.0,2
253052.0625,267999.03125,296011.5,334677.875,278187.0625,253616.859375,242826.0625,239117.28125,16697.0,1.0,2
253377.6875,268008.4375,296043.875,334731.78125,277839.96875,253691.328125,242631.328125,239170.65625,16698.0,1.0,2
252860.734375,267786.25,295741.03125,334502.28125,277947.96875,253462.890625,242720.90625,239006.671875,16699.0,1.0,2
252231.40625,267662.59375,295537.8125,334303.6875,278353.8125,253252.78125,242965.34375,238848.78125,16700.0,1.0,2
252331.09375,267786.34375,295687.21875,334400.71875,278486.3125,253328.515625,243035.71875,238915.484375,16701.0,1.0,2
253049.296875,268021.84375,296022.125,334670.375,278166.5,253599.234375,242833.390625,239122.015625,16702.0,1.0,2
253383.5,268034.53125,296057.90625,334725.78125,277812.4375,253674.4375,242629.1875,239176.46875,16703.0,1.0,2
252875.671875,267815.40625,295759.46875,334498.4375,277918.5625,253449.578125,242710.09375,239011.859375,16704.0,1.0,2
252247.5,267694.59375,295559.71875,334306.375,278335.5625,253248.5,242956.046875,238854.6875,16705.0,1.0,2
252323.765625,267798.21875,295693.375,334391.9375,278472.1875,253319.390625,243018.8125,238910.03125,16706.0,1.0,2
253029.09375,268019.96875,296017.125,334653.5625,278151.46875,253585.296875,242816.125,239113.96875,16707.0,1.0,2
253374.734375,268033.5625,296055.3125,334709.875,277797.96875,253666.921875,242614.25,239166.359375,16708.0,1.0,2
252876.03125,267814.3125,295753.375,334480.28125,277899.625,253442.78125,242694.453125,238999.609375,16709.0,1.0,2
252257.234375,267701.03125,295562.59375,334292.53125,278331.96875,253250.546875,242954.53125,238857.28125,16710.0,1.0,2
252333.421875,267809.59375,295699.28125,334375.40625,278480.9375,253318.234375,243026.59375,238917.453125,16711.0,1.0,2
253042.140625,268035.0625,296030.8125,334638.71875,278169.4375,253591.1875,242834.90625,239116.109375,16712.0,1.0,2
253385.828125,268037.75,296062.1875,334688.59375,277804.125,253669.421875,242629.0,239163.5,16713.0,1.0,2
252884.609375,267807.34375,295751.59375,334454.25,277892.28125,253437.40625,242698.46875,238994.515625,16714.0,1.0,2
252251.609375,267679.84375,295546.03125,334257.9375,278314.625,253234.8125,242949.53125,238841.359375,16715.0,1.0,2
252308.375,267773.65625,295673.375,334336.875,278467.875,253303.125,243024.625,238895.71875,16716.0,1.0,2
253009.0625,267993.21875,295997.8125,334597.84375,278158.34375,253571.25,242832.671875,239098.328125,16717.0,1.0,2
253377.421875,268020.40625,296047.0,334667.15625,277809.40625,253670.234375,242639.46875,239166.625,16718.0,1.0,2
252900.078125,267813.59375,295755.96875,334450.78125,277916.78125,253466.828125,242725.03125,239015.171875,16719.0,1.0,2
252268.140625,267692.71875,295551.21875,334255.0625,278344.21875,253271.03125,242975.359375,238863.625,16720.0,1.0,2
252319.828125,267793.9375,295673.625,334327.21875,278496.84375,253336.828125,243046.171875,238909.21875,16721.0,1.0,2
252994.21875,267991.78125,295972.96875,334569.15625,278163.71875,253586.90625,242829.625,239087.765625,16722.0,1.0,2
253353.015625,268003.5,296011.9375,334637.1875,277793.84375,253676.75,242619.609375,239150.359375,16723.0,1.0,2
252878.796875,267796.96875,295721.28125,334423.25,277884.84375,253471.125,242694.8125,238998.546875,16724.0,1.0,2
252246.515625,267675.65625,295520.03125,334229.84375,278312.65625,253278.71875,242949.4375,238847.890625,16725.0,1.0,2
252303.015625,267785.90625,295649.03125,334310.6875,278476.65625,253349.34375,243028.203125,238902.78125,16726.0,1.0,2
253009.421875,268018.625,295980.125,334579.0625,278170.4375,253626.953125,242834.640625,239107.171875,16727.0,1.0,2
253376.796875,268032.5625,296028.9375,334646.9375,277793.40625,253723.25,242622.03125,239170.203125,16728.0,1.0,2
252909.28125,267821.21875,295740.78125,334433.78125,277872.96875,253519.484375,242700.890625,239021.96875,16729.0,1.0,2
252281.734375,267702.75,295542.1875,334241.125,278297.46875,253322.171875,242964.09375,238873.015625,16730.0,1.0,2
252325.8125,267801.90625,295666.75,334312.46875,278468.96875,253375.0,243047.15625,238918.96875,16731.0,1.0,2
253019.796875,268021.375,295989.0625,334569.34375,278174.96875,253633.125,242849.296875,239115.046875,16732.0,1.0,2
253386.546875,268029.71875,296032.25,334634.40625,277812.15625,253715.640625,242630.609375,239181.828125,16733.0,1.0,2
252912.328125,267806.09375,295730.84375,334410.1875,277892.71875,253493.203125,242690.15625,239025.90625,16734.0,1.0,2
252265.203125,267668.78125,295512.53125,334201.78125,278311.5,253274.25,242932.265625,238860.3125,16735.0,1.0,2
252294.796875,267761.9375,295628.375,334271.15625,278482.1875,253322.875,243019.171875,238905.734375,16736.0,1.0,2
252974.1875,267968.1875,295943.625,334521.6875,278171.40625,253572.59375,242826.328125,239094.46875,16737.0,1.0,2
253353.375,267983.21875,295998.25,334593.84375,277796.96875,253661.828125,242621.40625,239164.296875,16738.0,1.0,2
252905.34375,267781.5,295715.90625,334385.78125,277877.0,253451.1875,242697.84375,239019.375,16739.0,1.0,2
252264.84375,267654.09375,295506.625,334186.65625,278304.1875,253240.890625,242961.0625,238868.09375,16740.0,1.0,2
252284.421875,267743.34375,295618.71875,334252.375,278483.34375,253286.40625,243052.25,238911.8125,16741.0,1.0,2
252982.421875,267973.28125,295945.96875,334514.0625,278195.46875,253549.796875,242862.359375,239106.09375,16742.0,1.0,2
253368.75,267995.5625,295994.96875,334585.78125,277816.0,253641.53125,242638.5625,239166.71875,16743.0,1.0,2
252902.3125,267771.3125,295693.5625,334365.65625,277872.53125,253422.84375,242685.59375,239006.140625,16744.0,1.0,2
252250.09375,267637.21875,295474.53125,334159.3125,278287.375,253206.921875,242927.171875,238842.96875,16745.0,1.0,2
252264.296875,267735.5625,295584.65625,334221.71875,278466.0,253260.03125,243017.5625,238883.828125,16746.0,1.0,2
252955.6875,267962.46875,295910.03125,334481.8125,278169.09375,253525.390625,242831.859375,239081.6875,16747.0,1.0,2
253359.1875,267995.375,295974.5625,334561.03125,277784.90625,253625.53125,242617.109375,239154.5625,16748.0,1.0,2
252916.609375,267787.15625,295696.34375,334355.8125,277846.5,253426.328125,242679.875,239012.578125,16749.0,1.0,2
252268.953125,267656.78125,295488.03125,334157.34375,278267.0625,253224.171875,242937.453125,238860.765625,16750.0,1.0,2
252279.59375,267754.34375,295597.375,334218.6875,278450.0,253272.1875,243034.46875,238903.765625,16751.0,1.0,2
252961.40625,267976.25,295917.0,334474.75,278156.65625,253533.4375,242848.9375,239101.625,16752.0,1.0,2
253361.328125,268000.46875,295978.875,334555.21875,277778.375,253637.328125,242627.296875,239176.015625,16753.0,1.0,2
252918.859375,267788.3125,295684.625,334342.15625,277836.9375,253432.765625,242679.25,239027.421875,16754.0,1.0,2
252265.203125,267652.21875,295463.625,334136.59375,278267.6875,253225.875,242930.75,238863.8125,16755.0,1.0,2
252260.015625,267737.34375,295565.28125,334196.875,278472.34375,253275.671875,243031.515625,238902.4375,16756.0,1.0,2
252946.75,267966.40625,295884.625,334454.8125,278191.875,253542.375,242853.59375,239098.953125,16757.0,1.0,2
253360.4375,268002.4375,295952.40625,334539.28125,277812.71875,253653.234375,242635.703125,239173.328125,16758.0,1.0,2
252919.75,267784.8125,295665.65625,334329.8125,277866.53125,253453.859375,242690.6875,239029.390625,16759.0,1.0,2
252269.484375,267651.4375,295447.6875,334125.34375,278290.6875,253250.1875,242948.8125,238872.84375,16760.0,1.0,2
252247.9375,267729.125,295534.78125,334165.84375,278469.9375,253279.515625,243034.90625,238892.234375,16761.0,1.0,2
252928.59375,267954.78125,295858.53125,334427.34375,278189.1875,253549.171875,242859.140625,239091.703125,16762.0,1.0,2
253343.796875,267985.71875,295931.375,334519.4375,277810.84375,253669.609375,242642.5,239176.109375,16763.0,1.0,2
252922.703125,267783.84375,295652.0,334318.8125,277865.09375,253479.875,242693.375,239037.34375,16764.0,1.0,2
252270.03125,267651.6875,295430.53125,334112.1875,278287.8125,253275.671875,242941.921875,238875.078125,16765.0,1.0,2
252250.4375,267739.75,295527.8125,334167.28125,278488.8125,253322.4375,243042.78125,238906.546875,16766.0,1.0,2
252931.8125,267972.40625,295857.8125,334432.09375,278212.71875,253597.546875,242865.65625,239105.203125,16767.0,1.0,2
253349.25,268006.28125,295936.03125,334520.4375,277823.25,253714.125,242639.1875,239183.703125,16768.0,1.0,2
252913.84375,267783.375,295645.5625,334307.09375,277851.5,253506.078125,242671.375,239032.875,16769.0,1.0,2
252251.15625,267643.90625,295415.875,334091.90625,278258.40625,253288.546875,242915.015625,238865.234375,16770.0,1.0,2
252221.484375,267726.78125,295510.5625,334139.71875,278459.65625,253325.65625,243020.421875,238893.484375,16771.0,1.0,2
252895.34375,267948.625,295830.625,334393.8125,278173.65625,253583.40625,242847.0625,239086.421875,16772.0,1.0,2
253337.28125,267996.53125,295921.5625,334493.0625,277789.5625,253706.890625,242628.28125,239176.90625,16773.0,1.0,2
252926.8125,267787.15625,295645.71875,334291.71875,277830.125,253511.796875,242668.703125,239033.234375,16774.0,1.0,2
252269.84375,267645.4375,295416.84375,334077.9375,278247.9375,253292.125,242919.3125,238868.984375,16775.0,1.0,2
252231.671875,267720.8125,295503.40625,334120.6875,278455.53125,253315.734375,243021.671875,238891.796875,16776.0,1.0,2
252903.390625,267942.96875,295827.84375,334379.96875,278188.9375,253575.09375,242848.5,239089.015625,16777.0,1.0,2
253342.546875,267985.53125,295914.65625,334475.0,277801.875,253691.953125,242625.15625,239171.359375,16778.0,1.0,2
252936.109375,267778.46875,295636.4375,334271.78125,277831.5625,253492.125,242668.875,239028.9375,16779.0,1.0,2
252269.671875,267631.84375,295406.21875,334057.5625,278249.28125,253268.875,242922.4375,238865.421875,16780.0,1.0,2
252223.265625,267707.125,295493.28125,334100.65625,278468.0625,253293.203125,243035.796875,238891.34375,16781.0,1.0,2
252889.96875,267926.25,295814.4375,334353.59375,278200.09375,253546.484375,242863.875,239082.5,16782.0,1.0,2
253338.4375,267975.6875,295907.53125,334453.28125,277815.125,253670.671875,242643.3125,239173.421875,16783.0,1.0,2
252933.421875,267768.375,295629.0,334249.53125,277835.6875,253471.296875,242676.921875,239034.390625,16784.0,1.0,2
252259.46875,267618.6875,295387.53125,334026.625,278241.40625,253242.765625,242923.328125,238863.1875,16785.0,1.0,2
252201.71875,267694.4375,295467.46875,334066.59375,278459.84375,253262.890625,243033.75,238884.546875,16786.0,1.0,2
252872.984375,267926.53125,295796.84375,334330.96875,278203.5,253529.953125,242865.21875,239082.140625,16787.0,1.0,2
253327.171875,267980.53125,295891.96875,334436.5625,277815.75,253659.046875,242635.890625,239170.5625,16788.0,1.0,2
252933.6875,267776.40625,295619.625,334244.34375,277840.875,253472.546875,242666.640625,239035.109375,16789.0,1.0,2
252258.046875,267620.65625,295375.625,334023.0625,278245.625,253249.125,242909.921875,238860.671875,16790.0,1.0,2
252193.9375,267691.65625,295452.15625,334060.15625,278464.40625,253271.390625,243023.203125,238878.734375,16791.0,1.0,2
252852.15625,267912.59375,295768.9375,334312.46875,278197.34375,253527.09375,242846.0,239070.15625,16792.0,1.0,2
253311.4375,267963.53125,295864.0625,334418.21875,277798.59375,253657.71875,242613.171875,239164.03125,16793.0,1.0,2
252918.5,267750.125,295586.53125,334220.1875,277805.1875,253472.28125,242640.359375,239023.390625,16794.0,1.0,2
252248.921875,267600.0,295349.4375,334004.1875,278217.375,253256.28125,242892.21875,238858.703125,16795.0,1.0,2
252171.40625,267665.0,295417.21875,334035.125,278436.6875,253270.40625,243007.375,238875.25,16796.0,1.0,2
252837.484375,267897.125,295740.5,334294.59375,278181.59375,253533.875,242842.859375,239066.765625,16797.0,1.0,2
253312.78125,267961.3125,295852.4375,334408.75,277797.25,253678.8125,242622.390625,239166.453125,16798.0,1.0,2
252933.328125,267758.53125,295587.53125,334217.0625,277813.34375,253502.59375,242655.5625,239039.3125,16799.0,1.0,2
252253.21875,267598.3125,295341.5625,333992.5625,278221.03125,253278.453125,242899.640625,238868.453125,16800.0,1.0,2
252163.359375,267653.84375,295407.1875,334013.21875,278445.875,253289.09375,243012.296875,238876.5,16801.0,1.0,2
252819.515625,267876.71875,295726.65625,334261.875,278189.28125,253542.90625,242842.234375,239060.765625,16802.0,1.0,2
253306.875,267948.15625,295842.78125,334381.5,277804.3125,253687.65625,242622.125,239166.453125,16803.0,1.0,2
252941.5625,267753.0,295579.65625,334192.75,277818.96875,253511.796875,242655.28125,239038.328125,16804.0,1.0,2
252266.0,267598.5,295336.84375,333967.53125,278229.6875,253289.359375,242906.515625,238866.75,16805.0,1.0,2
252163.0,267648.28125,295395.9375,333988.53125,278457.0625,253293.828125,243024.984375,238873.1875,16806.0,1.0,2
252819.078125,267876.09375,295721.0,334244.59375,278209.40625,253552.65625,242864.671875,239069.625,16807.0,1.0,2
253300.796875,267941.8125,295832.15625,334358.78125,277810.375,253692.21875,242631.59375,239166.71875,16808.0,1.0,2
252939.328125,267745.46875,295565.625,334171.46875,277808.3125,253513.40625,242652.875,239033.40625,16809.0,1.0,2
252251.078125,267575.59375,295308.5,333937.75,278203.15625,253273.4375,242887.296875,238851.5625,16810.0,1.0,2
252153.4375,267635.59375,295374.5625,333962.875,278445.0,253283.984375,243012.375,238859.78125,16811.0,1.0,2
252810.40625,267870.75,295701.15625,334223.78125,278204.5,253546.40625,242855.921875,239056.921875,16812.0,1.0,2
253301.953125,267942.34375,295818.125,334344.125,277806.4375,253690.703125,242625.6875,239162.6875,16813.0,1.0,2
252950.953125,267748.78125,295559.625,334160.90625,277804.84375,253515.46875,242645.71875,239041.546875,16814.0,1.0,2
252268.6875,267586.875,295310.28125,333936.78125,278207.71875,253287.203125,242889.984375,238872.5625,16815.0,1.0,2
252163.359375,267646.875,295367.9375,333956.90625,278445.0,253288.28125,243014.25,238874.71875,16816.0,1.0,2
252804.953125,267865.65625,295684.90625,334207.21875,278195.46875,253533.4375,242849.921875,239060.234375,16817.0,1.0,2
253293.46875,267930.28125,295800.75,334323.71875,277786.34375,253667.8125,242614.421875,239158.046875,16818.0,1.0,2
252956.140625,267746.28125,295549.875,334146.4375,277785.15625,253499.015625,242645.546875,239041.71875,16819.0,1.0,2
252271.546875,267578.1875,295299.71875,333920.3125,278189.375,253269.328125,242892.65625,238869.4375,16820.0,1.0,2
252148.15625,267623.4375,295346.5625,333932.5,278427.75,253262.4375,243016.578125,238866.21875,16821.0,1.0,2
252789.125,267845.78125,295665.59375,334185.25,278187.78125,253511.359375,242857.796875,239053.53125,16822.0,1.0,2
253299.015625,267926.96875,295801.03125,334317.46875,277798.84375,253663.078125,242636.0625,239169.3125,16823.0,1.0,2
252965.25,267736.8125,295547.125,334139.28125,277791.875,253488.203125,242653.59375,239050.125,16824.0,1.0,2
252283.890625,267575.59375,295293.90625,333911.03125,278194.03125,253254.03125,242897.84375,238877.21875,16825.0,1.0,2
252154.6875,267621.28125,295341.84375,333920.875,278441.40625,253246.4375,243026.5,238871.9375,16826.0,1.0,2
252784.921875,267834.25,295654.125,334169.9375,278204.40625,253493.46875,242869.421875,239059.609375,16827.0,1.0,2
253292.3125,267905.4375,295781.53125,334297.53125,277803.75,253642.78125,242635.171875,239167.796875,16828.0,1.0,2
252971.328125,267721.875,295535.6875,334126.3125,277791.4375,253481.21875,242657.515625,239049.5,16829.0,1.0,2
252292.90625,267564.53125,295284.875,333897.4375,278190.4375,253250.28125,242901.15625,238873.734375,16830.0,1.0,2
252157.1875,267615.03125,295332.53125,333903.4375,278438.71875,253241.96875,243033.921875,238868.1875,16831.0,1.0,2
252775.796875,267823.1875,295641.25,334145.1875,278193.03125,253483.640625,242873.265625,239046.015625,16832.0,1.0,2
253291.59375,267902.75,295775.09375,334276.4375,277790.25,253637.421875,242636.953125,239156.703125,16833.0,1.0,2
252974.015625,267718.375,295522.09375,334096.28125,277763.71875,253469.328125,242637.765625,239027.875,16834.0,1.0,2
252295.6875,267561.84375,295272.1875,333873.46875,278169.15625,253245.984375,242887.484375,238860.9375,16835.0,1.0,2
252152.1875,267612.625,295320.28125,333886.4375,278432.46875,253249.125,243031.609375,238865.59375,16836.0,1.0,2
252779.203125,267835.15625,295637.6875,334135.4375,278204.75,253502.5,242879.078125,239048.96875,16837.0,1.0,2
253298.109375,267918.40625,295770.625,334265.09375,277794.90625,253655.75,242634.359375,239157.234375,16838.0,1.0,2
252966.140625,267714.1875,295505.8125,334082.40625,277748.96875,253482.296875,242626.046875,239029.65625,16839.0,1.0,2
252279.328125,267546.0,295248.0625,333858.53125,278146.5625,253254.03125,242871.390625,238861.578125,16840.0,1.0,2
252132.25,267594.03125,295293.125,333867.03125,278410.03125,253244.921875,243010.140625,238856.75,16841.0,1.0,2
252760.953125,267820.65625,295607.75,334115.15625,278185.25,253494.09375,242860.65625,239036.625,16842.0,1.0,2
253294.265625,267911.15625,295749.4375,334257.125,277786.25,253660.296875,242630.875,239156.34375,16843.0,1.0,2
252992.796875,267729.125,295508.6875,334092.0625,277759.5,253505.71875,242635.265625,239047.1875,16844.0,1.0,2
252310.703125,267565.875,295255.21875,333864.34375,278162.65625,253277.734375,242881.578125,238874.796875,16845.0,1.0,2
252147.984375,267605.5625,295290.78125,333862.46875,278431.125,253262.984375,243026.421875,238865.859375,16846.0,1.0,2
252764.359375,267822.375,295602.90625,334109.15625,278209.125,253508.3125,242877.828125,239049.140625,16847.0,1.0,2
253296.5,267908.1875,295751.5,334253.71875,277809.75,253675.40625,242647.78125,239172.265625,16848.0,1.0,2
252985.015625,267710.96875,295497.6875,334077.59375,277761.21875,253510.1875,242640.171875,239051.203125,16849.0,1.0,2
252293.453125,267536.96875,295231.34375,333841.28125,278146.46875,253268.703125,242875.234375,238872.921875,16850.0,1.0,2
252117.234375,267567.03125,295258.15625,333831.46875,278406.5625,253237.859375,243009.78125,238854.421875,16851.0,1.0,2
252728.59375,267782.6875,295566.96875,334073.46875,278184.375,253476.296875,242860.921875,239033.953125,16852.0,1.0,2
253267.09375,267870.65625,295712.53125,334211.625,277777.375,253637.421875,242624.625,239155.09375,16853.0,1.0,2
252975.984375,267691.03125,295472.46875,334049.25,277734.84375,253483.28125,242625.34375,239046.90625,16854.0,1.0,2
252303.203125,267540.65625,295221.40625,333827.96875,278138.0625,253258.15625,242875.59375,238875.875,16855.0,1.0,2
252133.859375,267589.65625,295257.875,333829.5,278421.75,253242.859375,243028.5625,238868.015625,16856.0,1.0,2
252743.078125,267813.59375,295571.0,334075.09375,278212.09375,253488.375,242888.734375,239049.59375,16857.0,1.0,2
253281.125,267902.9375,295717.15625,334211.71875,277799.21875,253648.140625,242641.96875,239163.765625,16858.0,1.0,2
252979.109375,267701.59375,295461.5625,334030.28125,277732.40625,253478.546875,242619.171875,239042.625,16859.0,1.0,2
252288.796875,267526.96875,295197.0,333794.71875,278119.0,253240.53125,242857.609375,238862.90625,16860.0,1.0,2
252098.984375,267561.9375,295219.25,333779.15625,278385.53125,253207.1875,242997.53125,238833.9375,16861.0,1.0,2
252716.703125,267795.5625,295541.3125,334032.0,278185.0,253459.40625,242866.375,239020.796875,16862.0,1.0,2
253275.140625,267900.78125,295705.1875,334187.21875,277782.5,253637.234375,242635.171875,239154.640625,16863.0,1.0,2
252997.4375,267720.1875,295468.875,334024.125,277723.03125,253484.984375,242622.921875,239044.59375,16864.0,1.0,2
252314.015625,267554.0625,295211.21875,333793.46875,278116.40625,253254.125,242864.140625,238866.484375,16865.0,1.0,2
252115.34375,267582.21875,295236.875,333782.28125,278402.34375,253229.625,243012.5625,238848.34375,16866.0,1.0,2
252716.53125,267801.625,295548.8125,334027.78125,278201.8125,253476.296875,242874.609375,239030.109375,16867.0,1.0,2
253268.796875,267895.15625,295700.4375,334173.4375,277788.375,253646.453125,242629.453125,239151.421875,16868.0,1.0,2
252998.875,267714.09375,295463.875,334012.5,277726.59375,253499.28125,242612.28125,239046.90625,16869.0,1.0,2
252311.953125,267543.59375,295201.125,333780.6875,278118.03125,253270.40625,242855.109375,238873.90625,16870.0,1.0,2
252101.140625,267564.15625,295217.75,333763.0625,278402.15625,253245.71875,243008.890625,238850.578125,16871.0,1.0,2
252698.203125,267781.875,295532.0,334005.96875,278206.375,253493.828125,242878.265625,239034.578125,16872.0,1.0,2
253256.984375,267881.28125,295686.6875,334150.5625,277787.84375,253662.71875,242636.78125,239158.671875,16873.0,1.0,2
252979.375,267686.84375,295436.78125,333979.6875,277702.1875,253504.46875,242609.515625,239042.890625,16874.0,1.0,2
252289.25,267507.84375,295167.6875,333747.78125,278086.8125,253272.90625,242848.859375,238865.421875,16875.0,1.0,2
252082.625,267538.15625,295183.21875,333734.1875,278380.09375,253244.375,243007.375,238844.578125,16876.0,1.0,2
252678.078125,267760.15625,295491.3125,333977.1875,278190.8125,253485.515625,242872.1875,239021.4375,16877.0,1.0,2
253252.34375,267871.46875,295662.8125,334137.9375,277793.21875,253668.890625,242634.359375,239155.984375,16878.0,1.0,2
253000.296875,267694.4375,295432.3125,333982.1875,277725.90625,253518.6875,242601.203125,239050.84375,16879.0,1.0,2
252313.03125,267516.6875,295160.0625,333742.75,278110.6875,253270.9375,242828.5625,238870.6875,16880.0,1.0,2
252105.15625,267550.46875,295178.21875,333723.4375,278412.71875,253232.140625,242986.625,238847.796875,16881.0,1.0,2
252696.671875,267770.59375,295491.875,333966.46875,278229.25,253470.40625,242861.8125,239029.921875,16882.0,1.0,2
253270.125,267875.65625,295668.09375,334130.6875,277819.59375,253650.828125,242631.328125,239168.234375,16883.0,1.0,2
253021.84375,267695.0625,295441.78125,333975.65625,277733.03125,253501.15625,242610.140625,239061.578125,16884.0,1.0,2
252326.890625,267511.6875,295163.84375,333727.28125,278091.375,253241.34375,242838.84375,238870.0625,16885.0,1.0,2
252102.125,267535.1875,295180.0,333704.9375,278381.96875,253197.359375,243008.984375,238844.578125,16886.0,1.0,2
252690.59375,267757.71875,295491.3125,333944.375,278193.21875,253429.640625,242891.328125,239025.453125,16887.0,1.0,2
253268.515625,267868.875,295668.625,334106.84375,277785.875,253607.828125,242650.1875,239160.453125,16888.0,1.0,2
253036.0625,267701.59375,295453.875,333963.0625,277719.09375,253470.84375,242626.765625,239066.40625,16889.0,1.0,2
252339.140625,267518.125,295175.8125,333718.96875,278098.1875,253218.8125,242853.40625,238880.34375,16890.0,1.0,2
252116.609375,267556.84375,295190.84375,333700.21875,278414.0625,253179.921875,243021.953125,238860.046875,16891.0,1.0,2
252694.4375,267779.53125,295494.46875,333938.46875,278236.84375,253414.96875,242899.375,239041.546875,16892.0,1.0,2
253261.28125,267878.59375,295657.96875,334091.625,277815.9375,253590.65625,242650.453125,239168.0625,16893.0,1.0,2
253030.34375,267707.3125,295432.78125,333939.1875,277724.71875,253453.421875,242616.75,239067.828125,16894.0,1.0,2
252346.296875,267536.4375,295159.90625,333700.75,278096.84375,253215.59375,242855.203125,238893.21875,16895.0,1.0,2
252098.71875,267552.53125,295159.09375,333669.90625,278395.09375,253175.8125,243023.734375,238862.28125,16896.0,1.0,2
252671.734375,267772.65625,295463.0625,333903.875,278213.78125,253419.359375,242901.78125,239030.8125,16897.0,1.0,2
253264.328125,267897.84375,295641.25,334068.65625,277795.09375,253611.484375,242661.28125,239166.890625,16898.0,1.0,2
253036.78125,267729.9375,295418.1875,333924.15625,277696.3125,253482.109375,242627.84375,239073.5625,16899.0,1.0,2
252344.6875,267553.875,295142.625,333688.3125,278071.625,253252.078125,242854.9375,238890.359375,16900.0,1.0,2
252097.5625,267579.71875,295140.0625,333655.875,278381.5,253215.859375,243009.515625,238851.734375,16901.0,1.0,2
252662.4375,267800.90625,295437.25,333892.34375,278208.5,253460.21875,242883.546875,239025.546875,16902.0,1.0,2
253253.234375,267923.40625,295617.46875,334062.3125,277796.53125,253663.4375,242637.234375,239164.484375,16903.0,1.0,2
253033.296875,267753.4375,295399.3125,333922.90625,277699.0625,253547.390625,242599.671875,239075.609375,16904.0,1.0,2
252349.328125,267575.4375,295125.90625,333689.46875,278075.03125,253321.625,242832.046875,238902.34375,16905.0,1.0,2
252105.515625,267604.65625,295129.9375,333659.34375,278391.09375,253289.09375,243008.265625,238870.78125,16906.0,1.0,2
252670.921875,267822.71875,295433.125,333892.78125,278218.53125,253529.40625,242894.71875,239045.125,16907.0,1.0,2
253260.03125,267932.96875,295614.34375,334056.125,277796.875,253720.296875,242646.609375,239182.71875,16908.0,1.0,2
253059.484375,267771.75,295407.1875,333916.84375,277697.09375,253600.21875,242609.421875,239095.375,16909.0,1.0,2
252371.0625,267588.03125,295128.6875,333671.96875,278063.84375,253360.25,242836.34375,238912.890625,16910.0,1.0,2
252104.53125,267596.09375,295122.875,333632.71875,278380.25,253310.546875,243010.0625,238876.40625,16911.0,1.0,2
252669.9375,267818.09375,295427.9375,333870.53125,278225.78125,253548.28125,242902.234375,239051.203125,16912.0,1.0,2
253278.265625,267945.75,295623.90625,334047.46875,277826.21875,253748.90625,242663.15625,239192.375,16913.0,1.0,2
253085.6875,267788.5,295418.09375,333911.90625,277726.875,253623.734375,242624.078125,239106.453125,16914.0,1.0,2
252386.796875,267594.125,295135.03125,333669.8125,278091.3125,253373.484375,242854.671875,238929.34375,16915.0,1.0,2
252111.234375,267604.84375,295120.90625,333622.25,278406.0,253305.53125,243020.34375,238877.484375,16916.0,1.0,2
252650.546875,267812.34375,295414.71875,333847.28125,278238.1875,253520.5625,242904.375,239037.703125,16917.0,1.0,2
253258.328125,267942.1875,295618.65625,334029.21875,277830.21875,253719.40625,242671.109375,239186.296875,16918.0,1.0,2
253068.78125,267782.125,295412.65625,333891.625,277711.59375,253585.109375,242623.546875,239097.78125,16919.0,1.0,2
252384.015625,267602.34375,295132.0,333647.46875,278065.8125,253331.90625,242846.34375,238912.0,16920.0,1.0,2
252103.546875,267612.0,295124.3125,333606.875,278385.90625,253270.84375,243026.78125,238871.140625,16921.0,1.0,2
252649.015625,267829.875,295426.875,333841.28125,278230.5,253493.921875,242923.515625,239044.671875,16922.0,1.0,2
253260.75,267960.78125,295630.28125,334020.09375,277817.625,253687.03125,242678.171875,239186.125,16923.0,1.0,2
253085.59375,267807.875,295434.03125,333888.59375,277699.59375,253560.703125,242619.796875,239096.4375,16924.0,1.0,2
252404.3125,267631.125,295161.40625,333650.84375,278061.4375,253315.109375,242844.5625,238913.6875,16925.0,1.0,2
252115.265625,267633.90625,295149.71875,333604.625,278388.84375,253248.234375,243022.578125,238872.03125,16926.0,1.0,2
252649.015625,267836.84375,295443.0625,333827.875,278232.5625,253462.359375,242907.421875,239036.359375,16927.0,1.0,2
253262.625,267962.65625,295638.65625,334000.15625,277806.90625,253648.0625,242653.40625,239175.5625,16928.0,1.0,2
253087.828125,267801.0,295435.4375,333870.4375,277675.46875,253521.453125,242597.796875,239094.46875,16929.0,1.0,2
252406.109375,267619.6875,295153.1875,333628.0625,278030.5,253274.0625,242820.6875,238914.046875,16930.0,1.0,2
252109.890625,267622.1875,295129.0625,333568.59375,278352.8125,253203.53125,242997.53125,238861.578125,16931.0,1.0,2
252634.890625,267823.8125,295421.78125,333790.59375,278204.40625,253423.28125,242896.15625,239027.875,16932.0,1.0,2
253260.296875,267959.96875,295635.625,333981.3125,277800.71875,253629.734375,242664.765625,239187.28125,16933.0,1.0,2
253105.71875,267810.46875,295442.34375,333857.21875,277675.375,253511.53125,242611.390625,239110.75,16934.0,1.0,2
252421.65625,267622.46875,295160.6875,333614.1875,278033.28125,253267.453125,242837.234375,238927.109375,16935.0,1.0,2
252114.09375,267617.8125,295138.71875,333561.4375,278370.59375,253204.859375,243023.828125,238877.84375,16936.0,1.0,2
252637.3125,267822.46875,295429.90625,333783.90625,278232.46875,253427.578125,242928.421875,239048.25,16937.0,1.0,2
253265.03125,267959.15625,295635.1875,333966.0,277823.96875,253636.515625,242688.90625,239197.03125,16938.0,1.0,2
253108.3125,267803.9375,295435.53125,333837.53125,277690.21875,253531.015625,242629.359375,239108.953125,16939.0,1.0,2
252402.34375,267592.6875,295127.4375,333579.15625,278023.0,253279.34375,242840.625,238910.5625,16940.0,1.0,2
252097.46875,267601.09375,295105.96875,333529.96875,278364.09375,253227.03125,243036.25,238867.03125,16941.0,1.0,2
252632.03125,267831.21875,295405.5,333760.1875,278236.75,253461.828125,242947.46875,239040.390625,16942.0,1.0,2
253262.078125,267973.8125,295620.4375,333952.34375,277830.0625,253680.78125,242708.65625,239197.65625,16943.0,1.0,2
253114.828125,267823.96875,295430.625,333831.46875,277698.0,253584.578125,242648.21875,239118.96875,16944.0,1.0,2
252416.46875,267618.875,295128.78125,333575.75,278033.625,253330.84375,242849.75,238923.0,16945.0,1.0,2
252101.40625,267619.9375,295096.15625,333518.53125,278369.53125,253257.171875,243026.5,238870.25,16946.0,1.0,2
252614.515625,267827.375,295383.3125,333743.75,278236.9375,253477.640625,242926.90625,239034.578125,16947.0,1.0,2
253244.46875,267965.34375,295596.375,333936.6875,277820.21875,253690.34375,242680.859375,239186.75,16948.0,1.0,2
253106.78125,267817.375,295409.0625,333817.15625,277667.875,253588.875,242613.796875,239109.765625,16949.0,1.0,2
252417.8125,267621.5625,295116.71875,333564.3125,277998.03125,253339.875,242824.984375,238922.640625,16950.0,1.0,2
252092.90625,267612.0,295082.8125,333499.21875,278329.375,253259.40625,243011.390625,238866.125,16951.0,1.0,2
252606.109375,267819.15625,295375.46875,333724.0625,278207.96875,253473.71875,242922.4375,239027.78125,16952.0,1.0,2
253244.5625,267958.625,295594.59375,333917.8125,277809.75,253682.203125,242679.609375,239182.546875,16953.0,1.0,2
253107.859375,267799.21875,295404.5,333796.59375,277671.53125,253572.421875,242602.359375,239105.921875,16954.0,1.0,2
252408.78125,267582.9375,295102.84375,333539.90625,278008.25,253303.03125,242798.515625,238912.078125,16955.0,1.0,2
252083.609375,267577.75,295068.6875,333479.625,278358.71875,253218.71875,242989.84375,238858.265625,16956.0,1.0,2
252594.65625,267788.3125,295357.40625,333704.5,278244.1875,253433.390625,242910.359375,239026.34375,16957.0,1.0,2
253237.5,267931.96875,295578.9375,333898.78125,277837.90625,253643.046875,242676.75,239188.71875,16958.0,1.0,2
253110.359375,267780.875,295396.03125,333777.8125,277681.46875,253533.25,242603.96875,239110.5625,16959.0,1.0,2
252416.109375,267571.59375,295096.59375,333520.125,278008.25,253270.75,242811.390625,238916.375,16960.0,1.0,2
252074.21875,267554.96875,295052.0625,333451.21875,278348.875,253181.171875,243007.28125,238855.9375,16961.0,1.0,2
252577.046875,267763.71875,295338.4375,333671.875,278234.4375,253390.203125,242927.359375,239020.09375,16962.0,1.0,2
253222.296875,267910.96875,295563.125,333870.25,277826.65625,253604.328125,242690.609375,239179.5,16963.0,1.0,2
253112.328125,267774.4375,295385.75,333764.75,277670.625,253507.15625,242619.96875,239113.875,16964.0,1.0,2
252420.59375,267571.75,295089.1875,333515.65625,277996.15625,253251.265625,242823.109375,238925.5,16965.0,1.0,2
252081.90625,267571.125,295052.78125,333452.625,278348.625,253170.4375,243017.125,238864.875,16966.0,1.0,2
252566.765625,267772.75,295333.875,333668.09375,278232.90625,253377.6875,242928.6875,239014.546875,16967.0,1.0,2
253208.984375,267917.5,295560.4375,333867.65625,277822.8125,253595.03125,242688.015625,239176.375,16968.0,1.0,2
253111.34375,267785.0,295393.59375,333765.90625,277664.75,253508.046875,242617.296875,239119.515625,16969.0,1.0,2
252432.484375,267591.875,295103.3125,333517.8125,277990.34375,253259.9375,242825.515625,238929.4375,16970.0,1.0,2
252077.171875,267579.71875,295054.9375,333442.0,278332.34375,253169.375,243019.625,238858.265625,16971.0,1.0,2
252554.703125,267775.96875,295327.1875,333649.4375,278210.75,253372.234375,242930.21875,239007.578125,16972.0,1.0,2
253193.328125,267911.34375,295542.1875,333840.125,277785.4375,253584.125,242677.28125,239162.78125,16973.0,1.0,2
253095.078125,267767.03125,295371.875,333739.09375,277621.71875,253499.453125,242592.703125,239102.96875,16974.0,1.0,2
252426.578125,267575.6875,295087.125,333499.03125,277963.96875,253264.59375,242805.140625,238926.65625,16975.0,1.0,2
252078.875,267571.5,295045.28125,333431.4375,278337.25,253189.125,243011.578125,238872.125,16976.0,1.0,2
252540.84375,267754.40625,295301.0625,333626.09375,278224.25,253381.984375,242916.890625,239012.046875,16977.0,1.0,2
253196.640625,267904.1875,295524.78125,333826.8125,277816.28125,253602.8125,242675.5,239172.796875,16978.0,1.0,2
253108.84375,267764.625,295351.21875,333724.78125,277647.75,253516.625,242591.890625,239113.96875,16979.0,1.0,2
252428.28125,267557.1875,295052.25,333473.1875,277971.3125,253268.515625,242792.34375,238924.6875,16980.0,1.0,2
252071.0,267546.625,295004.3125,333401.21875,278336.625,253189.484375,242999.0625,238860.234375,16981.0,1.0,2
252540.484375,267745.84375,295277.1875,333611.34375,278237.3125,253399.328125,242925.75,239015.0,16982.0,1.0,2
253189.21875,267891.5625,295499.5625,333807.3125,277817.34375,253619.890625,242680.953125,239173.59375,16983.0,1.0,2
253112.953125,267762.125,295332.375,333708.0625,277636.65625,253541.484375,242595.46875,239114.234375,16984.0,1.0,2
252436.5,267562.375,295037.9375,333457.65625,277958.625,253304.734375,242800.484375,238927.734375,16985.0,1.0,2
252065.90625,267547.09375,294985.28125,333382.1875,278324.75,253224.171875,243008.0,238861.84375,16986.0,1.0,2
252540.84375,267758.53125,295263.4375,333601.84375,278240.875,253442.0625,242945.40625,239025.1875,16987.0,1.0,2
253191.90625,267904.71875,295487.3125,333803.125,277823.78125,253663.25,242691.765625,239186.828125,16988.0,1.0,2
253113.9375,267768.8125,295316.28125,333698.40625,277634.0625,253580.375,242588.859375,239115.9375,16989.0,1.0,2
252435.15625,267563.1875,295020.25,333449.5,277948.6875,253334.953125,242787.875,238931.390625,16990.0,1.0,2
252063.671875,267550.3125,294971.59375,333374.40625,278316.96875,253247.515625,242997.0,238863.8125,16991.0,1.0,2
252520.453125,267749.59375,295241.875,333579.15625,278225.0625,253445.8125,242924.40625,239009.890625,16992.0,1.0,2
253174.015625,267894.4375,295472.5625,333778.25,277804.65625,253662.265625,242675.3125,239172.96875,16993.0,1.0,2
253108.125,267758.625,295311.09375,333680.96875,277609.5625,253580.28125,242578.484375,239110.75,16994.0,1.0,2
252449.109375,267570.6875,295024.09375,333439.21875,277928.125,253342.375,242788.0625,238931.671875,16995.0,1.0,2
252071.71875,267557.1875,294974.28125,333359.375,278304.28125,253251.453125,243004.0625,238868.546875,16996.0,1.0,2
252513.84375,267743.15625,295236.59375,333556.71875,278215.5625,253438.9375,242932.984375,239014.453125,16997.0,1.0,2
253168.65625,267888.71875,295465.84375,333757.875,277796.53125,253649.75,242678.796875,239168.5,16998.0,1.0,2
253113.765625,267759.875,295311.09375,333669.4375,277606.90625,253568.9375,242585.015625,239116.734375,16999.0,1.0,2
252455.640625,267565.15625,295020.40625,333423.59375,277924.09375,253318.953125,242790.296875,238936.578125,17000.0,1.0,2
252060.09375,267533.6875,294951.9375,333327.375,278290.84375,253203.34375,242987.609375,238851.28125,17001.0,1.0,2
252502.578125,267725.0,295217.03125,333529.09375,278216.75,253393.515625,242925.390625,238999.53125,17002.0,1.0,2
253172.234375,267881.46875,295459.15625,333739.53125,277812.71875,253617.5625,242679.78125,239167.609375,17003.0,1.0,2
253128.59375,267755.6875,295305.71875,333650.9375,277618.4375,253543.265625,242583.3125,239115.9375,17004.0,1.0,2
252460.375,267553.15625,295008.53125,333403.8125,277926.625,253293.734375,242788.328125,238936.046875,17005.0,1.0,2
252059.65625,267526.625,294942.0,333314.5,278297.46875,253188.765625,242998.34375,238861.296875,17006.0,1.0,2
252488.796875,267714.46875,295195.9375,333508.53125,278216.8125,253374.375,242930.578125,239001.40625,17007.0,1.0,2
253155.328125,267873.0625,295438.5625,333720.40625,277809.40625,253605.046875,242687.828125,239169.671875,17008.0,1.0,2
253124.484375,267760.15625,295299.90625,333642.09375,277617.53125,253545.0625,242595.109375,239129.53125,17009.0,1.0,2
252462.875,267560.9375,295004.875,333396.03125,277924.65625,253301.515625,242794.140625,238949.453125,17010.0,1.0,2
252057.59375,267532.96875,294933.78125,333303.34375,278298.1875,253196.640625,243005.234375,238869.796875,17011.0,1.0,2
252473.25,267714.09375,295181.09375,333488.21875,278218.0625,253379.203125,242928.15625,238997.734375,17012.0,1.0,2
253149.609375,267878.15625,295424.625,333700.5625,277809.75,253612.296875,242678.53125,239161.890625,17013.0,1.0,2
253116.796875,267753.71875,295278.4375,333620.625,277601.625,253547.5625,242575.09375,239118.796875,17014.0,1.0,2
252452.59375,267547.875,294980.09375,333374.5,277905.59375,253305.71875,242769.546875,238936.9375,17015.0,1.0,2
252040.421875,267516.96875,294903.75,333278.75,278283.15625,253205.484375,242982.078125,238853.34375,17016.0,1.0,2
252458.765625,267699.78125,295155.34375,333472.75,278213.0625,253396.28125,242928.421875,238993.796875,17017.0,1.0,2
253142.90625,267868.5,295409.6875,333692.78125,277811.46875,253639.296875,242693.546875,239173.0625,17018.0,1.0,2
253132.0,267756.03125,295274.96875,333617.40625,277607.4375,253586.984375,242590.109375,239127.5625,17019.0,1.0,2
252460.375,267538.25,294964.1875,333361.71875,277894.0625,253334.765625,242777.953125,238935.328125,17020.0,1.0,2
252039.625,267500.0625,294883.1875,333262.375,278271.0,253224.890625,242992.0,238853.4375,17021.0,1.0,2
252459.484375,267691.9375,295143.53125,333459.34375,278218.0625,253416.21875,242940.578125,238993.890625,17022.0,1.0,2
253145.140625,267859.21875,295398.875,333678.375,277822.09375,253655.65625,242697.40625,239165.46875,17023.0,1.0,2
253137.359375,267742.09375,295257.34375,333596.84375,277609.03125,253593.421875,242580.0,239115.9375,17024.0,1.0,2
252484.0625,267539.5625,294957.125,333348.3125,277905.40625,253346.578125,242772.5,238934.4375,17025.0,1.0,2
252063.234375,267505.15625,294881.46875,333251.84375,278293.8125,253238.84375,242992.359375,238855.84375,17026.0,1.0,2
252460.015625,267680.3125,295123.40625,333430.90625,278225.125,253410.328125,242931.28125,238985.484375,17027.0,1.0,2
253145.3125,267851.4375,295378.40625,333647.46875,277818.34375,253644.75,242689.265625,239159.203125,17028.0,1.0,2
253142.1875,267738.0625,295245.71875,333574.84375,277600.09375,253590.921875,242583.046875,239122.8125,17029.0,1.0,2
252480.21875,267527.3125,294940.59375,333324.34375,277884.15625,253336.109375,242768.203125,238936.140625,17030.0,1.0,2
252042.9375,267482.8125,294852.875,333217.21875,278262.34375,253213.453125,242982.421875,238842.53125,17031.0,1.0,2
252438.921875,267663.03125,295098.28125,333402.5625,278209.3125,253389.765625,242932.453125,238978.875,17032.0,1.0,2
253129.140625,267837.9375,295359.625,333628.3125,277813.5,253633.296875,242700.265625,239162.515625,17033.0,1.0,2
253146.125,267739.3125,295236.875,333564.5625,277599.28125,253586.1875,242593.953125,239132.75,17034.0,1.0,2
252489.78125,267531.71875,294933.4375,333316.5625,277888.0625,253334.0625,242775.984375,238952.671875,17035.0,1.0,2
252048.203125,267489.25,294845.8125,333208.1875,278274.59375,253210.234375,242989.21875,238858.796875,17036.0,1.0,2
252438.921875,267672.0625,295094.8125,333393.53125,278229.96875,253382.609375,242942.28125,238993.71875,17037.0,1.0,2
253133.25,267851.15625,295364.71875,333620.46875,277836.84375,253622.21875,242709.640625,239178.703125,17038.0,1.0,2
253147.46875,267740.90625,295234.1875,333547.40625,277605.625,253563.46875,242586.625,239137.03125,17039.0,1.0,2
252475.84375,267510.875,294911.0625,333285.0,277866.53125,253293.640625,242755.953125,238938.734375,17040.0,1.0,2
252039.4375,267471.34375,294828.65625,333188.875,278260.46875,253178.125,242990.65625,238861.125,17041.0,1.0,2
252425.765625,267650.1875,295076.375,333376.03125,278220.125,253349.34375,242945.859375,238990.046875,17042.0,1.0,2
253110.625,267812.96875,295335.9375,333592.75,277815.125,253577.515625,242696.0625,239155.8125,17043.0,1.0,2
253137.1875,267705.78125,295212.8125,333527.75,277582.46875,253526.375,242575.890625,239119.328125,17044.0,1.0,2
252487.828125,267492.71875,294908.75,333283.125,277864.65625,253278.171875,242759.453125,238940.609375,17045.0,1.0,2
252040.78125,267448.8125,294819.25,333174.3125,278261.25,253153.453125,242982.703125,238849.5,17046.0,1.0,2
252418.625,267626.21875,295062.71875,333354.75,278227.375,253325.390625,242943.625,238980.84375,17047.0,1.0,2
253108.65625,267798.59375,295327.90625,333580.59375,277829.875,253566.15625,242704.28125,239160.28125,17048.0,1.0,2
253143.0,267700.6875,295211.5625,333519.15625,277593.3125,253520.296875,242577.765625,239127.375,17049.0,1.0,2
252502.03125,267496.84375,294912.96875,333274.71875,277870.90625,253278.09375,242760.15625,238949.640625,17050.0,1.0,2
252050.703125,267452.75,294820.96875,333162.875,278264.75,253159.09375,242991.546875,238860.40625,17051.0,1.0,2
252413.25,267625.40625,295053.40625,333335.25,278221.28125,253323.6875,242950.59375,238980.84375,17052.0,1.0,2
253107.40625,267804.5,295323.34375,333566.90625,277821.65625,253567.234375,242709.015625,239159.203125,17053.0,1.0,2
253142.09375,267696.03125,295201.125,333505.125,277573.28125,253523.25,242570.703125,239126.9375,17054.0,1.0,2
252500.875,267488.0625,294895.78125,333259.34375,277840.59375,253278.984375,242748.546875,238946.953125,17055.0,1.0,2
252045.25,267444.28125,294803.0625,333149.46875,278242.125,253162.671875,242979.03125,238858.53125,17056.0,1.0,2
252409.859375,267624.0625,295041.34375,333330.59375,278221.375,253338.796875,242951.046875,238991.84375,17057.0,1.0,2
253104.1875,267801.625,295307.0625,333556.25,277826.21875,253588.0625,242708.75,239166.453125,17058.0,1.0,2
253154.703125,267705.25,295194.21875,333500.90625,277583.28125,253557.671875,242578.21875,239137.5625,17059.0,1.0,2
252512.40625,267494.4375,294882.46875,333249.15625,277845.875,253308.046875,242745.59375,238949.546875,17060.0,1.0,2
252040.15625,267438.28125,294774.90625,333128.90625,278241.3125,253177.15625,242967.234375,238851.28125,17061.0,1.0,2
252383.9375,267599.84375,295003.0625,333299.46875,278215.84375,253340.859375,242933.96875,238971.359375,17062.0,1.0,2
253089.34375,267786.53125,295277.03125,333532.75,277825.125,253589.21875,242698.734375,239154.375,17063.0,1.0,2
253153.28125,267697.125,295169.09375,333481.25,277575.96875,253556.6875,242561.5,239130.6875,17064.0,1.0,2
252520.28125,267493.09375,294867.0,333239.40625,277843.0,253321.8125,242741.65625,238958.84375,17065.0,1.0,2
252049.546875,267442.5625,294765.53125,333119.96875,278245.96875,253196.015625,242973.9375,238862.640625,17066.0,1.0,2
252394.03125,267613.6875,294996.8125,333290.28125,278229.0625,253354.359375,242943.53125,238979.5,17067.0,1.0,2
253096.0625,267798.40625,295276.125,333526.84375,277843.65625,253606.296875,242712.15625,239168.765625,17068.0,1.0,2
253166.421875,267708.5625,295173.21875,333477.59375,277592.84375,253579.921875,242579.5625,239146.421875,17069.0,1.0,2
252524.296875,267488.96875,294859.9375,333223.03125,277844.8125,253329.765625,242746.578125,238957.0625,17070.0,1.0,2
252047.9375,267437.46875,294752.28125,333101.1875,278249.375,253195.5625,242978.5,238857.640625,17071.0,1.0,2
252382.40625,267605.75,294980.09375,333269.34375,278238.46875,253347.734375,242950.6875,238977.171875,17072.0,1.0,2
253085.78125,267791.25,295258.6875,333504.84375,277849.625,253593.15625,242715.453125,239160.1875,17073.0,1.0,2
253155.515625,267696.9375,295151.5,333450.65625,277584.09375,253559.625,242573.21875,239134.078125,17074.0,1.0,2
252509.90625,267473.59375,294833.90625,333193.8125,277826.46875,253304.375,242734.328125,238944.984375,17075.0,1.0,2
252025.5,267416.8125,294725.125,333070.34375,278229.96875,253168.65625,242965.796875,238843.953125,17076.0,1.0,2
252359.703125,267590.0,294950.78125,333238.0625,278220.9375,253323.59375,242945.859375,238964.203125,17077.0,1.0,2
253068.78125,267782.59375,295234.375,333478.03125,277833.0,253570.890625,242709.921875,239152.5,17078.0,1.0,2
253160.15625,267704.875,295145.9375,333438.6875,277575.5,253550.25,242568.65625,239141.234375,17079.0,1.0,2
252523.140625,267483.59375,294835.15625,333189.6875,277820.40625,253302.3125,242732.265625,238958.671875,17080.0,1.0,2
252043.5625,267435.40625,294729.3125,333069.0,278231.84375,253171.25,242973.3125,238858.984375,17081.0,1.0,2
252359.078125,267596.15625,294949.4375,333228.125,278228.34375,253320.734375,242948.984375,238970.640625,17082.0,1.0,2
253065.484375,267783.21875,295229.09375,333460.59375,277837.125,253570.625,242711.171875,239151.703125,17083.0,1.0,2
253166.59375,267703.625,295142.8125,333426.1875,277574.875,253559.625,242575.8125,239142.125,17084.0,1.0,2
252546.65625,267495.40625,294838.21875,333182.53125,277816.8125,253316.890625,242744.0625,238963.859375,17085.0,1.0,2
252052.671875,267433.09375,294723.21875,333053.71875,278220.40625,253173.578125,242975.90625,238858.984375,17086.0,1.0,2
252358.359375,267586.96875,294940.65625,333209.375,278219.875,253320.46875,242950.6875,238968.859375,17087.0,1.0,2
253059.125,267770.34375,295218.53125,333441.1875,277830.0625,253566.0625,242707.59375,239144.640625,17088.0,1.0,2
253176.96875,267706.0625,295140.21875,333413.9375,277571.21875,253555.421875,242565.96875,239140.4375,17089.0,1.0,2
252553.625,267489.40625,294830.25,333167.4375,277811.375,253311.078125,242721.0,238959.734375,17090.0,1.0,2
252044.90625,267419.0625,294706.6875,333032.5,278215.75,253167.765625,242950.78125,238851.46875,17091.0,1.0,2
252347.09375,267575.25,294923.25,333192.71875,278223.25,253319.75,242939.609375,238963.046875,17092.0,1.0,2
253046.4375,267756.75,295203.25,333429.3125,277835.5,253574.03125,242707.140625,239147.40625,17093.0,1.0,2
253153.984375,267673.40625,295118.40625,333394.96875,277559.6875,253560.96875,242554.265625,239135.515625,17094.0,1.0,2
252534.140625,267457.0625,294810.3125,333148.21875,277794.125,253321.984375,242711.4375,238953.84375,17095.0,1.0,2
252028.71875,267393.84375,294689.96875,333015.0,278203.9375,253185.640625,242954.625,238849.59375,17096.0,1.0,2
252320.8125,267552.09375,294898.03125,333169.84375,278211.625,253334.59375,242946.75,238963.046875,17097.0,1.0,2
253028.828125,267749.5,295181.34375,333409.0,277828.4375,253597.0,242717.78125,239148.296875,17098.0,1.0,2
253154.96875,267685.03125,295106.875,333385.40625,277558.0,253600.578125,242575.265625,239145.265625,17099.0,1.0,2
252535.46875,267466.875,294799.5,333139.8125,277792.21875,253359.1875,242730.21875,238965.90625,17100.0,1.0,2
252026.03125,267401.875,294680.0625,333006.5,278210.9375,253216.9375,242964.015625,238855.046875,17101.0,1.0,2
252326.265625,267572.21875,294897.5625,333166.09375,278241.9375,253366.328125,242956.140625,238966.984375,17102.0,1.0,2
253034.984375,267763.53125,295177.5,333399.625,277859.375,253610.765625,242714.390625,239148.125,17103.0,1.0,2
253150.78125,267675.03125,295086.84375,333360.09375,277562.0,253583.59375,242548.453125,239128.890625,17104.0,1.0,2
252541.90625,267460.8125,294780.28125,333116.75,277783.65625,253334.0625,242700.4375,238948.203125,17105.0,1.0,2
252033.359375,267397.59375,294661.71875,332984.78125,278199.3125,253186.453125,242943.265625,238842.890625,17106.0,1.0,2
252310.796875,267546.90625,294867.28125,333132.03125,278213.78125,253318.5,242937.453125,238948.75,17107.0,1.0,2
253030.609375,267746.90625,295163.125,333377.8125,277827.375,253569.640625,242714.03125,239138.28125,17108.0,1.0,2
253173.84375,267680.75,295093.46875,333353.40625,277531.625,253558.734375,242563.46875,239133.8125,17109.0,1.0,2
252579.28125,267476.71875,294797.8125,333115.03125,277759.96875,253321.09375,242724.125,238961.96875,17110.0,1.0,2
252058.84375,267405.8125,294676.65625,332974.84375,278180.4375,253170.53125,242971.34375,238853.703125,17111.0,1.0,2
252320.0,267548.96875,294875.21875,333113.0625,278203.6875,253291.59375,242962.671875,238953.84375,17112.0,1.0,2
253031.234375,267745.125,295168.65625,333353.65625,277830.0625,253548.015625,242730.921875,239142.484375,17113.0,1.0,2
253177.59375,267680.75,295107.3125,333336.21875,277549.3125,253556.328125,242573.5625,239146.328125,17114.0,1.0,2
252565.6875,267459.09375,294795.21875,333092.0625,277768.375,253310.0,242718.140625,238971.0,17115.0,1.0,2
252044.265625,267394.1875,294663.875,332949.1875,278191.0,253155.875,242955.421875,238854.0625,17116.0,1.0,2
252310.265625,267556.75,294870.84375,333096.53125,278229.4375,253296.6875,242964.375,238963.3125,17117.0,1.0,2
253015.671875,267753.71875,295158.90625,333335.59375,277844.8125,253556.234375,242741.203125,239156.25,17118.0,1.0,2
253170.4375,267689.0625,295091.15625,333313.875,277545.125,253559.8125,242577.953125,239155.453125,17119.0,1.0,2
252561.578125,267469.125,294775.0,333066.21875,277753.53125,253317.15625,242718.3125,238970.640625,17120.0,1.0,2
252029.875,267402.59375,294639.5625,332927.90625,278171.84375,253171.875,242966.25,238860.671875,17121.0,1.0,2
252292.109375,267567.28125,294841.53125,333078.03125,278208.40625,253314.390625,242972.765625,238966.359375,17122.0,1.0,2
253014.25,267784.625,295138.0,333326.3125,277835.25,253580.46875,242742.109375,239154.921875,17123.0,1.0,2
253188.59375,267740.90625,295085.0625,333320.3125,277545.90625,253603.171875,242584.296875,239163.765625,17124.0,1.0,2
252587.421875,267525.53125,294775.90625,333081.25,277752.4375,253365.890625,242724.125,238991.921875,17125.0,1.0,2
252049.1875,267452.03125,294639.28125,332939.875,278172.75,253217.921875,242971.609375,238885.078125,17126.0,1.0,2
252295.0625,267603.15625,294828.71875,333076.15625,278208.40625,253350.0625,242968.75,238974.671875,17127.0,1.0,2
253010.3125,267807.875,295123.96875,333321.5625,277834.78125,253615.328125,242735.390625,239158.046875,17128.0,1.0,2
253175.359375,267742.09375,295061.625,333307.1875,277526.15625,253623.734375,242560.96875,239163.046875,17129.0,1.0,2
252581.78125,267522.59375,294751.40625,333068.09375,277722.59375,253385.46875,242703.390625,238989.6875,17130.0,1.0,2
252042.84375,267446.25,294611.125,332921.75,278137.34375,253228.46875,242955.96875,238870.953125,17131.0,1.0,2
252280.9375,267588.9375,294802.34375,333057.90625,278180.0,253350.6875,242964.640625,238962.953125,17132.0,1.0,2
253002.890625,267797.4375,295109.8125,333309.9375,277816.375,253615.15625,242740.3125,239157.15625,17133.0,1.0,2
253190.921875,267750.40625,295067.0,333305.90625,277519.0,253633.390625,242577.0625,239172.890625,17134.0,1.0,2
252595.828125,267525.09375,294756.65625,333059.15625,277718.03125,253387.515625,242710.453125,238996.03125,17135.0,1.0,2
252055.984375,267450.625,294621.125,332910.75,278147.28125,253226.859375,242960.4375,238883.03125,17136.0,1.0,2
252285.3125,267592.5,294810.5,333041.71875,278200.28125,253340.765625,242968.484375,238978.15625,17137.0,1.0,2
253001.546875,267801.53125,295112.0625,333288.5625,277836.3125,253599.328125,242742.28125,239171.28125,17138.0,1.0,2
253195.5625,267760.5,295073.09375,333289.5625,277535.46875,253620.609375,242576.25,239182.625,17139.0,1.0,2
252602.796875,267538.6875,294769.375,333050.21875,277731.0,253381.0,242713.21875,239008.90625,17140.0,1.0,2
252056.34375,267462.6875,294630.0625,332900.09375,278155.5,253220.15625,242963.5625,238889.109375,17141.0,1.0,2
252284.859375,267611.28125,294820.875,333034.03125,278210.46875,253340.9375,242982.25,238984.6875,17142.0,1.0,2
253002.171875,267823.8125,295127.4375,333284.03125,277844.625,253606.75,242762.125,239175.5625,17143.0,1.0,2
253197.09375,267780.53125,295088.71875,333283.84375,277532.15625,253628.203125,242592.25,239186.296875,17144.0,1.0,2
252603.875,267553.875,294774.8125,333037.34375,277707.46875,253383.5,242716.53125,239002.03125,17145.0,1.0,2
252056.4375,267480.9375,294634.09375,332888.03125,278130.90625,253223.734375,242968.21875,238888.484375,17146.0,1.0,2
252279.140625,267632.75,294825.875,333020.625,278194.375,253343.453125,242982.15625,238983.25,17147.0,1.0,2
252999.3125,267849.375,295135.03125,333271.3125,277834.96875,253609.875,242753.90625,239168.5,17148.0,1.0,2
253203.171875,267805.46875,295099.46875,333271.84375,277521.875,253637.0625,242580.453125,239182.8125,17149.0,1.0,2
252622.921875,267582.65625,294795.21875,333031.4375,277701.9375,253402.90625,242712.328125,239011.953125,17150.0,1.0,2
252064.203125,267495.5,294643.21875,332869.25,278118.46875,253232.9375,242953.8125,238881.234375,17151.0,1.0,2
252270.734375,267633.4375,294824.09375,332992.1875,278181.6875,253342.109375,242969.203125,238966.265625,17152.0,1.0,2
252974.734375,267829.0625,295116.8125,333232.15625,277805.8125,253590.921875,242740.765625,239153.21875,17153.0,1.0,2
253193.328125,267786.78125,295083.8125,333240.21875,277484.65625,253617.75,242573.5625,239177.171875,17154.0,1.0,2
252630.78125,267573.5625,294785.8125,333008.1875,277667.96875,253386.265625,242715.09375,239016.421875,17155.0,1.0,2
252072.609375,267490.03125,294637.3125,332849.3125,278098.0,253219.078125,242966.609375,238889.203125,17156.0,1.0,2
252272.078125,267629.34375,294818.1875,332972.4375,278174.96875,253326.546875,242986.984375,238974.84375,17157.0,1.0,2
252981.34375,267829.15625,295112.875,333213.90625,277811.28125,253574.828125,242756.5,239161.984375,17158.0,1.0,2
253201.734375,267783.5625,295077.71875,333221.53125,277494.0625,253603.984375,242581.078125,239179.59375,17159.0,1.0,2
252639.8125,267572.5625,294776.25,332987.1875,277678.25,253371.875,242712.0625,239010.25,17160.0,1.0,2
252069.578125,267484.5,294621.3125,332827.15625,278111.59375,253209.96875,242968.65625,238884.90625,17161.0,1.0,2
252259.46875,267619.3125,294794.3125,332950.4375,278194.65625,253321.453125,242997.890625,238970.375,17162.0,1.0,2
252977.953125,267830.875,295094.8125,333199.15625,277838.09375,253581.359375,242776.796875,239163.40625,17163.0,1.0,2
253209.15625,267792.34375,295064.6875,333206.9375,277510.34375,253613.453125,242597.4375,239185.046875,17164.0,1.0,2
252646.078125,267574.625,294760.4375,332972.34375,277677.875,253385.015625,242722.875,239016.421875,17165.0,1.0,2
252072.96875,267488.78125,294604.3125,332813.1875,278103.8125,253219.890625,242971.078125,238887.3125,17166.0,1.0,2
252251.25,267619.78125,294774.46875,332930.6875,278185.0,253325.828125,242995.578125,238967.34375,17167.0,1.0,2
252962.296875,267823.625,295082.75,333183.96875,277835.9375,253590.03125,242772.953125,239158.140625,17168.0,1.0,2
253204.859375,267790.8125,295064.15625,333205.4375,277515.59375,253631.609375,242587.34375,239185.5,17169.0,1.0,2
252645.171875,267568.625,294757.65625,332968.3125,277676.1875,253399.234375,242698.46875,239015.34375,17170.0,1.0,2
252060.8125,267465.53125,294589.9375,332795.21875,278086.03125,253218.28125,242938.265625,238878.828125,17171.0,1.0,2
252243.296875,267603.3125,294771.78125,332919.25,278173.8125,253331.734375,242978.3125,238964.390625,17172.0,1.0,2
252965.078125,267820.75,295090.0625,333174.59375,277824.25,253600.40625,242762.3125,239157.6875,17173.0,1.0,2
253214.25,267788.84375,295073.15625,333189.34375,277487.8125,253637.765625,242577.0625,239181.640625,17174.0,1.0,2
252656.0,267562.1875,294765.25,332949.46875,277638.625,253397.09375,242692.65625,239012.40625,17175.0,1.0,2
252077.796875,267468.84375,294604.84375,332781.1875,278070.09375,253218.546875,242950.515625,238885.53125,17176.0,1.0,2
252239.53125,267592.3125,294767.5625,332887.3125,278166.03125,253307.328125,242980.8125,238957.0625,17177.0,1.0,2
252952.5625,267798.40625,295077.28125,333143.28125,277826.46875,253565.0,242765.890625,239155.71875,17178.0,1.0,2
253209.96875,267765.6875,295062.1875,333165.65625,277497.28125,253597.359375,242575.09375,239187.734375,17179.0,1.0,2
252653.765625,267534.375,294748.90625,332922.90625,277642.9375,253351.140625,242677.640625,239008.109375,17180.0,1.0,2
252076.640625,267445.6875,294588.21875,332757.15625,278074.3125,253175.625,242937.8125,238878.109375,17181.0,1.0,2
252220.3125,267560.0625,294742.625,332858.875,278165.9375,253262.796875,242973.75,238945.171875,17182.0,1.0,2
252927.34375,267764.15625,295049.3125,333112.25,277819.59375,253521.453125,242768.828125,239142.3125,17183.0,1.0,2
253196.90625,267738.15625,295037.40625,333137.84375,277482.25,253566.0625,242586.984375,239177.890625,17184.0,1.0,2
252668.25,267534.3125,294742.46875,332908.96875,277638.625,253340.9375,242700.796875,239013.109375,17185.0,1.0,2
252079.671875,267441.84375,294575.96875,332736.65625,278069.46875,253160.78125,242949.703125,238877.03125,17186.0,1.0,2
252225.5,267568.09375,294737.625,332851.375,278179.46875,253258.0625,242992.171875,238953.84375,17187.0,1.0,2
252932.078125,267775.625,295042.78125,333104.3125,277837.90625,253520.65625,242774.015625,239144.984375,17188.0,1.0,2
253197.796875,267746.375,295026.15625,333126.46875,277488.0625,253563.921875,242571.421875,239173.59375,17189.0,1.0,2
252662.875,267532.25,294722.34375,332896.53125,277631.65625,253340.671875,242672.28125,239007.125,17190.0,1.0,2
252076.109375,267443.71875,294554.96875,332726.21875,278063.3125,253172.953125,242925.75,238871.671875,17191.0,1.0,2
252211.28125,267565.6875,294712.59375,332831.71875,278172.03125,253268.25,242971.15625,238945.53125,17192.0,1.0,2
252920.640625,267778.65625,295024.34375,333087.15625,277828.0,253531.5625,242762.578125,239148.03125,17193.0,1.0,2
253202.0,267760.3125,295021.84375,333116.375,277475.5625,253582.609375,242571.421875,239183.53125,17194.0,1.0,2
252670.75,267544.5,294727.0,332890.90625,277612.96875,253360.96875,242682.203125,239023.578125,17195.0,1.0,2
252075.5625,267446.875,294556.3125,332719.84375,278044.71875,253185.90625,242936.734375,238885.890625,17196.0,1.0,2
252201.1875,267564.34375,294701.59375,332817.5,278153.71875,253271.296875,242981.53125,238949.1875,17197.0,1.0,2
252910.8125,267776.15625,295008.09375,333071.5,277815.5625,253534.328125,242769.546875,239143.03125,17198.0,1.0,2
253199.328125,267753.4375,295007.0,333107.4375,277473.5,253593.78125,242574.640625,239183.171875,17199.0,1.0,2
252674.328125,267533.0625,294709.8125,332883.5625,277616.5625,253376.078125,242676.125,239022.0625,17200.0,1.0,2
252085.75,267439.09375,294539.6875,332711.1875,278054.8125,253200.21875,242928.96875,238886.421875,17201.0,1.0,2
252208.328125,267556.46875,294688.90625,332810.59375,278174.96875,253288.546875,242985.921875,238954.734375,17202.0,1.0,2
252913.671875,267765.96875,294998.15625,333060.9375,277840.6875,253547.109375,242776.609375,239142.578125,17203.0,1.0,2
253198.25,267733.59375,294992.09375,333087.9375,277479.75,253594.765625,242573.484375,239180.390625,17204.0,1.0,2
252674.953125,267507.9375,294690.25,332858.0,277604.75,253370.890625,242672.8125,239015.890625,17205.0,1.0,2
252081.734375,267413.5,294518.125,332684.8125,278041.9375,253195.5625,242940.578125,238881.6875,17206.0,1.0,2
252200.015625,267537.53125,294666.625,332783.0625,278171.59375,253284.96875,243000.046875,238953.125,17207.0,1.0,2
252913.3125,267762.8125,294982.59375,333041.71875,277848.125,253559.1875,242797.4375,239150.625,17208.0,1.0,2
253203.4375,267740.5625,294983.0625,333074.1875,277489.40625,253617.484375,242589.578125,239184.78125,17209.0,1.0,2
252683.171875,267520.71875,294681.3125,332847.09375,277610.1875,253396.734375,242679.25,239021.25,17210.0,1.0,2
252080.390625,267423.0,294501.15625,332670.15625,278039.875,253213.8125,242933.4375,238879.453125,17211.0,1.0,2
252180.34375,267539.5,294642.21875,332761.0625,278167.65625,253289.625,242983.6875,238934.078125,17212.0,1.0,2
252889.890625,267765.6875,294961.59375,333019.90625,277846.40625,253559.1875,242779.921875,239131.484375,17213.0,1.0,2
253210.5,267765.78125,294983.3125,333068.53125,277501.21875,253635.8125,242584.921875,239184.859375,17214.0,1.0,2
252697.21875,267544.40625,294683.625,332840.125,277615.125,253416.40625,242675.765625,239022.328125,17215.0,1.0,2
252077.0,267429.59375,294492.03125,332649.125,278026.46875,253221.140625,242924.40625,238873.28125,17216.0,1.0,2
252167.203125,267539.5625,294630.96875,332738.625,278149.9375,253297.84375,242985.46875,238930.328125,17217.0,1.0,2
252868.421875,267753.96875,294942.0,332993.53125,277818.59375,253559.71875,242777.78125,239119.953125,17218.0,1.0,2
253201.734375,267761.03125,294964.375,333046.71875,277466.53125,253633.65625,242577.953125,239175.84375,17219.0,1.0,2
252705.703125,267550.21875,294676.28125,332829.5625,277586.40625,253421.9375,242674.78125,239024.109375,17220.0,1.0,2
252080.296875,267425.125,294484.4375,332639.03125,278008.6875,253226.40625,242921.625,238874.984375,17221.0,1.0,2
252160.40625,267525.28125,294615.9375,332724.6875,278146.90625,253295.078125,242980.109375,238928.890625,17222.0,1.0,2
252866.734375,267744.40625,294932.09375,332987.625,277831.65625,253556.953125,242781.359375,239128.625,17223.0,1.0,2
253193.6875,267738.25,294951.5625,333035.90625,277471.8125,253621.140625,242573.390625,239179.59375,17224.0,1.0,2
252701.140625,267526.34375,294659.84375,332814.375,277587.21875,253406.390625,242667.0,239024.109375,17225.0,1.0,2
252090.234375,267418.875,294474.9375,332630.8125,278024.78125,253217.375,242925.75,238879.90625,17226.0,1.0,2
252158.0,267515.0,294602.625,332710.28125,278165.40625,253283.09375,242988.953125,238931.484375,17227.0,1.0,2
252854.484375,267724.46875,294912.25,332964.84375,277843.28125,253540.953125,242790.734375,239127.828125,17228.0,1.0,2
253205.046875,267740.03125,294945.5,333024.5625,277490.40625,253625.25,242598.515625,239191.03125,17229.0,1.0,2
252701.953125,267512.5,294640.875,332791.21875,277586.3125,253396.28125,242666.46875,239021.15625,17230.0,1.0,2
252079.5,267394.03125,294451.53125,332605.3125,278016.1875,253204.15625,242922.703125,238878.296875,17231.0,1.0,2
252146.734375,267495.6875,294581.34375,332684.09375,278162.8125,253270.3125,242985.296875,238924.328125,17232.0,1.0,2
252851.96875,267722.21875,294901.0625,332941.0625,277849.90625,253535.765625,242783.59375,239117.09375,17233.0,1.0,2
253202.1875,267736.625,294942.28125,333004.625,277496.375,253623.828125,242582.515625,239182.984375,17234.0,1.0,2
252710.53125,267518.9375,294647.59375,332787.4375,277599.125,253410.953125,242663.15625,239031.265625,17235.0,1.0,2
252074.40625,267392.84375,294443.84375,332590.9375,278019.59375,253213.890625,242909.203125,238875.15625,17236.0,1.0,2
252123.125,267483.6875,294556.5,332658.4375,278156.46875,253267.984375,242963.203125,238909.84375,17237.0,1.0,2
252829.890625,267710.96875,294877.71875,332920.5625,277847.3125,253535.40625,242769.1875,239112.0,17238.0,1.0,2
253184.125,267718.9375,294913.75,332982.53125,277480.03125,253617.828125,242563.015625,239175.5625,17239.0,1.0,2
252698.46875,267500.25,294622.03125,332763.75,277569.25,253401.65625,242640.625,239020.453125,17240.0,1.0,2
252069.21875,267377.21875,294427.375,332572.875,277995.53125,253207.1875,242898.921875,238872.296875,17241.0,1.0,2
252127.0625,267480.75,294555.9375,332652.90625,278155.59375,253274.15625,242977.953125,238924.328125,17242.0,1.0,2
252830.875,267706.9375,294877.71875,332913.4375,277850.0,253543.09375,242788.328125,239124.25,17243.0,1.0,2
253197.71875,267724.75,294920.65625,332977.875,277487.1875,253632.234375,242582.328125,239185.9375,17244.0,1.0,2
252715.0,267503.53125,294625.78125,332755.25,277573.90625,253414.34375,242654.296875,239027.59375,17245.0,1.0,2
252080.03125,267376.5,294421.03125,332558.3125,277999.21875,253212.546875,242904.734375,238872.5625,17246.0,1.0,2
252118.65625,267464.84375,294537.34375,332628.21875,278160.9375,253268.875,242978.21875,238918.078125,17247.0,1.0,2
252808.875,267677.71875,294849.75,332880.34375,277850.15625,253528.078125,242782.609375,239111.015625,17248.0,1.0,2
253186.171875,267700.25,294898.28125,332953.03125,277486.5625,253622.125,242578.578125,239182.0,17249.0,1.0,2
252718.84375,267488.0,294610.3125,332738.71875,277573.71875,253411.65625,242649.921875,239026.609375,17250.0,1.0,2
252080.296875,267358.4375,294404.75,332538.90625,277996.96875,253205.40625,242906.96875,238870.15625,17251.0,1.0,2
252101.140625,267438.1875,294507.9375,332598.625,278149.875,253246.171875,242978.671875,238906.28125,17252.0,1.0,2
252799.046875,267663.6875,294830.34375,332860.9375,277850.4375,253512.6875,242789.046875,239106.90625,17253.0,1.0,2
253177.859375,267681.46875,294880.9375,332934.0625,277483.6875,253607.375,242578.578125,239174.859375,17254.0,1.0,2
252722.875,267475.90625,294596.0,332722.1875,277568.71875,253401.109375,242650.1875,239024.65625,17255.0,1.0,2
252081.5625,267348.6875,294390.1875,332522.96875,277993.40625,253198.25,242904.203125,238870.0625,17256.0,1.0,2
252101.140625,267436.9375,294497.125,332582.25,278154.34375,253242.953125,242976.96875,238903.5,17257.0,1.0,2
252799.3125,267664.5625,294822.5625,332844.84375,277857.5,253509.65625,242790.375,239105.203125,17258.0,1.0,2
253177.5,267680.5625,294871.1875,332914.21875,277478.5,253601.390625,242575.265625,239174.671875,17259.0,1.0,2
252719.03125,267466.53125,294582.6875,332701.875,277552.71875,253395.390625,242644.828125,239027.15625,17260.0,1.0,2
252080.484375,267343.3125,294375.71875,332503.75,277980.34375,253191.546875,242897.21875,238873.109375,17261.0,1.0,2
252102.203125,267440.78125,294483.875,332563.84375,278153.09375,253236.421875,242975.28125,238906.453125,17262.0,1.0,2
252791.09375,267664.46875,294802.8125,332819.90625,277855.96875,253499.109375,242788.328125,239101.984375,17263.0,1.0,2
253179.03125,267685.65625,294859.5,332899.46875,277480.46875,253599.328125,242579.5625,239179.140625,17264.0,1.0,2
252735.65625,267482.34375,294579.5625,332696.6875,277553.59375,253398.4375,242650.1875,239036.625,17265.0,1.0,2
252092.375,267354.875,294366.78125,332493.75,277974.625,253185.828125,242892.75,238871.40625,17266.0,1.0,2
252096.484375,267436.75,294470.21875,332552.65625,278153.0,253226.5,242976.265625,238902.78125,17267.0,1.0,2
252781.171875,267653.75,294791.71875,332815.15625,277863.75,253490.609375,242792.078125,239102.96875,17268.0,1.0,2
253184.65625,267686.65625,294856.34375,332899.03125,277491.03125,253593.34375,242579.109375,239182.453125,17269.0,1.0,2
252740.84375,267473.59375,294569.4375,332688.65625,277552.1875,253387.609375,242638.5625,239036.984375,17270.0,1.0,2
252087.015625,267332.59375,294345.65625,332477.46875,277963.0,253171.6875,242882.375,238869.4375,17271.0,1.0,2
252085.3125,267413.78125,294448.5625,332536.3125,278146.65625,253219.4375,242974.109375,238904.21875,17272.0,1.0,2
252770.171875,267637.84375,294768.21875,332791.375,277852.3125,253477.203125,242784.484375,239097.421875,17273.0,1.0,2
253181.703125,267671.4375,294839.71875,332879.0,277477.6875,253584.390625,242570.171875,239180.484375,17274.0,1.0,2
252737.53125,267451.25,294553.34375,332669.875,277532.59375,253380.1875,242628.734375,239036.1875,17275.0,1.0,2
252083.875,267312.75,294332.0625,332460.5625,277948.78125,253168.5625,242878.8125,238871.40625,17276.0,1.0,2
252079.5,267401.625,294432.21875,332517.625,278136.90625,253211.65625,242975.640625,238905.296875,17277.0,1.0,2
252759.625,267623.25,294752.8125,332775.75,277850.875,253474.96875,242796.375,239103.59375,17278.0,1.0,2
253158.640625,267643.46875,294810.03125,332850.65625,277456.6875,253573.046875,242569.546875,239174.765625,17279.0,1.0,2
252721.265625,267427.375,294519.65625,332641.71875,277501.40625,253368.921875,242617.921875,239026.4375,17280.0,1.0,2
252079.859375,267305.5,294308.5625,332445.65625,277931.53125,253173.84375,242881.390625,238875.34375,17281.0,1.0,2
252073.953125,267402.59375,294413.625,332507.96875,278136.1875,253224.359375,242989.578125,238916.828125,17282.0,1.0,2
252747.8125,267621.375,294729.59375,332760.375,277845.96875,253481.40625,242803.4375,239108.15625,17283.0,1.0,2
253171.609375,267662.875,294809.34375,332848.4375,277462.84375,253595.21875,242582.0625,239184.859375,17284.0,1.0,2
252743.078125,267453.3125,294533.875,332646.8125,277515.875,253403.265625,242636.953125,239042.625,17285.0,1.0,2
252090.40625,267323.375,294313.75,332438.9375,277937.34375,253195.296875,242891.953125,238885.078125,17286.0,1.0,2
252064.921875,267404.40625,294401.46875,332484.09375,278130.1875,253225.875,242985.921875,238910.203125,17287.0,1.0,2
252747.734375,267630.15625,294728.59375,332750.15625,277855.09375,253492.390625,242810.046875,239113.875,17288.0,1.0,2
253180.1875,267673.875,294813.8125,332847.25,277475.03125,253615.515625,242591.984375,239203.28125,17289.0,1.0,2
252762.390625,267467.5,294531.0,332640.28125,277517.46875,253421.3125,242633.03125,239055.046875,17290.0,1.0,2
252101.671875,267324.375,294299.96875,332426.25,277935.09375,253206.921875,242882.65625,238891.078125,17291.0,1.0,2
252074.40625,267409.3125,294395.46875,332478.09375,278145.21875,253246.34375,242992.890625,238923.890625,17292.0,1.0,2
252752.90625,267639.53125,294724.125,332741.3125,277878.25,253516.265625,242822.296875,239124.34375,17293.0,1.0,2
253193.0625,267688.4375,294808.875,332833.125,277494.59375,253632.765625,242596.90625,239203.109375,17294.0,1.0,2
252781.515625,267482.1875,294527.53125,332625.71875,277528.5625,253434.1875,242636.0625,239056.203125,17295.0,1.0,2
252105.78125,267323.9375,294290.9375,332404.53125,277935.65625,253209.78125,242878.453125,238883.203125,17296.0,1.0,2
252050.890625,267384.28125,294368.09375,332440.90625,278131.4375,253226.59375,242978.765625,238898.046875,17297.0,1.0,2
252723.859375,267609.125,294686.03125,332697.3125,277851.5,253478.546875,242804.859375,239091.078125,17298.0,1.0,2
253164.984375,267653.65625,294772.6875,332793.0,277458.03125,253594.140625,242573.921875,239173.59375,17299.0,1.0,2
252749.515625,267434.875,294489.0,332584.40625,277478.40625,253394.234375,242607.453125,239021.515625,17300.0,1.0,2
252081.203125,267284.40625,294254.125,332371.15625,277890.21875,253176.078125,242857.796875,238857.28125,17301.0,1.0,2
252043.109375,267368.71875,294348.15625,332421.875,278113.375,253208.53125,242975.71875,238890.8125,17302.0,1.0,2
252721.625,267605.65625,294679.59375,332689.09375,277857.15625,253479.515625,242815.765625,239095.28125,17303.0,1.0,2
253176.796875,267666.4375,294778.5625,332794.6875,277475.8125,253613.453125,242595.75,239190.3125,17304.0,1.0,2
252772.5,267455.0,294500.15625,332591.1875,277500.3125,253419.890625,242626.671875,239048.4375,17305.0,1.0,2
252101.765625,267304.875,294257.59375,332366.0625,277906.5,253193.6875,242867.1875,238874.0,17306.0,1.0,2
252045.796875,267380.78125,294338.6875,332406.125,278128.59375,253219.265625,242983.40625,238891.796875,17307.0,1.0,2
252715.359375,267613.78125,294667.875,332668.53125,277870.5625,253484.703125,242823.8125,239089.734375,17308.0,1.0,2
253171.96875,267669.46875,294766.78125,332772.96875,277475.5625,253609.96875,242596.28125,239180.484375,17309.0,1.0,2
252780.8125,267466.34375,294493.0,332575.28125,277489.3125,253416.140625,242626.234375,239040.65625,17310.0,1.0,2
252107.21875,267314.0,294257.15625,332360.71875,277901.125,253198.78125,242880.765625,238876.953125,17311.0,1.0,2
252038.734375,267380.78125,294335.46875,332398.53125,278124.5625,253219.796875,242996.375,238892.234375,17312.0,1.0,2
252716.25,267618.25,294666.375,332661.84375,277873.9375,253483.640625,242830.34375,239089.5625,17313.0,1.0,2
253182.328125,267674.3125,294769.375,332770.1875,277483.96875,253614.609375,242600.84375,239188.796875,17314.0,1.0,2
252788.234375,267456.34375,294492.65625,332571.0,277492.71875,253424.0,242626.234375,239054.515625,17315.0,1.0,2
252117.3125,267304.625,294256.78125,332356.34375,277910.0625,253206.46875,242878.71875,238893.21875,17316.0,1.0,2
252042.21875,267374.1875,294327.96875,332388.4375,278141.375,253220.953125,242993.421875,238901.625,17317.0,1.0,2
252699.265625,267596.96875,294645.53125,332643.78125,277887.71875,253477.828125,242824.984375,239088.9375,17318.0,1.0,2
253160.25,267647.125,294745.75,332750.625,277492.28125,253609.96875,242595.390625,239182.28125,17319.0,1.0,2
252777.671875,267436.75,294472.96875,332554.625,277497.625,253422.390625,242620.859375,239045.125,17320.0,1.0,2
252105.34375,267286.09375,294231.3125,332337.03125,277906.5,253198.421875,242872.015625,238878.5625,17321.0,1.0,2
252018.96875,267350.375,294292.8125,332361.25,278127.59375,253206.390625,242993.78125,238890.8125,17322.0,1.0,2
252673.78125,267574.96875,294611.46875,332615.625,277871.1875,253462.71875,242834.546875,239084.546875,17323.0,1.0,2
253143.796875,267632.28125,294712.78125,332722.4375,277468.84375,253590.65625,242595.46875,239177.984375,17324.0,1.0,2
252774.90625,267432.03125,294442.125,332531.03125,277471.8125,253404.953125,242611.84375,239040.65625,17325.0,1.0,2
252104.359375,267280.65625,294202.09375,332314.21875,277886.1875,253180.09375,242857.609375,238873.640625,17326.0,1.0,2
252012.890625,267344.59375,294268.6875,332344.0,278128.125,253188.0625,242975.984375,238885.0,17327.0,1.0,2
252661.8125,267566.5625,294591.34375,332598.71875,277887.0,253444.5625,242809.421875,239075.4375,17328.0,1.0,2
253140.84375,267627.0,294701.96875,332713.25,277491.8125,253580.90625,242573.21875,239175.296875,17329.0,1.0,2
252781.34375,267429.15625,294436.9375,332524.5,277489.59375,253394.59375,242589.21875,239045.75,17330.0,1.0,2
252110.96875,267276.71875,294197.59375,332302.875,277893.0,253168.03125,242840.1875,238874.359375,17331.0,1.0,2
252015.484375,267340.8125,294270.65625,332331.90625,278133.78125,253175.71875,242973.84375,238885.078125,17332.0,1.0,2
252662.171875,267562.09375,294593.6875,332583.25,277879.84375,253423.375,242816.484375,239074.1875,17333.0,1.0,2
253158.90625,267634.96875,294719.75,332704.03125,277481.375,253568.21875,242594.484375,239176.734375,17334.0,1.0,2
252804.953125,267438.1875,294463.5,332517.0,277474.21875,253390.5625,242620.421875,239048.4375,17335.0,1.0,2
252128.40625,267282.875,294218.09375,332290.34375,277879.65625,253158.109375,242869.328125,238877.390625,17336.0,1.0,2
252018.34375,267341.53125,294273.15625,332307.5,278125.09375,253155.515625,242993.421875,238881.859375,17337.0,1.0,2
252668.875,267573.71875,294597.78125,332565.625,277894.96875,253411.3125,242836.609375,239076.328125,17338.0,1.0,2
253165.078125,267645.0625,294719.75,332689.5625,277503.96875,253557.21875,242604.6875,239183.4375,17339.0,1.0,2
252824.890625,267459.75,294465.125,332513.25,277504.78125,253388.421875,242624.703125,239065.515625,17340.0,1.0,2
252137.34375,267299.4375,294208.78125,332281.21875,277908.5625,253152.828125,242864.140625,238890.09375,17341.0,1.0,2
251996.171875,267336.4375,294243.125,332279.53125,278137.0625,253139.328125,242979.03125,238878.203125,17342.0,1.0,2
252638.46875,267565.25,294563.09375,332535.78125,277896.46875,253401.203125,242828.734375,239069.703125,17343.0,1.0,2
253150.328125,267651.0625,294693.8125,332666.65625,277499.5,253565.625,242605.578125,239182.984375,17344.0,1.0,2
252818.09375,267473.40625,294441.34375,332490.0,277486.0,253409.703125,242629.453125,239068.453125,17345.0,1.0,2
252136.890625,267320.96875,294189.21875,332266.65625,277888.15625,253194.671875,242885.328125,238901.984375,17346.0,1.0,2
252005.46875,267377.3125,294235.0625,332280.4375,278136.53125,253202.890625,243020.0625,238899.21875,17347.0,1.0,2
252648.125,267616.03125,294557.21875,332538.0,277903.1875,253467.28125,242865.21875,239092.953125,17348.0,1.0,2
253162.21875,267706.59375,294691.59375,332671.3125,277506.65625,253636.34375,242629.1875,239206.40625,17349.0,1.0,2
252830.875,267520.09375,294436.5,332495.09375,277491.1875,253482.109375,242635.0,239084.1875,17350.0,1.0,2
252146.109375,267356.46875,294175.625,332265.3125,277888.4375,253253.328125,242865.578125,238903.765625,17351.0,1.0,2
252003.6875,267403.0625,294214.59375,332272.8125,278137.0,253250.015625,242988.78125,238897.15625,17352.0,1.0,2
252647.59375,267640.15625,294539.9375,332535.6875,277914.53125,253517.515625,242839.015625,239091.25,17353.0,1.0,2
253163.375,267722.875,294674.9375,332667.65625,277510.15625,253672.546875,242600.75,239203.109375,17354.0,1.0,2
252837.84375,267530.8125,294424.15625,332491.78125,277484.03125,253509.03125,242608.796875,239083.296875,17355.0,1.0,2
252158.0,267369.15625,294173.375,332266.21875,277881.09375,253284.703125,242859.671875,238915.390625,17356.0,1.0,2
252016.921875,267420.84375,294219.25,332274.34375,278132.0625,253277.375,243002.453125,238913.78125,17357.0,1.0,2
252640.796875,267640.34375,294533.5,332517.8125,277894.96875,253517.96875,242840.984375,239091.171875,17358.0,1.0,2
253162.3125,267720.96875,294675.84375,332650.84375,277488.78125,253670.234375,242607.09375,239203.828125,17359.0,1.0,2
252853.765625,267538.40625,294437.125,332485.25,277466.4375,253507.15625,242621.671875,239093.765625,17360.0,1.0,2
252167.828125,267371.59375,294180.1875,332254.5,277865.625,253267.984375,242867.1875,238919.328125,17361.0,1.0,2
252019.78125,267419.5,294225.9375,332260.40625,278138.0625,253253.6875,243008.890625,238913.609375,17362.0,1.0,2
252655.546875,267653.65625,294554.96875,332515.125,277930.0,253502.234375,242863.515625,239103.421875,17363.0,1.0,2
253179.921875,267737.0625,294700.6875,332650.46875,277532.59375,253653.0625,242623.90625,239218.03125,17364.0,1.0,2
252859.125,267537.25,294446.53125,332469.59375,277492.09375,253475.40625,242613.796875,239092.515625,17365.0,1.0,2
252165.328125,267364.53125,294180.625,332231.96875,277880.375,253227.484375,242850.015625,238908.953125,17366.0,1.0,2
251998.9375,267404.3125,294214.5,332230.34375,278139.125,253204.5,242995.84375,238900.640625,17367.0,1.0,2
252615.140625,267625.0625,294531.90625,332480.4375,277912.125,253448.59375,242854.3125,239087.328125,17368.0,1.0,2
253147.90625,267717.5,294677.28125,332619.8125,277498.09375,253604.328125,242613.0,239202.390625,17369.0,1.0,2
252858.234375,267548.96875,294440.71875,332456.03125,277458.75,253448.234375,242615.765625,239088.75,17370.0,1.0,2
252172.921875,267387.125,294183.3125,332225.09375,277849.28125,253215.421875,242860.296875,238910.921875,17371.0,1.0,2
252003.234375,267430.15625,294221.75,332223.03125,278117.3125,253200.21875,243003.625,238900.1875,17372.0,1.0,2
252616.296875,267652.75,294540.65625,332467.71875,277899.0625,253445.015625,242855.109375,239085.359375,17373.0,1.0,2
253153.71875,267743.59375,294691.21875,332606.65625,277485.21875,253602.09375,242608.4375,239199.265625,17374.0,1.0,2
252859.390625,267557.53125,294451.6875,332440.8125,277438.90625,253443.21875,242596.28125,239086.078125,17375.0,1.0,2
252177.578125,267393.40625,294191.34375,332209.875,277829.78125,253209.515625,242836.96875,238911.640625,17376.0,1.0,2
252008.875,267435.59375,294231.125,332212.28125,278110.53125,253197.265625,242992.265625,238906.28125,17377.0,1.0,2
252631.3125,267665.09375,294558.71875,332468.53125,277911.3125,253455.65625,242862.09375,239102.796875,17378.0,1.0,2
253176.25,267759.0625,294712.15625,332610.59375,277503.8125,253619.4375,242622.390625,239221.703125,17379.0,1.0,2
252885.5,267570.875,294469.75,332441.8125,277450.59375,253461.828125,242618.984375,239110.125,17380.0,1.0,2
252199.578125,267401.4375,294203.34375,332205.40625,277836.9375,253225.515625,242866.015625,238930.859375,17381.0,1.0,2
252020.40625,267439.34375,294233.46875,332197.53125,278118.21875,253205.484375,243015.234375,238910.75,17382.0,1.0,2
252627.5625,267656.53125,294547.8125,332440.71875,277914.4375,253445.90625,242871.75,239092.59375,17383.0,1.0,2
253166.0625,267739.125,294694.53125,332579.125,277501.21875,253606.125,242627.390625,239209.546875,17384.0,1.0,2
252881.921875,267549.40625,294449.1875,332411.75,277442.375,253452.703125,242613.453125,239099.578125,17385.0,1.0,2
252199.03125,267381.0625,294179.09375,332176.96875,277833.1875,253220.421875,242857.53125,238929.34375,17386.0,1.0,2
252012.71875,267420.125,294203.59375,332170.53125,278126.625,253204.859375,243020.34375,238918.515625,17387.0,1.0,2
252611.921875,267638.09375,294512.40625,332412.21875,277925.8125,253450.828125,242879.78125,239089.828125,17388.0,1.0,2
253160.25,267732.25,294667.625,332555.625,277509.53125,253619.4375,242631.328125,239204.171875,17389.0,1.0,2
252886.671875,267550.03125,294425.15625,332392.4375,277437.1875,253467.359375,242613.796875,239093.9375,17390.0,1.0,2
252200.90625,267381.3125,294159.0625,332165.09375,277825.3125,253238.84375,242859.40625,238925.5,17391.0,1.0,2
252000.015625,267414.0625,294179.0,332152.75,278113.1875,253212.546875,243010.59375,238902.25,17392.0,1.0,2
252607.53125,267645.6875,294494.8125,332398.53125,277919.46875,253459.765625,242881.484375,239087.328125,17393.0,1.0,2
253152.03125,267730.1875,294644.90625,332537.90625,277495.40625,253623.015625,242626.671875,239198.71875,17394.0,1.0,2
252880.859375,267543.0625,294407.0,332376.28125,277418.59375,253473.890625,242594.3125,239082.671875,17395.0,1.0,2
252191.796875,267369.15625,294137.875,332139.4375,277795.71875,253238.84375,242824.53125,238901.53125,17396.0,1.0,2
251988.75,267403.5,294158.28125,332123.15625,278075.65625,253206.75,242982.515625,238882.140625,17397.0,1.0,2
252587.328125,267627.71875,294479.40625,332371.96875,277879.03125,253451.71875,242859.21875,239068.375,17398.0,1.0,2
253156.578125,267735.65625,294653.9375,332527.1875,277470.625,253625.53125,242616.9375,239196.125,17399.0,1.0,2
252902.9375,267558.71875,294425.875,332369.21875,277402.40625,253471.828125,242595.03125,239093.3125,17400.0,1.0,2
252209.59375,267376.75,294151.125,332128.53125,277785.0,253219.171875,242826.953125,238910.75,17401.0,1.0,2
251994.734375,267401.71875,294168.8125,332115.03125,278092.1875,253181.34375,242985.375,238890.625,17402.0,1.0,2
252569.1875,267602.34375,294469.40625,332350.875,277903.28125,253407.8125,242844.65625,239063.90625,17403.0,1.0,2
253148.265625,267713.5625,294645.34375,332514.21875,277505.0625,253587.96875,242611.125,239204.265625,17404.0,1.0,2
252903.109375,267539.5,294422.5625,332365.90625,277434.4375,253445.90625,242598.96875,239113.703125,17405.0,1.0,2
252216.296875,267366.21875,294153.8125,332128.4375,277818.59375,253208.0,242844.65625,238938.375,17406.0,1.0,2
251986.34375,267385.78125,294158.28125,332094.53125,278111.0625,253156.40625,243001.109375,238901.625,17407.0,1.0,2
252548.171875,267580.15625,294450.28125,332319.3125,277911.59375,253373.9375,242868.171875,239067.125,17408.0,1.0,2
253114.65625,267675.5625,294615.3125,332471.84375,277498.0,253547.296875,242626.5,239192.109375,17409.0,1.0,2
252881.21875,267507.5625,294389.03125,332321.375,277418.59375,253405.140625,242597.171875,239095.015625,17410.0,1.0,2
252194.125,267332.59375,294112.03125,332082.84375,277792.59375,253159.53125,242825.875,238912.71875,17411.0,1.0,2
251970.875,267365.6875,294125.53125,332069.875,278104.4375,253127.34375,242996.015625,238889.828125,17412.0,1.0,2
252553.265625,267587.84375,294438.90625,332322.53125,277935.5625,253373.484375,242874.78125,239079.28125,17413.0,1.0,2
253130.203125,267696.9375,294613.34375,332484.1875,277522.03125,253553.640625,242615.765625,239203.28125,17414.0,1.0,2
252891.671875,267522.78125,294385.625,332328.15625,277425.3125,253412.46875,242575.53125,239091.609375,17415.0,1.0,2
252190.71875,267332.78125,294102.84375,332078.625,277782.84375,253161.59375,242796.28125,238900.828125,17416.0,1.0,2
251961.21875,267364.53125,294113.9375,332057.25,278086.46875,253125.828125,242967.59375,238877.671875,17417.0,1.0,2
252539.671875,267587.40625,294425.0625,332299.375,277908.09375,253372.140625,242854.484375,239062.109375,17418.0,1.0,2
253125.296875,267700.96875,294609.96875,332466.75,277492.71875,253567.046875,242619.703125,239202.484375,17419.0,1.0,2
252903.65625,267535.03125,294393.84375,332317.96875,277392.5,253434.015625,242588.5,239105.734375,17420.0,1.0,2
252216.65625,267357.0,294116.15625,332074.34375,277757.09375,253192.171875,242820.6875,238926.390625,17421.0,1.0,2
251975.515625,267379.90625,294121.0625,332046.09375,278072.96875,253151.3125,242991.1875,238901.796875,17422.0,1.0,2
252538.15625,267588.03125,294419.78125,332277.65625,277902.84375,253383.046875,242864.234375,239071.234375,17423.0,1.0,2
253131.375,267704.53125,294602.8125,332447.0,277499.875,253576.625,242620.859375,239208.375,17424.0,1.0,2
252910.890625,267528.59375,294381.4375,332301.96875,277408.9375,253447.609375,242582.953125,239114.859375,17425.0,1.0,2
252222.1875,267345.5625,294099.4375,332062.28125,277785.71875,253210.9375,242810.59375,238933.1875,17426.0,1.0,2
251977.578125,267369.625,294100.96875,332036.25,278108.5625,253171.609375,242990.390625,238902.96875,17427.0,1.0,2
252543.4375,267586.59375,294399.65625,332269.5,277942.34375,253408.171875,242880.234375,239077.046875,17428.0,1.0,2
253132.53125,267697.28125,294578.21875,332430.90625,277523.21875,253595.84375,242633.390625,239209.625,17429.0,1.0,2
252917.328125,267521.6875,294357.75,332283.8125,277412.0625,253462.0,242590.203125,239114.40625,17430.0,1.0,2
252232.75,267342.78125,294080.5,332042.15625,277773.46875,253221.046875,242819.078125,238932.828125,17431.0,1.0,2
251967.46875,267352.625,294069.65625,331998.0625,278077.96875,253165.25,242988.328125,238892.328125,17432.0,1.0,2
252522.78125,267565.0625,294367.9375,332231.96875,277909.4375,253395.296875,242874.25,239063.546875,17433.0,1.0,2
253118.5,267681.09375,294553.625,332404.34375,277492.1875,253590.03125,242626.59375,239203.109375,17434.0,1.0,2
252920.375,267520.53125,294345.84375,332269.59375,277388.8125,253470.671875,242580.1875,239110.125,17435.0,1.0,2
252225.5,267331.875,294066.53125,332028.75,277757.71875,253234.375,242806.828125,238923.4375,17436.0,1.0,2
251951.46875,267343.5,294051.875,331986.53125,278072.6875,253180.453125,242976.265625,238882.21875,17437.0,1.0,2
252509.09375,267568.53125,294354.59375,332221.5,277913.75,253411.390625,242862.984375,239056.390625,17438.0,1.0,2
253124.21875,267704.96875,294559.78125,332404.78125,277507.46875,253615.6875,242625.421875,239205.34375,17439.0,1.0,2
252926.625,267536.8125,294347.53125,332259.9375,277385.96875,253486.59375,242573.125,239107.265625,17440.0,1.0,2
252222.375,267333.40625,294055.625,332005.59375,277730.1875,253233.296875,242792.703125,238916.28125,17441.0,1.0,2
251949.6875,267346.90625,294050.71875,331969.5625,278052.9375,253179.734375,242975.640625,238880.96875,17442.0,1.0,2
252497.125,267557.375,294352.1875,332203.34375,277898.8125,253407.734375,242871.03125,239056.484375,17443.0,1.0,2
253114.921875,267686.1875,294552.28125,332382.78125,277489.15625,253602.546875,242630.34375,239203.28125,17444.0,1.0,2
252934.671875,267525.4375,294345.65625,332248.78125,277370.78125,253476.484375,242579.203125,239117.0,17445.0,1.0,2
252246.59375,267337.25,294064.125,332006.84375,277733.75,253230.96875,242805.3125,238937.65625,17446.0,1.0,2
251961.296875,267342.6875,294047.5,331962.125,278065.375,253164.625,242982.875,238896.4375,17447.0,1.0,2
252499.171875,267549.5,294342.4375,332189.9375,277918.84375,253384.65625,242876.390625,239066.21875,17448.0,1.0,2
253112.421875,267674.03125,294543.875,332368.9375,277511.21875,253579.921875,242630.078125,239208.734375,17449.0,1.0,2
252939.765625,267519.0,294342.96875,332239.125,277394.375,253459.671875,242578.75,239122.8125,17450.0,1.0,2
252245.625,267326.78125,294057.5,331993.34375,277753.15625,253210.765625,242803.53125,238938.90625,17451.0,1.0,2
251952.546875,267329.65625,294036.6875,331943.4375,278081.28125,253144.34375,242986.71875,238892.421875,17452.0,1.0,2
252481.828125,267534.03125,294322.34375,332163.84375,277928.3125,253362.3125,242880.6875,239052.8125,17453.0,1.0,2
253106.703125,267673.15625,294532.25,332350.6875,277521.875,253573.671875,242645.0,239207.125,17454.0,1.0,2
252941.109375,267519.0,294334.40625,332225.96875,277396.875,253462.984375,242587.515625,239128.265625,17455.0,1.0,2
252237.296875,267316.15625,294031.84375,331969.09375,277733.59375,253203.171875,242795.921875,238932.5625,17456.0,1.0,2
251929.03125,267309.96875,293998.21875,331910.28125,278053.3125,253132.796875,242970.09375,238874.53125,17457.0,1.0,2
252459.75,267518.75,294290.15625,332140.59375,277909.625,253359.625,242869.0625,239046.640625,17458.0,1.0,2
253085.6875,267652.3125,294500.53125,332330.3125,277502.09375,253571.34375,242624.4375,239202.125,17459.0,1.0,2
252929.046875,267498.625,294302.46875,332205.0625,277369.78125,253463.34375,242562.21875,239124.609375,17460.0,1.0,2
252245.53125,267312.3125,294012.625,331959.28125,277717.40625,253221.21875,242776.171875,238935.953125,17461.0,1.0,2
251937.609375,267313.8125,293987.875,331906.0,278053.03125,253162.84375,242960.96875,238882.40625,17462.0,1.0,2
252450.359375,267511.875,294274.6875,332125.65625,277912.3125,253383.765625,242853.859375,239039.140625,17463.0,1.0,2
253078.796875,267648.375,294482.375,332309.65625,277495.9375,253594.234375,242604.6875,239185.5,17464.0,1.0,2
252937.359375,267503.8125,294293.1875,332193.0625,277360.5,253497.21875,242546.75,239110.921875,17465.0,1.0,2
252251.078125,267308.90625,294005.28125,331950.34375,277707.75,253259.5,242772.140625,238934.171875,17466.0,1.0,2
251932.875,267300.15625,293973.1875,331892.3125,278043.09375,253191.359375,242959.890625,238883.46875,17467.0,1.0,2
252443.921875,267498.34375,294252.3125,332106.4375,277901.75,253403.796875,242855.734375,239038.6875,17468.0,1.0,2
253080.859375,267637.9375,294470.84375,332297.59375,277495.65625,253618.1875,242611.5625,239192.828125,17469.0,1.0,2
252942.8125,267485.40625,294283.78125,332179.84375,277362.4375,253516.53125,242550.234375,239120.21875,17470.0,1.0,2
252259.5625,267289.25,293989.28125,331930.125,277709.96875,253269.234375,242766.15625,238932.65625,17471.0,1.0,2
251941.453125,267286.375,293959.34375,331874.34375,278059.125,253200.484375,242964.28125,238885.4375,17472.0,1.0,2
252446.25,267486.125,294241.875,332090.0,277932.875,253410.046875,242869.6875,239044.40625,17473.0,1.0,2
253082.734375,267627.1875,294460.03125,332278.8125,277523.65625,253620.15625,242625.421875,239198.015625,17474.0,1.0,2
252959.625,267488.34375,294275.9375,332160.71875,277378.375,253516.265625,242561.140625,239126.578125,17475.0,1.0,2
252271.453125,267288.625,293981.6875,331913.6875,277719.46875,253267.1875,242780.375,238942.65625,17476.0,1.0,2
251938.6875,267277.15625,293946.03125,331850.90625,278064.9375,253186.71875,242976.53125,238886.15625,17477.0,1.0,2
252445.625,267483.96875,294234.1875,332071.375,277942.625,253396.828125,242884.890625,239045.03125,17478.0,1.0,2
253093.375,267637.03125,294461.71875,332269.25,277535.1875,253612.65625,242644.828125,239205.34375,17479.0,1.0,2
252966.59375,267490.84375,294277.90625,332152.3125,277381.0625,253508.84375,242572.140625,239134.171875,17480.0,1.0,2
252266.984375,267278.875,293975.625,331896.96875,277708.46875,253250.375,242780.28125,238944.265625,17481.0,1.0,2
251922.046875,267262.59375,293928.84375,331824.53125,278047.03125,253161.5,242963.65625,238875.609375,17482.0,1.0,2
252421.390625,267469.46875,294211.28125,332043.75,277926.625,253367.671875,242871.03125,239033.5,17483.0,1.0,2
253073.4375,267621.84375,294439.46875,332246.0,277519.375,253584.390625,242626.953125,239195.6875,17484.0,1.0,2
252957.390625,267476.90625,294258.125,332130.65625,277360.3125,253483.09375,242550.328125,239115.671875,17485.0,1.0,2
252278.34375,267282.4375,293968.46875,331886.59375,277698.53125,253236.96875,242770.71875,238933.546875,17486.0,1.0,2
251928.3125,267267.78125,293922.78125,331819.1875,278045.15625,253150.0625,242964.1875,238873.015625,17487.0,1.0,2
252418.34375,267470.28125,294205.21875,332036.25,277926.34375,253354.703125,242877.375,239035.921875,17488.0,1.0,2
253067.625,267618.34375,294435.4375,332233.75,277516.0625,253569.46875,242628.640625,239193.1875,17489.0,1.0,2
252956.84375,267470.375,294256.34375,332119.65625,277350.5625,253472.015625,242545.5,239115.21875,17490.0,1.0,2
252266.09375,267260.28125,293951.90625,331867.8125,277672.4375,253217.375,242751.40625,238925.234375,17491.0,1.0,2
251915.53125,267246.84375,293908.03125,331800.125,278028.71875,253134.40625,242952.65625,238864.796875,17492.0,1.0,2
252394.125,267440.6875,294185.1875,332010.59375,277915.6875,253337.453125,242866.640625,239018.03125,17493.0,1.0,2
253042.40625,267583.84375,294412.53125,332207.65625,277503.96875,253554.53125,242617.296875,239176.734375,17494.0,1.0,2
252955.328125,267453.375,294244.90625,332109.21875,277347.96875,253475.140625,242544.421875,239120.578125,17495.0,1.0,2
252274.234375,267251.40625,293945.3125,331859.3125,277678.25,253229.8125,242754.4375,238934.890625,17496.0,1.0,2
251914.8125,267234.59375,293896.03125,331786.09375,278038.0,253143.890625,242951.9375,238867.65625,17497.0,1.0,2
252391.890625,267434.875,294177.03125,331998.6875,277935.5625,253351.140625,242872.8125,239021.515625,17498.0,1.0,2
253053.234375,267592.3125,294419.25,332207.1875,277535.0,253581.453125,242638.296875,239189.6875,17499.0,1.0,2
252967.21875,267461.78125,294253.84375,332107.96875,277366.84375,253501.0625,242565.4375,239133.1875,17500.0,1.0,2
252275.75,267251.59375,293943.25,331846.4375,277675.375,253240.984375,242765.265625,238937.828125,17501.0,1.0,2
251904.625,267228.34375,293881.46875,331763.03125,278022.8125,253146.296875,242960.875,238862.546875,17502.0,1.0,2
252372.9375,267420.65625,294151.5625,331972.0625,277919.1875,253351.40625,242877.734375,239010.875,17503.0,1.0,2
253035.34375,267576.78125,294391.53125,332182.53125,277516.21875,253580.640625,242637.046875,239176.734375,17504.0,1.0,2
252956.578125,267446.9375,294230.34375,332085.59375,277345.1875,253500.0,242556.671875,239120.671875,17505.0,1.0,2
252283.078125,267250.78125,293934.5625,331839.375,277671.34375,253255.109375,242768.484375,238944.1875,17506.0,1.0,2
251908.109375,267229.5,293874.3125,331757.9375,278033.1875,253160.078125,242968.921875,238873.46875,17507.0,1.0,2
252359.875,267412.53125,294138.0625,331957.65625,277930.375,253354.359375,242881.671875,239015.078125,17508.0,1.0,2
253015.765625,267561.21875,294366.6875,332156.40625,277511.3125,253568.484375,242625.609375,239171.71875,17509.0,1.0,2
252954.078125,267439.34375,294207.625,332063.0,277332.3125,253489.890625,242535.484375,239112.09375,17510.0,1.0,2
252287.90625,267247.125,293916.15625,331822.9375,277656.15625,253247.328125,242747.28125,238935.15625,17511.0,1.0,2
251908.546875,267224.78125,293858.40625,331743.625,278022.09375,253151.671875,242957.125,238870.0625,17512.0,1.0,2
252362.921875,267416.28125,294129.65625,331948.46875,277930.625,253349.703125,242886.21875,239019.375,17513.0,1.0,2
253030.875,267577.75,294379.46875,332157.65625,277526.59375,253578.140625,242645.984375,239186.5625,17514.0,1.0,2
252971.0625,267453.3125,294223.34375,332060.9375,277342.96875,253495.703125,242556.5,239131.84375,17515.0,1.0,2
252285.40625,267238.09375,293911.0625,331800.03125,277646.84375,253232.40625,242751.671875,238937.03125,17516.0,1.0,2
251896.21875,267211.4375,293846.15625,331715.71875,278011.71875,253129.9375,242959.71875,238862.28125,17517.0,1.0,2
252344.6875,267404.5625,294112.84375,331917.6875,277923.5625,253322.4375,242887.828125,239007.296875,17518.0,1.0,2
253018.0,267569.4375,294361.75,332128.96875,277521.6875,253555.34375,242648.40625,239175.125,17519.0,1.0,2
252954.609375,267432.1875,294201.625,332033.21875,277330.0,253477.203125,242551.125,239116.46875,17520.0,1.0,2
252273.6875,267219.6875,293888.875,331774.65625,277631.5625,253212.734375,242738.96875,238921.828125,17521.0,1.0,2
251887.984375,267199.03125,293823.875,331689.53125,278001.09375,253111.078125,242949.96875,238849.328125,17522.0,1.0,2
252329.390625,267390.28125,294089.25,331890.25,277919.8125,253303.03125,242882.65625,238994.875,17523.0,1.0,2
252996.546875,267548.6875,294335.75,332099.8125,277511.5,253530.578125,242632.21875,239159.125,17524.0,1.0,2
252957.296875,267431.03125,294183.84375,332013.53125,277317.40625,253460.296875,242534.671875,239107.96875,17525.0,1.0,2
252285.21875,267225.65625,293878.59375,331764.46875,277623.0,253212.828125,242735.21875,238926.296875,17526.0,1.0,2
251889.6875,267200.46875,293807.53125,331675.40625,277993.65625,253112.421875,242945.328125,238849.59375,17527.0,1.0,2
252332.078125,267399.03125,294074.5,331878.4375,277921.25,253311.96875,242887.921875,238999.078125,17528.0,1.0,2
253016.9375,267575.6875,294334.59375,332100.09375,277525.09375,253555.25,242656.09375,239177.984375,17529.0,1.0,2
252980.984375,267455.53125,294187.40625,332014.625,277325.0,253489.890625,242555.59375,239128.0,17530.0,1.0,2
252302.390625,267233.96875,293873.25,331755.96875,277615.65625,253230.4375,242743.71875,238934.4375,17531.0,1.0,2
251896.03125,267202.875,293801.4375,331665.46875,277990.71875,253127.34375,242958.90625,238859.328125,17532.0,1.0,2
252325.1875,267392.21875,294063.125,331863.59375,277918.28125,253317.609375,242896.6875,239008.28125,17533.0,1.0,2
253005.484375,267560.59375,294318.40625,332079.96875,277515.15625,253552.203125,242650.8125,239171.546875,17534.0,1.0,2
252971.609375,267433.1875,294172.3125,331995.65625,277309.625,253486.765625,242545.40625,239118.609375,17535.0,1.0,2
252292.015625,267212.78125,293860.0,331744.875,277602.875,253236.421875,242736.203125,238932.46875,17536.0,1.0,2
251876.09375,267179.4375,293782.3125,331651.34375,277982.65625,253133.96875,242951.21875,238851.375,17537.0,1.0,2
252305.703125,267379.4375,294049.09375,331852.25,277926.4375,253327.890625,242899.375,239001.046875,17538.0,1.0,2
252986.71875,267547.8125,294307.3125,332069.6875,277523.90625,253562.21875,242653.5,239175.5625,17539.0,1.0,2
252965.34375,267426.84375,294164.96875,331990.75,277317.9375,253501.875,242545.859375,239132.109375,17540.0,1.0,2
252302.75,267219.0625,293856.4375,331740.75,277614.3125,253248.3125,242740.140625,238950.890625,17541.0,1.0,2
251883.078125,267180.34375,293775.875,331645.28125,277998.125,253134.234375,242956.234375,238870.78125,17542.0,1.0,2
252302.03125,267370.96875,294034.875,331841.25,277944.9375,253320.203125,242903.390625,239011.15625,17543.0,1.0,2
252984.296875,267539.03125,294285.75,332051.0,277535.1875,253545.140625,242650.1875,239174.765625,17544.0,1.0,2
252971.0625,267418.15625,294144.78125,331970.28125,277317.65625,253480.15625,242539.421875,239130.234375,17545.0,1.0,2
252299.625,267194.375,293832.375,331718.40625,277605.375,253222.828125,242724.9375,238943.5625,17546.0,1.0,2
251885.03125,267163.8125,293753.6875,331623.09375,277996.78125,253111.796875,242943.171875,238862.90625,17547.0,1.0,2
252303.90625,267361.46875,294012.8125,331816.75,277952.71875,253293.46875,242888.015625,239004.171875,17548.0,1.0,2
252996.453125,267540.1875,294280.3125,332039.28125,277556.71875,253529.40625,242640.796875,239176.90625,17549.0,1.0,2
252991.625,267422.90625,294150.03125,331964.0,277335.1875,253470.578125,242527.4375,239134.0,17550.0,1.0,2
252326.53125,267207.59375,293837.9375,331707.9375,277610.28125,253208.265625,242711.53125,238941.59375,17551.0,1.0,2
251886.109375,267157.53125,293746.0,331599.84375,277980.25,253079.0625,242926.1875,238846.46875,17552.0,1.0,2
252291.9375,267346.625,294010.9375,331797.0,277931.0,253261.640625,242889.984375,238989.609375,17553.0,1.0,2
252985.375,267524.71875,294283.4375,332021.78125,277528.46875,253500.171875,242656.265625,239168.421875,17554.0,1.0,2
253003.703125,267427.09375,294163.09375,331955.4375,277307.8125,253452.875,242550.328125,239137.125,17555.0,1.0,2
252346.375,267217.09375,293855.90625,331707.3125,277591.96875,253199.5,242736.46875,238954.203125,17556.0,1.0,2
251898.09375,267162.8125,293762.5625,331600.40625,277977.3125,253070.484375,242955.25,238864.96875,17557.0,1.0,2
252291.03125,267345.46875,294011.1875,331784.3125,277931.53125,253241.96875,242908.578125,238994.15625,17558.0,1.0,2
252984.296875,267526.625,294276.09375,332004.25,277534.03125,253477.640625,242666.109375,239168.953125,17559.0,1.0,2
252993.5,267413.6875,294146.5625,331931.375,277305.84375,253420.875,242542.28125,239132.296875,17560.0,1.0,2
252335.5625,267198.125,293836.03125,331681.5625,277590.875,253168.125,242725.734375,238950.796875,17561.0,1.0,2
251896.484375,267161.21875,293742.4375,331575.53125,277984.53125,253049.390625,242950.875,238863.265625,17562.0,1.0,2
252282.90625,267350.3125,293986.25,331760.0625,277944.03125,253224.625,242907.765625,239000.234375,17563.0,1.0,2
252975.984375,267536.1875,294254.03125,331984.125,277544.3125,253473.078125,242670.9375,239185.046875,17564.0,1.0,2
252994.671875,267434.34375,294131.90625,331920.46875,277313.0,253440.71875,242556.046875,239151.96875,17565.0,1.0,2
252336.71875,267225.65625,293816.75,331667.09375,277585.25,253203.609375,242738.890625,238965.015625,17566.0,1.0,2
251886.203125,267190.71875,293720.8125,331558.46875,277977.5625,253096.765625,242965.0,238870.875,17567.0,1.0,2
252257.953125,267376.59375,293958.0,331737.46875,277936.0,253274.6875,242920.015625,238996.390625,17568.0,1.0,2
252948.71875,267557.375,294223.71875,331965.71875,277535.625,253526.109375,242676.5625,239178.703125,17569.0,1.0,2
252992.515625,267470.71875,294111.25,331912.5,277305.0625,253503.75,242553.09375,239155.71875,17570.0,1.0,2
252341.546875,267260.0,293795.90625,331660.46875,277571.65625,253259.765625,242717.0625,238960.359375,17571.0,1.0,2
251881.375,267210.90625,293694.25,331551.3125,277966.125,253144.0625,242936.03125,238866.21875,17572.0,1.0,2
252244.09375,267387.125,293928.3125,331727.25,277927.25,253316.71875,242888.28125,238991.21875,17573.0,1.0,2
252945.859375,267574.0,294205.5625,331962.21875,277530.4375,253573.9375,242651.53125,239176.734375,17574.0,1.0,2
252987.0625,267470.03125,294093.375,331907.15625,277284.65625,253542.203125,242526.359375,239154.203125,17575.0,1.0,2
252335.03125,267249.90625,293778.8125,331653.0625,277540.375,253287.828125,242690.875,238962.875,17576.0,1.0,2
251886.640625,267212.625,293689.15625,331545.0625,277940.46875,253169.1875,242926.546875,238873.90625,17577.0,1.0,2
252253.21875,267391.0625,293934.46875,331726.09375,277918.65625,253342.375,242903.84375,239009.71875,17578.0,1.0,2
252951.578125,267572.46875,294212.90625,331953.90625,277525.0,253585.109375,242667.359375,239193.53125,17579.0,1.0,2
253015.328125,267487.625,294112.65625,331902.0625,277288.5,253549.0,242545.3125,239170.296875,17580.0,1.0,2
252375.171875,267276.1875,293806.0,331654.65625,277557.90625,253294.8125,242721.0,238986.921875,17581.0,1.0,2
251907.75,267225.5,293708.90625,331541.5625,277965.9375,253163.296875,242955.0625,238890.984375,17582.0,1.0,2
252263.234375,267402.96875,293950.3125,331717.4375,277954.59375,253323.59375,242928.25,239018.484375,17583.0,1.0,2
252959.625,267586.0625,294231.6875,331946.65625,277569.0625,253565.4375,242690.421875,239197.46875,17584.0,1.0,2
253022.296875,267497.28125,294125.53125,331888.65625,277320.0625,253524.671875,242557.75,239168.6875,17585.0,1.0,2
252378.921875,267281.375,293811.28125,331636.875,277574.34375,253261.640625,242729.578125,238981.203125,17586.0,1.0,2
251899.515625,267227.0,293702.03125,331513.59375,277965.21875,253116.796875,242959.546875,238877.03125,17587.0,1.0,2
252244.71875,267404.03125,293938.6875,331685.875,277944.21875,253269.6875,242931.28125,239002.5625,17588.0,1.0,2
252947.46875,267593.65625,294228.0,331925.3125,277552.34375,253515.109375,242693.46875,239188.4375,17589.0,1.0,2
253017.46875,267505.6875,294135.46875,331878.8125,277297.625,253480.859375,242555.15625,239165.734375,17590.0,1.0,2
252375.703125,267290.125,293824.6875,331625.59375,277544.5,253220.78125,242717.6875,238980.65625,17591.0,1.0,2
251894.875,267237.46875,293717.5,331501.34375,277938.84375,253080.234375,242941.75,238878.109375,17592.0,1.0,2
252230.421875,267411.625,293952.8125,331672.53125,277923.5625,253238.21875,242914.75,238999.96875,17593.0,1.0,2
252931.015625,267601.625,294237.03125,331905.375,277528.75,253485.609375,242668.25,239176.015625,17594.0,1.0,2
253021.765625,267532.4375,294151.46875,331867.625,277277.34375,253470.671875,242534.5,239161.078125,17595.0,1.0,2
252377.5,267310.15625,293838.375,331617.125,277523.375,253222.75,242701.78125,238979.953125,17596.0,1.0,2
251885.3125,267245.34375,293721.96875,331488.90625,277919.46875,253079.6875,242928.0625,238873.734375,17597.0,1.0,2
252218.078125,267415.46875,293954.78125,331657.34375,277914.1875,253237.59375,242901.15625,238993.890625,17598.0,1.0,2
252927.34375,267604.65625,294245.71875,331896.6875,277525.8125,253493.03125,242668.078125,239187.109375,17599.0,1.0,2
253024.359375,267527.15625,294164.09375,331859.9375,277271.25,253481.9375,242537.8125,239182.1875,17600.0,1.0,2
252389.5625,267305.25,293847.5,331601.375,277511.75,253231.15625,242694.890625,238986.828125,17601.0,1.0,2
251905.78125,267254.53125,293736.1875,331477.09375,277922.84375,253101.421875,242934.6875,238883.296875,17602.0,1.0,2
252228.71875,267423.15625,293963.09375,331643.9375,277925.1875,253264.859375,242921.8125,239003.90625,17603.0,1.0,2
252932.265625,267608.78125,294244.90625,331878.09375,277536.53125,253521.71875,242686.84375,239188.53125,17604.0,1.0,2
253029.453125,267527.40625,294154.59375,331838.84375,277275.09375,253509.5625,242551.484375,239176.109375,17605.0,1.0,2
252406.453125,267312.75,293843.5625,331592.25,277525.8125,253272.1875,242725.828125,239002.75,17606.0,1.0,2
251908.46875,267249.1875,293717.59375,331457.25,277931.09375,253130.921875,242956.234375,238892.59375,17607.0,1.0,2
252209.40625,267401.25,293930.28125,331616.65625,277931.4375,253283.625,242936.203125,239003.015625,17608.0,1.0,2
252926.71875,267602.78125,294221.65625,331863.78125,277553.25,253551.140625,242710.453125,239194.171875,17609.0,1.0,2
253033.03125,267526.53125,294134.75,331827.5625,277284.40625,253542.28125,242562.84375,239178.609375,17610.0,1.0,2
252396.265625,267300.78125,293816.03125,331574.5625,277518.375,253294.8125,242720.828125,238995.328125,17611.0,1.0,2
251894.25,267237.46875,293692.375,331438.3125,277925.4375,253151.9375,242950.6875,238885.984375,17612.0,1.0,2
252200.640625,267401.0,293912.75,331599.40625,277939.84375,253306.4375,242932.1875,238999.171875,17613.0,1.0,2
252910.359375,267594.21875,294209.40625,331846.8125,277562.71875,253567.765625,242701.875,239193.625,17614.0,1.0,2
253029.8125,267523.03125,294136.53125,331821.3125,277288.4375,253562.21875,242560.0625,239190.765625,17615.0,1.0,2
252405.390625,267302.1875,293824.25,331571.78125,277508.375,253314.125,242712.859375,239008.109375,17616.0,1.0,2
251896.578125,267234.53125,293702.65625,331434.90625,277904.71875,253165.53125,242942.546875,238895.90625,17617.0,1.0,2
252195.8125,267396.875,293925.09375,331592.71875,277910.78125,253307.328125,242932.53125,239005.515625,17618.0,1.0,2
252909.28125,267591.25,294221.40625,331835.4375,277528.5625,253556.765625,242702.3125,239194.796875,17619.0,1.0,2
253027.484375,267509.1875,294137.25,331800.9375,277245.0625,253530.578125,242541.921875,239182.359375,17620.0,1.0,2
252403.15625,267280.03125,293816.5625,331546.65625,277468.84375,253264.765625,242683.265625,238992.8125,17621.0,1.0,2
251891.296875,267211.09375,293692.1875,331410.40625,277888.53125,253105.625,242914.65625,238876.59375,17622.0,1.0,2
252189.375,267376.9375,293914.0,331571.59375,277924.03125,253245.453125,242912.421875,238990.046875,17623.0,1.0,2
252910.359375,267578.1875,294212.53125,331817.5625,277554.5,253494.984375,242687.03125,239184.6875,17624.0,1.0,2
253029.1875,267494.5,294131.625,331783.84375,277267.6875,253474.0625,242531.546875,239173.78125,17625.0,1.0,2
252406.546875,267266.875,293810.75,331529.21875,277482.0,253213.625,242685.78125,238988.625,17626.0,1.0,2
251883.703125,267190.875,293677.0,331387.34375,277889.25,253051.359375,242928.96875,238875.609375,17627.0,1.0,2
252164.96875,267346.625,293886.84375,331541.125,277917.75,253186.625,242934.421875,238989.15625,17628.0,1.0,2
252877.015625,267542.4375,294175.0,331778.40625,277538.0625,253431.328125,242699.8125,239174.234375,17629.0,1.0,2
253021.046875,267479.59375,294108.90625,331757.65625,277258.03125,253426.859375,242543.34375,239171.28125,17630.0,1.0,2
252410.3125,267262.40625,293800.1875,331515.625,277481.8125,253186.265625,242694.625,238997.296875,17631.0,1.0,2
251883.078125,267187.84375,293666.0,331376.0625,277894.25,253032.3125,242927.984375,238883.5625,17632.0,1.0,2
252165.0625,267353.96875,293877.0,331531.375,277923.125,253172.40625,242923.515625,238991.21875,17633.0,1.0,2
252879.15625,267555.21875,294171.78125,331776.875,277543.40625,253434.28125,242690.328125,239180.125,17634.0,1.0,2
253034.359375,267499.78125,294112.65625,331763.65625,277260.09375,253449.65625,242538.25,239179.140625,17635.0,1.0,2
252425.953125,267279.21875,293805.8125,331519.125,277473.125,253213.453125,242689.796875,239004.0,17636.0,1.0,2
251891.203125,267200.09375,293666.71875,331370.09375,277880.3125,253060.828125,242927.796875,238882.578125,17637.0,1.0,2
252163.09375,267365.21875,293876.375,331521.4375,277915.875,253209.609375,242938.890625,238990.578125,17638.0,1.0,2
252883.53125,267575.53125,294176.15625,331766.25,277539.65625,253479.4375,242714.46875,239184.59375,17639.0,1.0,2
253037.671875,267514.71875,294112.65625,331748.0,277240.84375,253490.78125,242555.15625,239188.796875,17640.0,1.0,2
252426.84375,267290.75,293798.3125,331503.75,277447.65625,253255.734375,242701.0625,239013.5625,17641.0,1.0,2
251891.828125,267214.40625,293658.84375,331361.40625,277870.09375,253111.96875,242937.90625,238898.5,17642.0,1.0,2
252156.921875,267371.5,293861.34375,331508.5625,277920.96875,253257.796875,242942.109375,239000.78125,17643.0,1.0,2
252874.6875,267573.5625,294156.3125,331751.9375,277557.09375,253520.921875,242710.09375,239188.796875,17644.0,1.0,2
253035.265625,267509.1875,294086.75,331729.5,277259.8125,253527.171875,242541.296875,239187.453125,17645.0,1.0,2
252428.359375,267281.5625,293764.0,331478.09375,277461.5,253281.75,242679.703125,239006.671875,17646.0,1.0,2
251893.078125,267206.90625,293623.71875,331333.96875,277884.40625,253131.109375,242929.859375,238894.65625,17647.0,1.0,2
252146.734375,267360.21875,293824.0625,331477.1875,277933.21875,253270.046875,242945.140625,238999.609375,17648.0,1.0,2
252854.125,267552.4375,294118.9375,331720.46875,277561.125,253532.359375,242720.828125,239187.8125,17649.0,1.0,2
253026.765625,267491.5625,294061.71875,331706.25,277256.5,253542.203125,242551.21875,239190.765625,17650.0,1.0,2
252437.84375,267276.28125,293752.625,331464.21875,277458.375,253304.828125,242693.375,239021.4375,17651.0,1.0,2
251893.984375,267194.90625,293605.375,331313.9375,277874.125,253149.078125,242937.359375,238896.703125,17652.0,1.0,2
252139.578125,267349.75,293804.5625,331458.5,277929.46875,253282.296875,242945.5,238991.84375,17653.0,1.0,2
252859.03125,267558.09375,294107.9375,331706.25,277563.8125,253540.59375,242711.25,239183.34375,17654.0,1.0,2
253037.671875,267500.59375,294055.4375,331696.25,277257.125,253553.1875,242536.28125,239189.515625,17655.0,1.0,2
252457.0625,267292.46875,293753.53125,331457.96875,277458.84375,253318.046875,242673.609375,239016.875,17656.0,1.0,2
251910.15625,267213.5,293610.84375,331308.5625,277877.25,253154.53125,242919.484375,238897.15625,17657.0,1.0,2
252140.828125,267356.28125,293806.0,331446.34375,277928.75,253274.953125,242932.71875,238992.734375,17658.0,1.0,2
252848.125,267547.96875,294106.59375,331690.78125,277555.3125,253527.359375,242702.9375,239183.078125,17659.0,1.0,2
253040.0,267496.3125,294065.28125,331687.3125,277244.78125,253543.265625,242533.421875,239190.953125,17660.0,1.0,2
252461.453125,267284.21875,293764.15625,331448.65625,277439.0,253304.109375,242675.046875,239020.359375,17661.0,1.0,2
251911.140625,267204.3125,293617.625,331294.8125,277860.4375,253140.3125,242926.1875,238900.375,17662.0,1.0,2
252131.625,267342.96875,293805.46875,331425.34375,277916.6875,253256.625,242940.9375,238988.53125,17663.0,1.0,2
252851.96875,267551.28125,294109.90625,331672.28125,277552.53125,253511.703125,242714.203125,239177.171875,17664.0,1.0,2
253057.796875,267511.15625,294073.5,331673.15625,277246.75,253529.953125,242545.046875,239193.453125,17665.0,1.0,2
