FZ,C3,CZ,C4,PZ,PO7,OZ,PO8,Counter,Validation,Label
230995.90625,271446.21875,300167.03125,279904.125,241506.234375,275402.21875,246896.75,242993.6875,207831.0,1.0,4
231138.15625,271473.21875,300092.3125,279807.09375,241970.25,275574.75,246922.765625,243024.71875,207832.0,1.0,4
230542.515625,270387.09375,298802.78125,279413.34375,240671.890625,275096.4375,246440.0625,242395.828125,207833.0,1.0,4
230013.859375,269658.4375,298054.90625,279251.34375,239383.0,274592.4375,246067.5,241952.1875,207834.0,1.0,4
230287.984375,270311.625,298904.0,279554.34375,239899.578125,274769.125,246343.328125,242325.828125,207835.0,1.0,4
230975.703125,271422.875,300151.125,279895.53125,241484.5,275364.21875,246860.8125,242977.59375,207836.0,1.0,4
231142.34375,271480.1875,300098.03125,279810.875,241972.75,275567.96875,246910.171875,243018.1875,207837.0,1.0,4
230548.0625,270393.4375,298807.34375,279415.875,240681.71875,275093.125,246430.046875,242388.5,207838.0,1.0,4
230013.765625,269655.125,298052.125,279249.5625,239384.78125,274592.1875,246072.953125,241949.6875,207839.0,1.0,4
230297.90625,270310.46875,298899.0625,279552.5625,239895.296875,274774.21875,246348.953125,242319.828125,207840.0,1.0,4
230979.265625,271413.75,300145.40625,279889.53125,241473.78125,275360.375,246852.953125,242965.890625,207841.0,1.0,4
231142.796875,271479.21875,300102.9375,279810.875,241971.765625,275568.78125,246910.34375,243017.65625,207842.0,1.0,4
230546.546875,270394.53125,298812.15625,279417.28125,240685.734375,275095.09375,246423.25,242392.4375,207843.0,1.0,4
230013.40625,269656.90625,298049.15625,279251.71875,239387.109375,274598.0,246071.34375,241951.203125,207844.0,1.0,4
230284.671875,270302.875,298886.5625,279550.34375,239883.21875,274768.3125,246346.984375,242324.921875,207845.0,1.0,4
230973.1875,271419.5625,300141.84375,279890.625,241466.53125,275366.625,246866.625,242970.453125,207846.0,1.0,4
231142.625,271488.59375,300106.6875,279810.3125,241974.546875,275580.40625,246923.21875,243009.34375,207847.0,1.0,4
230550.65625,270403.09375,298819.59375,279413.625,240694.6875,275106.71875,246427.28125,242382.6875,207848.0,1.0,4
230006.4375,269650.28125,298044.625,279243.40625,239382.015625,274595.9375,246063.125,241943.25,207849.0,1.0,4
230275.109375,270289.65625,298873.875,279542.375,239867.40625,274765.90625,246333.9375,242305.34375,207850.0,1.0,4
230969.34375,271412.15625,300139.34375,279890.875,241457.765625,275369.3125,246858.75,242961.0625,207851.0,1.0,4
231151.015625,271493.96875,300120.5625,279816.40625,241983.84375,275582.0,246924.296875,243021.953125,207852.0,1.0,4
230564.6875,270414.53125,298839.34375,279425.53125,240716.046875,275115.84375,246441.671875,242404.953125,207853.0,1.0,4
230029.234375,269665.125,298061.78125,279257.53125,239405.171875,274614.53125,246084.765625,241960.6875,207854.0,1.0,4
230291.90625,270297.59375,298883.4375,279553.625,239881.53125,274784.65625,246357.1875,242318.21875,207855.0,1.0,4
230973.8125,271414.90625,300144.875,279897.5,241465.109375,275388.78125,246878.25,242969.109375,207856.0,1.0,4
231144.59375,271496.5625,300126.375,279822.21875,241993.3125,275603.1875,246939.765625,243026.328125,207857.0,1.0,4
230570.140625,270429.375,298848.75,279431.78125,240734.734375,275130.75,246461.171875,242415.5,207858.0,1.0,4
230026.28125,269663.96875,298057.03125,279258.5,239413.84375,274610.0625,246082.96875,241963.546875,207859.0,1.0,4
230284.140625,270285.09375,298871.625,279551.65625,239878.3125,274770.8125,246342.796875,242309.109375,207860.0,1.0,4
230962.828125,271396.5,300126.53125,279889.53125,241452.765625,275352.75,246844.453125,242957.578125,207861.0,1.0,4
231141.015625,271489.84375,300117.875,279814.34375,241987.859375,275574.125,246909.625,243014.34375,207862.0,1.0,4
230558.96875,270421.34375,298841.40625,279421.125,240727.9375,275116.375,246426.296875,242391.625,207863.0,1.0,4
230017.703125,269664.0625,298050.34375,279251.34375,239404.546875,274610.5,246069.390625,241947.453125,207864.0,1.0,4
230281.8125,270287.6875,298862.96875,279552.3125,239863.375,274770.53125,246344.125,242310.0,207865.0,1.0,4
230967.109375,271403.84375,300129.84375,279899.8125,241444.53125,275361.78125,246854.5625,242966.6875,207866.0,1.0,4
231157.8125,271507.1875,300131.09375,279826.6875,241994.75,275577.0,246903.015625,243021.046875,207867.0,1.0,4
230580.515625,270439.40625,298855.71875,279431.0625,240742.0625,275115.375,246427.8125,242400.296875,207868.0,1.0,4
230020.734375,269659.3125,298047.46875,279248.40625,239399.171875,274596.65625,246057.046875,241939.140625,207869.0,1.0,4
230276.984375,270278.28125,298851.59375,279546.65625,239849.703125,274755.625,246329.921875,242304.8125,207870.0,1.0,4
230971.5,271407.9375,300123.9375,279895.25,241436.9375,275355.96875,246850.53125,242963.296875,207871.0,1.0,4
231155.84375,271505.75,300132.71875,279819.625,241993.5,275575.84375,246904.890625,243006.203125,207872.0,1.0,4
230584.625,270440.28125,298861.96875,279424.625,240750.296875,275118.34375,246432.375,242392.34375,207873.0,1.0,4
230041.390625,269671.5,298054.4375,279249.84375,239415.984375,274610.6875,246073.671875,241945.578125,207874.0,1.0,4
230280.46875,270267.28125,298843.03125,279536.84375,239846.390625,274756.6875,246325.890625,242283.796875,207875.0,1.0,4
230968.359375,271390.78125,300115.625,279885.78125,241427.8125,275350.71875,246845.34375,242937.28125,207876.0,1.0,4
231163.890625,271512.375,300142.1875,279823.5625,242003.59375,275587.90625,246931.984375,243019.4375,207877.0,1.0,4
230594.46875,270454.6875,298877.96875,279433.3125,240768.53125,275138.8125,246464.5625,242413.984375,207878.0,1.0,4
230030.21875,269666.65625,298059.53125,279252.96875,239419.296875,274622.5,246096.03125,241959.796875,207879.0,1.0,4
230274.296875,270270.0625,298842.84375,279541.9375,239840.75,274772.25,246350.390625,242300.4375,207880.0,1.0,4
230969.4375,271402.21875,300119.84375,279891.34375,241428.0,275367.5,246865.109375,242956.328125,207881.0,1.0,4
231158.53125,271514.0625,300142.71875,279821.3125,242005.5625,275583.34375,246921.609375,243028.65625,207882.0,1.0,4
230583.203125,270450.3125,298870.375,279425.96875,240770.140625,275124.3125,246441.21875,242410.84375,207883.0,1.0,4
230027.359375,269663.625,298040.40625,279243.3125,239417.40625,274608.53125,246069.46875,241947.0,207884.0,1.0,4
230256.328125,270246.375,298812.875,279527.71875,239823.328125,274749.25,246313.203125,242274.234375,207885.0,1.0,4
230946.8125,271377.71875,300095.25,279884.34375,241408.5,275355.625,246846.59375,242934.5,207886.0,1.0,4
231155.578125,271518.09375,300140.21875,279825.25,242004.140625,275601.21875,246939.046875,243027.75,207887.0,1.0,4
230599.296875,270466.40625,298878.40625,279431.875,240783.1875,275135.5,246452.671875,242416.75,207888.0,1.0,4
230040.5,269668.8125,298044.96875,279246.4375,239427.703125,274612.90625,246070.28125,241948.34375,207889.0,1.0,4
230262.59375,270242.71875,298809.21875,279529.0625,239820.734375,274745.96875,246311.859375,242278.703125,207890.0,1.0,4
230946.640625,271372.0,300091.40625,279886.40625,241401.171875,275343.46875,246839.984375,242938.4375,207891.0,1.0,4
231156.203125,271517.75,300140.21875,279828.65625,242005.390625,275588.78125,246925.90625,243027.671875,207892.0,1.0,4
230592.5,270466.9375,298881.71875,279435.1875,240787.3125,275144.4375,246458.578125,242425.515625,207893.0,1.0,4
230023.0625,269659.5,298037.375,279240.28125,239417.6875,274619.09375,246077.78125,241951.46875,207894.0,1.0,4
230246.21875,270233.125,298794.8125,279520.1875,239801.6875,274751.0625,246318.203125,242273.078125,207895.0,1.0,4
230930.015625,271362.96875,300078.09375,279872.71875,241379.625,275336.9375,246828.8125,242930.65625,207896.0,1.0,4
231149.953125,271519.0,300143.25,279821.3125,242000.109375,275584.78125,246926.265625,243035.171875,207897.0,1.0,4
230597.6875,270474.28125,298891.84375,279432.5,240799.015625,275146.5,246466.0,242426.9375,207898.0,1.0,4
230029.765625,269661.65625,298042.8125,279242.40625,239428.328125,274621.0625,246083.953125,241949.421875,207899.0,1.0,4
230244.96875,270223.3125,298787.3125,279518.5,239796.765625,274740.6875,246313.46875,242265.921875,207900.0,1.0,4
230930.09375,271352.96875,300070.40625,279871.21875,241371.671875,275326.9375,246826.03125,242922.171875,207901.0,1.0,4
231146.640625,271512.28125,300146.65625,279824.71875,242003.78125,275583.0625,246926.078125,243028.296875,207902.0,1.0,4
230593.75,270475.34375,298900.78125,279441.15625,240809.03125,275149.90625,246466.625,242434.0,207903.0,1.0,4
230028.609375,269667.0,298046.125,279248.5,239432.609375,274623.28125,246082.25,241955.59375,207904.0,1.0,4
230239.609375,270221.4375,298780.0625,279519.125,239788.625,274739.25,246312.484375,242260.5625,207905.0,1.0,4
230927.78125,271361.71875,300070.5625,279877.90625,241361.84375,275336.5,246839.53125,242923.328125,207906.0,1.0,4
231156.5625,271535.8125,300155.25,279831.96875,242003.328125,275585.3125,246933.5,243029.71875,207907.0,1.0,4
230608.859375,270499.84375,298912.75,279445.8125,240820.921875,275159.1875,246477.4375,242434.09375,207908.0,1.0,4
230033.25,269675.25,298043.90625,279246.15625,239436.71875,274630.71875,246091.46875,241954.421875,207909.0,1.0,4
230240.5,270227.875,298772.5625,279520.46875,239782.734375,274750.6875,246323.03125,242271.546875,207910.0,1.0,4
230925.53125,271366.8125,300063.78125,279874.15625,241354.6875,275339.625,246836.578125,242920.015625,207911.0,1.0,4
231153.171875,271545.8125,300159.71875,279832.0625,242010.03125,275600.25,246941.453125,243032.578125,207912.0,1.0,4
230606.265625,270519.25,298921.4375,279449.75,240832.28125,275180.125,246495.765625,242448.75,207913.0,1.0,4
230030.671875,269696.0625,298048.8125,279251.09375,239441.109375,274651.53125,246107.5625,241969.0,207914.0,1.0,4
230228.4375,270231.625,298766.21875,279515.46875,239768.34375,274749.0,246314.8125,242255.8125,207915.0,1.0,4
230916.234375,271370.40625,300061.90625,279873.09375,241341.359375,275335.5,246835.953125,242918.140625,207916.0,1.0,4
231155.40625,271563.34375,300170.625,279833.03125,242008.25,275605.25,246943.78125,243038.84375,207917.0,1.0,4
230610.109375,270535.15625,298934.03125,279446.96875,240838.890625,275180.9375,246489.15625,242450.359375,207918.0,1.0,4
230033.890625,269703.84375,298053.28125,279246.53125,239445.671875,274650.90625,246102.375,241967.21875,207919.0,1.0,4
230231.921875,270233.40625,298761.5625,279512.0625,239764.3125,274752.5625,246312.921875,242257.515625,207920.0,1.0,4
230921.34375,271372.90625,300059.84375,279874.53125,241338.59375,275344.4375,246835.59375,242922.4375,207921.0,1.0,4
231164.25,271571.28125,300183.40625,279841.0,242017.8125,275611.6875,246946.640625,243052.875,207922.0,1.0,4
230629.15625,270549.46875,298954.59375,279459.125,240857.5,275186.46875,246491.109375,242470.65625,207923.0,1.0,4
230046.3125,269705.0,298062.59375,279251.4375,239452.109375,274648.78125,246091.375,241968.90625,207924.0,1.0,4
230231.203125,270220.96875,298761.375,279511.875,239757.875,274749.09375,246311.046875,242256.4375,207925.0,1.0,4
230920.703125,271363.875,300063.15625,279874.6875,241330.984375,275342.125,246838.734375,242920.46875,207926.0,1.0,4
231178.03125,271578.90625,300195.03125,279845.90625,242025.234375,275624.65625,246963.09375,243061.015625,207927.0,1.0,4
230630.9375,270549.0,298959.4375,279455.28125,240868.75,275199.4375,246509.53125,242461.8125,207928.0,1.0,4
230045.5,269698.75,298059.46875,279244.03125,239462.46875,274654.75,246091.375,241955.5,207929.0,1.0,4
230233.0,270211.875,298748.875,279503.40625,239758.140625,274745.34375,246300.765625,242245.265625,207930.0,1.0,4
230923.21875,271358.15625,300056.0,279870.21875,241331.171875,275343.90625,246841.765625,242920.828125,207931.0,1.0,4
231171.9375,271567.0,300195.75,279842.0625,242029.890625,275611.59375,246953.96875,243059.765625,207932.0,1.0,4
230634.515625,270546.40625,298964.53125,279455.5625,240879.671875,275190.5625,246499.875,242470.484375,207933.0,1.0,4
230039.6875,269689.1875,298052.375,279238.65625,239461.9375,274647.78125,246089.953125,241955.328125,207934.0,1.0,4
230220.03125,270199.0,298735.46875,279497.75,239746.703125,274738.96875,246302.375,242243.84375,207935.0,1.0,4
230905.59375,271342.5,300040.09375,279863.625,241314.1875,275330.6875,246834.796875,242913.765625,207936.0,1.0,4
231162.5625,271568.625,300188.3125,279834.71875,242023.453125,275612.59375,246954.875,243046.078125,207937.0,1.0,4
230629.0625,270554.75,298961.125,279444.84375,240882.078125,275188.78125,246497.375,242460.109375,207938.0,1.0,4
230024.046875,269686.3125,298042.65625,279229.53125,239457.734375,274642.4375,246087.71875,241953.4375,207939.0,1.0,4
230197.59375,270185.75,298721.96875,279489.1875,239729.4375,274731.46875,246292.90625,242236.859375,207940.0,1.0,4
230893.0,271336.6875,300029.625,279853.59375,241295.859375,275318.4375,246814.953125,242902.046875,207941.0,1.0,4
231157.109375,271568.6875,300188.21875,279831.96875,242020.046875,275607.3125,246948.4375,243048.5,207942.0,1.0,4
230633.453125,270562.25,298972.03125,279451.34375,240896.296875,275201.65625,246508.453125,242475.046875,207943.0,1.0,4
230039.875,269697.0625,298048.8125,279233.46875,239473.5625,274660.84375,246102.546875,241966.3125,207944.0,1.0,4
230206.53125,270181.71875,298709.53125,279487.65625,239729.71875,274736.3125,246297.109375,242236.6875,207945.0,1.0,4
230892.71875,271320.78125,300014.875,279852.71875,241292.09375,275314.75,246816.28125,242899.8125,207946.0,1.0,4
231156.921875,271559.21875,300183.75,279830.1875,242023.71875,275606.6875,246947.8125,243048.59375,207947.0,1.0,4
230627.90625,270551.78125,298967.1875,279446.875,240901.65625,275198.96875,246509.4375,242474.328125,207948.0,1.0,4
230028.78125,269678.5625,298040.0625,279229.8125,239472.484375,274652.875,246104.515625,241968.828125,207949.0,1.0,4
230192.671875,270156.0625,298695.5,279478.96875,239717.46875,274723.15625,246290.84375,242231.953125,207950.0,1.0,4
230877.171875,271300.65625,300006.46875,279845.8125,241278.234375,275309.3125,246814.953125,242897.140625,207951.0,1.0,4
231152.8125,271559.125,300188.3125,279833.21875,242023.71875,275608.90625,246959.96875,243060.21875,207952.0,1.0,4
230634.609375,270566.0,298985.09375,279456.8125,240913.1875,275210.0625,246521.78125,242488.359375,207953.0,1.0,4
230024.234375,269680.875,298048.09375,279232.5,239472.484375,274660.65625,246102.375,241969.171875,207954.0,1.0,4
230184.09375,270153.75,298696.84375,279483.46875,239705.578125,274728.6875,246291.65625,242232.84375,207955.0,1.0,4
230881.734375,271314.34375,300019.78125,279862.0,241276.625,275325.75,246833.28125,242911.625,207956.0,1.0,4
231164.96875,271577.03125,300211.03125,279850.03125,242032.203125,275629.46875,246987.140625,243072.734375,207957.0,1.0,4
230642.65625,270574.6875,298999.125,279467.09375,240921.234375,275221.78125,246541.625,242497.484375,207958.0,1.0,4
230038.984375,269687.9375,298050.96875,279240.0,239475.703125,274657.0,246104.25,241972.9375,207959.0,1.0,4
230197.3125,270155.0,298690.75,279489.09375,239697.265625,274726.28125,246296.65625,242232.65625,207960.0,1.0,4
230887.09375,271304.875,300005.75,279857.0,241257.671875,275306.09375,246815.484375,242896.59375,207961.0,1.0,4
231166.046875,271569.15625,300203.53125,279847.34375,242021.921875,275608.09375,246961.03125,243067.453125,207962.0,1.0,4
230647.21875,270577.1875,298998.59375,279462.90625,240922.140625,275205.5,246522.234375,242490.78125,207963.0,1.0,4
230039.0625,269684.1875,298044.78125,279231.40625,239472.75,274647.25,246098.625,241954.421875,207964.0,1.0,4
230185.875,270139.34375,298677.4375,279477.71875,239684.921875,274712.6875,246279.671875,242206.734375,207965.0,1.0,4
230882.71875,271300.40625,300001.46875,279854.5,241247.9375,275294.1875,246802.4375,242882.65625,207966.0,1.0,4
231171.59375,271578.0,300213.34375,279845.65625,242025.765625,275603.8125,246959.15625,243059.046875,207967.0,1.0,4
230652.84375,270580.125,299008.5,279459.75,240933.84375,275199.96875,246514.1875,242487.03125,207968.0,1.0,4
230044.96875,269684.53125,298051.21875,279230.25,239479.8125,274646.90625,246096.5625,241954.96875,207969.0,1.0,4
230192.84375,270137.84375,298675.28125,279475.6875,239679.203125,274708.84375,246283.953125,242206.46875,207970.0,1.0,4
230879.859375,271292.875,299998.0625,279850.65625,241239.625,275298.65625,246815.65625,242879.875,207971.0,1.0,4
231169.625,271578.0,300220.0625,279846.09375,242030.25,275609.0,246964.078125,243054.765625,207972.0,1.0,4
230651.0625,270586.375,299021.90625,279466.375,240947.25,275216.0625,246528.21875,242489.703125,207973.0,1.0,4
230039.6875,269685.0625,298055.96875,279233.46875,239487.6875,274658.78125,246105.6875,241962.03125,207974.0,1.0,4
230183.015625,270126.03125,298669.46875,279475.9375,239675.625,274711.625,246275.375,242208.515625,207975.0,1.0,4
230875.46875,271282.78125,299990.09375,279851.09375,241229.96875,275295.8125,246802.25,242883.8125,207976.0,1.0,4
231172.125,271578.96875,300217.03125,279844.84375,242025.234375,275605.15625,246957.8125,243055.390625,207977.0,1.0,4
230663.046875,270598.375,299025.0625,279465.65625,240953.6875,275215.4375,246520.890625,242489.171875,207978.0,1.0,4
230047.828125,269691.875,298052.5625,279233.28125,239490.375,274655.375,246094.421875,241962.921875,207979.0,1.0,4
230181.21875,270123.625,298658.3125,279475.59375,239667.75,274708.59375,246271.890625,242206.828125,207980.0,1.0,4
230873.0625,271282.6875,299982.875,279849.75,241222.8125,275294.75,246797.0625,242872.90625,207981.0,1.0,4
231176.140625,271587.84375,300222.65625,279847.59375,242031.9375,275608.09375,246954.25,243051.546875,207982.0,1.0,4
230672.875,270611.78125,299037.46875,279466.46875,240969.875,275220.96875,246523.578125,242490.25,207983.0,1.0,4
230058.5625,269701.15625,298060.53125,279233.46875,239505.75,274658.96875,246089.859375,241959.703125,207984.0,1.0,4
230194.015625,270133.90625,298659.375,279475.40625,239672.9375,274709.9375,246265.8125,242201.1875,207985.0,1.0,4
230871.984375,271280.28125,299982.78125,279849.9375,241222.625,275286.875,246788.84375,242870.578125,207986.0,1.0,4
231176.859375,271593.75,300236.15625,279854.21875,242042.578125,275610.34375,246959.609375,243061.28125,207987.0,1.0,4
230682.625,270625.8125,299056.96875,279478.90625,240989.640625,275226.96875,246535.1875,242505.984375,207988.0,1.0,4
230057.125,269700.53125,298067.5,279238.75,239515.40625,274660.40625,246098.171875,241967.21875,207989.0,1.0,4
230180.328125,270118.53125,298651.15625,279471.125,239664.453125,274703.125,246262.953125,242198.15625,207990.0,1.0,4
230870.46875,271280.09375,299977.5,279849.125,241211.8125,275291.4375,246803.234375,242876.5625,207991.0,1.0,4
231181.25,271597.125,300237.0625,279851.1875,242038.828125,275616.59375,246973.28125,243067.71875,207992.0,1.0,4
230683.78125,270629.46875,299063.3125,279472.625,240994.828125,275236.96875,246544.671875,242509.109375,207993.0,1.0,4
230058.296875,269702.875,298068.65625,279229.90625,239512.453125,274676.03125,246107.828125,241961.125,207994.0,1.0,4
230177.734375,270108.15625,298640.5,279460.84375,239646.5625,274703.3125,246260.265625,242185.09375,207995.0,1.0,4
230856.78125,271259.1875,299963.65625,279836.0625,241187.046875,275275.96875,246780.34375,242859.671875,207996.0,1.0,4
231174.265625,271591.9375,300238.40625,279849.125,242032.03125,275611.59375,246961.21875,243068.96875,207997.0,1.0,4
230683.78125,270632.0625,299065.71875,279472.1875,240997.140625,275232.34375,246536.09375,242511.875,207998.0,1.0,4
230057.390625,269698.75,298066.25,279230.53125,239516.296875,274668.0,246100.234375,241974.0,207999.0,1.0,4
230165.765625,270092.59375,298628.25,279454.84375,239638.15625,274698.75,246249.71875,242184.109375,208000.0,1.0,4
230855.0,271257.5625,299957.21875,279836.625,241178.828125,275275.15625,246776.6875,242858.515625,208001.0,1.0,4
231180.890625,271603.46875,300244.1875,279855.21875,242035.25,275618.21875,246964.4375,243066.46875,208002.0,1.0,4
230691.734375,270646.90625,299080.5625,279482.03125,241014.671875,275253.625,246557.1875,242518.140625,208003.0,1.0,4
230059.546875,269706.96875,298067.9375,279231.25,239529.4375,274677.84375,246108.71875,241967.390625,208004.0,1.0,4
230166.828125,270095.71875,298617.25,279454.5625,239636.734375,274694.0,246239.34375,242172.40625,208005.0,1.0,4
230847.578125,271252.03125,299945.75,279833.84375,241172.46875,275268.53125,246769.0,242846.890625,208006.0,1.0,4
231177.75,271603.5625,300239.28125,279852.09375,242037.9375,275611.5,246959.421875,243065.671875,208007.0,1.0,4
230694.25,270655.3125,299081.90625,279481.40625,241026.203125,275249.59375,246548.875,242524.390625,208008.0,1.0,4
230061.515625,269712.25,298068.46875,279232.59375,239533.90625,274679.78125,246099.6875,241969.171875,208009.0,1.0,4
230163.4375,270088.3125,298613.96875,279457.53125,239630.109375,274694.09375,246241.578125,242174.28125,208010.0,1.0,4
230849.359375,271246.3125,299945.75,279840.625,241164.78125,275266.65625,246770.0625,242849.296875,208011.0,1.0,4
231187.765625,271608.21875,300252.25,279863.15625,242044.1875,275611.59375,246960.328125,243068.890625,208012.0,1.0,4
230710.78125,270664.53125,299098.375,279491.21875,241040.421875,275251.5625,246551.015625,242527.4375,208013.0,1.0,4
230078.234375,269715.75,298074.28125,279238.375,239542.40625,274678.28125,246104.875,241974.546875,208014.0,1.0,4
230169.953125,270083.125,298607.59375,279460.125,239628.6875,274691.875,246249.53125,242179.46875,208015.0,1.0,4
230847.3125,271238.6875,299938.0625,279838.75,241159.78125,275264.0625,246773.375,242846.625,208016.0,1.0,4
231186.609375,271603.03125,300249.46875,279859.5,242044.28125,275612.40625,246969.171875,243070.40625,208017.0,1.0,4
230710.25,270661.65625,299097.75,279487.46875,241047.484375,275251.375,246552.625,242531.28125,208018.0,1.0,4
230077.953125,269713.96875,298069.8125,279235.625,239546.515625,274680.6875,246110.0625,241979.1875,208019.0,1.0,4
230162.09375,270073.28125,298593.84375,279456.1875,239618.3125,274697.0625,246255.4375,242180.890625,208020.0,1.0,4
230831.03125,271221.96875,299921.8125,279836.0625,241142.703125,275265.5,246777.046875,242843.9375,208021.0,1.0,4
231173.90625,271595.25,300246.0,279864.15625,242037.3125,275608.03125,246967.65625,243073.796875,208022.0,1.0,4
230708.453125,270663.90625,299103.8125,279491.84375,241053.390625,275245.03125,246549.5,242536.828125,208023.0,1.0,4
230076.0,269709.46875,298069.75,279235.53125,239551.796875,274669.6875,246096.921875,241970.78125,208024.0,1.0,4
230161.734375,270063.4375,298587.84375,279454.03125,239614.734375,274682.3125,246237.828125,242162.65625,208025.0,1.0,4
230834.703125,271213.5,299917.34375,279834.28125,241135.640625,275252.90625,246757.453125,242823.46875,208026.0,1.0,4
231179.546875,271595.15625,300249.65625,279863.0625,242038.828125,275604.09375,246955.140625,243057.890625,208027.0,1.0,4
230711.953125,270666.9375,299112.65625,279494.53125,241064.5625,275250.65625,246549.5,242529.765625,208028.0,1.0,4
230071.34375,269702.34375,298070.90625,279237.5,239556.0,274674.0,246100.5,241968.109375,208029.0,1.0,4
230160.21875,270056.5625,298578.1875,279449.84375,239606.953125,274675.25,246227.546875,242152.546875,208030.0,1.0,4
230838.015625,271212.40625,299910.625,279832.0625,241127.328125,275243.875,246752.1875,242822.03125,208031.0,1.0,4
231189.828125,271607.5,300260.03125,279870.125,242048.296875,275612.9375,246966.5,243068.53125,208032.0,1.0,4
230725.53125,270685.4375,299127.6875,279501.34375,241082.625,275268.0,246565.328125,242543.078125,208033.0,1.0,4
230083.859375,269718.34375,298078.9375,279242.21875,239568.15625,274687.65625,246116.40625,241990.546875,208034.0,1.0,4
230160.84375,270057.8125,298575.6875,279451.71875,239603.296875,274678.28125,246237.015625,242168.5625,208035.0,1.0,4
230839.96875,271210.625,299909.46875,279833.46875,241123.125,275240.8125,246757.90625,242830.078125,208036.0,1.0,4
231192.859375,271601.4375,300259.125,279864.96875,242045.796875,275597.375,246958.890625,243068.609375,208037.0,1.0,4
230732.515625,270685.4375,299128.125,279493.46875,241086.46875,275253.0625,246553.515625,242530.65625,208038.0,1.0,4
230092.53125,269716.46875,298074.125,279232.84375,239572.625,274677.125,246101.390625,241976.15625,208039.0,1.0,4
230160.125,270041.28125,298553.25,279435.96875,239593.546875,274664.15625,246217.53125,242156.390625,208040.0,1.0,4
230831.125,271194.09375,299884.34375,279819.96875,241108.09375,275234.75,246747.265625,242822.921875,208041.0,1.0,4
231186.25,271603.125,300250.90625,279861.8125,242042.578125,275604.875,246966.765625,243073.71875,208042.0,1.0,4
230730.8125,270691.96875,299129.03125,279493.46875,241095.046875,275255.5625,246559.0625,242543.078125,208043.0,1.0,4
230078.234375,269707.875,298061.96875,279226.15625,239569.140625,274673.625,246097.71875,241970.4375,208044.0,1.0,4
230147.96875,270032.6875,298538.0625,279433.03125,239583.890625,274665.21875,246223.609375,242153.53125,208045.0,1.0,4
230829.25,271194.90625,299875.5,279822.75,241101.484375,275238.21875,246753.703125,242826.140625,208046.0,1.0,4
231189.109375,271608.65625,300247.59375,279862.71875,242044.546875,275605.53125,246966.046875,243070.3125,208047.0,1.0,4
230733.578125,270699.21875,299130.1875,279496.0625,241107.203125,275267.65625,246571.046875,242548.265625,208048.0,1.0,4
230081.984375,269715.28125,298059.53125,279224.53125,239580.40625,274687.84375,246115.875,241978.296875,208049.0,1.0,4
230140.8125,270028.03125,298526.15625,279423.8125,239579.6875,274677.28125,246242.03125,242151.84375,208050.0,1.0,4
230805.5625,271174.6875,299858.78125,279806.21875,241080.828125,275233.59375,246764.25,242814.25,208051.0,1.0,4
231161.65625,271587.84375,300236.5,279846.4375,242025.421875,275586.65625,246954.25,243059.59375,208052.0,1.0,4
230714.453125,270688.40625,299125.09375,279484.09375,241094.515625,275250.40625,246551.203125,242541.109375,208053.0,1.0,4
230065.171875,269703.65625,298053.65625,279215.59375,239565.203125,274671.5625,246098.890625,241973.296875,208054.0,1.0,4
230114.703125,270004.71875,298508.71875,279414.78125,239550.90625,274652.25,246212.34375,242140.296875,208055.0,1.0,4
230788.484375,271160.375,299842.21875,279798.875,241052.84375,275214.90625,246734.578125,242805.046875,208056.0,1.0,4
231161.75,271593.65625,300237.0625,279846.625,242018.359375,275592.5625,246958.53125,243064.421875,208057.0,1.0,4
230726.875,270706.8125,299139.59375,279487.84375,241105.5,275264.0625,246566.125,242553.359375,208058.0,1.0,4
230079.84375,269720.03125,298060.875,279218.8125,239576.640625,274683.375,246101.84375,241976.515625,208059.0,1.0,4
230128.203125,270013.65625,298507.84375,279417.90625,239553.9375,274658.15625,246209.9375,242141.640625,208060.0,1.0,4
230796.609375,271165.125,299844.71875,279802.1875,241049.453125,275210.6875,246724.921875,242807.90625,208061.0,1.0,4
231170.0625,271604.375,300250.46875,279855.125,242018.796875,275594.25,246949.6875,243065.75,208062.0,1.0,4
230730.28125,270715.75,299150.84375,279495.25,241109.890625,275270.34375,246566.03125,242555.59375,208063.0,1.0,4
230073.765625,269713.25,298058.03125,279215.84375,239576.203125,274678.1875,246099.78125,241966.578125,208064.0,1.0,4
230124.984375,270004.09375,298498.09375,279416.21875,239543.5625,274650.65625,246209.484375,242136.375,208065.0,1.0,4
230795.625,271159.21875,299834.90625,279803.96875,241040.515625,275206.59375,246727.59375,242801.921875,208066.0,1.0,4
231176.859375,271606.4375,300247.96875,279858.0625,242024.96875,275590.6875,246954.78125,243061.828125,208067.0,1.0,4
230740.5625,270722.8125,299160.78125,279502.84375,241129.5625,275275.96875,246574.53125,242564.09375,208068.0,1.0,4
230084.484375,269721.71875,298073.65625,279228.28125,239594.265625,274690.96875,246108.453125,241984.015625,208069.0,1.0,4
230125.171875,269998.625,298501.03125,279420.25,239544.46875,274650.5625,246207.96875,242132.703125,208070.0,1.0,4
230795.546875,271150.28125,299837.75,279807.09375,241036.9375,275203.71875,246723.578125,242798.78125,208071.0,1.0,4
231178.203125,271604.09375,300257.96875,279862.28125,242030.78125,275590.21875,246956.75,243070.5,208072.0,1.0,4
230749.046875,270729.875,299172.21875,279506.96875,241147.796875,275275.78125,246578.46875,242568.390625,208073.0,1.0,4
230097.71875,269729.15625,298076.53125,279230.0625,239608.5625,274691.0625,246110.6875,241980.359375,208074.0,1.0,4
230126.0625,269990.3125,298491.125,279416.125,239543.03125,274642.25,246200.0,242122.0625,208075.0,1.0,4
230789.90625,271140.1875,299826.21875,279805.9375,241026.828125,275194.96875,246719.109375,242791.71875,208076.0,1.0,4
231181.328125,271608.125,300259.75,279868.8125,242029.703125,275589.96875,246954.515625,243073.0,208077.0,1.0,4
230762.453125,270738.28125,299178.84375,279512.875,241155.21875,275276.5,246574.796875,242571.421875,208078.0,1.0,4
230108.1875,269731.5625,298082.78125,279236.96875,239618.671875,274701.0,246117.03125,241992.421875,208079.0,1.0,4
230134.5625,269989.875,298490.5,279422.84375,239540.609375,274651.625,246197.140625,242130.015625,208080.0,1.0,4
230797.328125,271142.59375,299824.0,279811.5,241018.6875,275200.40625,246709.71875,242791.28125,208081.0,1.0,4
231198.671875,271620.46875,300270.125,279875.59375,242029.53125,275595.5,246953.4375,243076.75,208082.0,1.0,4
230775.609375,270751.0625,299191.53125,279517.34375,241157.71875,275280.34375,246570.0625,242577.5,208083.0,1.0,4
230107.109375,269729.78125,298077.4375,279229.8125,239605.4375,274687.5,246097.90625,241977.84375,208084.0,1.0,4
230134.203125,269985.3125,298477.96875,279415.25,239523.09375,274642.875,246189.71875,242116.34375,208085.0,1.0,4
230796.4375,271134.4375,299808.0625,279800.75,240997.6875,275188.15625,246702.46875,242781.359375,208086.0,1.0,4
231196.53125,271617.25,300262.71875,279869.875,242020.3125,275592.09375,246957.8125,243085.96875,208087.0,1.0,4
230773.375,270754.90625,299193.125,279514.84375,241162.375,275287.9375,246580.703125,242588.765625,208088.0,1.0,4
230109.703125,269734.96875,298079.125,279229.375,239615.359375,274696.34375,246100.765625,241986.53125,208089.0,1.0,4
230124.90625,269978.59375,298468.3125,279411.65625,239520.140625,274645.8125,246192.234375,242117.5,208090.0,1.0,4
230782.390625,271131.84375,299804.3125,279800.21875,240992.5,275201.5625,246721.15625,242783.859375,208091.0,1.0,4
231180.890625,271622.96875,300263.15625,279868.8125,242020.59375,275596.5,246960.765625,243078.1875,208092.0,1.0,4
230766.3125,270769.59375,299200.28125,279515.09375,241174.96875,275291.96875,246579.8125,242581.703125,208093.0,1.0,4
230097.625,269744.96875,298078.40625,279226.0625,239622.78125,274704.03125,246107.46875,241985.71875,208094.0,1.0,4
230109.796875,269980.84375,298455.78125,279407.5625,239514.0625,274647.4375,246191.609375,242119.296875,208095.0,1.0,4
230770.234375,271127.9375,299786.875,279796.28125,240981.140625,275180.21875,246700.59375,242781.703125,208096.0,1.0,4
231171.234375,271623.15625,300255.90625,279866.28125,242019.515625,275586.5625,246957.109375,243076.9375,208097.0,1.0,4
230764.25,270780.84375,299203.59375,279517.875,241187.3125,275302.5,246594.109375,242592.078125,208098.0,1.0,4
230103.625,269759.90625,298077.59375,279229.625,239633.59375,274712.6875,246110.0625,241996.53125,208099.0,1.0,4
230108.8125,269980.84375,298441.21875,279402.90625,239507.265625,274635.375,246180.421875,242118.84375,208100.0,1.0,4
230764.609375,271126.75,299776.6875,279794.15625,240969.609375,275179.125,246702.03125,242779.390625,208101.0,1.0,4
231168.546875,271629.6875,300258.5,279869.4375,242017.1875,275591.75,246956.125,243079.25,208102.0,1.0,4
230766.390625,270790.59375,299207.53125,279516.8125,241188.125,275295.8125,246584.28125,242589.84375,208103.0,1.0,4
230104.875,269765.09375,298077.25,279226.59375,239631.359375,274709.125,246113.109375,241993.9375,208104.0,1.0,4
230106.65625,269985.21875,298440.25,279403.4375,239496.625,274648.6875,246190.890625,242108.75,208105.0,1.0,4
230767.46875,271138.03125,299781.875,279798.625,240960.9375,275203.0,246722.234375,242776.703125,208106.0,1.0,4
231177.484375,271646.65625,300268.34375,279871.5625,242012.90625,275605.15625,246969.71875,243081.40625,208107.0,1.0,4
230772.921875,270809.28125,299225.0625,279524.3125,241192.859375,275312.09375,246599.5625,242600.125,208108.0,1.0,4
230106.21875,269775.46875,298091.0,279230.4375,239631.28125,274722.34375,246121.59375,241997.515625,208109.0,1.0,4
230101.46875,269979.65625,298441.65625,279403.0,239484.296875,274653.15625,246197.6875,242114.640625,208110.0,1.0,4
230759.78125,271124.34375,299776.59375,279797.0,240938.578125,275190.84375,246711.6875,242778.484375,208111.0,1.0,4
231183.390625,271648.90625,300279.96875,279877.46875,242008.078125,275606.78125,246963.625,243083.375,208112.0,1.0,4
230789.015625,270819.65625,299244.625,279529.9375,241207.875,275321.46875,246600.375,242607.984375,208113.0,1.0,4
230121.40625,269782.25,298105.84375,279237.84375,239650.234375,274727.625,246121.421875,242010.9375,208114.0,1.0,4
230108.1875,269978.25,298444.71875,279406.75,239490.375,274651.90625,246187.484375,242114.546875,208115.0,1.0,4
230761.390625,271121.40625,299776.5,279797.28125,240942.25,275191.03125,246703.28125,242776.25,208116.0,1.0,4
231186.078125,271649.625,300282.375,279874.875,242015.484375,275601.59375,246958.0,243078.890625,208117.0,1.0,4
230797.6875,270829.65625,299253.125,279527.4375,241223.703125,275322.90625,246605.203125,242607.90625,208118.0,1.0,4
230126.328125,269786.09375,298109.0625,279231.9375,239664.0,274730.84375,246131.078125,242004.9375,208119.0,1.0,4
230104.78125,269971.0,298437.75,279400.5625,239494.578125,274653.5,246203.046875,242112.40625,208120.0,1.0,4
230750.21875,271108.6875,299769.375,279793.875,240937.15625,275193.4375,246716.421875,242776.96875,208121.0,1.0,4
231181.0625,271645.5,300287.21875,279877.5625,242017.375,275608.90625,246973.46875,243089.8125,208122.0,1.0,4
230796.4375,270827.0625,299263.40625,279532.53125,241233.265625,275326.3125,246615.75,242618.359375,208123.0,1.0,4
230127.046875,269779.5625,298108.625,279230.96875,239668.296875,274723.4375,246120.796875,242010.125,208124.0,1.0,4
230101.75,269955.34375,298423.53125,279390.375,239482.0625,274640.46875,246177.203125,242095.25,208125.0,1.0,4
230751.28125,271096.8125,299759.71875,279787.875,240923.296875,275182.0,246698.984375,242761.328125,208126.0,1.0,4
231182.21875,271643.34375,300289.34375,279878.8125,242013.609375,275604.4375,246972.578125,243091.0625,208127.0,1.0,4
230800.015625,270835.84375,299269.125,279530.84375,241238.453125,275325.59375,246606.890625,242614.25,208128.0,1.0,4
230127.84375,269787.8125,298106.9375,279228.09375,239669.0,274729.59375,246116.953125,242000.46875,208129.0,1.0,4
230094.953125,269953.90625,298411.375,279389.65625,239470.609375,274639.84375,246171.84375,242091.390625,208130.0,1.0,4
230738.234375,271093.5,299744.0625,279785.65625,240904.78125,275181.5625,246695.953125,242755.6875,208131.0,1.0,4
231175.25,271649.625,300281.5,279878.46875,242006.734375,275610.6875,246973.28125,243093.828125,208132.0,1.0,4
230791.78125,270842.09375,299266.28125,279531.5625,241236.9375,275325.5,246605.5625,242624.078125,208133.0,1.0,4
230115.15625,269783.59375,298100.40625,279223.71875,239665.78125,274722.625,246111.671875,241997.078125,208134.0,1.0,4
230080.28125,269937.1875,298395.625,279380.0,239456.3125,274630.0,246161.921875,242082.90625,208135.0,1.0,4
230726.25,271070.625,299721.15625,279773.75,240884.140625,275156.96875,246667.421875,242738.890625,208136.0,1.0,4
231162.203125,271628.5,300266.03125,279871.65625,241996.625,275589.4375,246950.21875,243079.171875,208137.0,1.0,4
230785.890625,270831.09375,299265.375,279535.3125,241247.125,275329.78125,246614.59375,242629.890625,208138.0,1.0,4
230116.234375,269777.4375,298097.625,279225.4375,239674.546875,274734.34375,246122.046875,242005.5625,208139.0,1.0,4
230074.390625,269928.09375,298382.3125,279375.28125,239451.921875,274631.0625,246160.484375,242079.421875,208140.0,1.0,4
230715.25,271065.15625,299711.6875,279767.78125,240876.984375,275165.0,246677.34375,242732.890625,208141.0,1.0,4
231158.890625,271634.40625,300271.03125,279867.0,241999.21875,275604.0,246972.390625,243080.859375,208142.0,1.0,4
230791.875,270845.84375,299277.90625,279532.0,241260.53125,275338.375,246629.078125,242633.5625,208143.0,1.0,4
230113.28125,269779.40625,298102.1875,279223.28125,239686.34375,274731.65625,246122.3125,242008.96875,208144.0,1.0,4
230067.671875,269919.78125,298377.21875,279372.40625,239452.546875,274621.9375,246158.25,242078.171875,208145.0,1.0,4
230715.96875,271060.25,299705.96875,279767.0625,240873.671875,275156.0625,246677.34375,242731.28125,208146.0,1.0,4
231162.28125,271632.625,300272.09375,279867.46875,242000.5625,275593.625,246966.578125,243076.484375,208147.0,1.0,4
230802.6875,270852.46875,299288.8125,279534.40625,241272.25,275339.71875,246625.40625,242630.609375,208148.0,1.0,4
230126.15625,269790.125,298114.0,279222.46875,239692.078125,274732.71875,246120.875,242004.5,208149.0,1.0,4
230074.03125,269920.3125,298376.65625,279369.375,239442.265625,274626.59375,246159.859375,242072.796875,208150.0,1.0,4
230715.25,271052.09375,299700.34375,279763.46875,240855.890625,275145.4375,246665.1875,242724.578125,208151.0,1.0,4
231169.984375,271633.0,300274.34375,279868.4375,241991.4375,275579.6875,246951.65625,243072.1875,208152.0,1.0,4
230807.796875,270854.25,299294.6875,279537.0,241271.359375,275331.40625,246625.5,242631.5,208153.0,1.0,4
230132.140625,269787.71875,298111.125,279226.15625,239692.34375,274731.03125,246128.921875,242010.9375,208154.0,1.0,4
230071.515625,269902.0625,298358.6875,279365.53125,239428.40625,274605.3125,246152.984375,242067.703125,208155.0,1.0,4
230716.953125,271042.0,299685.59375,279763.9375,240839.078125,275135.15625,246668.671875,242725.296875,208156.0,1.0,4
231175.4375,271629.84375,300266.65625,279869.15625,241983.21875,275568.5,246945.578125,243076.390625,208157.0,1.0,4
230815.125,270854.25,299291.3125,279534.15625,241274.21875,275320.03125,246614.234375,242634.71875,208158.0,1.0,4
230132.046875,269783.6875,298107.90625,279224.875,239698.59375,274724.21875,246125.359375,242019.15625,208159.0,1.0,4
230075.09375,269902.15625,298353.25,279367.40625,239428.40625,274608.71875,246150.921875,242074.859375,208160.0,1.0,4
230712.84375,271031.1875,299678.15625,279760.25,240832.015625,275134.59375,246661.609375,242729.5,208161.0,1.0,4
231170.515625,271625.375,300268.78125,279866.03125,241983.9375,275570.5625,246952.8125,243077.640625,208162.0,1.0,4
230828.625,270866.59375,299304.4375,279538.25,241293.078125,275336.03125,246633.625,242641.515625,208163.0,1.0,4
230144.84375,269787.71875,298108.625,279224.96875,239711.46875,274742.375,246142.609375,242026.9375,208164.0,1.0,4
230071.796875,269888.46875,298341.625,279360.53125,239426.890625,274617.03125,246156.5625,242067.96875,208165.0,1.0,4
230702.109375,271017.96875,299667.0,279757.84375,240821.640625,275131.46875,246663.671875,242720.109375,208166.0,1.0,4
231169.890625,271631.71875,300274.15625,279873.1875,241983.21875,275587.53125,246973.90625,243080.78125,208167.0,1.0,4
230826.75,270878.75,299316.25,279541.65625,241297.28125,275343.375,246637.5625,242642.765625,208168.0,1.0,4
230140.359375,269796.21875,298119.34375,279224.53125,239714.515625,274739.53125,246127.9375,242009.328125,208169.0,1.0,4
230062.3125,269885.71875,298341.8125,279359.1875,239415.453125,274610.78125,246146.546875,242054.734375,208170.0,1.0,4
230693.078125,271011.4375,299660.65625,279751.75,240801.171875,275123.6875,246650.96875,242708.3125,208171.0,1.0,4
231164.25,271629.59375,300272.71875,279866.28125,241971.859375,275577.625,246948.34375,243066.46875,208172.0,1.0,4
230824.59375,270885.625,299326.96875,279544.15625,241306.578125,275351.78125,246638.734375,242649.5625,208173.0,1.0,4
230144.125,269807.21875,298126.34375,279226.3125,239725.875,274757.84375,246134.46875,242013.609375,208174.0,1.0,4
230069.734375,269894.46875,298336.875,279358.90625,239418.578125,274623.90625,246153.15625,242057.25,208175.0,1.0,4
230693.703125,271015.53125,299656.1875,279754.53125,240801.96875,275142.65625,246669.75,242707.59375,208176.0,1.0,4
231168.375,271637.1875,300280.21875,279873.0,241982.5,275588.625,246956.5625,243069.0625,208177.0,1.0,4
230833.453125,270891.875,299332.25,279541.375,241316.859375,275339.1875,246618.609375,242641.875,208178.0,1.0,4
230148.140625,269805.5,298124.375,279219.4375,239730.703125,274741.21875,246121.6875,242011.203125,208179.0,1.0,4
230063.203125,269880.59375,298325.4375,279348.71875,239409.640625,274608.375,246134.828125,242045.796875,208180.0,1.0,4
230684.59375,270995.34375,299643.125,279745.59375,240787.84375,275121.03125,246643.28125,242697.046875,208181.0,1.0,4
231157.8125,271622.625,300273.15625,279868.71875,241973.5625,275574.75,246957.734375,243071.5625,208182.0,1.0,4
230828.265625,270888.21875,299333.5,279544.0625,241321.328125,275340.4375,246635.59375,242650.109375,208183.0,1.0,4
230143.9375,269800.84375,298121.15625,279220.875,239736.78125,274737.71875,246128.578125,242017.015625,208184.0,1.0,4
230053.109375,269868.90625,298314.1875,279347.09375,239403.375,274599.15625,246138.859375,242050.546875,208185.0,1.0,4
230678.328125,270988.625,299632.21875,279744.875,240776.40625,275108.5,246641.3125,242701.875,208186.0,1.0,4
231157.375,271624.3125,300274.4375,279870.5,241972.21875,275570.75,246958.453125,243077.828125,208187.0,1.0,4
230835.6875,270902.4375,299347.0,279548.625,241334.296875,275355.0,246648.46875,242660.03125,208188.0,1.0,4
230149.84375,269810.875,298129.8125,279226.40625,239745.09375,274753.375,246140.015625,242029.265625,208189.0,1.0,4
230052.5625,269864.875,298308.09375,279348.28125,239397.828125,274601.9375,246138.859375,242051.34375,208190.0,1.0,4
230681.546875,270987.28125,299624.96875,279740.0625,240767.1875,275111.0,246635.515625,242692.484375,208191.0,1.0,4
231166.484375,271635.5,300275.6875,279868.34375,241970.4375,275579.21875,246957.109375,243079.34375,208192.0,1.0,4
230850.53125,270919.53125,299355.9375,279552.3125,241345.5625,275367.5,246659.828125,242667.890625,208193.0,1.0,4
230162.09375,269819.28125,298133.9375,279225.25,239755.734375,274759.09375,246145.109375,242027.296875,208194.0,1.0,4
230053.015625,269860.9375,298300.5,279341.375,239394.53125,274601.84375,246131.4375,242041.0625,208195.0,1.0,4
230671.71875,270979.96875,299614.6875,279739.96875,240756.734375,275111.4375,246639.0,242692.65625,208196.0,1.0,4
231158.09375,271633.875,300270.9375,279867.8125,241966.234375,275575.375,246949.59375,243072.640625,208197.0,1.0,4
230841.046875,270919.96875,299357.1875,279545.6875,241350.21875,275363.03125,246643.828125,242658.328125,208198.0,1.0,4
230157.171875,269825.90625,298135.71875,279222.125,239765.03125,274760.96875,246139.390625,242029.078125,208199.0,1.0,4
230048.09375,269864.59375,298295.9375,279343.625,239395.78125,274607.1875,246139.484375,242050.71875,208200.0,1.0,4
230663.390625,270971.375,299602.875,279737.375,240747.515625,275103.75,246637.296875,242688.71875,208201.0,1.0,4
231161.3125,271634.59375,300270.9375,279869.25,241967.125,275571.8125,246954.953125,243073.984375,208202.0,1.0,4
230850.890625,270929.0,299367.3125,279553.28125,241362.734375,275361.15625,246652.3125,242666.734375,208203.0,1.0,4
230160.484375,269827.21875,298142.59375,279226.40625,239773.96875,274770.8125,246162.015625,242023.890625,208204.0,1.0,4
230053.90625,269858.625,298295.75,279344.4375,239394.53125,274613.625,246152.4375,242039.28125,208205.0,1.0,4
230659.734375,270949.5625,299591.71875,279731.125,240730.625,275080.15625,246619.421875,242671.109375,208206.0,1.0,4
231150.671875,271612.96875,300267.09375,279871.46875,241955.953125,275550.875,246939.3125,243071.484375,208207.0,1.0,4
230845.4375,270920.9375,299375.78125,279560.6875,241365.40625,275355.09375,246647.84375,242677.28125,208208.0,1.0,4
230158.78125,269822.75,298145.65625,279228.65625,239775.9375,274756.34375,246146.90625,242037.125,208209.0,1.0,4
230042.5625,269842.625,298281.0,279340.5,239380.3125,274593.53125,246130.625,242036.59375,208210.0,1.0,4
230650.25,270941.875,299582.40625,279731.5625,240715.875,275087.65625,246619.6875,242671.203125,208211.0,1.0,4
231145.921875,271612.15625,300267.8125,279871.21875,241949.859375,275559.90625,246945.484375,243071.296875,208212.0,1.0,4
230845.4375,270926.65625,299381.78125,279562.125,241373.28125,275367.78125,246656.421875,242679.96875,208213.0,1.0,4
230162.546875,269827.21875,298148.25,279232.65625,239785.40625,274771.96875,246150.65625,242036.140625,208214.0,1.0,4
230044.4375,269843.59375,298276.25,279339.78125,239379.859375,274603.8125,246135.0,242037.3125,208215.0,1.0,4
230651.59375,270944.375,299576.59375,279730.84375,240714.53125,275095.09375,246630.953125,242670.484375,208216.0,1.0,4
231149.0625,271622.78125,300268.34375,279870.125,241955.765625,275566.34375,246959.15625,243075.046875,208217.0,1.0,4
230854.90625,270943.375,299388.9375,279559.4375,241385.078125,275371.0,246663.9375,242685.78125,208218.0,1.0,4
230160.21875,269830.375,298149.65625,279219.625,239792.125,274768.03125,246139.5625,242024.078125,208219.0,1.0,4
230035.140625,269833.65625,298266.4375,279325.84375,239372.796875,274594.21875,246117.484375,242015.84375,208220.0,1.0,4
230650.4375,270940.625,299570.875,279723.34375,240705.328125,275090.96875,246620.84375,242663.78125,208221.0,1.0,4
231156.921875,271627.71875,300275.75,279870.5,241955.765625,275573.15625,246970.25,243082.921875,208222.0,1.0,4
230860.546875,270943.9375,299398.40625,279555.78125,241391.34375,275365.0,246669.03125,242682.28125,208223.0,1.0,4
230169.421875,269831.96875,298156.71875,279216.75,239800.703125,274766.0625,246150.203125,242025.953125,208224.0,1.0,4
230033.796875,269819.625,298260.71875,279319.125,239365.640625,274585.03125,246120.25,242017.1875,208225.0,1.0,4
230645.0625,270924.0625,299562.75,279718.15625,240685.828125,275072.90625,246618.25,242665.390625,208226.0,1.0,4
231152.625,271616.96875,300270.5,279863.6875,241938.328125,275547.75,246947.8125,243070.046875,208227.0,1.0,4
230866.4375,270948.84375,299403.15625,279554.96875,241393.046875,275363.40625,246657.0625,242670.484375,208228.0,1.0,4
230171.84375,269832.40625,298156.375,279221.5,239805.53125,274769.84375,246154.046875,242027.734375,208229.0,1.0,4
230036.125,269819.625,298255.96875,279324.03125,239364.84375,274592.625,246128.125,242018.359375,208230.0,1.0,4
230644.078125,270918.71875,299552.71875,279716.71875,240676.53125,275066.3125,246606.71875,242653.328125,208231.0,1.0,4
231156.203125,271622.0625,300273.09375,279868.53125,241942.265625,275552.9375,246949.78125,243070.84375,208232.0,1.0,4
230872.609375,270963.0625,299417.09375,279567.3125,241410.65625,275379.3125,246673.78125,242693.734375,208233.0,1.0,4
230179.078125,269848.875,298167.28125,279232.84375,239820.28125,274787.71875,246176.671875,242053.40625,208234.0,1.0,4
230038.171875,269825.8125,298250.875,279330.125,239361.890625,274596.90625,246136.890625,242028.546875,208235.0,1.0,4
230638.8125,270915.5,299540.65625,279717.4375,240660.890625,275062.09375,246597.515625,242650.1875,208236.0,1.0,4
231154.234375,271621.8125,300269.15625,279869.59375,241932.078125,275551.96875,246947.1875,243077.828125,208237.0,1.0,4
230868.3125,270963.9375,299415.75,279564.28125,241406.359375,275378.0625,246675.5625,242705.625,208238.0,1.0,4
230176.125,269852.71875,298163.625,279226.15625,239815.546875,274787.53125,246169.25,242055.640625,208239.0,1.0,4
230028.25,269819.1875,298236.65625,279316.09375,239348.65625,274595.21875,246125.53125,242020.765625,208240.0,1.0,4
230626.296875,270905.3125,299522.96875,279706.4375,240645.953125,275064.0625,246603.59375,242648.21875,208241.0,1.0,4
231148.15625,271622.96875,300260.65625,279865.84375,241926.890625,275556.875,246954.0625,243073.0,208242.0,1.0,4
230877.34375,270975.03125,299419.96875,279562.21875,241418.609375,275381.90625,246674.84375,242693.375,208243.0,1.0,4
230187.03125,269855.65625,298163.25,279221.65625,239832.078125,274782.625,246165.859375,242048.75,208244.0,1.0,4
230028.609375,269808.09375,298226.28125,279310.625,239353.9375,274584.40625,246122.765625,242014.59375,208245.0,1.0,4
230622.53125,270894.75,299515.4375,279702.5,240645.859375,275062.8125,246609.140625,242640.171875,208246.0,1.0,4
231145.65625,271617.15625,300261.5625,279862.28125,241928.5,275556.0,246958.625,243068.4375,208247.0,1.0,4
230879.40625,270977.0,299425.15625,279561.6875,241428.53125,275384.9375,246684.859375,242700.265625,208248.0,1.0,4
230181.671875,269852.0,298160.3125,279219.53125,239836.828125,274785.9375,246173.71875,242056.703125,208249.0,1.0,4
230022.265625,269800.40625,298211.53125,279304.375,239342.046875,274582.78125,246121.421875,242019.609375,208250.0,1.0,4
230615.921875,270882.0625,299496.03125,279692.84375,240625.125,275055.125,246596.703125,242630.703125,208251.0,1.0,4
231140.65625,271605.96875,300245.625,279851.09375,241911.25,275541.6875,246939.84375,243055.65625,208252.0,1.0,4
230871.0,270966.625,299418.09375,279552.3125,241419.328125,275372.53125,246667.78125,242693.828125,208253.0,1.0,4
230177.65625,269843.78125,298157.0,279211.375,239830.46875,274775.5625,246158.703125,242049.375,208254.0,1.0,4
230023.0625,269794.96875,298205.28125,279299.8125,239334.4375,274571.78125,246108.71875,242012.71875,208255.0,1.0,4
230615.75,270876.59375,299490.5,279692.5,240613.328125,275039.21875,246584.359375,242631.421875,208256.0,1.0,4
231142.171875,271607.78125,300250.625,279852.875,241912.046875,275537.03125,246931.265625,243051.09375,208257.0,1.0,4
230882.625,270985.78125,299435.875,279560.34375,241436.765625,275383.875,246668.953125,242695.15625,208258.0,1.0,4
230196.515625,269868.09375,298168.09375,279219.875,239848.0,274789.21875,246158.796875,242045.796875,208259.0,1.0,4
230021.359375,269791.90625,298199.90625,279300.875,239330.59375,274573.40625,246098.984375,241996.171875,208260.0,1.0,4
230602.78125,270865.5,299479.9375,279689.28125,240599.46875,275038.5,246577.65625,242615.328125,208261.0,1.0,4
231139.578125,271608.84375,300247.96875,279854.40625,241904.09375,275535.6875,246932.078125,243054.484375,208262.0,1.0,4
230890.40625,270995.6875,299441.5,279564.90625,241441.59375,275392.1875,246682.625,242709.375,208263.0,1.0,4
230199.203125,269876.84375,298178.625,279221.21875,239859.078125,274804.78125,246182.9375,242061.171875,208264.0,1.0,4
230022.96875,269796.84375,298200.53125,279298.84375,239335.421875,274583.0625,246119.09375,242007.09375,208265.0,1.0,4
230597.421875,270861.21875,299469.03125,279682.375,240590.515625,275028.3125,246570.515625,242621.3125,208266.0,1.0,4
231127.234375,271607.875,300244.125,279849.40625,241901.234375,275530.6875,246930.8125,243056.375,208267.0,1.0,4
230875.109375,270998.65625,299445.71875,279564.28125,241451.15625,275392.5625,246684.0625,242713.40625,208268.0,1.0,4
230181.859375,269870.3125,298171.3125,279217.28125,239862.484375,274790.75,246158.515625,242054.921875,208269.0,1.0,4
229998.390625,269775.1875,298178.09375,279287.375,239322.734375,274561.34375,246090.65625,241995.734375,208270.0,1.0,4
230577.125,270843.53125,299451.625,279677.46875,240578.453125,275025.875,246563.625,242607.71875,208271.0,1.0,4
231116.953125,271601.78125,300239.1875,279851.375,241901.59375,275534.96875,246928.859375,243050.109375,208272.0,1.0,4
230873.234375,271003.125,299449.03125,279565.875,241463.3125,275393.71875,246682.09375,242713.84375,208273.0,1.0,4
230175.5,269865.6875,298170.75,279213.625,239869.28125,274791.28125,246156.109375,242056.96875,208274.0,1.0,4
229985.6875,269759.0,298166.65625,279281.84375,239315.125,274565.0,246085.921875,241988.84375,208275.0,1.0,4
230558.515625,270821.34375,299431.6875,279670.6875,240560.21875,275020.4375,246559.6875,242597.53125,208276.0,1.0,4
231101.578125,271585.6875,300227.5625,279844.84375,241885.765625,275526.03125,246926.53125,243046.359375,208277.0,1.0,4
230878.0625,271007.3125,299454.03125,279566.25,241465.546875,275399.53125,246687.8125,242712.859375,208278.0,1.0,4
230185.25,269872.65625,298174.78125,279215.15625,239875.53125,274806.125,246173.453125,242057.875,208279.0,1.0,4
229986.9375,269755.53125,298160.9375,279282.28125,239307.984375,274565.09375,246086.015625,241983.484375,208280.0,1.0,4
230560.578125,270818.5,299428.53125,279671.375,240545.734375,275013.8125,246549.40625,242590.640625,208281.0,1.0,4
231112.578125,271591.40625,300234.90625,279852.09375,241881.296875,275526.75,246926.078125,243046.625,208282.0,1.0,4
230887.8125,271014.46875,299469.03125,279575.46875,241471.1875,275398.0,246687.8125,242722.875,208283.0,1.0,4
230192.9375,269879.8125,298190.875,279223.28125,239884.828125,274803.90625,246172.640625,242068.15625,208284.0,1.0,4
229994.0,269761.875,298165.03125,279281.65625,239307.71875,274564.8125,246094.421875,241979.734375,208285.0,1.0,4
230570.328125,270827.53125,299433.71875,279675.40625,240545.8125,275021.34375,246566.21875,242592.875,208286.0,1.0,4
231121.15625,271606.25,300249.125,279857.90625,241886.65625,275534.78125,246936.90625,243054.578125,208287.0,1.0,4
230897.46875,271033.0625,299488.625,279579.75,241483.96875,275410.875,246703.09375,242736.015625,208288.0,1.0,4
230202.234375,269894.71875,298201.96875,279223.625,239892.515625,274816.15625,246182.578125,242073.78125,208289.0,1.0,4
229992.84375,269762.40625,298165.84375,279280.0625,239302.796875,274566.875,246094.78125,241984.5625,208290.0,1.0,4
230562.640625,270822.59375,299429.09375,279672.46875,240530.53125,275023.5625,246572.921875,242596.71875,208291.0,1.0,4
231118.203125,271606.78125,300249.46875,279858.59375,241878.703125,275539.4375,246946.203125,243056.90625,208292.0,1.0,4
230902.5625,271039.78125,299493.1875,279578.75,241486.296875,275404.875,246695.59375,242727.96875,208293.0,1.0,4
230210.90625,269900.71875,298208.3125,279229.09375,239903.4375,274813.09375,246183.828125,242075.65625,208294.0,1.0,4
229994.453125,269758.125,298160.125,279286.21875,239303.59375,274570.09375,246092.09375,241981.15625,208295.0,1.0,4
230559.953125,270813.5625,299416.46875,279674.53125,240520.078125,275016.40625,246554.421875,242585.8125,208296.0,1.0,4
231122.5,271609.75,300249.375,279865.40625,241876.015625,275540.59375,246946.640625,243059.765625,208297.0,1.0,4
230908.1875,271051.65625,299507.21875,279591.28125,241498.265625,275426.0625,246717.5,242747.734375,208298.0,1.0,4
230211.453125,269910.28125,298215.90625,279233.75,239913.09375,274829.65625,246184.625,242083.625,208299.0,1.0,4
229997.21875,269761.78125,298152.875,279284.0,239296.984375,274568.21875,246087.0,241991.078125,208300.0,1.0,4
230558.703125,270812.0625,299406.0,279673.90625,240505.765625,275014.09375,246560.140625,242599.859375,208301.0,1.0,4
231120.265625,271612.25,300246.34375,279864.6875,241867.34375,275535.40625,246943.78125,243062.8125,208302.0,1.0,4
230911.140625,271062.125,299510.15625,279591.1875,241503.8125,275421.0625,246712.3125,242741.828125,208303.0,1.0,4
230211.625,269919.0625,298217.34375,279230.78125,239918.453125,274829.1875,246194.1875,242079.421875,208304.0,1.0,4
229997.859375,269770.46875,298152.4375,279280.40625,239293.234375,274577.4375,246094.78125,241975.34375,208305.0,1.0,4
230559.953125,270816.875,299406.0,279670.84375,240497.890625,275019.71875,246562.375,242581.265625,208306.0,1.0,4
231115.703125,271614.3125,300249.375,279861.5625,241862.421875,275537.3125,246943.96875,243057.625,208307.0,1.0,4
230907.75,271074.09375,299523.75,279590.75,241511.328125,275429.03125,246719.109375,242753.28125,208308.0,1.0,4
230219.140625,269940.0625,298229.6875,279231.59375,239931.140625,274838.5,246199.921875,242089.96875,208309.0,1.0,4
230007.421875,269782.78125,298156.71875,279283.71875,239305.390625,274589.75,246107.828125,241990.640625,208310.0,1.0,4
230559.859375,270815.71875,299404.40625,279670.3125,240498.171875,275025.71875,246566.3125,242592.4375,208311.0,1.0,4
231119.546875,271618.84375,300256.625,279862.90625,241865.828125,275543.125,246948.796875,243065.484375,208312.0,1.0,4
230927.421875,271091.53125,299538.4375,279593.78125,241526.25,275435.375,246721.34375,242756.234375,208313.0,1.0,4
230234.25,269946.9375,298238.96875,279231.6875,239943.84375,274835.53125,246182.484375,242092.03125,208314.0,1.0,4
230003.578125,269772.875,298154.75,279279.78125,239302.96875,274585.75,246092.625,241991.53125,208315.0,1.0,4
230558.078125,270808.65625,299397.4375,279665.125,240486.28125,275011.6875,246546.8125,242584.03125,208316.0,1.0,4
231119.546875,271612.40625,300254.3125,279859.15625,241857.6875,275520.03125,246922.765625,243059.046875,208317.0,1.0,4
230918.65625,271078.3125,299541.375,279590.65625,241526.53125,275420.25,246707.5625,242754.53125,208318.0,1.0,4
230227.8125,269938.53125,298240.9375,279229.0,239949.03125,274832.0625,246190.078125,242095.328125,208319.0,1.0,4
229996.15625,269759.71875,298144.46875,279273.78125,239294.921875,274570.90625,246086.90625,241984.28125,208320.0,1.0,4
230545.109375,270789.875,299383.46875,279663.53125,240472.6875,275002.375,246547.4375,242581.34375,208321.0,1.0,4
231115.96875,271611.53125,300253.3125,279865.125,241856.703125,275532.1875,246949.78125,243073.0,208322.0,1.0,4
230918.65625,271092.15625,299549.6875,279599.6875,241538.859375,275437.25,246732.96875,242773.3125,208323.0,1.0,4
230226.203125,269949.8125,298243.375,279233.5625,239958.328125,274849.40625,246203.84375,242092.5625,208324.0,1.0,4
229990.96875,269763.9375,298138.75,279273.96875,239290.90625,274588.875,246106.046875,241977.21875,208325.0,1.0,4
230538.046875,270791.5,299376.25,279657.25,240458.5625,275012.3125,246559.25,242572.234375,208326.0,1.0,4
231106.046875,271611.78125,300246.34375,279852.71875,241841.6875,275529.4375,246934.578125,243045.109375,208327.0,1.0,4
230914.359375,271094.40625,299548.34375,279586.1875,241531.171875,275428.75,246709.0,242744.609375,208328.0,1.0,4
230225.296875,269949.53125,298249.0,279228.65625,239957.609375,274846.0,246191.609375,242088.171875,208329.0,1.0,4
229990.515625,269760.625,298136.96875,279269.78125,239283.03125,274585.84375,246089.5,241970.96875,208330.0,1.0,4
230532.6875,270786.3125,299369.34375,279654.21875,240445.59375,275007.03125,246542.53125,242563.28125,208331.0,1.0,4
231109.359375,271615.375,300251.09375,279858.25,241843.46875,275531.3125,246939.3125,243058.875,208332.0,1.0,4
230924.90625,271105.40625,299563.5625,279596.09375,241547.171875,275433.125,246723.3125,242770.4375,208333.0,1.0,4
230232.453125,269954.8125,298255.25,279230.0,239972.28125,274839.21875,246190.265625,242098.8125,208334.0,1.0,4
229985.25,269749.4375,298127.75,279263.59375,239285.1875,274568.21875,246075.109375,241969.890625,208335.0,1.0,4
230529.640625,270774.78125,299358.34375,279650.8125,240436.296875,274991.5625,246534.203125,242558.015625,208336.0,1.0,4
231110.96875,271612.25,300250.90625,279860.65625,241838.5625,275531.40625,246946.28125,243061.375,208337.0,1.0,4
230938.6875,271118.09375,299577.0625,279603.4375,241561.9375,275449.78125,246735.109375,242782.96875,208338.0,1.0,4
230243.8125,269964.28125,298262.3125,279230.625,239985.953125,274851.28125,246199.65625,242101.234375,208339.0,1.0,4
229984.0,269739.6875,298120.59375,279257.0,239283.578125,274570.53125,246076.0,241959.078125,208340.0,1.0,4
230523.75,270761.96875,299349.40625,279646.1875,240432.453125,274995.5,246543.953125,242554.96875,208341.0,1.0,4
231099.25,271602.125,300246.71875,279856.625,241835.0625,275529.4375,246943.0625,243049.578125,208342.0,1.0,4
230927.59375,271112.09375,299577.40625,279599.6875,241562.828125,275443.59375,246731.171875,242771.0625,208343.0,1.0,4
230239.609375,269961.0625,298266.96875,279233.28125,239991.5,274858.4375,246213.953125,242112.671875,208344.0,1.0,4
229982.828125,269732.90625,298117.21875,279260.125,239278.203125,274572.96875,246082.34375,241968.546875,208345.0,1.0,4
230515.96875,270742.65625,299338.15625,279646.25,240413.9375,274991.5625,246535.8125,242553.546875,208346.0,1.0,4
231103.546875,271596.25,300248.59375,279865.65625,241828.984375,275536.84375,246949.953125,243067.640625,208347.0,1.0,4
230940.65625,271120.6875,299593.3125,279613.375,241572.21875,275457.5625,246751.015625,242797.53125,208348.0,1.0,4
230243.8125,269962.15625,298271.78125,279238.75,239996.859375,274855.46875,246215.734375,242111.96875,208349.0,1.0,4
229984.359375,269732.28125,298112.125,279262.53125,239272.671875,274570.71875,246084.765625,241963.375,208350.0,1.0,4
230519.359375,270747.5,299332.4375,279647.4375,240403.75,274988.4375,246535.640625,242552.734375,208351.0,1.0,4
231106.140625,271599.90625,300240.09375,279855.125,241817.640625,275510.9375,246913.390625,243039.375,208352.0,1.0,4
230942.796875,271125.59375,299591.4375,279606.21875,241573.546875,275446.90625,246730.1875,242776.53125,208353.0,1.0,4
230254.265625,269973.3125,298276.34375,279237.75,240007.328125,274862.375,246207.0625,242112.9375,208354.0,1.0,4
229980.5,269719.21875,298098.53125,279249.75,239264.96875,274544.625,246049.171875,241959.171875,208355.0,1.0,4
230501.75,270716.75,299304.0,279625.53125,240374.609375,274942.28125,246483.15625,242527.703125,208356.0,1.0,4
231074.40625,271563.5,300212.375,279833.5625,241784.546875,275474.09375,246881.203125,243022.65625,208357.0,1.0,4
230921.0625,271098.59375,299568.8125,279577.34375,241548.609375,275390.84375,246677.265625,242754.0,208358.0,1.0,4
230234.515625,269943.8125,298252.84375,279207.625,239986.75,274809.0,246158.796875,242081.734375,208359.0,1.0,4
229964.40625,269695.71875,298080.46875,279239.71875,239251.65625,274528.96875,246040.5,241936.1875,208360.0,1.0,4
230530.890625,270740.78125,299328.9375,279659.9375,240402.765625,274976.28125,246521.78125,242552.296875,208361.0,1.0,4
231144.9375,271629.6875,300272.625,279893.375,241848.390625,275532.375,246944.859375,243078.71875,208362.0,1.0,4
230995.640625,271172.375,299641.78125,279645.71875,241629.96875,275472.03125,246758.0,242818.71875,208363.0,1.0,4
230308.0,270018.28125,298323.90625,279273.96875,240066.78125,274889.90625,246236.03125,242151.484375,208364.0,1.0,4
230020.109375,269746.40625,298125.71875,279283.09375,239302.171875,274583.875,246089.046875,241986.25,208365.0,1.0,4
230539.390625,270741.875,299324.125,279658.6875,240395.96875,274980.21875,246523.21875,242549.96875,208366.0,1.0,4
231129.03125,271613.3125,300255.1875,279878.625,241823.09375,275520.65625,246932.421875,243061.28125,208367.0,1.0,4
230986.609375,271166.1875,299635.15625,279632.75,241613.25,275464.4375,246749.953125,242807.09375,208368.0,1.0,4
230297.28125,270006.40625,298308.8125,279256.8125,240046.84375,274879.53125,246225.578125,242136.453125,208369.0,1.0,4
230005.8125,269727.8125,298100.65625,279266.90625,239273.015625,274567.84375,246079.84375,241969.890625,208370.0,1.0,4
230516.765625,270715.9375,299301.21875,279647.0625,240365.84375,274965.8125,246525.265625,242545.234375,208371.0,1.0,4
231112.484375,271596.5,300247.875,279873.71875,241804.84375,275517.71875,246950.21875,243064.328125,208372.0,1.0,4
230978.28125,271165.375,299637.9375,279631.59375,241610.5625,275473.09375,246768.640625,242810.234375,208373.0,1.0,4
230294.859375,270013.90625,298314.09375,279255.65625,240056.40625,274887.03125,246235.953125,242144.953125,208374.0,1.0,4
229996.59375,269722.8125,298092.71875,279258.0625,239270.609375,274560.78125,246067.78125,241974.0,208375.0,1.0,4
230504.34375,270705.375,299281.375,279635.4375,240350.203125,274946.6875,246498.71875,242539.140625,208376.0,1.0,4
231106.59375,271595.875,300231.40625,279862.8125,241796.625,275502.34375,246929.484375,243052.25,208377.0,1.0,4
230975.609375,271167.34375,299627.03125,279620.34375,241619.234375,275453.875,246755.578125,242805.9375,208378.0,1.0,4
230280.015625,270001.03125,298297.1875,279237.75,240059.453125,274860.5625,246217.984375,242128.234375,208379.0,1.0,4
229982.109375,269706.53125,298074.21875,279243.21875,239269.265625,274547.90625,246055.703125,241947.28125,208380.0,1.0,4
230489.046875,270688.03125,299265.8125,279619.09375,240343.3125,274933.4375,246487.546875,242517.953125,208381.0,1.0,4
231096.65625,271586.40625,300225.53125,279848.6875,241795.28125,275486.875,246911.6875,243045.734375,208382.0,1.0,4
230980.96875,271174.6875,299636.59375,279615.96875,241632.5625,275449.78125,246735.109375,242805.765625,208383.0,1.0,4
230290.484375,270010.4375,298308.28125,279239.5625,240078.671875,274871.125,246210.46875,242135.203125,208384.0,1.0,4
229989.625,269706.34375,298073.125,279242.21875,239273.015625,274550.78125,246054.09375,241954.421875,208385.0,1.0,4
230498.0,270689.5625,299263.21875,279622.125,240339.296875,274938.375,246489.0625,242517.78125,208386.0,1.0,4
231102.5625,271587.84375,300228.75,279856.0,241790.984375,275489.8125,246915.625,243049.65625,208387.0,1.0,4
230982.765625,271178.0,299649.46875,279625.53125,241637.484375,275457.375,246759.34375,242826.234375,208388.0,1.0,4
230289.765625,270013.1875,298319.71875,279249.65625,240087.25,274877.125,246233.71875,242155.5,208389.0,1.0,4
229984.796875,269701.78125,298068.46875,279243.125,239267.484375,274547.28125,246055.53125,241955.234375,208390.0,1.0,4
230489.5,270677.3125,299249.46875,279617.21875,240323.734375,274933.0,246485.65625,242507.3125,208391.0,1.0,4
231099.34375,271582.46875,300222.84375,279850.28125,241782.671875,275488.3125,246917.9375,243038.84375,208392.0,1.0,4
230983.296875,271179.0625,299650.0,279621.5,241641.6875,275456.375,246755.578125,242814.4375,208393.0,1.0,4
230295.75,270017.21875,298320.53125,279245.4375,240093.875,274879.71875,246226.03125,242144.328125,208394.0,1.0,4
229981.765625,269694.90625,298059.28125,279239.8125,239263.1875,274553.46875,246058.65625,241949.953125,208395.0,1.0,4
230480.375,270664.09375,299235.6875,279616.65625,240311.3125,274933.4375,246488.609375,242506.421875,208396.0,1.0,4
231101.21875,271583.1875,300226.78125,279860.46875,241784.828125,275502.34375,246940.921875,243054.21875,208397.0,1.0,4
230991.515625,271191.5,299666.8125,279633.65625,241661.078125,275476.6875,246789.015625,242842.421875,208398.0,1.0,4
230296.03125,270020.96875,298325.09375,279245.625,240108.53125,274877.65625,246242.75,242156.125,208399.0,1.0,4
229976.75,269689.375,298049.25,279229.0,239264.703125,274533.78125,246052.3125,241943.609375,208400.0,1.0,4
230471.265625,270651.46875,299223.96875,279605.59375,240302.90625,274914.21875,246486.5625,242507.3125,208401.0,1.0,4
231085.125,271568.15625,300216.03125,279852.875,241775.34375,275482.125,246931.71875,243055.390625,208402.0,1.0,4
230986.875,271190.0625,299667.53125,279629.625,241664.65625,275465.0625,246785.890625,242848.40625,208403.0,1.0,4
230303.796875,270030.28125,298333.125,279245.375,240123.546875,274884.8125,246245.328125,242165.875,208404.0,1.0,4
229969.59375,269677.21875,298042.65625,279223.1875,239264.625,274530.9375,246038.265625,241935.203125,208405.0,1.0,4
230454.90625,270628.125,299204.3125,279590.84375,240288.328125,274905.5625,246461.171875,242468.25,208406.0,1.0,4
231079.671875,271553.15625,300201.71875,279838.65625,241764.171875,275470.34375,246904.0,243018.734375,208407.0,1.0,4
230984.28125,271180.5,299660.09375,279619.34375,241660.453125,275452.625,246757.453125,242811.390625,208408.0,1.0,4
230296.828125,270019.28125,298325.875,279238.84375,240122.828125,274881.6875,246232.90625,242141.015625,208409.0,1.0,4
229973.09375,269675.25,298037.375,279227.3125,239264.4375,274546.21875,246056.328125,241934.671875,208410.0,1.0,4
230466.171875,270633.25,299202.96875,279601.5625,240282.96875,274911.8125,246473.234375,242483.0,208411.0,1.0,4
231086.375,271558.15625,300207.71875,279849.5625,241763.359375,275476.84375,246914.1875,243030.890625,208412.0,1.0,4
230992.234375,271193.90625,299674.21875,279631.15625,241671.0,275468.625,246772.484375,242826.953125,208413.0,1.0,4
230317.578125,270042.0625,298342.96875,279253.15625,240136.875,274893.9375,246240.59375,242154.96875,208414.0,1.0,4
229986.765625,269684.4375,298044.34375,279236.34375,239267.65625,274550.59375,246057.40625,241940.390625,208415.0,1.0,4
230466.515625,270631.625,299200.8125,279608.0,240275.90625,274913.40625,246472.96875,242484.078125,208416.0,1.0,4
231088.34375,271565.75,300209.78125,279857.09375,241757.734375,275474.28125,246914.8125,243034.375,208417.0,1.0,4
231010.203125,271218.0625,299690.78125,279643.84375,241683.796875,275472.84375,246783.03125,242840.0,208418.0,1.0,4
230321.59375,270050.5625,298352.09375,279256.53125,240146.890625,274891.96875,246253.109375,242162.484375,208419.0,1.0,4
229983.015625,269682.3125,298039.59375,279234.53125,239262.65625,274542.28125,246059.734375,241940.921875,208420.0,1.0,4
230468.046875,270629.9375,299194.03125,279609.53125,240263.5625,274909.125,246475.734375,242485.140625,208421.0,1.0,4
231093.171875,271565.46875,300205.84375,279860.125,241752.453125,275473.71875,246914.640625,243033.75,208422.0,1.0,4
231013.15625,271216.0,299693.0,279646.25,241692.375,275469.96875,246776.953125,242838.21875,208423.0,1.0,4
230334.5625,270057.8125,298358.96875,279259.21875,240163.96875,274908.6875,246257.765625,242168.109375,208424.0,1.0,4
229988.640625,269681.3125,298034.0625,279230.96875,239269.453125,274554.90625,246059.8125,241939.234375,208425.0,1.0,4
230461.875,270611.96875,299175.6875,279597.28125,240256.5,274898.9375,246459.109375,242472.0,208426.0,1.0,4
231086.109375,271549.21875,300194.9375,279849.65625,241744.046875,275465.0625,246911.5,243030.34375,208427.0,1.0,4
231011.375,271210.96875,299696.5,279641.71875,241690.9375,275472.65625,246788.03125,242853.59375,208428.0,1.0,4
230331.078125,270052.4375,298360.5625,279257.4375,240167.09375,274904.375,246259.28125,242180.8125,208429.0,1.0,4
229976.84375,269664.78125,298022.875,279224.53125,239260.140625,274549.96875,246057.3125,241937.890625,208430.0,1.0,4
230453.015625,270604.34375,299167.5625,279596.1875,240242.015625,274909.46875,246464.109375,242477.71875,208431.0,1.0,4
231078.328125,271547.25,300191.625,279848.25,241732.34375,275465.5,246909.09375,243030.96875,208432.0,1.0,4
231005.203125,271214.46875,299696.21875,279639.03125,241690.40625,275475.78125,246789.734375,242840.8125,208433.0,1.0,4
230325.53125,270052.53125,298353.25,279248.84375,240166.28125,274896.96875,246241.046875,242159.078125,208434.0,1.0,4
229973.890625,269658.25,298009.21875,279217.125,239250.9375,274532.71875,246033.359375,241922.234375,208435.0,1.0,4
230443.453125,270587.8125,299147.53125,279586.53125,240221.546875,274885.625,246437.65625,242450.359375,208436.0,1.0,4
231072.171875,271542.3125,300182.875,279842.875,241719.640625,275454.78125,246888.796875,243007.8125,208437.0,1.0,4
231010.390625,271225.90625,299702.3125,279639.8125,241694.96875,275472.84375,246772.65625,242833.203125,208438.0,1.0,4
230331.078125,270066.40625,298368.4375,279257.625,240179.4375,274915.65625,246259.8125,242167.9375,208439.0,1.0,4
229966.828125,269660.84375,298010.375,279216.5625,239249.421875,274542.5625,246047.921875,241923.9375,208440.0,1.0,4
230429.6875,270583.96875,299136.90625,279579.03125,240205.8125,274881.84375,246444.171875,242451.171875,208441.0,1.0,4
231062.6875,271541.96875,300177.59375,279837.59375,241706.6875,275452.0,246891.484375,243013.1875,208442.0,1.0,4
231009.21875,271234.59375,299712.40625,279638.5625,241697.828125,275476.5,246778.65625,242843.75,208443.0,1.0,4
230336.703125,270079.90625,298377.5625,279254.03125,240186.140625,274918.96875,246259.90625,242173.828125,208444.0,1.0,4
229974.609375,269667.375,298013.21875,279216.65625,239256.296875,274550.25,246052.578125,241928.234375,208445.0,1.0,4
230434.515625,270585.84375,299137.96875,279583.59375,240208.671875,274895.90625,246456.421875,242455.109375,208446.0,1.0,4
231065.546875,271544.125,300182.59375,279841.96875,241712.9375,275458.0,246902.5625,243017.5625,208447.0,1.0,4
231010.921875,271238.96875,299721.53125,279642.25,241711.59375,275479.09375,246787.671875,242852.34375,208448.0,1.0,4
230341.625,270084.1875,298383.65625,279254.5625,240203.390625,274920.75,246267.15625,242178.03125,208449.0,1.0,4
229980.234375,269669.34375,298012.4375,279213.34375,239261.84375,274554.34375,246057.046875,241926.703125,208450.0,1.0,4
230437.828125,270581.90625,299133.6875,279578.21875,240207.328125,274893.21875,246452.484375,242451.703125,208451.0,1.0,4
231070.203125,271549.84375,300187.0625,279845.90625,241721.875,275471.3125,246916.875,243026.5,208452.0,1.0,4
231017.0,271251.75,299734.9375,279646.34375,241730.28125,275496.34375,246804.125,242864.046875,208453.0,1.0,4
230337.859375,270086.4375,298394.09375,279252.0625,240217.875,274928.15625,246274.84375,242191.0,208454.0,1.0,4
229964.6875,269656.90625,298004.46875,279203.34375,239257.828125,274547.65625,246059.015625,241933.234375,208455.0,1.0,4
230409.65625,270557.34375,299111.78125,279565.34375,240182.640625,274881.59375,246452.3125,242447.6875,208456.0,1.0,4
231049.640625,271532.03125,300171.25,279834.46875,241693.09375,275455.9375,246912.40625,243021.40625,208457.0,1.0,4
231002.703125,271243.4375,299729.40625,279641.0,241711.953125,275480.625,246801.359375,242866.109375,208458.0,1.0,4
230334.5625,270089.03125,298396.0625,279256.09375,240212.953125,274927.0,246285.21875,242195.5625,208459.0,1.0,4
229962.71875,269656.03125,298001.15625,279209.96875,239248.703125,274554.1875,246063.578125,241930.46875,208460.0,1.0,4
230406.171875,270547.59375,299102.75,279570.28125,240165.03125,274867.71875,246431.921875,242441.34375,208461.0,1.0,4
231044.546875,271523.90625,300170.25,279838.59375,241681.015625,275441.1875,246893.0,243017.46875,208462.0,1.0,4
231009.578125,271249.53125,299740.125,279644.5625,241718.03125,275472.75,246785.71875,242861.90625,208463.0,1.0,4
230349.3125,270097.96875,298406.1875,279261.71875,240224.578125,274921.8125,246270.8125,242205.125,208464.0,1.0,4
229966.46875,269648.5,297993.28125,279205.3125,239240.484375,274536.375,246044.078125,241923.9375,208465.0,1.0,4
230402.59375,270535.25,299086.75,279562.03125,240142.234375,274859.0625,246422.09375,242428.8125,208466.0,1.0,4
231043.203125,271515.5,300160.15625,279834.8125,241665.640625,275443.78125,246885.125,243006.296875,208467.0,1.0,4
231016.5625,271254.71875,299743.15625,279647.4375,241725.546875,275492.0625,246794.5625,242855.109375,208468.0,1.0,4
230352.890625,270102.4375,298405.5625,279255.46875,240239.15625,274930.40625,246268.578125,242184.375,208469.0,1.0,4
229966.46875,269649.03125,297984.8125,279195.28125,239250.046875,274540.9375,246040.953125,241914.109375,208470.0,1.0,4
230400.1875,270532.65625,299077.71875,279555.59375,240146.796875,274862.90625,246427.28125,242424.078125,208471.0,1.0,4
231040.609375,271514.875,300159.4375,279830.4375,241671.90625,275441.375,246892.546875,243002.8125,208472.0,1.0,4
231015.921875,271259.09375,299752.375,279646.0,241737.96875,275491.15625,246801.71875,242859.9375,208473.0,1.0,4
230360.3125,270116.28125,298419.9375,279259.84375,240254.703125,274944.71875,246285.75,242197.703125,208474.0,1.0,4
229967.984375,269651.5625,297990.78125,279202.09375,239259.875,274554.09375,246056.421875,241924.390625,208475.0,1.0,4
230400.8125,270531.125,299076.46875,279560.4375,240145.453125,274866.5625,246438.015625,242429.796875,208476.0,1.0,4
231051.953125,271524.90625,300162.75,279835.0,241672.34375,275442.625,246898.1875,243003.890625,208477.0,1.0,4
231031.125,271273.75,299762.21875,279648.78125,241749.78125,275492.5,246797.875,242861.8125,208478.0,1.0,4
230366.203125,270118.4375,298425.03125,279260.21875,240267.671875,274941.21875,246280.5625,242202.53125,208479.0,1.0,4
229978.625,269651.28125,297986.9375,279200.75,239263.546875,274550.78125,246049.984375,241923.9375,208480.0,1.0,4
230405.453125,270524.4375,299066.1875,279558.03125,240138.65625,274863.53125,246422.546875,242413.4375,208481.0,1.0,4
231049.640625,271513.1875,300154.09375,279835.90625,241663.140625,275433.75,246888.171875,242997.71875,208482.0,1.0,4
231037.390625,271274.71875,299764.625,279655.75,241750.3125,275491.53125,246811.453125,242873.53125,208483.0,1.0,4
230373.546875,270121.1875,298428.71875,279267.53125,240267.5,274945.875,246292.90625,242212.90625,208484.0,1.0,4
229979.34375,269647.0625,297984.625,279207.53125,239251.46875,274558.84375,246058.125,241929.65625,208485.0,1.0,4
230408.59375,270518.25,299058.5,279561.78125,240117.5625,274868.625,246431.75,242413.890625,208486.0,1.0,4
231055.09375,271510.3125,300147.71875,279835.90625,241644.28125,275425.90625,246891.84375,242997.53125,208487.0,1.0,4
231038.375,271274.71875,299766.3125,279655.5625,241741.28125,275482.3125,246809.21875,242870.578125,208488.0,1.0,4
230373.09375,270122.625,298430.59375,279261.46875,240264.546875,274932.8125,246276.0,242203.609375,208489.0,1.0,4
229974.421875,269638.21875,297971.9375,279195.28125,239241.8125,274530.5625,246034.875,241916.609375,208490.0,1.0,4
230394.8125,270501.8125,299039.875,279549.34375,240101.203125,274835.71875,246410.921875,242413.984375,208491.0,1.0,4
231044.0,271506.84375,300142.625,279832.59375,241637.5625,275418.03125,246888.890625,243013.984375,208492.0,1.0,4
231032.828125,271282.0625,299768.90625,279655.28125,241746.640625,275481.96875,246803.0625,242878.359375,208493.0,1.0,4
230374.171875,270136.40625,298432.625,279261.71875,240276.703125,274942.03125,246284.140625,242203.25,208494.0,1.0,4
229967.546875,269641.25,297963.34375,279189.21875,239240.75,274539.0625,246039.15625,241901.234375,208495.0,1.0,4
230389.546875,270507.0,299026.5625,279546.40625,240092.34375,274850.46875,246418.515625,242397.890625,208496.0,1.0,4
231033.28125,271505.5,300131.46875,279829.625,241628.09375,275426.96875,246885.578125,242990.109375,208497.0,1.0,4
231035.859375,271295.46875,299776.15625,279661.8125,241754.953125,275493.59375,246809.140625,242886.21875,208498.0,1.0,4
230373.0,270144.53125,298434.15625,279262.1875,240289.765625,274943.375,246272.78125,242210.40625,208499.0,1.0,4
229943.671875,269625.625,297940.8125,279174.46875,239233.328125,274525.21875,246005.640625,241885.671875,208500.0,1.0,4
230344.390625,270468.28125,298986.15625,279517.78125,240054.703125,274814.53125,246366.75,242366.59375,208501.0,1.0,4
231011.375,271493.34375,300109.90625,279813.375,241605.109375,275406.21875,246853.484375,242969.015625,208502.0,1.0,4
231041.671875,271314.53125,299787.0625,279669.34375,241771.046875,275507.4375,246814.140625,242884.796875,208503.0,1.0,4
230395.359375,270177.25,298463.125,279285.96875,240320.25,274975.09375,246307.65625,242229.703125,208504.0,1.0,4
229984.53125,269670.9375,297979.625,279213.1875,239267.296875,274572.78125,246060.078125,241928.59375,208505.0,1.0,4
230399.109375,270525.21875,299034.71875,279570.0,240093.875,274876.5,246434.96875,242416.578125,208506.0,1.0,4
231048.296875,271534.1875,300152.03125,279857.09375,241634.53125,275457.09375,246919.640625,243019.265625,208507.0,1.0,4
231053.390625,271334.46875,299815.6875,279690.78125,241784.46875,275538.0,246861.0,242919.3125,208508.0,1.0,4
230397.5,270189.78125,298479.9375,279293.03125,240325.15625,274997.90625,246335.375,242239.546875,208509.0,1.0,4
229978.359375,269668.1875,297975.9375,279207.90625,239255.59375,274573.65625,246062.40625,241916.78125,208510.0,1.0,4
230376.40625,270498.0625,299011.09375,279549.34375,240058.90625,274843.78125,246411.09375,242393.140625,208511.0,1.0,4
231032.828125,271517.65625,300137.28125,279842.875,241604.75,275421.15625,246883.515625,242997.09375,208512.0,1.0,4
231048.5625,271331.59375,299809.875,279678.53125,241771.40625,275505.5625,246810.5625,242887.921875,208513.0,1.0,4
230398.125,270190.75,298480.65625,279283.71875,240325.4375,274977.78125,246300.140625,242227.296875,208514.0,1.0,4
229968.796875,269656.46875,297965.75,279195.84375,239246.640625,274557.75,246040.140625,241917.046875,208515.0,1.0,4
230361.921875,270482.9375,298994.46875,279537.8125,240041.921875,274838.75,246391.609375,242382.59375,208516.0,1.0,4
231029.34375,271517.125,300133.6875,279837.0625,241598.765625,275428.21875,246875.390625,242994.59375,208517.0,1.0,4
231047.40625,271339.28125,299817.8125,279675.6875,241777.84375,275512.34375,246816.109375,242902.9375,208518.0,1.0,4
230394.8125,270194.6875,298482.34375,279279.4375,240332.765625,274976.4375,246302.203125,242234.71875,208519.0,1.0,4
229968.265625,269652.34375,297960.65625,279190.5625,239247.09375,274549.53125,246026.109375,241910.34375,208520.0,1.0,4
230365.046875,270479.53125,298992.0625,279539.6875,240038.34375,274830.71875,246380.34375,242387.875,208521.0,1.0,4
231017.984375,271504.15625,300125.375,279830.53125,241586.25,275415.34375,246857.234375,242979.75,208522.0,1.0,4
231049.90625,271340.0,299823.09375,279673.0,241782.9375,275509.9375,246805.828125,242890.515625,208523.0,1.0,4
230409.03125,270204.875,298493.53125,279281.84375,240350.375,274982.71875,246294.953125,242232.921875,208524.0,1.0,4
229966.203125,269648.59375,297961.5625,279191.8125,239252.015625,274559.8125,246029.421875,241910.96875,208525.0,1.0,4
230347.515625,270465.34375,298985.09375,279535.5,240030.390625,274838.9375,246386.234375,242379.5625,208526.0,1.0,4
231009.3125,271501.1875,300129.9375,279829.8125,241586.421875,275417.9375,246869.75,242984.75,208527.0,1.0,4
231051.421875,271351.96875,299839.8125,279678.09375,241797.0625,275520.84375,246824.78125,242906.4375,208528.0,1.0,4
230410.203125,270214.90625,298508.09375,279283.1875,240364.6875,274992.0,246310.953125,242245.171875,208529.0,1.0,4
229963.609375,269648.875,297962.09375,279186.71875,239256.390625,274558.46875,246038.53125,241910.796875,208530.0,1.0,4
230341.796875,270455.9375,298971.5,279528.6875,240019.84375,274827.125,246389.453125,242372.3125,208531.0,1.0,4
231007.609375,271498.0625,300118.9375,279828.3125,241576.140625,275417.9375,246879.59375,242987.96875,208532.0,1.0,4
231054.28125,271354.75,299837.84375,279677.375,241795.640625,275518.875,246835.328125,242917.25,208533.0,1.0,4
230407.421875,270212.5625,298507.84375,279278.90625,240365.484375,274989.15625,246313.28125,242241.875,208534.0,1.0,4
229968.171875,269652.25,297961.5625,279186.8125,239253.359375,274560.09375,246035.59375,241902.578125,208535.0,1.0,4
230347.703125,270459.0625,298969.25,279528.4375,240011.078125,274834.75,246393.390625,242368.734375,208536.0,1.0,4
231015.84375,271504.34375,300123.5,279829.46875,241574.453125,275428.40625,246881.375,242977.328125,208537.0,1.0,4
231057.234375,271357.6875,299842.21875,279674.0625,241801.625,275515.75,246815.21875,242897.40625,208538.0,1.0,4
230416.90625,270222.40625,298514.28125,279280.5,240382.5625,274988.4375,246302.640625,242246.96875,208539.0,1.0,4
229967.984375,269649.75,297954.65625,279186.96875,239259.15625,274553.8125,246031.109375,241922.859375,208540.0,1.0,4
230337.859375,270442.09375,298949.21875,279523.0625,239997.75,274817.75,246378.015625,242372.671875,208541.0,1.0,4
231004.3125,271486.625,300104.625,279819.4375,241557.453125,275404.34375,246853.84375,242960.875,208542.0,1.0,4
231059.734375,271363.15625,299846.4375,279676.75,241806.90625,275523.8125,246825.671875,242901.328125,208543.0,1.0,4
230434.0625,270240.90625,298527.59375,279289.875,240401.78125,275015.25,246328.03125,242258.328125,208544.0,1.0,4
229972.734375,269645.90625,297945.1875,279179.1875,239262.03125,274554.90625,246022.4375,241903.90625,208545.0,1.0,4
230338.671875,270429.46875,298932.15625,279513.59375,239991.40625,274812.125,246357.71875,242346.828125,208546.0,1.0,4
231001.09375,271473.84375,300095.78125,279818.28125,241550.125,275401.3125,246850.0,242965.4375,208547.0,1.0,4
231058.125,271359.125,299848.3125,279681.03125,241807.265625,275521.21875,246829.078125,242911.890625,208548.0,1.0,4
230430.40625,270236.71875,298524.375,279288.625,240402.59375,275005.59375,246325.53125,242261.546875,208549.0,1.0,4
229973.984375,269644.21875,297941.0,279182.6875,239262.375,274565.09375,246037.828125,241916.96875,208550.0,1.0,4
230334.5625,270422.0625,298921.96875,279515.09375,239980.328125,274818.09375,246369.875,242359.4375,208551.0,1.0,4
230998.859375,271470.0,300088.8125,279818.1875,241541.09375,275402.125,246855.984375,242965.53125,208552.0,1.0,4
231060.640625,271362.875,299854.3125,279678.4375,241814.5,275525.3125,246838.28125,242915.90625,208553.0,1.0,4
230423.421875,270231.875,298529.5625,279280.6875,240410.8125,275011.40625,246332.59375,242263.78125,208554.0,1.0,4
229959.5,269628.3125,297933.03125,279169.8125,239256.296875,274560.25,246028.875,241899.984375,208555.0,1.0,4
230316.3125,270401.125,298909.4375,279502.5,239961.71875,274804.4375,246354.0625,242338.15625,208556.0,1.0,4
230985.0,271462.5,300084.53125,279813.28125,241529.203125,275398.625,246849.8125,242961.421875,208557.0,1.0,4
231058.578125,271370.5,299861.71875,279683.8125,241819.421875,275532.03125,246837.296875,242920.46875,208558.0,1.0,4
230427.546875,270239.65625,298535.625,279286.03125,240423.0625,275010.59375,246322.578125,242267.171875,208559.0,1.0,4
229957.171875,269627.21875,297930.34375,279175.96875,239263.359375,274569.46875,246040.0625,241916.515625,208560.0,1.0,4
230307.109375,270392.03125,298895.78125,279501.34375,239957.34375,274800.3125,246352.0,242342.359375,208561.0,1.0,4
230982.40625,271456.84375,300076.21875,279807.5625,241528.84375,275374.5,246827.546875,242952.390625,208562.0,1.0,4
231070.109375,271379.6875,299873.0625,279682.75,241842.578125,275522.71875,246830.953125,242913.671875,208563.0,1.0,4
230443.28125,270259.875,298555.75,279290.78125,240457.03125,275019.71875,246341.09375,242273.78125,208564.0,1.0,4
229970.21875,269641.0,297940.53125,279176.34375,239280.4375,274562.6875,246035.59375,241908.109375,208565.0,1.0,4
230317.125,270398.09375,298899.34375,279505.53125,239958.59375,274800.6875,246349.140625,242335.390625,208566.0,1.0,4
230987.140625,271461.3125,300085.5,279820.15625,241528.765625,275392.90625,246847.21875,242962.21875,208567.0,1.0,4
231067.515625,271382.8125,299878.53125,279689.34375,241838.640625,275521.125,246832.46875,242928.25,208568.0,1.0,4
230440.421875,270261.5625,298557.0,279293.90625,240451.859375,275010.25,246331.25,242282.734375,208569.0,1.0,4
229965.390625,269635.1875,297930.71875,279174.46875,239268.46875,274554.1875,246027.265625,241913.203125,208570.0,1.0,4
230307.734375,270386.03125,298879.84375,279497.40625,239936.15625,274787.25,246339.296875,242333.875,208571.0,1.0,4
230984.8125,271458.8125,300070.65625,279815.4375,241511.859375,275384.5,246846.6875,242970.53125,208572.0,1.0,4
231073.953125,271390.15625,299878.71875,279691.3125,241840.078125,275529.4375,246841.59375,242938.625,208573.0,1.0,4
230454.09375,270271.3125,298563.34375,279296.3125,240464.015625,275024.09375,246338.140625,242284.703125,208574.0,1.0,4
229976.125,269635.46875,297928.28125,279173.84375,239271.328125,274565.8125,246038.09375,241907.9375,208575.0,1.0,4
230313.1875,270377.1875,298869.40625,279496.34375,239927.65625,274786.71875,246346.28125,242329.484375,208576.0,1.0,4
230981.859375,271444.4375,300063.5,279811.03125,241500.859375,275375.125,246838.015625,242956.046875,208577.0,1.0,4
231075.390625,271388.8125,299879.875,279688.09375,241839.71875,275523.1875,246834.34375,242927.359375,208578.0,1.0,4
230457.3125,270272.65625,298565.5,279295.0625,240472.234375,275018.65625,246339.390625,242289.875,208579.0,1.0,4
229973.4375,269628.84375,297918.5625,279165.15625,239273.015625,274551.21875,246023.515625,241906.59375,208580.0,1.0,4
230307.015625,270363.5,298856.59375,279488.8125,239920.15625,274782.96875,246342.4375,242321.625,208581.0,1.0,4
230977.9375,271436.125,300057.25,279805.84375,241498.359375,275381.09375,246845.875,242948.90625,208582.0,1.0,4
231082.359375,271393.90625,299890.40625,279685.875,241853.3125,275535.875,246851.875,242934.59375,208583.0,1.0,4
230471.890625,270289.46875,298582.5625,279295.625,240497.8125,275043.0625,246363.4375,242299.0,208584.0,1.0,4
229974.25,269628.3125,297918.09375,279157.5625,239283.125,274550.4375,246026.375,241902.578125,208585.0,1.0,4
230296.296875,270351.34375,298841.21875,279474.59375,239911.5625,274768.03125,246332.0625,242313.75,208586.0,1.0,4
230974.359375,271431.8125,300049.75,279798.4375,241488.609375,275372.15625,246842.21875,242946.484375,208587.0,1.0,4
231085.21875,271396.875,299894.09375,279685.25,241858.21875,275531.84375,246844.0,242931.203125,208588.0,1.0,4
230462.328125,270278.1875,298578.46875,279288.46875,240499.6875,275017.5625,246336.703125,242289.53125,208589.0,1.0,4
229972.90625,269620.15625,297916.125,279158.1875,239285.265625,274550.875,246030.21875,241899.53125,208590.0,1.0,4
230301.296875,270349.09375,298840.25,279481.65625,239911.65625,274774.65625,246346.984375,242321.171875,208591.0,1.0,4
230974.71875,271432.09375,300048.59375,279801.75,241483.609375,275367.4375,246844.0,242953.015625,208592.0,1.0,4
231090.046875,271408.40625,299903.46875,279690.78125,241862.96875,275537.75,246859.03125,242934.328125,208593.0,1.0,4
230477.609375,270297.78125,298591.96875,279293.46875,240509.609375,275035.375,246349.859375,242288.0,208594.0,1.0,4
229975.59375,269621.875,297912.65625,279152.28125,239274.71875,274552.21875,246014.84375,241884.421875,208595.0,1.0,4
230293.4375,270339.0,298824.40625,279471.375,239880.625,274764.46875,246325.625,242297.21875,208596.0,1.0,4
230968.71875,271424.5625,300036.34375,279799.0625,241461.34375,275362.5,246827.109375,242933.4375,208597.0,1.0,4
231084.421875,271405.96875,299899.90625,279692.65625,241856.078125,275535.40625,246846.59375,242930.75,208598.0,1.0,4
230481.90625,270306.28125,298597.9375,279296.6875,240518.28125,275040.90625,246356.109375,242288.359375,208599.0,1.0,4
229984.359375,269634.46875,297915.0625,279157.3125,239286.4375,274567.21875,246030.84375,241895.328125,208600.0,1.0,4
230291.90625,270336.59375,298816.46875,279471.84375,239882.6875,274779.75,246338.671875,242300.4375,208601.0,1.0,4
230972.125,271424.65625,300031.6875,279797.71875,241461.703125,275365.8125,246836.046875,242936.03125,208602.0,1.0,4
231090.3125,271412.34375,299904.09375,279689.8125,241866.453125,275525.9375,246844.90625,242943.171875,208603.0,1.0,4
230483.59375,270311.1875,298600.90625,279294.90625,240532.40625,275040.5625,246353.15625,242300.25,208604.0,1.0,4
229983.015625,269631.78125,297904.6875,279155.25,239292.0625,274569.75,246030.9375,241897.109375,208605.0,1.0,4
230280.28125,270319.5,298791.0625,279462.1875,239872.140625,274760.09375,246320.34375,242287.828125,208606.0,1.0,4
230950.21875,271404.1875,300015.5,279788.5,241451.421875,275353.3125,246827.90625,242924.046875,208607.0,1.0,4
231085.3125,271413.3125,299906.6875,279688.1875,241875.390625,275527.8125,246854.828125,242937.1875,208608.0,1.0,4
230479.21875,270311.625,298602.0625,279291.9375,240545.8125,275031.78125,246353.78125,242299.09375,208609.0,1.0,4
229963.34375,269616.0625,297895.46875,279147.71875,239297.15625,274551.3125,246022.4375,241896.9375,208610.0,1.0,4
230262.140625,270303.59375,298780.53125,279459.125,239871.328125,274751.9375,246316.0625,242294.53125,208611.0,1.0,4
230945.484375,271398.375,300006.46875,279786.90625,241449.546875,275343.8125,246821.203125,242928.34375,208612.0,1.0,4
231086.203125,271415.28125,299911.34375,279689.0,241883.34375,275534.09375,246863.3125,242945.0625,208613.0,1.0,4
230488.421875,270324.34375,298619.6875,279301.25,240567.453125,275057.1875,246381.140625,242322.0625,208614.0,1.0,4
229971.921875,269620.34375,297903.0,279153.09375,239304.578125,274568.5625,246034.96875,241906.140625,208615.0,1.0,4
230261.515625,270292.3125,298774.0,279458.96875,239859.265625,274752.125,246318.375,242290.0625,208616.0,1.0,4
230945.921875,271391.0625,300004.3125,279790.75,241437.828125,275342.125,246826.65625,242929.3125,208617.0,1.0,4
231086.03125,271413.9375,299915.09375,279694.375,241882.359375,275527.5625,246853.65625,242946.671875,208618.0,1.0,4
230487.796875,270323.875,298623.6875,279305.96875,240569.953125,275049.9375,246373.015625,242328.59375,208619.0,1.0,4
229971.390625,269619.625,297900.84375,279157.9375,239302.078125,274568.3125,246046.578125,241921.25,208620.0,1.0,4
230257.765625,270289.28125,298762.46875,279458.34375,239841.921875,274744.15625,246318.296875,242288.984375,208621.0,1.0,4
230936.984375,271385.96875,299995.125,279784.65625,241417.8125,275331.84375,246811.640625,242910.71875,208622.0,1.0,4
231078.6875,271415.90625,299919.65625,279692.84375,241875.75,275525.59375,246852.953125,242940.234375,208623.0,1.0,4
230494.234375,270337.46875,298635.40625,279305.0,240575.5,275052.625,246370.78125,242313.84375,208624.0,1.0,4
229980.0625,269623.21875,297902.53125,279152.46875,239302.078125,274560.25,246028.875,241897.828125,208625.0,1.0,4
230255.875,270280.71875,298756.5625,279455.65625,239832.703125,274741.21875,246309.53125,242274.953125,208626.0,1.0,4
230933.140625,271381.21875,299992.6875,279787.875,241409.671875,275333.28125,246818.703125,242917.78125,208627.0,1.0,4
231091.203125,271429.59375,299928.59375,279701.96875,241883.53125,275531.03125,246863.765625,242951.578125,208628.0,1.0,4
230507.296875,270351.34375,298645.15625,279310.53125,240594.546875,275063.96875,246387.671875,242333.515625,208629.0,1.0,4
229981.9375,269628.46875,297901.46875,279153.90625,239314.59375,274571.53125,246043.71875,241915.984375,208630.0,1.0,4
230253.5625,270276.5,298743.5,279451.1875,239830.03125,274738.90625,246305.59375,242277.1875,208631.0,1.0,4
230931.625,271376.65625,299985.90625,279786.09375,241411.28125,275332.5625,246813.421875,242908.84375,208632.0,1.0,4
231093.71875,271434.78125,299935.75,279701.0625,241899.796875,275535.15625,246865.1875,242950.421875,208633.0,1.0,4
230506.484375,270354.65625,298650.875,279307.84375,240612.515625,275065.9375,246383.5625,242328.234375,208634.0,1.0,4
229970.84375,269616.0625,297891.0,279142.09375,239315.3125,274562.40625,246022.625,241898.453125,208635.0,1.0,4
230241.84375,270263.1875,298730.09375,279443.21875,239819.296875,274733.25,246293.796875,242265.65625,208636.0,1.0,4
230924.375,271374.5,299979.75,279782.96875,241398.140625,275332.28125,246815.03125,242916.359375,208637.0,1.0,4
231085.671875,271435.40625,299939.3125,279703.125,241894.96875,275538.5625,246865.640625,242963.296875,208638.0,1.0,4
230506.40625,270361.71875,298657.9375,279311.4375,240615.828125,275066.46875,246378.640625,242341.5625,208639.0,1.0,4
229972.28125,269620.0625,297891.46875,279146.84375,239313.796875,274567.40625,246028.4375,241906.421875,208640.0,1.0,4
230238.53125,270256.21875,298722.0625,279446.0,239802.671875,274740.59375,246307.109375,242270.65625,208641.0,1.0,4
230923.296875,271366.65625,299972.9375,279785.84375,241381.328125,275332.46875,246818.34375,242916.0,208642.0,1.0,4
231089.875,271434.21875,299943.0,279705.4375,241891.578125,275538.09375,246864.921875,242965.53125,208643.0,1.0,4
230512.484375,270359.21875,298664.28125,279311.875,240619.578125,275063.4375,246374.171875,242342.90625,208644.0,1.0,4
229977.109375,269609.71875,297889.59375,279140.75,239310.21875,274554.1875,246010.734375,241900.96875,208645.0,1.0,4
230233.171875,270237.34375,298713.71875,279439.1875,239789.609375,274723.25,246294.234375,242273.515625,208646.0,1.0,4
230909.890625,271345.28125,299968.28125,279782.53125,241367.921875,275318.4375,246812.890625,242920.921875,208647.0,1.0,4
231091.125,271433.78125,299947.71875,279705.1875,241890.859375,275525.125,246856.703125,242963.734375,208648.0,1.0,4
230518.828125,270367.96875,298676.09375,279314.46875,240627.8125,275063.1875,246373.640625,242340.84375,208649.0,1.0,4
229979.609375,269613.1875,297898.4375,279145.6875,239317.546875,274564.90625,246022.796875,241899.4375,208650.0,1.0,4
230235.3125,270237.875,298708.0,279437.84375,239785.328125,274719.84375,246280.5625,242252.328125,208651.0,1.0,4
230919.546875,271355.65625,299966.6875,279782.0625,241368.8125,275317.4375,246805.921875,242902.234375,208652.0,1.0,4
231099.96875,271449.96875,299961.78125,279710.71875,241909.90625,275541.9375,246878.0625,242972.765625,208653.0,1.0,4
230517.03125,270380.75,298688.15625,279316.0,240652.125,275075.25,246388.125,242357.390625,208654.0,1.0,4
229977.640625,269624.46875,297898.25,279141.65625,239328.09375,274570.28125,246021.453125,241905.609375,208655.0,1.0,4
230227.8125,270235.09375,298698.53125,279429.625,239777.8125,274718.34375,246270.640625,242245.984375,208656.0,1.0,4
230908.109375,271344.90625,299961.125,279773.59375,241356.203125,275300.46875,246778.921875,242882.296875,208657.0,1.0,4
231103.375,271455.6875,299972.3125,279710.375,241913.203125,275533.09375,246860.359375,242955.78125,208658.0,1.0,4
230534.203125,270399.71875,298706.40625,279322.96875,240668.578125,275089.5625,246395.71875,242345.578125,208659.0,1.0,4
229990.4375,269634.375,297911.5,279150.59375,239343.296875,274583.59375,246027.71875,241899.078125,208660.0,1.0,4
230241.21875,270239.65625,298703.4375,279440.09375,239784.15625,274723.59375,246274.21875,242245.453125,208661.0,1.0,4
230921.25,271353.15625,299969.0,279788.59375,241360.40625,275318.78125,246797.953125,242903.390625,208662.0,1.0,4
231108.375,271461.15625,299982.875,279722.53125,241918.65625,275548.90625,246881.203125,242982.078125,208663.0,1.0,4
230532.421875,270396.3125,298709.53125,279325.75,240671.890625,275074.0,246386.328125,242364.890625,208664.0,1.0,4
229988.640625,269628.3125,297902.375,279146.9375,239338.734375,274566.4375,246019.765625,241902.484375,208665.0,1.0,4
230223.34375,270217.5,298683.4375,279429.09375,239763.328125,274706.875,246267.15625,242237.3125,208666.0,1.0,4
230909.09375,271336.6875,299946.21875,279770.4375,241335.015625,275287.21875,246768.71875,242879.34375,208667.0,1.0,4
231107.578125,271458.46875,299973.3125,279711.34375,241910.53125,275526.03125,246852.5,242958.203125,208668.0,1.0,4
230550.203125,270414.8125,298719.8125,279328.25,240684.484375,275084.53125,246390.265625,242357.109375,208669.0,1.0,4
230003.578125,269639.3125,297908.34375,279150.5,239345.796875,274575.0,246027.890625,241906.765625,208670.0,1.0,4
230227.453125,270215.78125,298679.125,279430.71875,239758.046875,274713.6875,246279.671875,242239.015625,208671.0,1.0,4
230907.125,271331.40625,299947.5625,279778.5,241333.9375,275300.0,246793.046875,242889.796875,208672.0,1.0,4
231119.8125,271470.1875,299988.21875,279723.78125,241926.796875,275541.78125,246873.515625,242984.65625,208673.0,1.0,4
230563.265625,270427.15625,298735.90625,279336.125,240710.953125,275106.09375,246404.125,242375.890625,208674.0,1.0,4
230000.625,269630.0,297906.46875,279147.1875,239356.625,274576.09375,246013.0625,241901.59375,208675.0,1.0,4
230221.015625,270203.53125,298667.34375,279426.59375,239755.015625,274701.6875,246250.796875,242230.421875,208676.0,1.0,4
230903.015625,271327.46875,299940.5625,279776.96875,241332.0625,275293.84375,246776.5,242886.859375,208677.0,1.0,4
231119.375,271474.65625,299993.59375,279722.96875,241933.140625,275538.625,246871.984375,242981.171875,208678.0,1.0,4
230566.390625,270434.125,298738.59375,279333.59375,240720.078125,275099.21875,246402.609375,242369.546875,208679.0,1.0,4
230000.890625,269630.53125,297898.78125,279144.15625,239359.296875,274575.71875,246015.921875,241898.375,208680.0,1.0,4
230219.578125,270197.1875,298652.75,279423.0,239744.828125,274703.5,246256.328125,242222.375,208681.0,1.0,4
230898.0,271320.875,299934.3125,279779.40625,241321.78125,275306.09375,246796.4375,242889.984375,208682.0,1.0,4
231122.140625,271479.03125,299999.59375,279729.0625,241937.171875,275550.875,246891.390625,242994.671875,208683.0,1.0,4
230568.890625,270432.34375,298744.03125,279337.0,240729.46875,275095.8125,246404.125,242384.203125,208684.0,1.0,4
230000.4375,269627.84375,297902.0,279144.59375,239366.09375,274580.09375,246023.96875,241908.375,208685.0,1.0,4
230210.546875,270186.46875,298648.375,279423.90625,239743.390625,274699.28125,246257.9375,242227.296875,208686.0,1.0,4
230891.46875,271311.84375,299924.40625,279778.21875,241313.015625,275284.90625,246777.671875,242886.5,208687.0,1.0,4
231111.140625,271473.03125,299996.53125,279729.6875,241932.609375,275539.0,246877.71875,242988.0625,208688.0,1.0,4
230567.90625,270443.0625,298757.53125,279347.1875,240741.359375,275109.40625,246416.1875,242389.21875,208689.0,1.0,4
230003.125,269632.875,297908.8125,279155.40625,239373.15625,274590.125,246027.71875,241914.109375,208690.0,1.0,4
230211.984375,270183.96875,298644.71875,279427.5625,239730.703125,274706.71875,246257.578125,242226.40625,208691.0,1.0,4
230900.328125,271315.9375,299925.5625,279782.625,241299.34375,275287.5,246775.4375,242888.640625,208692.0,1.0,4
231123.578125,271482.59375,300002.53125,279732.8125,241928.234375,275535.15625,246864.921875,242993.0625,208693.0,1.0,4
230575.0625,270449.6875,298762.46875,279345.5,240737.0625,275108.0625,246404.84375,242388.140625,208694.0,1.0,4
230010.453125,269639.125,297908.09375,279150.25,239363.40625,274587.53125,246022.53125,241909.28125,208695.0,1.0,4
230219.046875,270184.40625,298634.59375,279419.78125,239713.53125,274697.78125,246248.109375,242214.953125,208696.0,1.0,4
230893.171875,271307.09375,299915.8125,279773.75,241284.671875,275284.53125,246777.046875,242874.78125,208697.0,1.0,4
231123.484375,271488.59375,300013.53125,279734.96875,241934.40625,275551.78125,246888.265625,242992.890625,208698.0,1.0,4
230586.859375,270467.28125,298777.9375,279348.0,240754.9375,275118.0625,246418.875,242399.046875,208699.0,1.0,4
230012.515625,269645.8125,297911.40625,279149.15625,239373.78125,274591.46875,246035.765625,241920.90625,208700.0,1.0,4
230205.984375,270176.1875,298624.40625,279416.75,239706.90625,274689.0,246246.671875,242220.6875,208701.0,1.0,4
230890.9375,271307.46875,299907.9375,279772.34375,241277.53125,275273.28125,246760.40625,242870.140625,208702.0,1.0,4
231121.078125,271494.59375,300011.9375,279732.90625,241938.78125,275547.75,246879.234375,242984.125,208703.0,1.0,4
230571.9375,270470.0625,298778.1875,279348.8125,240766.296875,275123.53125,246433.0,242398.25,208704.0,1.0,4
229997.3125,269642.53125,297903.09375,279149.53125,239376.828125,274591.90625,246036.484375,241919.5625,208705.0,1.0,4
230195.078125,270171.1875,298615.65625,279418.625,239706.28125,274697.5,246249.453125,242218.171875,208706.0,1.0,4
230878.875,271307.1875,299909.71875,279781.625,241280.65625,275285.34375,246776.5,242882.203125,208707.0,1.0,4
231110.703125,271496.8125,300018.1875,279741.3125,241942.71875,275540.875,246877.625,242998.515625,208708.0,1.0,4
230568.984375,270476.78125,298788.375,279355.96875,240777.734375,275123.78125,246418.25,242407.71875,208709.0,1.0,4
229994.640625,269646.28125,297904.6875,279152.5625,239384.328125,274594.3125,246019.671875,241914.375,208710.0,1.0,4
230177.5625,270160.375,298604.75,279417.03125,239693.765625,274697.0625,246239.609375,242208.703125,208711.0,1.0,4
230863.9375,271296.8125,299897.3125,279779.84375,241261.703125,275283.75,246766.21875,242870.40625,208712.0,1.0,4
231119.1875,271510.40625,300025.59375,279748.53125,241947.625,275557.9375,246890.046875,243004.25,208713.0,1.0,4
230585.4375,270496.4375,298800.46875,279362.75,240790.890625,275141.59375,246438.546875,242418.890625,208714.0,1.0,4
229998.828125,269650.84375,297906.3125,279151.75,239383.265625,274607.03125,246038.53125,241918.21875,208715.0,1.0,4
230183.640625,270165.46875,298600.53125,279414.53125,239679.90625,274704.5625,246254.8125,242204.765625,208716.0,1.0,4
230867.6875,271304.15625,299896.40625,279778.3125,241242.203125,275286.5,246780.53125,242866.28125,208717.0,1.0,4
231118.125,271520.25,300034.09375,279746.84375,241935.203125,275560.625,246901.40625,242998.25,208718.0,1.0,4
230591.515625,270515.21875,298816.09375,279361.15625,240790.890625,275150.96875,246448.828125,242416.390625,208719.0,1.0,4
230010.28125,269669.15625,297916.3125,279149.34375,239381.03125,274616.125,246046.3125,241920.0,208720.0,1.0,4
230188.46875,270171.28125,298598.125,279408.0,239667.578125,274707.6875,246256.328125,242204.9375,208721.0,1.0,4
230875.46875,271310.5,299897.9375,279771.34375,241232.90625,275295.90625,246782.578125,242870.765625,208722.0,1.0,4
231129.203125,271535.09375,300048.21875,279749.34375,241943.15625,275580.84375,246918.03125,243019.078125,208723.0,1.0,4
230609.21875,270534.71875,298833.09375,279368.65625,240809.5625,275167.96875,246462.234375,242441.15625,208724.0,1.0,4
230017.15625,269670.59375,297916.40625,279146.5625,239387.015625,274612.75,246034.25,241921.25,208725.0,1.0,4
230189.453125,270163.75,298590.1875,279404.15625,239661.5,274693.46875,246236.125,242191.984375,208726.0,1.0,4
230869.921875,271297.25,299888.375,279768.21875,241223.53125,275271.59375,246752.546875,242855.46875,208727.0,1.0,4
231131.265625,271529.1875,300046.34375,279744.0625,241939.9375,275557.3125,246878.875,243001.734375,208728.0,1.0,4
230611.0,270534.0,298841.3125,279366.78125,240817.34375,275162.78125,246443.734375,242429.09375,208729.0,1.0,4
230019.9375,269677.46875,297927.9375,279153.71875,239399.0,274622.65625,246037.828125,241925.640625,208730.0,1.0,4
230188.640625,270164.21875,298594.1875,279411.3125,239663.109375,274700.8125,246240.234375,242202.984375,208731.0,1.0,4
230865.71875,271298.78125,299895.5,279777.59375,241224.421875,275284.53125,246772.21875,242873.53125,208732.0,1.0,4
231136.359375,271546.25,300063.0625,279757.65625,241952.546875,275577.34375,246913.5625,243031.0625,208733.0,1.0,4
230616.375,270548.5625,298852.3125,279375.625,240831.828125,275172.78125,246463.84375,242448.75,208734.0,1.0,4
230025.296875,269680.875,297926.875,279154.96875,239404.890625,274626.96875,246048.734375,241928.59375,208735.0,1.0,4
230188.375,270157.59375,298581.78125,279407.8125,239655.140625,274703.3125,246253.734375,242199.578125,208736.0,1.0,4
230858.84375,271289.03125,299882.5625,279772.25,241208.6875,275276.78125,246769.171875,242860.828125,208737.0,1.0,4
231126.96875,271539.09375,300060.84375,279754.625,241943.875,275570.90625,246906.234375,243017.75,208738.0,1.0,4
230619.40625,270554.1875,298855.625,279374.03125,240834.25,275171.71875,246463.046875,242438.828125,208739.0,1.0,4
230023.953125,269679.09375,297921.78125,279154.4375,239401.671875,274626.96875,246048.375,241924.125,208740.0,1.0,4
230175.5,270141.5,298566.40625,279404.15625,239634.859375,274692.75,246239.53125,242194.484375,208741.0,1.0,4
230858.21875,271283.21875,299874.25,279771.53125,241194.015625,275272.375,246764.96875,242859.671875,208742.0,1.0,4
231138.234375,271546.25,300064.21875,279757.3125,241947.1875,275576.5625,246913.203125,243014.25,208743.0,1.0,4
230627.09375,270560.5625,298866.4375,279377.5,240848.1875,275182.8125,246479.40625,242445.0,208744.0,1.0,4
230028.78125,269679.0,297928.5625,279154.875,239413.21875,274629.46875,246060.4375,241934.484375,208745.0,1.0,4
230181.21875,270136.40625,298559.40625,279399.21875,239636.734375,274688.125,246236.75,242193.046875,208746.0,1.0,4
230860.984375,271274.90625,299865.03125,279763.21875,241192.59375,275260.59375,246749.5,242843.125,208747.0,1.0,4
231143.328125,271548.5,300068.96875,279756.0625,241962.296875,275571.625,246911.78125,243018.09375,208748.0,1.0,4
230629.421875,270565.09375,298875.03125,279380.28125,240872.6875,275188.6875,246486.46875,242460.015625,208749.0,1.0,4
230021.8125,269672.375,297922.75,279150.5,239425.90625,274627.9375,246051.859375,241923.765625,208750.0,1.0,4
230166.46875,270121.8125,298542.78125,279392.15625,239632.96875,274675.25,246218.6875,242169.265625,208751.0,1.0,4
230842.75,271266.875,299850.28125,279764.90625,241183.46875,275259.5,246756.203125,242846.703125,208752.0,1.0,4
231127.6875,271546.09375,300059.21875,279757.3125,241953.265625,275568.9375,246907.84375,243016.484375,208753.0,1.0,4
230627.8125,270571.0,298872.875,279378.84375,240873.3125,275187.09375,246472.15625,242442.953125,208754.0,1.0,4
230033.25,269687.125,297928.46875,279155.875,239434.21875,274641.96875,246057.21875,241928.765625,208755.0,1.0,4
230174.15625,270127.90625,298544.65625,279400.5625,239634.671875,274693.125,246236.484375,242186.53125,208756.0,1.0,4
230849.1875,271267.3125,299849.90625,279765.09375,241179.625,275261.75,246755.046875,242840.8125,208757.0,1.0,4
231147.0,271555.90625,300074.25,279760.96875,241964.265625,275570.03125,246903.90625,243012.921875,208758.0,1.0,4
230647.9375,270582.4375,298892.28125,279386.625,240889.234375,275186.90625,246473.5,242454.84375,208759.0,1.0,4
230037.640625,269683.03125,297928.28125,279154.15625,239433.59375,274633.03125,246046.765625,241926.984375,208760.0,1.0,4
230172.640625,270117.625,298531.15625,279393.78125,239615.546875,274683.09375,246226.296875,242173.390625,208761.0,1.0,4
230850.703125,271264.09375,299847.78125,279769.90625,241165.328125,275265.3125,246761.125,242847.6875,208762.0,1.0,4
231145.5625,271559.9375,300079.875,279770.71875,241960.234375,275573.25,246916.6875,243031.25,208763.0,1.0,4
230657.40625,270596.9375,298902.84375,279393.0625,240896.296875,275186.09375,246479.046875,242463.328125,208764.0,1.0,4
230045.140625,269688.5625,297932.21875,279156.59375,239436.1875,274628.21875,246049.890625,241929.84375,208765.0,1.0,4
230166.203125,270107.78125,298525.96875,279393.34375,239606.875,274676.21875,246220.484375,242168.28125,208766.0,1.0,4
230837.296875,271248.625,299838.03125,279765.0,241151.546875,275249.75,246747.265625,242837.328125,208767.0,1.0,4
231136.1875,271549.84375,300075.84375,279765.25,241958.265625,275562.875,246908.5625,243024.453125,208768.0,1.0,4
230649.09375,270588.8125,298900.0625,279390.375,240901.65625,275181.90625,246481.546875,242466.734375,208769.0,1.0,4
230033.34375,269676.59375,297919.53125,279148.8125,239435.109375,274617.75,246045.25,241928.953125,208770.0,1.0,4
230149.125,270086.6875,298502.09375,279378.40625,239594.4375,274659.21875,246211.890625,242159.078125,208771.0,1.0,4
230821.46875,271230.90625,299815.75,279750.0625,241137.421875,275237.25,246750.671875,242827.84375,208772.0,1.0,4
231132.0625,271550.5625,300067.71875,279757.40625,241957.90625,275560.1875,246911.953125,243019.703125,208773.0,1.0,4
230646.859375,270594.34375,298899.25,279382.875,240912.828125,275187.375,246480.921875,242466.640625,208774.0,1.0,4
230035.046875,269682.125,297918.71875,279143.4375,239448.4375,274634.09375,246059.546875,241936.28125,208775.0,1.0,4
230147.15625,270085.34375,298493.4375,279375.90625,239594.4375,274665.75,246222.171875,242175.890625,208776.0,1.0,4
230823.25,271227.4375,299809.15625,279750.0625,241137.25,275232.5,246736.359375,242828.734375,208777.0,1.0,4
231140.65625,271554.65625,300077.28125,279763.375,241972.9375,275566.4375,246912.140625,243019.265625,208778.0,1.0,4
230666.34375,270612.03125,298922.15625,279399.59375,240949.21875,275212.46875,246513.734375,242486.671875,208779.0,1.0,4
230043.984375,269685.96875,297927.65625,279153.46875,239471.5,274643.125,246071.96875,241949.953125,208780.0,1.0,4
230139.734375,270069.71875,298480.75,279373.125,239589.875,274659.40625,246207.703125,242151.65625,208781.0,1.0,4
230812.96875,271217.6875,299799.59375,279751.125,241126.34375,275242.15625,246745.5625,242814.4375,208782.0,1.0,4
231131.0,271554.40625,300075.40625,279764.375,241963.71875,275576.0,246922.5,243021.671875,208783.0,1.0,4
230655.53125,270609.625,298916.0625,279390.75,240933.40625,275193.25,246483.6875,242473.609375,208784.0,1.0,4
230040.234375,269684.0,297921.9375,279148.8125,239455.953125,274632.40625,246048.28125,241937.625,208785.0,1.0,4
230141.96875,270069.25,298477.96875,279375.0,239574.859375,274658.15625,246210.5625,242158.8125,208786.0,1.0,4
230808.5,271214.75,299797.15625,279750.25,241106.140625,275228.21875,246737.15625,242822.484375,208787.0,1.0,4
231133.5,271561.46875,300082.28125,279767.21875,241958.359375,275566.0,246920.453125,243035.796875,208788.0,1.0,4
230661.15625,270620.53125,298930.09375,279396.09375,240942.78125,275203.0,246497.546875,242483.265625,208789.0,1.0,4
230042.203125,269692.59375,297926.40625,279147.8125,239462.125,274638.9375,246056.328125,241934.578125,208790.0,1.0,4
230136.609375,270069.53125,298471.1875,279370.53125,239571.1875,274653.40625,246202.953125,242146.390625,208791.0,1.0,4
230805.109375,271210.90625,299792.25,279746.84375,241101.125,275218.84375,246720.890625,242811.84375,208792.0,1.0,4
231135.734375,271566.375,300093.09375,279765.71875,241966.234375,275563.0625,246910.078125,243028.734375,208793.0,1.0,4
230666.34375,270634.40625,298947.96875,279398.59375,240962.640625,275214.1875,246509.71875,242493.46875,208794.0,1.0,4
230052.125,269701.875,297940.1875,279154.15625,239479.109375,274651.46875,246075.375,241953.4375,208795.0,1.0,4
230147.96875,270067.75,298474.3125,279374.1875,239573.609375,274661.46875,246212.34375,242156.9375,208796.0,1.0,4
230817.171875,271209.90625,299794.21875,279750.15625,241099.34375,275230.09375,246733.671875,242814.515625,208797.0,1.0,4
231144.9375,271567.28125,300098.375,279770.71875,241968.90625,275578.15625,246924.46875,243030.4375,208798.0,1.0,4
230673.40625,270635.28125,298953.625,279400.84375,240968.0,275215.15625,246504.265625,242490.78125,208799.0,1.0,4
230051.671875,269698.65625,297937.21875,279152.28125,239476.25,274642.96875,246058.203125,241943.96875,208800.0,1.0,4
230141.890625,270061.5625,298467.0625,279372.9375,239558.046875,274660.46875,246201.796875,242148.796875,208801.0,1.0,4
230811.015625,271207.9375,299792.6875,279755.96875,241083.0625,275236.71875,246740.296875,242821.234375,208802.0,1.0,4
231145.390625,271573.34375,300105.25,279773.9375,241963.8125,275570.90625,246913.109375,243035.265625,208803.0,1.0,4
230682.796875,270648.25,298967.03125,279404.40625,240974.078125,275218.03125,246498.625,242497.484375,208804.0,1.0,4
230058.203125,269703.03125,297945.1875,279154.625,239481.078125,274655.46875,246064.28125,241946.46875,208805.0,1.0,4
230138.3125,270050.84375,298460.25,279370.8125,239548.65625,274660.03125,246208.765625,242147.015625,208806.0,1.0,4
230808.421875,271197.40625,299780.0,279749.15625,241068.3125,275222.3125,246733.140625,242817.828125,208807.0,1.0,4
231156.921875,271579.4375,300107.78125,279779.9375,241965.78125,275582.28125,246936.546875,243047.875,208808.0,1.0,4
230697.1875,270657.46875,298974.1875,279410.3125,240987.671875,275229.28125,246526.25,242513.671875,208809.0,1.0,4
230060.171875,269701.96875,297939.90625,279149.34375,239485.0,274652.4375,246074.484375,241948.796875,208810.0,1.0,4
230140.8125,270052.28125,298452.5,279366.0625,239548.484375,274662.8125,246214.21875,242145.84375,208811.0,1.0,4
230808.421875,271195.15625,299775.09375,279746.75,241065.625,275218.75,246733.671875,242816.84375,208812.0,1.0,4
231147.265625,271575.21875,300106.4375,279774.5625,241966.234375,275569.03125,246927.875,243041.265625,208813.0,1.0,4
230684.234375,270656.3125,298974.96875,279404.0625,240995.0,275224.5625,246524.46875,242503.5625,208814.0,1.0,4
230054.984375,269700.09375,297934.1875,279144.59375,239492.0625,274651.90625,246068.484375,241942.0,208815.0,1.0,4
230137.0625,270038.0625,298432.5625,279357.125,239539.453125,274646.71875,246196.96875,242134.765625,208816.0,1.0,4
230805.640625,271180.40625,299756.3125,279739.78125,241056.0625,275209.1875,246722.046875,242802.625,208817.0,1.0,4
231156.125,271573.15625,300101.0625,279774.375,241973.375,275566.1875,246924.828125,243039.734375,208818.0,1.0,4
230698.265625,270661.3125,298978.375,279408.71875,241014.046875,275224.5625,246525.265625,242520.375,208819.0,1.0,4
230058.921875,269697.40625,297933.5625,279143.25,239504.859375,274652.71875,246067.6875,241946.5625,208820.0,1.0,4
230125.4375,270023.84375,298420.375,279347.90625,239534.359375,274645.09375,246192.765625,242125.46875,208821.0,1.0,4
230795.0,271173.625,299749.875,279733.96875,241047.296875,275213.09375,246724.828125,242798.609375,208822.0,1.0,4
231148.609375,271577.375,300110.28125,279773.3125,241973.109375,275584.78125,246939.21875,243043.40625,208823.0,1.0,4
230700.234375,270675.53125,298993.75,279406.9375,241023.609375,275243.6875,246533.40625,242519.390625,208824.0,1.0,4
230066.34375,269708.0625,297940.0,279143.96875,239510.9375,274652.78125,246063.75,241952.453125,208825.0,1.0,4
230117.75,270017.59375,298414.75,279351.59375,239526.765625,274638.40625,246191.609375,242133.953125,208826.0,1.0,4
230781.5,271164.03125,299741.75,279735.3125,241033.0,275198.96875,246718.484375,242803.4375,208827.0,1.0,4
231141.8125,271576.46875,300108.65625,279775.71875,241968.1875,275562.34375,246926.265625,243049.296875,208828.0,1.0,4
230695.5,270678.125,298997.25,279413.4375,241030.578125,275229.03125,246527.140625,242526.1875,208829.0,1.0,4
230051.859375,269703.3125,297939.75,279148.71875,239516.203125,274662.53125,246078.6875,241954.15625,208830.0,1.0,4
230116.671875,270018.28125,298413.15625,279357.375,239527.390625,274654.5,246207.703125,242132.171875,208831.0,1.0,4
230786.328125,271161.0,299739.84375,279739.96875,241028.625,275204.53125,246727.78125,242797.359375,208832.0,1.0,4
231148.78125,271578.09375,300118.5,279783.15625,241975.171875,275579.6875,246947.09375,243051.890625,208833.0,1.0,4
230703.90625,270685.90625,299013.15625,279420.15625,241048.640625,275249.5,246547.625,242539.5,208834.0,1.0,4
230064.109375,269708.9375,297942.15625,279144.6875,239525.6875,274662.625,246076.71875,241951.5625,208835.0,1.0,4
230108.359375,269996.9375,298391.6875,279341.03125,239514.0625,274633.3125,246181.234375,242113.578125,208836.0,1.0,4
230765.40625,271136.96875,299713.9375,279723.34375,241009.84375,275187.375,246707.484375,242786.1875,208837.0,1.0,4
231136.71875,271570.5,300103.5625,279770.28125,241969.359375,275564.9375,246937.875,243043.9375,208838.0,1.0,4
230702.015625,270683.5625,299007.25,279409.59375,241053.03125,275238.6875,246542.703125,242527.4375,208839.0,1.0,4
230049.890625,269690.875,297933.03125,279136.71875,239525.234375,274653.15625,246068.84375,241946.109375,208840.0,1.0,4
230103.984375,269985.3125,298381.6875,279339.25,239511.109375,274631.53125,246187.9375,242116.875,208841.0,1.0,4
230774.4375,271134.4375,299709.625,279727.4375,241012.96875,275185.125,246710.078125,242788.234375,208842.0,1.0,4
231151.5625,271577.28125,300112.0625,279777.59375,241986.53125,275568.59375,246937.703125,243054.40625,208843.0,1.0,4
230716.328125,270699.5625,299021.28125,279418.8125,241084.671875,275263.1875,246561.203125,242548.453125,208844.0,1.0,4
230068.390625,269709.40625,297939.65625,279140.5,239553.484375,274676.03125,246085.03125,241959.078125,208845.0,1.0,4
230111.046875,269990.5,298374.6875,279334.40625,239516.921875,274636.0,246179.796875,242108.5625,208846.0,1.0,4
230769.796875,271132.03125,299701.6875,279717.78125,241006.171875,275178.40625,246695.859375,242776.25,208847.0,1.0,4
231146.375,271579.59375,300112.59375,279771.0625,241981.703125,275561.96875,246927.15625,243051.625,208848.0,1.0,4
230712.390625,270702.53125,299026.46875,279410.6875,241083.953125,275251.09375,246544.484375,242536.375,208849.0,1.0,4
230064.546875,269714.40625,297940.8125,279134.21875,239551.171875,274669.34375,246073.671875,241948.171875,208850.0,1.0,4
230100.140625,269985.9375,298366.03125,279325.03125,239500.46875,274625.96875,246172.921875,242101.5,208851.0,1.0,4
230757.09375,271129.0,299696.125,279714.9375,240987.40625,275185.75,246708.109375,242776.34375,208852.0,1.0,4
231142.34375,271589.4375,300118.40625,279771.96875,241974.546875,275570.75,246929.125,243045.1875,208853.0,1.0,4
230724.640625,270728.1875,299043.1875,279419.53125,241090.21875,275261.84375,246544.578125,242547.375,208854.0,1.0,4
230073.765625,269728.09375,297953.0625,279141.75,239552.234375,274672.71875,246077.96875,241964.703125,208855.0,1.0,4
230098.078125,269985.75,298364.15625,279328.25,239486.34375,274625.0,246165.765625,242100.703125,208856.0,1.0,4
230754.765625,271124.0,299687.90625,279714.03125,240963.96875,275176.625,246689.6875,242763.015625,208857.0,1.0,4
231151.734375,271593.90625,300125.28125,279777.6875,241966.234375,275576.0,246938.59375,243048.59375,208858.0,1.0,4
230732.859375,270730.0625,299054.03125,279424.96875,241094.328125,275270.78125,246573.015625,242556.046875,208859.0,1.0,4
230073.578125,269723.15625,297952.875,279143.0,239551.53125,274687.21875,246096.203125,241972.3125,208860.0,1.0,4
230097.09375,269977.53125,298356.375,279329.6875,239478.03125,274642.0625,246184.71875,242120.015625,208861.0,1.0,4
230761.03125,271119.875,299682.09375,279712.78125,240958.96875,275177.34375,246685.21875,242769.015625,208862.0,1.0,4
231157.1875,271592.5625,300124.125,279774.46875,241970.875,275568.40625,246925.09375,243040.625,208863.0,1.0,4
230740.46875,270738.03125,299064.03125,279426.875,241113.203125,275277.9375,246566.03125,242557.125,208864.0,1.0,4
230084.84375,269729.96875,297958.6875,279144.5,239572.984375,274693.28125,246095.21875,241970.25,208865.0,1.0,4
230099.953125,269969.5625,298347.875,279323.78125,239482.0625,274637.0625,246179.359375,242102.578125,208866.0,1.0,4
230748.15625,271106.5625,299673.96875,279711.71875,240949.671875,275184.3125,246704.984375,242764.625,208867.0,1.0,4
231151.65625,271594.09375,300130.3125,279784.03125,241970.96875,275586.75,246952.90625,243060.65625,208868.0,1.0,4
230743.859375,270741.40625,299069.03125,279433.5625,241115.25,275274.625,246569.171875,242573.484375,208869.0,1.0,4
