FZ,C3,CZ,C4,PZ,PO7,OZ,PO8,Counter,Validation,Label
244479.90625,264159.0,268179.1875,281113.15625,235517.03125,264708.59375,239246.5625,242134.140625,52783.0,1.0,3
244391.21875,263937.71875,268103.71875,281056.75,235325.875,264502.0625,239155.625,241935.203125,52784.0,1.0,3
244349.8125,263715.1875,268036.0625,281006.9375,235103.34375,264279.96875,239035.828125,241722.6875,52785.0,1.0,3
244314.140625,263460.03125,267946.65625,280941.40625,234812.5,264004.4375,238875.875,241456.78125,52786.0,1.0,3
244237.609375,263161.6875,267838.375,280864.875,234485.015625,263704.71875,238708.421875,241150.390625,52787.0,1.0,3
244132.296875,262861.1875,267736.375,280796.5625,234178.4375,263435.875,238574.484375,240857.671875,52788.0,1.0,3
244040.296875,262587.9375,267651.96875,280738.0,233903.15625,263205.125,238463.984375,240597.59375,52789.0,1.0,3
243962.15625,262266.34375,267542.96875,280652.0,233555.171875,262910.4375,238297.40625,240285.640625,52790.0,1.0,3
243912.796875,261921.859375,267434.96875,280574.65625,233147.125,262562.03125,238103.125,239926.59375,52791.0,1.0,3
243793.265625,261471.25,267276.1875,280459.5,232650.640625,262125.09375,237867.453125,239475.53125,52792.0,1.0,3
243596.828125,260898.328125,267066.0625,280308.40625,232063.875,261583.46875,237589.9375,238927.28125,52793.0,1.0,3
243410.328125,260284.921875,266859.8125,280162.5,231439.1875,261013.046875,237300.34375,238346.3125,52794.0,1.0,3
243290.078125,259685.078125,266684.125,280040.0,230787.765625,260471.6875,237012.359375,237760.53125,52795.0,1.0,3
243226.0625,259176.171875,266545.28125,279940.9375,230162.546875,260033.59375,236747.8125,237220.59375,52796.0,1.0,3
243244.390625,258915.109375,266524.28125,279929.9375,229768.875,259904.671875,236648.5625,236912.671875,52797.0,1.0,3
243326.109375,258944.53125,266629.6875,280012.375,229681.984375,260126.390625,236751.5625,236900.34375,52798.0,1.0,3
243466.75,259201.75,266808.40625,280144.09375,229831.734375,260564.046875,236964.171875,237108.921875,52799.0,1.0,3
243617.390625,259514.671875,266975.59375,280260.3125,230027.0,260988.90625,237158.71875,237364.71875,52800.0,1.0,3
243730.40625,259740.78125,267083.6875,280333.28125,230141.34375,261271.15625,237270.65625,237541.203125,52801.0,1.0,3
243776.0,259867.734375,267136.53125,280366.53125,230189.09375,261435.671875,237329.3125,237637.953125,52802.0,1.0,3
243791.375,259994.15625,267190.4375,280406.9375,230274.484375,261604.828125,237418.8125,237752.65625,52803.0,1.0,3
243819.453125,260156.53125,267262.0625,280453.53125,230414.75,261819.234375,237530.921875,237913.953125,52804.0,1.0,3
243891.25,260340.078125,267341.28125,280506.71875,230564.421875,262033.796875,237629.546875,238089.8125,52805.0,1.0,3
243971.890625,260504.5,267401.625,280543.1875,230668.40625,262200.0,237691.40625,238226.0625,52806.0,1.0,3
244022.140625,260642.28125,267447.5,280577.53125,230757.625,262328.65625,237745.953125,238336.3125,52807.0,1.0,3
244004.96875,260731.140625,267465.09375,280589.6875,230845.078125,262430.78125,237804.25,238428.03125,52808.0,1.0,3
244003.015625,260842.09375,267501.5625,280614.09375,230967.828125,262559.25,237881.671875,238552.484375,52809.0,1.0,3
244046.734375,260962.53125,267549.0625,280645.75,231076.90625,262667.34375,237939.15625,238673.09375,52810.0,1.0,3
244089.015625,261035.484375,267562.65625,280652.375,231109.625,262702.46875,237935.5,238719.953125,52811.0,1.0,3
244078.828125,261031.546875,267540.125,280636.71875,231089.328125,262674.9375,237908.5,238705.375,52812.0,1.0,3
244032.609375,260999.640625,267518.5625,280626.625,231079.5,262642.40625,237909.296875,238691.34375,52813.0,1.0,3
243998.0,260982.375,267509.8125,280618.9375,231085.84375,262623.0,237918.0625,238691.609375,52814.0,1.0,3
243989.328125,260948.21875,267490.75,280601.84375,231045.171875,262561.03125,237885.421875,238657.90625,52815.0,1.0,3
243986.5625,260848.796875,267444.71875,280569.75,230920.796875,262429.53125,237796.203125,238549.71875,52816.0,1.0,3
243936.046875,260665.703125,267363.71875,280513.875,230722.765625,262229.34375,237676.65625,238365.984375,52817.0,1.0,3
243843.5,260437.984375,267276.625,280455.5625,230509.625,262004.296875,237571.421875,238161.875,52818.0,1.0,3
243757.046875,260211.515625,267200.0,280406.03125,230302.28125,261788.109375,237476.921875,237959.640625,52819.0,1.0,3
243700.28125,259956.515625,267118.90625,280345.53125,230041.296875,261541.171875,237344.515625,237718.5,52820.0,1.0,3
243669.703125,259686.609375,267031.46875,280278.90625,229723.8125,261275.09375,237175.796875,237432.046875,52821.0,1.0,3
243624.015625,259428.03125,266947.0625,280220.09375,229414.5625,261041.75,237030.421875,237150.5,52822.0,1.0,3
243550.609375,259207.65625,266880.5625,280172.6875,229168.15625,260882.328125,236933.515625,236918.046875,52823.0,1.0,3
243534.875,259111.984375,266880.375,280173.125,229041.46875,260859.71875,236910.890625,236803.78125,52824.0,1.0,3
243589.140625,259111.265625,266926.0625,280209.0,228979.421875,260922.75,236918.21875,236764.984375,52825.0,1.0,3
243653.609375,259127.09375,266953.96875,280228.40625,228908.96875,260989.0,236900.609375,236727.25,52826.0,1.0,3
243679.359375,259134.328125,266966.125,280231.0,228845.75,261052.5625,236889.078125,236688.359375,52827.0,1.0,3
243685.53125,259170.453125,266998.40625,280254.9375,228848.4375,261157.078125,236928.953125,236699.984375,52828.0,1.0,3
243707.25,259267.46875,267050.59375,280289.625,228927.375,261301.828125,237006.640625,236781.96875,52829.0,1.0,3
243764.734375,259403.453125,267115.34375,280331.65625,229028.859375,261467.5,237080.3125,236897.125,52830.0,1.0,3
243836.71875,259541.859375,267169.15625,280360.28125,229103.0625,261620.203125,237123.5,236997.25,52831.0,1.0,3
243878.46875,259678.90625,267208.6875,280384.6875,229184.34375,261764.421875,237171.25,237095.25,52832.0,1.0,3
243895.1875,259834.65625,267264.8125,280428.84375,229331.59375,261951.90625,237271.015625,237241.96875,52833.0,1.0,3
243939.265625,260071.046875,267355.5,280491.96875,229569.140625,262217.28125,237414.703125,237467.890625,52834.0,1.0,3
244034.21875,260359.125,267463.03125,280565.375,229836.5625,262510.4375,237558.640625,237728.78125,52835.0,1.0,3
244147.046875,260650.40625,267562.71875,280635.03125,230086.1875,262785.71875,237673.53125,237976.171875,52836.0,1.0,3
244217.046875,260923.1875,267643.03125,280689.71875,230342.0625,263054.65625,237790.75,238222.9375,52837.0,1.0,3
244254.6875,261213.40625,267727.34375,280751.15625,230652.671875,263351.75,237941.3125,238501.796875,52838.0,1.0,3
244305.828125,261563.96875,267836.0625,280827.0625,231035.78125,263712.40625,238123.34375,238838.140625,52839.0,1.0,3
244408.734375,261956.921875,267965.25,280913.4375,231442.3125,264090.6875,238301.609375,239198.546875,52840.0,1.0,3
244513.25,262312.5625,268066.0,280979.59375,231799.40625,264408.46875,238428.390625,239516.65625,52841.0,1.0,3
244582.015625,262625.9375,268144.59375,281036.375,232132.4375,264682.40625,238547.125,239807.046875,52842.0,1.0,3
244599.71875,262919.65625,268209.21875,281083.84375,232477.828125,264932.8125,238684.453125,240094.046875,52843.0,1.0,3
244627.703125,263217.46875,268286.75,281139.28125,232853.6875,265191.9375,238830.90625,240401.609375,52844.0,1.0,3
244681.703125,263478.8125,268356.125,281185.75,233184.5,265392.375,238940.421875,240672.78125,52845.0,1.0,3
244734.71875,263672.28125,268390.71875,281202.65625,233424.015625,265497.34375,238992.015625,240866.25,52846.0,1.0,3
244729.796875,263774.5625,268378.21875,281190.59375,233575.921875,265508.0625,239000.421875,240972.5625,52847.0,1.0,3
244676.78125,263821.3125,268351.9375,281174.59375,233710.390625,265496.09375,239013.921875,241048.90625,52848.0,1.0,3
244623.9375,263864.6875,268333.5,281157.78125,233850.578125,265496.28125,239033.671875,241126.703125,52849.0,1.0,3
244615.453125,263908.3125,268324.3125,281146.4375,233962.6875,265474.71875,239037.96875,241193.21875,52850.0,1.0,3
244616.609375,263897.3125,268292.375,281123.34375,233986.125,265379.6875,238989.515625,241184.984375,52851.0,1.0,3
244586.921875,263843.9375,268240.4375,281085.09375,233962.15625,265251.125,238926.21875,241128.21875,52852.0,1.0,3
244513.4375,263766.6875,268184.1875,281046.1875,233947.046875,265139.96875,238887.046875,241073.234375,52853.0,1.0,3
244457.109375,263728.96875,268153.8125,281023.21875,233974.5,265083.46875,238879.71875,241060.09375,52854.0,1.0,3
244460.59375,263724.5,268150.21875,281022.59375,234005.34375,265039.5625,238869.890625,241063.9375,52855.0,1.0,3
244472.03125,263674.5,268124.46875,281004.1875,233966.53125,264942.84375,238814.625,241012.4375,52856.0,1.0,3
244449.0625,263586.1875,268077.71875,280971.28125,233891.609375,264815.96875,238753.5625,240921.5,52857.0,1.0,3
244389.609375,263490.5,268033.09375,280946.6875,233840.296875,264714.03125,238723.609375,240845.515625,52858.0,1.0,3
244342.75,263434.8125,268008.96875,280925.9375,233836.265625,264665.0625,238720.484375,240811.8125,52859.0,1.0,3
244351.34375,263400.46875,268006.8125,280924.15625,233826.796875,264615.53125,238708.59375,240788.296875,52860.0,1.0,3
244376.46875,263334.40625,267988.125,280913.6875,233753.921875,264513.78125,238651.734375,240719.71875,52861.0,1.0,3
244358.484375,263216.75,267942.53125,280881.6875,233634.578125,264374.46875,238576.0,240604.203125,52862.0,1.0,3
244294.125,263073.875,267889.875,280851.46875,233526.75,264242.4375,238523.171875,240486.625,52863.0,1.0,3
244242.625,262968.46875,267860.28125,280833.0625,233465.59375,264163.5625,238501.0,240414.75,52864.0,1.0,3
244234.125,262872.875,267841.15625,280821.15625,233389.421875,264075.3125,238463.703125,240341.25,52865.0,1.0,3
244236.546875,262732.34375,267804.40625,280795.21875,233241.53125,263923.59375,238386.28125,240211.171875,52866.0,1.0,3
244196.3125,262539.03125,267729.46875,280739.8125,233035.8125,263714.5625,238268.890625,240023.328125,52867.0,1.0,3
244115.84375,262338.25,267654.1875,280688.03125,232850.5625,263521.71875,238175.734375,239841.03125,52868.0,1.0,3
244058.625,262186.78125,267615.03125,280667.03125,232724.5,263399.6875,238131.921875,239714.328125,52869.0,1.0,3
244034.21875,262030.234375,267574.34375,280636.625,232568.390625,263260.75,238065.9375,239570.03125,52870.0,1.0,3
244029.296875,261842.296875,267519.28125,280600.59375,232345.59375,263066.0,237958.03125,239376.640625,52871.0,1.0,3
243985.484375,261609.203125,267439.53125,280545.25,232072.71875,262829.09375,237825.96875,239137.21875,52872.0,1.0,3
243900.734375,261368.796875,267354.875,280489.0,231821.21875,262615.5,237720.734375,238906.1875,52873.0,1.0,3
243830.546875,261177.015625,267298.0,280447.25,231623.625,262462.5,237653.59375,238726.5625,52874.0,1.0,3
243802.203125,260995.4375,267256.59375,280414.90625,231419.515625,262310.15625,237578.765625,238552.484375,52875.0,1.0,3
243796.65625,260785.421875,267202.25,280377.4375,231155.40625,262107.5625,237463.953125,238334.96875,52876.0,1.0,3
243758.921875,260529.796875,267127.40625,280328.34375,230851.953125,261866.4375,237330.921875,238078.359375,52877.0,1.0,3
243669.4375,260253.53125,267037.03125,280267.8125,230551.28125,261629.859375,237215.40625,237813.09375,52878.0,1.0,3
243593.078125,260009.890625,266975.78125,280230.1875,230296.109375,261440.5,237130.109375,237588.5,52879.0,1.0,3
243542.828125,259750.96875,266909.25,280180.1875,230009.46875,261221.8125,237013.796875,237344.609375,52880.0,1.0,3
243515.921875,259466.75,266829.15625,280120.5625,229659.265625,260954.9375,236859.03125,237053.140625,52881.0,1.0,3
243484.09375,259192.546875,266760.5625,280073.71875,229312.546875,260714.25,236723.671875,236767.390625,52882.0,1.0,3
243433.125,258965.359375,266716.0625,280045.5625,229044.0625,260571.828125,236649.375,236549.0625,52883.0,1.0,3
243439.65625,258898.5625,266745.03125,280068.90625,228932.65625,260612.40625,236670.65625,236480.125,52884.0,1.0,3
243514.75,258959.640625,266821.1875,280121.0,228923.359375,260764.671875,236737.0,236521.171875,52885.0,1.0,3
243624.015625,259074.796875,266904.53125,280179.40625,228940.34375,260935.890625,236803.15625,236597.609375,52886.0,1.0,3
243689.90625,259166.25,266962.1875,280220.34375,228953.671875,261078.046875,236855.640625,236664.9375,52887.0,1.0,3
243701.703125,259246.90625,267001.53125,280249.6875,228994.890625,261214.75,236924.03125,236737.796875,52888.0,1.0,3
243721.640625,259387.796875,267062.5,280290.34375,229109.0625,261410.1875,237025.59375,236869.140625,52889.0,1.0,3
243802.734375,259588.703125,267157.90625,280358.84375,229274.453125,261643.28125,237144.0625,237058.328125,52890.0,1.0,3
243913.0625,259802.46875,267251.40625,280425.4375,229426.09375,261863.125,237241.34375,237245.1875,52891.0,1.0,3
243988.96875,260002.75,267324.0,280475.0625,229573.703125,262064.5625,237334.671875,237423.28125,52892.0,1.0,3
244013.203125,260209.8125,267386.78125,280515.375,229761.640625,262283.53125,237449.296875,237618.015625,52893.0,1.0,3
244055.9375,260469.0,267482.96875,280584.9375,230030.03125,262569.96875,237607.640625,237878.8125,52894.0,1.0,3
244144.890625,260764.5,267592.78125,280661.5625,230320.96875,262863.3125,237760.703125,238167.328125,52895.0,1.0,3
244259.703125,261063.375,267694.875,280729.96875,230584.0,263123.59375,237889.625,238440.28125,52896.0,1.0,3
244340.515625,261336.875,267774.28125,280786.03125,230836.125,263359.34375,238009.515625,238698.21875,52897.0,1.0,3
244366.890625,261582.828125,267840.59375,280836.8125,231103.90625,263591.09375,238138.53125,238947.84375,52898.0,1.0,3
244393.453125,261853.921875,267922.5,280893.84375,231424.078125,263857.09375,238291.0625,239235.65625,52899.0,1.0,3
244470.875,262149.3125,268022.375,280962.15625,231754.609375,264120.75,238438.859375,239541.953125,52900.0,1.0,3
244572.359375,262424.5,268110.15625,281024.28125,232038.828125,264334.78125,238555.53125,239816.703125,52901.0,1.0,3
244637.265625,262658.59375,268169.53125,281065.96875,232288.640625,264505.71875,238650.921875,240051.40625,52902.0,1.0,3
244647.28125,262849.71875,268212.625,281101.90625,232540.5,264665.15625,238750.96875,240269.734375,52903.0,1.0,3
244655.765625,263063.78125,268269.0625,281143.75,232835.984375,264860.0625,238875.703125,240520.34375,52904.0,1.0,3
244702.796875,263294.0,268331.90625,281181.90625,233123.15625,265039.5,238981.203125,240769.421875,52905.0,1.0,3
244775.390625,263490.6875,268386.0,281222.59375,233353.296875,265162.25,239051.203125,240977.65625,52906.0,1.0,3
244809.1875,263634.71875,268412.28125,281241.65625,233537.109375,265237.625,239099.21875,241136.4375,52907.0,1.0,3
244786.84375,263742.625,268419.53125,281248.25,233720.671875,265304.75,239155.984375,241275.46875,52908.0,1.0,3
244776.015625,263886.9375,268451.15625,281273.90625,233952.328125,265416.15625,239245.84375,241453.75,52909.0,1.0,3
244805.53125,264039.46875,268491.125,281302.15625,234176.203125,265526.84375,239320.046875,241631.9375,52910.0,1.0,3
244864.359375,264172.96875,268523.9375,281325.78125,234343.75,265587.375,239357.78125,241771.953125,52911.0,1.0,3
244893.59375,264259.78125,268538.78125,281339.46875,234470.34375,265615.09375,239380.21875,241872.171875,52912.0,1.0,3
244854.25,264306.1875,268523.0625,281329.96875,234592.828125,265633.25,239407.21875,241950.84375,52913.0,1.0,3
244829.046875,264403.96875,268537.28125,281339.46875,234768.34375,265706.65625,239469.453125,242072.0,52914.0,1.0,3
244849.78125,264525.84375,268567.84375,281358.9375,234944.203125,265784.875,239522.734375,242203.25,52915.0,1.0,3
244897.53125,264623.3125,268588.84375,281373.0625,235066.609375,265817.6875,239543.484375,242300.078125,52916.0,1.0,3
244906.640625,264664.6875,268581.34375,281371.46875,235139.828125,265806.15625,239537.484375,242348.265625,52917.0,1.0,3
244858.28125,264672.90625,268552.125,281351.625,235208.40625,265785.84375,239540.796875,242375.984375,52918.0,1.0,3
244822.515625,264723.875,268546.46875,281346.53125,235325.25,265815.53125,239574.6875,242440.53125,52919.0,1.0,3
244829.21875,264781.90625,268556.5,281355.5625,235434.875,265844.875,239594.890625,242507.234375,52920.0,1.0,3
244854.25,264803.90625,268550.6875,281351.625,235479.03125,265820.46875,239574.140625,242528.234375,52921.0,1.0,3
244849.78125,264777.09375,268520.625,281331.40625,235472.328125,265744.5625,239532.75,242502.3125,52922.0,1.0,3
244783.703125,264717.90625,268468.34375,281291.625,235458.921875,265658.1875,239491.0,242454.21875,52923.0,1.0,3
244726.40625,264683.65625,268441.6875,281268.46875,235490.03125,265628.5,239485.71875,242440.078125,52924.0,1.0,3
244718.078125,264671.125,268430.34375,281261.21875,235517.03125,265600.96875,239473.296875,242430.421875,52925.0,1.0,3
244733.109375,264624.90625,268407.375,281246.65625,235480.375,265518.71875,239414.90625,242375.0,52926.0,1.0,3
244706.015625,264515.375,268348.96875,281202.65625,235380.234375,265380.75,239322.46875,242258.859375,52927.0,1.0,3
244629.65625,264378.5,268281.90625,281156.78125,235284.75,265251.28125,239249.0625,242133.234375,52928.0,1.0,3
244558.765625,264282.84375,268239.90625,281126.40625,235238.0,265187.46875,239209.359375,242045.53125,52929.0,1.0,3
244541.15625,264224.90625,268216.5625,281108.34375,235200.359375,265139.0,239165.546875,241971.40625,52930.0,1.0,3
244547.671875,264133.71875,268179.28125,281078.03125,235099.0625,265035.1875,239076.59375,241851.078125,52931.0,1.0,3
244523.0,263992.875,268119.375,281035.03125,234944.109375,264887.84375,238967.703125,241681.015625,52932.0,1.0,3
244447.359375,263828.1875,268049.03125,280984.6875,234794.625,264741.6875,238879.0,241507.75,52933.0,1.0,3
244378.078125,263704.65625,268002.625,280948.9375,234696.015625,264651.90625,238825.359375,241378.640625,52934.0,1.0,3
244361.890625,263617.65625,267978.21875,280929.0625,234607.859375,264572.15625,238780.390625,241274.84375,52935.0,1.0,3
244372.703125,263506.25,267948.0,280906.8125,234467.03125,264444.21875,238703.671875,241141.0,52936.0,1.0,3
244351.78125,263347.46875,267890.5,280867.75,234277.3125,264273.90625,238601.84375,240965.140625,52937.0,1.0,3
244288.125,263179.28125,267832.28125,280829.5625,234103.421875,264123.34375,238529.875,240797.671875,52938.0,1.0,3
244233.046875,263065.84375,267800.03125,280804.71875,233995.15625,264047.6875,238502.609375,240684.578125,52939.0,1.0,3
244221.078125,262991.1875,267782.6875,280788.34375,233907.078125,263991.8125,238469.078125,240600.265625,52940.0,1.0,3
244241.453125,262896.125,267763.09375,280773.96875,233769.84375,263896.40625,238405.140625,240484.3125,52941.0,1.0,3
244237.34375,262770.78125,267721.0625,280744.0,233595.671875,263770.0,238322.265625,240332.578125,52942.0,1.0,3
244174.578125,262629.6875,267663.9375,280703.40625,233436.796875,263648.75,238250.75,240180.953125,52943.0,1.0,3
244119.59375,262534.65625,267636.3125,280682.40625,233340.59375,263602.09375,238225.265625,240080.359375,52944.0,1.0,3
244110.921875,262466.34375,267628.0,280674.28125,233255.75,263566.96875,238196.390625,240000.609375,52945.0,1.0,3
244144.625,262395.53125,267621.46875,280671.0625,233135.5,263500.96875,238146.046875,239906.46875,52946.0,1.0,3
244152.5,262298.0,267596.09375,280653.78125,232986.375,263406.90625,238085.25,239788.71875,52947.0,1.0,3
244103.40625,262170.15625,267554.96875,280628.40625,232846.625,263315.71875,238041.625,239663.015625,52948.0,1.0,3
244057.28125,262087.71875,267535.28125,280615.34375,232765.171875,263280.84375,238030.984375,239584.15625,52949.0,1.0,3
244058.171875,262035.140625,267538.59375,280615.09375,232701.78125,263261.1875,238019.625,239536.859375,52950.0,1.0,3
244094.734375,261967.203125,267542.34375,280618.9375,232597.453125,263203.25,237983.953125,239469.359375,52951.0,1.0,3
244107.96875,261873.3125,267522.3125,280610.78125,232459.859375,263109.46875,237931.46875,239367.4375,52952.0,1.0,3
244063.265625,261755.390625,267483.0625,280585.75,232331.28125,263020.0625,237893.46875,239260.953125,52953.0,1.0,3
244016.859375,261678.953125,267465.09375,280571.90625,232256.625,262984.90625,237891.59375,239196.40625,52954.0,1.0,3
244017.84375,261637.28125,267468.59375,280575.1875,232200.484375,262970.25,237888.828125,239158.40625,52955.0,1.0,3
244053.4375,261580.421875,267469.5625,280576.28125,232104.8125,262922.78125,237859.234375,239102.34375,52956.0,1.0,3
244065.5,261502.375,267450.625,280564.75,231978.578125,262843.90625,237819.171875,239020.453125,52957.0,1.0,3
244017.765625,261400.4375,267415.75,280540.6875,231859.9375,262767.03125,237792.359375,238929.4375,52958.0,1.0,3
243976.28125,261342.234375,267406.34375,280536.65625,231801.09375,262746.8125,237794.59375,238880.078125,52959.0,1.0,3
243979.5,261308.890625,267410.84375,280538.71875,231753.984375,262737.4375,237794.40625,238854.328125,52960.0,1.0,3
244017.9375,261268.75,267412.96875,280541.40625,231666.453125,262692.09375,237769.640625,238808.109375,52961.0,1.0,3
244025.71875,261184.53125,267390.71875,280528.1875,231535.03125,262606.0,237725.5625,238723.078125,52962.0,1.0,3
243967.421875,261058.015625,267342.15625,280491.875,231396.265625,262502.125,237680.0625,238613.203125,52963.0,1.0,3
243910.65625,260973.265625,267315.34375,280472.21875,231312.9375,262450.96875,237666.109375,238541.578125,52964.0,1.0,3
243897.328125,260911.296875,267305.15625,280461.65625,231234.96875,262402.6875,237648.140625,238482.390625,52965.0,1.0,3
243920.125,260826.546875,267294.5,280451.90625,231109.8125,262315.15625,237603.609375,238399.609375,52966.0,1.0,3
243919.59375,260691.359375,267259.28125,280431.15625,230932.6875,262181.5,237531.640625,238272.109375,52967.0,1.0,3
243851.109375,260514.78125,267194.375,280384.21875,230743.15625,262024.328125,237459.84375,238115.734375,52968.0,1.0,3
243773.59375,260353.484375,267140.71875,280343.46875,230583.640625,261898.0,237408.703125,237974.5625,52969.0,1.0,3
243738.90625,260198.546875,267103.90625,280318.4375,230419.3125,261766.484375,237349.34375,237838.3125,52970.0,1.0,3
243735.59375,260011.234375,267056.25,280285.71875,230184.890625,261568.796875,237245.359375,237656.984375,52971.0,1.0,3
243688.203125,259743.015625,266964.34375,280216.59375,229868.75,261295.125,237097.65625,237400.84375,52972.0,1.0,3
243583.59375,259428.578125,266855.0625,280144.09375,229532.75,261007.40625,236958.546875,237112.59375,52973.0,1.0,3
243486.59375,259154.984375,266771.9375,280087.84375,229247.109375,260783.265625,236856.984375,236861.359375,52974.0,1.0,3
243464.953125,258969.375,266740.71875,280065.5,229022.59375,260647.453125,236788.21875,236679.328125,52975.0,1.0,3
243508.140625,258864.78125,266748.25,280065.21875,228837.53125,260585.859375,236744.5,236560.234375,52976.0,1.0,3
243547.65625,258788.875,266754.5,280068.8125,228674.71875,260553.140625,236712.046875,236466.359375,52977.0,1.0,3
243531.03125,258719.484375,266748.0625,280067.5625,228553.390625,260549.296875,236708.5625,236391.4375,52978.0,1.0,3
243520.296875,258725.390625,266775.3125,280087.40625,228527.28125,260639.59375,236754.34375,236396.171875,52979.0,1.0,3
243587.0,258836.25,266857.84375,280148.8125,228590.5,260820.546875,236842.3125,236494.515625,52980.0,1.0,3
243708.328125,259007.921875,266958.0625,280223.125,228685.890625,261032.453125,236937.4375,236641.859375,52981.0,1.0,3
243806.140625,259187.796875,267046.21875,280283.375,228792.734375,261246.390625,237035.171875,236800.65625,52982.0,1.0,3
243840.375,259363.3125,267109.96875,280328.875,228934.359375,261466.15625,237144.0625,236966.328125,52983.0,1.0,3
243881.328125,259604.703125,267202.78125,280398.4375,229165.921875,261757.890625,237303.390625,237202.796875,52984.0,1.0,3
243966.625,259898.765625,267319.375,280482.5,229445.5,262078.15625,237467.71875,237486.765625,52985.0,1.0,3
244090.890625,260201.9375,267435.15625,280561.15625,229713.71875,262373.625,237605.484375,237771.96875,52986.0,1.0,3
244196.125,260481.25,267536.34375,280631.4375,229966.015625,262636.125,237732.09375,238040.546875,52987.0,1.0,3
244224.109375,260706.375,267601.625,280676.84375,230212.34375,262862.78125,237854.84375,238279.796875,52988.0,1.0,3
244234.296875,260943.671875,267669.65625,280724.78125,230496.5625,263109.71875,237993.96875,238536.21875,52989.0,1.0,3
244285.984375,261204.375,267748.96875,280779.78125,230785.171875,263344.0625,238124.859375,238800.234375,52990.0,1.0,3
244370.375,261436.03125,267819.5,280830.28125,231019.234375,263511.96875,238212.65625,239027.421875,52991.0,1.0,3
244422.328125,261592.140625,267854.03125,280856.75,231182.046875,263607.0,238262.71875,239188.4375,52992.0,1.0,3
244392.90625,261670.546875,267846.875,280850.9375,231307.75,263643.9375,238294.546875,239291.0,52993.0,1.0,3
244348.484375,261749.9375,267843.125,280844.21875,231449.375,263693.09375,238337.015625,239395.953125,52994.0,1.0,3
244351.515625,261848.28125,267861.53125,280855.3125,231587.859375,263747.03125,238380.46875,239505.484375,52995.0,1.0,3
244382.984375,261910.25,267868.9375,280857.625,231664.75,263742.375,238386.375,239573.875,52996.0,1.0,3
244395.953125,261924.375,267856.96875,280851.375,231689.515625,263692.03125,238370.28125,239601.59375,52997.0,1.0,3
244342.578125,261887.625,267814.59375,280821.59375,231688.265625,263611.21875,238343.90625,239587.375,52998.0,1.0,3
244279.359375,261859.1875,267786.15625,280802.84375,231712.953125,263564.09375,238343.71875,239582.8125,52999.0,1.0,3
244270.0625,261858.5625,267783.5625,280802.46875,231748.53125,263537.90625,238349.53125,239598.015625,53000.0,1.0,3
244295.546875,261841.3125,267773.09375,280793.71875,231731.0,263474.40625,238317.265625,239581.75,53001.0,1.0,3
244303.421875,261793.203125,267750.3125,280777.34375,231677.71875,263385.71875,238276.40625,239536.59375,53002.0,1.0,3
244254.59375,261705.328125,267708.8125,280747.84375,231617.375,263286.40625,238240.015625,239470.703125,53003.0,1.0,3
244202.203125,261653.46875,267682.4375,280729.78125,231605.484375,263239.28125,238231.78125,239438.328125,53004.0,1.0,3
244195.59375,261638.171875,267683.15625,280730.875,231620.234375,263224.71875,238237.234375,239439.859375,53005.0,1.0,3
244225.625,261606.796875,267682.09375,280729.0625,231591.265625,263179.5625,238212.203125,239417.234375,53006.0,1.0,3
244238.78125,261552.171875,267661.25,280714.15625,231522.0625,263102.3125,238164.90625,239361.53125,53007.0,1.0,3
244194.25,261469.375,267621.75,280688.5625,231457.15625,263018.625,238130.671875,239293.40625,53008.0,1.0,3
244141.328125,261405.71875,267600.09375,280677.5,231437.390625,262983.5,238125.9375,239258.09375,53009.0,1.0,3
244141.859375,261387.921875,267611.0,280689.1875,231448.65625,262984.1875,238134.421875,239262.46875,53010.0,1.0,3
244174.578125,261363.875,267612.0,280688.40625,231419.78125,262954.53125,238110.734375,239242.890625,53011.0,1.0,3
244196.125,261319.53125,267602.15625,280681.875,231357.46875,262899.625,238074.609375,239199.34375,53012.0,1.0,3
244159.375,261254.0,267573.5625,280662.46875,231297.734375,262837.5625,238053.515625,239143.375,53013.0,1.0,3
244105.921875,261203.484375,267554.3125,280649.3125,231282.984375,262813.96875,238058.0625,239117.453125,53014.0,1.0,3
244101.890625,261191.6875,267557.375,280649.9375,231290.671875,262815.03125,238065.671875,239119.953125,53015.0,1.0,3
244144.8125,261183.90625,267566.9375,280656.75,231263.765625,262793.6875,238051.984375,239109.671875,53016.0,1.0,3
244163.671875,261140.984375,267554.15625,280642.875,231194.03125,262733.40625,238017.84375,239063.90625,53017.0,1.0,3
244118.609375,261056.578125,267515.625,280618.46875,231117.40625,262654.375,237985.46875,238995.6875,53018.0,1.0,3
244070.421875,261008.390625,267497.46875,280609.28125,231091.390625,262619.25,237991.90625,238966.53125,53019.0,1.0,3
244070.421875,261009.828125,267508.0,280615.53125,231097.296875,262628.375,238008.625,238975.125,53020.0,1.0,3
244113.421875,261013.671875,267525.4375,280626.4375,231080.296875,262632.46875,238006.125,238982.265625,53021.0,1.0,3
244157.234375,261023.328125,267539.40625,280638.0625,231055.890625,262635.4375,238002.1875,238985.21875,53022.0,1.0,3
244146.421875,261026.71875,267539.5,280640.5625,231050.796875,262643.75,238016.859375,238990.9375,53023.0,1.0,3
244125.234375,261066.875,267558.34375,280655.40625,231111.328125,262710.4375,238073.09375,239047.625,53024.0,1.0,3
244154.28125,261157.4375,267607.4375,280692.9375,231216.203125,262819.34375,238145.515625,239152.859375,53025.0,1.0,3
244219.46875,261250.875,267649.28125,280723.53125,231295.765625,262905.6875,238188.6875,239249.59375,53026.0,1.0,3
244291.25,261355.46875,267695.15625,280759.375,231375.609375,262996.71875,238235.8125,239351.25,53027.0,1.0,3
244303.6875,261442.46875,267726.25,280783.4375,231477.453125,263091.125,238304.390625,239460.15625,53028.0,1.0,3
244317.0,261583.90625,267787.9375,280830.09375,231659.296875,263253.59375,238427.765625,239636.28125,53029.0,1.0,3
244375.5625,261780.609375,267873.96875,280891.875,231883.4375,263457.0625,238560.71875,239859.359375,53030.0,1.0,3
244473.828125,261996.078125,267958.0,280950.625,232097.75,263654.84375,238664.25,240083.9375,53031.0,1.0,3
244555.546875,262199.28125,268027.1875,280998.09375,232297.125,263840.53125,238750.96875,240288.6875,53032.0,1.0,3
244567.796875,262383.9375,268065.65625,281026.625,232500.796875,264016.40625,238831.703125,240468.390625,53033.0,1.0,3
244575.65625,262606.71875,268126.96875,281072.65625,232773.84375,264250.28125,238956.515625,240695.390625,53034.0,1.0,3
244631.359375,262866.90625,268215.40625,281134.71875,233078.734375,264509.46875,239092.515625,240955.21875,53035.0,1.0,3
244728.453125,263118.65625,268305.53125,281200.96875,233346.6875,264724.34375,239199.4375,241196.609375,53036.0,1.0,3
244809.453125,263334.75,268372.5,281250.125,233570.109375,264884.1875,239291.625,241404.03125,53037.0,1.0,3
244817.6875,263492.9375,268402.4375,281275.09375,233770.734375,264997.03125,239372.171875,241579.359375,53038.0,1.0,3
244803.921875,263654.5625,268436.3125,281299.75,234001.59375,265132.125,239472.9375,241773.828125,53039.0,1.0,3
244824.84375,263835.0,268484.53125,281332.21875,234244.765625,265277.84375,239568.78125,241981.875,53040.0,1.0,3
244880.453125,263998.78125,268523.9375,281356.875,234439.6875,265379.5,239623.3125,242154.15625,53041.0,1.0,3
244918.265625,264116.71875,268537.4375,281365.84375,234574.234375,265425.90625,239639.234375,242268.25,53042.0,1.0,3
244892.96875,264177.15625,268525.375,281356.875,234689.21875,265437.875,239659.34375,242346.828125,53043.0,1.0,3
244850.140625,264243.40625,268523.84375,281356.8125,234836.46875,265478.3125,239706.203125,242447.234375,53044.0,1.0,3
244852.015625,264346.40625,268547.09375,281368.96875,235004.46875,265541.34375,239759.84375,242576.703125,53045.0,1.0,3
244898.515625,264442.875,268570.0,281383.71875,235132.859375,265572.625,239783.984375,242682.921875,53046.0,1.0,3
244926.046875,264482.75,268568.03125,281387.1875,235203.578125,265555.53125,239779.6875,242737.71875,53047.0,1.0,3
244900.828125,264477.3125,268550.9375,281382.09375,235257.21875,265510.3125,239785.6875,242768.296875,53048.0,1.0,3
244858.71875,264487.125,268544.875,281377.53125,235349.84375,265497.15625,239829.140625,242829.453125,53049.0,1.0,3
244861.046875,264531.21875,268564.1875,281391.75,235466.34375,265505.75,239885.8125,242926.1875,53050.0,1.0,3
244894.3125,264566.53125,268574.09375,281402.03125,235536.796875,265506.1875,239885.453125,242977.59375,53051.0,1.0,3
244883.125,264556.6875,268533.34375,281366.375,235533.21875,265482.40625,239808.390625,242928.875,53052.0,1.0,3
244809.546875,264496.6875,268464.5,281310.5,235497.0,265420.71875,239723.28125,242826.40625,53053.0,1.0,3
244729.34375,264439.9375,268415.5,281273.28125,235496.46875,265380.5625,239682.328125,242755.421875,53054.0,1.0,3
244703.25,264415.96875,268399.40625,281260.96875,235521.0625,265361.625,239658.90625,242726.015625,53055.0,1.0,3
244717.8125,264384.125,268381.0625,281248.875,235496.46875,265302.625,239606.59375,242674.0625,53056.0,1.0,3
244724.96875,264315.90625,268349.78125,281227.15625,235421.015625,265197.90625,239535.96875,242588.234375,53057.0,1.0,3
244676.0625,264205.9375,268298.8125,281192.8125,235337.859375,265071.9375,239479.546875,242488.09375,53058.0,1.0,3
244608.203125,264109.375,268258.3125,281165.125,235294.671875,264985.75,239459.25,242420.0625,53059.0,1.0,3
244590.328125,264062.4375,268248.125,281157.34375,235280.109375,264940.875,239449.59375,242386.4375,53060.0,1.0,3
244616.609375,264014.78125,268242.21875,281152.6875,235230.21875,264881.25,239411.421875,242335.296875,53061.0,1.0,3
244620.90625,263936.84375,268205.21875,281127.03125,235129.28125,264782.1875,239336.40625,242234.453125,53062.0,1.0,3
244569.046875,263828.28125,268150.59375,281088.9375,235018.59375,264672.65625,239262.296875,242108.65625,53063.0,1.0,3
244502.53125,263748.71875,268111.96875,281062.5625,234960.03125,264617.5625,239232.34375,242020.046875,53064.0,1.0,3
244483.484375,263710.28125,268100.875,281054.25,234931.953125,264602.65625,239217.234375,241964.4375,53065.0,1.0,3
244505.390625,263674.34375,268090.6875,281041.5625,234869.640625,264560.34375,239170.921875,241894.4375,53066.0,1.0,3
244509.859375,263596.1875,268061.53125,281018.84375,234761.09375,264478.1875,239097.96875,241786.4375,53067.0,1.0,3
244471.6875,263496.0625,268019.96875,280991.75,234657.03125,264390.21875,239044.40625,241673.78125,53068.0,1.0,3
244419.828125,263421.5,267992.59375,280975.75,234599.0,264346.21875,239026.078125,241594.46875,53069.0,1.0,3
244395.0625,263377.15625,267978.03125,280960.71875,234566.734375,264334.4375,239011.953125,241542.890625,53070.0,1.0,3
244418.9375,263342.375,267973.1875,280953.40625,234510.9375,264308.21875,238972.078125,241483.078125,53071.0,1.0,3
244436.359375,263285.9375,267953.71875,280938.28125,234410.625,264247.15625,238912.796875,241389.28125,53072.0,1.0,3
244389.15625,263180.34375,267903.90625,280902.53125,234295.375,264156.78125,238850.125,241269.03125,53073.0,1.0,3
244331.21875,263100.0625,267875.3125,280881.5,234237.0,264116.53125,238832.421875,241191.421875,53074.0,1.0,3
244320.578125,263071.46875,267875.84375,280881.0625,234213.921875,264114.84375,238831.0,241157.28125,53075.0,1.0,3
244354.375,263046.96875,267880.65625,280883.125,234162.515625,264088.90625,238803.09375,241109.890625,53076.0,1.0,3
244364.296875,262976.15625,267855.28125,280861.5625,234056.390625,264011.5625,238738.8125,241016.546875,53077.0,1.0,3
244320.046875,262865.28125,267808.15625,280827.6875,233934.984375,263914.5625,238678.203125,240900.140625,53078.0,1.0,3
244268.640625,262796.53125,267785.4375,280809.375,233873.828125,263871.65625,238669.171875,240833.625,53079.0,1.0,3
244258.625,262768.8125,267789.125,280808.90625,233846.28125,263864.5,238673.453125,240805.640625,53080.0,1.0,3
244295.453125,262734.84375,267798.59375,280820.8125,233786.296875,263830.15625,238653.515625,240763.890625,53081.0,1.0,3
244312.171875,262669.9375,267778.28125,280806.21875,233673.46875,263748.4375,238596.203125,240678.140625,53082.0,1.0,3
244272.84375,262572.3125,267739.9375,280779.40625,233553.65625,263644.75,238550.875,240575.234375,53083.0,1.0,3
244219.015625,262488.0,267715.96875,280764.125,233478.640625,263582.78125,238542.5625,240506.65625,53084.0,1.0,3
244213.65625,262451.15625,267723.5,280772.0625,233444.578125,263565.78125,238554.8125,240484.3125,53085.0,1.0,3
244241.71875,262405.03125,267725.90625,280772.0,233371.09375,263513.65625,238531.65625,240440.3125,53086.0,1.0,3
244261.3125,262326.6875,267707.65625,280755.71875,233247.890625,263418.09375,238476.859375,240350.203125,53087.0,1.0,3
244227.234375,262211.71875,267667.34375,280729.53125,233115.5625,263305.09375,238433.125,240243.171875,53088.0,1.0,3
244168.140625,262105.421875,267635.25,280707.15625,233022.40625,263225.59375,238418.734375,240165.125,53089.0,1.0,3
244149.1875,262037.921875,267629.15625,280702.59375,232964.46875,263184.125,238417.390625,240122.125,53090.0,1.0,3
244174.578125,261971.484375,267626.75,280703.3125,232872.46875,263119.46875,238385.296875,240062.578125,53091.0,1.0,3
244179.046875,261854.359375,267592.40625,280677.84375,232716.890625,263002.15625,238314.3125,239949.390625,53092.0,1.0,3
244129.515625,261696.734375,267537.53125,280639.9375,232547.46875,262859.65625,238247.171875,239810.984375,53093.0,1.0,3
244065.59375,261559.328125,267495.40625,280612.65625,232419.34375,262755.125,238218.203125,239702.625,53094.0,1.0,3
244029.46875,261452.484375,267468.5,280593.53125,232311.4375,262678.6875,238191.28125,239614.90625,53095.0,1.0,3
244030.8125,261335.359375,267439.8125,280570.5625,232162.65625,262572.125,238123.15625,239497.875,53096.0,1.0,3
244032.328125,261191.140625,267397.25,280539.09375,231964.890625,262430.875,238028.921875,239342.21875,53097.0,1.0,3
243982.890625,261018.046875,267341.0,280505.03125,231760.875,262277.53125,237946.9375,239170.03125,53098.0,1.0,3
243904.65625,260856.578125,267286.65625,280466.5625,231596.984375,262159.34375,237897.140625,239025.359375,53099.0,1.0,3
243869.25,260741.96875,267258.5625,280442.875,231466.265625,262083.328125,237859.5,238916.828125,53100.0,1.0,3
243883.65625,260641.296875,267242.21875,280428.5,231315.625,262005.015625,237802.640625,238802.390625,53101.0,1.0,3
243896.4375,260532.921875,267212.78125,280409.625,231131.171875,261911.3125,237724.140625,238659.6875,53102.0,1.0,3
243859.15625,260410.890625,267173.28125,280385.21875,230956.203125,261818.78125,237662.265625,238514.84375,53103.0,1.0,3
243812.921875,260329.34375,267158.25,280373.78125,230854.28125,261793.203125,237654.484375,238433.578125,53104.0,1.0,3
243816.328125,260318.53125,267176.125,280384.125,230814.3125,261831.5625,237673.984375,238415.703125,53105.0,1.0,3
243863.53125,260332.203125,267203.59375,280400.40625,230773.28125,261878.6875,237677.640625,238410.0625,53106.0,1.0,3
243912.0,260340.34375,267220.75,280412.65625,230707.921875,261906.3125,237659.21875,238386.640625,53107.0,1.0,3
243915.03125,260343.46875,267225.21875,280416.15625,230660.53125,261933.84375,237663.0625,238367.859375,53108.0,1.0,3
243898.765625,260376.28125,267242.5625,280432.40625,230678.421875,262010.375,237710.28125,238396.125,53109.0,1.0,3
243918.703125,260457.46875,267286.375,280464.59375,230747.890625,262133.5,237775.453125,238476.3125,53110.0,1.0,3
243982.4375,260550.984375,267338.84375,280499.03125,230800.015625,262240.15625,237818.015625,238552.671875,53111.0,1.0,3
244033.859375,260617.234375,267366.3125,280512.09375,230811.546875,262307.5625,237827.84375,238592.453125,53112.0,1.0,3
244039.390625,260654.25,267376.3125,280521.8125,230822.984375,262354.6875,237846.171875,238619.28125,53113.0,1.0,3
244015.171875,260708.171875,267391.4375,280532.8125,230883.078125,262433.28125,237898.921875,238678.5625,53114.0,1.0,3
244028.484375,260798.921875,267430.6875,280559.46875,230980.171875,262546.65625,237967.234375,238776.1875,53115.0,1.0,3
244081.421875,260881.796875,267469.3125,280584.5,231045.796875,262630.40625,237997.28125,238851.015625,53116.0,1.0,3
244128.625,260936.15625,267487.4375,280594.96875,231061.890625,262665.1875,237993.078125,238884.09375,53117.0,1.0,3
244117.71875,260945.359375,267475.84375,280588.0,231060.546875,262664.21875,237988.25,238888.125,53118.0,1.0,3
244074.0,260951.53125,267467.96875,280583.53125,231090.9375,262684.5,238015.421875,238910.125,53119.0,1.0,3
244067.203125,260997.21875,267486.90625,280597.46875,231156.03125,262740.375,238055.390625,238970.015625,53120.0,1.0,3
244107.609375,261050.59375,267507.84375,280610.78125,231188.9375,262768.8125,238063.25,239010.25,53121.0,1.0,3
244144.359375,261080.453125,267512.21875,280615.0,231176.765625,262766.21875,238046.171875,239014.015625,53122.0,1.0,3
244121.203125,261048.625,267490.40625,280601.84375,231139.3125,262725.1875,238024.546875,238982.890625,53123.0,1.0,3
244060.140625,261002.40625,267459.09375,280576.09375,231118.84375,262688.625,238016.671875,238954.46875,53124.0,1.0,3
244044.671875,261007.765625,267458.40625,280574.84375,231132.609375,262687.09375,238028.484375,238962.328125,53125.0,1.0,3
244067.734375,261003.921875,267459.09375,280574.3125,231109.71875,262661.625,238009.515625,238948.5625,53126.0,1.0,3
244085.171875,260967.265625,267441.40625,280558.75,231040.515625,262600.71875,237961.953125,238898.234375,53127.0,1.0,3
244047.265625,260883.140625,267402.78125,280533.0,230952.453125,262516.25,237919.84375,238821.875,53128.0,1.0,3
243990.578125,260816.796875,267376.59375,280516.5625,230905.78125,262474.65625,237913.671875,238774.21875,53129.0,1.0,3
243980.75,260819.65625,267382.75,280520.125,230913.828125,262493.8125,237929.328125,238781.546875,53130.0,1.0,3
244020.796875,260842.453125,267404.125,280532.8125,230914.984375,262517.125,237930.484375,238795.046875,53131.0,1.0,3
244062.828125,260854.96875,267416.1875,280538.1875,230889.0625,262526.0,237914.484375,238789.421875,53132.0,1.0,3
244061.578125,260850.765625,267413.5,280538.1875,230871.984375,262534.125,237912.15625,238778.78125,53133.0,1.0,3
244038.953125,260871.515625,267424.875,280552.3125,230912.671875,262583.5625,237951.046875,238814.28125,53134.0,1.0,3
244046.546875,260948.40625,267457.6875,280575.03125,231000.015625,262677.90625,238009.796875,238892.59375,53135.0,1.0,3
244102.34375,261038.796875,267500.15625,280604.25,231074.671875,262772.5625,238048.328125,238970.5625,53136.0,1.0,3
244162.0625,261118.1875,267533.5,280627.59375,231120.890625,262848.46875,238060.21875,239028.5,53137.0,1.0,3
244166.890625,261174.328125,267542.625,280633.40625,231168.015625,262907.125,238081.234375,239076.859375,53138.0,1.0,3
244150.984375,261250.234375,267564.78125,280650.5625,231270.734375,263004.84375,238146.84375,239166.265625,53139.0,1.0,3
244173.15625,261378.1875,267614.84375,280686.34375,231426.390625,263146.84375,238234.203125,239306.1875,53140.0,1.0,3
244234.296875,261513.28125,267667.4375,280721.65625,231560.234375,263273.78125,238291.421875,239435.75,53141.0,1.0,3
244296.890625,261634.328125,267706.78125,280747.03125,231658.046875,263370.53125,238323.078125,239534.890625,53142.0,1.0,3
244303.328125,261715.515625,267719.8125,280754.8125,231742.265625,263437.21875,238354.0,239611.703125,53143.0,1.0,3
244283.390625,261805.015625,267737.6875,280768.9375,231866.71875,263526.28125,238418.46875,239714.515625,53144.0,1.0,3
244299.21875,261931.875,267783.375,280803.375,232026.40625,263651.8125,238496.515625,239854.4375,53145.0,1.0,3
244353.65625,262062.5,267827.03125,280830.5625,232160.15625,263752.21875,238544.796875,239977.90625,53146.0,1.0,3
244401.859375,262157.28125,267846.59375,280839.65625,232240.453125,263803.78125,238554.71875,240050.59375,53147.0,1.0,3
244394.796875,262208.0625,267842.03125,280835.65625,232294.453125,263820.59375,238560.53125,240089.75,53148.0,1.0,3
244357.6875,262258.65625,267843.125,280835.46875,232382.6875,263857.09375,238598.984375,240152.703125,53149.0,1.0,3
244352.953125,262339.40625,267865.71875,280850.75,232507.234375,263925.5625,238655.390625,240253.90625,53150.0,1.0,3
244386.296875,262412.96875,267883.34375,280858.90625,232590.390625,263963.21875,238671.046875,240326.765625,53151.0,1.0,3
244428.5,262463.9375,267893.34375,280868.5625,232627.3125,263964.8125,238658.078125,240358.6875,53152.0,1.0,3
244404.171875,262454.8125,267869.21875,280850.9375,232630.078125,263926.90625,238634.65625,240347.515625,53153.0,1.0,3
244360.09375,262449.8125,267855.4375,280844.75,232673.796875,263921.0,238652.0,240364.234375,53154.0,1.0,3
244355.453125,262491.9375,267870.5625,280854.96875,232757.3125,263957.21875,238691.421875,240422.34375,53155.0,1.0,3
244383.4375,262523.75,267879.9375,280858.90625,232803.4375,263967.9375,238690.09375,240456.859375,53156.0,1.0,3
244414.734375,262526.4375,267879.15625,280858.09375,232805.140625,263948.71875,238663.984375,240458.734375,53157.0,1.0,3
244400.78125,262503.90625,267860.53125,280846.375,232795.75,263910.53125,238647.53125,240440.140625,53158.0,1.0,3
244352.046875,262483.53125,267844.1875,280836.09375,232822.21875,263898.46875,238659.515625,240446.125,53159.0,1.0,3
244347.046875,262524.46875,267866.09375,280851.28125,232901.4375,263948.09375,238702.34375,240505.765625,53160.0,1.0,3
244393.8125,262588.65625,267898.28125,280871.84375,232971.703125,263996.375,238725.140625,240568.34375,53161.0,1.0,3
244435.203125,262622.5625,267904.71875,280876.78125,232992.453125,264006.125,238711.09375,240590.25,53162.0,1.0,3
244423.125,262621.84375,267889.59375,280865.0625,233000.9375,263996.375,238701.171875,240594.640625,53163.0,1.0,3
244394.515625,262651.15625,267894.4375,280872.125,233066.390625,264033.21875,238738.90625,240638.71875,53164.0,1.0,3
244400.78125,262731.90625,267926.71875,280895.71875,233179.21875,264118.5,238798.71875,240728.5625,53165.0,1.0,3
244447.09375,262824.15625,267961.40625,280917.8125,233270.328125,264190.75,238831.53125,240811.0,53166.0,1.0,3
244499.03125,262897.21875,267982.9375,280934.96875,233325.3125,264232.78125,238839.125,240867.140625,53167.0,1.0,3
244494.390625,262927.4375,267977.65625,280936.0625,233363.484375,264246.1875,238845.5625,240895.21875,53168.0,1.0,3
244454.15625,262957.75,267973.90625,280931.03125,233431.890625,264278.46875,238875.609375,240939.203125,53169.0,1.0,3
244454.25,263041.40625,268001.53125,280950.09375,233548.828125,264360.1875,238934.703125,241032.546875,53170.0,1.0,3
244500.109375,263129.3125,268033.09375,280972.09375,233643.515625,264424.375,238963.859375,241115.875,53171.0,1.0,3
244541.328125,263185.8125,268041.0625,280977.625,233685.171875,264445.125,238954.46875,241153.15625,53172.0,1.0,3
244530.15625,263195.1875,268027.90625,280967.78125,233706.0,264436.53125,238946.0625,241159.515625,53173.0,1.0,3
244496.890625,263213.625,268025.21875,280968.6875,233767.703125,264458.15625,238975.390625,241194.015625,53174.0,1.0,3
244490.015625,263268.15625,268044.1875,280984.5,233867.125,264517.96875,239026.078125,241268.3125,53175.0,1.0,3
244516.734375,263317.0625,268059.03125,280990.84375,233931.765625,264548.5625,239037.96875,241320.4375,53176.0,1.0,3
244554.375,263343.4375,268061.625,280993.53125,233947.046875,264539.15625,239015.984375,241331.171875,53177.0,1.0,3
244532.65625,263311.53125,268034.1875,280975.3125,233932.46875,264492.125,238988.703125,241304.078125,53178.0,1.0,3
244484.109375,263280.9375,268015.59375,280964.9375,233951.15625,264469.78125,238993.265625,241298.0,53179.0,1.0,3
244473.203125,263302.40625,268026.3125,280973.59375,234012.21875,264494.8125,239024.015625,241336.09375,53180.0,1.0,3
244497.34375,263325.75,268036.59375,280980.125,234048.53125,264502.0625,239028.671875,241361.21875,53181.0,1.0,3
244521.484375,263304.8125,268025.3125,280971.0,234022.15625,264459.5,238987.453125,241330.90625,53182.0,1.0,3
244491.53125,263235.34375,267984.28125,280941.40625,233961.171875,264378.9375,238936.5,241261.796875,53183.0,1.0,3
244435.65625,263178.5625,267957.8125,280922.46875,233945.796875,264330.3125,238929.078125,241227.453125,53184.0,1.0,3
244421.96875,263176.875,267966.21875,280929.96875,233978.515625,264336.5625,238951.6875,241242.921875,53185.0,1.0,3
244448.4375,263182.3125,267974.625,280934.53125,233982.359375,264326.5625,238945.171875,241241.9375,53186.0,1.0,3
244465.953125,263143.34375,267952.09375,280916.375,233920.765625,264263.96875,238894.03125,241183.5625,53187.0,1.0,3
244438.15625,263060.71875,267915.96875,280889.5625,233837.34375,264175.09375,238845.203125,241096.921875,53188.0,1.0,3
244383.53125,262992.4375,267886.75,280870.5,233795.953125,264115.46875,238832.953125,241043.015625,53189.0,1.0,3
244365.546875,262969.09375,267888.25,280873.03125,233801.671875,264110.375,238850.75,241039.796875,53190.0,1.0,3
244379.40625,262946.75,267884.6875,280869.09375,233775.03125,264080.6875,238832.328125,241018.78125,53191.0,1.0,3
244397.296875,262900.15625,267864.75,280853.78125,233698.234375,264009.15625,238777.171875,240951.1875,53192.0,1.0,3
244372.53125,262813.4375,267829.53125,280831.34375,233601.484375,263916.71875,238721.828125,240856.953125,53193.0,1.0,3
244309.9375,262724.21875,267789.5625,280801.40625,233532.921875,263843.59375,238695.8125,240784.71875,53194.0,1.0,3
244281.515625,262681.8125,267781.0625,280796.125,233511.90625,263823.5625,238697.234375,240759.328125,53195.0,1.0,3
244299.296875,262651.4375,267779.09375,280794.0625,233470.78125,263792.71875,238670.859375,240721.140625,53196.0,1.0,3
244320.671875,262597.25,267761.75,280779.6875,233383.78125,263721.375,238615.703125,240647.75,53197.0,1.0,3
244293.84375,262501.75,267721.53125,280752.84375,233268.984375,263621.03125,238558.21875,240542.875,53198.0,1.0,3
244237.796875,262405.375,267688.0,280732.03125,233188.15625,263551.3125,238532.828125,240460.796875,53199.0,1.0,3
244215.265625,262360.3125,267686.125,280730.0625,233159.734375,263533.6875,238538.8125,240433.875,53200.0,1.0,3
244233.328125,262329.84375,267685.65625,280726.21875,233109.84375,263505.34375,238514.9375,240396.78125,53201.0,1.0,3
244257.640625,262272.53125,267671.4375,280714.78125,233013.1875,263443.75,238460.140625,240319.53125,53202.0,1.0,3
244229.296875,262172.46875,267632.03125,280685.4375,232896.78125,263353.28125,238402.828125,240214.296875,53203.0,1.0,3
244175.109375,262078.953125,267601.53125,280668.0,232816.3125,263290.25,238381.90625,240134.546875,53204.0,1.0,3
244162.78125,262047.578125,267604.75,280674.0,232790.03125,263282.71875,238393.796875,240108.078125,53205.0,1.0,3
244183.078125,262017.984375,267609.03125,280675.4375,232744.4375,263264.3125,238381.453125,240074.28125,53206.0,1.0,3
244206.5,261959.953125,267596.34375,280663.625,232645.28125,263206.46875,238329.421875,239998.203125,53207.0,1.0,3
244187.28125,261871.171875,267562.1875,280639.125,232527.796875,263124.21875,238277.03125,239899.234375,53208.0,1.0,3
244136.046875,261789.546875,267534.9375,280623.03125,232449.296875,263065.65625,238259.6875,239826.984375,53209.0,1.0,3
244110.203125,261753.328125,267531.96875,280619.8125,232418.8125,263058.84375,238268.796875,239801.421875,53210.0,1.0,3
244130.234375,261725.796875,267536.34375,280620.71875,232373.84375,263046.4375,238256.109375,239771.90625,53211.0,1.0,3
244152.234375,261676.625,267522.5,280610.34375,232279.703125,262994.9375,238204.421875,239701.640625,53212.0,1.0,3
244130.0625,261594.90625,267487.1875,280586.1875,232164.8125,262918.03125,238153.640625,239603.734375,53213.0,1.0,3
244078.5625,261516.671875,267456.34375,280564.28125,232087.375,262866.4375,238136.5625,239533.203125,53214.0,1.0,3
244057.8125,261482.25,267457.6875,280565.375,232062.796875,262869.40625,238150.15625,239516.921875,53215.0,1.0,3
244085.984375,261471.171875,267469.21875,280568.59375,232033.203125,262873.34375,238146.578125,239505.03125,53216.0,1.0,3
244115.390625,261440.046875,267464.28125,280561.25,231953.984375,262838.28125,238103.9375,239449.78125,53217.0,1.0,3
244099.03125,261375.59375,267441.21875,280544.90625,231858.140625,262782.21875,238064.6875,239371.375,53218.0,1.0,3
244054.78125,261320.96875,267422.28125,280531.84375,231803.0625,262751.125,238062.453125,239321.296875,53219.0,1.0,3
244038.234375,261310.59375,267431.46875,280539.1875,231799.484375,262773.65625,238084.625,239323.625,53220.0,1.0,3
244070.515625,261321.40625,267452.5,280553.65625,231791.359375,262798.9375,238094.015625,239334.265625,53221.0,1.0,3
244112.265625,261323.46875,267459.75,280555.90625,231746.109375,262794.3125,238072.109375,239314.953125,53222.0,1.0,3
244102.78125,261280.546875,267436.21875,280540.5,231673.25,262756.9375,238039.921875,239260.953125,53223.0,1.0,3
244059.96875,261240.3125,267418.53125,280527.5625,231640.890625,262743.78125,238042.78125,239231.984375,53224.0,1.0,3
244050.75,261254.4375,267436.125,280541.3125,231665.46875,262787.0625,238077.734375,239257.46875,53225.0,1.0,3
244087.5,261292.890625,267462.78125,280560.4375,231681.125,262826.5,238095.796875,239284.28125,53226.0,1.0,3
244131.671875,261303.625,267474.75,280569.5625,231652.5,262831.6875,238079.53125,239276.59375,53227.0,1.0,3
244129.703125,261277.421875,267461.96875,280561.25,231605.296875,262808.59375,238061.203125,239244.40625,53228.0,1.0,3
244084.453125,261244.15625,267444.625,280551.15625,231583.125,262797.15625,238068.359375,239228.59375,53229.0,1.0,3
244073.015625,261263.921875,267455.90625,280558.125,231608.875,262833.46875,238099.640625,239255.140625,53230.0,1.0,3
244103.5,261297.09375,267477.875,280573.78125,231628.015625,262869.125,238114.125,239282.046875,53231.0,1.0,3
244137.203125,261302.28125,267480.46875,280572.25,231598.234375,262867.875,238091.953125,239267.5625,53232.0,1.0,3
244132.203125,261275.984375,267468.40625,280567.4375,231556.578125,262845.96875,238072.828125,239239.140625,53233.0,1.0,3
244091.34375,261248.28125,267451.96875,280558.40625,231540.65625,262829.875,238078.359375,239222.59375,53234.0,1.0,3
244075.15625,261260.34375,267458.21875,280560.09375,231567.125,262854.65625,238107.15625,239245.03125,53235.0,1.0,3
244093.578125,261277.25,267467.5,280559.5625,231572.84375,262869.84375,238108.859375,239258.890625,53236.0,1.0,3
244137.828125,261291.1875,267480.84375,280571.4375,231554.96875,262877.8125,238092.046875,239257.640625,53237.0,1.0,3
244136.21875,261274.109375,267471.0,280564.84375,231517.859375,262860.46875,238072.546875,239232.875,53238.0,1.0,3
244096.078125,261252.296875,267460.375,280557.78125,231511.6875,262861.53125,238089.71875,239228.40625,53239.0,1.0,3
244090.09375,261282.78125,267481.8125,280575.65625,231563.453125,262917.9375,238137.28125,239276.0625,53240.0,1.0,3
244132.921875,261347.609375,267513.65625,280596.21875,231616.75,262979.09375,238169.734375,239333.28125,53241.0,1.0,3
244188.625,261407.328125,267539.9375,280614.0,231640.34375,263023.625,238173.671875,239369.140625,53242.0,1.0,3
244193.171875,261427.0,267538.25,280613.125,231641.6875,263037.03125,238169.109375,239378.25,53243.0,1.0,3
244161.890625,261438.4375,267538.0625,280617.59375,231674.859375,263067.71875,238200.859375,239406.6875,53244.0,1.0,3
244162.78125,261504.875,267566.75,280638.59375,231762.125,263151.9375,238260.75,239482.328125,53245.0,1.0,3
244210.34375,261598.390625,267605.03125,280661.125,231845.171875,263239.09375,238300.8125,239563.6875,53246.0,1.0,3
244266.484375,261676.890625,267631.125,280675.59375,231887.5625,263294.53125,238308.140625,239615.1875,53247.0,1.0,3
244277.046875,261723.390625,267638.8125,280678.03125,231919.5625,263326.4375,238317.265625,239651.484375,53248.0,1.0,3
244247.53125,261758.078125,267642.65625,280680.53125,231979.734375,263369.1875,238353.46875,239698.328125,53249.0,1.0,3
244245.484375,261833.359375,267674.40625,280705.375,232089.890625,263460.21875,238416.59375,239792.46875,53250.0,1.0,3
244285.625,261926.515625,267710.34375,280728.4375,232187.78125,263541.65625,238456.28125,239885.734375,53251.0,1.0,3
244342.390625,262013.515625,267737.875,280749.46875,232248.765625,263600.40625,238469.796875,239951.703125,53252.0,1.0,3
244346.15625,262045.515625,267733.5,280748.46875,232274.328125,263614.6875,238466.65625,239976.75,53253.0,1.0,3
244312.890625,262064.65625,267731.4375,280748.03125,232328.328125,263639.46875,238494.28125,240018.234375,53254.0,1.0,3
244307.796875,262137.609375,267755.125,280764.375,232434.109375,263713.125,238551.953125,240105.484375,53255.0,1.0,3
244344.984375,262222.28125,267786.25,280785.125,232526.015625,263780.90625,238589.5,240189.890625,53256.0,1.0,3
244392.109375,262281.5625,267802.96875,280799.875,232569.28125,263807.8125,238586.5625,240234.234375,53257.0,1.0,3
244388.890625,262288.78125,267791.4375,280790.9375,232577.875,263794.40625,238572.078125,240238.078125,53258.0,1.0,3
244341.953125,262272.0625,267773.90625,280782.09375,232596.109375,263777.6875,238575.734375,240240.21875,53259.0,1.0,3
244320.3125,262305.25,267780.53125,280784.25,232660.921875,263806.84375,238605.421875,240285.5625,53260.0,1.0,3
244349.546875,262361.84375,267800.09375,280794.34375,232724.671875,263840.0,238624.1875,240338.390625,53261.0,1.0,3
244391.75,262395.53125,267811.65625,280801.5,232745.859375,263848.78125,238614.890625,240359.5,53262.0,1.0,3
244383.34375,262381.6875,267795.1875,280789.96875,232734.59375,263820.25,238592.1875,240342.515625,53263.0,1.0,3
244338.828125,262368.53125,267775.0625,280778.34375,232749.625,263802.375,238600.234375,240340.0,53264.0,1.0,3
244325.765625,262401.8125,267789.90625,280790.84375,232818.734375,263843.03125,238643.6875,240391.6875,53265.0,1.0,3
244357.421875,262450.53125,267812.71875,280806.21875,232874.796875,263879.625,238664.25,240441.921875,53266.0,1.0,3
244404.53125,262494.0625,267829.0,280819.375,232896.25,263890.34375,238657.71875,240466.421875,53267.0,1.0,3
244396.046875,262479.78125,267808.34375,280803.46875,232878.015625,263856.375,238628.484375,240446.21875,53268.0,1.0,3
244345.171875,262447.3125,267781.96875,280783.78125,232876.40625,263829.09375,238624.1875,240427.265625,53269.0,1.0,3
244323.078125,262458.9375,267788.5,280787.09375,232927.265625,263857.875,238654.953125,240458.46875,53270.0,1.0,3
244352.328125,262500.96875,267810.375,280803.28125,232975.015625,263891.0625,238674.890625,240501.46875,53271.0,1.0,3
244391.21875,262524.46875,267815.65625,280805.34375,232973.765625,263882.28125,238655.125,240507.375,53272.0,1.0,3
244386.203125,262500.59375,267797.6875,280795.0625,232945.59375,263844.46875,238627.5,240479.125,53273.0,1.0,3
244339.171875,262459.65625,267772.5625,280778.6875,232935.671875,263812.8125,238622.5,240451.765625,53274.0,1.0,3
244320.578125,262472.4375,267782.40625,280785.5625,232979.84375,263835.96875,238654.59375,240479.5625,53275.0,1.0,3
244340.96875,262500.5,267796.71875,280795.875,233015.15625,263856.09375,238665.328125,240511.484375,53276.0,1.0,3
244371.8125,262498.4375,267797.0625,280796.3125,232999.609375,263840.625,238640.921875,240503.4375,53277.0,1.0,3
244360.453125,262457.9375,267770.875,280777.0,232949.796875,263786.8125,238602.640625,240456.0625,53278.0,1.0,3
244315.578125,262412.25,267746.5625,280760.53125,232926.921875,263745.40625,238593.078125,240422.609375,53279.0,1.0,3
244294.65625,262412.0,267751.03125,280766.09375,232958.03125,263759.4375,238621.0625,240440.765625,53280.0,1.0,3
244312.890625,262425.21875,267760.0625,280771.53125,232977.703125,263769.90625,238628.671875,240456.765625,53281.0,1.0,3
244344.640625,262418.25,267756.75,280767.0625,232948.46875,263745.15625,238595.5,240431.640625,53282.0,1.0,3
244340.078125,262376.59375,267733.78125,280749.375,232891.515625,263689.25,238555.359375,240375.953125,53283.0,1.0,3
244290.625,262324.03125,267707.125,280730.9375,232859.40625,263646.25,238545.34375,240335.71875,53284.0,1.0,3
244267.75,262316.34375,267713.75,280738.71875,232884.265625,263660.75,238571.265625,240346.625,53285.0,1.0,3
244290.546875,262329.21875,267726.78125,280747.40625,232899.734375,263672.1875,238578.78125,240358.78125,53286.0,1.0,3
244322.453125,262318.21875,267722.78125,280742.125,232861.109375,263647.34375,238546.671875,240326.328125,53287.0,1.0,3
244315.578125,262276.28125,267699.4375,280726.03125,232796.828125,263597.1875,238509.578125,240267.40625,53288.0,1.0,3
244267.828125,262223.625,267674.59375,280710.5625,232760.34375,263559.90625,238501.890625,240225.828125,53289.0,1.0,3
244244.859375,262215.125,267679.9375,280715.21875,232781.71875,263576.53125,238529.15625,240238.96875,53290.0,1.0,3
244267.921875,262237.75,267695.59375,280723.875,232802.453125,263592.875,238538.546875,240261.953125,53291.0,1.0,3
244303.328125,262239.8125,267697.75,280722.1875,232776.265625,263580.625,238506.796875,240246.390625,53292.0,1.0,3
244300.109375,262200.0,267679.84375,280710.46875,232722.890625,263544.5,238475.515625,240200.0,53293.0,1.0,3
244254.59375,262145.5625,267655.34375,280693.75,232687.75,263512.25,238467.90625,240159.140625,53294.0,1.0,3
244237.25,262148.96875,267661.71875,280699.3125,232710.109375,263532.96875,238493.84375,240172.71875,53295.0,1.0,3
244262.640625,262177.5625,267681.375,280712.53125,232731.375,263559.0,238509.046875,240193.46875,53296.0,1.0,3
244302.703125,262186.34375,267689.78125,280718.34375,232711.71875,263556.5,238493.03125,240182.734375,53297.0,1.0,3
244304.75,262154.25,267674.3125,280706.1875,232662.359375,263516.53125,238460.765625,240138.296875,53298.0,1.0,3
244265.953125,262108.546875,267655.1875,280697.34375,232635.53125,263487.125,238456.375,240106.828125,53299.0,1.0,3
244238.234375,262102.828125,267652.125,280693.75,232653.859375,263500.96875,238476.671875,240116.578125,53300.0,1.0,3
244264.25,262122.578125,267670.5625,280707.96875,232677.5625,263528.15625,238489.8125,240138.65625,53301.0,1.0,3
244312.359375,262135.734375,267680.40625,280715.46875,232661.828125,263526.90625,238470.328125,240132.765625,53302.0,1.0,3
244314.765625,262104.53125,267664.84375,280706.625,232607.90625,263485.6875,238433.765625,240085.546875,53303.0,1.0,3
244273.546875,262061.34375,267645.34375,280694.375,232580.109375,263454.03125,238430.0,240053.90625,53304.0,1.0,3
244252.984375,262057.765625,267649.0,280695.53125,232602.8125,263469.21875,238452.09375,240065.703125,53305.0,1.0,3
244282.140625,262079.765625,267667.875,280707.34375,232622.125,263491.6875,238461.46875,240083.140625,53306.0,1.0,3
244318.796875,262079.84375,267669.125,280706.09375,232589.40625,263475.84375,238433.046875,240062.75,53307.0,1.0,3
244324.515625,262049.984375,267655.09375,280698.84375,232532.453125,263431.6875,238398.625,240013.40625,53308.0,1.0,3
244279.640625,261998.3125,267630.59375,280683.90625,232491.328125,263387.6875,238386.375,239966.375,53309.0,1.0,3
244259.78125,261992.234375,267636.5,280688.65625,232506.96875,263401.09375,238414.359375,239975.671875,53310.0,1.0,3
244287.40625,262010.46875,267658.21875,280706.09375,232522.796875,263422.75,238428.84375,239994.09375,53311.0,1.0,3
244329.25,262013.6875,267666.0,280708.6875,232493.640625,263408.71875,238404.609375,239975.765625,53312.0,1.0,3
244326.578125,261976.40625,267643.90625,280692.0625,232431.875,263358.375,238366.4375,239921.671875,53313.0,1.0,3
244275.515625,261918.46875,267611.90625,280670.25,232383.234375,263309.65625,238348.828125,239871.25,53314.0,1.0,3
244248.15625,261904.609375,267615.75,280677.03125,232395.03125,263320.625,238375.640625,239878.578125,53315.0,1.0,3
244267.75,261919.90625,267632.1875,280688.21875,232406.390625,263337.8125,238387.71875,239895.828125,53316.0,1.0,3
244299.578125,261917.390625,267631.65625,280683.65625,232371.421875,263320.09375,238356.6875,239874.1875,53317.0,1.0,3
244290.8125,261868.140625,267607.96875,280666.75,232307.140625,263273.0625,238317.34375,239821.4375,53318.0,1.0,3
244246.203125,261810.640625,267584.71875,280652.0,232263.328125,263231.84375,238306.53125,239780.046875,53319.0,1.0,3
244224.375,261812.796875,267591.875,280657.28125,232281.9375,263250.28125,238336.578125,239796.40625,53320.0,1.0,3
244238.15625,261826.375,267603.15625,280661.125,232293.109375,263269.6875,238343.28125,239811.34375,53321.0,1.0,3
244270.515625,261823.25,267605.03125,280662.1875,232259.578125,263257.6875,238313.953125,239792.921875,53322.0,1.0,3
244267.296875,261785.078125,267583.75,280648.4375,232197.890625,263213.09375,238276.21875,239742.9375,53323.0,1.0,3
244218.75,261735.1875,267553.625,280628.3125,232157.03125,263172.9375,238266.203125,239701.640625,53324.0,1.0,3
244189.515625,261720.34375,267553.15625,280630.90625,232169.375,263184.75,238291.15625,239705.9375,53325.0,1.0,3
244209.625,261740.109375,267569.875,280642.34375,232189.75,263208.15625,238309.03125,239728.546875,53326.0,1.0,3
244248.96875,261748.421875,267575.78125,280641.90625,232167.84375,263203.25,238288.375,239718.359375,53327.0,1.0,3
244248.15625,261720.796875,267555.75,280622.84375,232111.796875,263165.34375,238253.6875,239672.21875,53328.0,1.0,3
244213.65625,261686.015625,267541.09375,280617.9375,232084.15625,263143.0625,238257.0,239644.953125,53329.0,1.0,3
244199.171875,261696.921875,267557.8125,280634.21875,232113.046875,263172.84375,238298.390625,239668.640625,53330.0,1.0,3
244224.828125,261729.828125,267584.71875,280655.03125,232141.109375,263208.6875,238323.15625,239699.671875,53331.0,1.0,3
244264.34375,261741.53125,267595.28125,280661.84375,232121.359375,263211.125,238305.453125,239693.328125,53332.0,1.0,3
244263.890625,261708.8125,267576.59375,280646.90625,232061.984375,263175.0,238269.515625,239648.359375,53333.0,1.0,3
244218.65625,261661.78125,267552.0,280630.09375,232022.109375,263141.65625,238255.484375,239607.765625,53334.0,1.0,3
244187.1875,261657.046875,267552.8125,280629.90625,232038.390625,263161.125,238280.421875,239620.375,53335.0,1.0,3
244198.90625,261675.109375,267565.15625,280634.9375,232059.671875,263190.5625,238292.671875,239647.09375,53336.0,1.0,3
244234.21875,261688.0625,267568.46875,280631.625,232043.578125,263197.78125,238270.765625,239645.046875,53337.0,1.0,3
244236.546875,261678.046875,267554.25,280619.46875,232007.453125,263182.78125,238245.828125,239619.03125,53338.0,1.0,3
244198.71875,261649.984375,267537.96875,280611.21875,231993.421875,263168.65625,238248.421875,239602.3125,53339.0,1.0,3
244184.59375,261669.296875,267557.375,280629.5625,232042.328125,263215.5,238292.140625,239646.296875,53340.0,1.0,3
244214.09375,261722.9375,267587.78125,280648.15625,232099.09375,263277.0,238325.84375,239706.28125,53341.0,1.0,3
244259.25,261763.609375,267602.34375,280654.15625,232110.09375,263302.65625,238319.5,239729.71875,53342.0,1.0,3
244275.34375,261779.4375,267598.84375,280652.53125,232100.4375,263304.28125,238302.953125,239724.796875,53343.0,1.0,3
244244.5,261775.6875,267591.15625,280649.78125,232110.625,263310.4375,238316.453125,239728.109375,53344.0,1.0,3
244226.171875,261810.828125,267605.46875,280659.25,232174.90625,263363.1875,238364.46875,239780.3125,53345.0,1.0,3
244252.1875,261870.453125,267634.09375,280679.625,232242.953125,263424.53125,238398.984375,239844.421875,53346.0,1.0,3
244301.625,261924.90625,267654.03125,280691.4375,232265.84375,263457.15625,238398.171875,239874.546875,53347.0,1.0,3
244311.546875,261937.6875,267647.65625,280683.21875,232255.828125,263451.96875,238378.765625,239866.234375,53348.0,1.0,3
244270.328125,261926.96875,267630.9375,280670.34375,232263.609375,263444.28125,238382.078125,239864.625,53349.0,1.0,3
244243.25,261953.703125,267638.46875,280674.625,232318.765625,263480.59375,238419.71875,239906.828125,53350.0,1.0,3
244271.40625,262011.09375,267669.5625,280697.59375,232382.96875,263535.75,238454.953125,239967.359375,53351.0,1.0,3
244314.5,262048.734375,267684.9375,280704.9375,232400.390625,263557.65625,238449.765625,239990.78125,53352.0,1.0,3
244326.21875,262050.875,267676.375,280699.75,232382.421875,263540.3125,238428.390625,239977.1875,53353.0,1.0,3
244285.71875,262032.734375,267655.09375,280686.96875,232377.515625,263514.46875,238424.1875,239964.671875,53354.0,1.0,3
244249.5,262036.125,267652.21875,280682.75,232417.734375,263533.15625,238451.546875,239990.0625,53355.0,1.0,3
244267.03125,262073.6875,267673.78125,280697.875,232467.265625,263570.71875,238477.5625,240036.828125,53356.0,1.0,3
244313.875,262112.921875,267689.40625,280710.46875,232480.765625,263579.75,238471.046875,240055.875,53357.0,1.0,3
244316.015625,262093.171875,267671.4375,280693.03125,232446.625,263542.5625,238434.921875,240026.28125,53358.0,1.0,3
244270.78125,262046.234375,267645.15625,280675.78125,232423.640625,263505.8125,238424.8125,239998.375,53359.0,1.0,3
244238.328125,262042.5625,267641.9375,280673.625,232453.421875,263517.0625,238449.671875,240014.734375,53360.0,1.0,3
244257.015625,262069.484375,267660.0,280687.40625,232491.765625,263546.125,238469.34375,240049.796875,53361.0,1.0,3
244300.109375,262086.46875,267670.90625,280692.25,232489.0,263546.5625,238454.140625,240056.5,53362.0,1.0,3
244306.28125,262074.125,267657.0625,280681.15625,232454.84375,263513.59375,238422.671875,240027.609375,53363.0,1.0,3
244257.46875,262026.390625,267627.375,280663.53125,232429.8125,263472.90625,238409.0,239994.171875,53364.0,1.0,3
244224.109375,262012.078125,267625.84375,280664.875,232453.953125,263482.71875,238432.859375,240006.515625,53365.0,1.0,3
244239.125,262030.3125,267640.53125,280673.375,232482.5625,263507.6875,238450.65625,240035.65625,53366.0,1.0,3
244279.453125,262049.890625,267647.03125,280675.875,232474.78125,263504.5625,238434.46875,240037.546875,53367.0,1.0,3
244285.71875,262030.5,267632.125,280663.53125,232430.96875,263470.75,238400.953125,240002.671875,53368.0,1.0,3
244246.109375,261996.609375,267612.625,280653.78125,232407.375,263439.71875,238397.28125,239972.90625,53369.0,1.0,3
244216.15625,261996.15625,267616.8125,280658.4375,232440.625,263457.25,238430.546875,239993.46875,53370.0,1.0,3
244233.859375,262022.71875,267637.21875,280668.09375,232477.28125,263489.34375,238449.5,240027.078125,53371.0,1.0,3
244277.125,262044.265625,267648.375,280671.40625,232473.53125,263494.53125,238433.671875,240029.859375,53372.0,1.0,3
244284.640625,262034.96875,267634.875,280661.3125,232437.40625,263466.5625,238403.53125,240001.78125,53373.0,1.0,3
244242.796875,262002.421875,267614.59375,280647.8125,232413.984375,263437.5,238398.4375,239973.34375,53374.0,1.0,3
244217.234375,262009.75,267621.90625,280653.53125,232446.53125,263459.21875,238432.6875,239996.40625,53375.0,1.0,3
244228.40625,262032.46875,267634.15625,280658.4375,232477.015625,263482.90625,238446.09375,240026.09375,53376.0,1.0,3
244273.46875,262058.21875,267645.6875,280665.40625,232475.671875,263491.84375,238431.515625,240033.875,53377.0,1.0,3
244289.640625,262059.015625,267638.375,280663.4375,232449.75,263476.65625,238411.578125,240015.09375,53378.0,1.0,3
244246.109375,262022.625,267614.40625,280645.3125,232424.453125,263446.96875,238402.640625,239981.296875,53379.0,1.0,3
244217.671875,262025.125,267618.875,280648.15625,232457.96875,263470.65625,238435.71875,240001.6875,53380.0,1.0,3
244240.65625,262062.0625,267642.65625,280664.625,232506.4375,263516.09375,238464.78125,240047.640625,53381.0,1.0,3
244289.296875,262091.109375,267659.28125,280676.78125,232509.46875,263532.1875,238455.390625,240059.265625,53382.0,1.0,3
244305.03125,262082.4375,267650.34375,280673.71875,232475.40625,263512.59375,238426.515625,240033.15625,53383.0,1.0,3
244265.0625,262049.09375,267626.21875,280659.6875,232453.59375,263484.53125,238417.046875,240005.359375,53384.0,1.0,3
244234.484375,262053.828125,267625.40625,280658.53125,232489.984375,263501.875,238446.0,240028.328125,53385.0,1.0,3
244250.3125,262081.71875,267645.15625,280669.09375,232533.875,263537.90625,238470.859375,240068.828125,53386.0,1.0,3
244293.671875,262098.171875,267656.96875,280673.5625,232527.171875,263544.15625,238454.046875,240070.796875,53387.0,1.0,3
244299.03125,262082.703125,267642.65625,280659.78125,232486.578125,263515.1875,238420.796875,240039.6875,53388.0,1.0,3
244254.421875,262044.359375,267616.8125,280641.625,232456.90625,263480.6875,238408.71875,240008.578125,53389.0,1.0,3
244222.59375,262040.515625,267617.09375,280645.03125,232485.78125,263496.40625,238437.0625,240026.8125,53390.0,1.0,3
244246.734375,262074.03125,267641.6875,280663.1875,232526.640625,263532.71875,238466.03125,240062.484375,53391.0,1.0,3
244293.765625,262102.640625,267655.71875,280673.46875,232527.09375,263542.46875,238457.453125,240072.140625,53392.0,1.0,3
244301.09375,262091.46875,267641.15625,280656.21875,232488.1875,263510.90625,238421.953125,240041.203125,53393.0,1.0,3
244262.109375,262059.015625,267616.65625,280639.21875,232458.515625,263476.375,238411.578125,240008.125,53394.0,1.0,3
244224.921875,262056.25,267612.0,280639.5,232483.015625,263486.03125,238435.71875,240022.34375,53395.0,1.0,3
244241.453125,262085.65625,267632.8125,280654.25,232518.40625,263518.0625,238457.1875,240053.1875,53396.0,1.0,3
244287.234375,262108.28125,267648.21875,280665.40625,232513.3125,263527.4375,238445.828125,240058.109375,53397.0,1.0,3
244292.15625,262091.921875,267629.34375,280648.78125,232468.796875,263492.46875,238403.984375,240023.140625,53398.0,1.0,3
244250.390625,262050.515625,267604.21875,280630.71875,232439.28125,263452.875,238393.53125,239989.796875,53399.0,1.0,3
244217.9375,262050.34375,267605.46875,280635.65625,232468.078125,263468.34375,238422.578125,240005.71875,53400.0,1.0,3
244232.96875,262080.65625,267627.0,280652.0,232511.171875,263504.625,238452.53125,240044.609375,53401.0,1.0,3
244279.359375,262108.375,267637.5625,280656.46875,232509.828125,263514.125,238441.984375,240053.359375,53402.0,1.0,3
244295.546875,262097.28125,267626.75,280648.53125,232470.765625,263490.6875,238407.5625,240025.46875,53403.0,1.0,3
244258.0,262059.375,267606.8125,280636.09375,232449.03125,263459.5625,238400.953125,240000.4375,53404.0,1.0,3
244227.0625,262054.1875,267609.03125,280639.03125,232480.6875,263478.0,238429.015625,240019.125,53405.0,1.0,3
244244.3125,262088.15625,267630.9375,280654.15625,232527.890625,263521.4375,238457.1875,240061.140625,53406.0,1.0,3
244285.890625,262104.53125,267642.9375,280658.4375,232527.09375,263531.375,238441.09375,240067.5,53407.0,1.0,3
244304.75,262095.859375,267639.4375,280656.65625,232498.390625,263516.09375,238414.71875,240045.5,53408.0,1.0,3
244263.546875,262054.71875,267613.5,280640.5625,232473.078125,263482.5625,238402.90625,240018.046875,53409.0,1.0,3
244224.828125,262044.53125,267605.75,280636.34375,232492.03125,263488.90625,238423.484375,240026.984375,53410.0,1.0,3
244244.5,262085.484375,267630.9375,280651.75,232538.4375,263531.0,238452.359375,240071.6875,53411.0,1.0,3
244294.5625,262124.546875,267652.6875,280665.6875,232552.296875,263552.90625,238451.1875,240094.40625,53412.0,1.0,3
244313.34375,262125.171875,267648.03125,280662.90625,232526.640625,263536.375,238428.65625,240075.265625,53413.0,1.0,3
244270.96875,262087.09375,267623.53125,280647.1875,232496.59375,263499.4375,238418.734375,240040.578125,53414.0,1.0,3
244236.984375,262087.71875,267621.125,280648.34375,232521.28125,263508.40625,238446.28125,240055.6875,53415.0,1.0,3
244245.21875,262122.859375,267631.65625,280651.1875,232558.109375,263537.71875,238465.40625,240088.234375,53416.0,1.0,3
244284.1875,262141.09375,267641.59375,280654.25,232550.59375,263543.53125,238446.359375,240087.96875,53417.0,1.0,3
244301.71875,262139.03125,267632.5625,280645.3125,232514.75,263520.65625,238418.015625,240060.703125,53418.0,1.0,3
244265.0625,262113.90625,267608.875,280632.0625,232490.703125,263487.03125,238409.34375,240032.71875,53419.0,1.0,3
244232.25,262112.296875,267607.875,280635.5625,232516.265625,263498.8125,238433.125,240045.671875,53420.0,1.0,3
244247.53125,262140.5625,267629.78125,280652.0,232559.359375,263535.65625,238461.03125,240084.5625,53421.0,1.0,3
244286.78125,262162.8125,267642.03125,280653.78125,232558.828125,263545.84375,238451.90625,240092.890625,53422.0,1.0,3
244308.0625,262163.25,267635.59375,280651.03125,232531.375,263527.625,238429.375,240074.015625,53423.0,1.0,3
244262.828125,262115.515625,267606.8125,280628.125,232498.828125,263488.28125,238411.40625,240037.71875,53424.0,1.0,3
244226.265625,262105.859375,267603.0625,280624.75,232520.734375,263497.03125,238434.203125,240046.578125,53425.0,1.0,3
244242.53125,262138.671875,267622.625,280639.65625,232561.6875,263532.625,238459.5,240079.46875,53426.0,1.0,3
244291.53125,262166.40625,267641.21875,280654.40625,232569.734375,263549.4375,238456.5625,240094.21875,53427.0,1.0,3
244309.40625,262155.3125,267633.8125,280650.125,232536.828125,263530.03125,238427.953125,240070.625,53428.0,1.0,3
244263.984375,262103.09375,267604.3125,280631.53125,232500.4375,263488.375,238409.34375,240032.4375,53429.0,1.0,3
244224.375,262093.34375,267597.59375,280626.0,232520.296875,263496.5,238431.25,240039.15625,53430.0,1.0,3
244239.578125,262126.78125,267617.09375,280638.5,232563.109375,263532.96875,238458.796875,240075.53125,53431.0,1.0,3
244283.921875,262154.78125,267630.5,280648.59375,232565.703125,263544.4375,238449.21875,240089.046875,53432.0,1.0,3
244301.453125,262142.703125,267624.15625,280645.75,232529.234375,263523.59375,238419.71875,240063.46875,53433.0,1.0,3
244264.875,262102.921875,267601.71875,280629.84375,232495.609375,263488.0,238407.203125,240027.890625,53434.0,1.0,3
244227.15625,262098.796875,267597.25,280628.03125,232516.453125,263494.90625,238430.1875,240036.640625,53435.0,1.0,3
244242.171875,262135.28125,267618.625,280643.0625,232559.546875,263528.875,238459.6875,240071.96875,53436.0,1.0,3
244289.5625,262165.0625,267640.59375,280659.6875,232567.046875,263545.3125,238460.140625,240088.765625,53437.0,1.0,3
244301.265625,262151.375,267628.625,280647.4375,232527.984375,263522.15625,238426.515625,240059.359375,53438.0,1.0,3
244266.21875,262120.796875,267604.5625,280630.09375,232499.453125,263488.71875,238412.390625,240026.28125,53439.0,1.0,3
244231.890625,262117.125,267602.34375,280635.1875,232526.1875,263500.78125,238442.703125,240043.078125,53440.0,1.0,3
244232.6875,262136.890625,267613.0625,280640.75,232559.71875,263526.71875,238459.859375,240071.609375,53441.0,1.0,3
244271.9375,262156.28125,267627.0,280646.1875,232562.40625,263538.53125,238450.125,240084.390625,53442.0,1.0,3
244293.40625,262151.375,267621.75,280642.09375,232531.640625,263518.84375,238422.3125,240064.1875,53443.0,1.0,3
244257.546875,262111.859375,267598.59375,280625.4375,232501.609375,263482.28125,238410.0625,240031.46875,53444.0,1.0,3
244224.65625,262101.84375,267596.53125,280626.6875,232522.171875,263492.3125,238430.890625,240041.203125,53445.0,1.0,3
244239.9375,262133.046875,267617.8125,280641.625,232566.25,263528.96875,238454.40625,240077.234375,53446.0,1.0,3
244282.9375,262157.46875,267633.09375,280650.21875,232574.734375,263543.625,238445.734375,240090.296875,53447.0,1.0,3
244301.984375,262147.875,267629.59375,280645.65625,232548.359375,263529.125,238423.75,240073.84375,53448.0,1.0,3
244271.859375,262117.84375,267609.65625,280632.6875,232522.265625,263497.3125,238414.71875,240045.59375,53449.0,1.0,3
244241.546875,262107.921875,267610.125,280634.75,232545.953125,263505.875,238438.9375,240057.484375,53450.0,1.0,3
244251.828125,262126.875,267627.8125,280647.53125,232586.8125,263539.875,238463.703125,240093.6875,53451.0,1.0,3
244297.0625,262151.28125,267644.8125,280659.59375,232593.96875,263556.21875,238458.34375,240109.0625,53452.0,1.0,3
244321.46875,262153.34375,267643.90625,280660.3125,232566.609375,263543.25,238436.53125,240091.984375,53453.0,1.0,3
244287.0625,262114.71875,267623.53125,280649.0625,232538.703125,263508.65625,238426.515625,240062.3125,53454.0,1.0,3
244248.515625,262107.921875,267616.90625,280643.5,232560.796875,263515.09375,238445.65625,240070.265625,53455.0,1.0,3
244262.109375,262145.125,267641.5,280660.0625,232606.921875,263552.65625,238475.59375,240107.8125,53456.0,1.0,3
244307.171875,262173.375,267659.03125,280669.96875,232613.453125,263570.09375,238471.125,240119.96875,53457.0,1.0,3
244325.046875,262170.78125,267649.28125,280659.96875,232581.890625,263552.1875,238440.28125,240095.203125,53458.0,1.0,3
244291.96875,262137.0625,267626.5625,280644.75,232550.875,263516.0,238425.4375,240060.078125,53459.0,1.0,3
244257.734375,262133.40625,267625.3125,280647.0,232569.640625,263524.5,238449.765625,240067.671875,53460.0,1.0,3
244271.046875,262167.46875,267648.84375,280665.25,232616.9375,263564.09375,238484.625,240109.328125,53461.0,1.0,3
244310.75,262192.5,267664.65625,280673.28125,232625.34375,263577.6875,238477.65625,240124.171875,53462.0,1.0,3
244324.78125,262188.75,267654.28125,280664.96875,232591.375,263558.28125,238445.203125,240099.234375,53463.0,1.0,3
244293.046875,262157.46875,267633.4375,280653.34375,232564.375,263530.03125,238435.015625,240070.4375,53464.0,1.0,3
244249.765625,262144.3125,267622.1875,280644.3125,232579.390625,263533.875,238457.09375,240075.71875,53465.0,1.0,3
244255.9375,262172.90625,267633.625,280649.3125,232619.890625,263564.4375,238481.765625,240109.953125,53466.0,1.0,3
244298.671875,262204.5625,267648.65625,280654.6875,232631.0625,263583.125,238477.5625,240127.03125,53467.0,1.0,3
244322.546875,262196.78125,267647.3125,280657.46875,232602.8125,263572.3125,238452.796875,240107.90625,53468.0,1.0,3
244290.984375,262153.0625,267625.75,280644.125,232571.875,263538.53125,238440.015625,240071.96875,53469.0,1.0,3
244258.0,262140.90625,267623.625,280646.1875,232592.796875,263544.4375,238464.421875,240079.03125,53470.0,1.0,3
244263.09375,262160.21875,267639.0,280654.25,232635.0,263577.0625,238491.6875,240114.96875,53471.0,1.0,3
244304.484375,262184.71875,267652.9375,280660.40625,232642.78125,263588.875,238486.328125,240128.109375,53472.0,1.0,3
244321.65625,262176.5,267643.65625,280650.84375,232609.515625,263566.5,238455.390625,240105.046875,53473.0,1.0,3
244287.328125,262136.0,267621.375,280638.40625,232579.203125,263531.375,238439.125,240072.234375,53474.0,1.0,3
244255.3125,262126.4375,267621.375,280642.96875,232601.5625,263540.59375,238464.421875,240082.6875,53475.0,1.0,3
244266.046875,262156.75,267643.03125,280655.3125,232645.546875,263574.8125,238491.34375,240118.28125,53476.0,1.0,3
244312.453125,262189.8125,267663.75,280669.15625,232657.4375,263593.6875,238489.453125,240135.0,53477.0,1.0,3
244332.03125,262181.15625,267654.5625,280662.90625,232624.984375,263572.84375,238458.96875,240110.765625,53478.0,1.0,3
244299.125,262151.90625,267630.6875,280645.3125,232593.6875,263531.09375,238442.875,240075.453125,53479.0,1.0,3
244257.375,262142.515625,267622.625,280637.4375,232608.890625,263533.0625,238461.46875,240078.3125,53480.0,1.0,3
244264.4375,262172.21875,267639.25,280651.28125,232650.46875,263570.1875,238489.90625,240115.328125,53481.0,1.0,3
244310.65625,262206.90625,267658.75,280664.15625,232662.0,263588.40625,238488.296875,240135.890625,53482.0,1.0,3
244334.53125,262208.78125,267656.78125,280663.34375,232632.859375,263570.34375,238464.78125,240119.609375,53483.0,1.0,3
244303.59375,262174.71875,267636.9375,280652.625,232602.28125,263534.15625,238454.328125,240088.6875,53484.0,1.0,3
244265.5,262159.6875,267628.96875,280648.34375,232614.96875,263534.15625,238473.8125,240093.0625,53485.0,1.0,3
244271.046875,262184.46875,267645.4375,280661.03125,232655.828125,263569.5625,238500.09375,240133.203125,53486.0,1.0,3
244310.03125,262205.90625,267658.125,280666.9375,232662.265625,263587.15625,238497.0625,240150.28125,53487.0,1.0,3
244335.515625,262205.71875,267654.90625,280664.96875,232636.78125,263574.5625,238472.375,240136.15625,53488.0,1.0,3
244298.046875,262159.6875,267628.1875,280645.375,232602.359375,263534.78125,238450.921875,240098.421875,53489.0,1.0,3
244263.71875,262144.03125,267626.03125,280646.375,232622.296875,263540.125,238475.515625,240106.296875,53490.0,1.0,3
244271.5,262165.59375,267643.5625,280657.71875,232665.21875,263574.65625,238504.75,240142.140625,53491.0,1.0,3
244314.859375,262193.65625,267661.25,280669.4375,232675.40625,263593.875,238502.15625,240160.921875,53492.0,1.0,3
244336.234375,262188.46875,267658.03125,280666.5625,232647.34375,263579.65625,238477.390625,240145.015625,53493.0,1.0,3
244301.71875,262151.375,267627.8125,280643.96875,232614.703125,263542.0,238459.0625,240110.59375,53494.0,1.0,3
244257.546875,262130.0,267616.46875,280633.59375,232624.890625,263542.375,238474.796875,240109.0625,53495.0,1.0,3
244261.75,262153.34375,267633.0,280646.28125,232665.484375,263579.65625,238504.390625,240145.640625,53496.0,1.0,3
244303.6875,262187.84375,267647.65625,280658.25,232675.6875,263597.625,238499.734375,240162.4375,53497.0,1.0,3
244328.71875,262196.0625,267645.53125,280657.09375,232654.140625,263586.8125,238476.859375,240146.96875,53498.0,1.0,3
244290.8125,262154.5,267618.96875,280637.78125,232618.546875,263546.75,238455.9375,240106.828125,53499.0,1.0,3
244253.265625,262143.78125,267613.5,280635.09375,232634.203125,263550.59375,238475.59375,240110.765625,53500.0,1.0,3
244257.28125,262168.71875,267629.34375,280646.375,232672.28125,263580.53125,238498.40625,240143.75,53501.0,1.0,3
244295.28125,262197.0625,267641.21875,280656.125,232678.8125,263594.03125,238490.359375,240156.984375,53502.0,1.0,3
244320.21875,262202.5,267636.3125,280650.125,232648.859375,263577.25,238461.75,240135.890625,53503.0,1.0,3
244292.78125,262170.875,267616.03125,280637.59375,232618.90625,263542.8125,238448.15625,240103.4375,53504.0,1.0,3
244252.09375,262157.09375,267607.4375,280633.0625,232633.390625,263541.46875,238468.1875,240106.828125,53505.0,1.0,3
244256.828125,262183.65625,267626.03125,280645.75,232673.453125,263573.3125,238495.1875,240141.4375,53506.0,1.0,3
244297.515625,262209.75,267643.75,280654.25,232684.4375,263592.0,238493.484375,240160.390625,53507.0,1.0,3
244324.78125,262212.0,267642.03125,280652.4375,232657.890625,263578.3125,238467.828125,240142.765625,53508.0,1.0,3
244298.859375,262175.78125,267621.375,280638.40625,232625.171875,263541.125,238451.640625,240110.234375,53509.0,1.0,3
244259.609375,262153.96875,267614.59375,280632.96875,232636.4375,263542.625,238470.6875,240111.75,53510.0,1.0,3
244258.171875,262169.53125,267627.28125,280639.65625,232674.421875,263575.1875,238494.203125,240146.4375,53511.0,1.0,3
244304.046875,262203.78125,267648.375,280654.34375,232688.90625,263598.96875,238493.21875,240169.59375,53512.0,1.0,3
244335.15625,262208.59375,267648.125,280654.78125,232665.484375,263588.6875,238471.484375,240157.96875,53513.0,1.0,3
244304.75,262165.3125,267624.5,280642.53125,232633.921875,263552.1875,238458.796875,240127.3125,53514.0,1.0,3
244266.9375,262150.21875,267616.65625,280638.5,232649.3125,263554.71875,238479.171875,240129.546875,53515.0,1.0,3
244271.234375,262174.4375,267633.1875,280648.4375,232690.796875,263585.5625,238502.421875,240162.265625,53516.0,1.0,3
244319.15625,262211.28125,267656.15625,280664.25,232708.5,263607.71875,238504.5625,240182.828125,53517.0,1.0,3
244343.109375,262206.28125,267653.03125,280659.78125,232680.859375,263594.40625,238474.796875,240164.234375,53518.0,1.0,3
244308.78125,262160.84375,267628.09375,280640.5625,232645.109375,263555.34375,238454.671875,240127.75,53519.0,1.0,3
244268.1875,262147.4375,267616.71875,280634.9375,232654.3125,263552.1875,238469.703125,240124.625,53520.0,1.0,3
244269.171875,262167.125,267630.0625,280644.84375,232687.125,263581.15625,238492.046875,240150.46875,53521.0,1.0,3
244311.90625,262199.65625,267649.90625,280656.28125,232701.15625,263603.0,238494.734375,240171.390625,53522.0,1.0,3
244339.0,262202.78125,267649.46875,280656.90625,232677.734375,263591.0,238474.703125,240158.59375,53523.0,1.0,3
244302.609375,262161.03125,267620.84375,280634.9375,232638.125,263547.09375,238453.703125,240118.1875,53524.0,1.0,3
244262.640625,262143.953125,267611.71875,280630.625,232643.578125,263543.71875,238468.0,240112.828125,53525.0,1.0,3
244265.59375,262168.1875,267627.71875,280642.71875,232681.84375,263576.96875,238495.8125,240146.796875,53526.0,1.0,3
244304.046875,262201.53125,267640.96875,280648.59375,232693.828125,263594.65625,238494.828125,240164.859375,53527.0,1.0,3
244333.015625,262210.5625,267641.84375,280646.5625,232671.125,263583.40625,238472.46875,240151.0,53528.0,1.0,3
244304.484375,262171.75,267621.75,280635.28125,232638.671875,263544.34375,238455.390625,240117.46875,53529.0,1.0,3
244263.359375,262152.53125,267612.25,280627.59375,232647.78125,263541.90625,238471.125,240115.5,53530.0,1.0,3
244271.5,262182.5,267631.5625,280641.71875,232692.9375,263580.46875,238502.15625,240153.046875,53531.0,1.0,3
244317.1875,262217.53125,267651.59375,280655.03125,232709.46875,263603.0625,238504.03125,240177.734375,53532.0,1.0,3
244343.109375,262216.65625,267651.59375,280653.96875,232683.453125,263592.09375,238478.1875,240161.375,53533.0,1.0,3
244318.171875,262177.40625,267632.5625,280644.21875,232653.421875,263558.8125,238464.421875,240129.71875,53534.0,1.0,3
244275.796875,262157.09375,267617.1875,280634.03125,232658.25,263552.5625,238478.28125,240120.875,53535.0,1.0,3
244276.234375,262176.84375,267630.9375,280645.65625,232696.953125,263584.65625,238503.3125,240150.640625,53536.0,1.0,3
244317.453125,262201.875,267649.1875,280658.0,232711.0,263604.3125,238502.609375,240172.90625,53537.0,1.0,3
244349.375,262212.875,267651.34375,280660.6875,232688.90625,263596.46875,238484.09375,240162.703125,53538.0,1.0,3
244318.703125,262181.78125,267626.75,280643.25,232653.328125,263560.0625,238465.765625,240126.859375,53539.0,1.0,3
244276.328125,262158.53125,267616.03125,280636.8125,232662.265625,263557.375,238479.625,240124.359375,53540.0,1.0,3
244273.828125,262174.09375,267629.15625,280644.84375,232698.125,263586.0,238501.96875,240153.6875,53541.0,1.0,3
244314.5,262204.5625,267645.25,280651.8125,232712.515625,263606.5625,238504.921875,240174.6875,53542.0,1.0,3
244347.40625,262217.1875,267649.28125,280653.25,232695.0,263600.3125,238488.125,240169.0625,53543.0,1.0,3
244321.65625,262190.0,267627.375,280640.125,232665.21875,263566.5,238474.625,240140.359375,53544.0,1.0,3
244280.34375,262175.34375,267617.1875,280635.375,232677.296875,263566.5,238493.03125,240140.984375,53545.0,1.0,3
244276.6875,262192.21875,267629.6875,280644.75,232714.296875,263595.375,238517.171875,240167.53125,53546.0,1.0,3
244317.359375,262215.84375,267647.75,280657.09375,232727.265625,263616.9375,238519.234375,240185.953125,53547.0,1.0,3
244349.1875,262220.3125,267648.125,280654.5,232703.125,263605.84375,238494.734375,240172.09375,53548.0,1.0,3
244321.03125,262186.6875,267626.03125,280637.78125,232670.765625,263566.5,238476.9375,240138.21875,53549.0,1.0,3
244278.921875,262168.8125,267616.03125,280631.0,232674.609375,263558.1875,238489.1875,240129.359375,53550.0,1.0,3
244281.6875,262194.46875,267632.75,280644.3125,232716.71875,263592.96875,238518.609375,240163.515625,53551.0,1.0,3
244325.5,262224.34375,267657.40625,280662.28125,232737.375,263619.34375,238523.703125,240190.421875,53552.0,1.0,3
244358.3125,262238.46875,267660.71875,280662.65625,232716.265625,263607.90625,238500.640625,240180.765625,53553.0,1.0,3
244330.6875,262203.40625,267635.59375,280646.5625,232680.859375,263568.5625,238480.515625,240146.34375,53554.0,1.0,3
244281.25,262173.46875,267618.0,280632.875,232683.28125,263559.09375,238492.140625,240137.3125,53555.0,1.0,3
244279.28125,262197.0625,267634.34375,280641.90625,232726.015625,263595.21875,238521.828125,240172.71875,53556.0,1.0,3
244325.953125,262234.78125,267661.25,280662.8125,232749.4375,263623.0,238531.03125,240203.5625,53557.0,1.0,3
244351.515625,262236.59375,267660.375,280660.5,232724.671875,263615.15625,238509.3125,240192.578125,53558.0,1.0,3
244316.828125,262189.71875,267629.4375,280639.40625,232683.28125,263574.09375,238484.0,240153.953125,53559.0,1.0,3
244276.6875,262169.96875,267614.40625,280628.75,232688.640625,263567.84375,238495.71875,240148.140625,53560.0,1.0,3
244279.984375,262195.28125,267632.8125,280643.15625,232732.984375,263602.625,238524.0625,240183.625,53561.0,1.0,3
244317.1875,262220.21875,267649.375,280653.25,232747.46875,263619.875,238522.359375,240202.234375,53562.0,1.0,3
244347.5,262224.40625,267651.4375,280653.53125,232726.375,263610.5,238501.078125,240190.609375,53563.0,1.0,3
244322.734375,262190.71875,267628.53125,280641.28125,232692.75,263574.28125,238481.140625,240156.09375,53564.0,1.0,3
244279.90625,262173.5625,267613.96875,280635.375,232696.328125,263562.65625,238490.796875,240146.171875,53565.0,1.0,3
244276.59375,262194.28125,267628.28125,280646.09375,232733.96875,263592.875,238519.140625,240176.5625,53566.0,1.0,3
244313.609375,262219.3125,267646.875,280655.9375,232750.515625,263615.3125,238524.328125,240198.828125,53567.0,1.0,3
244347.21875,262226.9375,267651.25,280659.4375,232729.59375,263608.625,238505.90625,240188.90625,53568.0,1.0,3
244318.796875,262193.03125,267624.25,280640.28125,232689.09375,263566.78125,238483.375,240149.484375,53569.0,1.0,3
244274.890625,262170.78125,267610.9375,280631.625,232691.78125,263560.875,238496.515625,240143.125,53570.0,1.0,3
244273.546875,262192.0625,267628.90625,280643.0625,232731.921875,263596.90625,238525.40625,240175.9375,53571.0,1.0,3
244312.71875,262225.03125,267648.375,280654.6875,232752.390625,263622.375,238531.921875,240202.140625,53572.0,1.0,3
244341.328125,262227.8125,267647.125,280652.0,232731.46875,263611.65625,238507.515625,240191.671875,53573.0,1.0,3
244315.390625,262193.65625,267622.09375,280634.125,232694.8125,263574.90625,238487.3125,240152.34375,53574.0,1.0,3
244268.1875,262160.21875,267602.875,280621.0625,232687.390625,263559.625,238491.515625,240135.0,53575.0,1.0,3
244264.875,262172.75,267614.59375,280629.375,232722.890625,263587.6875,238516.109375,240163.34375,53576.0,1.0,3
244304.9375,262204.75,267635.25,280644.03125,232744.078125,263613.4375,238525.40625,240192.125,53577.0,1.0,3
244341.140625,262222.0,267640.0625,280648.34375,232730.046875,263607.71875,238509.125,240190.421875,53578.0,1.0,3
244314.140625,262186.4375,267614.21875,280630.0,232691.78125,263568.375,238484.984375,240155.375,53579.0,1.0,3
244267.390625,262155.40625,267598.75,280617.3125,232688.90625,263557.375,238491.0625,240141.875,53580.0,1.0,3
244267.296875,262174.25,267613.5,280630.375,232726.203125,263590.1875,238516.546875,240170.84375,53581.0,1.0,3
244305.109375,262206.53125,267631.125,280641.90625,232741.578125,263611.84375,238520.75,240191.765625,53582.0,1.0,3
244339.09375,262220.03125,267635.96875,280645.46875,232728.078125,263607.53125,238506.796875,240189.53125,53583.0,1.0,3
244311.828125,262184.71875,267614.15625,280629.21875,232694.90625,263573.46875,238490.265625,240157.25,53584.0,1.0,3
244271.859375,262159.34375,267603.21875,280625.53125,232698.65625,263569.0,238505.734375,240151.71875,53585.0,1.0,3
244264.53125,262176.78125,267610.9375,280629.03125,232730.671875,263598.34375,238527.8125,240176.84375,53586.0,1.0,3
244301.984375,262213.0625,267628.53125,280638.5,232748.640625,263617.90625,238527.90625,240199.90625,53587.0,1.0,3
244336.5,262229.4375,267634.96875,280642.15625,232733.171875,263612.375,238507.078125,240195.796875,53588.0,1.0,3
244313.609375,262197.25,267613.0625,280628.5,232697.671875,263576.875,238485.34375,240161.734375,53589.0,1.0,3
244270.0625,262163.8125,267597.25,280617.65625,232694.546875,263565.875,238491.421875,240149.84375,53590.0,1.0,3
244267.390625,262179.1875,267610.9375,280626.53125,232730.75,263598.0625,238514.84375,240180.40625,53591.0,1.0,3
244305.296875,262215.375,267632.28125,280640.5625,232751.671875,263619.71875,238520.578125,240208.75,53592.0,1.0,3
244340.15625,262229.6875,267636.40625,280642.09375,232735.84375,263613.4375,238502.875,240202.859375,53593.0,1.0,3
244317.1875,262193.21875,267614.78125,280626.15625,232701.609375,263576.78125,238482.21875,240167.1875,53594.0,1.0,3
244274.265625,262166.5625,267600.09375,280616.40625,232701.96875,263564.53125,238489.015625,240156.265625,53595.0,1.0,3
244275.875,262191.59375,267614.21875,280629.28125,232741.390625,263594.5,238515.296875,240185.515625,53596.0,1.0,3
244313.703125,262218.78125,267634.53125,280642.78125,232762.671875,263619.71875,238525.40625,240213.21875,53597.0,1.0,3
244346.234375,262227.8125,267639.4375,280643.96875,232744.171875,263615.875,238508.234375,240206.4375,53598.0,1.0,3
244321.125,262192.15625,267615.03125,280626.96875,232705.28125,263575.0,238486.515625,240170.21875,53599.0,1.0,3
244274.984375,262157.46875,267598.9375,280618.46875,232701.15625,263560.25,238494.640625,240153.953125,53600.0,1.0,3
244270.609375,262178.03125,267611.71875,280624.5625,232736.390625,263590.46875,238519.59375,240179.78125,53601.0,1.0,3
244308.78125,262211.8125,267633.1875,280638.0625,232756.140625,263614.96875,238523.796875,240205.53125,53602.0,1.0,3
244348.75,262229.15625,267640.78125,280645.65625,232741.84375,263615.5,238505.46875,240204.109375,53603.0,1.0,3
244325.765625,262193.5,267618.25,280630.53125,232704.734375,263579.03125,238486.328125,240172.015625,53604.0,1.0,3
244280.171875,262160.3125,267604.40625,280622.6875,232701.34375,263568.125,238497.5,240160.03125,53605.0,1.0,3
244271.3125,262178.46875,267610.125,280628.59375,232733.171875,263593.59375,238520.296875,240183.625,53606.0,1.0,3
244302.875,262204.9375,267620.125,280631.875,232751.140625,263610.75,238520.65625,240206.875,53607.0,1.0,3
244331.046875,262207.53125,267617.1875,280626.0625,232729.953125,263600.9375,238495.890625,240196.6875,53608.0,1.0,3
244316.921875,262177.75,267601.0,280617.9375,232693.734375,263570.25,238479.71875,240164.234375,53609.0,1.0,3
244282.9375,262167.90625,267596.09375,280621.15625,232703.484375,263566.96875,238497.59375,240163.6875,53610.0,1.0,3
244273.46875,262183.46875,267605.03125,280629.65625,232736.484375,263595.5625,238521.734375,240188.109375,53611.0,1.0,3
244304.671875,262209.75,267617.90625,280635.1875,232750.609375,263618.71875,238524.78125,240208.578125,53612.0,1.0,3
244336.9375,262222.625,267619.5,280634.03125,232732.546875,263610.3125,238504.5625,240202.5,53613.0,1.0,3
244315.671875,262191.875,267595.1875,280614.90625,232695.890625,263569.8125,238479.984375,240166.28125,53614.0,1.0,3
244268.640625,262157.0,267574.625,280601.21875,232687.484375,263549.875,238481.234375,240147.25,53615.0,1.0,3
244259.15625,262169.25,267586.15625,280609.53125,232720.203125,263575.625,238504.296875,240171.5625,53616.0,1.0,3
244296.890625,262203.15625,267609.75,280626.625,232746.578125,263603.15625,238514.046875,240199.640625,53617.0,1.0,3
244327.734375,262207.34375,267609.21875,280628.40625,232724.5,263595.65625,238490.984375,240188.375,53618.0,1.0,3
244307.625,262166.75,267585.96875,280615.34375,232682.203125,263555.6875,238468.71875,240147.421875,53619.0,1.0,3
244263.8125,262139.578125,267571.21875,280606.59375,232679.796875,263543.0,238480.25,240136.78125,53620.0,1.0,3
244252.984375,262151.5625,267579.90625,280611.5,232714.296875,263570.625,238506.171875,240164.5,53621.0,1.0,3
244291.875,262183.21875,267602.53125,280625.90625,232737.734375,263597.4375,238516.453125,240194.625,53622.0,1.0,3
244327.640625,262196.78125,267610.84375,280630.09375,232722.171875,263597.53125,238502.609375,240190.609375,53623.0,1.0,3
244304.84375,262162.375,267584.8125,280613.125,232683.375,263557.5625,238479.0,240153.328125,53624.0,1.0,3
244263.265625,262132.953125,267568.53125,280603.375,232675.765625,263541.03125,238486.59375,240135.359375,53625.0,1.0,3
244259.421875,262151.5625,267582.5,280615.71875,232712.0625,263573.3125,238514.40625,240163.609375,53626.0,1.0,3
244295.09375,262179.28125,267604.3125,280628.75,232733.171875,263597.8125,238520.484375,240192.03125,53627.0,1.0,3
244333.71875,262195.625,267614.15625,280634.75,232719.484375,263600.75,238505.90625,240191.40625,53628.0,1.0,3
244314.40625,262168.625,267594.21875,280621.78125,232688.203125,263567.84375,238485.609375,240159.84375,53629.0,1.0,3
244269.796875,262139.75,267576.6875,280610.78125,232682.921875,263549.0625,238489.375,240143.046875,53630.0,1.0,3
244261.3125,262156.375,267587.3125,280616.875,232715.90625,263577.875,238511.359375,240167.09375,53631.0,1.0,3
244302.515625,262192.78125,267613.0625,280634.03125,232743.71875,263612.1875,238523.609375,240199.1875,53632.0,1.0,3
244336.40625,262207.25,267615.84375,280635.90625,232727.984375,263607.1875,238503.765625,240195.703125,53633.0,1.0,3
244317.453125,262178.46875,267591.15625,280623.125,232690.34375,263566.40625,238480.703125,240159.578125,53634.0,1.0,3
244271.59375,262144.125,267573.09375,280611.3125,232683.640625,263547.8125,238483.5625,240141.609375,53635.0,1.0,3
244262.015625,262155.84375,267582.59375,280614.1875,232717.515625,263576.34375,238509.390625,240168.609375,53636.0,1.0,3
244302.078125,262195.53125,267606.8125,280632.59375,232745.78125,263606.46875,238522.71875,240200.4375,53637.0,1.0,3
244334.34375,262207.53125,267611.46875,280635.46875,232730.125,263604.3125,238503.046875,240195.515625,53638.0,1.0,3
244310.921875,262170.0625,267585.71875,280615.78125,232688.640625,263564.625,238475.59375,240157.4375,53639.0,1.0,3
244267.5625,262136.625,267569.96875,280606.21875,232684.625,263551.03125,238484.984375,240140.984375,53640.0,1.0,3
244261.125,262149.40625,267584.0,280616.15625,232724.140625,263585.65625,238517.625,240170.40625,53641.0,1.0,3
244300.46875,262185.34375,267607.71875,280631.4375,232751.234375,263614.6875,238527.640625,240204.28125,53642.0,1.0,3
244333.453125,262198.84375,267609.3125,280629.84375,232734.515625,263609.875,238505.015625,240200.984375,53643.0,1.0,3
244313.4375,262170.34375,267584.71875,280614.0,232694.90625,263571.25,238479.359375,240166.015625,53644.0,1.0,3
244263.265625,262133.21875,267564.34375,280600.40625,232684.625,263551.21875,238480.875,240145.28125,53645.0,1.0,3
244250.21875,262143.328125,267570.15625,280603.90625,232712.96875,263574.28125,238501.703125,240163.96875,53646.0,1.0,3
244283.203125,262172.84375,267587.9375,280615.53125,232730.9375,263598.59375,238508.0625,240189.265625,53647.0,1.0,3
244317.1875,262188.65625,267592.5,280619.625,232720.109375,263599.40625,238491.6875,240192.84375,53648.0,1.0,3
244298.765625,262159.0625,267569.25,280605.5,232683.734375,263562.9375,238466.03125,240158.59375,53649.0,1.0,3
244252.09375,262122.765625,267550.125,280594.34375,232675.6875,263546.65625,238471.484375,240140.359375,53650.0,1.0,3
244246.375,262143.15625,267563.71875,280601.5,232714.9375,263581.53125,238502.875,240171.65625,53651.0,1.0,3
244286.34375,262188.46875,267588.65625,280617.5,232745.859375,263613.0,238518.6875,240206.078125,53652.0,1.0,3
244333.71875,262217.96875,267608.78125,280634.3125,232749.265625,263626.40625,238518.34375,240217.96875,53653.0,1.0,3
244323.078125,262198.125,267595.375,280626.4375,232723.15625,263601.1875,238507.96875,240194.890625,53654.0,1.0,3
244281.515625,262170.78125,267579.71875,280617.75,232720.203125,263588.59375,238518.609375,240180.765625,53655.0,1.0,3
244274.1875,262188.65625,267592.15625,280626.25,232756.953125,263620.59375,238548.921875,240205.984375,53656.0,1.0,3
244307.4375,262215.375,267611.71875,280635.8125,232774.390625,263643.65625,238554.546875,240229.3125,53657.0,1.0,3
244342.3125,262225.65625,267617.8125,280639.5625,232757.671875,263642.3125,238534.34375,240223.6875,53658.0,1.0,3
244317.8125,262184.09375,267588.84375,280616.15625,232710.640625,263597.625,238503.5,240180.5,53659.0,1.0,3
244261.3125,262138.5,267558.0,280593.625,232683.90625,263561.15625,238492.953125,240147.78125,53660.0,1.0,3
244251.203125,262145.84375,267565.9375,280600.875,232710.453125,263580.625,238511.8125,240167.1875,53661.0,1.0,3
244287.6875,262174.1875,267587.84375,280617.40625,232733.890625,263606.5625,238519.859375,240195.609375,53662.0,1.0,3
244323.71875,262181.875,267592.6875,280621.96875,232716.8125,263599.40625,238497.5,240190.34375,53663.0,1.0,3
244304.84375,262151.1875,267567.28125,280600.875,232680.6875,263561.15625,238470.140625,240156.359375,53664.0,1.0,3
244259.78125,262119.90625,267549.5,280586.46875,232673.171875,263543.625,238473.09375,240137.140625,53665.0,1.0,3
244252.09375,262140.28125,267563.96875,280597.8125,232710.546875,263573.75,238503.765625,240161.734375,53666.0,1.0,3
244294.828125,262183.125,267591.78125,280618.46875,232742.109375,263607.1875,238519.59375,240195.078125,53667.0,1.0,3
244333.1875,262199.46875,267598.3125,280622.21875,232734.421875,263610.0625,238503.765625,240196.59375,53668.0,1.0,3
244310.390625,262162.28125,267572.21875,280604.4375,232695.625,263568.5625,238477.75,240159.21875,53669.0,1.0,3
244263.09375,262121.25,267550.21875,280591.21875,232680.328125,263544.59375,238475.953125,240131.78125,53670.0,1.0,3
244254.875,262136.265625,267561.03125,280599.625,232712.6875,263571.59375,238500.8125,240152.875,53671.0,1.0,3
244293.9375,262179.1875,267586.875,280616.78125,232742.640625,263602.28125,238514.9375,240183.984375,53672.0,1.0,3
244333.640625,262197.59375,267598.84375,280626.0625,232733.609375,263607.375,238505.28125,240189.890625,53673.0,1.0,3
244312.71875,262163.4375,267575.15625,280609.28125,232695.0,263569.375,238479.09375,240155.5625,53674.0,1.0,3
244268.71875,262129.109375,267557.8125,280599.0625,232679.34375,263545.125,238480.25,240130.875,53675.0,1.0,3
244254.875,262142.609375,267564.53125,280601.84375,232708.578125,263569.8125,238503.671875,240149.390625,53676.0,1.0,3
244285.890625,262176.5,267582.65625,280614.1875,232733.078125,263600.40625,238513.953125,240178.625,53677.0,1.0,3
244319.859375,262191.6875,267589.1875,280613.03125,232722.703125,263603.0625,238495.71875,240179.15625,53678.0,1.0,3
244303.78125,262169.25,267566.9375,280596.125,232685.15625,263567.3125,238469.25,240142.953125,53679.0,1.0,3
244260.234375,262138.40625,267550.9375,280590.21875,232678.1875,263551.9375,238477.296875,240128.46875,53680.0,1.0,3
244245.84375,262147.1875,267558.8125,280595.6875,232710.015625,263575.625,238500.09375,240150.640625,53681.0,1.0,3
244279.546875,262182.3125,267581.34375,280609.09375,232737.28125,263607.1875,238512.53125,240181.046875,53682.0,1.0,3
244316.015625,262197.25,267589.8125,280613.46875,232726.28125,263609.59375,238497.78125,240185.0625,53683.0,1.0,3
244307.625,262173.8125,267573.90625,280605.4375,232692.671875,263580.625,238475.875,240155.5625,53684.0,1.0,3
244261.03125,262142.515625,267551.46875,280589.78125,232679.171875,263561.21875,238477.203125,240133.109375,53685.0,1.0,3
244246.640625,262151.375,267558.53125,280593.1875,232708.84375,263586.34375,238500.015625,240154.3125,53686.0,1.0,3
244283.296875,262184.53125,267583.03125,280610.4375,232738.796875,263617.8125,238514.40625,240186.84375,53687.0,1.0,3
244322.640625,262195.1875,267589.5625,280616.0625,232726.375,263617.03125,238498.3125,240184.96875,53688.0,1.0,3
244312.359375,262172.46875,267573.28125,280603.375,232695.078125,263582.78125,238479.09375,240156.359375,53689.0,1.0,3
244265.859375,262138.234375,267552.90625,280590.3125,232681.671875,263553.28125,238477.125,240134.546875,53690.0,1.0,3
244250.75,262148.6875,267558.625,280591.75,232712.875,263575.28125,238502.515625,240154.84375,53691.0,1.0,3
244282.140625,262180.6875,267578.1875,280604.09375,232735.5,263604.25,238515.828125,240180.765625,53692.0,1.0,3
244320.5,262196.71875,267585.1875,280608.1875,232720.46875,263605.65625,238496.34375,240181.484375,53693.0,1.0,3
244310.21875,262176.78125,267565.0625,280592.5625,232684.4375,263570.25,238470.59375,240151.171875,53694.0,1.0,3
244255.21875,262137.96875,267538.0625,280571.09375,232667.546875,263541.65625,238469.078125,240128.015625,53695.0,1.0,3
244238.953125,262149.6875,267545.84375,280578.59375,232700.265625,263565.78125,238497.234375,240153.328125,53696.0,1.0,3
244271.140625,262190.53125,267568.09375,280593.8125,232728.703125,263597.53125,238512.53125,240186.578125,53697.0,1.0,3
244304.84375,262208.25,267572.125,280591.125,232712.34375,263596.46875,238494.375,240180.59375,53698.0,1.0,3
244292.859375,262184.09375,267551.09375,280577.78125,232673.984375,263560.0625,238469.34375,240144.734375,53699.0,1.0,3
244252.8125,262155.65625,267535.5625,280570.09375,232663.796875,263539.0625,238471.40625,240125.78125,53700.0,1.0,3
244240.921875,262171.3125,267546.71875,280576.0,232698.75,263568.03125,238502.78125,240151.171875,53701.0,1.0,3
244273.46875,262210.65625,267569.96875,280589.25,232726.015625,263595.75,238517.078125,240182.203125,53702.0,1.0,3
244317.8125,262236.59375,267585.0,280601.3125,232721.8125,263604.9375,238507.78125,240190.421875,53703.0,1.0,3
244306.09375,262206.375,267562.65625,280584.21875,232684.265625,263569.90625,238479.265625,240154.65625,53704.0,1.0,3
244258.796875,262164.78125,267539.40625,280568.78125,232670.40625,263545.6875,238480.421875,240129.890625,53705.0,1.0,3
244244.9375,262172.46875,267550.65625,280576.53125,232707.953125,263575.0,238514.046875,240156.546875,53706.0,1.0,3
244277.9375,262206.0,267574.34375,280590.5,232739.875,263605.125,238527.1875,240188.546875,53707.0,1.0,3
244322.546875,262228.71875,267586.34375,280600.0625,232736.03125,263613.28125,238515.296875,240196.15625,53708.0,1.0,3
244307.0,262197.875,267564.4375,280586.03125,232697.859375,263577.15625,238488.46875,240165.296875,53709.0,1.0,3
244258.359375,262159.25,267544.03125,280571.90625,232684.890625,263549.53125,238488.75,240144.46875,53710.0,1.0,3
244243.609375,262167.03125,267554.59375,280580.375,232722.53125,263575.375,238521.46875,240173.34375,53711.0,1.0,3
244278.109375,262200.375,267580.4375,280598.53125,232755.25,263607.625,238538.1875,240209.46875,53712.0,1.0,3
244324.78125,262231.65625,267595.71875,280609.09375,232750.78125,263615.875,238527.1875,240217.609375,53713.0,1.0,3
244313.78125,262209.84375,267577.21875,280592.28125,232714.03125,263582.4375,238504.296875,240188.28125,53714.0,1.0,3
244263.359375,262170.59375,267555.40625,280575.46875,232700.265625,263558.1875,238509.3125,240170.046875,53715.0,1.0,3
244243.875,262183.84375,267561.84375,280578.6875,232732.984375,263580.625,238538.0,240195.34375,53716.0,1.0,3
244276.140625,262223.25,267582.84375,280591.9375,232759.1875,263605.3125,238549.265625,240225.390625,53717.0,1.0,3
244318.25,262245.15625,267590.90625,280599.15625,232748.546875,263607.0,238533.171875,240230.21875,53718.0,1.0,3
244310.296875,262226.84375,267576.9375,280591.21875,232716.0,263578.3125,238515.125,240202.671875,53719.0,1.0,3
244261.484375,262190.09375,267555.03125,280577.34375,232703.671875,263551.9375,238521.203125,240180.953125,53720.0,1.0,3
244243.609375,262199.28125,267561.125,280581.28125,232736.5625,263569.90625,238548.109375,240201.15625,53721.0,1.0,3
244272.75,262233.09375,267577.21875,280588.4375,232763.296875,263596.8125,238554.8125,240227.4375,53722.0,1.0,3
244312.53125,262252.6875,267585.8125,280592.09375,232751.3125,263597.875,238536.75,240228.515625,53723.0,1.0,3
244301.453125,262224.78125,267566.75,280580.375,232717.703125,263568.375,238516.015625,240200.265625,53724.0,1.0,3
244253.53125,262188.5625,267542.875,280564.65625,232706.609375,263544.34375,238518.6875,240178.453125,53725.0,1.0,3
244236.265625,262196.96875,267553.25,280573.59375,232746.578125,263570.53125,238549.625,240203.84375,53726.0,1.0,3
244262.828125,262218.59375,267570.15625,280582.90625,232773.765625,263596.46875,238557.40625,240230.390625,53727.0,1.0,3
244310.03125,262244.09375,267584.1875,280593.25,232768.9375,263606.5625,238543.546875,240237.8125,53728.0,1.0,3
244303.328125,262221.90625,267571.125,280587.53125,232738.984375,263581.09375,238524.234375,240212.78125,53729.0,1.0,3
244252.546875,262179.71875,267547.34375,280574.03125,232725.125,263553.1875,238522.546875,240190.15625,53730.0,1.0,3
244236.0,262187.6875,267554.40625,280580.84375,232759.984375,263577.40625,238552.578125,240214.828125,53731.0,1.0,3
244263.453125,262215.3125,267571.75,280590.65625,232789.671875,263607.625,238566.4375,240245.765625,53732.0,1.0,3
244301.0,262224.15625,267578.375,280591.84375,232776.984375,263607.625,238545.15625,240243.359375,53733.0,1.0,3
244299.75,262207.4375,267564.96875,280581.1875,232745.953125,263578.5,238522.546875,240216.71875,53734.0,1.0,3
244250.3125,262170.59375,267543.34375,280565.90625,232731.03125,263551.03125,238523.34375,240194.359375,53735.0,1.0,3
244230.734375,262177.125,267549.59375,280570.375,232760.265625,263571.6875,238550.171875,240214.75,53736.0,1.0,3
244259.96875,262211.1875,267568.71875,280582.4375,232787.078125,263600.46875,238566.53125,240244.96875,53737.0,1.0,3
244302.515625,262235.59375,267577.125,280589.6875,232778.671875,263604.6875,238549.09375,240249.4375,53738.0,1.0,3
244293.484375,262212.4375,267556.03125,280575.03125,232739.15625,263571.96875,238519.40625,240218.234375,53739.0,1.0,3
244242.625,262170.34375,267528.9375,280554.09375,232718.15625,263540.21875,238516.640625,240190.15625,53740.0,1.0,3
244221.25,262177.65625,267532.59375,280555.34375,232745.328125,263557.84375,238539.4375,240205.53125,53741.0,1.0,3
244251.65625,262211.09375,267556.21875,280570.90625,232773.578125,263588.78125,238555.703125,240235.3125,53742.0,1.0,3
244297.25,262233.1875,267568.71875,280578.875,232764.015625,263594.9375,238545.15625,240238.703125,53743.0,1.0,3
244295.734375,262212.4375,267554.5,280572.78125,232728.25,263563.65625,238520.9375,240208.671875,53744.0,1.0,3
244242.703125,262169.0625,267527.3125,280555.4375,232707.234375,263530.84375,238516.90625,240178.796875,53745.0,1.0,3
244216.421875,262170.875,267528.75,280551.6875,232734.0625,263547.1875,238542.203125,240195.25,53746.0,1.0,3
244245.390625,262200.625,267547.96875,280562.96875,232764.375,263576.15625,238555.359375,240225.109375,53747.0,1.0,3
244289.640625,262220.3125,267558.25,280570.65625,232758.375,263581.25,238539.890625,240229.9375,53748.0,1.0,3
244286.078125,262195.0,267543.34375,280564.5625,232723.0625,263552.125,238512.703125,240200.890625,53749.0,1.0,3
244240.921875,262151.28125,267520.8125,280549.71875,232703.671875,263522.25,238508.859375,240173.625,53750.0,1.0,3
244220.359375,262150.65625,267527.59375,280555.4375,232735.140625,263543.53125,238535.5,240192.84375,53751.0,1.0,3
244252.359375,262177.3125,267547.875,280569.9375,232765.984375,263573.65625,238550.875,240224.765625,53752.0,1.0,3
244296.625,262197.6875,267558.09375,280574.65625,232760.078125,263578.5625,238531.84375,240227.984375,53753.0,1.0,3
244297.6875,262176.6875,267548.96875,280569.65625,232728.25,263551.03125,238510.375,240202.765625,53754.0,1.0,3
244250.9375,262135.546875,267528.03125,280555.71875,232708.671875,263519.84375,238510.109375,240175.859375,53755.0,1.0,3
244220.890625,262132.421875,267525.0,280551.40625,232728.15625,263531.90625,238529.515625,240186.671875,53756.0,1.0,3
244248.609375,262168.4375,267543.15625,280564.75,232758.46875,263564.375,238545.78125,240216.796875,53757.0,1.0,3
244295.546875,262195.375,267557.8125,280573.78125,232754.890625,263573.5625,238534.34375,240224.046875,53758.0,1.0,3
244293.21875,262173.8125,267542.71875,280561.96875,232714.578125,263538.15625,238505.109375,240191.859375,53759.0,1.0,3
244244.9375,262134.828125,267517.9375,280544.0,232694.359375,263505.0,238499.390625,240164.859375,53760.0,1.0,3
244225.546875,262147.0,267526.53125,280553.375,232731.828125,263530.03125,238531.65625,240189.984375,53761.0,1.0,3
244255.765625,262177.75,267547.96875,280571.53125,232761.0625,263560.78125,238552.21875,240224.3125,53762.0,1.0,3
244305.296875,262204.21875,267561.5625,280579.40625,232753.28125,263567.84375,238545.25,240231.28125,53763.0,1.0,3
244307.34375,262186.5,267549.15625,280566.625,232718.59375,263540.59375,238521.28125,240204.015625,53764.0,1.0,3
244261.21875,262147.0,267528.03125,280550.25,232700.0,263511.78125,238520.03125,240176.75,53765.0,1.0,3
244238.953125,262147.1875,267530.1875,280552.40625,232724.046875,263526.90625,238538.1875,240187.921875,53766.0,1.0,3
244271.59375,262182.75,267551.375,280568.84375,232754.1875,263556.9375,238550.078125,240214.125,53767.0,1.0,3
244319.859375,262208.15625,267564.875,280578.15625,232752.21875,263565.15625,238537.375,240219.65625,53768.0,1.0,3
244328.1875,262189.625,267555.75,280574.5625,232719.84375,263539.96875,238512.609375,240193.46875,53769.0,1.0,3
244284.546875,262146.46875,267533.84375,280563.9375,232701.78125,263511.96875,238505.828125,240166.90625,53770.0,1.0,3
244264.875,262143.6875,267540.375,280570.71875,232732.09375,263532.25,238530.859375,240186.21875,53771.0,1.0,3
244302.703125,262178.65625,267565.40625,280588.0625,232766.25,263564.53125,238548.375,240220.640625,53772.0,1.0,3
244358.765625,262210.03125,267585.53125,280597.1875,232767.59375,263575.625,238541.765625,240231.734375,53773.0,1.0,3
244368.859375,262198.40625,267580.0,280593.34375,232740.140625,263555.59375,238524.0625,240211.34375,53774.0,1.0,3
244327.46875,262156.375,267557.71875,280582.71875,232722.703125,263530.9375,238522.453125,240187.5625,53775.0,1.0,3
244305.65625,262161.03125,267560.5,280587.375,232751.234375,263552.65625,238545.703125,240202.859375,53776.0,1.0,3
244335.15625,262196.78125,267581.25,280600.6875,232782.4375,263582.875,238560.0,240232.890625,53777.0,1.0,3
244384.859375,262223.0,267595.375,280609.4375,232778.859375,263596.5625,238551.59375,240244.421875,53778.0,1.0,3
244386.75,262209.59375,267582.65625,280601.21875,232745.6875,263570.09375,238528.53125,240220.734375,53779.0,1.0,3
244339.0,262168.53125,267559.15625,280583.78125,232721.71875,263535.5625,238520.21875,240189.890625,53780.0,1.0,3
244310.03125,262167.46875,267561.125,280581.28125,232747.109375,263550.25,238541.40625,240202.765625,53781.0,1.0,3
244332.203125,262198.65625,267578.1875,280590.3125,232779.296875,263580.09375,238553.5625,240231.46875,53782.0,1.0,3
244376.46875,262224.0625,267593.03125,280599.96875,232774.921875,263594.65625,238542.203125,240239.78125,53783.0,1.0,3
244375.828125,262209.125,267578.8125,280588.875,232735.9375,263566.0625,238516.453125,240209.203125,53784.0,1.0,3
244324.421875,262174.1875,267549.84375,280568.78125,232710.375,263532.34375,238508.953125,240177.640625,53785.0,1.0,3
244299.296875,262181.875,267552.09375,280573.0625,232736.5625,263550.78125,238533.8125,240192.578125,53786.0,1.0,3
244317.359375,262200.90625,267565.15625,280579.40625,232756.140625,263575.625,238541.046875,240210.453125,53787.0,1.0,3
244365.28125,262224.96875,267579.0,280589.6875,232748.640625,263585.90625,238526.46875,240212.421875,53788.0,1.0,3
244372.53125,262208.78125,267570.40625,280585.03125,232712.25,263559.625,238501.078125,240185.234375,53789.0,1.0,3
244329.703125,262167.125,267552.53125,280573.3125,232691.78125,263532.34375,238497.59375,240158.421875,53790.0,1.0,3
244303.0625,262171.9375,267557.1875,280577.25,232721.09375,263555.34375,238527.640625,240177.375,53791.0,1.0,3
244321.203125,262201.25,267570.59375,280582.90625,232748.90625,263583.40625,238541.046875,240204.828125,53792.0,1.0,3
244359.03125,262209.03125,267578.03125,280583.59375,232736.75,263587.96875,238522.546875,240205.53125,53793.0,1.0,3
244363.140625,262188.125,267564.0625,280573.3125,232702.40625,263565.0,238496.171875,240177.1875,53794.0,1.0,3
244317.28125,262149.6875,267537.6875,280555.90625,232682.125,263534.9375,238488.75,240146.265625,53795.0,1.0,3
244290.546875,262152.34375,267543.34375,280559.125,232713.5,263556.5,238514.5,240164.234375,53796.0,1.0,3
244314.953125,262180.0625,267564.53125,280572.875,232743.8125,263587.53125,238527.71875,240190.15625,53797.0,1.0,3
244360.09375,262200.71875,267577.9375,280580.3125,232738.265625,263596.46875,238514.3125,240196.59375,53798.0,1.0,3
244363.40625,262185.71875,267566.65625,280573.78125,232703.390625,263573.21875,238491.6875,240173.171875,53799.0,1.0,3
244320.9375,262152.8125,267546.1875,280561.78125,232683.640625,263548.0,238488.125,240144.734375,53800.0,1.0,3
244295.015625,262159.875,267549.5,280565.375,232710.375,263566.78125,238515.828125,240160.5625,53801.0,1.0,3
244317.90625,262195.625,267568.8125,280576.1875,232741.9375,263594.9375,238534.078125,240192.84375,53802.0,1.0,3
244363.140625,262226.75,267580.0625,280579.9375,232738.0,263602.28125,238522.71875,240202.3125,53803.0,1.0,3
244368.765625,262217.90625,267569.09375,280572.25,232706.078125,263579.46875,238499.203125,240178.984375,53804.0,1.0,3
244321.921875,262182.03125,267542.625,280558.03125,232684.0,263545.21875,238492.5,240149.75,53805.0,1.0,3
244292.59375,262185.625,267543.15625,280558.75,232709.75,263560.4375,238517.265625,240165.484375,53806.0,1.0,3
244317.0,262220.9375,267566.75,280576.0,232745.953125,263594.9375,238538.625,240201.953125,53807.0,1.0,3
244356.96875,262234.53125,267576.21875,280581.375,232736.828125,263600.21875,238520.03125,240203.5625,53808.0,1.0,3
244361.796875,262219.40625,267563.28125,280574.5625,232701.25,263573.46875,238490.625,240174.953125,53809.0,1.0,3
244315.21875,262175.96875,267536.625,280557.0625,232675.328125,263539.6875,238481.765625,240145.984375,53810.0,1.0,3
244288.3125,262176.59375,267539.65625,280559.03125,232699.90625,263558.71875,238508.40625,240161.453125,53811.0,1.0,3
244311.640625,262210.03125,267562.90625,280573.0625,232732.71875,263594.9375,238528.703125,240193.375,53812.0,1.0,3
244359.390625,262229.25,267577.125,280582.1875,232732.0,263605.84375,238519.59375,240205.984375,53813.0,1.0,3
244364.125,262213.59375,267564.96875,280574.65625,232702.234375,263581.625,238493.484375,240182.109375,53814.0,1.0,3
244312.890625,262166.21875,267537.6875,280557.84375,232677.015625,263548.0,238483.921875,240147.25,53815.0,1.0,3
244282.765625,262164.0625,267537.78125,280557.9375,232703.671875,263568.03125,238507.78125,240159.484375,53816.0,1.0,3
244302.96875,262189.1875,267557.0,280571.34375,232733.96875,263601.375,238522.265625,240187.75,53817.0,1.0,3
244350.171875,262211.09375,267571.5,280579.6875,232731.828125,263612.5625,238511.0,240195.96875,53818.0,1.0,3
244359.921875,262203.78125,267561.40625,280570.71875,232700.265625,263589.03125,238488.65625,240170.484375,53819.0,1.0,3
244315.046875,262168.8125,267537.25,280554.625,232675.953125,263556.0625,238481.859375,240139.546875,53820.0,1.0,3
244289.828125,262173.375,267543.34375,280561.0,232704.921875,263576.53125,238511.09375,240156.0,53821.0,1.0,3
244305.65625,262199.5625,267557.375,280567.4375,232735.140625,263604.78125,238528.265625,240185.15625,53822.0,1.0,3
244352.046875,262225.65625,267571.03125,280574.21875,232733.609375,263615.59375,238518.6875,240194.71875,53823.0,1.0,3
