FZ,C3,CZ,C4,PZ,PO7,OZ,PO8,Counter,Validation,Label
235196.515625,283559.4375,292036.375,279704.65625,257885.140625,285370.0,256333.75,258432.046875,120759.0,1.0,3
234894.9375,282818.25,290901.53125,279273.875,257190.453125,285090.0625,255999.1875,257945.046875,120760.0,1.0,3
234080.890625,281486.15625,289132.0625,278703.375,255638.96875,284371.25,255483.40625,257189.5625,120761.0,1.0,3
233888.484375,281415.0,289176.875,278784.90625,255373.703125,284218.53125,255508.875,257220.3125,120762.0,1.0,3
234571.375,282683.0625,290950.34375,279392.78125,256741.8125,284820.78125,256012.515625,257969.71875,120763.0,1.0,3
235192.3125,283554.875,292033.25,279698.125,257872.453125,285354.8125,256316.046875,258423.734375,120764.0,1.0,3
234893.421875,282817.875,290912.4375,279269.6875,257187.046875,285075.875,255980.859375,257939.046875,120765.0,1.0,3
234078.75,281480.625,289139.59375,278701.15625,255636.5625,284365.53125,255469.453125,257193.125,120766.0,1.0,3
233884.640625,281398.09375,289167.75,278777.6875,255360.015625,284212.1875,255488.046875,257210.75,120767.0,1.0,3
234576.5625,282674.46875,290941.6875,279390.84375,256726.34375,284822.03125,256006.96875,257965.15625,120768.0,1.0,3
235203.9375,283561.75,292040.125,279703.03125,257867.796875,285357.125,256314.796875,258425.421875,120769.0,1.0,3
234914.703125,282840.59375,290943.1875,279286.59375,257207.34375,285092.3125,255989.53125,257957.921875,120770.0,1.0,3
234106.734375,281507.09375,289169.53125,278720.375,255663.640625,284386.1875,255484.390625,257214.046875,120771.0,1.0,3
233896.984375,281404.375,289165.78125,278781.6875,255361.625,284212.375,255486.359375,257211.546875,120772.0,1.0,3
234567.359375,282658.28125,290916.5625,279377.6875,256705.328125,284799.3125,255987.5625,257952.90625,120773.0,1.0,3
235200.71875,283558.53125,292036.1875,279698.3125,257861.1875,285351.40625,256311.3125,258422.484375,120774.0,1.0,3
234915.5,282848.71875,290954.0,279285.5,257212.625,285093.65625,255994.90625,257962.65625,120775.0,1.0,3
234103.59375,281511.375,289177.59375,278720.0,255668.46875,284388.3125,255490.46875,257217.265625,120776.0,1.0,3
233885.09375,281394.4375,289159.0625,278782.0625,255352.953125,284207.4375,255488.59375,257209.5,120777.0,1.0,3
234552.78125,282645.0625,290909.75,279382.59375,256692.1875,284798.6875,255999.453125,257956.3125,120778.0,1.0,3
235200.984375,283564.4375,292046.3125,279709.46875,257863.0625,285354.09375,256325.96875,258430.703125,120779.0,1.0,3
234929.0,282873.15625,290981.0,279300.78125,257235.328125,285104.46875,256014.03125,257965.609375,120780.0,1.0,3
234105.390625,281521.84375,289188.5,278725.71875,255683.671875,284392.4375,255500.390625,257206.984375,120781.0,1.0,3
233878.65625,281389.0,289147.90625,278782.6875,255354.75,284210.03125,255495.5625,257200.1875,120782.0,1.0,3
234548.75,282635.125,290891.4375,279381.625,256687.984375,284791.90625,255996.515625,257941.109375,120783.0,1.0,3
235194.28125,283554.25,292038.0625,279710.1875,257865.65625,285347.375,256328.828125,258428.734375,120784.0,1.0,3
234926.59375,282870.0,290985.46875,279304.5625,257250.796875,285101.6875,256016.625,257976.96875,120785.0,1.0,3
234106.640625,281516.46875,289187.34375,278724.3125,255698.421875,284392.875,255493.5,257211.015625,120786.0,1.0,3
233870.25,281365.28125,289121.4375,278773.46875,255347.765625,284203.34375,255484.46875,257193.84375,120787.0,1.0,3
234539.375,282612.6875,290862.46875,279375.4375,256673.046875,284789.5,255987.203125,257932.34375,120788.0,1.0,3
235188.828125,283543.4375,292028.78125,279707.96875,257859.84375,285349.71875,256315.78125,258419.796875,120789.0,1.0,3
234929.8125,282873.6875,290999.0625,279308.21875,257261.796875,285105.625,256003.296875,257979.46875,120790.0,1.0,3
234119.78125,281525.0625,289197.53125,278728.3125,255708.96875,284396.90625,255491.625,257219.0625,120791.0,1.0,3
233874.984375,281360.5625,289114.1875,278771.25,255338.734375,284200.9375,255486.796875,257198.140625,120792.0,1.0,3
234527.203125,282593.46875,290838.3125,279360.875,256642.921875,284771.78125,255983.015625,257924.296875,120793.0,1.0,3
235177.015625,283532.6875,292018.125,279697.75,257839.359375,285333.53125,256313.28125,258416.9375,120794.0,1.0,3
234935.625,282886.71875,291013.46875,279311.78125,257265.46875,285108.6875,256022.171875,257992.25,120795.0,1.0,3
234134.984375,281552.59375,289218.53125,278736.90625,255719.4375,284410.40625,255518.984375,257233.28125,120796.0,1.0,3
233879.1875,281372.09375,289112.9375,278769.625,255335.25,284202.8125,255497.53125,257190.359375,120797.0,1.0,3
234517.109375,282593.65625,290830.8125,279359.1875,256631.65625,284766.4375,255983.1875,257914.375,120798.0,1.0,3
235186.9375,283562.5625,292035.65625,279711.875,257846.34375,285338.0,256325.4375,258416.21875,120799.0,1.0,3
234960.46875,282937.59375,291053.78125,279337.53125,257298.1875,285127.8125,256044.4375,257995.203125,120800.0,1.0,3
234147.59375,281583.09375,289242.40625,278754.78125,255745.71875,284417.28125,255527.03125,257235.6875,120801.0,1.0,3
233871.3125,281373.53125,289105.625,278774.90625,255336.421875,284198.34375,255494.578125,257189.375,120802.0,1.0,3
234509.953125,282588.03125,290815.0625,279366.15625,256627.0,284768.75,255986.40625,257908.828125,120803.0,1.0,3
235184.078125,283562.5625,292032.15625,279720.75,257853.140625,285341.84375,256322.046875,258419.609375,120804.0,1.0,3
234958.15625,282946.8125,291062.5625,279346.75,257315.0,285133.71875,256031.734375,258008.171875,120805.0,1.0,3
234142.84375,281590.34375,289248.5,278764.1875,255765.125,284432.9375,255514.78125,257252.40625,120806.0,1.0,3
233866.578125,281376.5625,289091.65625,278778.46875,255337.671875,284202.53125,255476.0625,257200.109375,120807.0,1.0,3
234505.9375,282593.84375,290800.5,279368.3125,256622.453125,284770.1875,255968.078125,257918.84375,120808.0,1.0,3
235184.984375,283582.9375,292037.53125,279726.09375,257861.984375,285362.3125,256331.875,258433.203125,120809.0,1.0,3
234967.453125,282976.21875,291082.03125,279347.8125,257334.3125,285158.03125,256060.078125,258020.765625,120810.0,1.0,3
234152.6875,281611.6875,289257.96875,278754.34375,255773.703125,284443.125,255547.0625,257257.0625,120811.0,1.0,3
233866.9375,281374.40625,289079.78125,278759.78125,255328.546875,284209.78125,255505.484375,257190.0,120812.0,1.0,3
234500.484375,282580.78125,290774.21875,279345.3125,256599.015625,284770.8125,256001.96875,257908.828125,120813.0,1.0,3
235181.578125,283574.8125,292022.96875,279709.125,257840.703125,285357.59375,256366.5625,258436.25,120814.0,1.0,3
234977.546875,282987.9375,291088.40625,279341.5625,257331.71875,285170.53125,256099.6875,258030.25,120815.0,1.0,3
234166.625,281626.71875,289261.28125,278751.375,255775.21875,284465.9375,255585.953125,257272.96875,120816.0,1.0,3
233871.59375,281374.78125,289059.375,278747.375,255312.28125,284218.09375,255533.640625,257195.640625,120817.0,1.0,3
234504.5,282576.9375,290749.8125,279334.3125,256577.5625,284773.03125,256015.734375,257910.4375,120818.0,1.0,3
235185.15625,283573.8125,292011.78125,279704.1875,257830.15625,285358.03125,256364.78125,258446.171875,120819.0,1.0,3
234980.40625,282994.375,291097.40625,279343.96875,257335.46875,285175.90625,256089.671875,258057.515625,120820.0,1.0,3
234167.34375,281633.6875,289271.1875,278750.9375,255777.546875,284470.21875,255559.3125,257293.0,120821.0,1.0,3
233869.703125,281375.21875,289057.59375,278745.84375,255302.078125,284216.21875,255486.078125,257199.921875,120822.0,1.0,3
234492.4375,282572.375,290742.84375,279333.53125,256557.265625,284771.15625,255967.359375,257905.703125,120823.0,1.0,3
235175.234375,283581.15625,292020.46875,279709.75,257815.671875,285361.875,256328.65625,258446.796875,120824.0,1.0,3
234982.015625,283014.59375,291123.78125,279356.59375,257341.375,285184.84375,256062.765625,258059.484375,120825.0,1.0,3
234162.078125,281645.40625,289289.625,278760.0625,255784.96875,284473.4375,255534.28125,257288.078125,120826.0,1.0,3
233852.359375,281368.6875,289054.75,278750.21875,255293.5,284218.53125,255479.109375,257201.171875,120827.0,1.0,3
234465.703125,282549.5,290728.71875,279331.46875,256533.046875,284758.375,255961.546875,257907.765625,120828.0,1.0,3
235164.40625,283576.875,292027.25,279718.0625,257814.234375,285363.125,256340.453125,258452.078125,120829.0,1.0,3
234983.984375,283031.125,291153.21875,279370.53125,257361.484375,285200.3125,256097.0,258079.15625,120830.0,1.0,3
234178.171875,281666.9375,289318.84375,278773.46875,255810.28125,284491.3125,255581.921875,257301.046875,120831.0,1.0,3
233861.03125,281370.5625,289058.5,278749.4375,255300.921875,284220.6875,255515.40625,257194.03125,120832.0,1.0,3
234469.0,282545.09375,290726.125,279330.03125,256537.421875,284761.96875,256004.375,257904.09375,120833.0,1.0,3
235159.3125,283568.375,292032.53125,279715.8125,257821.484375,285363.9375,256378.90625,258452.875,120834.0,1.0,3
234985.15625,283031.46875,291171.53125,279368.9375,257380.796875,285205.9375,256129.90625,258081.5625,120835.0,1.0,3
234177.984375,281668.375,289334.21875,278771.3125,255827.890625,284504.0,255616.0,257316.6875,120836.0,1.0,3
233857.734375,281363.875,289054.84375,278740.65625,255300.390625,284225.5,255528.734375,257197.953125,120837.0,1.0,3
234463.8125,282531.53125,290710.375,279317.875,256524.546875,284754.875,255990.78125,257890.328125,120838.0,1.0,3
235159.046875,283566.3125,292031.28125,279705.28125,257814.0625,285356.0625,256361.640625,258437.3125,120839.0,1.0,3
234991.140625,283042.3125,291190.59375,279368.5625,257389.640625,285203.28125,256107.640625,258078.625,120840.0,1.0,3
234196.046875,281684.84375,289352.71875,278773.125,255842.28125,284504.5625,255581.296875,257300.328125,120841.0,1.0,3
233861.484375,281360.09375,289052.78125,278739.3125,255303.6875,284223.53125,255497.171875,257177.84375,120842.0,1.0,3
234455.859375,282517.9375,290699.125,279312.5,256515.515625,284749.25,255968.078125,257877.359375,120843.0,1.0,3
235160.484375,283567.125,292034.3125,279708.21875,257817.90625,285357.59375,256349.9375,258443.21875,120844.0,1.0,3
235001.328125,283056.34375,291209.1875,279372.84375,257404.75,285205.6875,256095.296875,258085.0625,120845.0,1.0,3
234196.9375,281688.6875,289367.40625,278773.46875,255851.125,284500.96875,255567.4375,257298.0,120846.0,1.0,3
233859.96875,281355.71875,289045.96875,278734.59375,255294.3125,284214.78125,255486.796875,257169.4375,120847.0,1.0,3
234447.09375,282503.8125,290678.28125,279304.375,256493.171875,284732.90625,255954.578125,257863.953125,120848.0,1.0,3
235161.28125,283565.875,292032.25,279710.625,257811.296875,285357.40625,256354.671875,258433.921875,120849.0,1.0,3
235013.9375,283068.40625,291231.4375,279386.1875,257425.328125,285217.84375,256124.8125,258091.84375,120850.0,1.0,3
234214.90625,281701.375,289384.125,278782.6875,255874.640625,284512.59375,255599.453125,257312.84375,120851.0,1.0,3
233861.75,281345.4375,289036.5,278733.96875,255295.734375,284212.1875,255508.078125,257173.46875,120852.0,1.0,3
234449.15625,282496.46875,290665.59375,279308.125,256489.40625,284738.78125,255988.28125,257868.15625,120853.0,1.0,3
235154.046875,283558.90625,292026.53125,279713.21875,257807.625,285352.75,256364.421875,258439.203125,120854.0,1.0,3
235014.203125,283076.0,291239.9375,279390.375,257430.859375,285218.46875,256124.1875,258098.5625,120855.0,1.0,3
234216.078125,281709.96875,289388.3125,278782.40625,255879.203125,284513.65625,255589.796875,257316.78125,120856.0,1.0,3
233853.796875,281337.9375,289023.96875,278726.1875,255287.15625,284209.25,255489.03125,257168.28125,120857.0,1.0,3
234428.421875,282470.375,290640.71875,279294.8125,256466.515625,284723.15625,255957.171875,257858.3125,120858.0,1.0,3
235150.203125,283550.9375,292016.71875,279703.5625,257794.75,285344.0,256340.546875,258432.578125,120859.0,1.0,3
235023.15625,283086.03125,291251.65625,279390.28125,257437.125,285220.34375,256111.484375,258110.171875,120860.0,1.0,3
234219.65625,281711.65625,289397.34375,278783.40625,255883.40625,284516.1875,255584.4375,257342.703125,120861.0,1.0,3
233858.09375,281328.28125,289007.90625,278716.625,255271.328125,284203.25,255469.359375,257167.375,120862.0,1.0,3
234425.640625,282453.5625,290614.0,279277.5625,256443.359375,284716.96875,255937.40625,257841.421875,120863.0,1.0,3
235145.640625,283542.0,292005.625,279693.28125,257784.296875,285337.46875,256325.703125,258421.578125,120864.0,1.0,3
235033.515625,283098.1875,291260.6875,279386.90625,257446.59375,285220.4375,256100.21875,258096.671875,120865.0,1.0,3
234225.8125,281717.46875,289400.03125,278778.3125,255895.921875,284511.15625,255570.390625,257317.9375,120866.0,1.0,3
233842.890625,281309.15625,288988.5,278704.1875,255266.40625,284188.5,255459.078125,257150.03125,120867.0,1.0,3
234415.265625,282435.5,290591.8125,279270.65625,256430.21875,284701.59375,255936.25,257831.140625,120868.0,1.0,3
235137.328125,283529.125,292000.78125,279695.96875,257782.59375,285333.8125,256337.6875,258422.921875,120869.0,1.0,3
235024.21875,283092.0,291270.875,279388.59375,257460.71875,285224.625,256122.03125,258107.59375,120870.0,1.0,3
234224.75,281719.625,289409.875,278776.59375,255910.40625,284523.0625,255589.078125,257326.265625,120871.0,1.0,3
233837.53125,281302.25,288980.96875,278703.8125,255268.203125,284200.375,255474.734375,257160.140625,120872.0,1.0,3
234398.734375,282417.4375,290572.5,279267.28125,256417.609375,284697.65625,255935.359375,257836.328125,120873.0,1.0,3
235126.328125,283522.40625,291989.78125,279690.15625,257769.1875,285322.90625,256332.234375,258418.453125,120874.0,1.0,3
235033.609375,283109.8125,291286.6875,279399.3125,257470.65625,285230.53125,256128.921875,258113.3125,120875.0,1.0,3
234237.984375,281739.71875,289428.1875,278791.625,255926.859375,284535.9375,255601.859375,257333.859375,120876.0,1.0,3
233846.640625,281312.53125,288983.5625,278710.0,255271.421875,284205.40625,255480.546875,257154.421875,120877.0,1.0,3
234402.578125,282414.84375,290560.09375,279266.46875,256407.421875,284693.125,255925.78125,257817.109375,120878.0,1.0,3
235127.75,283520.09375,291985.15625,279696.15625,257766.765625,285324.6875,256327.765625,258417.03125,120879.0,1.0,3
235041.84375,283121.34375,291298.3125,279410.9375,257476.546875,285234.125,256126.328125,258121.359375,120880.0,1.0,3
234251.390625,281753.6875,289442.6875,278803.34375,255935.984375,284540.9375,255599.1875,257337.078125,120881.0,1.0,3
233850.578125,281308.875,288977.9375,278713.75,255264.53125,284203.15625,255471.25,257148.515625,120882.0,1.0,3
234392.296875,282399.46875,290543.09375,279266.375,256385.875,284683.53125,255919.53125,257813.4375,120883.0,1.0,3
235122.296875,283517.5,291980.21875,279700.0,257749.875,285314.5,256329.1875,258412.46875,120884.0,1.0,3
235043.71875,283131.625,291312.0,279419.875,257479.5,285236.78125,256142.0625,258126.359375,120885.0,1.0,3
234252.640625,281760.84375,289452.0625,278808.0,255941.25,284540.03125,255605.4375,257341.71875,120886.0,1.0,3
233845.390625,281300.375,288960.875,278706.5,255249.6875,284181.625,255467.125,257142.4375,120887.0,1.0,3
234388.546875,282388.65625,290520.75,279259.21875,256368.703125,284671.5625,255920.515625,257812.359375,120888.0,1.0,3
235123.734375,283514.8125,291972.1875,279695.78125,257745.9375,285308.21875,256322.046875,258409.328125,120889.0,1.0,3
235053.015625,283142.625,291321.28125,279417.28125,257492.828125,285230.0,256131.78125,258135.21875,120890.0,1.0,3
234266.3125,281773.96875,289461.71875,278805.03125,255956.546875,284539.15625,255605.359375,257349.6875,120891.0,1.0,3
233850.046875,281299.84375,288955.5,278699.28125,255253.359375,284185.8125,255463.375,257140.375,120892.0,1.0,3
234384.515625,282375.5,290501.15625,279244.28125,256355.5625,284663.6875,255908.703125,257799.578125,120893.0,1.0,3
235122.390625,283506.78125,291968.15625,279687.84375,257742.359375,285309.65625,256329.1875,258416.390625,120894.0,1.0,3
235052.390625,283139.84375,291333.46875,279415.25,257501.140625,285239.9375,256142.515625,258142.28125,120895.0,1.0,3
234264.984375,281769.78125,289467.71875,278799.59375,255966.015625,284550.59375,255606.34375,257339.578125,120896.0,1.0,3
233843.609375,281282.0625,288937.96875,278687.65625,255245.125,284184.65625,255462.75,257125.359375,120897.0,1.0,3
234377.546875,282358.25,290480.5,279239.375,256341.0,284661.5625,255909.421875,257780.265625,120898.0,1.0,3
235121.234375,283504.8125,291960.5625,279690.4375,257736.71875,285309.5625,256330.53125,258401.109375,120899.0,1.0,3
235060.515625,283157.46875,291351.15625,279425.34375,257519.015625,285256.65625,256155.5625,258142.0,120900.0,1.0,3
234266.765625,281786.3125,289485.78125,278808.78125,255983.09375,284557.21875,255613.75,257352.90625,120901.0,1.0,3
233832.078125,281281.875,288933.78125,278689.4375,255242.453125,284178.3125,255450.140625,257123.296875,120902.0,1.0,3
234362.875,282354.03125,290466.03125,279240.53125,256325.4375,284649.125,255900.9375,257777.40625,120903.0,1.0,3
235118.8125,283518.75,291968.96875,279704.03125,257734.046875,285308.3125,256332.046875,258408.4375,120904.0,1.0,3
235067.3125,283184.375,291379.40625,279445.1875,257533.0625,285257.53125,256158.78125,258154.53125,120905.0,1.0,3
234277.046875,281812.0625,289513.03125,278824.15625,256000.171875,284565.09375,255623.40625,257366.84375,120906.0,1.0,3
233835.203125,281292.78125,288942.1875,278696.9375,255243.96875,284188.6875,255466.234375,257128.484375,120907.0,1.0,3
234352.421875,282345.1875,290455.84375,279238.46875,256312.5625,284649.3125,255905.671875,257769.1875,120908.0,1.0,3
235105.859375,283506.59375,291959.21875,279697.40625,257721.53125,285303.59375,256335.453125,258399.40625,120909.0,1.0,3
235060.875,283183.46875,291386.75,279442.25,257533.140625,285251.71875,256159.59375,258149.078125,120910.0,1.0,3
234278.75,281814.75,289522.875,278822.1875,256006.796875,284564.1875,255630.296875,257364.078125,120911.0,1.0,3
233838.5,281286.78125,288936.625,278690.5,255245.671875,284187.25,255472.21875,257118.65625,120912.0,1.0,3
234338.921875,282317.125,290430.28125,279218.09375,256296.828125,284630.78125,255894.9375,257751.65625,120913.0,1.0,3
235095.296875,283484.78125,291945.09375,279680.96875,257712.40625,285289.375,256330.796875,258390.5625,120914.0,1.0,3
235070.09375,283182.9375,291393.8125,279434.5625,257547.09375,285255.5625,256163.703125,258145.5,120915.0,1.0,3
234287.421875,281817.78125,289533.96875,278819.15625,256028.875,284574.46875,255632.265625,257369.265625,120916.0,1.0,3
233834.578125,281277.59375,288929.21875,278684.6875,255254.34375,284192.96875,255469.1875,257129.921875,120917.0,1.0,3
234339.640625,282310.78125,290411.65625,279214.6875,256293.34375,284640.8125,255894.859375,257754.421875,120918.0,1.0,3
235091.453125,283476.375,291934.1875,279681.59375,257712.765625,285294.90625,256324.625,258393.15625,120919.0,1.0,3
235067.140625,283186.6875,291404.53125,279443.75,257564.796875,285267.90625,256165.125,258160.6875,120920.0,1.0,3
234300.921875,281834.21875,289548.09375,278831.6875,256051.671875,284587.875,255627.609375,257381.875,120921.0,1.0,3
233843.15625,281278.46875,288923.65625,278693.09375,255260.59375,284201.46875,255459.265625,257134.21875,120922.0,1.0,3
234330.515625,282292.53125,290397.09375,279220.5,256285.734375,284636.0625,255881.359375,257755.953125,120923.0,1.0,3
235095.21875,283480.40625,291936.0625,279694.375,257713.921875,285295.96875,256321.5,258399.328125,120924.0,1.0,3
235084.9375,283207.875,291428.59375,279462.09375,257578.03125,285273.4375,256171.828125,258189.125,120925.0,1.0,3
234306.734375,281843.53125,289570.25,278843.75,256063.03125,284594.40625,255637.09375,257396.71875,120926.0,1.0,3
233835.375,281269.09375,288916.34375,278687.90625,255247.1875,284196.375,255455.78125,257117.3125,120927.0,1.0,3
234325.0625,282281.71875,290373.5,279210.9375,256258.375,284627.9375,255880.015625,257738.0625,120928.0,1.0,3
235087.078125,283469.65625,291919.6875,279686.40625,257689.078125,285283.28125,256318.375,258384.65625,120929.0,1.0,3
235088.15625,283214.75,291437.625,279467.8125,257580.890625,285279.8125,256182.296875,258177.0625,120930.0,1.0,3
234318.71875,281857.03125,289580.71875,278847.0625,256070.890625,284606.03125,255656.40625,257393.765625,120931.0,1.0,3
233845.84375,281270.34375,288912.03125,278686.9375,255244.0625,284201.71875,255470.96875,257120.796875,120932.0,1.0,3
234324.703125,282263.84375,290362.5,279207.625,256249.078125,284625.25,255885.828125,257738.515625,120933.0,1.0,3
235085.28125,283455.8125,291918.34375,279682.5625,257687.8125,285280.59375,256326.0625,258390.296875,120934.0,1.0,3
235097.984375,283224.40625,291456.125,279467.375,257597.4375,285283.46875,256191.6875,258187.34375,120935.0,1.0,3
234324.34375,281864.71875,289595.84375,278846.25,256092.984375,284608.875,255653.984375,257395.453125,120936.0,1.0,3
233830.375,281255.15625,288900.6875,278674.0625,255245.125,284188.21875,255455.953125,257106.40625,120937.0,1.0,3
234308.515625,282250.96875,290339.6875,279193.5,256237.28125,284612.8125,255872.40625,257719.734375,120938.0,1.0,3
235073.578125,283451.875,291909.6875,279676.9375,257687.109375,285284.09375,256320.96875,258380.1875,120939.0,1.0,3
235087.703125,283223.78125,291461.5625,279462.8125,257607.796875,285285.78125,256186.40625,258182.0625,120940.0,1.0,3
234330.25,281876.53125,289606.90625,278844.28125,256108.625,284614.6875,255654.703125,257400.5625,120941.0,1.0,3
233842.265625,281263.09375,288902.9375,278671.8125,255257.296875,284199.21875,255459.0,257112.671875,120942.0,1.0,3
234300.46875,282230.21875,290320.375,279179.125,256230.484375,284603.25,255860.15625,257712.234375,120943.0,1.0,3
235066.0625,283437.03125,291897.15625,279669.59375,257684.25,285273.8125,256311.75,258376.609375,120944.0,1.0,3
235094.859375,283231.3125,291470.25,279465.40625,257621.84375,285290.53125,256187.484375,258195.46875,120945.0,1.0,3
234329.703125,281877.3125,289615.59375,278844.0,256121.765625,284620.34375,255651.3125,257400.015625,120946.0,1.0,3
233833.140625,281248.78125,288888.96875,278666.53125,255252.640625,284191.96875,255452.109375,257101.21875,120947.0,1.0,3
234292.0625,282219.65625,290299.65625,279175.0,256215.640625,284605.5,255865.4375,257703.734375,120948.0,1.0,3
235059.1875,283429.875,291887.5,279666.90625,257670.828125,285270.59375,256315.875,258376.796875,120949.0,1.0,3
235092.078125,283232.125,291473.125,279467.53125,257620.59375,285283.46875,256194.640625,258203.609375,120950.0,1.0,3
234329.359375,281879.46875,289614.34375,278843.9375,256122.296875,284612.65625,255659.625,257414.40625,120951.0,1.0,3
233823.671875,281235.75,288866.4375,278656.8125,255233.78125,284178.65625,255449.25,257097.46875,120952.0,1.0,3
234271.0625,282188.8125,290264.9375,279165.53125,256180.328125,284578.21875,255851.40625,257696.140625,120953.0,1.0,3
235046.84375,283411.0,291871.25,279670.3125,257651.515625,285257.96875,256313.8125,258375.71875,120954.0,1.0,3
235087.171875,283227.28125,291478.21875,279475.21875,257622.90625,285289.71875,256198.65625,258204.328125,120955.0,1.0,3
234334.53125,281883.3125,289627.21875,278853.84375,256135.984375,284619.53125,255664.625,257420.046875,120956.0,1.0,3
233824.828125,281228.5,288866.625,278666.28125,255241.203125,284180.0,255454.875,257114.453125,120957.0,1.0,3
234271.859375,282178.4375,290252.0,279166.0625,256178.359375,284581.1875,255855.515625,257703.828125,120958.0,1.0,3
235050.328125,283409.40625,291860.96875,279663.625,257646.609375,285262.53125,256316.9375,258381.171875,120959.0,1.0,3
235104.25,283242.21875,291493.84375,279476.3125,257635.875,285299.375,256202.328125,258222.296875,120960.0,1.0,3
234347.234375,281893.59375,289643.40625,278853.5,256151.359375,284633.46875,255664.09375,257432.03125,120961.0,1.0,3
233826.609375,281227.59375,288858.40625,278654.125,255238.0625,284184.65625,255438.078125,257102.390625,120962.0,1.0,3
234261.40625,282165.03125,290227.84375,279147.03125,256158.515625,284570.0,255830.5625,257675.484375,120963.0,1.0,3
235038.265625,283400.5625,291844.40625,279649.75,257628.0,285249.65625,256294.140625,258356.5,120964.0,1.0,3
235107.734375,283255.625,291503.34375,279476.84375,257641.5,285298.21875,256191.328125,258205.578125,120965.0,1.0,3
234359.921875,281913.4375,289661.46875,278858.5,256168.265625,284639.1875,255663.46875,257426.484375,120966.0,1.0,3
233828.3125,281227.34375,288855.1875,278652.78125,255238.25,284181.53125,255438.875,257093.4375,120967.0,1.0,3
234262.75,282162.28125,290218.8125,279154.4375,256151.265625,284568.21875,255832.09375,257672.625,120968.0,1.0,3
235050.421875,283412.625,291851.9375,279668.53125,257634.625,285257.0,256307.375,258365.078125,120969.0,1.0,3
235126.328125,283284.3125,291531.65625,279503.40625,257665.921875,285321.09375,256223.953125,258231.421875,120970.0,1.0,3
234375.578125,281942.6875,289690.34375,278882.1875,256194.359375,284660.65625,255694.046875,257447.3125,120971.0,1.0,3
233843.515625,281249.96875,288868.5,278669.6875,255255.0625,284198.25,255462.125,257104.265625,120972.0,1.0,3
234262.03125,282163.6875,290212.28125,279162.84375,256153.15625,284572.5,255847.109375,257677.453125,120973.0,1.0,3
235038.96875,283402.78125,291841.1875,279667.1875,257627.03125,285245.46875,256306.21875,258357.921875,120974.0,1.0,3
235117.203125,283275.125,291529.96875,279494.625,257664.125,285299.90625,256205.71875,258214.15625,120975.0,1.0,3
234372.171875,281936.6875,289688.09375,278874.6875,256195.4375,284643.9375,255675.09375,257437.390625,120976.0,1.0,3
233820.0,281216.0625,288840.34375,278651.6875,255232.890625,284176.34375,255435.390625,257089.421875,120977.0,1.0,3
234230.296875,282116.59375,290167.59375,279134.9375,256110.328125,284539.25,255812.859375,257654.296875,120978.0,1.0,3
235020.015625,283373.90625,291816.6875,279653.5,257597.96875,285225.625,256285.296875,258345.765625,120979.0,1.0,3
235119.171875,283273.59375,291537.65625,279503.9375,257666.546875,285305.09375,256210.546875,258226.40625,120980.0,1.0,3
234388.546875,281946.4375,289703.9375,278888.1875,256210.90625,284660.75,255684.390625,257450.171875,120981.0,1.0,3
233838.15625,281221.0,288839.28125,278654.28125,255235.203125,284175.4375,255424.84375,257083.15625,120982.0,1.0,3
234245.578125,282116.59375,290156.59375,279135.21875,256104.421875,284536.125,255802.9375,257643.46875,120983.0,1.0,3
235035.9375,283375.4375,291814.28125,279656.1875,257603.0625,285226.4375,256288.328125,258351.21875,120984.0,1.0,3
235126.234375,283277.25,291541.15625,279494.375,257672.703125,285296.59375,256195.703125,258223.015625,120985.0,1.0,3
234387.734375,281950.1875,289707.0625,278873.4375,256217.796875,284652.6875,255667.140625,257445.53125,120986.0,1.0,3
233835.296875,281219.90625,288834.625,278645.25,255240.484375,284183.75,255426.984375,257088.703125,120987.0,1.0,3
234234.140625,282102.8125,290139.15625,279124.3125,256097.0,284539.59375,255808.84375,257649.828125,120988.0,1.0,3
235024.84375,283369.8125,291803.03125,279644.84375,257592.0625,285226.0625,256285.03125,258340.046875,120989.0,1.0,3
235128.375,283291.125,291552.0625,279496.5,257679.859375,285302.6875,256203.484375,258226.40625,120990.0,1.0,3
234394.796875,281968.25,289722.625,278880.75,256228.875,284657.0,255683.671875,257460.640625,120991.0,1.0,3
233831.0,281217.9375,288825.59375,278640.53125,255232.34375,284175.09375,255431.09375,257074.84375,120992.0,1.0,3
234230.296875,282097.28125,290120.65625,279120.5625,256082.078125,284530.84375,255807.765625,257629.96875,120993.0,1.0,3
235019.03125,283364.34375,291791.84375,279645.625,257582.046875,285220.875,256292.890625,258339.78125,120994.0,1.0,3
235127.9375,283297.28125,291557.40625,279498.65625,257685.671875,285306.0,256216.53125,258222.65625,120995.0,1.0,3
234406.15625,281978.28125,289727.4375,278880.40625,256244.25,284660.03125,255692.4375,257450.796875,120996.0,1.0,3
233833.328125,281212.0625,288812.71875,278635.4375,255236.375,284175.53125,255434.9375,257074.75,120997.0,1.0,3
234217.328125,282070.4375,290088.65625,279107.0625,256065.703125,284518.84375,255797.21875,257621.390625,120998.0,1.0,3
235011.890625,283342.34375,291765.375,279634.8125,257567.921875,285202.09375,256270.1875,258326.453125,120999.0,1.0,3
235133.125,283292.5625,291556.34375,279496.59375,257690.140625,285298.9375,256196.875,258224.890625,121000.0,1.0,3
234411.34375,281978.34375,289738.78125,278883.34375,256257.390625,284670.84375,255677.421875,257462.609375,121001.0,1.0,3
233834.484375,281204.4375,288812.53125,278638.5625,255239.40625,284183.21875,255419.5625,257087.625,121002.0,1.0,3
234222.25,282063.125,290077.375,279106.15625,256057.03125,284524.125,255789.265625,257627.921875,121003.0,1.0,3
235012.328125,283337.78125,291760.65625,279634.5625,257560.5,285210.25,256273.21875,258332.71875,121004.0,1.0,3
235139.5625,283302.21875,291572.625,279506.6875,257700.78125,285315.75,256217.515625,258242.59375,121005.0,1.0,3
234419.65625,281992.03125,289754.15625,278888.375,256268.484375,284678.53125,255692.609375,257474.765625,121006.0,1.0,3
233848.96875,281213.9375,288809.3125,278634.90625,255235.75,284182.59375,255436.734375,257091.828125,121007.0,1.0,3
234213.921875,282049.875,290055.75,279095.25,256033.4375,284509.65625,255795.25,257609.140625,121008.0,1.0,3
234999.90625,283328.21875,291751.53125,279624.4375,257539.046875,285193.15625,256277.328125,258315.1875,121009.0,1.0,3
235141.078125,283316.0625,291589.53125,279505.28125,257698.546875,285303.5,256223.6875,258240.984375,121010.0,1.0,3
234435.75,282020.375,289783.5,278896.5,256282.078125,284674.5,255700.65625,257476.28125,121011.0,1.0,3
233850.484375,281224.21875,288816.1875,278633.375,255233.328125,284166.78125,255427.171875,257074.671875,121012.0,1.0,3
234204.265625,282047.90625,290048.0625,279097.75,256020.5625,284493.09375,255787.65625,257603.515625,121013.0,1.0,3
234998.921875,283338.15625,291753.03125,279639.90625,257534.75,285189.9375,256284.125,258331.734375,121014.0,1.0,3
235151.09375,283339.03125,291608.125,279523.59375,257712.40625,285316.28125,256236.296875,258252.78125,121015.0,1.0,3
234433.59375,282032.34375,289796.28125,278907.0625,256296.375,284686.03125,255704.328125,257484.515625,121016.0,1.0,3
233837.96875,281219.90625,288808.5,278636.78125,255234.5,284167.03125,255413.3125,257070.203125,121017.0,1.0,3
234197.65625,282042.5625,290032.5,279095.34375,256011.4375,284494.625,255770.484375,257592.609375,121018.0,1.0,3
235000.796875,283343.0625,291747.9375,279643.21875,257533.6875,285197.0,256262.140625,258319.125,121019.0,1.0,3
235158.328125,283355.125,291618.65625,279534.15625,257724.390625,285326.65625,256218.421875,258258.421875,121020.0,1.0,3
234448.4375,282059.34375,289814.875,278920.1875,256318.015625,284711.09375,255710.046875,257502.03125,121021.0,1.0,3
233850.3125,281237.4375,288812.53125,278642.125,255243.171875,284196.90625,255436.28125,257082.453125,121022.0,1.0,3
234200.15625,282040.125,290013.09375,279091.40625,255997.765625,284506.34375,255792.75,257598.859375,121023.0,1.0,3
234995.4375,283337.53125,291730.78125,279636.6875,257515.0,285203.71875,256300.21875,258335.3125,121024.0,1.0,3
235161.640625,283367.5625,291626.71875,279536.03125,257723.140625,285341.5,256278.3125,258287.828125,121025.0,1.0,3
234461.578125,282078.03125,289829.28125,278923.3125,256321.234375,284725.5625,255762.625,257517.234375,121026.0,1.0,3
233860.234375,281245.65625,288810.5625,278637.84375,255230.640625,284202.09375,255478.484375,257090.140625,121027.0,1.0,3
234195.515625,282034.78125,289996.375,279079.96875,255968.078125,284505.4375,255825.734375,257592.0625,121028.0,1.0,3
234993.28125,283337.96875,291718.96875,279627.125,257487.453125,285199.40625,256317.390625,258320.015625,121029.0,1.0,3
235168.171875,283385.4375,291633.875,279534.5,257713.75,285340.0625,256285.828125,258278.265625,121030.0,1.0,3
234467.9375,282103.15625,289843.03125,278922.59375,256324.09375,284730.84375,255771.203125,257523.484375,121031.0,1.0,3
233859.609375,281259.96875,288808.34375,278633.28125,255227.34375,284207.28125,255472.21875,257094.515625,121032.0,1.0,3
234195.328125,282043.53125,289982.0625,279074.96875,255955.65625,284511.96875,255808.9375,257598.765625,121033.0,1.0,3
234993.640625,283348.25,291708.4375,279620.59375,257477.09375,285203.4375,256288.15625,258325.921875,121034.0,1.0,3
235177.828125,283405.03125,291642.28125,279533.0,257721.34375,285352.5625,256256.59375,258294.453125,121035.0,1.0,3
234479.203125,282114.0,289851.09375,278919.28125,256333.390625,284734.0625,255724.265625,257536.90625,121036.0,1.0,3
233862.46875,281255.5,288800.75,278628.46875,255228.859375,284208.25,255420.28125,257101.671875,121037.0,1.0,3
234191.3125,282027.09375,289961.9375,279070.125,255949.296875,284510.53125,255767.453125,257609.859375,121038.0,1.0,3
234994.890625,283337.0625,291702.34375,279624.90625,257476.546875,285205.0625,256265.359375,258343.890625,121039.0,1.0,3
235185.78125,283407.96875,291657.8125,279543.8125,257738.6875,285365.28125,256255.875,258311.4375,121040.0,1.0,3
234489.296875,282124.28125,289870.21875,278927.875,256358.78125,284751.9375,255738.921875,257555.671875,121041.0,1.0,3
233856.484375,281242.0,288796.625,278623.09375,255234.671875,284208.625,255431.546875,257097.015625,121042.0,1.0,3
234177.453125,282001.59375,289948.90625,279063.5,255939.828125,284501.15625,255780.234375,257593.578125,121043.0,1.0,3
234977.90625,283313.28125,291697.6875,279619.53125,257467.796875,285199.34375,256289.046875,258326.90625,121044.0,1.0,3
235176.65625,283398.84375,291675.15625,279546.3125,257745.21875,285371.53125,256293.25,258311.515625,121045.0,1.0,3
234489.65625,282124.8125,289898.65625,278941.46875,256376.75,284770.90625,255791.234375,257563.90625,121046.0,1.0,3
233856.390625,281237.71875,288809.3125,278633.5625,255237.796875,284221.125,255482.234375,257110.703125,121047.0,1.0,3
234166.8125,281981.9375,289935.03125,279058.5,255916.671875,284490.96875,255805.53125,257588.484375,121048.0,1.0,3
234962.984375,283294.53125,291691.875,279619.09375,257447.765625,285192.4375,256308.265625,258325.296875,121049.0,1.0,3
235171.296875,283402.875,291691.0,279553.8125,257742.265625,285366.53125,256301.125,258322.34375,121050.0,1.0,3
234486.34375,282136.6875,289921.0,278945.40625,256380.15625,284766.5,255790.609375,257574.09375,121051.0,1.0,3
233858.53125,281249.59375,288821.3125,278635.96875,255236.28125,284225.34375,255470.53125,257100.421875,121052.0,1.0,3
234164.578125,281989.625,289933.625,279060.5625,255908.078125,284498.03125,255782.734375,257574.265625,121053.0,1.0,3
234957.890625,283307.3125,291687.6875,279613.375,257441.0625,285192.8125,256273.21875,258300.796875,121054.0,1.0,3
235173.0,283426.46875,291706.0,279551.21875,257754.875,285370.28125,256272.0625,258303.5625,121055.0,1.0,3
234507.71875,282174.59375,289947.65625,278946.5625,256407.15625,284774.375,255759.21875,257559.515625,121056.0,1.0,3
233864.796875,281262.84375,288823.96875,278623.34375,255244.953125,284212.8125,255433.6875,257086.296875,121057.0,1.0,3
234151.875,281978.71875,289913.84375,279040.625,255899.40625,284478.1875,255754.3125,257558.625,121058.0,1.0,3
234951.53125,283301.40625,291677.125,279603.875,257437.65625,285177.78125,256262.140625,258307.140625,121059.0,1.0,3
235176.484375,283435.34375,291716.375,279549.625,257765.34375,285372.4375,256282.078125,258318.9375,121060.0,1.0,3
234506.828125,282178.8125,289956.84375,278942.71875,256418.6875,284773.65625,255770.484375,257563.90625,121061.0,1.0,3
233858.265625,281253.25,288815.03125,278619.15625,255252.28125,284211.03125,255446.390625,257085.125,121062.0,1.0,3
234141.0625,281958.15625,289889.09375,279031.0625,255889.84375,284471.65625,255772.71875,257549.59375,121063.0,1.0,3
234941.25,283283.59375,291657.1875,279597.28125,257425.953125,285179.46875,256288.78125,258297.9375,121064.0,1.0,3
235170.578125,283422.46875,291710.65625,279546.125,257766.765625,285368.3125,256289.671875,258307.5,121065.0,1.0,3
234503.15625,282170.3125,289958.5625,278940.65625,256425.578125,284777.96875,255786.671875,257565.25,121066.0,1.0,3
233859.96875,281251.21875,288816.125,278624.6875,255254.15625,284230.15625,255472.9375,257096.65625,121067.0,1.0,3
234129.96875,281938.9375,289870.03125,279030.59375,255871.078125,284469.5,255771.296875,257551.828125,121068.0,1.0,3
234940.890625,283271.625,291644.9375,279601.375,257412.171875,285169.28125,256272.0625,258292.921875,121069.0,1.0,3
235182.734375,283425.84375,291719.96875,279561.875,257774.28125,285368.59375,256283.421875,258316.890625,121070.0,1.0,3
234515.765625,282173.625,289969.8125,278958.28125,256436.921875,284779.21875,255777.8125,257578.828125,121071.0,1.0,3
233860.234375,281237.34375,288799.40625,278624.15625,255243.796875,284215.84375,255454.96875,257105.421875,121072.0,1.0,3
234134.796875,281928.03125,289845.90625,279027.21875,255851.40625,284462.25,255755.46875,257551.296875,121073.0,1.0,3
234934.1875,283256.4375,291625.625,279592.09375,257391.4375,285159.625,256252.84375,258282.734375,121074.0,1.0,3
235179.96875,283428.71875,291721.46875,279554.4375,257766.5,285365.0,256271.96875,258317.875,121075.0,1.0,3
234533.109375,282198.46875,289985.09375,278955.78125,256447.75,284779.21875,255761.71875,257579.640625,121076.0,1.0,3
233866.40625,281246.84375,288800.90625,278615.5,255248.265625,284214.34375,255433.25,257090.765625,121077.0,1.0,3
234125.765625,281916.75,289831.0625,279013.8125,255844.609375,284458.0625,255739.828125,257538.0625,121078.0,1.0,3
234930.609375,283249.90625,291615.625,279583.9375,257386.703125,285153.09375,256248.015625,258294.984375,121079.0,1.0,3
235180.953125,283433.46875,291728.90625,279553.375,257778.75,285368.59375,256277.25,258325.296875,121080.0,1.0,3
234533.015625,282203.40625,289999.5,278955.875,256471.890625,284792.09375,255781.9375,257583.390625,121081.0,1.0,3
233869.703125,281244.0625,288800.09375,278609.0625,255264.0,284219.25,255446.75,257089.859375,121082.0,1.0,3
234112.453125,281892.96875,289810.59375,279000.9375,255841.828125,284451.25,255747.0625,257529.84375,121083.0,1.0,3
234912.734375,283230.15625,291603.8125,279577.0625,257386.078125,285147.46875,256250.78125,258277.1875,121084.0,1.0,3
235177.5625,283435.6875,291737.3125,279551.125,257793.5,285365.28125,256281.890625,258318.765625,121085.0,1.0,3
234525.515625,282203.03125,290008.8125,278951.65625,256490.390625,284793.875,255795.515625,257594.75,121086.0,1.0,3
233850.046875,281227.59375,288791.09375,278601.1875,255268.46875,284219.4375,255466.140625,257093.625,121087.0,1.0,3
234092.25,281870.34375,289784.03125,278987.59375,255826.359375,284443.03125,255758.15625,257516.15625,121088.0,1.0,3
234904.0625,283217.09375,291583.09375,279568.84375,257370.421875,285147.375,256263.296875,258257.609375,121089.0,1.0,3
235176.578125,283430.5,291739.375,279552.46875,257791.890625,285366.0625,256291.90625,258314.734375,121090.0,1.0,3
234539.09375,282212.34375,290029.28125,278964.8125,256501.390625,284802.46875,255804.734375,257601.0,121091.0,1.0,3
233864.4375,281232.0,288800.46875,278616.75,255272.671875,284220.9375,255458.8125,257099.609375,121092.0,1.0,3
234095.734375,281859.71875,289772.15625,278996.09375,255813.9375,284431.875,255740.09375,257508.015625,121093.0,1.0,3
234903.078125,283208.875,291573.5,279576.875,257357.28125,285134.875,256258.109375,258259.9375,121094.0,1.0,3
235185.25,283443.1875,291752.3125,279569.1875,257799.40625,285368.21875,256298.875,258333.34375,121095.0,1.0,3
234545.359375,282231.28125,290042.59375,278975.8125,256512.125,284802.53125,255800.796875,257610.65625,121096.0,1.0,3
233865.59375,281240.84375,288792.6875,278612.1875,255264.625,284213.53125,255442.984375,257080.84375,121097.0,1.0,3
234089.734375,281857.375,289747.71875,278986.1875,255792.21875,284421.21875,255726.40625,257496.125,121098.0,1.0,3
234893.515625,283204.46875,291553.125,279569.28125,257339.484375,285124.0625,256243.625,258257.875,121099.0,1.0,3
235182.109375,283449.8125,291752.6875,279566.15625,257799.3125,285367.25,256291.640625,258332.4375,121100.0,1.0,3
234561.28125,282252.46875,290058.0625,278979.03125,256529.1875,284812.90625,255807.953125,257619.953125,121101.0,1.0,3
233880.0,281253.71875,288795.625,278608.53125,255278.296875,284213.09375,255451.65625,257086.109375,121102.0,1.0,3
234089.203125,281852.75,289733.53125,278976.96875,255790.6875,284422.90625,255739.109375,257503.640625,121103.0,1.0,3
234886.53125,283198.6875,291544.28125,279564.375,257336.359375,285125.125,256255.4375,258270.671875,121104.0,1.0,3
235188.828125,283465.1875,291768.25,279574.375,257816.75,285373.75,256311.578125,258345.3125,121105.0,1.0,3
234563.328125,282263.21875,290078.375,278987.0625,256554.765625,284819.1875,255821.625,257626.046875,121106.0,1.0,3
233876.421875,281250.9375,288796.96875,278612.625,255289.125,284221.65625,255459.796875,257097.5625,121107.0,1.0,3
234078.828125,281832.8125,289712.96875,278971.875,255778.09375,284411.5625,255728.46875,257481.375,121108.0,1.0,3
234879.828125,283179.0,291527.03125,279554.71875,257320.625,285112.6875,256242.734375,258231.859375,121109.0,1.0,3
235194.984375,283463.125,291775.40625,279572.15625,257817.015625,285382.53125,256313.28125,258333.96875,121110.0,1.0,3
234581.484375,282276.34375,290096.25,278989.21875,256567.109375,284838.5,255832.796875,257628.71875,121111.0,1.0,3
233884.375,281247.625,288800.46875,278609.3125,255291.4375,284229.0,255461.046875,257088.53125,121112.0,1.0,3
234072.9375,281812.875,289695.6875,278963.28125,255760.5625,284410.59375,255720.234375,257470.109375,121113.0,1.0,3
234871.15625,283163.625,291514.9375,279556.5,257305.15625,285116.8125,256238.890625,258238.5625,121114.0,1.0,3
235178.625,283453.46875,291775.65625,279574.65625,257810.390625,285378.0625,256302.015625,258337.984375,121115.0,1.0,3
234574.0625,282279.84375,290106.6875,278994.21875,256571.75,284837.21875,255821.0,257631.671875,121116.0,1.0,3
233886.78125,281258.625,288806.09375,278614.40625,255293.59375,284240.875,255456.765625,257092.1875,121117.0,1.0,3
234077.671875,281823.25,289694.1875,278968.90625,255757.4375,284417.125,255717.296875,257478.96875,121118.0,1.0,3
234868.03125,283168.8125,291512.90625,279555.96875,257298.359375,285106.4375,256231.375,258246.078125,121119.0,1.0,3
235189.890625,283477.71875,291798.375,279580.90625,257826.578125,285383.78125,256302.8125,258347.28125,121120.0,1.0,3
234585.40625,282307.90625,290136.28125,279000.125,256594.28125,284849.65625,255828.953125,257650.625,121121.0,1.0,3
233882.5,281268.1875,288814.15625,278605.65625,255297.875,284236.15625,255452.015625,257093.265625,121122.0,1.0,3
234058.8125,281805.625,289673.78125,278945.65625,255738.75,284393.25,255700.578125,257445.4375,121123.0,1.0,3
234856.5,283154.875,291492.875,279537.46875,257281.46875,285091.6875,256228.4375,258219.96875,121124.0,1.0,3
235187.03125,283478.4375,291798.375,279571.96875,257826.578125,285378.875,256312.296875,258342.375,121125.0,1.0,3
234588.546875,282318.5625,290149.0,278996.625,256611.0,284855.90625,255847.734375,257649.28125,121126.0,1.0,3
233880.4375,281267.9375,288809.3125,278601.625,255309.328125,284244.5625,255473.65625,257099.96875,121127.0,1.0,3
234053.703125,281799.0,289653.9375,278939.875,255737.578125,284405.84375,255716.578125,257448.03125,121128.0,1.0,3
234847.375,283148.59375,291479.1875,279534.59375,257283.703125,285096.78125,256239.78125,258215.859375,121129.0,1.0,3
235185.25,283483.875,291795.5,279568.46875,257836.6875,285375.8125,256314.4375,258341.828125,121130.0,1.0,3
234590.78125,282325.34375,290150.34375,278992.4375,256623.34375,284846.96875,255830.5625,257648.84375,121131.0,1.0,3
233872.921875,281256.46875,288801.8125,278593.9375,255310.40625,284230.25,255453.1875,257087.984375,121132.0,1.0,3
234036.984375,281772.625,289631.6875,278931.90625,255721.671875,284382.6875,255694.21875,257437.296875,121133.0,1.0,3
234836.921875,283125.71875,291459.6875,279529.40625,257260.640625,285079.25,256213.859375,258210.578125,121134.0,1.0,3
235185.421875,283472.96875,291802.3125,279577.34375,257834.171875,285376.34375,256302.8125,258345.9375,121135.0,1.0,3
234597.03125,282322.46875,290169.28125,279003.25,256634.875,284859.59375,255833.078125,257655.453125,121136.0,1.0,3
233884.46875,281258.1875,288807.875,278600.125,255317.546875,284243.21875,255455.6875,257091.921875,121137.0,1.0,3
234034.671875,281756.34375,289614.4375,278929.75,255708.703125,284381.96875,255691.8125,257437.21875,121138.0,1.0,3
234816.171875,283099.15625,291436.625,279522.96875,257238.453125,285068.875,256205.546875,258200.296875,121139.0,1.0,3
235179.171875,283471.09375,291804.90625,279583.3125,257831.671875,285368.125,256302.1875,258349.609375,121140.0,1.0,3
234609.640625,282339.75,290185.125,279017.5625,256647.5625,284861.71875,255843.71875,257669.40625,121141.0,1.0,3
233886.609375,281258.625,288806.46875,278606.375,255314.875,284236.59375,255453.09375,257093.890625,121142.0,1.0,3
234023.140625,281738.21875,289591.375,278923.78125,255684.390625,284363.03125,255682.421875,257437.390625,121143.0,1.0,3
234819.65625,283095.6875,291425.625,279523.25,257222.90625,285062.90625,256207.515625,258200.84375,121144.0,1.0,3
235192.046875,283487.71875,291817.78125,279588.15625,257833.734375,285378.5,256315.15625,258354.4375,121145.0,1.0,3
234620.734375,282359.84375,290208.4375,279023.90625,256659.734375,284878.4375,255856.859375,257674.234375,121146.0,1.0,3
233897.15625,281270.4375,288818.875,278609.9375,255326.046875,284251.0,255459.984375,257094.421875,121147.0,1.0,3
234031.8125,281741.875,289585.625,278920.8125,255683.3125,284372.3125,255684.828125,257421.828125,121148.0,1.0,3
234825.828125,283100.78125,291422.3125,279521.8125,257223.984375,285068.0,256218.140625,258201.734375,121149.0,1.0,3
235202.046875,283504.625,291830.8125,279593.875,257849.375,285387.34375,256331.0625,258379.65625,121150.0,1.0,3
234626.09375,282375.15625,290222.75,279022.125,256674.84375,284876.65625,255845.859375,257676.46875,121151.0,1.0,3
233897.6875,281277.59375,288821.9375,278602.34375,255331.328125,284250.53125,255452.109375,257089.6875,121152.0,1.0,3
234021.53125,281732.5625,289574.375,278911.96875,255674.90625,284370.4375,255671.328125,257414.6875,121153.0,1.0,3
234816.4375,283091.03125,291412.84375,279515.1875,257215.03125,285059.9375,256192.671875,258183.671875,121154.0,1.0,3
235200.796875,283504.8125,291836.71875,279592.96875,257852.953125,285377.6875,256310.0625,258358.28125,121155.0,1.0,3
234636.640625,282386.21875,290245.09375,279033.1875,256698.171875,284883.8125,255852.46875,257685.3125,121156.0,1.0,3
233895.734375,281266.84375,288824.96875,278608.59375,255341.328125,284247.59375,255449.515625,257092.90625,121157.0,1.0,3
234017.859375,281711.84375,289556.65625,278914.375,255666.0625,284353.71875,255662.03125,257416.734375,121158.0,1.0,3
234802.765625,283059.90625,291388.1875,279512.0625,257192.953125,285034.46875,256177.921875,258182.59375,121159.0,1.0,3
235187.75,283483.875,291833.0625,279595.21875,257847.5,285365.71875,256293.609375,258356.765625,121160.0,1.0,3
234642.359375,282383.625,290255.375,279041.96875,256710.953125,284877.46875,255839.515625,257693.1875,121161.0,1.0,3
233904.671875,281263.0,288820.9375,278610.65625,255345.453125,284245.28125,255444.421875,257106.140625,121162.0,1.0,3
233998.375,281679.03125,289524.65625,278902.40625,255643.890625,284342.46875,255643.078125,257399.484375,121163.0,1.0,3
234788.8125,283037.46875,291365.90625,279509.125,257176.328125,285025.0,256168.703125,258180.453125,121164.0,1.0,3
235189.09375,283486.125,291835.65625,279599.59375,257848.484375,285366.34375,256302.8125,258376.4375,121165.0,1.0,3
234630.5625,282380.78125,290255.21875,279037.9375,256706.671875,284868.96875,255833.15625,257693.625,121166.0,1.0,3
233890.28125,281254.53125,288806.53125,278602.71875,255330.515625,284228.375,255420.546875,257079.859375,121167.0,1.0,3
233989.34375,281669.46875,289503.75,278895.6875,255621.984375,284327.0625,255628.234375,257384.90625,121168.0,1.0,3
234776.125,283027.71875,291348.21875,279501.5,257151.375,285016.9375,256157.890625,258168.296875,121169.0,1.0,3
235188.734375,283489.96875,291836.8125,279596.375,257838.203125,285365.1875,256295.9375,258365.703125,121170.0,1.0,3
234649.78125,282404.75,290277.90625,279040.625,256719.453125,284883.0,255837.09375,257698.28125,121171.0,1.0,3
233901.984375,281266.21875,288817.53125,278594.9375,255338.65625,284237.03125,255420.015625,257081.1875,121172.0,1.0,3
233991.484375,281664.90625,289493.5625,278883.53125,255612.59375,284326.0,255618.765625,257375.609375,121173.0,1.0,3
234778.625,283025.21875,291340.53125,279496.0625,257144.859375,285013.1875,256152.078125,258166.953125,121174.0,1.0,3
235194.640625,283499.625,291846.5625,279594.78125,257848.03125,285364.375,256286.8125,258365.4375,121175.0,1.0,3
234665.4375,282424.6875,290297.3125,279041.5,256740.109375,284894.625,255841.296875,257702.578125,121176.0,1.0,3
233915.9375,281280.71875,288826.75,278596.90625,255354.65625,284252.0625,255430.03125,257091.828125,121177.0,1.0,3
233987.546875,281655.34375,289479.25,278874.0625,255609.734375,284327.25,255613.9375,257369.53125,121178.0,1.0,3
234774.515625,283014.40625,291323.8125,279482.5625,257137.703125,285005.9375,256142.59375,258145.21875,121179.0,1.0,3
235199.1875,283501.125,291851.3125,279597.90625,257857.421875,285363.5625,256293.15625,258364.984375,121180.0,1.0,3
234674.734375,282435.6875,290314.5625,279052.4375,256762.375,284899.1875,255854.703125,257718.21875,121181.0,1.0,3
233924.0625,281281.4375,288829.34375,278602.96875,255368.875,284249.75,255436.90625,257099.4375,121182.0,1.0,3
233986.390625,281640.03125,289459.40625,278875.21875,255604.375,284320.71875,255620.546875,257367.75,121183.0,1.0,3
234766.828125,282994.375,291309.5,279487.5625,257128.765625,285009.625,256151.984375,258146.921875,121184.0,1.0,3
235200.359375,283495.5,291858.625,279606.84375,257862.96875,285374.65625,256302.1875,258370.359375,121185.0,1.0,3
234677.40625,282435.21875,290328.875,279060.5625,256777.296875,284908.40625,255853.375,257715.09375,121186.0,1.0,3
233920.671875,281273.125,288830.59375,278602.34375,255368.78125,284238.75,255417.515625,257083.609375,121187.0,1.0,3
233978.34375,281624.5625,289445.4375,278868.0625,255587.5625,284305.1875,255601.15625,257354.6875,121188.0,1.0,3
234755.5625,282981.875,291291.15625,279480.5,257108.1875,284991.28125,256135.71875,258138.078125,121189.0,1.0,3
235185.609375,283490.9375,291853.34375,279601.28125,257853.40625,285357.65625,256289.578125,258373.921875,121190.0,1.0,3
234666.859375,282438.96875,290330.65625,279053.5,256774.96875,284890.34375,255837.8125,257717.6875,121191.0,1.0,3
233907.34375,281274.8125,288822.28125,278595.46875,255362.4375,284234.90625,255406.25,257078.953125,121192.0,1.0,3
233966.625,281623.78125,289427.9375,278865.03125,255576.203125,284301.5,255585.421875,257346.90625,121193.0,1.0,3
234747.6875,282981.15625,291276.9375,279477.8125,257096.390625,284983.3125,256112.46875,258129.484375,121194.0,1.0,3
235193.828125,283512.125,291858.71875,279603.71875,257859.21875,285363.21875,256279.125,258367.40625,121195.0,1.0,3
234688.40625,282472.34375,290351.9375,279064.125,256798.84375,284914.65625,255850.6875,257727.15625,121196.0,1.0,3
233924.78125,281297.25,288833.90625,278600.90625,255381.828125,284250.09375,255415.28125,257091.390625,121197.0,1.0,3
233966.8125,281622.34375,289411.125,278854.46875,255570.84375,284296.84375,255582.828125,257341.375,121198.0,1.0,3
234744.828125,282976.3125,291259.4375,279465.9375,257087.546875,284978.3125,256108.625,258118.671875,121199.0,1.0,3
235201.0625,283520.625,291864.25,279603.78125,257866.8125,285366.25,256280.375,258367.21875,121200.0,1.0,3
234698.15625,282485.03125,290365.09375,279066.71875,256814.84375,284917.96875,255851.765625,257734.140625,121201.0,1.0,3
233929.796875,281299.03125,288833.28125,278596.34375,255390.15625,284256.96875,255425.640625,257087.984375,121202.0,1.0,3
233963.859375,281609.5625,289394.40625,278844.71875,255562.34375,284294.8125,255589.796875,257330.8125,121203.0,1.0,3
234736.59375,282955.03125,291242.53125,279459.75,257074.671875,284968.03125,256114.96875,258118.3125,121204.0,1.0,3
235198.296875,283509.1875,291866.9375,279607.28125,257870.390625,285360.8125,256291.375,258368.03125,121205.0,1.0,3
234708.265625,282489.6875,290385.21875,279077.53125,256836.21875,284928.6875,255873.03125,257741.90625,121206.0,1.0,3
233933.28125,281292.78125,288839.4375,278601.375,255398.375,284261.625,255432.34375,257093.4375,121207.0,1.0,3
233962.34375,281590.15625,289381.25,278845.28125,255553.859375,284286.75,255582.015625,257326.34375,121208.0,1.0,3
234730.4375,282935.375,291223.03125,279454.84375,257058.75,284956.25,256102.8125,258106.609375,121209.0,1.0,3
235190.078125,283498.53125,291863.1875,279603.4375,257864.3125,285357.84375,256281.8125,258371.25,121210.0,1.0,3
234699.765625,282486.46875,290393.15625,279080.125,256842.125,284927.34375,255860.96875,257754.15625,121211.0,1.0,3
233934.359375,281293.78125,288842.40625,278609.40625,255408.296875,284261.1875,255421.078125,257106.40625,121212.0,1.0,3
233959.46875,281579.6875,289363.71875,278847.875,255549.65625,284284.78125,255572.984375,257333.234375,121213.0,1.0,3
234727.125,282922.9375,291205.6875,279455.1875,257049.0,284954.90625,256095.921875,258107.140625,121214.0,1.0,3
235192.9375,283498.28125,291864.34375,279607.71875,257865.65625,285359.46875,256275.546875,258373.484375,121215.0,1.0,3
234714.609375,282499.15625,290407.65625,279082.8125,256850.96875,284931.8125,255852.921875,257753.625,121216.0,1.0,3
233942.40625,281296.8125,288846.0625,278601.0,255404.09375,284259.65625,255411.25,257104.0,121217.0,1.0,3
233953.9375,281566.375,289348.875,278832.03125,255527.921875,284273.4375,255560.296875,257315.078125,121218.0,1.0,3
234719.96875,282914.8125,291196.03125,279448.21875,257029.96875,284946.84375,256095.84375,258094.625,121219.0,1.0,3
235199.8125,283511.25,291876.0625,279608.8125,257862.25,285355.15625,256290.484375,258379.109375,121220.0,1.0,3
234722.75,282519.625,290433.3125,279089.78125,256866.609375,284934.15625,255882.6875,257771.765625,121221.0,1.0,3
233946.15625,281307.96875,288858.03125,278601.53125,255416.171875,284259.5,255436.546875,257107.921875,121222.0,1.0,3
233956.171875,281568.59375,289342.90625,278827.125,255521.75,284273.34375,255579.515625,257318.921875,121223.0,1.0,3
234716.578125,282909.625,291184.59375,279438.21875,257012.796875,284940.78125,256112.46875,258096.953125,121224.0,1.0,3
235201.875,283518.75,291889.5625,279611.5625,257866.71875,285364.09375,256307.640625,258380.1875,121225.0,1.0,3
234742.859375,282544.3125,290462.09375,279100.53125,256886.28125,284948.09375,255883.9375,257773.203125,121226.0,1.0,3
233964.65625,281322.8125,288870.65625,278611.65625,255430.296875,284263.78125,255428.859375,257106.5,121227.0,1.0,3
233946.59375,281550.8125,289324.40625,278828.625,255517.28125,284263.5,255562.890625,257305.78125,121228.0,1.0,3
234707.546875,282898.71875,291165.28125,279446.96875,257011.640625,284935.9375,256093.421875,258080.234375,121229.0,1.0,3
235203.578125,283524.5625,291885.53125,279625.78125,257882.109375,285358.65625,256291.46875,258380.28125,121230.0,1.0,3
234736.421875,282546.53125,290461.90625,279110.28125,256909.53125,284947.28125,255870.359375,257775.4375,121231.0,1.0,3
233955.09375,281320.21875,288862.6875,278614.15625,255445.84375,284273.15625,255415.0,257102.65625,121232.0,1.0,3
233938.90625,281547.3125,289306.40625,278826.75,255517.015625,284279.15625,255557.609375,257304.265625,121233.0,1.0,3
234693.59375,282890.03125,291146.9375,279441.0,257000.453125,284943.375,256087.34375,258084.78125,121234.0,1.0,3
235187.84375,283523.3125,291883.125,279619.09375,257874.40625,285366.625,256294.859375,258384.921875,121235.0,1.0,3
234746.875,282577.21875,290486.78125,279119.5625,256926.4375,284975.09375,255913.453125,257797.34375,121236.0,1.0,3
233976.375,281357.34375,288884.34375,278628.375,255464.171875,284304.28125,255477.234375,257136.265625,121237.0,1.0,3
233945.96875,281562.0,289299.1875,278828.09375,255510.671875,284289.96875,255602.140625,257312.046875,121238.0,1.0,3
234695.296875,282901.5625,291137.28125,279441.625,256989.015625,284952.21875,256133.484375,258086.03125,121239.0,1.0,3
235206.96875,283558.8125,291895.75,279630.4375,257882.90625,285390.5625,256355.125,258408.890625,121240.0,1.0,3
234765.84375,282615.65625,290503.59375,279122.78125,256937.875,284993.59375,255950.375,257818.09375,121241.0,1.0,3
233977.265625,281379.40625,288885.84375,278618.875,255459.984375,284311.4375,255490.828125,257134.65625,121242.0,1.0,3
233935.875,281571.71875,289285.9375,278819.59375,255490.828125,284291.5,255611.96875,257314.546875,121243.0,1.0,3
234691.0,282913.09375,291124.6875,279437.40625,256965.859375,284952.46875,256136.34375,258097.65625,121244.0,1.0,3
235211.078125,283582.0625,291902.8125,279633.65625,257871.28125,285395.9375,256348.953125,258416.84375,121245.0,1.0,3
234778.265625,282648.46875,290526.125,279129.21875,256939.390625,285008.34375,255944.5625,257827.734375,121246.0,1.0,3
233987.8125,281400.78125,288899.71875,278623.8125,255458.90625,284327.0,255483.3125,257150.84375,121247.0,1.0,3
233936.59375,281572.8125,289274.3125,278809.78125,255469.0,284292.125,255581.125,257311.953125,121248.0,1.0,3
234683.140625,282903.0,291106.625,279418.625,256935.546875,284942.09375,256094.3125,258086.03125,121249.0,1.0,3
235212.15625,283582.21875,291909.59375,279625.34375,257865.46875,285392.375,256318.640625,258423.546875,121250.0,1.0,3
234787.5625,282658.21875,290551.78125,279133.59375,256958.078125,285021.59375,255936.875,257845.796875,121251.0,1.0,3
233983.609375,281393.09375,288907.03125,278624.25,255470.265625,284335.5625,255475.171875,257167.921875,121252.0,1.0,3
233931.21875,281551.34375,289264.5,278810.84375,255468.46875,284291.5,255580.859375,257328.140625,121253.0,1.0,3
234674.1875,282872.4375,291093.21875,279415.9375,256931.171875,284932.8125,256096.734375,258077.546875,121254.0,1.0,3
235201.875,283556.84375,291906.03125,279621.5,257866.546875,285381.90625,256327.671875,258412.90625,121255.0,1.0,3
234778.625,282639.0625,290559.8125,279136.8125,256971.40625,285015.6875,255957.796875,257846.703125,121256.0,1.0,3
233985.3125,281381.46875,288913.46875,278624.34375,255482.234375,284332.8125,255493.5,257154.953125,121257.0,1.0,3
233927.921875,281528.1875,289256.875,278804.125,255468.203125,284286.5625,255596.328125,257306.046875,121258.0,1.0,3
234665.703125,282849.90625,291086.34375,279415.40625,256926.703125,284930.9375,256121.40625,258074.5,121259.0,1.0,3
235199.90625,283556.03125,291921.3125,279632.21875,257876.46875,285394.59375,256361.46875,258422.921875,121260.0,1.0,3
234792.390625,282656.40625,290587.1875,279144.78125,256987.671875,285022.21875,255972.71875,257856.265625,121261.0,1.0,3
233999.171875,281394.71875,288927.96875,278625.15625,255491.265625,284332.4375,255494.9375,257154.859375,121262.0,1.0,3
233920.9375,281525.875,289248.75,278798.34375,255456.484375,284283.1875,255589.796875,257299.796875,121263.0,1.0,3
234660.609375,282855.625,291077.03125,279408.34375,256909.625,284931.03125,256103.96875,258057.421875,121264.0,1.0,3
235211.359375,283577.59375,291930.5,279632.125,257873.703125,285394.59375,256337.59375,258414.34375,121265.0,1.0,3
234804.015625,282685.75,290609.09375,279144.96875,256998.671875,285029.5625,255954.125,257855.28125,121266.0,1.0,3
234002.21875,281413.3125,288940.46875,278620.3125,255498.78125,284334.40625,255478.578125,257157.28125,121267.0,1.0,3
233923.890625,281530.96875,289241.6875,278787.5,255449.34375,284277.53125,255570.84375,257294.78125,121268.0,1.0,3
234657.921875,282851.25,291062.90625,279396.375,256894.25,284916.53125,256081.171875,258055.015625,121269.0,1.0,3
235205.71875,283578.03125,291929.96875,279623.375,257867.265625,285385.65625,256326.6875,258413.0,121270.0,1.0,3
234801.15625,282687.96875,290617.65625,279139.0625,257003.59375,285026.40625,255948.046875,257856.0,121271.0,1.0,3
233998.015625,281409.0,288939.9375,278611.65625,255498.78125,284332.0,255471.78125,257155.578125,121272.0,1.0,3
233909.5,281513.25,289221.21875,278770.96875,255431.546875,284271.28125,255568.875,257282.625,121273.0,1.0,3
234655.6875,282842.90625,291052.71875,279396.1875,256887.09375,284915.28125,256097.453125,258058.40625,121274.0,1.0,3
235202.59375,283568.8125,291929.625,279628.21875,257870.390625,285382.71875,256342.421875,258425.78125,121275.0,1.0,3
234804.90625,282686.5625,290629.375,279150.40625,257021.65625,285036.0625,255967.1875,257865.296875,121276.0,1.0,3
234004.625,281400.53125,288943.6875,278619.25,255514.78125,284338.25,255479.734375,257145.125,121277.0,1.0,3
233903.5,281483.21875,289199.3125,278767.21875,255427.4375,284258.15625,255553.140625,257263.046875,121278.0,1.0,3
234642.1875,282809.75,291021.34375,279387.96875,256875.828125,284913.0625,256092.4375,258044.28125,121279.0,1.0,3
235207.6875,283565.5,291923.625,279632.21875,257885.40625,285399.6875,256357.796875,258429.1875,121280.0,1.0,3
234808.125,282683.34375,290630.34375,279149.25,257036.765625,285032.0625,255961.734375,257863.234375,121281.0,1.0,3
234000.609375,281391.125,288936.0,278614.34375,255520.5,284332.25,255471.25,257142.890625,121282.0,1.0,3
233899.75,281473.65625,289183.5,278765.0625,255425.46875,284262.71875,255556.8125,257262.875,121283.0,1.0,3
234617.15625,282777.375,290991.375,279368.3125,256848.109375,284883.375,256062.578125,258027.484375,121284.0,1.0,3
235187.84375,283545.21875,291914.5,279618.625,257864.21875,285373.125,256320.875,258411.03125,121285.0,1.0,3
234812.59375,282698.34375,290649.9375,279154.875,257047.578125,285037.5,255950.640625,257879.859375,121286.0,1.0,3
234006.765625,281409.375,288949.25,278620.6875,255530.609375,284343.0,255469.1875,257169.4375,121287.0,1.0,3
233898.234375,281475.4375,289170.0625,278759.0,255412.40625,284252.15625,255532.671875,257253.03125,121288.0,1.0,3
234621.4375,282784.28125,290977.53125,279370.09375,256837.5625,284881.84375,256049.796875,258012.71875,121289.0,1.0,3
235190.96875,283557.8125,291914.0625,279620.15625,257864.84375,285376.09375,256317.125,258402.546875,121290.0,1.0,3
234816.53125,282714.1875,290661.75,279152.375,257058.3125,285042.78125,255954.671875,257868.515625,121291.0,1.0,3
234003.640625,281406.34375,288947.1875,278609.3125,255529.796875,284330.75,255459.796875,257148.78125,121292.0,1.0,3
233878.03125,281446.21875,289142.28125,278738.0625,255389.34375,284231.15625,255516.921875,257237.828125,121293.0,1.0,3
234611.78125,282764.25,290960.09375,279358.71875,256819.140625,284876.03125,256047.828125,258013.890625,121294.0,1.0,3
235195.265625,283553.625,291923.0,279622.125,257863.5,285378.875,256322.3125,258416.84375,121295.0,1.0,3
234820.828125,282714.90625,290676.59375,279155.25,257063.9375,285045.8125,255959.046875,257884.515625,121296.0,1.0,3
234011.421875,281408.84375,288958.0,278615.03125,255542.59375,284346.9375,255472.3125,257159.515625,121297.0,1.0,3
233881.78125,281437.0,289134.75,278736.46875,255389.53125,284237.40625,255529.453125,257233.0,121298.0,1.0,3
234595.703125,282737.875,290939.96875,279349.6875,256804.296875,284862.34375,256053.375,257999.671875,121299.0,1.0,3
235180.5,283541.5625,291916.3125,279619.0,257861.359375,285372.6875,256338.3125,258412.640625,121300.0,1.0,3
234829.40625,282728.5625,290695.90625,279166.875,257088.796875,285059.84375,255988.375,257897.21875,121301.0,1.0,3
234023.578125,281422.6875,288969.71875,278622.90625,255560.828125,284354.78125,255490.109375,257169.703125,121302.0,1.0,3
233881.953125,281436.0,289128.6875,278744.40625,255389.53125,284237.84375,255532.9375,257242.03125,121303.0,1.0,3
234587.828125,282732.6875,290928.09375,279354.625,256790.890625,284859.6875,256044.4375,258003.78125,121304.0,1.0,3
235184.4375,283554.0625,291926.40625,279631.78125,257862.078125,285373.5,256329.453125,258420.328125,121305.0,1.0,3
234837.1875,282749.9375,290716.90625,279179.1875,257100.6875,285065.21875,255975.671875,257899.53125,121306.0,1.0,3
234026.171875,281439.84375,288981.4375,278630.0625,255567.984375,284361.6875,255479.734375,257172.65625,121307.0,1.0,3
233862.5625,281425.65625,289108.03125,278735.28125,255368.15625,284228.46875,255507.8125,257223.078125,121308.0,1.0,3
234572.1875,282723.21875,290904.03125,279347.46875,256768.984375,284850.03125,256024.046875,257986.53125,121309.0,1.0,3
235175.328125,283556.46875,291920.6875,279630.53125,257852.515625,285369.75,256313.546875,258419.53125,121310.0,1.0,3
234841.390625,282767.1875,290729.0625,279182.15625,257102.46875,285055.9375,255953.5,257898.375,121311.0,1.0,3
234033.328125,281452.28125,288986.0,278629.15625,255566.640625,284350.3125,255462.84375,257168.546875,121312.0,1.0,3
233878.46875,281436.71875,289099.34375,278735.125,255365.03125,284219.15625,255501.8125,257227.375,121313.0,1.0,3
234580.859375,282722.21875,290892.21875,279344.875,256762.375,284840.71875,256020.296875,257986.078125,121314.0,1.0,3
235185.421875,283559.78125,291920.40625,279626.5,257856.359375,285370.90625,256318.015625,258418.0,121315.0,1.0,3
234863.734375,282785.0,290745.5,279181.34375,257125.265625,285061.375,255973.078125,257914.015625,121316.0,1.0,3
234049.953125,281455.15625,288990.71875,278622.375,255582.90625,284344.875,255470.4375,257175.78125,121317.0,1.0,3
233875.34375,281416.0625,289085.75,278720.8125,255360.5625,284210.75,255504.40625,257226.484375,121318.0,1.0,3
234574.6875,282701.3125,290874.53125,279331.90625,256749.140625,284828.5625,256018.5,257989.65625,121319.0,1.0,3
235190.34375,283552.90625,291921.3125,279623.65625,257854.46875,285357.40625,256314.078125,258420.25,121320.0,1.0,3
234872.234375,282787.84375,290762.5,279187.96875,257138.328125,285069.15625,255979.4375,257925.734375,121321.0,1.0,3
234049.15625,281452.71875,288998.59375,278625.9375,255591.859375,284361.3125,255479.375,257188.21875,121322.0,1.0,3
233862.375,281396.5,289067.34375,278715.09375,255346.875,284215.21875,255502.625,257219.421875,121323.0,1.0,3
234563.328125,282684.84375,290853.25,279327.625,256727.953125,284833.03125,256015.1875,257972.578125,121324.0,1.0,3
235182.65625,283549.15625,291919.53125,279630.25,257848.75,285369.46875,256317.296875,258417.296875,121325.0,1.0,3
234873.75,282796.34375,290777.34375,279198.15625,257147.09375,285073.90625,255974.6875,257931.28125,121326.0,1.0,3
234055.953125,281462.84375,289011.5625,278634.71875,255602.21875,284363.8125,255473.828125,257193.75,121327.0,1.0,3
233865.328125,281398.71875,289066.4375,278720.71875,255345.359375,284212.1875,255492.15625,257221.109375,121328.0,1.0,3
234556.71875,282678.40625,290844.40625,279327.0,256715.34375,284819.875,255993.109375,257958.1875,121329.0,1.0,3
235174.421875,283548.0625,291920.59375,279627.9375,257843.125,285355.875,256296.828125,258408.890625,121330.0,1.0,3
234866.421875,282804.5625,290794.78125,279201.5625,257158.265625,285080.5,255970.21875,257928.765625,121331.0,1.0,3
234061.125,281482.25,289031.6875,278642.9375,255618.671875,284379.375,255475.796875,257195.453125,121332.0,1.0,3
233865.0625,281404.53125,289062.875,278721.0,255341.609375,284219.6875,255487.0625,257216.828125,121333.0,1.0,3
234538.65625,282662.21875,290823.84375,279319.125,256694.6875,284810.40625,255986.859375,257949.96875,121334.0,1.0,3
235166.203125,283546.71875,291918.96875,279626.5,257834.453125,285349.625,256298.96875,258401.375,121335.0,1.0,3
234883.140625,282830.9375,290818.03125,279207.71875,257172.65625,285087.125,255987.484375,257938.609375,121336.0,1.0,3
234067.5625,281491.0,289039.90625,278639.625,255622.421875,284378.03125,255481.703125,257190.8125,121337.0,1.0,3
233857.28125,281388.625,289048.21875,278707.59375,255327.5625,284213.09375,255493.234375,257200.46875,121338.0,1.0,3
234535.171875,282651.59375,290811.21875,279311.96875,256684.671875,284820.96875,256012.875,257950.9375,121339.0,1.0,3
235168.890625,283546.28125,291917.0,279623.09375,257830.953125,285360.1875,256320.078125,258410.859375,121340.0,1.0,3
234885.90625,282833.4375,290827.21875,279208.09375,257180.703125,285091.34375,255997.140625,257945.9375,121341.0,1.0,3
234061.75,281487.0625,289039.71875,278635.15625,255630.203125,284383.84375,255493.140625,257199.5625,121342.0,1.0,3
233846.203125,281374.59375,289027.375,278698.625,255322.109375,284212.1875,255500.203125,257195.640625,121343.0,1.0,3
234525.328125,282634.5,290784.59375,279300.78125,256668.3125,284803.15625,256002.046875,257939.59375,121344.0,1.0,3
235161.640625,283537.625,291910.9375,279620.0625,257831.234375,285353.1875,256318.46875,258411.296875,121345.0,1.0,3
234881.625,282839.25,290838.15625,279210.5,257197.421875,285108.9375,256015.640625,257954.4375,121346.0,1.0,3
234071.6875,281503.0625,289054.65625,278644.28125,255652.109375,284401.71875,255505.3125,257199.484375,121347.0,1.0,3
233853.890625,281379.96875,289025.25,278701.59375,255328.375,284212.625,255498.875,257189.734375,121348.0,1.0,3
234515.234375,282622.53125,290770.625,279301.78125,256665.890625,284802.46875,256003.75,257932.265625,121349.0,1.0,3
235157.890625,283541.625,291911.65625,279628.90625,257839.90625,285356.59375,256327.9375,258410.859375,121350.0,1.0,3
234896.640625,282860.09375,290858.78125,279226.15625,257222.90625,285109.9375,256016.890625,257960.953125,121351.0,1.0,3
234084.640625,281514.96875,289064.21875,278648.46875,255669.375,284395.21875,255500.203125,257203.5,121352.0,1.0,3
233850.3125,281369.6875,289009.0625,278696.59375,255323.546875,284201.0,255493.421875,257195.453125,121353.0,1.0,3
234505.484375,282603.59375,290746.40625,279294.1875,256647.921875,284783.59375,255993.828125,257939.6875,121354.0,1.0,3
235149.125,283524.46875,291902.96875,279624.625,257829.265625,285340.6875,256311.578125,258411.921875,121355.0,1.0,3
234894.140625,282859.8125,290870.6875,279229.28125,257231.046875,285113.40625,256016.53125,257972.046875,121356.0,1.0,3
234079.90625,281512.09375,289068.59375,278647.84375,255675.53125,284398.25,255496.90625,257208.859375,121357.0,1.0,3
233839.3125,281352.96875,288992.5,278687.71875,255312.09375,284193.875,255474.90625,257180.171875,121358.0,1.0,3
234502.359375,282592.03125,290732.90625,279288.8125,256636.3125,284783.84375,255981.84375,257918.671875,121359.0,1.0,3
235149.390625,283523.75,291909.40625,279627.75,257833.109375,285352.5,256322.3125,258412.828125,121360.0,1.0,3
234896.1875,282863.3125,290887.6875,279231.875,257244.625,285118.25,256022.171875,257972.671875,121361.0,1.0,3
234083.484375,281511.75,289078.4375,278647.3125,255684.65625,284399.40625,255500.5625,257207.890625,121362.0,1.0,3
233836.71875,281339.28125,288985.4375,278685.59375,255308.078125,284193.15625,255482.78125,257176.140625,121363.0,1.0,3
234491.359375,282569.34375,290718.25,279285.59375,256625.671875,284779.46875,255994.359375,257915.09375,121364.0,1.0,3
235151.453125,283516.96875,291905.125,279623.46875,257827.03125,285336.5625,256318.734375,258409.421875,121365.0,1.0,3
234919.4375,282881.09375,290906.90625,279236.6875,257258.40625,285116.71875,256026.90625,257981.96875,121366.0,1.0,3
234101.359375,281525.34375,289098.71875,278652.40625,255705.671875,284411.9375,255514.875,257219.234375,121367.0,1.0,3
233842.984375,281338.8125,288985.1875,278682.8125,255314.6875,284198.15625,255494.40625,257182.484375,121368.0,1.0,3
234495.375,282566.28125,290705.625,279278.25,256616.28125,284765.96875,255982.03125,257909.8125,121369.0,1.0,3
235158.25,283523.65625,291906.8125,279623.28125,257827.65625,285332.0,256317.21875,258405.765625,121370.0,1.0,3
234916.21875,282889.59375,290919.6875,279236.59375,257266.0,285116.71875,256032.453125,257983.578125,121371.0,1.0,3
234097.515625,281531.9375,289106.25,278648.3125,255708.34375,284406.5625,255508.609375,257217.09375,121372.0,1.0,3
233838.6875,281335.875,288974.53125,278675.5625,255304.3125,284187.59375,255474.28125,257166.9375,121373.0,1.0,3
234488.5,282562.8125,290692.5,279274.78125,256601.703125,284761.3125,255979.4375,257900.15625,121374.0,1.0,3
235161.90625,283536.71875,291915.5,279631.5,257827.109375,285338.0,256330.625,258413.09375,121375.0,1.0,3
234935.359375,282915.6875,290946.0625,279251.625,257287.71875,285126.5625,256043.625,257998.515625,121376.0,1.0,3
234119.875,281554.3125,289124.03125,278660.65625,255729.0,284413.8125,255522.46875,257227.015625,121377.0,1.0,3
233846.375,281335.6875,288969.28125,278678.34375,255302.359375,284190.09375,255488.9375,257175.25,121378.0,1.0,3
234479.90625,282543.0625,290673.09375,279268.25,256583.640625,284751.03125,255975.671875,257897.03125,121379.0,1.0,3
235146.984375,283515.71875,291901.1875,279623.71875,257816.484375,285328.96875,256323.015625,258406.5625,121380.0,1.0,3
234938.03125,282913.28125,290950.96875,279252.25,257292.546875,285127.90625,256047.296875,258009.59375,121381.0,1.0,3
234129.890625,281554.5625,289130.8125,278661.96875,255738.125,284420.25,255525.6875,257234.796875,121382.0,1.0,3
233834.9375,281312.625,288948.875,278666.53125,255293.859375,284184.65625,255478.484375,257159.515625,121383.0,1.0,3
234462.203125,282515.6875,290643.59375,279253.15625,256564.6875,284742.90625,255970.765625,257876.828125,121384.0,1.0,3
235143.578125,283506.3125,291893.78125,279617.03125,257810.671875,285322.90625,256327.84375,258409.6875,121385.0,1.0,3
234927.21875,282907.75,290953.3125,279245.0,257297.46875,285123.6875,256044.875,258004.765625,121386.0,1.0,3
234106.734375,281541.78125,289126.4375,278649.46875,255736.515625,284418.4375,255516.84375,257225.40625,121387.0,1.0,3
233819.734375,281300.375,288936.90625,278654.65625,255281.15625,284175.875,255466.0625,257147.796875,121388.0,1.0,3
234441.640625,282492.90625,290621.15625,279238.46875,256537.15625,284714.65625,255941.078125,257862.15625,121389.0,1.0,3
235137.0625,283504.53125,291891.34375,279618.375,257799.484375,285314.75,256312.5625,258396.546875,121390.0,1.0,3
234943.484375,282933.75,290978.25,279260.65625,257313.65625,285139.25,256050.234375,258006.109375,121391.0,1.0,3
234129.078125,281567.09375,289145.3125,278665.5625,255755.640625,284425.875,255516.484375,257236.140625,121392.0,1.0,3
233824.828125,281300.375,288929.65625,278659.5625,255282.5,284171.96875,255456.046875,257155.140625,121393.0,1.0,3
234448.703125,282496.1875,290610.96875,279245.09375,256537.78125,284719.9375,255932.671875,257861.453125,121394.0,1.0,3
235141.078125,283512.125,291889.125,279623.65625,257804.5,285316.46875,256303.53125,258401.28125,121395.0,1.0,3
234949.203125,282947.96875,290988.34375,279266.46875,257325.1875,285139.53125,256045.765625,258024.703125,121396.0,1.0,3
234130.6875,281579.96875,289154.15625,278669.40625,255765.484375,284434.71875,255525.0625,257250.0,121397.0,1.0,3
233827.78125,281310.40625,288924.03125,278661.71875,255278.484375,284183.59375,255467.9375,257151.375,121398.0,1.0,3
234442.0,282492.4375,290596.5625,279241.4375,256522.765625,284725.75,255949.484375,257860.546875,121399.0,1.0,3
235142.515625,283516.5,291890.1875,279625.0,257802.96875,285328.625,256328.390625,258407.28125,121400.0,1.0,3
234957.796875,282958.78125,291006.21875,279274.34375,257341.28125,285150.96875,256069.28125,258027.5625,121401.0,1.0,3
234139.625,281586.75,289167.9375,278675.65625,255781.484375,284437.21875,255538.203125,257245.875,121402.0,1.0,3
233822.328125,281292.96875,288909.625,278653.5,255271.0625,284169.71875,255469.8125,257139.046875,121403.0,1.0,3
234439.6875,282474.5625,290581.625,279240.71875,256515.6875,284727.96875,255971.203125,257859.65625,121404.0,1.0,3
235136.15625,283501.75,291887.6875,279626.0625,257800.390625,285329.0625,256330.0,258404.78125,121405.0,1.0,3
234970.671875,282967.1875,291025.625,279280.0625,257355.140625,285151.40625,256058.828125,258031.046875,121406.0,1.0,3
234161.359375,281599.90625,289185.4375,278679.3125,255798.375,284444.125,255531.765625,257254.109375,121407.0,1.0,3
233828.765625,281286.625,288900.34375,278647.9375,255269.984375,284165.25,255449.96875,257139.84375,121408.0,1.0,3
234426.71875,282448.09375,290555.34375,279223.0,256494.234375,284697.59375,255917.46875,257835.078125,121409.0,1.0,3
235129.71875,283487.90625,291881.25,279619.25,257792.34375,285309.46875,256298.609375,258389.484375,121410.0,1.0,3
234968.515625,282967.8125,291036.8125,279284.0,257363.546875,285154.71875,256054.796875,258028.640625,121411.0,1.0,3
234167.53125,281606.875,289195.46875,278684.34375,255807.6875,284450.8125,255530.609375,257254.828125,121412.0,1.0,3
233835.921875,281291.0,288904.71875,278656.875,255271.953125,284178.3125,255459.796875,257148.515625,121413.0,1.0,3
234434.578125,282451.6875,290556.0625,279233.75,256488.515625,284708.5,255936.15625,257846.15625,121414.0,1.0,3
235137.6875,283497.8125,291884.84375,279622.65625,257783.484375,285312.96875,256310.78125,258396.375,121415.0,1.0,3
234986.671875,282994.28125,291058.0,279290.875,257373.109375,285171.625,256079.390625,258044.46875,121416.0,1.0,3
234180.671875,281624.125,289208.96875,278687.1875,255815.015625,284462.34375,255548.3125,257267.703125,121417.0,1.0,3
233840.109375,281290.1875,288894.15625,278649.1875,255261.046875,284171.25,255458.015625,257134.03125,121418.0,1.0,3
234428.0625,282441.21875,290532.8125,279220.59375,256467.234375,284688.625,255927.578125,257828.546875,121419.0,1.0,3
235135.0,283494.6875,291880.4375,279620.25,257778.65625,285303.21875,256314.34375,258395.65625,121420.0,1.0,3
234989.984375,283002.78125,291073.625,279292.46875,257385.09375,285168.125,256078.671875,258043.84375,121421.0,1.0,3
234187.546875,281638.96875,289228.90625,278690.59375,255832.359375,284459.84375,255543.125,257261.96875,121422.0,1.0,3
233836.546875,281291.875,288893.375,278650.0,255264.53125,284170.09375,255458.09375,257133.859375,121423.0,1.0,3
234423.671875,282440.78125,290522.96875,279221.75,256460.171875,284695.25,255926.328125,257821.578125,121424.0,1.0,3
235135.796875,283503.375,291879.46875,279626.59375,257777.859375,285302.34375,256307.5625,258386.53125,121425.0,1.0,3
234993.46875,283014.9375,291085.1875,279305.09375,257398.59375,285162.9375,256072.421875,258045.71875,121426.0,1.0,3
234192.015625,281644.78125,289233.1875,278701.21875,255848.625,284460.28125,255541.34375,257267.78125,121427.0,1.0,3
233827.875,281272.65625,288870.03125,278643.21875,255259.171875,284156.21875,255439.859375,257126.515625,121428.0,1.0,3
234414.203125,282415.28125,290492.59375,279215.78125,256450.34375,284676.5625,255910.140625,257823.265625,121429.0,1.0,3
235134.375,283491.21875,291864.53125,279623.5625,257781.078125,285297.15625,256297.0,258396.640625,121430.0,1.0,3
235002.765625,283025.21875,291098.21875,279309.90625,257422.640625,285186.0,256079.484375,258070.125,121431.0,1.0,3
234201.328125,281657.375,289246.15625,278701.3125,255871.875,284487.125,255549.828125,257286.390625,121432.0,1.0,3
233828.9375,281272.65625,288859.9375,278635.875,255261.3125,284166.40625,255440.125,257124.734375,121433.0,1.0,3
234404.359375,282409.3125,290470.84375,279203.34375,256435.234375,284680.6875,255916.21875,257813.4375,121434.0,1.0,3
235122.125,283496.9375,291856.03125,279619.25,257770.515625,285308.0625,256322.3125,258399.40625,121435.0,1.0,3
235005.359375,283053.125,291106.4375,279312.25,257424.96875,285197.71875,256111.84375,258081.65625,121436.0,1.0,3
234205.96875,281687.25,289251.4375,278705.875,255873.03125,284499.625,255588.546875,257310.875,121437.0,1.0,3
233836.71875,281302.0,288855.0,278644.90625,255254.78125,284194.03125,255490.546875,257157.375,121438.0,1.0,3
234405.171875,282427.8125,290459.40625,279209.59375,256417.25,284699.375,255950.28125,257825.328125,121439.0,1.0,3
235127.484375,283522.15625,291865.15625,279636.15625,257762.390625,285329.5,256350.296875,258416.3125,121440.0,1.0,3
235016.265625,283088.96875,291133.1875,279334.40625,257430.234375,285217.5625,256135.359375,258108.296875,121441.0,1.0,3
234217.328125,281721.5,289274.15625,278721.4375,255875.265625,284511.25,255594.359375,257319.28125,121442.0,1.0,3
233831.625,281312.375,288854.125,278644.09375,255237.171875,284190.03125,255473.203125,257144.140625,121443.0,1.0,3
234399.171875,282434.6875,290448.78125,279205.65625,256391.859375,284694.90625,255930.25,257818.53125,121444.0,1.0,3
235138.84375,283545.03125,291874.53125,279642.25,257755.59375,285336.03125,256348.765625,258429.625,121445.0,1.0,3
235028.6875,283111.84375,291159.375,279345.3125,257443.03125,285231.59375,256127.671875,258134.3125,121446.0,1.0,3
234228.328125,281733.125,289298.1875,278729.5,255889.578125,284521.53125,255577.546875,257340.828125,121447.0,1.0,3
233841.28125,281308.25,288858.40625,278641.59375,255234.9375,284187.15625,255447.1875,257139.3125,121448.0,1.0,3
234401.421875,282415.75,290442.5,279198.6875,256379.4375,284685.0625,255907.015625,257810.125,121449.0,1.0,3
235129.359375,283518.84375,291866.15625,279626.3125,257742.8125,285321.90625,256317.21875,258413.0,121450.0,1.0,3
235027.984375,283104.78125,291164.84375,279331.5625,257445.890625,285231.875,256115.15625,258110.625,121451.0,1.0,3
234238.515625,281737.40625,289305.25,278721.25,255904.0625,284534.875,255586.3125,257328.140625,121452.0,1.0,3
233838.5,281293.0625,288848.5625,278634.09375,255240.65625,284193.875,255462.84375,257144.40625,121453.0,1.0,3
234389.609375,282390.875,290425.09375,279191.0,256375.6875,284688.46875,255924.796875,257816.125,121454.0,1.0,3
235128.203125,283509.0,291865.78125,279623.28125,257744.140625,285325.5625,256340.90625,258418.1875,121455.0,1.0,3
235043.890625,283108.375,291186.1875,279332.09375,257462.421875,285234.5625,256139.296875,258119.125,121456.0,1.0,3
234241.90625,281728.375,289321.71875,278716.6875,255916.046875,284536.03125,255610.8125,257335.921875,121457.0,1.0,3
233839.40625,281282.3125,288850.625,278630.0625,255241.90625,284202.625,255495.734375,257155.40625,121458.0,1.0,3
234379.15625,282371.9375,290408.90625,279177.15625,256355.828125,284678.1875,255936.96875,257806.109375,121459.0,1.0,3
235116.046875,283498.90625,291855.40625,279614.15625,257726.625,285319.40625,256351.0,258409.328125,121460.0,1.0,3
235037.015625,283115.96875,291194.25,279335.03125,257462.0625,285240.5625,256151.625,258128.328125,121461.0,1.0,3
234238.515625,281740.0,289330.46875,278716.6875,255916.84375,284532.90625,255601.859375,257336.453125,121462.0,1.0,3
233826.4375,281277.59375,288837.40625,278619.59375,255222.328125,284184.03125,255469.8125,257137.4375,121463.0,1.0,3
234370.84375,282372.46875,290400.5,279177.5,256339.296875,284674.5,255923.546875,257793.953125,121464.0,1.0,3
235111.84375,283509.28125,291860.78125,279621.3125,257723.671875,285311.53125,256334.109375,258405.84375,121465.0,1.0,3
235030.484375,283129.90625,291214.8125,279344.4375,257473.15625,285236.875,256146.265625,258129.484375,121466.0,1.0,3
234231.90625,281756.90625,289355.25,278733.59375,255936.515625,284543.34375,255610.1875,257350.9375,121467.0,1.0,3
233818.125,281284.375,288839.90625,278627.03125,255227.34375,284184.28125,255463.203125,257142.796875,121468.0,1.0,3
234355.1875,282361.375,290382.0625,279172.21875,256326.15625,284656.28125,255906.125,257795.28125,121469.0,1.0,3
235105.140625,283505.15625,291856.03125,279622.03125,257719.015625,285309.21875,256327.5,258402.984375,121470.0,1.0,3
235041.921875,283145.28125,291231.1875,279353.53125,257489.25,285252.4375,256153.234375,258134.3125,121471.0,1.0,3
234252.546875,281769.40625,289364.71875,278734.84375,255953.140625,284553.09375,255613.40625,257343.96875,121472.0,1.0,3
233829.296875,281274.1875,288825.3125,278616.21875,255222.15625,284176.34375,255445.765625,257117.140625,121473.0,1.0,3
234356.703125,282336.625,290358.375,279161.78125,256310.6875,284647.0625,255886.625,257770.796875,121474.0,1.0,3
235104.953125,283483.96875,291847.53125,279617.5625,257713.921875,285302.25,256316.3125,258397.796875,121475.0,1.0,3
235053.453125,283142.78125,291244.6875,279349.78125,257501.140625,285241.625,256137.6875,258136.015625,121476.0,1.0,3
234266.046875,281771.125,289379.65625,278727.15625,255968.875,284547.03125,255598.828125,257344.9375,121477.0,1.0,3
233837.078125,281265.96875,288827.75,278611.03125,255234.046875,284182.59375,255452.375,257123.578125,121478.0,1.0,3
234351.609375,282315.6875,290344.4375,279150.59375,256306.296875,284646.0,255894.234375,257770.875,121479.0,1.0,3
235099.859375,283468.0625,291839.15625,279604.59375,257708.109375,285298.84375,256318.828125,258395.296875,121480.0,1.0,3
235060.703125,283145.125,291256.46875,279346.5625,257512.84375,285253.96875,256147.0625,258142.71875,121481.0,1.0,3
234276.875,281777.8125,289388.3125,278724.21875,255979.875,284558.71875,255606.609375,257350.578125,121482.0,1.0,3
233827.0625,281250.21875,288807.4375,278595.09375,255220.09375,284176.0625,255444.328125,257111.6875,121483.0,1.0,3
234339.546875,282298.0,290320.84375,279135.84375,256285.828125,284636.96875,255883.140625,257757.203125,121484.0,1.0,3
235100.3125,283464.84375,291830.125,279594.59375,257698.453125,285288.28125,256310.234375,258380.90625,121485.0,1.0,3
235066.875,283153.0625,291261.84375,279342.8125,257517.5,285247.0,256147.25,258138.078125,121486.0,1.0,3
234285.625,281789.34375,289396.1875,278725.71875,255993.46875,284564.8125,255621.984375,257354.953125,121487.0,1.0,3
233833.6875,281253.625,288798.5,278588.84375,255221.890625,284177.3125,255448.0,257101.125,121488.0,1.0,3
234335.25,282287.78125,290292.21875,279122.96875,256270.71875,284620.59375,255871.25,257734.046875,121489.0,1.0,3
235084.390625,283456.4375,291811.78125,279592.71875,257690.59375,285285.15625,256308.625,258377.953125,121490.0,1.0,3
235057.125,283160.3125,291267.03125,279351.21875,257526.53125,285247.875,256148.859375,258147.8125,121491.0,1.0,3
234279.734375,281796.875,289403.6875,278736.71875,256006.4375,284565.4375,255616.890625,257366.140625,121492.0,1.0,3
233819.90625,281242.8125,288790.1875,278598.6875,255222.421875,284175.875,255440.21875,257108.015625,121493.0,1.0,3
234318.984375,282270.71875,290276.75,279128.34375,256261.59375,284620.78125,255864.359375,257736.453125,121494.0,1.0,3
235080.109375,283451.96875,291806.40625,279599.3125,257686.65625,285284.0,256307.28125,258379.734375,121495.0,1.0,3
235059.53125,283164.4375,291281.59375,279364.53125,257541.8125,285258.34375,256155.390625,258156.046875,121496.0,1.0,3
234285.28125,281802.75,289426.125,278750.75,256030.21875,284583.9375,255632.796875,257378.203125,121497.0,1.0,3
233817.40625,281233.59375,288788.75,278600.75,255226.890625,284179.75,255451.84375,257111.40625,121498.0,1.0,3
234315.3125,282254.90625,290261.375,279127.15625,256250.609375,284617.84375,255874.5625,257738.25,121499.0,1.0,3
235076.265625,283441.78125,291800.4375,279601.90625,257676.375,285275.875,256312.296875,258386.796875,121500.0,1.0,3
235068.296875,283175.875,291296.25,279371.6875,257551.390625,285258.0625,256164.328125,258159.359375,121501.0,1.0,3
234291.265625,281811.25,289431.21875,278749.4375,256037.8125,284578.59375,255631.1875,257374.71875,121502.0,1.0,3
233815.703125,281232.78125,288775.0,278593.6875,255216.703125,284174.5625,255446.390625,257106.140625,121503.0,1.0,3
234308.15625,282248.28125,290238.84375,279116.53125,256228.96875,284605.40625,255862.046875,257725.375,121504.0,1.0,3
235073.125,283441.9375,291789.625,279589.75,257665.109375,285270.5,256303.359375,258373.125,121505.0,1.0,3
235071.78125,283188.46875,291303.5,279361.78125,257552.640625,285255.375,256154.671875,258158.90625,121506.0,1.0,3
234302.53125,281828.78125,289443.125,278744.40625,256045.328125,284575.53125,255620.015625,257377.3125,121507.0,1.0,3
233822.0625,281236.0,288764.0625,278581.59375,255209.546875,284163.65625,255432.0,257097.828125,121508.0,1.0,3
234297.703125,282238.0,290214.0,279104.1875,256212.25,284595.21875,255851.125,257715.0,121509.0,1.0,3
235064.640625,283441.15625,291780.5,279586.71875,257658.5,285261.8125,256300.21875,258372.046875,121510.0,1.0,3
235074.109375,283203.15625,291315.5625,279366.59375,257565.78125,285255.65625,256161.546875,258170.4375,121511.0,1.0,3
234301.453125,281838.34375,289452.0625,278743.96875,256056.40625,284576.875,255622.96875,257386.25,121512.0,1.0,3
233816.328125,281234.40625,288760.5,278580.625,255215.625,284169.0,255438.609375,257100.234375,121513.0,1.0,3
234296.265625,282232.1875,290202.375,279102.40625,256208.21875,284598.34375,255857.03125,257710.078125,121514.0,1.0,3
235063.921875,283435.15625,291771.71875,279585.65625,257654.109375,285259.5,256293.078125,258365.34375,121515.0,1.0,3
235081.0,283209.21875,291326.84375,279377.78125,257579.453125,285273.1875,256168.34375,258179.46875,121516.0,1.0,3
234313.890625,281853.1875,289469.0625,278758.09375,256080.640625,284607.09375,255642.1875,257392.15625,121517.0,1.0,3
233823.046875,281237.53125,288756.84375,278583.46875,255219.296875,284184.21875,255447.1875,257101.125,121518.0,1.0,3
234295.828125,282223.40625,290187.71875,279100.96875,256200.09375,284600.5625,255862.578125,257721.703125,121519.0,1.0,3
235062.9375,283428.09375,291766.375,279584.46875,257650.0,285264.6875,256307.109375,258376.875,121520.0,1.0,3
235082.515625,283209.40625,291333.09375,279372.15625,257583.75,285275.6875,256173.265625,258173.296875,121521.0,1.0,3
234319.515625,281853.90625,289473.34375,278750.0625,256083.5,284598.4375,255634.59375,257389.921875,121522.0,1.0,3
233814.015625,281218.84375,288738.15625,278566.75,255205.34375,284164.96875,255421.265625,257085.3125,121523.0,1.0,3
234269.984375,282188.46875,290154.34375,279080.3125,256170.046875,284577.40625,255833.875,257689.421875,121524.0,1.0,3
235051.046875,283415.75,291754.90625,279580.625,257635.515625,285255.75,256293.515625,258362.75,121525.0,1.0,3
235081.71875,283218.15625,291347.65625,279378.125,257590.28125,285272.65625,256167.359375,258182.328125,121526.0,1.0,3
234325.328125,281872.0625,289491.75,278756.9375,256097.890625,284607.8125,255639.421875,257400.5625,121527.0,1.0,3
233819.734375,281231.375,288744.59375,278573.65625,255210.890625,284181.34375,255441.375,257098.984375,121528.0,1.0,3
234269.265625,282195.09375,290146.9375,279081.65625,256161.109375,284587.34375,255847.28125,257696.671875,121529.0,1.0,3
235036.828125,283411.5625,291745.34375,279571.96875,257620.671875,285248.9375,256279.03125,258359.71875,121530.0,1.0,3
235082.34375,283234.0625,291359.84375,279378.9375,257595.375,285276.75,256160.921875,258192.4375,121531.0,1.0,3
234334.359375,281895.5625,289511.4375,278761.03125,256113.71875,284617.84375,255633.25,257411.46875,121532.0,1.0,3
233824.109375,281237.625,288744.59375,278567.21875,255213.03125,284178.65625,255423.140625,257091.03125,121533.0,1.0,3
234268.5625,282186.125,290133.78125,279070.40625,256149.9375,284576.78125,255828.15625,257678.4375,121534.0,1.0,3
235041.390625,283414.0625,291745.96875,279572.40625,257620.59375,285253.6875,256290.75,258356.5,121535.0,1.0,3
235088.78125,283246.15625,291378.25,279385.71875,257610.484375,285282.5625,256178.1875,258193.328125,121536.0,1.0,3
234334.890625,281902.4375,289528.25,278763.1875,256122.03125,284614.4375,255642.453125,257408.421875,121537.0,1.0,3
233818.5625,281233.6875,288744.9375,278567.21875,255207.671875,284172.65625,255427.4375,257088.25,121538.0,1.0,3
234264.53125,282179.0,290125.84375,279074.40625,256138.671875,284572.3125,255830.21875,257683.171875,121539.0,1.0,3
235047.375,283418.0,291748.9375,279584.65625,257618.53125,285261.28125,256301.203125,258369.28125,121540.0,1.0,3
235112.015625,283267.15625,291402.84375,279406.375,257627.5625,285302.6875,256193.921875,258218.890625,121541.0,1.0,3
234365.734375,281925.4375,289556.40625,278784.84375,256151.09375,284640.71875,255661.59375,257434.078125,121542.0,1.0,3
233824.203125,281226.34375,288739.9375,278569.71875,255213.390625,284175.96875,255423.953125,257090.140625,121543.0,1.0,3
234256.671875,282154.9375,290100.25,279069.0625,256126.234375,284565.15625,255822.796875,257670.46875,121544.0,1.0,3
235037.90625,283392.59375,291729.71875,279579.03125,257607.359375,285234.125,256281.1875,258363.203125,121545.0,1.0,3
235109.078125,283258.9375,291402.9375,279402.71875,257632.390625,285284.625,256179.4375,258207.0,121546.0,1.0,3
234359.75,281917.5625,289556.40625,278777.75,256158.6875,284629.8125,255650.140625,257420.671875,121547.0,1.0,3
233820.171875,281215.28125,288729.84375,278564.0,255217.421875,284171.96875,255421.796875,257083.421875,121548.0,1.0,3
234249.515625,282136.0625,290076.46875,279057.25,256114.171875,284551.125,255812.859375,257660.734375,121549.0,1.0,3
235028.6875,283379.71875,291709.0625,279561.5,257590.8125,285228.65625,256271.25,258336.640625,121550.0,1.0,3
235107.546875,283261.34375,291403.71875,279392.96875,257635.515625,285287.03125,256179.703125,258192.703125,121551.0,1.0,3
234365.828125,281928.28125,289566.0625,278773.65625,256171.296875,284632.59375,255654.4375,257420.21875,121552.0,1.0,3
233827.0625,281221.875,288726.71875,278558.71875,255215.0,284172.3125,255426.265625,257075.828125,121553.0,1.0,3
234236.453125,282122.40625,290057.625,279045.53125,256095.03125,284544.25,255814.921875,257644.1875,121554.0,1.0,3
235015.109375,283370.25,291702.34375,279557.65625,257579.734375,285222.65625,256276.265625,258335.03125,121555.0,1.0,3
235106.921875,283267.25,291417.9375,279398.59375,257640.53125,285289.90625,256187.03125,258208.796875,121556.0,1.0,3
234373.78125,281942.59375,289588.21875,278785.71875,256187.65625,284650.46875,255675.453125,257443.46875,121557.0,1.0,3
233829.296875,281220.375,288725.1875,278559.625,255216.34375,284176.4375,255427.703125,257088.53125,121558.0,1.0,3
234223.859375,282101.1875,290032.125,279036.25,256076.53125,284528.59375,255794.8125,257636.59375,121559.0,1.0,3
235005.8125,283356.75,291685.90625,279554.25,257566.578125,285208.0,256262.765625,258326.8125,121560.0,1.0,3
235109.15625,283271.8125,291425.625,279406.21875,257647.765625,285287.21875,256183.015625,258216.390625,121561.0,1.0,3
234383.359375,281953.21875,289603.34375,278794.3125,256202.0625,284650.90625,255665.34375,257448.828125,121562.0,1.0,3
233821.96875,281210.15625,288718.03125,278557.09375,255211.6875,284169.4375,255408.75,257070.203125,121563.0,1.0,3
234207.046875,282080.09375,290014.0625,279034.71875,256058.375,284519.3125,255774.6875,257620.59375,121564.0,1.0,3
235004.46875,283353.78125,291691.875,279569.90625,257566.234375,285224.46875,256267.328125,258337.1875,121565.0,1.0,3
235126.234375,283291.9375,291454.0625,279425.96875,257664.75,285302.40625,256188.46875,258235.609375,121566.0,1.0,3
234396.671875,281967.625,289625.4375,278807.71875,256217.609375,284653.40625,255656.9375,257461.171875,121567.0,1.0,3
233830.109375,281210.09375,288724.03125,278567.125,255216.796875,284169.0,255396.5,257074.484375,121568.0,1.0,3
234214.828125,282071.6875,290007.375,279040.0,256051.046875,284517.25,255770.3125,257625.140625,121569.0,1.0,3
235008.578125,283344.6875,291684.125,279569.46875,257555.859375,285207.28125,256256.6875,258343.0,121570.0,1.0,3
235133.125,283292.5625,291464.96875,279428.375,257669.40625,285295.28125,256185.328125,258240.796875,121571.0,1.0,3
234411.15625,281974.78125,289642.3125,278807.09375,256229.765625,284659.03125,255655.953125,257452.140625,121572.0,1.0,3
233838.59375,281206.0625,288721.6875,278558.90625,255215.265625,284171.25,255394.625,257065.90625,121573.0,1.0,3
234217.140625,282057.84375,289988.25,279027.3125,256037.453125,284508.5625,255761.90625,257607.359375,121574.0,1.0,3
235008.578125,283333.78125,291669.0,279556.84375,257543.515625,285198.15625,256248.546875,258320.109375,121575.0,1.0,3
235135.359375,283298.4375,291471.15625,279425.25,257674.40625,285303.75,256195.265625,258234.359375,121576.0,1.0,3
234405.96875,281981.84375,289650.375,278806.09375,256239.25,284670.75,255670.984375,257462.421875,121577.0,1.0,3
233825.28125,281204.28125,288709.375,278549.96875,255210.796875,284169.625,255401.234375,257067.6875,121578.0,1.0,3
234209.015625,282059.71875,289972.875,279021.3125,256027.265625,284515.09375,255779.34375,257611.109375,121579.0,1.0,3
235008.125,283344.84375,291667.84375,279560.25,257542.71875,285207.75,256273.046875,258329.578125,121580.0,1.0,3
235147.609375,283323.65625,291492.40625,279440.90625,257701.953125,285321.71875,256221.71875,258248.40625,121581.0,1.0,3
234425.015625,282009.65625,289674.875,278822.03125,256275.375,284683.375,255683.671875,257479.234375,121582.0,1.0,3
233840.109375,281217.40625,288720.0,278563.1875,255235.296875,284182.875,255416.171875,257086.734375,121583.0,1.0,3
234206.421875,282050.6875,289956.5,279018.71875,256025.203125,284505.1875,255773.171875,257611.375,121584.0,1.0,3
234998.46875,283333.3125,291653.09375,279555.15625,257536.984375,285196.03125,256255.78125,258319.390625,121585.0,1.0,3
235137.59375,283318.46875,291494.03125,279437.59375,257703.640625,285315.90625,256206.4375,258243.484375,121586.0,1.0,3
234416.53125,282005.34375,289678.875,278819.53125,256281.625,284678.09375,255667.140625,257473.0625,121587.0,1.0,3
233822.765625,281198.28125,288700.40625,278550.5,255223.40625,284162.125,255385.40625,257067.25,121588.0,1.0,3
234181.5625,282019.21875,289921.375,279004.40625,255998.203125,284483.90625,255741.78125,257590.546875,121589.0,1.0,3
234980.140625,283308.1875,291627.5,279543.0,257510.265625,285172.34375,256223.6875,258308.484375,121590.0,1.0,3
235143.765625,283319.0,291497.4375,279440.0,257703.640625,285301.0,256182.125,258249.203125,121591.0,1.0,3
234439.765625,282019.03125,289694.1875,278829.34375,256297.8125,284684.625,255667.671875,257486.921875,121592.0,1.0,3
233834.65625,281192.90625,288698.28125,278554.15625,255228.859375,284169.625,255381.03125,257065.375,121593.0,1.0,3
234181.390625,281999.8125,289905.53125,279004.40625,255989.171875,284479.96875,255735.171875,257586.078125,121594.0,1.0,3
234980.0625,283297.65625,291622.5,279550.40625,257508.828125,285178.78125,256234.6875,258323.328125,121595.0,1.0,3
235147.25,283323.21875,291505.5625,279442.5,257712.3125,285306.875,256186.59375,258262.96875,121596.0,1.0,3
234442.625,282029.6875,289703.21875,278824.53125,256308.453125,284684.34375,255668.46875,257499.078125,121597.0,1.0,3
233842.265625,281203.90625,288695.40625,278542.96875,255230.828125,284169.0,255387.296875,257062.328125,121598.0,1.0,3
234178.4375,281996.25,289887.03125,278988.0625,255977.734375,284474.59375,255736.421875,257569.984375,121599.0,1.0,3
234969.78125,283291.46875,291606.6875,279529.5,257493.890625,285165.0,256223.953125,258294.453125,121600.0,1.0,3
235138.84375,283331.0,291508.875,279429.71875,257710.078125,285306.8125,256194.546875,258251.265625,121601.0,1.0,3
234443.875,282054.53125,289717.78125,278819.59375,256316.765625,284698.75,255688.953125,257497.203125,121602.0,1.0,3
233837.078125,281219.03125,288698.09375,278538.4375,255230.296875,284182.25,255406.328125,257074.75,121603.0,1.0,3
234169.9375,282002.0625,289880.3125,278982.6875,255969.5,284485.78125,255750.453125,257575.34375,121604.0,1.0,3
234955.640625,283287.53125,291597.90625,279527.71875,257487.28125,285166.78125,256232.0,258298.203125,121605.0,1.0,3
235138.21875,283342.25,291521.375,279440.28125,257728.40625,285318.59375,256213.234375,258264.578125,121606.0,1.0,3
234447.09375,282063.28125,289732.34375,278831.0625,256343.9375,284710.53125,255699.140625,257505.96875,121607.0,1.0,3
233833.859375,281209.375,288686.90625,278540.375,255239.40625,284179.03125,255400.96875,257071.625,121608.0,1.0,3
234151.609375,281971.21875,289846.34375,278978.21875,255958.6875,284463.78125,255729.265625,257564.4375,121609.0,1.0,3
234947.515625,283275.125,291580.21875,279534.0625,257488.4375,285164.8125,256228.875,258300.171875,121610.0,1.0,3
235142.515625,283344.75,291525.15625,279452.53125,257738.421875,285318.34375,256208.765625,258272.453125,121611.0,1.0,3
234459.0,282067.5,289745.5,278844.65625,256357.71875,284709.375,255690.640625,257518.65625,121612.0,1.0,3
233841.546875,281204.53125,288689.59375,278550.65625,255248.796875,284184.21875,255396.3125,257077.265625,121613.0,1.0,3
234156.265625,281963.96875,289833.75,278980.0,255948.59375,284470.75,255728.109375,257565.25,121614.0,1.0,3
234958.78125,283273.78125,291573.34375,279534.40625,257473.59375,285160.4375,256222.34375,258292.125,121615.0,1.0,3
235144.296875,283336.90625,291528.53125,279449.65625,257730.640625,285305.5625,256192.75,258262.703125,121616.0,1.0,3
234462.75,282067.40625,289755.15625,278843.5625,256357.890625,284705.8125,255683.671875,257515.171875,121617.0,1.0,3
233846.28125,281203.28125,288686.90625,278545.3125,255236.453125,284171.25,255390.0625,257071.359375,121618.0,1.0,3
234152.5,281951.34375,289822.375,278974.90625,255930.078125,284455.5625,255727.484375,257559.078125,121619.0,1.0,3
234952.34375,283263.84375,291570.75,279530.9375,257461.984375,285148.0,256222.171875,258297.125,121620.0,1.0,3
235163.78125,283362.375,291553.40625,279455.75,257743.703125,285312.6875,256205.625,258270.3125,121621.0,1.0,3
234480.265625,282096.1875,289780.71875,278844.8125,256374.796875,284714.125,255696.734375,257512.21875,121622.0,1.0,3
233849.140625,281216.875,288694.25,278540.84375,255239.859375,284174.8125,255390.6875,257062.15625,121623.0,1.0,3
234154.03125,281960.5625,289816.3125,278970.53125,255921.9375,284448.59375,255717.375,257544.671875,121624.0,1.0,3
234952.875,283275.65625,291569.40625,279533.78125,257458.046875,285142.75,256219.484375,258287.5625,121625.0,1.0,3
235159.3125,283379.71875,291568.78125,279471.46875,257757.5625,285315.21875,256216.71875,258287.5625,121626.0,1.0,3
234475.359375,282110.3125,289799.21875,278866.1875,256398.03125,284718.84375,255707.09375,257537.53125,121627.0,1.0,3
233840.828125,281214.09375,288693.625,278554.96875,255251.84375,284170.71875,255382.90625,257064.03125,121628.0,1.0,3
234138.375,281940.8125,289797.4375,278977.0625,255916.046875,284442.59375,255699.953125,257533.953125,121629.0,1.0,3
234936.34375,283257.15625,291555.8125,279539.34375,257450.09375,285138.1875,256200.53125,258274.6875,121630.0,1.0,3
235152.34375,283377.125,291575.03125,279476.9375,257762.921875,285321.0,256203.578125,258279.0625,121631.0,1.0,3
234481.796875,282128.03125,289818.90625,278877.53125,256416.90625,284739.875,255708.265625,257541.46875,121632.0,1.0,3
233836.359375,281219.8125,288691.9375,278552.71875,255255.953125,284188.3125,255396.9375,257072.96875,121633.0,1.0,3
234127.65625,281937.59375,289776.625,278963.28125,255900.578125,284444.75,255719.4375,257543.609375,121634.0,1.0,3
234944.203125,283271.71875,291548.75,279535.9375,257443.46875,285148.1875,256232.90625,258293.46875,121635.0,1.0,3
235168.078125,283400.90625,291581.5625,279476.9375,257768.015625,285331.03125,256236.390625,258292.125,121636.0,1.0,3
234499.3125,282151.28125,289830.625,278876.46875,256429.6875,284750.15625,255742.234375,257554.515625,121637.0,1.0,3
233862.828125,281242.09375,288694.34375,278555.84375,255260.15625,284200.21875,255428.421875,257087.09375,121638.0,1.0,3
234140.875,281942.78125,289757.75,278963.5625,255888.5,284453.78125,255742.0625,257537.265625,121639.0,1.0,3
234935.890625,283263.9375,291520.9375,279526.46875,257420.84375,285151.15625,256253.28125,258284.078125,121640.0,1.0,3
235168.703125,283412.8125,291578.15625,279476.65625,257760.515625,285341.40625,256259.453125,258304.453125,121641.0,1.0,3
234510.578125,282176.40625,289831.59375,278873.15625,256422.171875,284760.4375,255747.421875,257558.1875,121642.0,1.0,3
233870.0625,281260.875,288688.8125,278552.46875,255251.21875,284209.5,255423.671875,257090.140625,121643.0,1.0,3
234135.25,281944.65625,289737.8125,278953.53125,255861.765625,284446.875,255722.5625,257552.375,121644.0,1.0,3
234930.078125,283266.25,291506.625,279516.4375,257392.15625,285138.34375,256217.875,258282.828125,121645.0,1.0,3
235177.375,283432.46875,291595.34375,279475.5,257761.484375,285345.875,256222.890625,258299.546875,121646.0,1.0,3
234528.46875,282201.15625,289862.875,278874.9375,256441.046875,284768.03125,255714.25,257569.796875,121647.0,1.0,3
233868.734375,281259.0625,288691.65625,278535.5625,255247.546875,284203.0625,255380.140625,257083.703125,121648.0,1.0,3
234140.53125,281940.53125,289732.96875,278936.90625,255853.375,284448.21875,255689.75,257532.4375,121649.0,1.0,3
234945.015625,283268.15625,291515.5,279511.09375,257395.1875,285147.75,256209.03125,258289.890625,121650.0,1.0,3
235193.46875,283442.21875,291619.28125,279481.21875,257778.84375,285363.125,256240.40625,258336.640625,121651.0,1.0,3
234536.421875,282207.59375,289887.03125,278880.21875,256461.609375,284787.625,255739.28125,257591.96875,121652.0,1.0,3
233877.84375,281262.84375,288704.4375,278538.78125,255259.53125,284218.71875,255411.703125,257088.25,121653.0,1.0,3
234128.984375,281920.59375,289726.46875,278933.78125,255846.390625,284449.84375,255720.328125,257526.34375,121654.0,1.0,3
234920.515625,283243.1875,291511.09375,279507.59375,257383.296875,285145.96875,256237.546875,258279.34375,121655.0,1.0,3
235183.640625,283441.40625,291636.90625,279486.59375,257783.9375,285371.625,256279.921875,258331.46875,121656.0,1.0,3
234541.875,282218.15625,289911.09375,278891.125,256478.859375,284794.59375,255777.640625,257592.875,121657.0,1.0,3
233866.140625,281243.25,288703.5625,278539.125,255261.5,284213.09375,255436.734375,257087.28125,121658.0,1.0,3
234112.546875,281887.25,289704.90625,278927.875,255829.765625,284435.25,255729.265625,257520.359375,121659.0,1.0,3
234922.03125,283228.71875,291499.40625,279509.375,257374.0,285138.34375,256249.265625,258279.515625,121660.0,1.0,3
235186.9375,283434.875,291641.03125,279489.625,257786.25,285362.6875,256277.78125,258332.359375,121661.0,1.0,3
234544.375,282215.375,289925.125,278898.65625,256489.234375,284798.625,255772.71875,257604.765625,121662.0,1.0,3
233869.4375,281242.28125,288708.03125,278545.65625,255262.828125,284212.46875,255416.53125,257088.4375,121663.0,1.0,3
234107.4375,281880.1875,289694.09375,278931.53125,255812.6875,284426.40625,255702.53125,257516.15625,121664.0,1.0,3
234910.5,283222.46875,291494.375,279514.375,257355.40625,285125.5625,256218.6875,258278.0,121665.0,1.0,3
235182.921875,283444.09375,291659.53125,279502.125,257785.0,285356.59375,256250.78125,258333.25,121666.0,1.0,3
234537.140625,282223.34375,289943.4375,278903.03125,256486.28125,284790.65625,255748.046875,257601.8125,121667.0,1.0,3
233862.828125,281242.96875,288712.9375,278542.71875,255251.03125,284208.53125,255401.6875,257085.3125,121668.0,1.0,3
234108.96875,281881.96875,289694.53125,278930.21875,255803.296875,284431.9375,255701.109375,257516.15625,121669.0,1.0,3
234910.234375,283219.59375,291491.25,279508.40625,257346.640625,285122.71875,256212.0625,258277.375,121670.0,1.0,3
235190.34375,283452.84375,291669.1875,279495.15625,257792.609375,285357.5,256260.609375,258340.765625,121671.0,1.0,3
234557.703125,282247.75,289964.46875,278900.53125,256516.40625,284801.65625,255778.265625,257610.390625,121672.0,1.0,3
233867.828125,281246.75,288711.5,278534.40625,255269.8125,284214.25,255426.1875,257079.671875,121673.0,1.0,3
234088.046875,281852.84375,289661.09375,278908.3125,255791.046875,284415.21875,255703.15625,257487.90625,121674.0,1.0,3
234890.296875,283192.6875,291464.25,279493.375,257335.640625,285115.03125,256226.734375,258256.265625,121675.0,1.0,3
235184.4375,283445.4375,291669.8125,279495.53125,257800.390625,285366.625,256285.03125,258341.828125,121676.0,1.0,3
234569.328125,282257.3125,289982.78125,278913.21875,256536.171875,284820.78125,255798.921875,257623.359375,121677.0,1.0,3
233882.9375,281251.375,288719.1875,278544.40625,255282.5,284223.625,255438.25,257095.40625,121678.0,1.0,3
234085.71875,281839.96875,289645.625,278907.6875,255782.296875,284409.34375,255693.421875,257492.375,121679.0,1.0,3
234882.78125,283182.5,291450.9375,279492.3125,257321.4375,285102.15625,256203.21875,258252.15625,121680.0,1.0,3
235189.71875,283454.03125,291678.84375,279506.53125,257803.78125,285361.0625,256263.03125,258344.96875,121681.0,1.0,3
234569.046875,282261.875,289992.96875,278919.75,256543.046875,284812.5625,255769.140625,257620.59375,121682.0,1.0,3
233870.34375,281241.28125,288711.6875,278542.53125,255273.03125,284216.65625,255409.734375,257088.96875,121683.0,1.0,3
234077.140625,281826.8125,289626.21875,278906.40625,255758.234375,284402.96875,255673.65625,257485.3125,121684.0,1.0,3
234880.453125,283176.78125,291442.1875,279496.40625,257304.359375,285102.3125,256185.96875,258246.34375,121685.0,1.0,3
235187.296875,283457.15625,291685.71875,279505.09375,257799.046875,285356.25,256246.765625,258334.5,121686.0,1.0,3
234570.484375,282271.78125,290009.15625,278919.21875,256546.8125,284810.3125,255762.078125,257623.359375,121687.0,1.0,3
233879.8125,281255.40625,288721.875,278547.90625,255277.59375,284224.53125,255411.25,257093.890625,121688.0,1.0,3
234070.34375,281819.84375,289617.125,278904.90625,255747.421875,284400.40625,255675.171875,257477.625,121689.0,1.0,3
234872.234375,283165.875,291428.40625,279490.78125,257289.25,285088.75,256185.515625,258226.671875,121690.0,1.0,3
235186.3125,283455.53125,291685.625,279505.53125,257797.4375,285349.625,256250.78125,258328.328125,121691.0,1.0,3
234585.59375,282285.75,290023.65625,278926.90625,256566.203125,284825.25,255790.15625,257633.1875,121692.0,1.0,3
233881.6875,281250.21875,288714.8125,278537.96875,255282.6875,284217.03125,255421.0,257091.203125,121693.0,1.0,3
234065.0625,281800.78125,289593.5,278887.03125,255740.453125,284380.375,255670.359375,257469.84375,121694.0,1.0,3
234871.78125,283155.5625,291416.25,279479.96875,257291.921875,285083.625,256194.640625,258230.609375,121695.0,1.0,3
235196.59375,283467.78125,291702.53125,279507.15625,257822.921875,285366.25,256280.734375,258346.484375,121696.0,1.0,3
234586.125,282291.0,290037.84375,278920.1875,256589.1875,284830.625,255793.46875,257637.75,121697.0,1.0,3
233880.265625,281246.125,288712.5,278526.96875,255297.875,284219.6875,255421.703125,257083.96875,121698.0,1.0,3
234051.203125,281781.03125,289570.96875,278870.65625,255740.453125,284387.4375,255678.390625,257455.09375,121699.0,1.0,3
234847.375,283131.625,291392.03125,279463.6875,257282.984375,285092.5,256205.8125,258223.8125,121700.0,1.0,3
235188.734375,283461.96875,291696.09375,279500.1875,257824.703125,285364.75,256276.265625,258344.328125,121701.0,1.0,3
234594.890625,282300.65625,290045.0,278926.4375,256607.25,284839.75,255797.3125,257648.21875,121702.0,1.0,3
233883.21875,281247.375,288708.90625,278534.5625,255303.0625,284229.53125,255421.703125,257097.203125,121703.0,1.0,3
234045.3125,281769.6875,289552.46875,278876.46875,255724.796875,284385.375,255671.15625,257462.96875,121704.0,1.0,3
234836.109375,283116.875,291369.3125,279467.625,257256.703125,285070.40625,256182.125,258225.6875,121705.0,1.0,3
235182.46875,283461.78125,291694.75,279508.9375,257816.390625,285357.84375,256260.890625,258339.78125,121706.0,1.0,3
234591.3125,282308.90625,290052.25,278934.84375,256606.890625,284834.28125,255785.515625,257642.671875,121707.0,1.0,3
233872.21875,281243.78125,288702.84375,278539.21875,255293.5,284218.0,255403.375,257082.53125,121708.0,1.0,3
234039.140625,281764.84375,289531.28125,278877.46875,255705.40625,284368.375,255649.34375,257443.203125,121709.0,1.0,3
234842.453125,283122.40625,291359.03125,279475.125,257248.921875,285064.40625,256179.96875,258216.03125,121710.0,1.0,3
235190.34375,283473.59375,291704.9375,279524.3125,257825.328125,285359.625,256273.046875,258350.6875,121711.0,1.0,3
234606.421875,282331.15625,290078.625,278954.25,256629.234375,284850.09375,255815.015625,257665.46875,121712.0,1.0,3
233898.5,281273.125,288722.40625,278550.125,255313.53125,284242.0625,255444.515625,257103.1875,121713.0,1.0,3
234051.46875,281771.125,289529.125,278872.8125,255702.265625,284371.96875,255670.265625,257452.40625,121714.0,1.0,3
234837.453125,283114.4375,291354.46875,279464.15625,257237.125,285062.09375,256192.40625,258224.265625,121715.0,1.0,3
235187.390625,283477.96875,291717.46875,279518.21875,257827.296875,285364.90625,256293.515625,258371.421875,121716.0,1.0,3
234614.296875,282343.84375,290100.09375,278946.3125,256644.34375,284849.65625,255813.765625,257673.515625,121717.0,1.0,3
233889.828125,281260.25,288720.34375,278528.0625,255315.046875,284225.96875,255416.34375,257082.71875,121718.0,1.0,3
234035.828125,281745.09375,289507.59375,278847.875,255693.328125,284354.875,255645.3125,257421.75,121719.0,1.0,3
234830.484375,283096.9375,291336.40625,279445.1875,257230.5,285049.84375,256171.03125,258189.9375,121720.0,1.0,3
235197.3125,283484.0625,291724.15625,279511.625,257839.8125,285367.78125,256285.5625,258354.53125,121721.0,1.0,3
234618.140625,282348.0625,290106.6875,278940.21875,256657.765625,284858.0625,255815.734375,257667.875,121722.0,1.0,3
233891.078125,281258.53125,288717.3125,278526.71875,255319.078125,284233.5625,255421.4375,257088.96875,121723.0,1.0,3
234020.8125,281728.1875,289487.125,278842.125,255675.625,284359.09375,255643.703125,257417.984375,121724.0,1.0,3
234814.109375,283085.21875,291323.625,279446.34375,257212.984375,285052.34375,256167.8125,258196.546875,121725.0,1.0,3
235191.140625,283486.65625,291728.53125,279516.28125,257834.359375,285367.25,256276.984375,258360.609375,121726.0,1.0,3
234629.765625,282369.875,290128.78125,278955.25,256672.515625,284870.75,255818.046875,257685.9375,121727.0,1.0,3
233890.984375,281262.125,288719.71875,278529.75,255320.765625,284234.28125,255412.6875,257095.59375,121728.0,1.0,3
234016.515625,281719.4375,289475.3125,278845.28125,255666.5,284352.125,255634.234375,257414.5,121729.0,1.0,3
234809.46875,283078.25,291309.59375,279451.90625,257202.25,285044.75,256166.46875,258196.546875,121730.0,1.0,3
235184.625,283484.78125,291729.875,279527.96875,257837.75,285371.625,256287.703125,258366.15625,121731.0,1.0,3
234628.859375,282377.125,290141.75,278968.1875,256682.890625,284876.03125,255828.609375,257689.703125,121732.0,1.0,3
233899.21875,281270.78125,288728.03125,278544.21875,255328.28125,284240.25,255427.078125,257095.859375,121733.0,1.0,3
234018.390625,281713.25,289464.75,278851.71875,255658.375,284356.03125,255653.8125,257419.953125,121734.0,1.0,3
234807.40625,283070.1875,291299.03125,279452.34375,257190.359375,285042.78125,256177.296875,258192.96875,121735.0,1.0,3
235193.65625,283493.71875,291740.71875,279531.46875,257843.5625,285375.5625,256295.75,258365.53125,121736.0,1.0,3
234639.234375,282388.65625,290160.78125,278973.21875,256703.453125,284886.9375,255844.15625,257702.125,121737.0,1.0,3
233907.703125,281279.625,288737.0625,278544.875,255345.171875,284253.59375,255448.796875,257118.125,121738.0,1.0,3
234010.171875,281703.4375,289448.84375,278838.5625,255651.75,284359.0,255652.828125,257413.515625,121739.0,1.0,3
234793.109375,283053.84375,291282.5,279441.0,257180.796875,285051.09375,256178.1875,258179.109375,121740.0,1.0,3
235194.28125,283499.96875,291746.96875,279532.1875,257852.6875,285389.84375,256315.25,258371.6875,121741.0,1.0,3
234646.84375,282404.375,290176.25,278972.9375,256721.515625,284895.25,255849.96875,257699.0,121742.0,1.0,3
233898.59375,281270.625,288727.96875,278528.5,255341.953125,284233.5625,255415.0,257086.5625,121743.0,1.0,3
234002.21875,281687.875,289424.78125,278819.59375,255633.875,284325.75,255615.1875,257384.640625,121744.0,1.0,3
234790.6875,283042.65625,291269.875,279428.125,257167.734375,285021.9375,256153.421875,258168.03125,121745.0,1.0,3
235197.046875,283496.03125,291753.84375,279524.03125,257853.671875,285370.1875,256286.453125,258369.546875,121746.0,1.0,3
234664.984375,282414.40625,290193.25,278970.0,256734.65625,284891.40625,255830.5625,257706.5,121747.0,1.0,3
233921.390625,281279.0,288734.84375,278526.25,255354.296875,284247.59375,255414.203125,257090.9375,121748.0,1.0,3
234010.796875,281675.4375,289409.40625,278814.0625,255629.765625,284335.46875,255616.265625,257384.1875,121749.0,1.0,3
234783.0,283016.5625,291243.4375,279417.125,257149.140625,285013.28125,256142.875,258158.546875,121750.0,1.0,3
235191.765625,283485.21875,291744.46875,279520.125,257848.3125,285362.84375,256286.359375,258364.1875,121751.0,1.0,3
234664.625,282417.34375,290197.28125,278973.03125,256743.59375,284892.75,255846.03125,257705.34375,121752.0,1.0,3
233918.890625,281277.3125,288730.09375,278527.59375,255356.265625,284245.90625,255429.484375,257090.671875,121753.0,1.0,3
233996.671875,281658.1875,289386.0,278807.71875,255612.0625,284325.03125,255627.078125,257378.921875,121754.0,1.0,3
234769.328125,283002.15625,291223.125,279415.40625,257132.78125,285010.0625,256158.421875,258158.1875,121755.0,1.0,3
235194.09375,283490.125,291747.5,279527.96875,257848.9375,285371.71875,256303.625,258375.984375,121756.0,1.0,3
234668.734375,282426.375,290213.1875,278983.21875,256755.484375,284908.75,255856.5,257716.4375,121757.0,1.0,3
233915.84375,281277.0625,288734.03125,278534.03125,255363.0625,284258.0625,255430.203125,257090.484375,121758.0,1.0,3
233982.453125,281643.875,289366.6875,278802.71875,255601.328125,284320.8125,255610.8125,257362.921875,121759.0,1.0,3
234759.671875,282995.8125,291207.9375,279411.46875,257124.28125,285004.59375,256145.546875,258147.28125,121760.0,1.0,3
235188.203125,283497.375,291754.125,279531.90625,257859.03125,285377.78125,256302.375,258379.109375,121761.0,1.0,3
234670.4375,282444.4375,290232.0625,278990.09375,256779.625,284920.5625,255861.765625,257734.140625,121762.0,1.0,3
233916.65625,281291.96875,288742.53125,278541.71875,255382.8125,284272.09375,255445.671875,257120.265625,121763.0,1.0,3
233967.609375,281637.0,289348.8125,278800.21875,255599.546875,284326.1875,255608.125,257370.875,121764.0,1.0,3
234742.859375,282985.25,291184.3125,279399.59375,257112.390625,284998.96875,256128.03125,258132.53125,121765.0,1.0,3
235184.625,283501.03125,291751.15625,279524.59375,257861.890625,285365.8125,256276.890625,258360.34375,121766.0,1.0,3
234679.015625,282455.0625,290239.28125,278986.09375,256794.640625,284904.75,255828.25,257720.8125,121767.0,1.0,3
233917.1875,281282.84375,288733.6875,278526.96875,255386.125,284250.8125,255405.171875,257096.578125,121768.0,1.0,3
233968.859375,281622.59375,289331.71875,278787.34375,255593.015625,284306.6875,255583.09375,257356.75,121769.0,1.0,3
234747.328125,282975.96875,291174.3125,279396.625,257105.515625,284983.9375,256114.34375,258139.0625,121770.0,1.0,3
235185.875,283499.15625,291756.34375,279524.75,257865.5625,285361.0625,256273.140625,258374.640625,121771.0,1.0,3
234674.28125,282456.6875,290254.125,278987.6875,256806.453125,284910.71875,255840.5,257736.90625,121772.0,1.0,3
233916.46875,281286.4375,288739.3125,278523.65625,255386.125,284250.53125,255410.984375,257098.625,121773.0,1.0,3
233966.53125,281614.28125,289320.90625,278781.25,255575.484375,284301.59375,255588.71875,257349.421875,121774.0,1.0,3
234736.421875,282958.0625,291159.125,279390.03125,257084.59375,284975.46875,256119.265625,258127.96875,121775.0,1.0,3
235182.390625,283491.125,291758.9375,279527.25,257861.1875,285361.96875,256292.09375,258381.625,121776.0,1.0,3
234694.578125,282470.8125,290274.6875,279004.40625,256820.03125,284922.25,255864.28125,257764.703125,121777.0,1.0,3
233935.875,281288.5,288746.46875,278536.09375,255395.421875,284256.8125,255423.40625,257114.0,121778.0,1.0,3
233966.984375,281595.875,289302.125,278780.53125,255562.796875,284294.71875,255582.734375,257343.0625,121779.0,1.0,3
234730.25,282940.09375,291141.6875,279393.78125,257068.234375,284971.4375,256110.953125,258122.78125,121780.0,1.0,3
235196.6875,283500.5,291767.4375,279544.25,257866.28125,285369.03125,256292.53125,258381.703125,121781.0,1.0,3
234707.546875,282483.5,290286.0625,279011.375,256830.40625,284926.46875,255865.171875,257753.71875,121782.0,1.0,3
233945.625,281300.5625,288752.90625,278544.5,255407.859375,284268.25,255428.234375,257105.421875,121783.0,1.0,3
233976.546875,281602.3125,289296.6875,278790.71875,255572.1875,284302.84375,255593.375,257342.171875,121784.0,1.0,3
234737.140625,282943.15625,291134.0,279395.84375,257074.671875,284967.84375,256115.953125,258121.53125,121785.0,1.0,3
235195.171875,283505.59375,291769.40625,279543.34375,257878.34375,285363.46875,256296.109375,258380.09375,121786.0,1.0,3
234703.703125,282494.15625,290300.90625,279021.125,256858.125,284941.03125,255879.203125,257759.609375,121787.0,1.0,3
233934.984375,281300.125,288752.375,278545.125,255423.953125,284272.1875,255432.4375,257106.859375,121788.0,1.0,3
233947.046875,281579.5,289268.15625,278773.125,255557.25,284286.84375,255578.4375,257331.625,121789.0,1.0,3
234708.4375,282922.9375,291103.15625,279378.03125,257053.203125,284955.0625,256100.578125,258102.40625,121790.0,1.0,3
235175.671875,283498.0,291755.625,279529.40625,257866.09375,285353.28125,256270.984375,258367.9375,121791.0,1.0,3
234696.546875,282495.75,290302.59375,279007.375,256855.0,284922.78125,255847.90625,257754.703125,121792.0,1.0,3
233927.828125,281296.53125,288742.4375,278523.59375,255410.625,284250.375,255401.953125,257099.703125,121793.0,1.0,3
233935.25,281564.125,289247.0625,278753.90625,255534.546875,284271.46875,255550.28125,257319.1875,121794.0,1.0,3
234697.171875,282908.625,291087.125,279366.15625,257029.15625,284938.34375,256074.203125,258095.34375,121795.0,1.0,3
235180.859375,283506.5,291766.625,279531.46875,257862.609375,285349.09375,256265.4375,258375.625,121796.0,1.0,3
