FZ,C3,CZ,C4,PZ,PO7,OZ,PO8,Counter,Validation,Label
219556.375,241487.0,235374.15625,226841.609375,216380.09375,234690.015625,196787.8125,224177.09375,802290.0,1.0,1
219522.390625,241468.5,235312.828125,226808.796875,216332.625,234691.359375,196774.03125,224147.421875,802291.0,1.0,1
219451.9375,241296.390625,234811.796875,226707.3125,215895.59375,234431.1875,196459.859375,223912.546875,802292.0,1.0,1
219442.375,241203.40625,234550.8125,226683.53125,215661.984375,234264.0,196272.015625,223794.078125,802293.0,1.0,1
219505.859375,241322.671875,234904.59375,226768.828125,215966.953125,234428.953125,196476.9375,223956.71875,802294.0,1.0,1
219550.46875,241484.234375,235376.9375,226830.515625,216379.015625,234692.515625,196782.890625,224169.046875,802295.0,1.0,1
219518.1875,241467.34375,235309.96875,226790.734375,216329.84375,234691.1875,196767.78125,224136.6875,802296.0,1.0,1
219452.65625,241299.15625,234811.96875,226723.671875,215901.328125,234438.78125,196459.421875,223910.9375,802297.0,1.0,1
219432.546875,241195.453125,234536.328125,226676.03125,215660.640625,234269.453125,196271.390625,223790.328125,802298.0,1.0,1
219494.5,241308.734375,234884.03125,226753.625,215958.453125,234428.765625,196476.21875,223956.71875,802299.0,1.0,1
219546.984375,241482.53125,235365.9375,226837.5,216373.75,234690.640625,196785.65625,224175.765625,802300.0,1.0,1
219513.0,241453.65625,235307.90625,226802.796875,216324.3125,234688.765625,196772.515625,224140.4375,802301.0,1.0,1
219451.046875,241287.890625,234812.78125,226718.578125,215896.40625,234434.140625,196463.171875,223915.5,802302.0,1.0,1
219441.5625,241190.796875,234543.484375,226693.28125,215663.5,234267.75,196276.84375,223800.25,802303.0,1.0,1
219492.53125,241295.859375,234880.71875,226759.171875,215954.078125,234422.15625,196468.53125,223953.84375,802304.0,1.0,1
219540.0,241466.4375,235360.03125,226824.078125,216372.578125,234691.265625,196774.03125,224166.640625,802305.0,1.0,1
219520.875,241467.0625,235320.875,226805.3125,216342.015625,234703.4375,196772.96875,224145.453125,802306.0,1.0,1
219471.078125,241308.1875,234837.1875,226725.203125,215923.140625,234456.21875,196474.171875,223929.171875,802307.0,1.0,1
219452.828125,241196.96875,234556.453125,226690.0625,215675.65625,234274.015625,196278.453125,223799.890625,802308.0,1.0,1
219510.5,241314.0,234899.140625,226766.765625,215969.984375,234426.453125,196473.0,223956.0,802309.0,1.0,1
219552.53125,241481.203125,235378.453125,226836.78125,216388.671875,234693.0625,196782.984375,224171.375,802310.0,1.0,1
219522.578125,241480.921875,235332.859375,226804.859375,216353.546875,234701.28125,196777.796875,224148.3125,802311.0,1.0,1
219463.46875,241312.9375,234840.84375,226725.46875,215923.578125,234453.625,196475.0625,223923.28125,802312.0,1.0,1
219446.3125,241201.796875,234551.703125,226684.34375,215670.46875,234277.9375,196281.9375,223797.203125,802313.0,1.0,1
219505.5,241315.609375,234887.25,226762.21875,215959.796875,234433.15625,196480.6875,223955.90625,802314.0,1.0,1
219556.546875,241485.84375,235371.296875,226842.59375,216380.625,234698.875,196790.21875,224176.921875,802315.0,1.0,1
219530.53125,241482.8125,235332.234375,226815.234375,216350.40625,234708.796875,196789.421875,224155.1875,802316.0,1.0,1
219451.140625,241304.609375,234825.109375,226706.609375,215910.984375,234443.34375,196472.640625,223915.40625,802317.0,1.0,1
219441.84375,241204.921875,234544.375,226682.1875,215662.875,234270.875,196279.96875,223790.59375,802318.0,1.0,1
219491.375,241299.78125,234869.8125,226750.859375,215942.984375,234417.421875,196469.703125,223944.015625,802319.0,1.0,1
219544.03125,241466.359375,235355.65625,226835.171875,216359.4375,234684.125,196777.34375,224162.796875,802320.0,1.0,1
219522.9375,241482.984375,235330.0,226812.015625,216339.765625,234706.203125,196787.09375,224151.625,802321.0,1.0,1
219458.828125,241313.109375,234834.59375,226718.578125,215914.828125,234456.40625,196483.828125,223927.390625,802322.0,1.0,1
219440.40625,241211.359375,234539.015625,226686.578125,215655.0,234268.90625,196277.03125,223791.390625,802323.0,1.0,1
219488.6875,241304.34375,234858.015625,226745.046875,215926.890625,234406.6875,196458.515625,223932.125,802324.0,1.0,1
219536.875,241460.8125,235345.640625,226821.125,216351.84375,234677.59375,196775.46875,224154.5625,802325.0,1.0,1
219503.703125,241464.828125,235315.59375,226795.203125,216329.765625,234696.28125,196782.890625,224140.0,802326.0,1.0,1
219450.15625,241313.109375,234832.171875,226714.46875,215908.390625,234449.0625,196482.296875,223916.75,802327.0,1.0,1
219438.984375,241203.765625,234541.875,226687.015625,215653.484375,234269.0,196284.171875,223786.5625,802328.0,1.0,1
219491.734375,241304.96875,234866.421875,226748.359375,215935.390625,234418.046875,196474.703125,223943.296875,802329.0,1.0,1
219546.09375,241480.5625,235359.953125,226832.75,216367.84375,234694.125,196792.015625,224175.046875,802330.0,1.0,1
219524.890625,241487.09375,235340.453125,226824.34375,216359.078125,234718.0,196809.53125,224167.796875,802331.0,1.0,1
219453.28125,241314.0,234844.6875,226742.453125,215928.859375,234468.375,196503.140625,223937.9375,802332.0,1.0,1
219418.40625,241194.015625,234528.1875,226663.953125,215648.390625,234272.046875,196284.09375,223795.0625,802333.0,1.0,1
219479.828125,241302.5625,234855.15625,226748.4375,215927.703125,234413.75,196467.734375,223949.203125,802334.0,1.0,1
219533.84375,241476.71875,235348.765625,226831.59375,216356.21875,234680.8125,196779.40625,224168.421875,802335.0,1.0,1
219502.359375,241474.671875,235325.25,226797.796875,216338.875,234702.53125,196786.5625,224150.640625,802336.0,1.0,1
219454.625,241311.234375,234844.78125,226722.96875,215921.078125,234464.53125,196492.3125,223935.078125,802337.0,1.0,1
219428.96875,241189.109375,234534.90625,226677.8125,215647.234375,234268.015625,196276.578125,223793.09375,802338.0,1.0,1
219490.65625,241303.640625,234859.0,226752.015625,215924.921875,234414.734375,196462.90625,223942.234375,802339.0,1.0,1
219539.828125,241474.3125,235350.375,226830.875,216354.171875,234685.8125,196777.890625,224166.1875,802340.0,1.0,1
219517.03125,241477.34375,235333.296875,226798.875,216342.1875,234705.578125,196792.28125,224155.90625,802341.0,1.0,1
219457.84375,241327.421875,234850.5,226724.84375,215925.28125,234460.78125,196497.140625,223939.28125,802342.0,1.0,1
219434.5,241210.828125,234544.90625,226683.265625,215658.578125,234276.328125,196290.34375,223807.40625,802343.0,1.0,1
219489.484375,241297.90625,234858.8125,226745.578125,215929.125,234416.796875,196470.859375,223953.40625,802344.0,1.0,1
219547.15625,241478.6875,235359.671875,226838.296875,216364.71875,234693.859375,196790.9375,224184.609375,802345.0,1.0,1
219511.84375,241477.34375,235340.09375,226811.921875,216353.28125,234715.953125,196800.765625,224169.140625,802346.0,1.0,1
219452.75,241329.203125,234859.53125,226723.40625,215939.140625,234474.546875,196505.1875,223945.625,802347.0,1.0,1
219436.296875,241204.484375,234548.3125,226676.828125,215663.40625,234278.296875,196289.546875,223805.703125,802348.0,1.0,1
219486.984375,241294.875,234849.796875,226747.734375,215922.0625,234405.609375,196459.0625,223941.25,802349.0,1.0,1
219535.796875,241458.3125,235340.1875,226832.125,216348.09375,234673.921875,196770.109375,224162.34375,802350.0,1.0,1
219515.15625,241472.703125,235335.1875,226803.96875,216345.9375,234706.65625,196790.046875,224158.859375,802351.0,1.0,1
219448.984375,241315.703125,234848.09375,226703.390625,215920.640625,234464.359375,196488.203125,223931.40625,802352.0,1.0,1
219432.546875,241201.4375,234540.890625,226679.421875,215653.03125,234285.359375,196282.296875,223803.46875,802353.0,1.0,1
219486.984375,241283.421875,234844.6875,226749.515625,215912.5,234414.015625,196458.515625,223949.734375,802354.0,1.0,1
219536.875,241454.546875,235338.046875,226821.84375,216339.328125,234678.75,196769.484375,224171.640625,802355.0,1.0,1
219511.03125,241465.28125,235333.578125,226798.421875,216341.296875,234705.75,196788.34375,224168.25,802356.0,1.0,1
219450.953125,241296.03125,234849.96875,226711.15625,215924.921875,234462.921875,196494.90625,223951.796875,802357.0,1.0,1
219435.046875,241184.09375,234536.953125,226680.046875,215651.703125,234275.171875,196284.453125,223812.40625,802358.0,1.0,1
219490.46875,241291.5625,234841.203125,226747.546875,215914.203125,234411.0625,196460.484375,223954.125,802359.0,1.0,1
219534.734375,241454.828125,235331.34375,226811.5625,216342.90625,234679.734375,196779.3125,224178.078125,802360.0,1.0,1
219510.765625,241459.203125,235334.109375,226802.890625,216346.84375,234711.484375,196804.890625,224175.84375,802361.0,1.0,1
219453.28125,241309.359375,234858.546875,226731.71875,215931.1875,234471.78125,196510.734375,223952.328125,802362.0,1.0,1
219425.828125,241191.96875,234534.90625,226674.0625,215650.453125,234277.765625,196291.78125,223806.953125,802363.0,1.0,1
219484.03125,241291.921875,234833.515625,226734.40625,215909.015625,234409.90625,196459.234375,223945.53125,802364.0,1.0,1
219544.5625,241473.15625,235340.640625,226836.953125,216351.3125,234690.734375,196783.609375,224177.1875,802365.0,1.0,1
219508.53125,241474.3125,235336.515625,226801.375,216353.8125,234717.5625,196803.453125,224166.109375,802366.0,1.0,1
219444.078125,241316.328125,234853.71875,226712.40625,215934.046875,234472.765625,196503.046875,223944.1875,802367.0,1.0,1
219433.609375,241190.984375,234536.234375,226682.8125,215653.578125,234277.9375,196284.09375,223803.203125,802368.0,1.0,1
219491.015625,241282.890625,234836.734375,226748.71875,215906.953125,234405.4375,196453.15625,223938.921875,802369.0,1.0,1
219543.140625,241458.84375,235340.09375,226830.25,216343.078125,234673.125,196767.78125,224163.421875,802370.0,1.0,1
219521.046875,241480.484375,235355.921875,226811.921875,216359.625,234707.0,196793.96875,224160.734375,802371.0,1.0,1
219462.21875,241320.0,234877.328125,226715.359375,215946.03125,234463.734375,196500.28125,223941.328125,802372.0,1.0,1
219440.59375,241190.890625,234549.921875,226677.984375,215655.71875,234264.4375,196274.609375,223792.5625,802373.0,1.0,1
219487.609375,241274.21875,234833.609375,226739.59375,215900.703125,234378.703125,196433.21875,223918.890625,802374.0,1.0,1
219543.140625,241453.03125,235334.46875,226820.421875,216337.890625,234653.09375,196757.953125,224149.203125,802375.0,1.0,1
219522.484375,241473.0625,235351.453125,226810.046875,216355.421875,234696.015625,196795.234375,224159.484375,802376.0,1.0,1
219456.59375,241306.578125,234865.53125,226708.125,215934.484375,234454.4375,196497.953125,223937.578125,802377.0,1.0,1
219437.640625,241184.984375,234539.1875,226674.140625,215645.796875,234258.90625,196274.515625,223793.640625,802378.0,1.0,1
219507.375,241288.515625,234839.234375,226754.53125,215902.578125,234390.15625,196443.953125,223939.8125,802379.0,1.0,1
219567.359375,241465.8125,235345.109375,226846.4375,216343.890625,234666.953125,196764.65625,224170.390625,802380.0,1.0,1
219532.3125,241467.34375,235356.640625,226817.375,216359.71875,234702.8125,196795.234375,224166.8125,802381.0,1.0,1
219460.796875,241302.03125,234874.203125,226715.8125,215941.828125,234462.5625,196498.3125,223944.015625,802382.0,1.0,1
219442.109375,241191.515625,234547.421875,226688.546875,215654.828125,234271.421875,196279.34375,223802.84375,802383.0,1.0,1
219492.890625,241285.84375,234830.484375,226754.53125,215899.359375,234392.203125,196440.8125,223938.65625,802384.0,1.0,1
219547.515625,241466.4375,235333.921875,226824.078125,216336.015625,234663.46875,196761.4375,224166.8125,802385.0,1.0,1
219527.484375,241478.953125,235362.1875,226815.953125,216364.984375,234713.796875,196802.015625,224179.421875,802386.0,1.0,1
219465.359375,241303.90625,234883.9375,226726.09375,215950.578125,234473.203125,196509.21875,223963.0625,802387.0,1.0,1
219447.46875,241194.46875,234551.171875,226689.796875,215654.921875,234275.0,196285.609375,223814.375,802388.0,1.0,1
219511.578125,241296.21875,234840.84375,226765.515625,215902.125,234400.875,196451.375,223947.859375,802389.0,1.0,1
219551.359375,241461.53125,235331.515625,226823.546875,216333.96875,234671.0625,196765.453125,224167.796875,802390.0,1.0,1
219532.59375,241479.59375,235363.515625,226815.671875,216370.265625,234724.078125,196812.03125,224183.453125,802391.0,1.0,1
219461.421875,241313.640625,234877.59375,226720.8125,215947.09375,234476.6875,196510.015625,223953.21875,802392.0,1.0,1
219447.203125,241196.34375,234544.90625,226687.015625,215656.171875,234284.5625,196290.34375,223810.265625,802393.0,1.0,1
219488.953125,241278.234375,234814.75,226742.640625,215887.1875,234400.609375,196445.109375,223936.0625,802394.0,1.0,1
219542.59375,241448.46875,235313.71875,226821.578125,216321.796875,234673.484375,196761.96875,224158.328125,802395.0,1.0,1
219530.265625,241478.25,235352.96875,226815.328125,216364.53125,234728.734375,196811.953125,224177.015625,802396.0,1.0,1
219454.984375,241304.34375,234865.53125,226714.375,215941.90625,234481.796875,196512.609375,223953.40625,802397.0,1.0,1
219439.25,241183.203125,234529.53125,226677.71875,215644.359375,234283.21875,196286.5,223804.984375,802398.0,1.0,1
219493.0625,241266.890625,234803.125,226741.109375,215877.453125,234396.140625,196435.28125,223928.375,802399.0,1.0,1
219540.984375,241433.8125,235301.921875,226814.25,216310.171875,234655.0625,196745.78125,224148.3125,802400.0,1.0,1
219522.9375,241461.25,235343.234375,226795.5625,216346.390625,234705.21875,196792.28125,224163.515625,802401.0,1.0,1
219472.765625,241322.5,234886.453125,226724.75,215950.3125,234481.796875,196514.484375,223958.328125,802402.0,1.0,1
219435.671875,241177.65625,234529.796875,226669.953125,215638.109375,234268.734375,196271.578125,223792.734375,802403.0,1.0,1
219484.75,241259.015625,234795.15625,226732.34375,215865.828125,234377.546875,196416.859375,223914.59375,802404.0,1.0,1
219538.21875,241435.59375,235300.140625,226810.765625,216306.515625,234650.6875,196740.0625,224147.59375,802405.0,1.0,1
219536.078125,241481.90625,235357.890625,226815.046875,216359.984375,234715.765625,196801.671875,224177.546875,802406.0,1.0,1
219464.640625,241314.1875,234877.15625,226715.453125,215945.40625,234470.96875,196508.59375,223955.546875,802407.0,1.0,1
219434.421875,241179.71875,234522.375,226672.09375,215636.234375,234258.625,196268.53125,223792.65625,802408.0,1.0,1
219489.765625,241257.40625,234792.125,226740.21875,215864.3125,234365.921875,196414.359375,223915.40625,802409.0,1.0,1
219549.3125,241431.9375,235305.5,226826.140625,216309.828125,234644.59375,196738.640625,224151.796875,802410.0,1.0,1
219522.84375,241464.65625,235350.109375,226799.765625,216358.109375,234701.90625,196793.265625,224170.484375,802411.0,1.0,1
219451.765625,241302.921875,234873.75,226705.96875,215947.8125,234467.03125,196502.59375,223944.546875,802412.0,1.0,1
219430.03125,241174.796875,234524.703125,226671.28125,215642.9375,234263.546875,196268.796875,223789.34375,802413.0,1.0,1
219483.046875,241260.625,234788.640625,226738.703125,215870.828125,234371.828125,196417.84375,223916.921875,802414.0,1.0,1
219535.171875,241440.78125,235294.859375,226825.421875,216312.953125,234645.765625,196738.453125,224148.40625,802415.0,1.0,1
219513.984375,241463.84375,235342.0625,226797.078125,216360.6875,234701.015625,196791.03125,224162.96875,802416.0,1.0,1
219458.5625,241309.265625,234880.90625,226723.953125,215960.234375,234471.0625,196510.28125,223955.109375,802417.0,1.0,1
219421.8125,241180.4375,234520.328125,226671.375,215640.609375,234255.765625,196268.4375,223791.671875,802418.0,1.0,1
219469.203125,241266.4375,234778.53125,226731.28125,215861.171875,234361.71875,196412.03125,223912.546875,802419.0,1.0,1
219527.046875,241428.171875,235286.625,226809.515625,216300.875,234629.484375,196727.90625,224136.15625,802420.0,1.0,1
219517.125,241459.296875,235350.828125,226806.015625,216361.140625,234692.796875,196792.359375,224162.171875,802421.0,1.0,1
219454.625,241299.609375,234885.375,226718.84375,215961.9375,234463.640625,196511.359375,223950.359375,802422.0,1.0,1
219430.484375,241171.9375,234525.875,226672.890625,215647.765625,234250.671875,196270.046875,223788.71875,802423.0,1.0,1
219479.75,241256.421875,234779.515625,226729.40625,215862.609375,234353.671875,196406.84375,223904.859375,802424.0,1.0,1
219536.875,241430.046875,235289.9375,226812.90625,216306.515625,234628.859375,196727.28125,224138.03125,802425.0,1.0,1
219530.984375,241471.1875,235362.359375,226818.546875,216372.859375,234701.828125,196797.828125,224171.375,802426.0,1.0,1
219461.859375,241312.578125,234893.328125,226720.109375,215963.546875,234467.21875,196511.890625,223949.296875,802427.0,1.0,1
219437.375,241179.53125,234534.453125,226676.921875,215649.015625,234262.296875,196276.046875,223792.296875,802428.0,1.0,1
219487.96875,241263.484375,234782.109375,226728.859375,215856.703125,234363.6875,196406.84375,223899.765625,802429.0,1.0,1
219551.0,241436.3125,235294.40625,226831.140625,216297.578125,234631.453125,196730.3125,224132.3125,802430.0,1.0,1
219524.0,241458.9375,235352.25,226806.109375,216350.140625,234682.515625,196787.71875,224151.34375,802431.0,1.0,1
219464.546875,241310.609375,234894.140625,226711.875,215958.546875,234461.046875,196513.0625,223946.96875,802432.0,1.0,1
219444.15625,241182.75,234537.140625,226683.171875,215647.234375,234256.84375,196275.6875,223790.5,802433.0,1.0,1
219494.40625,241262.6875,234783.546875,226739.59375,215855.8125,234355.734375,196410.15625,223901.90625,802434.0,1.0,1
219545.375,241443.5625,235291.375,226818.71875,216298.46875,234626.984375,196730.046875,224129.09375,802435.0,1.0,1
219518.109375,241461.25,235354.40625,226794.046875,216359.796875,234688.5,196792.28125,224153.40625,802436.0,1.0,1
219465.0,241315.796875,234904.59375,226719.203125,215974.71875,234473.828125,196525.046875,223957.515625,802437.0,1.0,1
219430.578125,241178.828125,234528.015625,226664.40625,215644.90625,234249.515625,196269.25,223784.6875,802438.0,1.0,1
219480.1875,241246.6875,234767.171875,226730.390625,215847.5,234343.84375,196400.234375,223895.375,802439.0,1.0,1
219540.984375,241422.015625,235281.09375,226818.453125,216288.984375,234617.421875,196725.140625,224124.890625,802440.0,1.0,1
219521.859375,241457.328125,235354.578125,226805.75,216357.203125,234685.109375,196793.078125,224152.328125,802441.0,1.0,1
219459.265625,241318.46875,234901.015625,226720.546875,215961.5,234465.703125,196516.90625,223944.734375,802442.0,1.0,1
219431.375,241181.953125,234531.859375,226667.890625,215637.296875,234246.203125,196272.109375,223779.78125,802443.0,1.0,1
219472.0625,241250.796875,234767.0,226726.265625,215837.03125,234337.484375,196400.578125,223888.5,802444.0,1.0,1
219533.03125,241437.125,235283.140625,226819.609375,216286.046875,234615.71875,196728.171875,224127.75,802445.0,1.0,1
219525.4375,241473.0625,235367.546875,226813.265625,216364.359375,234688.59375,196799.34375,224159.9375,802446.0,1.0,1
219460.53125,241324.546875,234911.578125,226724.484375,215968.46875,234463.734375,196518.609375,223943.65625,802447.0,1.0,1
219428.78125,241181.234375,234535.609375,226666.734375,215640.078125,234243.4375,196272.015625,223778.796875,802448.0,1.0,1
219480.8125,241257.671875,234770.75,226727.4375,215844.09375,234340.34375,196397.90625,223888.3125,802449.0,1.0,1
219545.28125,241445.609375,235289.9375,226825.6875,216296.234375,234616.34375,196721.734375,224124.265625,802450.0,1.0,1
219533.75,241487.8125,235380.421875,226833.03125,216378.84375,234697.984375,196801.84375,224165.75,802451.0,1.0,1
219470.1875,241332.515625,234922.75,226724.21875,215980.359375,234472.84375,196523.703125,223948.484375,802452.0,1.0,1
219447.46875,241213.59375,234552.515625,226674.6875,215654.015625,234257.5625,196278.09375,223783.4375,802453.0,1.0,1
219481.625,241256.421875,234768.25,226725.734375,215840.796875,234341.953125,196396.828125,223883.9375,802454.0,1.0,1
219534.1875,241432.203125,235277.421875,226809.328125,216286.75,234617.6875,196720.3125,224117.640625,802455.0,1.0,1
219521.953125,241475.65625,235367.28125,226807.984375,216370.4375,234697.703125,196799.078125,224154.296875,802456.0,1.0,1
219470.1875,241332.0625,234924.71875,226735.5625,215986.796875,234481.515625,196531.390625,223953.578125,802457.0,1.0,1
219430.578125,241189.8125,234538.75,226671.640625,215650.359375,234256.03125,196277.921875,223785.046875,802458.0,1.0,1
219475.984375,241259.015625,234764.3125,226721.171875,215845.4375,234347.140625,196401.03125,223891.09375,802459.0,1.0,1
219542.328125,241443.015625,235286.625,226818.1875,216300.96875,234631.28125,196734.96875,224132.75,802460.0,1.0,1
219518.640625,241475.46875,235371.5625,226800.296875,216379.015625,234706.828125,196811.671875,224164.40625,802461.0,1.0,1
219458.46875,241322.3125,234922.125,226721.359375,215989.03125,234487.25,196538.0,223955.8125,802462.0,1.0,1
219432.265625,241193.3125,234542.140625,226673.609375,215658.84375,234266.3125,196282.203125,223788.0,802463.0,1.0,1
219470.265625,241263.046875,234756.71875,226717.6875,215841.234375,234343.84375,196393.25,223885.453125,802464.0,1.0,1
219527.484375,241432.734375,235267.5,226807.1875,216283.171875,234615.1875,196715.5625,224117.734375,802465.0,1.0,1
219513.453125,241454.1875,235362.71875,226804.40625,216370.96875,234693.953125,196800.5,224160.203125,802466.0,1.0,1
219465.078125,241323.65625,234925.703125,226731.8125,215991.09375,234482.953125,196534.703125,223958.953125,802467.0,1.0,1
219441.03125,241200.453125,234546.96875,226692.203125,215658.3125,234267.484375,196283.109375,223793.984375,802468.0,1.0,1
219474.65625,241236.3125,234750.375,226725.921875,215831.765625,234338.921875,196389.859375,223886.96875,802469.0,1.0,1
219540.71875,241425.234375,235270.546875,226809.953125,216283.453125,234617.875,196716.90625,224121.40625,802470.0,1.0,1
219520.609375,241461.078125,235369.875,226800.75,216372.859375,234697.171875,196802.5625,224161.984375,802471.0,1.0,1
219454.0,241308.640625,234919.890625,226714.5625,215983.390625,234476.78125,196532.46875,223956.53125,802472.0,1.0,1
219431.640625,241181.5,234538.75,226677.640625,215648.5625,234257.734375,196278.546875,223787.015625,802473.0,1.0,1
219474.109375,241246.0625,234746.171875,226723.859375,215830.328125,234338.296875,196387.171875,223884.65625,802474.0,1.0,1
219524.890625,241420.9375,235255.96875,226806.46875,216276.203125,234611.15625,196707.078125,224117.640625,802475.0,1.0,1
219518.546875,241473.234375,235374.703125,226811.921875,216380.984375,234703.4375,196806.046875,224166.8125,802476.0,1.0,1
219447.65625,241324.546875,234922.484375,226711.15625,215993.234375,234481.96875,196538.71875,223960.375,802477.0,1.0,1
219422.078125,241195.1875,234532.9375,226665.46875,215656.609375,234265.78125,196288.375,223787.734375,802478.0,1.0,1
219454.625,241243.375,234725.6875,226706.25,215821.21875,234337.046875,196388.609375,223872.9375,802479.0,1.0,1
219505.234375,241413.0625,235234.515625,226785.8125,216265.390625,234610.265625,196709.21875,224103.421875,802480.0,1.0,1
219503.96875,241463.5,235355.46875,226796.359375,216375.71875,234704.421875,196807.125,224160.296875,802481.0,1.0,1
219442.640625,241320.171875,234914.078125,226716.96875,215994.125,234488.9375,196539.078125,223958.765625,802482.0,1.0,1
219413.765625,241185.609375,234524.34375,226665.828125,215652.953125,234268.28125,196285.515625,223788.265625,802483.0,1.0,1
219460.25,241256.515625,234729.09375,226715.359375,215832.75,234349.828125,196396.390625,223888.3125,802484.0,1.0,1
219520.609375,241422.8125,235240.859375,226796.28125,216277.09375,234622.703125,196714.84375,224119.515625,802485.0,1.0,1
219518.015625,241471.625,235364.0625,226803.078125,216386.984375,234713.625,196817.046875,224174.859375,802486.0,1.0,1
219457.75,241330.640625,234925.703125,226721.984375,216008.078125,234498.421875,196550.4375,223971.109375,802487.0,1.0,1
219417.703125,241173.8125,234519.078125,226655.46875,215650.453125,234260.78125,196277.296875,223783.078125,802488.0,1.0,1
219465.078125,241235.5,234718.0,226708.75,215818.53125,234332.21875,196380.109375,223872.671875,802489.0,1.0,1
219522.125,241413.25,235232.1875,226799.140625,216263.328125,234601.953125,196701.265625,224103.96875,802490.0,1.0,1
219516.765625,241466.625,235361.46875,226805.3125,216377.328125,234696.28125,196802.015625,224158.234375,802491.0,1.0,1
219456.5,241328.21875,234930.609375,226728.15625,216005.84375,234489.75,196545.96875,223965.734375,802492.0,1.0,1
219424.578125,241184.1875,234529.09375,226670.578125,215652.234375,234256.03125,196275.234375,223785.3125,802493.0,1.0,1
219457.84375,241229.421875,234711.921875,226694.171875,215813.609375,234323.0,196372.421875,223871.5,802494.0,1.0,1
219531.875,241418.609375,235239.609375,226801.015625,216272.546875,234607.140625,196706.625,224109.0625,802495.0,1.0,1
219534.1875,241489.515625,235380.15625,226813.984375,216397.4375,234712.1875,196815.609375,224172.1875,802496.0,1.0,1
219459.546875,241342.53125,234935.4375,226712.0625,216009.859375,234489.390625,196541.21875,223961.546875,802497.0,1.0,1
219419.484375,241178.640625,234527.75,226652.515625,215650.625,234252.46875,196271.578125,223777.71875,802498.0,1.0,1
219468.03125,241242.484375,234723.09375,226708.125,215816.921875,234327.109375,196374.484375,223867.578125,802499.0,1.0,1
219523.734375,241418.34375,235233.4375,226792.078125,216259.21875,234600.703125,196693.84375,224095.375,802500.0,1.0,1
219526.234375,241476.09375,235374.78125,226812.375,216381.96875,234703.703125,196804.96875,224160.921875,802501.0,1.0,1
219453.8125,241317.578125,234931.421875,226710.796875,215996.890625,234486.625,196536.390625,223952.78125,802502.0,1.0,1
219416.171875,241170.859375,234524.171875,226654.296875,215642.671875,234256.84375,196269.515625,223773.703125,802503.0,1.0,1
219464.015625,241233.265625,234715.140625,226708.03125,215804.140625,234328.8125,196367.234375,223862.921875,802504.0,1.0,1
219530.0,241414.3125,235234.421875,226790.46875,216253.140625,234602.125,196688.921875,224097.265625,802505.0,1.0,1
219530.34375,241472.4375,235379.796875,226802.171875,216384.65625,234705.3125,196802.296875,224161.0,802506.0,1.0,1
219467.9375,241335.46875,234951.71875,226723.953125,216018.265625,234498.78125,196545.6875,223963.0625,802507.0,1.0,1
219431.203125,241190.71875,234542.59375,226667.078125,215659.03125,234264.53125,196273.625,223776.640625,802508.0,1.0,1
219469.375,241238.1875,234721.578125,226713.125,215810.21875,234324.53125,196362.953125,223860.59375,802509.0,1.0,1
219530.171875,241420.578125,235237.015625,226809.421875,216257.25,234597.65625,196685.078125,224094.21875,802510.0,1.0,1
219521.046875,241466.359375,235373.890625,226791.09375,216381.53125,234704.328125,196796.484375,224154.390625,802511.0,1.0,1
219466.15625,241334.5625,234949.84375,226711.078125,216012.453125,234501.28125,196539.96875,223959.21875,802512.0,1.0,1
219431.375,241187.21875,234542.046875,226655.546875,215651.875,234266.953125,196269.78125,223777.890625,802513.0,1.0,1
219479.125,241248.734375,234730.078125,226715.625,215812.453125,234337.3125,196370.984375,223874.09375,802514.0,1.0,1
219545.90625,241428.265625,235251.140625,226806.828125,216264.40625,234613.75,196701.078125,224107.8125,802515.0,1.0,1
219538.125,241482.984375,235398.296875,226819.515625,216393.328125,234715.140625,196811.40625,224165.390625,802516.0,1.0,1
219470.71875,241351.109375,234969.953125,226731.90625,216025.234375,234506.828125,196552.671875,223972.53125,802517.0,1.0,1
219427.984375,241187.5,234546.4375,226660.46875,215657.859375,234262.921875,196272.46875,223779.328125,802518.0,1.0,1
219464.28125,241235.59375,234717.734375,226702.046875,215805.125,234322.375,196360.53125,223859.703125,802519.0,1.0,1
219536.4375,241425.578125,235244.171875,226796.28125,216262.796875,234604.015625,196692.953125,224099.765625,802520.0,1.0,1
219537.140625,241488.078125,235401.875,226814.15625,216404.6875,234719.96875,196813.203125,224168.703125,802521.0,1.0,1
219468.578125,241348.421875,234973.96875,226725.28125,216037.9375,234519.515625,196560.796875,223977.8125,802522.0,1.0,1
219430.296875,241196.96875,234553.234375,226661.625,215670.5625,234279.109375,196283.46875,223789.078125,802523.0,1.0,1
219465.890625,241235.5,234713.171875,226706.15625,215808.34375,234328.1875,196363.921875,223864.4375,802524.0,1.0,1
219526.59375,241413.0625,235224.234375,226790.90625,216251.703125,234593.734375,196684.09375,224093.0625,802525.0,1.0,1
219520.34375,241471.984375,235380.6875,226796.71875,216391.984375,234707.71875,196805.6875,224162.171875,802526.0,1.0,1
219454.0,241325.359375,234956.453125,226713.84375,216021.484375,234500.75,196551.5,223969.40625,802527.0,1.0,1
219420.734375,241181.234375,234543.484375,226662.25,215657.328125,234264.890625,196279.265625,223787.90625,802528.0,1.0,1
219461.328125,241236.84375,234712.90625,226714.734375,215804.5,234325.859375,196365.984375,223875.078125,802529.0,1.0,1
219521.046875,241405.203125,235227.984375,226801.828125,216251.078125,234593.546875,196686.234375,224108.4375,802530.0,1.0,1
219516.21875,241463.578125,235384.625,226791.8125,216392.703125,234703.34375,196805.6875,224171.015625,802531.0,1.0,1
219457.84375,241334.84375,234966.640625,226713.390625,216032.578125,234505.125,196553.734375,223979.25,802532.0,1.0,1
219432.8125,241202.25,234554.296875,226663.6875,215670.828125,234271.421875,196283.640625,223797.125,802533.0,1.0,1
219464.015625,241233.71875,234707.984375,226705.34375,215801.625,234319.515625,196357.671875,223865.34375,802534.0,1.0,1
219527.578125,241401.359375,235226.8125,226814.15625,216252.0625,234593.90625,196681.140625,224102.359375,802535.0,1.0,1
219520.0625,241459.015625,235386.859375,226802.359375,216394.21875,234709.328125,196805.328125,224167.265625,802536.0,1.0,1
219459.984375,241332.0625,234970.75,226710.0,216034.8125,234510.765625,196559.375,223976.734375,802537.0,1.0,1
219413.140625,241179.53125,234542.953125,226640.359375,215659.125,234263.546875,196275.234375,223783.703125,802538.0,1.0,1
219470.53125,241249.453125,234714.421875,226705.34375,215803.0625,234325.6875,196359.375,223865.15625,802539.0,1.0,1
219528.921875,241424.421875,235229.140625,226799.40625,216253.765625,234600.171875,196684.546875,224101.546875,802540.0,1.0,1
219514.96875,241468.671875,235386.859375,226805.671875,216400.296875,234712.46875,196807.921875,224172.625,802541.0,1.0,1
219454.4375,241338.59375,234975.046875,226725.734375,216046.34375,234518.171875,196562.140625,223982.8125,802542.0,1.0,1
219423.328125,241194.921875,234554.84375,226662.609375,215675.84375,234278.390625,196284.359375,223790.859375,802543.0,1.0,1
219460.078125,241237.203125,234704.59375,226700.609375,215800.828125,234322.640625,196355.703125,223861.578125,802544.0,1.0,1
219518.546875,241407.96875,235215.640625,226787.0625,216242.046875,234589.53125,196674.34375,224093.328125,802545.0,1.0,1
219521.046875,241477.625,235389.625,226801.546875,216393.328125,234707.28125,196802.734375,224168.421875,802546.0,1.0,1
219462.765625,241349.765625,234979.78125,226720.90625,216040.703125,234520.953125,196560.171875,223982.015625,802547.0,1.0,1
219422.4375,241187.40625,234548.3125,226661.546875,215663.59375,234274.71875,196276.21875,223789.78125,802548.0,1.0,1
219457.75,241228.890625,234696.28125,226710.171875,215792.0625,234321.03125,196348.1875,223862.828125,802549.0,1.0,1
219515.953125,241401.796875,235209.5625,226799.859375,216237.765625,234595.515625,196670.421875,224091.265625,802550.0,1.0,1
219513.71875,241459.375,235385.515625,226796.640625,216393.421875,234718.0,196804.53125,224168.0625,802551.0,1.0,1
219450.875,241329.296875,234977.546875,226715.625,216039.359375,234518.71875,196556.25,223975.3125,802552.0,1.0,1
219411.0,241183.015625,234551.265625,226657.15625,215664.125,234275.890625,196274.609375,223784.15625,802553.0,1.0,1
219452.921875,241216.375,234697.984375,226704.359375,215785.71875,234321.65625,196346.140625,223858.453125,802554.0,1.0,1
219519.53125,241390.171875,235215.375,226797.703125,216232.390625,234590.421875,196666.578125,224090.640625,802555.0,1.0,1
219510.234375,241456.875,235391.0625,226814.6875,216392.4375,234706.375,196796.75,224167.265625,802556.0,1.0,1
219439.953125,241322.859375,234973.96875,226703.921875,216034.0,234509.0625,196550.34375,223977.09375,802557.0,1.0,1
219405.71875,241174.53125,234541.6875,226639.28125,215654.015625,234265.78125,196266.296875,223782.375,802558.0,1.0,1
219452.390625,241216.46875,234687.34375,226695.25,215778.75,234311.65625,196337.375,223853.265625,802559.0,1.0,1
219527.578125,241404.3125,235210.375,226794.125,216234.0,234590.15625,196664.875,224092.515625,802560.0,1.0,1
219521.953125,241483.875,235396.875,226798.875,216401.828125,234720.953125,196804.96875,224176.921875,802561.0,1.0,1
219467.59375,241343.78125,235000.984375,226727.4375,216060.203125,234533.375,196572.875,224000.4375,802562.0,1.0,1
219434.5,241201.4375,234573.4375,226677.8125,215685.40625,234296.625,196295.265625,223811.875,802563.0,1.0,1
219457.75,241235.234375,234695.65625,226703.46875,215786.703125,234325.859375,196346.3125,223859.96875,802564.0,1.0,1
219511.9375,241400.1875,235201.421875,226792.078125,216225.0625,234588.09375,196656.640625,224087.6875,802565.0,1.0,1
219517.203125,241476.453125,235396.875,226809.515625,216400.390625,234728.46875,196804.078125,224181.296875,802566.0,1.0,1
219455.15625,241349.140625,234993.015625,226724.9375,216051.796875,234540.0,196566.875,223997.21875,802567.0,1.0,1
219429.671875,241202.953125,234567.359375,226681.484375,215678.34375,234297.515625,196289.546875,223810.625,802568.0,1.0,1
219459.1875,241240.59375,234692.34375,226705.625,215786.25,234330.25,196347.828125,223873.46875,802569.0,1.0,1
219515.6875,241404.21875,235200.625,226794.40625,216228.640625,234594.4375,196664.609375,224109.234375,802570.0,1.0,1
219519.890625,241474.125,235399.46875,226809.234375,216401.640625,234725.421875,196807.125,224193.28125,802571.0,1.0,1
219444.703125,241334.84375,234987.03125,226699.09375,216042.234375,234525.328125,196558.203125,223993.640625,802572.0,1.0,1
219411.796875,241185.609375,234554.484375,226645.0,215664.21875,234282.59375,196279.34375,223803.375,802573.0,1.0,1
219453.28125,241217.625,234681.796875,226687.375,215773.015625,234318.171875,196341.046875,223868.640625,802574.0,1.0,1
219521.046875,241397.15625,235200.890625,226786.53125,216223.453125,234592.65625,196663.703125,224108.609375,802575.0,1.0,1
219527.671875,241480.84375,235404.65625,226802.453125,216405.671875,234727.125,196813.015625,224197.578125,802576.0,1.0,1
219469.015625,241350.84375,235008.75,226728.78125,216064.84375,234540.796875,196581.1875,224014.109375,802577.0,1.0,1
219437.28125,241197.5,234574.234375,226685.5,215683.703125,234299.765625,196297.140625,223819.5625,802578.0,1.0,1
219464.90625,241226.828125,234692.703125,226717.59375,215783.390625,234329.078125,196349.53125,223876.328125,802579.0,1.0,1
219517.921875,241398.578125,235194.640625,226784.75,216220.59375,234593.546875,196663.53125,224105.21875,802580.0,1.0,1
219514.609375,241466.625,235388.921875,226787.421875,216393.328125,234728.109375,196810.34375,224188.09375,802581.0,1.0,1
219453.453125,241337.25,234993.640625,226711.4375,216049.640625,234538.125,196578.140625,224007.046875,802582.0,1.0,1
219417.609375,241186.875,234553.9375,226655.015625,215662.25,234290.90625,196288.5625,223809.453125,802583.0,1.0,1
219445.59375,241213.6875,234664.1875,226688.546875,215759.25,234316.828125,196339.703125,223865.78125,802584.0,1.0,1
219516.40625,241395.453125,235184.703125,226787.609375,216214.15625,234594.265625,196668.359375,224107.90625,802585.0,1.0,1
219514.25,241467.78125,235388.734375,226793.0625,216396.375,234727.65625,196815.53125,224192.390625,802586.0,1.0,1
219449.078125,241342.609375,234992.9375,226707.5,216052.234375,234534.09375,196574.84375,224003.828125,802587.0,1.0,1
219412.6875,241185.4375,234554.203125,226649.65625,215667.875,234287.78125,196288.921875,223810.984375,802588.0,1.0,1
219449.4375,241215.65625,234669.453125,226689.96875,215765.25,234317.46875,196339.875,223865.515625,802589.0,1.0,1
219507.8125,241378.109375,235180.0625,226778.3125,216209.421875,234585.5,196656.109375,224097.078125,802590.0,1.0,1
219508.984375,241459.921875,235390.609375,226796.453125,216399.3125,234722.921875,196806.578125,224190.328125,802591.0,1.0,1
219444.609375,241334.84375,234998.109375,226712.953125,216062.078125,234538.125,196573.765625,224005.4375,802592.0,1.0,1
219413.046875,241184.71875,234559.125,226659.484375,215676.109375,234295.015625,196289.28125,223808.390625,802593.0,1.0,1
219451.5,241221.734375,234671.953125,226700.078125,215768.375,234321.9375,196338.265625,223864.71875,802594.0,1.0,1
219517.46875,241399.390625,235187.390625,226787.34375,216213.984375,234592.5625,196660.84375,224098.875,802595.0,1.0,1
219524.359375,241486.203125,235404.921875,226798.609375,216403.703125,234736.0625,196816.234375,224187.828125,802596.0,1.0,1
219462.046875,241355.484375,235013.3125,226716.609375,216066.1875,234550.640625,196582.96875,224002.671875,802597.0,1.0,1
219416.71875,241187.578125,234558.859375,226646.96875,215671.1875,234296.1875,196285.96875,223795.78125,802598.0,1.0,1
219454.171875,241217.71875,234665.078125,226686.21875,215760.6875,234320.328125,196333.984375,223849.515625,802599.0,1.0,1
219524.09375,241391.96875,235184.625,226782.515625,216210.9375,234594.4375,196661.03125,224091.984375,802600.0,1.0,1
219519.4375,241467.96875,235397.234375,226806.828125,216399.765625,234731.140625,196812.65625,224188.546875,802601.0,1.0,1
219458.203125,241341.453125,235009.46875,226729.3125,216062.34375,234545.359375,196580.5625,224006.59375,802602.0,1.0,1
219422.53125,241185.078125,234563.59375,226653.140625,215670.921875,234300.734375,196295.71875,223810.171875,802603.0,1.0,1
219447.03125,241204.03125,234658.1875,226690.59375,215749.328125,234316.484375,196335.765625,223857.828125,802604.0,1.0,1
219509.703125,241378.640625,235169.0625,226783.5,216188.765625,234578.34375,196650.484375,224086.4375,802605.0,1.0,1
219509.34375,241460.8125,235386.59375,226786.0,216382.59375,234721.3125,196804.890625,224174.234375,802606.0,1.0,1
219447.46875,241333.578125,235004.109375,226707.3125,216051.796875,234540.625,196574.578125,223991.484375,802607.0,1.0,1
219412.421875,241183.5625,234561.546875,226646.96875,215664.75,234297.796875,196292.140625,223798.734375,802608.0,1.0,1
219443.71875,241202.875,234653.625,226690.328125,215740.484375,234311.203125,196324.671875,223840.484375,802609.0,1.0,1
219493.25,241359.78125,235149.03125,226753.1875,216170.25,234561.28125,196629.015625,224063.546875,802610.0,1.0,1
219510.328125,241461.171875,235387.484375,226782.421875,216381.34375,234716.390625,196799.15625,224170.484375,802611.0,1.0,1
219455.515625,241342.875,235015.015625,226710.359375,216062.078125,234548.9375,196584.140625,224002.578125,802612.0,1.0,1
219415.1875,241178.375,234561.71875,226646.96875,215665.109375,234299.578125,196292.140625,223802.03125,802613.0,1.0,1
219448.71875,241208.6875,234653.625,226683.796875,215740.75,234310.578125,196330.140625,223849.0625,802614.0,1.0,1
219503.796875,241378.734375,235154.21875,226768.203125,216176.34375,234568.96875,196641.09375,224076.15625,802615.0,1.0,1
219503.96875,241443.90625,235380.0625,226788.234375,216379.296875,234717.828125,196803.1875,224177.28125,802616.0,1.0,1
219448.71875,241329.109375,235006.609375,226710.53125,216055.015625,234545.265625,196580.390625,223998.640625,802617.0,1.0,1
219407.78125,241185.890625,234554.125,226644.28125,215657.421875,234294.03125,196282.484375,223793.984375,802618.0,1.0,1
219449.34375,241209.9375,234650.328125,226698.109375,215736.28125,234307.8125,196318.6875,223842.53125,802619.0,1.0,1
219513.28125,241372.75,235160.390625,226791.625,216177.140625,234567.71875,196633.046875,224072.140625,802620.0,1.0,1
219518.8125,241462.59375,235397.765625,226793.5,216389.3125,234722.828125,196806.140625,224178.265625,802621.0,1.0,1
219454.171875,241339.578125,235024.21875,226710.09375,216071.46875,234552.328125,196590.046875,224010.09375,802622.0,1.0,1
219409.921875,241176.5,234565.921875,226648.125,215668.953125,234293.5,196287.75,223799.890625,802623.0,1.0,1
219441.03125,241198.40625,234647.90625,226681.390625,215734.40625,234300.390625,196314.3125,223836.015625,802624.0,1.0,1
219508.890625,241379.71875,235159.765625,226770.890625,216179.109375,234567.890625,196632.234375,224071.78125,802625.0,1.0,1
219523.015625,241475.390625,235407.15625,226804.328125,216393.421875,234724.890625,196806.84375,224180.859375,802626.0,1.0,1
219450.953125,241346.8125,235025.65625,226709.1875,216065.203125,234547.5,196584.140625,224003.921875,802627.0,1.0,1
219414.5625,241178.828125,234570.125,226652.875,215669.125,234302.0,196294.640625,223803.015625,802628.0,1.0,1
219435.21875,241194.46875,234639.234375,226669.859375,215725.546875,234301.015625,196314.9375,223834.046875,802629.0,1.0,1
219502.8125,241366.046875,235145.546875,226761.9375,216164.71875,234550.8125,196624.375,224062.296875,802630.0,1.0,1
219519.796875,241459.5625,235400.09375,226796.28125,216386.4375,234708.265625,196799.78125,224171.640625,802631.0,1.0,1
219454.625,241347.984375,235033.96875,226716.890625,216068.953125,234536.59375,196583.0625,223999.359375,802632.0,1.0,1
219419.3125,241189.109375,234579.6875,226656.53125,215674.5,234287.0625,196289.71875,223796.5,802633.0,1.0,1
219458.921875,241207.703125,234659.890625,226694.4375,215742.796875,234302.265625,196323.515625,223843.34375,802634.0,1.0,1
219510.140625,241369.890625,235153.234375,226765.25,216165.515625,234553.9375,196626.515625,224058.28125,802635.0,1.0,1
219515.6875,241461.96875,235401.078125,226785.1875,216386.4375,234710.140625,196801.671875,224167.09375,802636.0,1.0,1
219467.5,241352.453125,235048.71875,226728.421875,216084.6875,234550.8125,196598.4375,224010.09375,802637.0,1.0,1
219427.171875,241189.28125,234587.203125,226660.828125,215683.078125,234296.1875,196298.9375,223800.078125,802638.0,1.0,1
219458.5625,241209.21875,234655.515625,226697.484375,215742.09375,234303.15625,196318.875,223837.0,802639.0,1.0,1
219519.890625,241373.640625,235156.90625,226783.5,216175.71875,234565.5625,196632.6875,224068.5625,802640.0,1.0,1
219529.8125,241466.984375,235409.125,226809.421875,216396.453125,234725.328125,196812.578125,224180.59375,802641.0,1.0,1
219465.703125,241352.8125,235045.40625,226718.140625,216085.328125,234555.28125,196600.671875,224011.703125,802642.0,1.0,1
219422.34375,241186.78125,234579.421875,226648.21875,215674.5,234294.84375,196293.75,223800.078125,802643.0,1.0,1
219459.625,241204.390625,234651.125,226691.765625,215735.296875,234304.765625,196321.453125,223841.203125,802644.0,1.0,1
219530.4375,241387.3125,235162.453125,226791.8125,216185.8125,234572.0,196646.09375,224082.0625,802645.0,1.0,1
219528.734375,241468.40625,235406.890625,226802.359375,216405.046875,234729.453125,196822.671875,224189.890625,802646.0,1.0,1
219464.640625,241345.65625,235043.453125,226721.796875,216087.640625,234557.609375,196608.015625,224015.71875,802647.0,1.0,1
219426.734375,241190.171875,234583.625,226672.09375,215681.46875,234303.609375,196305.90625,223810.171875,802648.0,1.0,1
219446.21875,241197.78125,234634.140625,226682.8125,215723.046875,234296.625,196314.390625,223835.828125,802649.0,1.0,1
219503.796875,241374.625,235131.25,226751.84375,216156.046875,234555.28125,196625.890625,224062.65625,802650.0,1.0,1
219512.828125,241460.8125,235391.5,226787.515625,216385.28125,234721.9375,196811.5,224179.25,802651.0,1.0,1
219461.15625,241353.96875,235043.890625,226722.96875,216083.171875,234563.859375,196608.90625,224018.84375,802652.0,1.0,1
219422.796875,241203.671875,234583.0,226669.234375,215677.453125,234306.46875,196304.921875,223808.46875,802653.0,1.0,1
219446.125,241196.875,234631.28125,226680.5,215718.125,234298.859375,196314.75,223834.671875,802654.0,1.0,1
219504.78125,241363.71875,235128.109375,226764.625,216149.0625,234549.03125,196617.21875,224059.53125,802655.0,1.0,1
219525.703125,241472.078125,235406.078125,226811.65625,216393.6875,234719.53125,196813.015625,224189.4375,802656.0,1.0,1
219469.46875,241359.25,235057.921875,226733.953125,216093.546875,234560.109375,196610.515625,224026.984375,802657.0,1.0,1
219417.25,241188.125,234580.765625,226657.515625,215675.21875,234295.734375,196301.078125,223806.328125,802658.0,1.0,1
219449.890625,241202.609375,234632.625,226687.203125,215715.796875,234290.8125,196313.5,223833.421875,802659.0,1.0,1
219523.28125,241376.765625,235138.9375,226783.765625,216153.71875,234553.046875,196627.234375,224067.046875,802660.0,1.0,1
219519.796875,241463.140625,235397.046875,226790.109375,216382.953125,234712.90625,196810.421875,224178.359375,802661.0,1.0,1
219458.828125,241348.875,235047.296875,226715.625,216083.796875,234552.15625,196603.890625,224014.203125,802662.0,1.0,1
219426.90625,241193.390625,234585.5,226660.921875,215679.234375,234299.765625,196301.609375,223805.4375,802663.0,1.0,1
219460.25,241204.296875,234636.46875,226695.96875,215721.078125,234293.59375,196310.46875,223832.53125,802664.0,1.0,1
219520.96875,241372.296875,235134.109375,226780.09375,216152.90625,234548.40625,196615.875,224057.921875,802665.0,1.0,1
219533.296875,241481.828125,235410.46875,226805.84375,216398.6875,234721.3125,196810.609375,224180.5,802666.0,1.0,1
219471.96875,241374.625,235067.40625,226730.390625,216106.421875,234566.90625,196612.484375,224023.140625,802667.0,1.0,1
219421.8125,241197.421875,234590.78125,226655.28125,215688.0,234300.734375,196303.671875,223806.6875,802668.0,1.0,1
219460.53125,241216.375,234642.015625,226691.5,215725.640625,234294.484375,196310.109375,223834.5,802669.0,1.0,1
219524.453125,241382.21875,235141.34375,226784.390625,216157.921875,234551.265625,196618.375,224060.328125,802670.0,1.0,1
219532.234375,241484.953125,235416.0,226811.921875,216401.46875,234725.25,196814.1875,224181.921875,802671.0,1.0,1
219469.203125,241370.0625,235068.65625,226727.171875,216098.28125,234563.328125,196611.859375,224019.75,802672.0,1.0,1
219427.890625,241207.4375,234599.890625,226670.296875,215688.171875,234306.90625,196311.265625,223811.515625,802673.0,1.0,1
219453.375,241208.328125,234632.625,226679.6875,215715.796875,234292.15625,196313.40625,223833.78125,802674.0,1.0,1
219518.375,241376.140625,235132.9375,226777.765625,216148.4375,234549.203125,196622.3125,224064.71875,802675.0,1.0,1
219544.03125,241493.984375,235429.5,226834.71875,216413.4375,234740.171875,196832.328125,224206.609375,802676.0,1.0,1
219480.640625,241376.234375,235081.4375,226748.265625,216109.734375,234575.578125,196624.546875,224029.578125,802677.0,1.0,1
219435.9375,241202.6875,234603.734375,226677.8125,215688.625,234310.9375,196314.125,223813.390625,802678.0,1.0,1
219440.671875,241197.15625,234617.421875,226670.03125,215699.078125,234285.625,196303.21875,223827.25,802679.0,1.0,1
219502.71875,241364.875,235108.71875,226764.09375,216124.578125,234530.515625,196604.25,224051.125,802680.0,1.0,1
219524.984375,241461.796875,235401.25,226803.25,216381.96875,234707.09375,196808.640625,224184.609375,802681.0,1.0,1
219471.15625,241358.703125,235070.890625,226731.453125,216102.578125,234563.0625,196622.671875,224034.9375,802682.0,1.0,1
219422.890625,241185.53125,234590.234375,226663.421875,215685.3125,234299.3125,196314.75,223819.203125,802683.0,1.0,1
219443.71875,241186.78125,234615.640625,226684.078125,215704.453125,234276.0625,196308.234375,223832.609375,802684.0,1.0,1
219515.6875,241367.015625,235120.78125,226782.515625,216138.15625,234529.171875,196614.8125,224059.53125,802685.0,1.0,1
219537.59375,241475.828125,235417.796875,226819.796875,216398.15625,234713.265625,196819.90625,224190.953125,802686.0,1.0,1
219472.0625,241358.890625,235079.03125,226736.28125,216107.140625,234562.25,196626.0625,224033.0625,802687.0,1.0,1
219421.984375,241192.859375,234595.78125,226659.75,215689.0625,234301.640625,196317.890625,223818.21875,802688.0,1.0,1
219448.90625,241194.921875,234617.25,226679.515625,215707.9375,234280.984375,196309.296875,223829.75,802689.0,1.0,1
219519.265625,241367.015625,235117.921875,226773.03125,216142.625,234538.828125,196619.0,224061.59375,802690.0,1.0,1
219540.1875,241480.921875,235419.140625,226814.609375,216407.453125,234726.9375,196830.09375,224204.453125,802691.0,1.0,1
219489.84375,241381.328125,235097.265625,226752.015625,216129.484375,234583.0,196646.8125,224057.109375,802692.0,1.0,1
219431.375,241201.0,234605.0,226665.03125,215696.046875,234311.375,196327.984375,223828.328125,802693.0,1.0,1
219452.296875,241199.390625,234621.71875,226684.96875,215706.0625,234286.796875,196315.734375,223841.90625,802694.0,1.0,1
219511.9375,241364.078125,235111.578125,226769.984375,216128.953125,234534.1875,196611.59375,224058.015625,802695.0,1.0,1
219536.25,241482.53125,235415.640625,226814.875,216396.375,234719.796875,196821.328125,224192.828125,802696.0,1.0,1
219477.6875,241373.640625,235090.65625,226747.375,216118.140625,234574.421875,196639.390625,224046.828125,802697.0,1.0,1
219424.046875,241203.859375,234603.296875,226663.421875,215697.109375,234309.6875,196327.09375,223829.75,802698.0,1.0,1
219444.078125,241190.09375,234613.21875,226674.328125,215701.140625,234277.671875,196307.421875,223835.65625,802699.0,1.0,1
219511.390625,241356.734375,235107.546875,226769.453125,216125.734375,234526.671875,196607.5625,224059.625,802700.0,1.0,1
219535.625,241474.84375,235416.546875,226811.5625,216397.171875,234719.171875,196822.140625,224199.09375,802701.0,1.0,1
219479.203125,241377.484375,235099.5,226760.609375,216126.0,234578.4375,196640.46875,224051.9375,802702.0,1.0,1
219413.40625,241196.34375,234596.328125,226642.859375,215692.828125,234304.234375,196319.9375,223819.828125,802703.0,1.0,1
219439.421875,241193.75,234605.078125,226664.046875,215700.6875,234278.125,196304.03125,223823.578125,802704.0,1.0,1
219515.859375,241377.125,235111.125,226773.03125,216138.78125,234538.921875,196614.359375,224055.953125,802705.0,1.0,1
219539.46875,241481.203125,235420.921875,226818.0,216410.140625,234720.859375,196824.28125,224193.90625,802706.0,1.0,1
219477.515625,241373.1875,235097.53125,226744.515625,216135.296875,234575.3125,196639.65625,224045.765625,802707.0,1.0,1
219419.390625,241205.109375,234606.0625,226653.578125,215708.5625,234312.09375,196325.484375,223826.625,802708.0,1.0,1
219440.859375,241198.40625,234606.78125,226669.859375,215701.046875,234275.265625,196299.109375,223825.1875,802709.0,1.0,1
219508.71875,241371.5,235098.78125,226757.65625,216124.21875,234525.515625,196601.03125,224051.578125,802710.0,1.0,1
219529.546875,241490.9375,235411.71875,226807.0,216401.90625,234719.609375,196818.03125,224193.8125,802711.0,1.0,1
219468.03125,241371.140625,235089.9375,226730.03125,216125.46875,234572.984375,196636.796875,224045.9375,802712.0,1.0,1
219417.609375,241203.9375,234601.234375,226647.59375,215700.25,234314.15625,196326.109375,223830.015625,802713.0,1.0,1
219444.15625,241202.78125,234607.765625,226675.40625,215703.203125,234288.21875,196307.25,223839.3125,802714.0,1.0,1
219507.1875,241368.28125,235095.484375,226771.78125,216127.96875,234531.859375,196603.09375,224063.015625,802715.0,1.0,1
219525.609375,241482.53125,235404.65625,226804.140625,216398.609375,234718.71875,196813.46875,224194.0,802716.0,1.0,1
219468.484375,241386.609375,235092.890625,226731.546875,216129.671875,234584.875,196638.671875,224046.203125,802717.0,1.0,1
219417.78125,241212.4375,234605.890625,226656.359375,215703.828125,234323.984375,196330.9375,223829.75,802718.0,1.0,1
219438.265625,241197.5,234599.359375,226670.75,215694.4375,234285.90625,196306.984375,223829.3125,802719.0,1.0,1
219503.625,241370.421875,235089.484375,226762.84375,216119.109375,234532.65625,196604.078125,224049.6875,802720.0,1.0,1
219525.609375,241493.71875,235411.265625,226799.140625,216404.6875,234728.546875,196824.203125,224194.09375,802721.0,1.0,1
219471.4375,241385.625,235101.109375,226732.34375,216137.53125,234591.046875,196649.140625,224050.40625,802722.0,1.0,1
219422.25,241218.078125,234607.765625,226657.703125,215703.828125,234321.21875,196327.8125,223820.359375,802723.0,1.0,1
219441.03125,241201.34375,234595.515625,226667.078125,215686.65625,234281.4375,196298.65625,223819.921875,802724.0,1.0,1
219509.703125,241367.203125,235084.84375,226763.203125,216111.96875,234530.078125,196601.125,224048.171875,802725.0,1.0,1
219518.1875,241470.734375,235397.3125,226791.984375,216390.734375,234716.390625,196816.421875,224186.484375,802726.0,1.0,1
219464.09375,241379.09375,235093.953125,226723.140625,216128.234375,234576.46875,196640.640625,224043.890625,802727.0,1.0,1
219426.109375,241216.109375,234613.671875,226659.75,215711.234375,234319.96875,196335.59375,223830.921875,802728.0,1.0,1
219449.078125,241197.859375,234603.828125,226693.28125,215700.515625,234281.875,196306.984375,223831.8125,802729.0,1.0,1
219508.265625,241355.40625,235084.296875,226792.078125,216115.359375,234518.890625,196592.90625,224044.15625,802730.0,1.0,1
219512.296875,241472.171875,235389.71875,226774.015625,216387.78125,234705.046875,196800.953125,224174.0625,802731.0,1.0,1
219467.234375,241368.984375,235097.0,226721.171875,216135.03125,234576.390625,196637.328125,224042.90625,802732.0,1.0,1
219422.34375,241206.890625,234612.859375,226659.390625,215711.328125,234317.015625,196323.703125,223824.84375,802733.0,1.0,1
219451.671875,241204.21875,234601.953125,226678.890625,215698.90625,234283.9375,196296.515625,223827.609375,802734.0,1.0,1
219519.71875,241369.796875,235089.125,226773.5625,216119.75,234526.859375,196593.34375,224047.640625,802735.0,1.0,1
219532.859375,241478.421875,235412.703125,226803.703125,216407.0,234721.40625,196818.109375,224190.515625,802736.0,1.0,1
219486.8125,241395.8125,235122.84375,226742.0,216163.28125,234597.84375,196656.921875,224060.515625,802737.0,1.0,1
219431.015625,241219.6875,234625.46875,226662.25,215727.515625,234323.265625,196334.96875,223831.984375,802738.0,1.0,1
219447.921875,241209.21875,234601.859375,226675.125,215699.171875,234271.78125,196293.828125,223821.078125,802739.0,1.0,1
219512.640625,241359.15625,235084.578125,226770.53125,216116.875,234518.09375,196588.34375,224046.5625,802740.0,1.0,1
219532.40625,241470.828125,235414.84375,226820.59375,216407.546875,234716.65625,196817.3125,224200.96875,802741.0,1.0,1
219479.921875,241385.4375,235121.59375,226742.71875,216156.046875,234591.3125,196650.484375,224063.109375,802742.0,1.0,1
219426.546875,241212.171875,234625.015625,226656.4375,215724.390625,234323.984375,196334.15625,223837.078125,802743.0,1.0,1
219443.265625,241190.625,234594.71875,226675.671875,215694.25,234272.84375,196291.953125,223824.296875,802744.0,1.0,1
219514.25,241360.765625,235082.609375,226770.96875,216115.71875,234522.03125,196590.390625,224048.4375,802745.0,1.0,1
219534.90625,241488.890625,235416.90625,226807.90625,216411.828125,234724.890625,196816.15625,224196.59375,802746.0,1.0,1
219477.15625,241392.234375,235122.390625,226736.734375,216161.765625,234595.34375,196647.171875,224050.59375,802747.0,1.0,1
219433.25,241223.96875,234637.09375,226678.796875,215738.953125,234332.390625,196334.6875,223832.703125,802748.0,1.0,1
219450.15625,241197.328125,234601.234375,226684.609375,215699.171875,234273.46875,196286.0625,223814.015625,802749.0,1.0,1
219504.328125,241355.3125,235068.03125,226748.984375,216102.84375,234506.921875,196572.6875,224020.734375,802750.0,1.0,1
219534.90625,241477.796875,235412.875,226804.140625,216406.109375,234714.25,196808.8125,224157.078125,802751.0,1.0,1
219484.484375,241393.75,235130.53125,226741.65625,216163.546875,234593.109375,196649.046875,224026.453125,802752.0,1.0,1
219428.609375,241221.296875,234632.4375,226656.53125,215725.546875,234322.734375,196327.71875,223807.578125,802753.0,1.0,1
219459.625,241200.453125,234607.234375,226685.0625,215698.71875,234278.84375,196294.453125,223810.53125,802754.0,1.0,1
219524.984375,241356.03125,235081.4375,226770.796875,216102.84375,234513.703125,196578.5,224020.375,802755.0,1.0,1
219548.59375,241481.46875,235424.859375,226829.8125,216404.953125,234717.734375,196812.03125,224178.0,802756.0,1.0,1
219484.75,241392.328125,235135.71875,226745.3125,216161.859375,234594.625,196653.34375,224046.296875,802757.0,1.0,1
219423.953125,241220.84375,234630.203125,226649.46875,215721.96875,234319.78125,196329.15625,223817.328125,802758.0,1.0,1
219446.125,241199.828125,234593.546875,226675.578125,215685.5,234269.71875,196287.84375,223811.25,802759.0,1.0,1
219517.65625,241364.96875,235074.828125,226773.296875,216102.84375,234514.421875,196581.90625,224029.125,802760.0,1.0,1
219549.578125,241495.671875,235427.1875,226828.640625,216413.890625,234730.34375,196822.140625,224179.515625,802761.0,1.0,1
219485.5625,241390.265625,235138.03125,226760.0625,216163.28125,234596.140625,196656.734375,224039.765625,802762.0,1.0,1
219422.96875,241211.640625,234632.4375,226658.234375,215723.21875,234321.578125,196331.109375,223812.046875,802763.0,1.0,1
219435.21875,241183.828125,234582.015625,226660.5625,215675.84375,234261.578125,196278.1875,223796.40625,802764.0,1.0,1
219501.46875,241345.75,235056.671875,226757.75,216088.984375,234503.15625,196571.890625,224018.84375,802765.0,1.0,1
219527.21875,241476.1875,235406.078125,226800.75,216399.765625,234712.015625,196811.234375,224178.703125,802766.0,1.0,1
219480.109375,241390.625,235136.875,226748.265625,216173.75,234603.828125,196669.25,224059.53125,802767.0,1.0,1
219427.796875,241223.96875,234638.15625,226669.765625,215740.203125,234341.0625,196355.078125,223831.625,802768.0,1.0,1
219427.890625,241184.1875,234574.6875,226669.3125,215680.84375,234274.015625,196289.90625,223801.40625,802769.0,1.0,1
219487.34375,241338.140625,235040.3125,226747.375,216083.265625,234501.640625,196573.859375,224015.359375,802770.0,1.0,1
219522.03125,241477.4375,235400.8125,226809.0625,216396.71875,234712.28125,196815.96875,224178.703125,802771.0,1.0,1
219472.59375,241397.421875,235131.0625,226744.875,216165.515625,234597.125,196666.65625,224049.96875,802772.0,1.0,1
219417.78125,241222.0,234629.40625,226646.15625,215730.015625,234332.296875,196347.65625,223820.09375,802773.0,1.0,1
219430.296875,241186.421875,234572.09375,226658.234375,215673.6875,234266.671875,196288.46875,223796.765625,802774.0,1.0,1
219483.765625,241326.703125,235030.921875,226734.59375,216069.9375,234491.0,196565.265625,224004.015625,802775.0,1.0,1
219521.140625,241467.25,235396.609375,226795.46875,216393.6875,234708.265625,196807.828125,224172.0,802776.0,1.0,1
219483.59375,241392.859375,235139.640625,226752.734375,216172.84375,234598.46875,196662.8125,224052.375,802777.0,1.0,1
219429.5,241217.359375,234640.40625,226662.609375,215734.671875,234328.640625,196343.1875,223826.796875,802778.0,1.0,1
219443.53125,241183.828125,234580.578125,226672.8125,215678.34375,234258.453125,196279.265625,223801.234375,802779.0,1.0,1
219500.75,241338.953125,235045.6875,226746.484375,216080.84375,234488.046875,196565.8125,224015.359375,802780.0,1.0,1
219516.765625,241456.421875,235395.703125,226791.453125,216390.90625,234691.8125,196805.421875,224175.765625,802781.0,1.0,1
219468.75,241381.78125,235132.40625,226732.984375,216166.140625,234581.65625,196659.6875,224048.796875,802782.0,1.0,1
219428.0625,241219.953125,234642.09375,226668.875,215737.078125,234324.078125,196345.59375,223829.671875,802783.0,1.0,1
219443.171875,241186.78125,234578.078125,226682.015625,215677.984375,234259.796875,196282.390625,223804.09375,802784.0,1.0,1
219503.34375,241342.078125,235042.375,226750.5,216083.4375,234493.765625,196568.3125,224017.328125,802785.0,1.0,1
219533.296875,241473.6875,235406.53125,226800.84375,216404.0625,234707.09375,196812.484375,224181.65625,802786.0,1.0,1
219477.953125,241395.546875,235145.546875,226740.046875,216180.625,234596.40625,196669.078125,224060.328125,802787.0,1.0,1
219420.921875,241219.5,234642.1875,226654.921875,215740.75,234327.03125,196347.390625,223830.640625,802788.0,1.0,1
219434.15625,241182.84375,234574.234375,226667.890625,215674.9375,234258.8125,196278.8125,223803.640625,802789.0,1.0,1
219507.640625,241347.078125,235044.703125,226766.765625,216082.453125,234496.546875,196565.625,224025.828125,802790.0,1.0,1
219531.78125,241468.859375,235402.6875,226804.59375,216398.6875,234707.0,196805.59375,224182.90625,802791.0,1.0,1
219489.9375,241394.921875,235155.203125,226747.640625,216186.078125,234605.984375,196670.5,224068.203125,802792.0,1.0,1
219434.859375,241226.125,234655.0625,226664.40625,215749.0625,234335.796875,196348.90625,223843.171875,802793.0,1.0,1
219450.78125,241200.71875,234582.375,226676.375,215681.734375,234259.796875,196277.390625,223809.453125,802794.0,1.0,1
219512.203125,241350.03125,235047.015625,226765.34375,216084.96875,234490.734375,196561.78125,224022.6875,802795.0,1.0,1
219540.453125,241466.71875,235412.34375,226811.921875,216404.6875,234703.96875,196804.53125,224183.359375,802796.0,1.0,1
219493.34375,241402.25,235162.265625,226754.703125,216191.453125,234606.421875,196671.046875,224068.921875,802797.0,1.0,1
219432.359375,241224.6875,234652.109375,226659.9375,215746.921875,234340.171875,196349.265625,223837.890625,802798.0,1.0,1
219447.734375,241183.203125,234575.484375,226671.828125,215673.328125,234264.171875,196279.703125,223809.1875,802799.0,1.0,1
219513.625,241338.59375,235037.640625,226764.359375,216071.28125,234488.859375,196557.9375,224020.1875,802800.0,1.0,1
219541.34375,241479.9375,235412.78125,226815.953125,216398.328125,234707.09375,196809.625,224191.046875,802801.0,1.0,1
219481.984375,241393.578125,235158.0625,226749.875,216181.078125,234597.3125,196668.8125,224070.171875,802802.0,1.0,1
219433.703125,241220.84375,234658.375,226676.03125,215748.078125,234336.421875,196352.125,223844.59375,802803.0,1.0,1
219448.71875,241192.859375,234576.921875,226674.6875,215675.84375,234259.796875,196279.890625,223809.28125,802804.0,1.0,1
219509.703125,241344.578125,235032.359375,226748.71875,216070.296875,234488.671875,196557.3125,224016.34375,802805.0,1.0,1
219538.390625,241480.484375,235409.390625,226808.34375,216401.109375,234709.0625,196808.28125,224185.234375,802806.0,1.0,1
219497.09375,241414.5,235173.359375,226762.390625,216199.9375,234615.0,196678.734375,224080.625,802807.0,1.0,1
219445.140625,241238.015625,234668.828125,226673.34375,215759.96875,234354.65625,196358.296875,223851.921875,802808.0,1.0,1
219459.625,241198.40625,234583.265625,226683.0,215683.4375,234276.0625,196286.59375,223818.578125,802809.0,1.0,1
219512.828125,241344.3125,235034.6875,226769.8125,216073.96875,234494.21875,196559.640625,224022.421875,802810.0,1.0,1
219541.34375,241483.4375,235414.484375,226814.421875,216405.3125,234718.265625,196811.40625,224195.078125,802811.0,1.0,1
219492.0,241405.015625,235174.875,226753.8125,216199.84375,234621.890625,196677.921875,224081.875,802812.0,1.0,1
219425.5625,241220.75,234660.6875,226649.375,215752.546875,234350.265625,196351.765625,223848.171875,802813.0,1.0,1
219440.59375,241187.046875,234568.15625,226658.046875,215671.015625,234272.578125,196274.96875,223812.765625,802814.0,1.0,1
219499.59375,241336.453125,235016.4375,226735.75,216057.96875,234489.5625,196544.703125,224018.40625,802815.0,1.0,1
219523.734375,241467.609375,235392.84375,226785.453125,216387.515625,234706.828125,196797.28125,224186.578125,802816.0,1.0,1
219477.78125,241389.546875,235163.15625,226747.375,216189.921875,234614.5625,196673.359375,224080.546875,802817.0,1.0,1
219427.4375,241217.625,234660.6875,226663.328125,215753.078125,234347.59375,196354.0,223857.921875,802818.0,1.0,1
219443.0,241177.484375,234570.390625,226667.796875,215672.53125,234265.875,196279.078125,223824.75,802819.0,1.0,1
219510.953125,241334.296875,235027.4375,226762.21875,216066.8125,234493.328125,196555.625,224030.46875,802820.0,1.0,1
219540.546875,241475.828125,235412.25,226819.4375,216403.703125,234715.953125,196810.703125,224204.640625,802821.0,1.0,1
219476.078125,241396.703125,235165.9375,226732.4375,216190.828125,234610.265625,196677.65625,224084.203125,802822.0,1.0,1
219419.75,241212.890625,234657.203125,226651.96875,215748.171875,234342.578125,196357.578125,223855.234375,802823.0,1.0,1
219437.1875,241175.875,234562.53125,226665.390625,215662.96875,234259.796875,196275.421875,223819.03125,802824.0,1.0,1
219501.203125,241320.53125,235013.21875,226747.375,216048.9375,234479.828125,196542.65625,224023.3125,802825.0,1.0,1
219533.921875,241469.125,235403.484375,226803.875,216390.640625,234710.40625,196804.171875,224201.0625,802826.0,1.0,1
219483.6875,241410.109375,235177.203125,226744.25,216199.140625,234621.625,196684.359375,224099.046875,802827.0,1.0,1
219436.734375,241231.84375,234680.1875,226669.859375,215764.4375,234363.5,196370.28125,223874.453125,802828.0,1.0,1
219443.265625,241178.90625,234569.671875,226675.21875,215665.46875,234268.109375,196279.34375,223824.65625,802829.0,1.0,1
219505.578125,241329.203125,235016.4375,226750.765625,216052.6875,234487.609375,196551.859375,224029.125,802830.0,1.0,1
219545.640625,241478.0625,235414.65625,226810.40625,216399.5,234722.46875,196816.859375,224208.390625,802831.0,1.0,1
219490.46875,241402.96875,235185.609375,226748.890625,216206.015625,234629.765625,196692.046875,224098.421875,802832.0,1.0,1
219436.03125,241235.59375,234683.84375,226668.15625,215770.875,234365.65625,196376.09375,223872.484375,802833.0,1.0,1
219448.984375,241192.765625,234577.453125,226671.546875,215674.40625,234281.25,196288.828125,223827.515625,802834.0,1.0,1
219512.5625,241335.28125,235021.71875,226763.203125,216058.3125,234495.828125,196553.296875,224029.75,802835.0,1.0,1
219525.25,241468.234375,235399.015625,226783.140625,216392.4375,234718.359375,196806.046875,224201.0625,802836.0,1.0,1
219477.875,241399.5625,235181.046875,226732.0,216206.734375,234632.171875,196691.6875,224100.484375,802837.0,1.0,1
219424.3125,241224.859375,234676.96875,226662.25,215764.0,234359.84375,196368.84375,223870.25,802838.0,1.0,1
219433.875,241185.078125,234560.375,226663.59375,215658.3125,234263.640625,196273.0,223820.1875,802839.0,1.0,1
219502.1875,241344.765625,235009.03125,226751.21875,216042.234375,234485.640625,196541.9375,224024.578125,802840.0,1.0,1
219541.265625,241480.125,235411.625,226823.375,216392.515625,234721.578125,196809.0,224208.296875,802841.0,1.0,1
219479.203125,241413.15625,235185.15625,226744.25,216199.21875,234630.5625,196688.46875,224098.328125,802842.0,1.0,1
219427.171875,241243.8125,234682.953125,226675.125,215762.390625,234364.75,196366.515625,223870.875,802843.0,1.0,1
219436.65625,241184.359375,234560.203125,226665.65625,215654.734375,234266.234375,196267.640625,223818.21875,802844.0,1.0,1
219488.15625,241323.84375,234989.984375,226732.796875,216032.21875,234473.46875,196528.078125,224015.984375,802845.0,1.0,1
219526.953125,241471.09375,235391.234375,226794.84375,216387.703125,234707.09375,196798.984375,224198.828125,802846.0,1.0,1
219482.703125,241405.46875,235180.421875,226737.8125,216206.734375,234626.359375,196688.65625,224090.734375,802847.0,1.0,1
219428.25,241234.703125,234675.71875,226656.171875,215768.109375,234363.859375,196370.984375,223862.484375,802848.0,1.0,1
219440.59375,241182.671875,234553.9375,226666.015625,215659.125,234267.84375,196273.09375,223811.0625,802849.0,1.0,1
219494.046875,241319.8125,234982.375,226739.0625,216028.09375,234474.28125,196527.8125,224003.46875,802850.0,1.0,1
219523.375,241464.125,235383.015625,226791.984375,216378.578125,234708.609375,196793.53125,224183.0,802851.0,1.0,1
219480.546875,241402.0625,235181.84375,226745.765625,216207.890625,234629.21875,196690.71875,224091.359375,802852.0,1.0,1
219421.546875,241227.90625,234672.578125,226660.015625,215764.34375,234352.328125,196364.109375,223860.421875,802853.0,1.0,1
219426.90625,241172.390625,234544.828125,226655.28125,215652.59375,234254.875,196264.421875,223809.8125,802854.0,1.0,1
219500.484375,241327.328125,234994.09375,226754.34375,216040.4375,234474.640625,196534.78125,224016.875,802855.0,1.0,1
219527.125,241474.125,235394.375,226794.3125,216385.28125,234703.96875,196795.140625,224190.328125,802856.0,1.0,1
219476.53125,241403.671875,235189.890625,226737.984375,216208.4375,234625.109375,196684.0,224089.84375,802857.0,1.0,1
219422.171875,241223.875,234684.203125,226661.984375,215766.578125,234357.421875,196364.828125,223864.625,802858.0,1.0,1
219447.5625,241187.046875,234565.125,226694.0,215658.9375,234269.0,196269.421875,223817.328125,802859.0,1.0,1
219506.5625,241329.203125,234997.21875,226766.953125,216031.765625,234475.984375,196525.484375,224011.078125,802860.0,1.0,1
219523.5625,241460.359375,235392.3125,226790.640625,216380.359375,234702.625,196788.796875,224187.203125,802861.0,1.0,1
219489.765625,241409.40625,235204.5625,226743.53125,216223.984375,234639.59375,196696.34375,224102.265625,802862.0,1.0,1
219436.921875,241239.53125,234703.078125,226670.75,215785.890625,234370.84375,196375.8125,223877.765625,802863.0,1.0,1
219434.6875,241170.5,234553.765625,226657.78125,215649.546875,234254.25,196258.078125,223804.984375,802864.0,1.0,1
219501.65625,241307.921875,234986.5,226747.46875,216024.078125,234464.890625,196518.609375,224004.8125,802865.0,1.0,1
219521.40625,241449.359375,235388.5625,226791.71875,216378.21875,234695.65625,196784.859375,224184.34375,802866.0,1.0,1
219477.875,241401.4375,235198.828125,226739.140625,216218.0,234626.359375,196690.265625,224096.1875,802867.0,1.0,1
219426.453125,241223.53125,234693.859375,226657.609375,215776.859375,234360.28125,196373.859375,223868.640625,802868.0,1.0,1
219434.59375,241163.984375,234551.96875,226656.09375,215650.265625,234254.703125,196264.953125,223810.4375,802869.0,1.0,1
219494.234375,241307.296875,234975.5,226737.09375,216016.921875,234456.40625,196513.0625,224001.140625,802870.0,1.0,1
219527.9375,241451.875,235388.109375,226795.828125,216380.09375,234696.09375,196785.484375,224188.359375,802871.0,1.0,1
219485.296875,241397.328125,235201.515625,226743.796875,216219.703125,234629.484375,196690.171875,224099.046875,802872.0,1.0,1
219432.984375,241234.796875,234699.671875,226668.15625,215780.71875,234367.34375,196370.453125,223870.515625,802873.0,1.0,1
219439.953125,241183.015625,234555.546875,226672.1875,215653.578125,234262.390625,196261.109375,223812.3125,802874.0,1.0,1
219499.78125,241321.15625,234979.78125,226752.734375,216018.359375,234463.015625,196515.390625,224003.921875,802875.0,1.0,1
219525.796875,241462.328125,235388.640625,226787.875,216378.484375,234695.296875,196783.6875,224183.453125,802876.0,1.0,1
219485.5625,241405.5625,235210.09375,226748.984375,216230.25,234631.375,196693.125,224100.296875,802877.0,1.0,1
219423.15625,241228.796875,234701.203125,226660.921875,215788.125,234361.453125,196372.421875,223868.46875,802878.0,1.0,1
219420.640625,241164.25,234539.90625,226645.359375,215647.3125,234241.015625,196249.671875,223794.34375,802879.0,1.0,1
219488.15625,241309.796875,234969.78125,226738.515625,216022.375,234452.203125,196510.90625,223996.140625,802880.0,1.0,1
219523.203125,241463.40625,235392.40625,226797.53125,216390.203125,234696.640625,196788.96875,224188.8125,802881.0,1.0,1
219484.65625,241408.59375,235217.703125,226757.03125,216240.796875,234633.609375,196701.171875,224107.625,802882.0,1.0,1
219426.546875,241232.640625,234704.6875,226669.3125,215793.5,234364.21875,196375.640625,223865.96875,802883.0,1.0,1
219436.03125,241178.734375,234555.375,226669.859375,215659.5625,234257.5625,196263.078125,223803.296875,802884.0,1.0,1
219493.25,241311.5,234970.3125,226727.96875,216013.171875,234456.3125,196510.375,223990.0625,802885.0,1.0,1
219544.390625,241468.046875,235402.6875,226804.6875,216389.75,234706.375,196796.296875,224185.859375,802886.0,1.0,1
219502.28125,241413.515625,235229.5,226760.328125,216242.671875,234638.15625,196707.78125,224103.875,802887.0,1.0,1
219443.265625,241242.203125,234719.34375,226670.03125,215794.21875,234368.328125,196382.25,223865.25,802888.0,1.0,1
219441.75,241174.0,234549.828125,226652.421875,215645.703125,234252.109375,196256.28125,223791.390625,802889.0,1.0,1
219503.625,241310.703125,234968.171875,226735.390625,216010.484375,234453.890625,196508.5,223989.875,802890.0,1.0,1
219541.4375,241463.765625,235392.046875,226797.171875,216378.578125,234696.375,196787.359375,224178.0,802891.0,1.0,1
219486.8125,241402.515625,235210.71875,226738.875,216221.671875,234626.546875,196695.890625,224089.296875,802892.0,1.0,1
219431.640625,241238.359375,234705.046875,226654.5625,215779.8125,234365.46875,196379.84375,223861.84375,802893.0,1.0,1
219439.953125,241183.5625,234545.0,226652.875,215637.84375,234250.5,196259.046875,223793.1875,802894.0,1.0,1
219510.328125,241321.15625,234967.8125,226747.90625,216009.953125,234457.65625,196515.921875,223992.296875,802895.0,1.0,1
219539.109375,241457.6875,235388.28125,226803.609375,216383.046875,234695.65625,196797.28125,224184.78125,802896.0,1.0,1
219501.03125,241412.625,235225.65625,226756.40625,216248.046875,234641.03125,196722.546875,224111.5625,802897.0,1.0,1
219435.765625,241241.859375,234711.5625,226664.046875,215799.671875,234373.25,196398.796875,223877.59375,802898.0,1.0,1
219427.71875,241169.796875,234530.609375,226645.625,215638.640625,234247.453125,196261.109375,223796.40625,802899.0,1.0,1
219493.96875,241303.90625,234945.90625,226730.203125,215995.734375,234444.859375,196505.015625,223989.171875,802900.0,1.0,1
219529.8125,241455.09375,235376.21875,226791.625,216371.515625,234688.953125,196787.0,224185.328125,802901.0,1.0,1
219492.0,241414.40625,235218.0625,226745.578125,216236.234375,234635.921875,196706.171875,224103.078125,802902.0,1.0,1
219455.0625,241255.265625,234726.59375,226680.5,215804.046875,234382.375,196391.640625,223879.28125,802903.0,1.0,1
219455.421875,241183.65625,234550.8125,226674.0625,215644.984375,234256.390625,196253.328125,223797.390625,802904.0,1.0,1
219497.453125,241317.578125,234950.28125,226727.609375,215998.328125,234454.515625,196497.859375,223984.96875,802905.0,1.0,1
219542.234375,241473.328125,235387.578125,226804.953125,216381.34375,234702.171875,196789.0625,224189.4375,802906.0,1.0,1
219498.171875,241426.203125,235230.578125,226758.28125,216246.703125,234649.875,196714.046875,224116.84375,802907.0,1.0,1
219433.703125,241247.125,234715.234375,226652.6875,215796.796875,234382.015625,196388.25,223876.0625,802908.0,1.0,1
219434.953125,241175.875,234539.1875,226651.53125,215637.03125,234258.546875,196254.671875,223798.28125,802909.0,1.0,1
219505.234375,241328.84375,234962.171875,226753.90625,216002.53125,234462.921875,196503.671875,223994.796875,802910.0,1.0,1
219541.96875,241471.546875,235395.171875,226804.6875,216381.078125,234709.15625,196789.328125,224190.78125,802911.0,1.0,1
219490.390625,241399.484375,235230.9375,226742.0,216241.875,234646.484375,196710.828125,224109.6875,802912.0,1.0,1
219430.75,241231.296875,234723.375,226663.6875,215798.140625,234379.59375,196392.1875,223877.9375,802913.0,1.0,1
219436.734375,241170.328125,234542.765625,226653.21875,215638.734375,234258.1875,196255.5625,223796.21875,802914.0,1.0,1
219499.140625,241303.546875,234949.5625,226735.5625,215990.90625,234454.078125,196499.015625,223985.953125,802915.0,1.0,1
219530.078125,241440.78125,235374.15625,226794.21875,216359.625,234689.65625,196775.5625,224173.96875,802916.0,1.0,1
219493.34375,241393.21875,235223.421875,226752.296875,216233.734375,234641.296875,196706.359375,224100.921875,802917.0,1.0,1
219429.046875,241221.921875,234713.53125,226658.140625,215793.859375,234375.3125,196388.78125,223873.109375,802918.0,1.0,1
219433.25,241157.359375,234530.96875,226653.046875,215630.953125,234248.625,196252.171875,223792.296875,802919.0,1.0,1
219500.21875,241298.984375,234940.09375,226728.328125,215980.625,234442.453125,196490.96875,223974.765625,802920.0,1.0,1
219537.859375,241452.765625,235382.5625,226794.21875,216366.953125,234691.359375,196780.828125,224175.765625,802921.0,1.0,1
219497.453125,241408.15625,235240.765625,226759.625,216248.671875,234647.375,196714.9375,224109.59375,802922.0,1.0,1
219437.28125,241245.78125,234734.546875,226673.4375,215806.015625,234384.96875,196392.1875,223873.5625,802923.0,1.0,1
219436.203125,241180.96875,234544.015625,226656.796875,215637.03125,234257.640625,196253.0625,223788.359375,802924.0,1.0,1
219495.84375,241291.46875,234942.0625,226745.3125,215978.65625,234438.96875,196485.796875,223969.234375,802925.0,1.0,1
219525.515625,241443.828125,235373.890625,226791.453125,216358.546875,234681.609375,196768.9375,224163.328125,802926.0,1.0,1
219490.296875,241415.296875,235240.140625,226754.078125,216247.328125,234646.484375,196713.15625,224102.71875,802927.0,1.0,1
219435.3125,241244.0,234739.015625,226674.0625,215811.921875,234388.359375,196401.296875,223879.90625,802928.0,1.0,1
219431.5625,241165.765625,234539.90625,226652.6875,215634.53125,234252.546875,196253.875,223788.171875,802929.0,1.0,1
219475.984375,241295.9375,234928.734375,226720.546875,215973.828125,234436.1875,196482.578125,223966.375,802930.0,1.0,1
219518.28125,241446.234375,235373.171875,226787.0625,216365.875,234688.328125,196773.140625,224169.046875,802931.0,1.0,1
219489.765625,241413.15625,235243.453125,226759.265625,216262.53125,234654.53125,196718.703125,224112.375,802932.0,1.0,1
219432.546875,241245.34375,234739.734375,226675.578125,215824.34375,234393.546875,196402.375,223884.828125,802933.0,1.0,1
219426.453125,241164.421875,234536.953125,226655.8125,215641.6875,234252.734375,196249.671875,223792.921875,802934.0,1.0,1
219484.3125,241293.890625,234931.515625,226731.09375,215980.71875,234433.875,196481.046875,223975.390625,802935.0,1.0,1
219521.140625,241449.90625,235372.828125,226791.453125,216368.828125,234683.578125,196766.96875,224171.734375,802936.0,1.0,1
219486.90625,241420.40625,235244.4375,226755.15625,216263.78125,234649.078125,196709.75,224109.6875,802937.0,1.0,1
219426.640625,241236.9375,234737.234375,226669.40625,215820.3125,234385.234375,196392.453125,223876.6875,802938.0,1.0,1
219425.75,241160.40625,234534.453125,226652.328125,215636.859375,234248.703125,196244.484375,223789.25,802939.0,1.0,1
219482.25,241281.1875,234922.828125,226722.34375,215969.625,234430.203125,196473.1875,223967.890625,802940.0,1.0,1
219524.265625,241437.5625,235370.9375,226789.21875,216359.359375,234679.65625,196762.234375,224165.203125,802941.0,1.0,1
219499.6875,241418.796875,235260.34375,226764.984375,216269.5,234654.609375,196718.0625,224119.34375,802942.0,1.0,1
219447.5625,241258.296875,234764.234375,226688.546875,215836.328125,234400.515625,196404.609375,223894.75,802943.0,1.0,1
219441.75,241184.453125,234556.265625,226683.53125,215649.015625,234258.90625,196249.125,223801.953125,802944.0,1.0,1
219488.6875,241297.734375,234932.765625,226741.03125,215972.9375,234431.09375,196468.359375,223964.671875,802945.0,1.0,1
219533.125,241459.015625,235384.09375,226799.40625,216368.296875,234686.0,196763.125,224168.703125,802946.0,1.0,1
219489.484375,241421.46875,235259.625,226758.546875,216269.328125,234652.109375,196712.34375,224113.359375,802947.0,1.0,1
219424.046875,241246.234375,234747.234375,226657.25,215826.578125,234386.9375,196393.703125,223879.640625,802948.0,1.0,1
219419.21875,241175.609375,234536.6875,226641.609375,215639.8125,234250.046875,196241.0,223786.921875,802949.0,1.0,1
219490.5625,241311.140625,234931.421875,226735.296875,215983.671875,234444.859375,196478.8125,223974.328125,802950.0,1.0,1
219541.96875,241470.015625,235386.671875,226813.53125,216379.734375,234696.375,196774.125,224178.796875,802951.0,1.0,1
219492.265625,241430.859375,235256.6875,226757.921875,216271.109375,234656.765625,196714.578125,224114.15625,802952.0,1.0,1
219433.4375,241262.328125,234754.75,226681.390625,215835.703125,234402.390625,196405.234375,223890.375,802953.0,1.0,1
219436.296875,241180.34375,234539.546875,226663.6875,215641.59375,234257.640625,196250.65625,223797.484375,802954.0,1.0,1
219497.71875,241305.78125,234923.734375,226739.0625,215974.28125,234440.125,196479.703125,223977.09375,802955.0,1.0,1
219528.390625,241454.90625,235373.625,226802.265625,216368.828125,234689.75,196771.359375,224179.78125,802956.0,1.0,1
219495.578125,241430.765625,235267.671875,226763.46875,216280.40625,234669.28125,196730.234375,224129.796875,802957.0,1.0,1
219428.25,241257.671875,234754.65625,226668.421875,215829.4375,234400.15625,196406.9375,223884.375,802958.0,1.0,1
219421.984375,241171.578125,234529.984375,226649.296875,215631.671875,234254.15625,196247.34375,223784.421875,802959.0,1.0,1
219484.21875,241288.703125,234912.734375,226735.390625,215961.765625,234431.640625,196472.109375,223961.890625,802960.0,1.0,1
219535.171875,241456.15625,235380.15625,226816.03125,216367.125,234688.765625,196773.6875,224172.625,802961.0,1.0,1
219487.703125,241432.640625,235266.515625,226761.9375,216272.890625,234656.140625,196720.9375,224111.390625,802962.0,1.0,1
219421.90625,241245.15625,234753.140625,226662.25,215828.0,234388.71875,196400.9375,223877.859375,802963.0,1.0,1
219415.1875,241162.734375,234525.59375,226638.828125,215627.5625,234239.140625,196236.609375,223778.96875,802964.0,1.0,1
219479.65625,241279.3125,234907.8125,226726.09375,215960.859375,234420.71875,196464.15625,223962.609375,802965.0,1.0,1
219530.078125,241447.484375,235374.15625,226809.953125,216368.5625,234684.390625,196768.578125,224177.1875,802966.0,1.0,1
219506.484375,241433.984375,235285.203125,226797.703125,216294.171875,234672.3125,196740.15625,224138.65625,802967.0,1.0,1
219427.796875,241259.46875,234766.734375,226667.796875,215846.421875,234409.375,196422.484375,223901.546875,802968.0,1.0,1
219411.0,241162.375,234525.6875,226632.75,215634.703125,234259.171875,196253.15625,223791.390625,802969.0,1.0,1
219480.90625,241288.25,234904.78125,226727.96875,215961.140625,234433.953125,196473.453125,223962.515625,802970.0,1.0,1
219527.125,241459.828125,235366.46875,226807.0,216365.609375,234691.359375,196771.0,224170.75,802971.0,1.0,1
219479.484375,241426.203125,235258.921875,226741.65625,216280.234375,234666.140625,196729.25,224117.5625,802972.0,1.0,1
219425.390625,241251.6875,234762.703125,226667.703125,215846.421875,234410.890625,196418.109375,223890.8125,802973.0,1.0,1
219419.125,241168.71875,234530.96875,226650.71875,215639.359375,234260.515625,196251.546875,223791.484375,802974.0,1.0,1
219477.0625,241287.625,234898.875,226720.90625,215953.71875,234425.546875,196463.171875,223956.0,802975.0,1.0,1
219528.390625,241455.890625,235369.609375,226801.640625,216362.296875,234684.828125,196764.828125,224164.21875,802976.0,1.0,1
219500.125,241435.0625,235285.375,226772.765625,216293.640625,234673.125,196738.1875,224126.859375,802977.0,1.0,1
219428.96875,241262.859375,234776.296875,226677.359375,215854.375,234413.75,196425.703125,223898.859375,802978.0,1.0,1
219412.421875,241166.75,234527.125,226643.125,215635.6875,234252.375,196249.578125,223791.75,802979.0,1.0,1
219479.125,241294.6875,234900.84375,226726.265625,215956.21875,234425.015625,196466.296875,223965.828125,802980.0,1.0,1
219518.1875,241455.53125,235365.3125,226791.8125,216361.671875,234682.421875,196768.9375,224174.234375,802981.0,1.0,1
219486.8125,241436.046875,235279.484375,226756.578125,216290.515625,234666.140625,196737.03125,224130.34375,802982.0,1.0,1
219426.8125,241270.015625,234777.640625,226664.578125,215853.21875,234414.828125,196427.046875,223903.515625,802983.0,1.0,1
219431.828125,241180.078125,234543.21875,226655.28125,215643.109375,234265.34375,196263.609375,223803.375,802984.0,1.0,1
219492.078125,241299.875,234905.765625,226735.125,215949.59375,234425.90625,196466.296875,223964.046875,802985.0,1.0,1
219536.25,241468.234375,235372.546875,226804.140625,216356.765625,234682.953125,196765.8125,224173.078125,802986.0,1.0,1
219488.15625,241426.484375,235276.984375,226749.78125,216279.78125,234661.5,196731.390625,224125.328125,802987.0,1.0,1
219423.328125,241248.921875,234772.453125,226657.25,215843.296875,234406.515625,196421.234375,223896.0,802988.0,1.0,1
219424.671875,241167.109375,234535.4375,226646.609375,215634.984375,234256.03125,196254.671875,223793.546875,802989.0,1.0,1
219484.21875,241283.34375,234898.96875,226724.125,215949.15625,234420.640625,196466.390625,223961.359375,802990.0,1.0,1
219528.921875,241445.171875,235367.28125,226799.234375,216357.125,234676.875,196766.796875,224172.265625,802991.0,1.0,1
219496.828125,241431.390625,235289.578125,226771.15625,216294.265625,234666.59375,196742.125,224133.828125,802992.0,1.0,1
219422.796875,241254.546875,234781.9375,226677.453125,215852.421875,234406.953125,196428.65625,223903.328125,802993.0,1.0,1
219413.765625,241154.765625,234528.640625,226647.421875,215628.09375,234247.09375,196251.28125,223791.21875,802994.0,1.0,1
219477.0625,241272.4375,234886.984375,226718.5,215936.546875,234410.4375,196458.25,223950.71875,802995.0,1.0,1
219519.984375,241437.828125,235356.109375,226784.75,216345.3125,234669.015625,196758.578125,224157.25,802996.0,1.0,1
219485.921875,241417.265625,235279.84375,226753.265625,216283.359375,234659.265625,196730.40625,224117.640625,802997.0,1.0,1
219431.015625,241254.8125,234787.390625,226676.03125,215856.96875,234407.765625,196422.046875,223896.71875,802998.0,1.0,1
219428.15625,241168.09375,234536.859375,226660.640625,215636.046875,234247.015625,196247.25,223789.78125,802999.0,1.0,1
219481.09375,241283.15625,234887.875,226723.859375,215935.5625,234404.625,196453.328125,223950.453125,803000.0,1.0,1
219518.90625,241447.84375,235353.6875,226783.84375,216342.1875,234667.484375,196754.546875,224158.6875,803001.0,1.0,1
219474.375,241421.5625,235274.734375,226742.0,216282.015625,234656.5,196730.765625,224120.234375,803002.0,1.0,1
219415.734375,241255.796875,234775.140625,226656.890625,215848.84375,234400.515625,196423.390625,223895.734375,803003.0,1.0,1
219414.03125,241154.859375,234518.265625,226638.75,215621.390625,234241.109375,196242.875,223782.640625,803004.0,1.0,1
219477.0625,241275.375,234878.21875,226726.0,215932.078125,234406.6875,196451.375,223948.84375,803005.0,1.0,1
219527.9375,241445.796875,235362.453125,226824.890625,216356.671875,234674.375,196763.40625,224173.4375,803006.0,1.0,1
219488.859375,241431.9375,235292.171875,226757.390625,216301.6875,234670.96875,196746.140625,224137.5,803007.0,1.0,1
219419.578125,241254.109375,234783.984375,226651.890625,215858.765625,234410.265625,196432.0625,223900.921875,803008.0,1.0,1
219407.6875,241155.3125,234519.515625,226628.546875,215625.5,234244.140625,196249.125,223784.875,803009.0,1.0,1
219470.0,241276.28125,234873.296875,226707.140625,215928.328125,234401.859375,196448.859375,223947.0625,803010.0,1.0,1
219518.640625,241439.359375,235348.140625,226787.421875,216343.171875,234660.875,196750.875,224159.9375,803011.0,1.0,1
219498.96875,241439.0,235299.15625,226775.359375,216308.125,234670.53125,196747.578125,224141.78125,803012.0,1.0,1
219436.921875,241266.53125,234802.21875,226682.8125,215876.109375,234414.734375,196436.171875,223909.328125,803013.0,1.0,1
219426.734375,241169.875,234532.03125,226647.234375,215637.75,234249.875,196250.828125,223788.0,803014.0,1.0,1
219483.328125,241281.546875,234876.4375,226725.46875,215937.0,234413.3125,196453.15625,223950.0,803015.0,1.0,1
219529.71875,241441.765625,235351.625,226791.890625,216349.078125,234672.578125,196753.75,224159.046875,803016.0,1.0,1
219503.796875,241437.921875,235300.21875,226762.84375,216305.4375,234676.515625,196741.046875,224128.375,803017.0,1.0,1
219440.140625,241274.671875,234802.3125,226675.84375,215875.484375,234420.375,196435.0,223902.703125,803018.0,1.0,1
219435.9375,241172.46875,234534.625,226656.890625,215640.15625,234256.484375,196252.171875,223791.125,803019.0,1.0,1
219486.265625,241288.34375,234873.484375,226717.6875,215933.15625,234410.890625,196452.265625,223946.875,803020.0,1.0,1
219526.328125,241447.484375,235345.28125,226786.796875,216342.453125,234667.21875,196753.203125,224153.234375,803021.0,1.0,1
219500.9375,241430.5,235295.390625,226764.359375,216305.171875,234675.71875,196750.171875,224133.734375,803022.0,1.0,1
219440.859375,241274.390625,234804.90625,226680.671875,215878.796875,234428.140625,196446.90625,223910.484375,803023.0,1.0,1
219429.859375,241178.734375,234536.78125,226658.859375,215640.15625,234260.328125,196260.484375,223792.921875,803024.0,1.0,1
219478.40625,241288.96875,234865.703125,226720.8125,215925.8125,234406.875,196450.296875,223944.734375,803025.0,1.0,1
219523.90625,241454.1875,235341.265625,226779.296875,216340.3125,234669.546875,196759.203125,224161.0,803026.0,1.0,1
219500.046875,241444.984375,235302.546875,226763.28125,216309.546875,234681.609375,196758.390625,224137.765625,803027.0,1.0,1
219434.234375,241274.390625,234805.0,226670.84375,215877.546875,234430.296875,196449.3125,223907.0,803028.0,1.0,1
219421.0,241172.46875,234526.859375,226652.25,215630.0625,234257.5625,196255.921875,223782.375,803029.0,1.0,1
219492.171875,241296.21875,234873.21875,226725.203125,215926.359375,234417.78125,196457.625,223950.546875,803030.0,1.0,1
219535.09375,241460.1875,235350.296875,226786.890625,216339.59375,234675.71875,196759.203125,224161.546875,803031.0,1.0,1
219505.3125,241446.59375,235309.96875,226769.015625,216307.5,234678.390625,196753.390625,224140.4375,803032.0,1.0,1
219445.421875,241281.640625,234819.75,226681.84375,215882.1875,234431.453125,196453.0625,223921.21875,803033.0,1.0,1
219431.375,241180.515625,234535.53125,226650.1875,215632.203125,234259.609375,196258.078125,223791.390625,803034.0,1.0,1
219478.3125,241285.125,234860.609375,226709.546875,215915.265625,234410.171875,196448.0625,223942.671875,803035.0,1.0,1
219523.109375,241448.734375,235338.84375,226777.59375,216334.140625,234669.546875,196756.609375,224160.734375,803036.0,1.0,1
219497.625,241444.71875,235302.453125,226756.3125,216304.640625,234678.21875,196752.84375,224141.421875,803037.0,1.0,1
219443.53125,241286.46875,234818.3125,226680.578125,215883.96875,234435.203125,196454.9375,223922.734375,803038.0,1.0,1
219431.015625,241182.84375,234534.453125,226653.859375,215635.609375,234260.421875,196260.9375,223798.28125,803039.0,1.0,1
219485.734375,241274.21875,234861.765625,226716.4375,215917.328125,234406.421875,196447.703125,223951.34375,803040.0,1.0,1
219531.0625,241437.5625,235344.921875,226791.09375,216332.265625,234669.09375,196750.609375,224162.96875,803041.0,1.0,1
219492.171875,241423.53125,235305.859375,226751.578125,216301.59375,234679.375,196751.515625,224140.71875,803042.0,1.0,1
219431.203125,241265.90625,234815.09375,226657.96875,215874.140625,234433.6875,196449.578125,223915.046875,803043.0,1.0,1
219423.59375,241168.71875,234530.421875,226639.90625,215620.578125,234258.71875,196252.890625,223789.34375,803044.0,1.0,1
219484.21875,241274.84375,234860.78125,226718.3125,215905.796875,234407.765625,196446.984375,223950.625,803045.0,1.0,1
219521.328125,241435.859375,235334.640625,226769.28125,216321.796875,234663.109375,196748.828125,224164.578125,803046.0,1.0,1
219495.03125,241436.140625,235306.84375,226750.953125,216303.75,234682.0625,196757.59375,224148.578125,803047.0,1.0,1
219443.71875,241278.875,234829.765625,226680.140625,215892.65625,234446.921875,196467.734375,223937.125,803048.0,1.0,1
219422.703125,241164.515625,234527.921875,226639.375,215627.28125,234258.8125,196254.765625,223795.6875,803049.0,1.0,1
219474.65625,241269.03125,234841.203125,226699.71875,215899.4375,234397.484375,196435.71875,223938.46875,803050.0,1.0,1
219525.515625,241446.59375,235332.953125,226778.390625,216331.546875,234671.6875,196757.40625,224165.921875,803051.0,1.0,1
219509.34375,241448.828125,235320.609375,226774.375,216323.59375,234698.609375,196775.921875,224161.1875,803052.0,1.0,1
219440.5,241275.375,234826.28125,226690.78125,215888.0,234443.078125,196465.671875,223928.09375,803053.0,1.0,1
219415.546875,241159.59375,234522.109375,226630.421875,215617.8125,234263.28125,196259.953125,223796.5,803054.0,1.0,1
219474.828125,241257.953125,234841.390625,226705.078125,215894.171875,234408.65625,196446.90625,223944.1875,803055.0,1.0,1
219528.921875,241436.140625,235335.625,226786.078125,216326.984375,234676.703125,196763.84375,224168.96875,803056.0,1.0,1
219495.390625,241436.765625,235311.578125,226754.796875,216311.078125,234690.734375,196767.0625,224154.21875,803057.0,1.0,1
219432.890625,241277.078125,234826.640625,226669.140625,215890.140625,234448.265625,196468.171875,223933.90625,803058.0,1.0,1
219435.046875,241177.921875,234538.03125,226649.734375,215633.640625,234275.703125,196273.0,223807.84375,803059.0,1.0,1
219486.71875,241276.0,234844.25,226710.0,215900.25,234411.0625,196449.484375,223953.3125,803060.0,1.0,1
219523.109375,241439.890625,235323.375,226773.03125,216317.953125,234667.75,196751.421875,224168.96875,803061.0,1.0,1
219502.28125,241440.0625,235315.875,226759.0,216315.640625,234692.078125,196766.96875,224162.265625,803062.0,1.0,1
219437.71875,241274.046875,234831.46875,226676.921875,215892.296875,234445.484375,196464.0625,223935.703125,803063.0,1.0,1
219425.03125,241169.875,234534.71875,226652.421875,215628.984375,234264.984375,196259.765625,223806.15625,803064.0,1.0,1
219470.265625,241260.625,234835.3125,226703.296875,215887.109375,234390.953125,196430.359375,223941.953125,803065.0,1.0,1
219524.453125,241424.6875,235325.703125,226793.140625,216313.3125,234654.96875,196744.09375,224163.515625,803066.0,1.0,1
219508.09375,241438.90625,235323.921875,226777.5,216316.265625,234689.65625,196768.9375,224163.421875,803067.0,1.0,1
219431.015625,241270.828125,234826.90625,226663.59375,215886.125,234440.578125,196461.734375,223931.3125,803068.0,1.0,1
219413.234375,241152.09375,234516.03125,226629.625,215612.8125,234251.5625,196246.0,223786.84375,803069.0,1.0,1
219479.203125,241260.71875,234834.328125,226705.34375,215888.625,234395.515625,196430.359375,223939.453125,803070.0,1.0,1
219534.640625,241441.3125,235333.84375,226786.078125,216323.140625,234670.890625,196749.8125,224166.90625,803071.0,1.0,1
219500.75,241439.703125,235320.875,226756.3125,216316.796875,234694.125,196762.5,224152.328125,803072.0,1.0,1
219440.3125,241286.109375,234841.828125,226675.125,215901.59375,234457.203125,196469.15625,223933.5625,803073.0,1.0,1
219425.125,241185.53125,234532.65625,226641.78125,215628.71875,234264.359375,196256.46875,223795.78125,803074.0,1.0,1
219475.71875,241268.3125,234833.34375,226701.5,215889.609375,234395.875,196432.953125,223939.71875,803075.0,1.0,1
219535.890625,241446.59375,235332.953125,226788.3125,216325.640625,234671.515625,196752.671875,224166.375,803076.0,1.0,1
219519.265625,241463.3125,235339.203125,226779.375,216337.359375,234707.0,196779.21875,224164.671875,803077.0,1.0,1
219456.765625,241290.046875,234852.921875,226691.9375,215913.125,234457.46875,196477.828125,223941.78125,803078.0,1.0,1
219429.5,241168.71875,234529.984375,226644.546875,215624.875,234261.765625,196257.359375,223798.375,803079.0,1.0,1
219492.078125,241267.6875,234838.25,226725.28125,215888.796875,234395.25,196432.953125,223942.578125,803080.0,1.0,1
219544.828125,241436.3125,235333.125,226807.453125,216320.1875,234664.09375,196747.03125,224161.09375,803081.0,1.0,1
219503.4375,241437.828125,235323.5625,226753.8125,216323.59375,234692.96875,196770.109375,224155.28125,803082.0,1.0,1
219449.34375,241289.421875,234853.1875,226682.28125,215916.78125,234460.59375,196482.75,223946.96875,803083.0,1.0,1
219429.765625,241180.078125,234539.734375,226656.984375,215641.140625,234269.984375,196267.015625,223809.28125,803084.0,1.0,1
219483.40625,241273.328125,234836.46875,226724.84375,215898.453125,234399.890625,196436.265625,223948.75,803085.0,1.0,1
219538.3125,241450.0,235336.171875,226797.890625,216336.828125,234672.578125,196756.34375,224177.546875,803086.0,1.0,1
219506.484375,241460.546875,235338.671875,226768.65625,216345.234375,234704.59375,196782.171875,224171.109375,803087.0,1.0,1
219437.015625,241294.25,234853.015625,226681.125,215923.765625,234460.78125,196483.828125,223945.53125,803088.0,1.0,1
219421.546875,241184.09375,234532.65625,226645.171875,215640.96875,234268.828125,196262.71875,223801.234375,803089.0,1.0,1
219488.6875,241287.984375,234832.890625,226721.984375,215897.03125,234399.453125,196434.734375,223944.90625,803090.0,1.0,1
219530.984375,241444.984375,235322.75,226790.375,216324.484375,234665.96875,196750.875,224161.90625,803091.0,1.0,1
219503.4375,241449.1875,235331.6875,226762.03125,216337.71875,234708.796875,196780.921875,224163.421875,803092.0,1.0,1
219443.890625,241292.71875,234857.75,226679.25,215921.96875,234469.90625,196483.109375,223943.03125,803093.0,1.0,1
219423.59375,241173.8125,234534.265625,226645.359375,215633.8125,234266.953125,196258.78125,223796.765625,803094.0,1.0,1
219467.671875,241259.109375,234814.390625,226702.21875,215873.875,234382.546875,196415.78125,223925.421875,803095.0,1.0,1
219531.15625,241450.34375,235325.34375,226795.734375,216318.046875,234662.296875,196743.28125,224162.4375,803096.0,1.0,1
219505.578125,241458.125,235342.421875,226773.03125,216338.15625,234701.640625,196778.59375,224169.046875,803097.0,1.0,1
219442.828125,241292.8125,234864.90625,226694.4375,215923.765625,234462.203125,196481.765625,223947.40625,803098.0,1.0,1
219430.125,241179.796875,234539.453125,226649.296875,215641.234375,234270.796875,196260.21875,223806.15625,803099.0,1.0,1
219485.46875,241270.90625,234827.96875,226721.984375,215893.453125,234397.390625,196425.34375,223944.734375,803100.0,1.0,1
219533.125,241436.046875,235321.59375,226800.84375,216323.40625,234662.65625,196738.0,224160.203125,803101.0,1.0,1
219512.296875,241459.203125,235346.359375,226793.59375,216347.46875,234703.4375,196776.0,224166.015625,803102.0,1.0,1
219441.03125,241295.3125,234863.203125,226682.375,215928.140625,234461.859375,196483.28125,223944.90625,803103.0,1.0,1
219418.234375,241170.78125,234529.984375,226639.71875,215636.765625,234262.296875,196258.96875,223797.65625,803104.0,1.0,1
219471.703125,241259.203125,234811.171875,226709.375,215877.71875,234379.328125,196413.546875,223925.328125,803105.0,1.0,1
219526.859375,241433.71875,235312.65625,226793.859375,216312.953125,234653.1875,196733.890625,224150.546875,803106.0,1.0,1
219510.953125,241452.40625,235342.953125,226776.25,216341.65625,234704.140625,196776.453125,224157.515625,803107.0,1.0,1
219465.4375,241309.71875,234884.296875,226706.0625,215943.25,234477.234375,196494.546875,223950.0,803108.0,1.0,1
219446.9375,241191.78125,234558.140625,226673.34375,215655.546875,234277.578125,196272.109375,223807.578125,803109.0,1.0,1
219498.25,241279.578125,234833.96875,226728.15625,215890.40625,234389.171875,196422.671875,223927.65625,803110.0,1.0,1
219549.578125,241450.34375,235330.625,226800.484375,216325.921875,234662.84375,196739.265625,224148.84375,803111.0,1.0,1
219514.078125,241452.859375,235346.984375,226773.03125,216345.5,234697.890625,196772.609375,224149.03125,803112.0,1.0,1
219458.375,241302.5625,234882.875,226698.375,215941.46875,234469.09375,196489.359375,223940.171875,803113.0,1.0,1
219441.21875,241184.28125,234547.5,226663.328125,215644.1875,234266.046875,196258.421875,223786.390625,803114.0,1.0,1
219486.8125,241269.84375,234813.671875,226710.0,215875.75,234377.09375,196409.890625,223911.828125,803115.0,1.0,1
219556.453125,241459.296875,235328.46875,226804.328125,216325.46875,234657.46875,196737.65625,224148.40625,803116.0,1.0,1
219535.359375,241483.078125,235368.265625,226791.09375,216363.203125,234708.609375,196785.84375,224163.515625,803117.0,1.0,1
219462.484375,241307.203125,234890.921875,226701.140625,215950.140625,234467.578125,196492.234375,223944.375,803118.0,1.0,1
219452.75,241194.921875,234559.578125,226675.125,215658.84375,234272.9375,196269.609375,223800.703125,803119.0,1.0,1
219502.453125,241278.0625,234824.75,226721.890625,215883.96875,234382.28125,196417.65625,223921.671875,803120.0,1.0,1
219550.015625,241450.796875,235323.734375,226805.75,216317.59375,234647.546875,196735.328125,224146.34375,803121.0,1.0,1
219541.265625,241477.0,235375.953125,226808.34375,216368.203125,234710.9375,196794.515625,224170.03125,803122.0,1.0,1
219484.03125,241328.3125,234912.734375,226715.28125,215967.84375,234486.53125,196511.453125,223956.984375,803123.0,1.0,1
219456.046875,241198.21875,234561.90625,226664.046875,215661.4375,234280.171875,196272.640625,223797.390625,803124.0,1.0,1
219504.0625,241280.03125,234826.8125,226722.0625,215890.859375,234389.25,196423.390625,223921.9375,803125.0,1.0,1
219559.59375,241459.015625,235330.4375,226802.53125,216329.3125,234663.015625,196745.703125,224148.3125,803126.0,1.0,1
219546.0,241490.578125,235382.125,226805.21875,216373.125,234721.3125,196799.96875,224170.03125,803127.0,1.0,1
219465.625,241324.203125,234899.234375,226695.6875,215953.53125,234476.15625,196502.421875,223946.96875,803128.0,1.0,1
219438.34375,241196.703125,234544.5625,226650.09375,215641.765625,234266.3125,196263.078125,223788.71875,803129.0,1.0,1
219489.671875,241272.609375,234809.375,226719.484375,215870.03125,234378.4375,196415.0625,223915.859375,803130.0,1.0,1
219541.609375,241442.484375,235311.9375,226802.171875,216305.171875,234643.34375,196728.796875,224139.640625,803131.0,1.0,1
219527.671875,241471.359375,235367.28125,226798.953125,216356.046875,234702.890625,196784.59375,224163.234375,803132.0,1.0,1
219455.703125,241309.0,234896.375,226705.078125,215950.9375,234469.28125,196498.75,223948.21875,803133.0,1.0,1
219426.453125,241173.90625,234542.046875,226658.234375,215640.609375,234259.609375,196258.515625,223788.359375,803134.0,1.0,1
219478.3125,241260.265625,234801.59375,226719.75,215861.796875,234363.859375,196400.40625,223909.140625,803135.0,1.0,1
219530.625,241430.59375,235302.453125,226799.9375,216297.3125,234632.796875,196718.703125,224131.5,803136.0,1.0,1
219511.578125,241455.53125,235355.65625,226778.21875,216352.640625,234696.71875,196782.53125,224160.65625,803137.0,1.0,1
219451.140625,241303.359375,234894.84375,226693.90625,215955.59375,234475.359375,196504.828125,223954.125,803138.0,1.0,1
219415.828125,241166.65625,234527.296875,226637.9375,215633.640625,234258.09375,196253.515625,223783.984375,803139.0,1.0,1
219475.1875,241261.515625,234791.859375,226707.671875,215858.9375,234364.40625,196402.015625,223913.34375,803140.0,1.0,1
219537.59375,241433.90625,235308.359375,226798.515625,216306.953125,234642.1875,196732.203125,224152.15625,803141.0,1.0,1
219507.28125,241444.984375,235359.328125,226775.796875,216353.28125,234699.765625,196783.515625,224163.953125,803142.0,1.0,1
219448.0,241296.390625,234901.5625,226692.5625,215953.359375,234472.40625,196500.1875,223951.53125,803143.0,1.0,1
219418.859375,241169.078125,234538.65625,226642.765625,215635.25,234260.859375,196255.921875,223788.09375,803144.0,1.0,1
219468.75,241248.5625,234788.546875,226703.46875,215849.015625,234364.484375,196393.078125,223902.890625,803145.0,1.0,1
219526.953125,241428.796875,235299.59375,226788.5,216293.015625,234638.609375,196714.3125,224133.734375,803146.0,1.0,1
219515.953125,241465.8125,235371.21875,226784.65625,216359.890625,234707.0,196783.15625,224162.796875,803147.0,1.0,1
219456.765625,241314.890625,234911.125,226702.125,215961.140625,234481.515625,196503.21875,223951.96875,803148.0,1.0,1
219433.34375,241190.265625,234551.625,226658.59375,215648.203125,234273.390625,196262.71875,223797.125,803149.0,1.0,1
219472.953125,241254.1875,234787.296875,226704.71875,215846.25,234357.96875,196385.5625,223902.078125,803150.0,1.0,1
219528.5625,241430.59375,235293.0625,226793.6875,216284.703125,234627.796875,196703.3125,224130.078125,803151.0,1.0,1
219509.421875,241464.390625,235360.65625,226770.703125,216353.984375,234701.46875,196775.109375,224161.546875,803152.0,1.0,1
219445.234375,241303.984375,234897.890625,226683.265625,215953.796875,234473.296875,196493.5625,223950.625,803153.0,1.0,1
219418.953125,241173.90625,234532.390625,226639.015625,215632.03125,234255.140625,196246.890625,223788.0,803154.0,1.0,1
219474.296875,241257.40625,234779.515625,226709.28125,215844.734375,234357.78125,196385.65625,223906.734375,803155.0,1.0,1
219531.328125,241436.21875,235291.375,226790.90625,216292.203125,234637.359375,196713.875,224137.140625,803156.0,1.0,1
219513.28125,241470.46875,235366.390625,226779.640625,216363.203125,234711.5625,196785.75,224166.1875,803157.0,1.0,1
219451.5,241316.328125,234909.25,226694.0,215967.84375,234489.65625,196509.03125,223956.625,803158.0,1.0,1
219418.234375,241174.34375,234530.25,226637.671875,215633.375,234262.921875,196251.09375,223779.59375,803159.0,1.0,1
219472.5,241250.34375,234772.09375,226703.921875,215836.40625,234360.5625,196381.984375,223890.734375,803160.0,1.0,1
219525.796875,241426.65625,235280.109375,226783.578125,216278.625,234634.234375,196705.90625,224119.96875,803161.0,1.0,1
219503.265625,241453.921875,235351.90625,226767.046875,216345.859375,234702.8125,196774.21875,224146.25,803162.0,1.0,1
219450.59375,241313.375,234905.578125,226688.546875,215956.9375,234484.03125,196502.234375,223946.515625,803163.0,1.0,1
219429.140625,241185.265625,234542.140625,226644.734375,215635.96875,234274.453125,196261.640625,223788.359375,803164.0,1.0,1
219478.40625,241255.078125,234778.359375,226702.84375,215836.40625,234370.921875,196390.21875,223898.234375,803165.0,1.0,1
219529.546875,241424.875,235282.515625,226785.546875,216272.71875,234634.59375,196701.0,224123.546875,803166.0,1.0,1
219516.140625,241460.90625,235365.046875,226769.90625,216350.5,234706.375,196772.96875,224155.46875,803167.0,1.0,1
219458.28125,241317.578125,234917.109375,226687.828125,215963.640625,234489.390625,196504.296875,223954.125,803168.0,1.0,1
219419.484375,241169.703125,234531.234375,226629.359375,215626.65625,234263.640625,196247.078125,223781.296875,803169.0,1.0,1
219471.703125,241248.46875,234766.640625,226695.421875,215829.265625,234356.359375,196378.0625,223896.0,803170.0,1.0,1
219530.34375,241427.375,235281.71875,226788.953125,216275.125,234627.703125,196703.40625,224127.203125,803171.0,1.0,1
219514.078125,241464.75,235369.15625,226778.3125,216355.515625,234706.203125,196783.515625,224166.015625,803172.0,1.0,1
219454.796875,241315.96875,234920.421875,226694.359375,215967.84375,234490.015625,196511.890625,223964.21875,803173.0,1.0,1
219436.828125,241189.453125,234550.546875,226650.1875,215644.984375,234277.40625,196266.5625,223802.578125,803174.0,1.0,1
219472.234375,241249.0,234764.9375,226694.796875,215827.203125,234353.84375,196379.75,223898.6875,803175.0,1.0,1
219525.25,241419.59375,235274.5625,226778.671875,216267.796875,234623.40625,196698.21875,224130.25,803176.0,1.0,1
219517.921875,241461.4375,235370.9375,226779.375,216358.109375,234706.828125,196783.34375,224173.703125,803177.0,1.0,1
219456.859375,241315.34375,234920.0625,226693.1875,215967.578125,234485.375,196507.25,223963.78125,803178.0,1.0,1
219429.40625,241183.203125,234541.25,226642.5,215637.125,234263.8125,196253.875,223793.71875,803179.0,1.0,1
219479.5625,241253.921875,234767.453125,226705.53125,215832.484375,234354.75,196378.765625,223902.4375,803180.0,1.0,1
219538.578125,241426.921875,235282.34375,226794.75,216281.65625,234633.421875,196708.234375,224141.15625,803181.0,1.0,1
219522.65625,241462.234375,235375.859375,226788.765625,216364.625,234706.734375,196783.515625,224172.8125,803182.0,1.0,1
219453.546875,241306.671875,234919.96875,226694.984375,215969.09375,234483.125,196504.296875,223953.671875,803183.0,1.0,1
219419.3125,241171.046875,234532.484375,226635.34375,215627.828125,234259.53125,196245.640625,223777.09375,803184.0,1.0,1
219472.234375,241244.71875,234758.5,226700.4375,215821.390625,234348.84375,196371.171875,223888.140625,803185.0,1.0,1
219529.28125,241418.875,235271.25,226788.5,216268.34375,234619.828125,196696.609375,224122.828125,803186.0,1.0,1
219509.421875,241456.875,235366.921875,226773.390625,216358.28125,234701.109375,196782.796875,224163.234375,803187.0,1.0,1
219454.171875,241311.953125,234923.546875,226696.046875,215971.421875,234483.21875,196513.15625,223963.234375,803188.0,1.0,1
219421.359375,241172.03125,234533.5625,226639.375,215628.265625,234255.328125,196248.859375,223786.21875,803189.0,1.0,1
219469.203125,241235.859375,234751.359375,226694.984375,215814.78125,234339.359375,196366.609375,223889.65625,803190.0,1.0,1
219533.484375,241416.46875,235269.203125,226786.171875,216265.390625,234616.078125,196694.5625,224125.875,803191.0,1.0,1
219524.890625,241462.59375,235379.96875,226787.421875,216367.484375,234708.34375,196787.09375,224172.71875,803192.0,1.0,1
219458.109375,241312.75,234935.984375,226705.53125,215982.234375,234492.25,196514.21875,223967.984375,803193.0,1.0,1
219413.234375,241161.03125,234532.9375,226635.25,215627.640625,234252.375,196238.9375,223780.40625,803194.0,1.0,1
219461.59375,241229.0625,234745.546875,226687.734375,215809.5,234331.859375,196355.078125,223884.109375,803195.0,1.0,1
219525.078125,241412.4375,235264.453125,226782.328125,216261.90625,234613.125,196687.578125,224122.734375,803196.0,1.0,1
219510.953125,241452.234375,235369.78125,226780.71875,216359.359375,234696.71875,196774.390625,224162.34375,803197.0,1.0,1
219459.359375,241319.09375,234938.84375,226713.9375,215990.640625,234491.171875,196517.4375,223968.875,803198.0,1.0,1
219429.40625,241188.203125,234549.203125,226649.921875,215649.546875,234266.3125,196258.875,223796.40625,803199.0,1.0,1
219460.875,241235.328125,234740.71875,226686.3125,215813.171875,234331.5,196355.96875,223882.421875,803200.0,1.0,1
219521.40625,241413.421875,235255.78125,226774.90625,216262.890625,234606.328125,196683.640625,224117.28125,803201.0,1.0,1
219517.125,241466.265625,235376.484375,226780.71875,216375.0,234701.375,196782.625,224172.265625,803202.0,1.0,1
219453.8125,241320.703125,234934.015625,226692.75,215993.328125,234486.890625,196515.921875,223965.65625,803203.0,1.0,1
219435.484375,241189.8125,234551.53125,226651.078125,215657.59375,234269.71875,196260.84375,223794.890625,803204.0,1.0,1
219474.46875,241243.015625,234753.5,226702.671875,215828.09375,234343.03125,196367.765625,223886.34375,803205.0,1.0,1
219535.984375,241425.40625,235269.90625,226785.09375,216273.96875,234617.875,196693.21875,224120.5,803206.0,1.0,1
219547.515625,241488.171875,235406.53125,226804.59375,216396.015625,234726.234375,196805.59375,224184.515625,803207.0,1.0,1
219474.203125,241328.3125,234958.78125,226712.140625,216005.484375,234500.484375,196526.65625,223966.8125,803208.0,1.0,1
219431.015625,241184.09375,234549.921875,226640.625,215646.78125,234264.53125,196254.5,223784.875,803209.0,1.0,1
219474.46875,241238.359375,234746.4375,226694.0,215814.328125,234334.71875,196359.453125,223879.640625,803210.0,1.0,1
219539.734375,241416.375,235267.59375,226792.703125,216266.28125,234613.3125,196689.8125,224118.1875,803211.0,1.0,1
219524.8125,241469.21875,235389.265625,226777.859375,216380.359375,234711.296875,196793.890625,224171.828125,803212.0,1.0,1
219463.390625,241327.421875,234954.484375,226695.96875,216002.890625,234498.78125,196531.125,223968.875,803213.0,1.0,1
219421.28125,241176.765625,234547.421875,226632.578125,215646.328125,234267.578125,196262.09375,223783.0,803214.0,1.0,1
219463.5625,241228.359375,234738.65625,226686.9375,215810.03125,234333.734375,196361.609375,223874.546875,803215.0,1.0,1
219528.65625,241407.609375,235254.890625,226782.421875,216259.484375,234605.984375,196687.84375,224112.640625,803216.0,1.0,1
219517.5625,241457.140625,235383.28125,226779.296875,216373.65625,234701.375,196788.875,224165.828125,803217.0,1.0,1
219449.96875,241309.890625,234947.15625,226689.171875,215996.1875,234489.921875,196524.140625,223963.6875,803218.0,1.0,1
219419.578125,241171.578125,234545.265625,226639.015625,215644.1875,234261.765625,196257.53125,223785.5,803219.0,1.0,1
219467.3125,241225.484375,234732.484375,226677.1875,215803.15625,234328.8125,196354.1875,223868.90625,803220.0,1.0,1
219527.3125,241401.984375,235250.421875,226768.65625,216252.59375,234600.25,196679.71875,224104.234375,803221.0,1.0,1
219522.578125,241461.53125,235388.5625,226774.1875,216378.125,234705.75,196791.46875,224166.375,803222.0,1.0,1
219453.375,241314.1875,234949.125,226684.875,215999.125,234493.234375,196525.046875,223961.8125,803223.0,1.0,1
219430.578125,241181.40625,234551.625,226636.0625,215653.125,234268.5625,196262.1875,223786.84375,803224.0,1.0,1
219477.6875,241237.46875,234740.984375,226691.9375,215817.09375,234339.8125,196364.015625,223879.375,803225.0,1.0,1
219530.34375,241408.6875,235247.109375,226777.328125,216255.90625,234601.78125,196677.75,224104.046875,803226.0,1.0,1
219516.3125,241452.9375,235376.3125,226776.34375,216374.546875,234698.953125,196780.5625,224157.25,803227.0,1.0,1
219461.5,241318.03125,234949.84375,226695.6875,216008.96875,234497.34375,196527.71875,223966.90625,803228.0,1.0,1
219426.734375,241182.046875,234543.390625,226638.5625,215657.0625,234269.265625,196264.78125,223789.78125,803229.0,1.0,1
219476.34375,241239.34375,234730.078125,226699.71875,215816.109375,234338.828125,196366.15625,223883.578125,803230.0,1.0,1
219527.3125,241409.84375,235236.390625,226777.953125,216256.890625,234603.109375,196680.703125,224109.6875,803231.0,1.0,1
219521.59375,241463.9375,235384.09375,226786.078125,216387.609375,234704.328125,196794.0625,224175.765625,803232.0,1.0,1
219454.796875,241311.40625,234955.640625,226700.703125,216013.796875,234492.15625,196536.125,223977.359375,803233.0,1.0,1
219424.765625,241167.375,234551.34375,226648.9375,215659.296875,234264.703125,196268.890625,223791.125,803234.0,1.0,1
219456.59375,241219.234375,234716.75,226680.140625,215804.5,234321.65625,196353.46875,223867.125,803235.0,1.0,1
219512.828125,241393.390625,235224.671875,226758.28125,216249.5625,234591.046875,196674.4375,224104.046875,803236.0,1.0,1
219510.140625,241458.75,235376.3125,226775.453125,216387.15625,234705.84375,196797.015625,224177.375,803237.0,1.0,1
219452.03125,241324.109375,234955.296875,226696.40625,216022.734375,234508.53125,196546.59375,223985.40625,803238.0,1.0,1
219408.484375,241161.296875,234533.203125,226627.5625,215648.84375,234262.46875,196262.265625,223787.734375,803239.0,1.0,1
219450.59375,241208.0625,234703.078125,226678.265625,215791.703125,234317.46875,196347.921875,223866.234375,803240.0,1.0,1
219512.375,241384.640625,235217.796875,226762.03125,216237.484375,234590.953125,196671.9375,224102.0,803241.0,1.0,1
219521.671875,241458.125,235386.5,226792.078125,216387.875,234711.484375,196799.34375,224178.796875,803242.0,1.0,1
219460.703125,241319.71875,234967.625,226714.203125,216022.5625,234502.71875,196541.046875,223978.96875,803243.0,1.0,1
219414.484375,241163.171875,234544.828125,226622.296875,215650.265625,234258.359375,196262.0,223784.25,803244.0,1.0,1
219462.84375,241213.6875,234716.3125,226675.671875,215798.0625,234316.5625,196346.5,223864.625,803245.0,1.0,1
219531.875,241402.0625,235239.609375,226774.015625,216253.140625,234595.34375,196674.53125,224105.21875,803246.0,1.0,1
219524.890625,241467.78125,235394.453125,226779.375,216393.59375,234708.609375,196796.125,224171.28125,803247.0,1.0,1
219462.671875,241333.046875,234973.890625,226697.296875,216035.515625,234515.140625,196551.0625,223984.96875,803248.0,1.0,1
219411.078125,241172.734375,234539.28125,226625.875,215658.484375,234265.96875,196264.953125,223788.890625,803249.0,1.0,1
219442.828125,241216.734375,234696.09375,226671.375,215795.90625,234322.203125,196350.609375,223870.515625,803250.0,1.0,1
219511.75,241401.0,235220.734375,226771.328125,216254.921875,234602.9375,196683.203125,224118.53125,803251.0,1.0,1
219497.1875,241451.875,235372.46875,226761.234375,216387.15625,234704.328125,196790.9375,224174.78125,803252.0,1.0,1
219443.984375,241316.234375,234959.84375,226686.75,216027.828125,234505.84375,196542.921875,223986.21875,803253.0,1.0,1
219411.96875,241165.953125,234542.140625,226632.3125,215656.875,234265.34375,196262.90625,223793.09375,803254.0,1.0,1
219450.6875,241212.53125,234698.328125,226667.265625,215786.25,234312.90625,196335.859375,223864.625,803255.0,1.0,1
219518.1875,241396.4375,235219.75,226760.15625,216236.515625,234585.859375,196662.375,224106.46875,803256.0,1.0,1
219523.109375,241469.390625,235394.375,226782.515625,216390.203125,234708.265625,196795.578125,224186.484375,803257.0,1.0,1
219459.71875,241324.546875,234975.859375,226698.734375,216030.78125,234512.546875,196550.703125,223996.140625,803258.0,1.0,1
219421.453125,241181.234375,234550.09375,226633.640625,215661.171875,234275.265625,196271.84375,223803.828125,803259.0,1.0,1
219461.953125,241223.609375,234707.28125,226686.75,215793.234375,234324.34375,196348.109375,223879.015625,803260.0,1.0,1
219519.265625,241394.203125,235221.90625,226769.28125,216238.203125,234592.03125,196671.9375,224113.171875,803261.0,1.0,1
219509.515625,241454.734375,235389.1875,226772.859375,216388.859375,234711.65625,196800.5,224188.09375,803262.0,1.0,1
219445.234375,241321.609375,234975.671875,226692.390625,216033.734375,234517.828125,196555.34375,224000.34375,803263.0,1.0,1
219402.859375,241170.15625,234544.734375,226622.921875,215656.609375,234274.90625,196273.265625,223804.09375,803264.0,1.0,1
219451.5,241221.296875,234704.328125,226679.328125,215794.390625,234334.09375,196359.09375,223886.609375,803265.0,1.0,1
219516.9375,241401.890625,235222.96875,226769.28125,216242.234375,234609.203125,196682.75,224118.53125,803266.0,1.0,1
219520.15625,241473.859375,235403.9375,226776.703125,216405.484375,234732.75,196818.5625,224199.265625,803267.0,1.0,1
219465.625,241345.390625,235001.953125,226708.03125,216059.65625,234547.953125,196581.359375,224019.125,803268.0,1.0,1
219423.859375,241187.671875,234571.90625,226648.390625,215679.234375,234301.90625,196294.453125,223819.109375,803269.0,1.0,1
219461.0625,241229.78125,234716.9375,226689.53125,215798.0625,234341.328125,196359.8125,223884.828125,803270.0,1.0,1
219517.65625,241399.921875,235227.4375,226773.203125,216239.8125,234603.921875,196675.328125,224116.578125,803271.0,1.0,1
219511.9375,241465.28125,235403.046875,226782.515625,216395.921875,234723.90625,196808.640625,224193.640625,803272.0,1.0,1
219452.484375,241330.09375,234994.453125,226707.046875,216043.125,234530.609375,196569.03125,224008.203125,803273.0,1.0,1
219417.15625,241180.515625,234565.65625,226641.421875,215667.515625,234292.0625,196288.296875,223816.4375,803274.0,1.0,1
219460.078125,241219.5,234710.765625,226692.296875,215791.703125,234338.296875,196357.9375,223889.125,803275.0,1.0,1
219523.46875,241403.59375,235225.390625,226777.234375,216241.609375,234610.0,196681.765625,224127.484375,803276.0,1.0,1
219517.828125,241469.03125,235402.6875,226782.6875,216400.75,234724.703125,196814.546875,224200.96875,803277.0,1.0,1
219463.390625,241346.015625,235005.171875,226710.359375,216056.890625,234533.640625,196579.671875,224021.078125,803278.0,1.0,1
219420.734375,241188.921875,234569.5,226639.8125,215671.640625,234283.3125,196288.109375,223820.359375,803279.0,1.0,1
219452.921875,241221.375,234700.5625,226674.765625,215781.34375,234315.046875,196342.296875,223876.328125,803280.0,1.0,1
219520.515625,241402.0625,235221.90625,226776.25,216233.5625,234588.1875,196669.078125,224113.171875,803281.0,1.0,1
219529.375,241478.328125,235418.953125,226801.28125,216411.296875,234724.890625,196812.578125,224202.140625,803282.0,1.0,1
219466.328125,241341.0,235015.546875,226720.546875,216063.953125,234532.9375,196571.796875,224012.140625,803283.0,1.0,1
219428.0625,241193.9375,234585.6875,226661.625,215685.765625,234290.109375,196289.546875,223817.328125,803284.0,1.0,1
219460.96875,241225.21875,234713.71875,226693.015625,215793.40625,234323.0,196347.921875,223879.203125,803285.0,1.0,1
219526.953125,241403.234375,235229.6875,226776.875,216244.109375,234598.203125,196676.046875,224117.90625,803286.0,1.0,1
219530.703125,241477.625,235423.515625,226794.125,216415.859375,234732.484375,196820.34375,224203.390625,803287.0,1.0,1
219462.140625,241339.75,235013.765625,226710.09375,216058.234375,234535.25,196573.140625,224008.203125,803288.0,1.0,1
219419.578125,241184.359375,234574.421875,226644.828125,215672.53125,234286.34375,196284.453125,223809.640625,803289.0,1.0,1
219457.03125,241218.078125,234702.171875,226682.375,215782.046875,234315.9375,196342.921875,223871.421875,803290.0,1.0,1
219525.703125,241398.578125,235220.296875,226773.65625,216233.109375,234585.953125,196664.96875,224105.21875,803291.0,1.0,1
219524.0,241468.5,235415.640625,226787.609375,216407.09375,234716.125,196810.609375,224190.953125,803292.0,1.0,1
219462.484375,241331.265625,235013.671875,226710.265625,216061.1875,234528.109375,196577.875,224008.75,803293.0,1.0,1
