FZ,C3,CZ,C4,PZ,PO7,OZ,PO8,Counter,Validation,Label
243612.125,251286.453125,258481.578125,250808.3125,221866.5625,242306.6875,239949.125,225243.375,52150.0,1.0,2
243519.140625,251181.234375,258374.5625,250727.671875,221710.625,242260.5625,239712.546875,225218.953125,52151.0,1.0,2
243471.84375,251092.265625,258266.28125,250680.8125,221533.25,242231.953125,239447.984375,225208.953125,52152.0,1.0,2
243525.484375,251135.09375,258295.078125,250724.984375,221570.53125,242258.140625,239501.453125,225224.859375,52153.0,1.0,2
243615.15625,251252.484375,258424.890625,250800.53125,221774.015625,242302.578125,239803.390625,225244.4375,52154.0,1.0,2
243613.546875,251278.59375,258477.46875,250803.03125,221866.46875,242302.3125,239942.046875,225243.09375,52155.0,1.0,2
243517.078125,251172.28125,258374.734375,250724.265625,221710.71875,242257.0625,239710.9375,225220.03125,52156.0,1.0,2
243468.4375,251086.640625,258267.265625,250679.125,221532.796875,242233.46875,239449.0625,225208.59375,52157.0,1.0,2
243521.109375,251134.203125,258297.125,250723.46875,221566.328125,242261.546875,239500.296875,225224.0625,52158.0,1.0,2
243613.734375,251252.21875,258429.453125,250800.984375,221771.25,242306.328125,239805.0,225246.5,52159.0,1.0,2
243613.734375,251278.0625,258481.3125,250802.234375,221862.796875,242305.890625,239945.453125,225244.4375,52160.0,1.0,2
243518.875,251169.96875,258376.703125,250723.90625,221704.109375,242257.6875,239712.90625,225217.171875,52161.0,1.0,2
243477.03125,251093.96875,258275.671875,250682.34375,221528.421875,242229.265625,239451.921875,225206.703125,52162.0,1.0,2
243533.890625,251143.859375,258306.515625,250726.6875,221563.015625,242255.90625,239502.34375,225224.0625,52163.0,1.0,2
243618.46875,251254.90625,258434.71875,250800.984375,221764.28125,242298.46875,239803.203125,225245.15625,52164.0,1.0,2
243616.6875,251281.09375,258487.828125,250804.640625,221862.078125,242298.90625,239948.140625,225242.65625,52165.0,1.0,2
243521.28125,251177.109375,258384.296875,250724.0,221707.953125,242256.078125,239720.859375,225217.625,52166.0,1.0,2
243474.796875,251095.125,258278.359375,250678.140625,221527.96875,242230.609375,239456.3125,225206.890625,52167.0,1.0,2
243525.9375,251138.484375,258304.109375,250721.140625,221556.578125,242255.8125,239499.484375,225220.125,52168.0,1.0,2
243615.703125,251257.21875,258432.765625,250798.75,221759.171875,242298.828125,239799.1875,225240.234375,52169.0,1.0,2
243619.546875,251290.75,258492.9375,250805.984375,221860.125,242301.6875,239949.296875,225240.59375,52170.0,1.0,2
243519.9375,251182.5625,258386.171875,250721.40625,221703.125,242255.1875,239721.671875,225215.203125,52171.0,1.0,2
243467.546875,251094.859375,258277.015625,250671.78125,221521.796875,242226.578125,239453.984375,225199.5625,52172.0,1.0,2
243522.265625,251140.71875,258304.015625,250716.578125,221553.0,242254.03125,239501.28125,225217.625,52173.0,1.0,2
243618.296875,251262.765625,258436.0625,250795.34375,221757.296875,242301.234375,239805.078125,225241.84375,52174.0,1.0,2
243615.34375,251286.28125,258486.765625,250797.21875,221851.0,242300.875,239945.625,225237.640625,52175.0,1.0,2
243514.046875,251173.1875,258380.453125,250717.203125,221696.6875,242253.578125,239717.46875,225208.671875,52176.0,1.0,2
243468.4375,251093.34375,258274.78125,250672.40625,221520.453125,242227.296875,239454.34375,225199.46875,52177.0,1.0,2
243518.78125,251134.28125,258297.9375,250714.515625,221547.734375,242251.96875,239492.15625,225214.125,52178.0,1.0,2
243603.984375,251243.453125,258422.484375,250789.0,221749.078125,242294.984375,239789.25,225237.109375,52179.0,1.0,2
243604.875,251273.5,258475.859375,250794.09375,221848.234375,242296.046875,239937.578125,225235.328125,52180.0,1.0,2
243512.703125,251170.234375,258374.109375,250717.65625,221698.203125,242250.984375,239716.5625,225210.46875,52181.0,1.0,2
243469.25,251090.390625,258269.953125,250674.921875,221523.328125,242228.90625,239455.234375,225204.125,52182.0,1.0,2
243514.578125,251128.03125,258286.578125,250712.734375,221547.734375,242252.0625,239488.9375,225215.109375,52183.0,1.0,2
243609.703125,251246.21875,258417.5625,250792.3125,221755.0625,242299.71875,239790.328125,225238.625,52184.0,1.0,2
243613.28125,251276.171875,258476.03125,250802.140625,221860.921875,242304.984375,239942.6875,225240.234375,52185.0,1.0,2
243517.34375,251168.984375,258371.78125,250724.53125,221712.5,242261.984375,239720.0625,225217.703125,52186.0,1.0,2
243470.140625,251086.015625,258262.34375,250672.859375,221530.921875,242235.796875,239450.5,225204.921875,52187.0,1.0,2
243520.296875,251124.984375,258286.84375,250714.25,221555.59375,242262.171875,239486.4375,225216.28125,52188.0,1.0,2
243617.3125,251247.5625,258421.046875,250795.078125,221761.859375,242311.421875,239791.578125,225244.265625,52189.0,1.0,2
243620.96875,251281.546875,258478.453125,250802.046875,221863.515625,242312.234375,239946.34375,225241.046875,52190.0,1.0,2
243522.53125,251174.25,258375.890625,250720.78125,221714.03125,242265.65625,239726.765625,225214.9375,52191.0,1.0,2
243466.65625,251080.375,258262.703125,250668.921875,221532.53125,242234.984375,239454.34375,225202.15625,52192.0,1.0,2
243513.5,251118.640625,258281.125,250709.6875,221555.234375,242257.34375,239487.15625,225216.09375,52193.0,1.0,2
243607.296875,251240.0625,258412.203125,250790.78125,221759.625,242301.234375,239788.09375,225238.453125,52194.0,1.0,2
243610.421875,251271.625,258470.484375,250796.328125,221861.015625,242300.796875,239943.484375,225236.125,52195.0,1.0,2
243516.28125,251170.3125,258371.15625,250717.296875,221710.890625,242256.0,239727.125,225213.78125,52196.0,1.0,2
243468.09375,251091.1875,258263.78125,250669.734375,221528.421875,242229.796875,239459.4375,225201.875,52197.0,1.0,2
243515.5625,251129.375,258286.671875,250711.84375,221549.15625,242252.15625,239490.8125,225217.171875,52198.0,1.0,2
243603.265625,251239.703125,258412.375,250788.46875,221746.75,242294.53125,239788.546875,225241.046875,52199.0,1.0,2
243608.453125,251273.765625,258474.609375,250798.125,221850.734375,242299.984375,239945.8125,225239.34375,52200.0,1.0,2
243515.828125,251173.625,258376.609375,250719.796875,221704.546875,242256.71875,239727.921875,225213.859375,52201.0,1.0,2
243471.3125,251092.453125,258270.03125,250675.1875,221527.078125,242232.21875,239461.578125,225204.65625,52202.0,1.0,2
243516.71875,251127.9375,258289.34375,250714.875,221547.28125,242254.921875,239489.65625,225216.453125,52203.0,1.0,2
243606.75,251245.25,258415.953125,250790.609375,221748.09375,242297.484375,239789.796875,225238.625,52204.0,1.0,2
243615.96875,251282.078125,258476.65625,250797.3125,221855.203125,242301.859375,239951.359375,225237.375,52205.0,1.0,2
243520.484375,251174.96875,258376.078125,250716.125,221706.421875,242258.40625,239733.5625,225210.109375,52206.0,1.0,2
243462.359375,251079.921875,258263.953125,250665.53125,221523.59375,242229.984375,239460.6875,225196.421875,52207.0,1.0,2
243506.703125,251113.640625,258280.046875,250704.15625,221542.359375,242254.203125,239485.0,225210.640625,52208.0,1.0,2
243595.9375,251230.40625,258403.515625,250779.796875,221743.359375,242295.328125,239781.921875,225232.546875,52209.0,1.0,2
243604.875,251270.640625,258467.625,250791.859375,221857.875,242301.0625,239947.59375,225232.734375,52210.0,1.0,2
243510.015625,251168.890625,258367.765625,250712.640625,221712.0625,242256.796875,239732.65625,225207.34375,52211.0,1.0,2
243462.984375,251085.921875,258264.046875,250667.5,221534.234375,242235.171875,239463.90625,225201.25,52212.0,1.0,2
243505.375,251117.921875,258279.609375,250704.859375,221550.859375,242256.796875,239483.9375,225211.09375,52213.0,1.0,2
243594.0625,251233.890625,258404.15625,250781.125,221748.890625,242296.3125,239775.578125,225228.25,52214.0,1.0,2
243610.328125,251279.390625,258472.640625,250794.453125,221863.25,242305.4375,239942.765625,225230.9375,52215.0,1.0,2
243516.8125,251179.171875,258378.21875,250716.578125,221718.671875,242259.65625,239729.0,225207.609375,52216.0,1.0,2
243466.125,251092.625,258271.015625,250667.046875,221535.75,242231.234375,239458.0,225194.375,52217.0,1.0,2
243512.796875,251126.15625,258287.203125,250705.5,221552.375,242255.640625,239480.984375,225210.203125,52218.0,1.0,2
243605.953125,251240.0625,258413.8125,250785.59375,221749.796875,242299.0,239778.265625,225234.96875,52219.0,1.0,2
243615.875,251278.140625,258474.953125,250794.0,221859.765625,242299.890625,239940.71875,225232.546875,52220.0,1.0,2
243521.640625,251179.796875,258376.4375,250713.984375,221717.0625,242254.390625,239726.5,225207.15625,52221.0,1.0,2
243470.046875,251096.203125,258267.984375,250665.703125,221535.65625,242227.75,239457.109375,225197.859375,52222.0,1.0,2
243513.859375,251130.0,258283.625,250701.203125,221549.421875,242248.578125,239476.875,225211.8125,52223.0,1.0,2
243603.09375,251240.140625,258406.828125,250777.546875,221746.65625,242291.40625,239770.921875,225231.296875,52224.0,1.0,2
243613.1875,251273.9375,258468.96875,250788.015625,221858.515625,242296.59375,239937.3125,225231.46875,52225.0,1.0,2
243520.65625,251175.765625,258374.640625,250711.390625,221718.234375,242253.9375,239730.78125,225206.890625,52226.0,1.0,2
243467.375,251088.0625,258263.328125,250658.546875,221529.84375,242221.484375,239455.6875,225194.109375,52227.0,1.0,2
243511.453125,251121.765625,258278.171875,250695.65625,221539.0625,242245.0,239472.9375,225206.359375,52228.0,1.0,2
243603.625,251236.390625,258406.109375,250775.9375,221742.015625,242290.0625,239770.21875,225228.171875,52229.0,1.0,2
243618.109375,251278.234375,258475.140625,250790.515625,221857.4375,242296.765625,239942.046875,225231.203125,52230.0,1.0,2
243523.25,251179.53125,258382.6875,250713.8125,221716.53125,242252.328125,239736.421875,225208.046875,52231.0,1.0,2
243469.609375,251091.015625,258271.109375,250664.90625,221531.546875,242225.234375,239461.84375,225199.828125,52232.0,1.0,2
243514.9375,251121.953125,258286.578125,250704.59375,221545.859375,242250.359375,239477.40625,225216.28125,52233.0,1.0,2
243606.21875,251234.875,258409.6875,250783.09375,221745.671875,242294.796875,239772.359375,225236.65625,52234.0,1.0,2
243624.015625,251282.609375,258476.21875,250799.90625,221862.4375,242304.453125,239946.96875,225239.34375,52235.0,1.0,2
243530.765625,251186.953125,258383.140625,250721.859375,221724.84375,242258.140625,239740.984375,225216.453125,52236.0,1.0,2
243472.921875,251091.8125,258268.25,250667.859375,221537.890625,242223.90625,239460.328125,225202.421875,52237.0,1.0,2
243518.421875,251124.0,258283.984375,250707.015625,221547.734375,242249.015625,239471.953125,225215.390625,52238.0,1.0,2
243611.5,251239.703125,258411.390625,250785.0625,221744.78125,242291.9375,239764.578125,225234.875,52239.0,1.0,2
243620.890625,251278.234375,258477.109375,250797.21875,221863.515625,242296.765625,239937.765625,225235.328125,52240.0,1.0,2
243522.0,251177.203125,258380.015625,250718.453125,221724.9375,242251.609375,239732.84375,225211.359375,52241.0,1.0,2
243464.421875,251089.046875,258263.59375,250664.71875,221536.109375,242223.1875,239455.5,225198.578125,52242.0,1.0,2
243504.921875,251117.21875,258273.34375,250699.765625,221541.375,242243.84375,239464.265625,225210.46875,52243.0,1.0,2
243599.6875,251235.3125,258400.390625,250782.46875,221740.578125,242290.953125,239763.78125,225235.59375,52244.0,1.0,2
243613.734375,251279.9375,258470.484375,250799.28125,221861.453125,242299.265625,239942.6875,225238.625,52245.0,1.0,2
243518.0625,251180.953125,258375.359375,250719.265625,221725.734375,242255.546875,239740.890625,225212.078125,52246.0,1.0,2
243460.046875,251088.953125,258261.984375,250664.1875,221538.96875,242227.921875,239464.53125,225197.40625,52247.0,1.0,2
243501.171875,251114.34375,258267.625,250695.5625,221539.0625,242246.78125,239465.515625,225208.5,52248.0,1.0,2
243595.40625,251230.578125,258391.28125,250773.4375,221734.046875,242288.71875,239755.640625,225228.703125,52249.0,1.0,2
243607.03125,251270.984375,258456.453125,250786.40625,221851.453125,242292.828125,239931.765625,225227.90625,52250.0,1.0,2
243509.578125,251167.28125,258360.875,250707.8125,221713.140625,242245.796875,239729.796875,225204.125,52251.0,1.0,2
243462.90625,251084.21875,258255.109375,250659.890625,221530.921875,242222.015625,239454.15625,225196.15625,52252.0,1.0,2
243503.765625,251108.546875,258261.453125,250692.53125,221530.296875,242240.96875,239452.734375,225203.140625,52253.0,1.0,2
243594.953125,251224.328125,258388.40625,250774.15625,221729.40625,242288.09375,239749.109375,225227.453125,52254.0,1.0,2
243612.203125,251271.53125,258459.40625,250789.171875,221850.375,242296.046875,239930.078125,225228.4375,52255.0,1.0,2
243522.53125,251177.5625,258371.421875,250715.15625,221719.390625,242255.90625,239735.96875,225205.453125,52256.0,1.0,2
243463.890625,251083.5,258259.046875,250662.671875,221529.40625,242223.453125,239457.921875,225194.546875,52257.0,1.0,2
243504.65625,251112.5625,258268.421875,250696.015625,221531.09375,242245.625,239461.046875,225207.15625,52258.0,1.0,2
243591.640625,251226.015625,258390.828125,250772.453125,221726.984375,242290.0625,239752.328125,225227.359375,52259.0,1.0,2
243608.8125,251271.703125,258460.828125,250788.015625,221851.890625,242299.0,239934.8125,225232.90625,52260.0,1.0,2
243520.65625,251181.046875,258373.296875,250713.625,221724.9375,242259.578125,239743.390625,225211.09375,52261.0,1.0,2
243460.84375,251090.125,258258.5,250657.296875,221534.9375,242228.453125,239461.40625,225194.546875,52262.0,1.0,2
243499.296875,251115.0625,258264.5,250691.015625,221534.3125,242247.859375,239459.703125,225207.0625,52263.0,1.0,2
243590.578125,251226.828125,258389.9375,250771.5625,221730.75,242292.46875,239751.625,225232.453125,52264.0,1.0,2
243613.546875,251279.21875,258465.125,250790.875,221855.921875,242301.765625,239937.765625,225236.390625,52265.0,1.0,2
243521.46875,251182.296875,258375.8125,250713.984375,221726.0,242259.21875,239744.46875,225209.65625,52266.0,1.0,2
243462.8125,251084.125,258257.875,250657.65625,221535.75,242227.75,239462.203125,225195.09375,52267.0,1.0,2
243504.203125,251110.859375,258264.40625,250691.359375,221535.65625,242248.75,239458.1875,225208.765625,52268.0,1.0,2
243599.6875,251230.3125,258394.84375,250775.046875,221734.859375,242296.671875,239753.140625,225234.34375,52269.0,1.0,2
243619.0,251277.96875,258465.65625,250790.609375,221859.046875,242303.5625,239936.875,225237.109375,52270.0,1.0,2
243529.234375,251181.859375,258374.28125,250714.078125,221728.6875,242258.5,239742.671875,225211.453125,52271.0,1.0,2
243472.015625,251092.453125,258262.4375,250659.625,221540.671875,242228.453125,239463.734375,225197.59375,52272.0,1.0,2
243509.75,251120.34375,258266.90625,250689.046875,221537.890625,242247.0625,239457.921875,225209.03125,52273.0,1.0,2
243602.828125,251237.640625,258392.890625,250770.40625,221734.59375,242293.1875,239750.90625,225234.15625,52274.0,1.0,2
243622.5,251284.40625,258471.203125,250791.859375,221860.5625,242303.296875,239940.984375,225235.234375,52275.0,1.0,2
243526.015625,251184.796875,258379.828125,250714.96875,221728.328125,242257.0625,239748.84375,225209.75,52276.0,1.0,2
243463.265625,251091.109375,258261.8125,250655.421875,221534.765625,242220.234375,239467.484375,225195.453125,52277.0,1.0,2
243498.03125,251110.234375,258261.359375,250681.984375,221524.9375,242234.890625,239454.78125,225203.84375,52278.0,1.0,2
243590.3125,251224.765625,258386.625,250765.578125,221723.859375,242282.546875,239746.25,225228.703125,52279.0,1.0,2
243611.140625,251277.515625,258463.421875,250785.421875,221851.625,242294.53125,239935.96875,225233.625,52280.0,1.0,2
243518.6875,251184.0,258375.8125,250712.203125,221724.3125,242251.96875,239744.828125,225210.46875,52281.0,1.0,2
243455.125,251085.5625,258256.890625,250653.90625,221531.546875,242218.890625,239457.828125,225195.265625,52282.0,1.0,2
243487.3125,251103.0,258256.1875,250682.0625,221522.25,242233.828125,239445.484375,225205.453125,52283.0,1.0,2
243578.5,251216.984375,258378.9375,250762.0,221717.6875,242278.265625,239736.15625,225230.140625,52284.0,1.0,2
243599.6875,251266.796875,258454.03125,250780.59375,221845.640625,242287.921875,239928.015625,225230.765625,52285.0,1.0,2
243509.390625,251176.046875,258368.203125,250704.15625,221722.15625,242245.890625,239742.046875,225205.015625,52286.0,1.0,2
243448.421875,251081.265625,258251.625,250646.3125,221530.390625,242213.703125,239457.015625,225189.453125,52287.0,1.0,2
243486.328125,251104.25,258252.421875,250678.671875,221521.53125,242235.796875,239445.84375,225204.5625,52288.0,1.0,2
243579.84375,251220.921875,258378.21875,250758.6875,221718.859375,242281.390625,239736.5,225229.515625,52289.0,1.0,2
243604.4375,251274.65625,258457.4375,250779.34375,221851.53125,242294.53125,239932.046875,225232.015625,52290.0,1.0,2
243512.796875,251180.953125,258371.15625,250705.578125,221727.890625,242253.140625,239747.140625,225208.953125,52291.0,1.0,2
243450.390625,251083.78125,258253.234375,250650.78125,221534.5,242219.78125,239464.796875,225195.265625,52292.0,1.0,2
243488.296875,251107.640625,258254.390625,250683.671875,221526.625,242237.75,239451.203125,225202.59375,52293.0,1.0,2
243583.421875,251224.5,258377.953125,250763.875,221719.5625,242284.0625,239739.09375,225225.75,52294.0,1.0,2
243604.609375,251275.28125,258453.59375,250784.625,221849.65625,242292.921875,239931.140625,225230.046875,52295.0,1.0,2
243512.25,251180.0625,258368.65625,250709.78125,221727.890625,242251.25,239749.65625,225208.765625,52296.0,1.0,2
243455.03125,251085.46875,258251.703125,250654.890625,221536.46875,242219.875,239465.96875,225194.1875,52297.0,1.0,2
243496.703125,251107.640625,258252.96875,250687.4375,221526.0,242242.578125,239449.25,225206.4375,52298.0,1.0,2
243589.40625,251223.515625,258376.34375,250765.484375,221718.859375,242288.265625,239735.53125,225226.296875,52299.0,1.0,2
243613.90625,251280.109375,258457.609375,250784.96875,221854.84375,242300.4375,239936.515625,225230.765625,52300.0,1.0,2
243526.375,251191.859375,258377.0625,250712.828125,221737.1875,242261.984375,239760.734375,225213.6875,52301.0,1.0,2
243461.5625,251090.03125,258259.484375,250655.15625,221543.96875,242228.453125,239474.015625,225199.921875,52302.0,1.0,2
243502.0625,251113.71875,258262.796875,250687.171875,221533.609375,242250.0,239454.703125,225212.703125,52303.0,1.0,2
243600.046875,251237.28125,258391.0,250771.203125,221730.296875,242300.15625,239746.4375,225237.90625,52304.0,1.0,2
243622.671875,251290.296875,258469.859375,250792.9375,221863.515625,242311.15625,239946.875,225240.15625,52305.0,1.0,2
243526.5625,251189.28125,258381.265625,250715.15625,221740.140625,242264.40625,239767.890625,225213.328125,52306.0,1.0,2
243458.078125,251082.4375,258255.90625,250654.53125,221543.625,242228.453125,239479.640625,225199.375,52307.0,1.0,2
243495.71875,251105.140625,258256.890625,250686.09375,221531.015625,242250.8125,239460.515625,225212.96875,52308.0,1.0,2
243590.484375,251223.0625,258381.078125,250770.21875,221725.375,242298.109375,239746.875,225239.34375,52309.0,1.0,2
243610.421875,251273.234375,258453.6875,250788.015625,221853.0625,242301.328125,239938.390625,225237.203125,52310.0,1.0,2
243512.609375,251176.75,258362.125,250709.25,221726.1875,242249.921875,239753.046875,225206.359375,52311.0,1.0,2
243451.71875,251078.40625,258245.0,250652.03125,221534.234375,242215.765625,239464.4375,225191.953125,52312.0,1.0,2
243488.296875,251096.921875,258246.34375,250682.6875,221518.9375,242232.03125,239438.328125,225203.40625,52313.0,1.0,2
243585.390625,251215.828125,258373.125,250764.5,221710.71875,242278.078125,239724.34375,225225.9375,52314.0,1.0,2
243619.8125,251280.109375,258461.1875,250791.40625,221851.171875,242292.296875,239930.078125,225229.234375,52315.0,1.0,2
243533.796875,251192.84375,258382.25,250720.6875,221736.296875,242252.328125,239758.140625,225208.859375,52316.0,1.0,2
243468.53125,251092.453125,258261.359375,250660.4375,221540.671875,242219.875,239470.609375,225192.765625,52317.0,1.0,2
243502.78125,251109.875,258255.46875,250687.25,221521.09375,242236.421875,239440.84375,225202.234375,52318.0,1.0,2
243597.1875,251227.1875,258382.15625,250771.65625,221719.390625,242287.109375,239731.234375,225231.03125,52319.0,1.0,2
243620.25,251282.078125,258464.3125,250792.84375,221857.25,242298.90625,239936.953125,225234.421875,52320.0,1.0,2
243525.3125,251193.921875,258381.34375,250716.671875,221739.859375,242258.5,239764.140625,225209.125,52321.0,1.0,2
243459.59375,251095.484375,258262.703125,250655.15625,221546.125,242225.515625,239477.40625,225197.5,52322.0,1.0,2
243492.671875,251110.328125,258254.578125,250680.09375,221526.0,242241.515625,239445.125,225206.890625,52323.0,1.0,2
243583.875,251222.359375,258371.25,250757.265625,221714.828125,242287.5625,239726.140625,225226.921875,52324.0,1.0,2
243606.578125,251276.53125,258450.375,250778.0,221849.484375,242296.046875,239930.609375,225230.84375,52325.0,1.0,2
243514.40625,251184.71875,258370.4375,250706.828125,221737.265625,242255.734375,239763.328125,225210.640625,52326.0,1.0,2
243449.84375,251086.640625,258250.015625,250646.65625,221545.578125,242222.5625,239477.9375,225195.265625,52327.0,1.0,2
243481.234375,251099.421875,258241.609375,250670.984375,221522.25,242237.3125,239444.6875,225202.515625,52328.0,1.0,2
243573.5,251212.609375,258361.234375,250749.84375,221708.390625,242279.875,239723.28125,225223.15625,52329.0,1.0,2
243598.796875,251268.84375,258442.140625,250772.09375,221843.40625,242290.15625,239929.265625,225226.203125,52330.0,1.0,2
243510.46875,251175.328125,258359.796875,250699.140625,221728.953125,242249.203125,239762.609375,225203.765625,52331.0,1.0,2
243449.671875,251078.671875,258242.40625,250641.296875,221536.546875,242216.484375,239475.625,225192.140625,52332.0,1.0,2
243478.09375,251087.34375,258233.375,250664.90625,221512.859375,242231.046875,239437.625,225204.203125,52333.0,1.0,2
243580.109375,251211.796875,258363.375,250753.765625,221708.578125,242284.34375,239724.96875,225229.234375,52334.0,1.0,2
243605.328125,251269.5625,258445.28125,250778.359375,221846.703125,242295.96875,239931.0625,225234.875,52335.0,1.0,2
243519.234375,251185.25,258367.84375,250709.78125,221737.359375,242256.359375,239767.625,225214.046875,52336.0,1.0,2
243451.09375,251082.875,258246.53125,250647.015625,221538.4375,242218.796875,239475.96875,225196.609375,52337.0,1.0,2
243479.53125,251092.625,258237.671875,250668.296875,221512.234375,242233.640625,239439.234375,225206.0,52338.0,1.0,2
243571.359375,251205.015625,258358.734375,250748.9375,221701.515625,242282.109375,239720.5,225229.0625,52339.0,1.0,2
243605.5,251270.359375,258449.296875,250778.453125,221848.046875,242301.59375,239937.765625,225234.515625,52340.0,1.0,2
243519.859375,251184.0,258370.359375,250708.0,221740.484375,242260.90625,239776.390625,225211.8125,52341.0,1.0,2
243449.40625,251078.5,258244.46875,250644.25,221543.265625,242223.546875,239481.609375,225195.53125,52342.0,1.0,2
243476.765625,251087.625,258232.3125,250667.9375,221515.09375,242239.90625,239440.03125,225206.0,52343.0,1.0,2
243569.46875,251202.421875,258352.03125,250747.25,221700.4375,242287.015625,239717.640625,225229.515625,52344.0,1.0,2
243599.875,251266.15625,258438.578125,250772.375,221841.25,242300.15625,239927.5625,225233.359375,52345.0,1.0,2
243512.25,251183.46875,258363.921875,250703.796875,221734.765625,242260.203125,239767.796875,225214.046875,52346.0,1.0,2
243444.84375,251083.5,258244.296875,250643.0,221539.234375,242226.140625,239479.015625,225198.9375,52347.0,1.0,2
243471.84375,251090.390625,258233.375,250665.53125,221509.90625,242239.1875,239436.015625,225207.15625,52348.0,1.0,2
243568.9375,251210.1875,258356.578125,250748.859375,221700.34375,242284.34375,239718.09375,225230.671875,52349.0,1.0,2
243602.828125,251278.5,258444.828125,250778.625,221848.40625,242300.34375,239935.53125,225238.984375,52350.0,1.0,2
243510.90625,251191.0625,258363.015625,250702.359375,221738.609375,242257.515625,239773.25,225210.734375,52351.0,1.0,2
243447.078125,251091.28125,258244.5625,250642.453125,221543.265625,242226.84375,239484.921875,225195.09375,52352.0,1.0,2
243475.234375,251098.96875,258231.421875,250663.5625,221511.15625,242238.828125,239437.890625,225205.28125,52353.0,1.0,2
243566.96875,251212.078125,258348.0,250741.34375,221693.109375,242278.703125,239711.03125,225227.09375,52354.0,1.0,2
243606.40625,251282.34375,258440.1875,250774.515625,221843.125,242295.6875,239929.71875,225236.578125,52355.0,1.0,2
243523.96875,251205.28125,258367.21875,250706.390625,221741.75,242258.765625,239777.359375,225215.828125,52356.0,1.0,2
243457.09375,251107.015625,258246.609375,250640.9375,221544.78125,242223.1875,239485.359375,225198.84375,52357.0,1.0,2
243481.671875,251111.484375,258235.265625,250661.0625,221511.96875,242236.859375,239434.9375,225208.765625,52358.0,1.0,2
243575.46875,251226.015625,258357.484375,250742.234375,221700.171875,242283.4375,239711.46875,225231.203125,52359.0,1.0,2
243613.28125,251297.8125,258449.75,250774.328125,221847.59375,242301.0625,239933.734375,225237.203125,52360.0,1.0,2
243529.0625,251213.5,258378.046875,250709.25,221745.671875,242263.328125,239785.40625,225217.53125,52361.0,1.0,2
243460.125,251107.203125,258257.96875,250650.5,221549.34375,242228.640625,239496.0,225204.296875,52362.0,1.0,2
243484.984375,251113.453125,258243.21875,250668.75,221515.0,242239.09375,239441.734375,225212.078125,52363.0,1.0,2
243576.625,251225.21875,258359.890625,250746.078125,221697.671875,242282.453125,239714.421875,225232.453125,52364.0,1.0,2
243612.75,251289.765625,258450.8125,250778.71875,221847.875,242298.546875,239937.5,225242.46875,52365.0,1.0,2
243530.21875,251206.171875,258378.9375,250709.96875,221747.46875,242260.5625,239787.203125,225222.359375,52366.0,1.0,2
243460.3125,251103.890625,258254.125,250642.90625,221546.75,242220.859375,239491.890625,225205.8125,52367.0,1.0,2
243485.4375,251108.359375,258240.71875,250664.546875,221515.71875,242236.953125,239439.59375,225216.640625,52368.0,1.0,2
243575.734375,251217.34375,258360.96875,250746.265625,221706.421875,242286.65625,239715.234375,225241.046875,52369.0,1.0,2
243614.171875,251284.40625,258449.921875,250778.0,221857.078125,242303.734375,239936.0625,225248.203125,52370.0,1.0,2
243535.328125,251206.4375,258381.265625,250712.734375,221760.421875,242267.984375,239790.515625,225229.59375,52371.0,1.0,2
243462.1875,251099.328125,258256.1875,250644.15625,221560.15625,242228.015625,239494.390625,225209.75,52372.0,1.0,2
243484.0,251102.734375,258238.921875,250661.953125,221519.5625,242237.125,239434.21875,225215.65625,52373.0,1.0,2
243580.296875,251221.1875,258357.65625,250744.828125,221704.8125,242284.703125,239706.734375,225237.46875,52374.0,1.0,2
243616.953125,251286.734375,258448.9375,250777.46875,221854.578125,242303.46875,239933.921875,225246.671875,52375.0,1.0,2
243530.21875,251203.125,258378.84375,250709.78125,221755.953125,242268.421875,239791.21875,225224.140625,52376.0,1.0,2
243459.328125,251098.4375,258258.5,250646.125,221555.953125,242232.125,239497.25,225208.5,52377.0,1.0,2
243482.484375,251099.78125,258238.390625,250660.609375,221513.84375,242240.53125,239437.0,225213.234375,52378.0,1.0,2
243578.421875,251216.28125,258357.390625,250741.34375,221699.453125,242288.09375,239712.90625,225239.078125,52379.0,1.0,2
243613.546875,251284.765625,258451.265625,250774.15625,221847.875,242305.34375,239941.15625,225243.375,52380.0,1.0,2
243525.84375,251200.453125,258378.40625,250703.703125,221745.765625,242261.984375,239793.453125,225217.796875,52381.0,1.0,2
243456.203125,251097.984375,258256.359375,250639.515625,221546.296875,242225.234375,239497.25,225200.8125,52382.0,1.0,2
243475.859375,251099.0625,258236.25,250657.390625,221502.578125,242236.234375,239433.421875,225208.3125,52383.0,1.0,2
243565.984375,251208.3125,258356.578125,250739.28125,221685.78125,242282.375,239704.671875,225231.296875,52384.0,1.0,2
243609.703125,251284.484375,258455.46875,250775.671875,221842.328125,242301.234375,239935.890625,225242.65625,52385.0,1.0,2
243521.375,251200.890625,258381.796875,250704.59375,221742.1875,242259.21875,239790.6875,225217.0,52386.0,1.0,2
243451.015625,251095.75,258263.0625,250641.921875,221545.21875,242226.21875,239497.609375,225202.0625,52387.0,1.0,2
243479.4375,251104.15625,258247.953125,250662.578125,221509.203125,242241.421875,239436.1875,225215.828125,52388.0,1.0,2
243573.234375,251219.671875,258364.09375,250745.546875,221693.375,242290.0625,239710.3125,225242.828125,52389.0,1.0,2
243609.96875,251288.421875,258456.1875,250778.890625,221845.359375,242306.59375,239938.484375,225247.65625,52390.0,1.0,2
243529.234375,251207.78125,258389.3125,250712.203125,221752.734375,242268.15625,239797.9375,225224.140625,52391.0,1.0,2
243459.140625,251102.015625,258267.171875,250646.3125,221554.875,242232.65625,239503.0625,225208.046875,52392.0,1.0,2
243475.859375,251097.984375,258240.4375,250658.375,221504.1875,242237.578125,239430.46875,225212.609375,52393.0,1.0,2
243566.25,251206.796875,258353.09375,250738.484375,221681.75,242280.3125,239696.1875,225237.734375,52394.0,1.0,2
243607.734375,251276.265625,258447.421875,250772.375,221835.359375,242297.296875,239925.6875,225242.65625,52395.0,1.0,2
243524.6875,251197.5,258378.9375,250703.96875,221741.46875,242257.0625,239785.59375,225218.875,52396.0,1.0,2
243455.921875,251095.3125,258258.234375,250640.046875,221546.296875,242222.734375,239493.5,225200.359375,52397.0,1.0,2
243483.46875,251102.8125,258240.359375,250657.21875,221504.1875,242235.796875,239427.34375,225207.78125,52398.0,1.0,2
243571.078125,251206.890625,258351.3125,250733.125,221679.875,242278.796875,239691.453125,225228.890625,52399.0,1.0,2
243609.265625,251274.921875,258444.5625,250767.0,221836.515625,242298.375,239926.40625,225238.71875,52400.0,1.0,2
243530.765625,251201.34375,258379.921875,250703.25,221749.078125,242265.03125,239793.546875,225215.296875,52401.0,1.0,2
243456.734375,251092.71875,258254.578125,250637.1875,221549.703125,242225.515625,239495.203125,225197.0625,52402.0,1.0,2
243478.09375,251091.546875,258230.515625,250651.3125,221502.9375,242233.015625,239422.234375,225205.375,52403.0,1.0,2
243571.703125,251202.328125,258346.484375,250735.0,221687.5625,242283.4375,239692.609375,225230.84375,52404.0,1.0,2
243609.890625,251272.78125,258442.0625,250772.8125,221846.078125,242303.65625,239929.265625,225238.8125,52405.0,1.0,2
243524.234375,251192.765625,258374.375,250703.53125,221754.890625,242264.046875,239794.0,225214.125,52406.0,1.0,2
243450.5625,251086.09375,258250.8125,250637.1875,221556.21875,242226.21875,239500.203125,225196.78125,52407.0,1.0,2
243474.703125,251089.046875,258229.8125,250655.96875,221510.53125,242238.03125,239430.375,225209.578125,52408.0,1.0,2
243569.296875,251200.453125,258344.6875,250735.0,221686.75,242283.0,239692.609375,225230.578125,52409.0,1.0,2
243612.84375,251275.90625,258441.4375,250772.546875,221844.921875,242302.671875,239926.859375,225236.578125,52410.0,1.0,2
243533.796875,251201.25,258377.953125,250708.71875,221759.09375,242261.890625,239796.765625,225216.09375,52411.0,1.0,2
243458.96875,251092.171875,258253.046875,250641.5625,221559.4375,242220.40625,239499.21875,225197.953125,52412.0,1.0,2
243471.3125,251081.1875,258225.15625,250650.234375,221502.765625,242226.84375,239419.203125,225202.515625,52413.0,1.0,2
243565.1875,251196.609375,258342.90625,250729.625,221678.265625,242273.078125,239683.40625,225223.875,52414.0,1.0,2
243611.046875,251271.53125,258441.4375,250766.640625,221834.1875,242290.6875,239921.484375,225230.40625,52415.0,1.0,2
243530.671875,251196.515625,258378.046875,250702.28125,221748.1875,242254.203125,239797.84375,225208.765625,52416.0,1.0,2
243462.09375,251095.671875,258256.8125,250636.203125,221551.3125,242219.25,239505.390625,225190.796875,52417.0,1.0,2
243488.921875,251099.328125,258237.140625,250651.671875,221504.28125,242233.828125,239430.734375,225201.34375,52418.0,1.0,2
243577.515625,251206.171875,258350.953125,250731.328125,221678.796875,242281.125,239693.234375,225228.4375,52419.0,1.0,2
243616.6875,251276.453125,258446.171875,250766.5625,221835.359375,242298.46875,239929.09375,225233.890625,52420.0,1.0,2
243535.859375,251200.71875,258384.296875,250702.8125,221750.59375,242259.125,239803.203125,225212.796875,52421.0,1.0,2
243466.65625,251103.984375,258263.875,250637.453125,221553.546875,242223.453125,239511.015625,225197.765625,52422.0,1.0,2
243481.40625,251098.171875,258234.359375,250647.109375,221495.875,242228.1875,239426.890625,225201.796875,52423.0,1.0,2
243570.1875,251206.34375,258346.65625,250728.828125,221672.09375,242271.28125,239688.3125,225226.109375,52424.0,1.0,2
243611.046875,251278.140625,258443.21875,250766.46875,221832.765625,242291.046875,239929.8125,225236.390625,52425.0,1.0,2
243527.453125,251200.265625,258380.015625,250701.296875,221750.765625,242254.125,239809.546875,225214.671875,52426.0,1.0,2
243452.4375,251093.609375,258255.90625,250635.390625,221553.71875,242217.734375,239514.6875,225196.25,52427.0,1.0,2
243464.6875,251085.46875,258223.90625,250644.96875,221494.625,242223.984375,239426.0,225202.859375,52428.0,1.0,2
243559.453125,251196.15625,258338.703125,250727.75,221672.28125,242273.515625,239686.625,225227.453125,52429.0,1.0,2
243604.609375,251270.546875,258435.890625,250762.4375,221835.703125,242294.4375,239925.96875,225236.65625,52430.0,1.0,2
243519.9375,251195.53125,258370.4375,250695.03125,221750.6875,242255.1875,239802.125,225213.859375,52431.0,1.0,2
243441.359375,251084.046875,258243.21875,250624.765625,221545.859375,242214.515625,239502.0,225194.46875,52432.0,1.0,2
243463.265625,251081.453125,258214.875,250638.078125,221489.25,242223.0,239415.0,225201.171875,52433.0,1.0,2
243557.21875,251188.296875,258326.8125,250721.046875,221666.375,242269.046875,239674.1875,225225.3125,52434.0,1.0,2
243599.96875,251260.703125,258427.75,250760.125,221829.890625,242287.921875,239916.84375,225233.4375,52435.0,1.0,2
243520.390625,251193.125,258370.265625,250699.234375,221751.3125,242252.59375,239800.96875,225214.578125,52436.0,1.0,2
243446.8125,251086.28125,258248.140625,250633.875,221552.828125,242216.84375,239507.453125,225200.359375,52437.0,1.0,2
243465.9375,251081.984375,258218.09375,250642.640625,221493.546875,242225.78125,239418.21875,225204.203125,52438.0,1.0,2
243554.28125,251186.5,258327.078125,250721.140625,221664.40625,242269.140625,239671.421875,225227.359375,52439.0,1.0,2
243600.859375,251263.75,258427.65625,250761.375,221830.609375,242292.296875,239916.21875,225235.671875,52440.0,1.0,2
243520.75,251188.203125,258367.046875,250696.640625,221750.953125,242255.1875,239800.96875,225213.59375,52441.0,1.0,2
243448.5,251085.03125,258247.421875,250630.484375,221552.375,242220.6875,239508.25,225195.453125,52442.0,1.0,2
243466.5625,251078.59375,258218.453125,250642.640625,221492.03125,242229.171875,239417.953125,225200.625,52443.0,1.0,2
243556.953125,251185.421875,258329.3125,250721.9375,221663.0625,242274.6875,239673.75,225224.0625,52444.0,1.0,2
243609.34375,251265.1875,258433.296875,250762.265625,221833.03125,242297.84375,239923.453125,225233.984375,52445.0,1.0,2
243530.9375,251195.0,258374.828125,250699.765625,221757.5625,242260.375,239808.921875,225213.234375,52446.0,1.0,2
243456.640625,251088.25,258250.8125,250632.453125,221556.140625,242220.6875,239509.0625,225197.0625,52447.0,1.0,2
243469.78125,251080.28125,258220.953125,250644.515625,221492.46875,242227.921875,239414.546875,225204.46875,52448.0,1.0,2
243559.015625,251184.53125,258327.703125,250723.46875,221661.359375,242269.3125,239668.015625,225231.03125,52449.0,1.0,2
243609.796875,251269.734375,258433.65625,250769.234375,221834.71875,242296.234375,239921.046875,225240.6875,52450.0,1.0,2
243530.046875,251200.890625,258378.125,250705.84375,221761.40625,242260.90625,239811.078125,225217.4375,52451.0,1.0,2
243452.890625,251092.265625,258252.78125,250636.296875,221559.703125,242221.65625,239512.359375,225201.53125,52452.0,1.0,2
243468.71875,251087.703125,258221.3125,250646.65625,221497.484375,242230.34375,239417.234375,225208.671875,52453.0,1.0,2
243555.796875,251191.421875,258329.3125,250724.453125,221667.890625,242275.046875,239670.96875,225233.0,52454.0,1.0,2
243601.75,251267.953125,258428.375,250762.890625,221836.78125,242295.25,239919.25,225243.28125,52455.0,1.0,2
243526.109375,251202.859375,258375.09375,250702.984375,221767.046875,242262.25,239814.015625,225223.703125,52456.0,1.0,2
243453.6875,251100.046875,258254.578125,250636.296875,221569.546875,242227.296875,239519.703125,225204.390625,52457.0,1.0,2
243465.578125,251085.5625,258218.890625,250642.546875,221502.9375,242230.421875,239420.546875,225207.515625,52458.0,1.0,2
243553.65625,251187.671875,258327.703125,250720.609375,221671.015625,242275.578125,239672.046875,225232.8125,52459.0,1.0,2
243600.234375,251261.875,258428.734375,250758.953125,221834.90625,242296.046875,239921.40625,225241.3125,52460.0,1.0,2
243527.90625,251199.828125,258377.5,250701.015625,221766.953125,242263.5,239818.9375,225217.703125,52461.0,1.0,2
243450.296875,251094.5,258251.984375,250630.921875,221567.578125,242224.609375,239520.59375,225201.171875,52462.0,1.0,2
243463.4375,251084.40625,258217.109375,250640.21875,221498.5625,242230.515625,239417.5,225209.390625,52463.0,1.0,2
243552.21875,251190.4375,258324.484375,250718.359375,221664.5,242272.453125,239664.265625,225229.6875,52464.0,1.0,2
243600.3125,251269.03125,258426.765625,250758.6875,221833.03125,242293.375,239915.40625,225237.109375,52465.0,1.0,2
243526.375,251200.8125,258376.34375,250702.359375,221765.609375,242260.5625,239816.96875,225221.1875,52466.0,1.0,2
243452.171875,251090.125,258255.109375,250635.3125,221566.140625,242222.640625,239522.5625,225205.375,52467.0,1.0,2
243467.375,251080.828125,258219.96875,250640.9375,221499.265625,242230.6875,239419.015625,225207.34375,52468.0,1.0,2
243558.828125,251189.359375,258327.890625,250719.0,221666.640625,242277.1875,239664.453125,225229.6875,52469.0,1.0,2
243604.609375,251266.34375,258428.734375,250758.78125,221833.828125,242294.796875,239913.09375,225237.015625,52470.0,1.0,2
243529.234375,251199.28125,258375.453125,250701.015625,221765.609375,242261.890625,239814.828125,225217.625,52471.0,1.0,2
243450.734375,251089.5,258249.828125,250631.375,221565.171875,242224.34375,239516.390625,225200.453125,52472.0,1.0,2
243464.6875,251076.53125,258211.921875,250639.328125,221495.421875,242229.625,239409.8125,225205.09375,52473.0,1.0,2
243554.359375,251182.484375,258318.3125,250718.453125,221663.25,242273.078125,239658.28125,225230.40625,52474.0,1.0,2
243602.734375,251262.765625,258422.921875,250759.5,221833.203125,242293.453125,239910.765625,225239.703125,52475.0,1.0,2
243529.78125,251197.765625,258371.6875,250700.125,221765.609375,242258.234375,239812.59375,225215.46875,52476.0,1.0,2
243458.703125,251094.5,258250.375,250633.609375,221568.734375,242223.453125,239517.8125,225199.46875,52477.0,1.0,2
243468.0,251081.53125,258211.921875,250637.546875,221497.75,242226.9375,239410.625,225204.828125,52478.0,1.0,2
243550.703125,251180.59375,258315.015625,250714.875,221661.546875,242270.484375,239656.125,225229.59375,52479.0,1.0,2
243610.15625,251268.84375,258425.15625,250761.734375,221837.59375,242298.546875,239916.390625,225242.03125,52480.0,1.0,2
243534.421875,251206.703125,258375.453125,250701.375,221776.25,242266.546875,239822.875,225223.15625,52481.0,1.0,2
243447.609375,251088.515625,258241.96875,250625.203125,221569.359375,242221.9375,239520.328125,225198.65625,52482.0,1.0,2
243456.90625,251072.859375,258200.125,250628.875,221493.90625,242225.15625,239409.640625,225203.9375,52483.0,1.0,2
243545.421875,251177.375,258304.109375,250702.625,221654.03125,242268.328125,239651.21875,225226.109375,52484.0,1.0,2
243596.5625,251257.140625,258410.59375,250746.625,221824.53125,242293.28125,239908.265625,225236.578125,52485.0,1.0,2
243521.1875,251193.65625,258362.84375,250690.5625,221762.3125,242261.984375,239816.4375,225216.09375,52486.0,1.0,2
243443.5,251086.8125,258239.109375,250621.890625,221564.0,242225.328125,239520.765625,225197.234375,52487.0,1.0,2
243455.125,251070.546875,258197.796875,250626.015625,221487.734375,242228.90625,239408.5625,225200.984375,52488.0,1.0,2
243538.890625,251167.734375,258299.8125,250702.28125,221647.859375,242270.390625,239646.296875,225221.828125,52489.0,1.0,2
243593.25,251252.84375,258410.765625,250750.203125,221826.40625,242297.21875,239910.765625,225235.671875,52490.0,1.0,2
243523.703125,251193.5625,258364.359375,250694.140625,221767.578125,242266.546875,239824.84375,225218.6875,52491.0,1.0,2
243443.5,251082.875,258238.390625,250624.40625,221566.953125,242228.640625,239526.3125,225202.421875,52492.0,1.0,2
243450.390625,251062.21875,258195.5625,250625.921875,221486.125,242228.734375,239407.125,225202.78125,52493.0,1.0,2
243540.421875,251166.65625,258301.421875,250704.78125,221645.1875,242267.796875,239646.46875,225224.40625,52494.0,1.0,2
243599.515625,251258.75,258413.71875,250755.296875,221823.90625,242293.71875,239911.03125,225239.96875,52495.0,1.0,2
243528.609375,251195.890625,258369.28125,250699.328125,221768.5625,242262.515625,239826.546875,225221.375,52496.0,1.0,2
243447.703125,251085.921875,258240.796875,250626.453125,221564.453125,242220.328125,239526.578125,225200.359375,52497.0,1.0,2
243456.203125,251070.1875,258198.515625,250628.875,221485.765625,242221.75,239408.03125,225205.1875,52498.0,1.0,2
243543.90625,251172.203125,258305.984375,250710.40625,221648.40625,242266.453125,239647.640625,225228.96875,52499.0,1.0,2
243596.390625,251256.5,258413.53125,250758.515625,221822.828125,242290.78125,239907.90625,225239.078125,52500.0,1.0,2
243522.984375,251197.59375,258368.390625,250699.6875,221763.734375,242255.28125,239822.25,225217.265625,52501.0,1.0,2
243443.40625,251090.84375,258246.078125,250627.796875,221564.1875,242216.296875,239526.9375,225199.828125,52502.0,1.0,2
243452.0,251072.78125,258202.453125,250630.125,221484.609375,242220.5,239407.484375,225204.65625,52503.0,1.0,2
243541.40625,251173.625,258306.34375,250709.0625,221645.71875,242266.90625,239645.140625,225229.0625,52504.0,1.0,2
243598.625,251264.28125,258416.578125,250755.203125,221823.109375,242291.9375,239909.59375,225239.796875,52505.0,1.0,2
243528.796875,251208.765625,258377.78125,250702.453125,221772.953125,242262.171875,239833.25,225222.71875,52506.0,1.0,2
243443.859375,251092.0,258246.609375,250625.65625,221568.203125,242218.359375,239530.328125,225201.25,52507.0,1.0,2
243445.203125,251064.546875,258197.171875,250624.046875,221481.484375,242218.09375,239404.359375,225203.578125,52508.0,1.0,2
243531.46875,251165.046875,258298.375,250701.109375,221637.765625,242263.15625,239640.125,225227.71875,52509.0,1.0,2
243590.484375,251254.90625,258408.4375,250747.0625,221816.75,242289.171875,239906.109375,225237.46875,52510.0,1.0,2
243521.828125,251200.0,258366.328125,250693.25,221767.21875,242261.09375,239832.984375,225220.125,52511.0,1.0,2
243437.78125,251083.0625,258236.59375,250618.234375,221563.46875,242217.8125,239531.859375,225198.21875,52512.0,1.0,2
243447.34375,251063.65625,258192.4375,250619.578125,221481.125,242219.703125,239405.078125,225201.96875,52513.0,1.0,2
243539.515625,251170.40625,258296.59375,250698.15625,221641.515625,242269.3125,239640.578125,225226.015625,52514.0,1.0,2
243595.671875,251255.25,258407.453125,250746.53125,221821.9375,242297.84375,239906.921875,225238.453125,52515.0,1.0,2
243526.828125,251199.109375,258367.140625,250694.40625,221770.984375,242264.84375,239830.75,225218.78125,52516.0,1.0,2
243446.625,251088.421875,258240.53125,250621.546875,221568.296875,242223.453125,239532.75,225199.828125,52517.0,1.0,2
243447.4375,251059.09375,258188.859375,250619.296875,221477.90625,242221.484375,239402.484375,225201.703125,52518.0,1.0,2
243536.84375,251161.109375,258289.265625,250697.0,221634.453125,242267.078125,239636.1875,225224.6875,52519.0,1.0,2
243598.53125,251255.171875,258403.796875,250747.25,221818.09375,242295.25,239903.703125,225234.34375,52520.0,1.0,2
243532.375,251200.265625,258367.484375,250695.65625,221770.796875,242263.328125,239833.609375,225217.265625,52521.0,1.0,2
243453.609375,251093.34375,258245.265625,250625.203125,221572.234375,242223.265625,239539.0,225198.65625,52522.0,1.0,2
243459.765625,251075.90625,258199.859375,250626.8125,221486.046875,242223.71875,239408.828125,225199.734375,52523.0,1.0,2
243545.25,251177.734375,258300.890625,250704.859375,221641.703125,242268.328125,239637.09375,225225.21875,52524.0,1.0,2
243606.21875,251270.984375,258416.046875,250758.15625,221828.28125,242300.609375,239908.96875,225242.390625,52525.0,1.0,2
243537.828125,251216.1875,258379.109375,250708.4375,221785.015625,242275.125,239844.328125,225226.375,52526.0,1.0,2
243456.546875,251104.609375,258254.484375,250634.234375,221582.59375,242231.40625,239545.0,225203.671875,52527.0,1.0,2
243457.984375,251080.640625,258201.640625,250629.40625,221490.6875,242229.078125,239410.984375,225204.921875,52528.0,1.0,2
243542.46875,251177.375,258297.046875,250702.8125,221642.5,242273.78125,239637.984375,225226.734375,52529.0,1.0,2
243598.078125,251260.890625,258407.453125,250751.09375,221825.421875,242300.34375,239907.0,225241.125,52530.0,1.0,2
243525.03125,251201.34375,258366.953125,250695.921875,221778.75,242266.640625,239841.46875,225224.5,52531.0,1.0,2
243442.0625,251090.84375,258238.921875,250623.234375,221572.9375,242222.734375,239543.203125,225202.78125,52532.0,1.0,2
243442.15625,251064.015625,258184.65625,250618.328125,221476.109375,242217.734375,239402.9375,225201.53125,52533.0,1.0,2
243530.765625,251164.234375,258283.71875,250694.859375,221625.515625,242260.015625,239624.921875,225224.234375,52534.0,1.0,2
243588.078125,251249.796875,258394.5,250742.6875,221803.703125,242283.625,239887.96875,225233.078125,52535.0,1.0,2
243522.53125,251196.875,258360.15625,250691.359375,221763.734375,242249.5625,239823.40625,225214.671875,52536.0,1.0,2
243448.328125,251093.421875,258238.921875,250623.234375,221566.953125,242211.203125,239529.4375,225196.78125,52537.0,1.0,2
243453.6875,251069.203125,258191.71875,250624.3125,221476.109375,242212.546875,239392.828125,225199.015625,52538.0,1.0,2
243542.203125,251165.046875,258289.171875,250700.03125,221624.625,242255.640625,239614.203125,225218.328125,52539.0,1.0,2
243606.3125,251264.015625,258408.984375,250753.859375,221809.953125,242285.953125,239889.9375,225232.546875,52540.0,1.0,2
243541.84375,251212.515625,258377.6875,250706.125,221774.109375,242260.109375,239835.390625,225217.796875,52541.0,1.0,2
243463.53125,251105.765625,258256.09375,250633.34375,221576.078125,242221.3125,239539.0,225198.390625,52542.0,1.0,2
243464.875,251081.0,258206.5625,250629.765625,221481.484375,242219.515625,239397.46875,225201.078125,52543.0,1.0,2
243547.84375,251173.09375,258303.296875,250706.65625,221630.078125,242261.546875,239618.578125,225225.046875,52544.0,1.0,2
243608.71875,251260.984375,258412.375,250757.609375,221810.59375,242288.453125,239888.953125,225237.109375,52545.0,1.0,2
243548.46875,251215.828125,258382.0625,250710.671875,221776.796875,242263.6875,239836.109375,225221.015625,52546.0,1.0,2
243463.96875,251103.796875,258255.90625,250636.65625,221579.015625,242220.40625,239537.3125,225201.4375,52547.0,1.0,2
243468.796875,251078.59375,258207.71875,250637.546875,221492.296875,242224.703125,239402.9375,225209.75,52548.0,1.0,2
243550.515625,251175.140625,258302.3125,250710.5,221639.734375,242265.03125,239625.015625,225232.453125,52549.0,1.0,2
243608.359375,251267.6875,258416.390625,250760.484375,221824.4375,242293.90625,239903.703125,225246.40625,52550.0,1.0,2
243540.78125,251213.0625,258381.625,250709.78125,221785.90625,242264.9375,239848.796875,225229.234375,52551.0,1.0,2
243458.875,251098.703125,258256.71875,250636.109375,221584.125,242226.140625,239549.828125,225210.203125,52552.0,1.0,2
243462.453125,251069.828125,258202.71875,250631.46875,221485.765625,242223.71875,239406.5,225210.640625,52553.0,1.0,2
243550.078125,251167.1875,258299.71875,250705.578125,221632.21875,242266.640625,239622.15625,225231.296875,52554.0,1.0,2
243612.5625,251258.46875,258412.015625,250755.203125,221815.328125,242295.25,239893.0625,225239.171875,52555.0,1.0,2
243549.171875,251210.734375,258376.96875,250707.28125,221778.9375,242266.71875,239842.28125,225223.15625,52556.0,1.0,2
243465.765625,251100.046875,258251.265625,250633.515625,221579.296875,242226.140625,239548.578125,225203.3125,52557.0,1.0,2
243463.34375,251069.296875,258196.90625,250628.25,221482.109375,242224.796875,239401.59375,225208.046875,52558.0,1.0,2
243545.875,251167.375,258289.0,250702.625,221625.25,242266.640625,239615.546875,225227.71875,52559.0,1.0,2
243602.109375,251258.03125,258401.828125,250751.265625,221809.515625,242293.640625,239890.015625,225237.734375,52560.0,1.0,2
243543.453125,251214.671875,258374.28125,250706.5625,221779.46875,242273.96875,239846.390625,225223.15625,52561.0,1.0,2
243456.015625,251096.46875,258243.84375,250627.796875,221574.546875,242226.578125,239547.140625,225200.71875,52562.0,1.0,2
243458.875,251070.453125,258193.421875,250624.21875,221478.34375,242228.015625,239403.109375,225202.234375,52563.0,1.0,2
243542.296875,251164.6875,258284.515625,250697.53125,221620.328125,242271.46875,239617.59375,225228.53125,52564.0,1.0,2
243605.234375,251258.921875,258400.296875,250749.5625,221806.734375,242303.5625,239892.703125,225239.515625,52565.0,1.0,2
243540.953125,251211.265625,258370.4375,250700.21875,221775.890625,242277.984375,239846.5625,225222.890625,52566.0,1.0,2
243454.046875,251095.3125,258243.03125,250623.6875,221575.890625,242234.265625,239549.296875,225203.765625,52567.0,1.0,2
243451.1875,251063.5625,258185.453125,250615.734375,221473.875,242229.078125,239395.78125,225201.875,52568.0,1.0,2
243535.40625,251159.40625,258279.0625,250688.953125,221617.5625,242270.21875,239610.53125,225224.0625,52569.0,1.0,2
243603.984375,251257.671875,258397.0,250745.640625,221807.375,242302.3125,239893.59375,225240.328125,52570.0,1.0,2
243540.6875,251209.390625,258368.390625,250698.96875,221779.03125,242277.1875,239855.0625,225223.15625,52571.0,1.0,2
243457.265625,251099.59375,258244.5625,250624.671875,221580.625,242229.078125,239559.84375,225202.78125,52572.0,1.0,2
243452.703125,251069.015625,258186.625,250616.796875,221475.125,242217.734375,239402.65625,225203.21875,52573.0,1.0,2
243538.71875,251168.53125,258281.484375,250693.78125,221618.71875,242260.46875,239614.828125,225227.1875,52574.0,1.0,2
243602.375,251263.484375,258398.0625,250746.703125,221804.59375,242285.328125,239889.9375,225239.171875,52575.0,1.0,2
243540.859375,251219.40625,258370.171875,250700.84375,221776.4375,242255.90625,239850.859375,225225.84375,52576.0,1.0,2
243456.28125,251109.796875,258246.703125,250624.671875,221578.125,242215.046875,239559.21875,225207.0625,52577.0,1.0,2
243450.65625,251076.171875,258187.34375,250615.1875,221475.21875,242211.109375,239405.875,225205.734375,52578.0,1.0,2
243534.25,251173.09375,258280.140625,250688.953125,221618.09375,242253.046875,239612.328125,225225.671875,52579.0,1.0,2
243597.90625,251269.734375,258397.171875,250744.828125,221804.328125,242281.203125,239886.4375,225240.15625,52580.0,1.0,2
243543.09375,251230.40625,258378.046875,250702.90625,221783.140625,242258.140625,239851.9375,225228.171875,52581.0,1.0,2
243453.609375,251113.28125,258252.78125,250624.765625,221583.046875,242213.4375,239556.078125,225207.34375,52582.0,1.0,2
243450.390625,251079.21875,258195.65625,250615.640625,221477.546875,242212.28125,239400.875,225207.515625,52583.0,1.0,2
243538.453125,251176.75,258290.953125,250693.6875,221619.4375,242260.109375,239612.859375,225230.140625,52584.0,1.0,2
243610.15625,251278.0625,258411.03125,250753.234375,221813.53125,242295.421875,239897.078125,225246.234375,52585.0,1.0,2
243550.875,251233.796875,258386.453125,250708.890625,221792.171875,242270.921875,239863.375,225231.46875,52586.0,1.0,2
243461.109375,251116.578125,258259.3125,250630.390625,221591.71875,242228.015625,239565.828125,225208.234375,52587.0,1.0,2
243457.265625,251085.46875,258200.75,250621.09375,221487.5625,242228.015625,239410.625,225208.859375,52588.0,1.0,2
243539.34375,251176.3125,258288.359375,250693.25,221625.96875,242271.546875,239616.96875,225231.921875,52589.0,1.0,2
243608.1875,251272.6875,258409.0625,250750.375,221820.59375,242305.078125,239899.859375,225246.859375,52590.0,1.0,2
243546.59375,251224.953125,258384.84375,250706.03125,221799.40625,242280.765625,239868.46875,225230.5,52591.0,1.0,2
243464.515625,251113.09375,258258.59375,250629.765625,221598.15625,242234.09375,239571.375,225208.953125,52592.0,1.0,2
243454.671875,251073.765625,258194.671875,250616.53125,221485.59375,242223.453125,239405.796875,225205.375,52593.0,1.0,2
243534.25,251162.0,258282.90625,250687.875,221622.5625,242263.328125,239608.296875,225227.359375,52594.0,1.0,2
243603.0,251260.265625,258399.953125,250743.484375,221813.71875,242294.984375,239892.078125,225243.546875,52595.0,1.0,2
243545.875,251219.40625,258374.46875,250698.15625,221792.609375,242268.15625,239859.703125,225227.625,52596.0,1.0,2
243456.90625,251097.8125,258243.03125,250618.328125,221590.90625,242221.21875,239560.734375,225207.25,52597.0,1.0,2
243453.78125,251063.828125,258182.421875,250609.375,221482.28125,242217.640625,239401.234375,225208.046875,52598.0,1.0,2
243539.078125,251159.234375,258275.40625,250685.46875,221621.40625,242263.5,239607.5,225231.203125,52599.0,1.0,2
243607.296875,251258.296875,258395.390625,250742.78125,221813.09375,242296.3125,239890.46875,225248.28125,52600.0,1.0,2
243548.203125,251218.515625,258373.03125,250698.421875,221792.171875,242270.03125,239863.46875,225231.203125,52601.0,1.0,2
243459.953125,251104.96875,258247.0625,250622.078125,221591.546875,242223.71875,239569.5,225209.84375,52602.0,1.0,2
243456.90625,251071.25,258193.328125,250615.8125,221485.59375,242222.109375,239409.640625,225210.828125,52603.0,1.0,2
243538.0,251161.734375,258283.890625,250688.59375,221619.703125,242266.546875,239612.40625,225234.515625,52604.0,1.0,2
243601.84375,251256.953125,258399.046875,250740.8125,221804.953125,242291.671875,239891.71875,225241.765625,52605.0,1.0,2
243550.609375,251222.71875,258381.796875,250700.9375,221787.96875,242265.03125,239869.015625,225227.28125,52606.0,1.0,2
243462.1875,251109.171875,258256.984375,250623.328125,221588.140625,242221.390625,239572.796875,225205.8125,52607.0,1.0,2
243454.140625,251070.09375,258196.640625,250611.171875,221477.015625,242220.328125,239405.96875,225205.546875,52608.0,1.0,2
243535.859375,251163.875,258285.6875,250683.5,221611.5625,242265.03125,239606.15625,225228.703125,52609.0,1.0,2
243605.78125,251264.109375,258407.453125,250743.046875,221804.5,242296.40625,239890.734375,225241.765625,52610.0,1.0,2
243551.421875,251225.84375,258389.21875,250702.453125,221791.90625,242272.265625,239868.296875,225227.28125,52611.0,1.0,2
243463.265625,251114.34375,258264.140625,250623.5,221593.953125,242227.5625,239574.140625,225206.703125,52612.0,1.0,2
243449.671875,251072.0625,258195.5625,250607.953125,221477.453125,242219.875,239403.734375,225204.390625,52613.0,1.0,2
243533.265625,251161.734375,258284.875,250681.625,221612.28125,242267.0,239601.234375,225226.828125,52614.0,1.0,2
243599.96875,251256.59375,258402.890625,250735.984375,221801.375,242296.40625,239884.65625,225237.109375,52615.0,1.0,2
243543.8125,251216.453125,258383.40625,250696.46875,221787.515625,242271.734375,239867.21875,225224.59375,52616.0,1.0,2
243455.5625,251103.4375,258258.859375,250618.765625,221589.65625,242228.28125,239573.25,225202.6875,52617.0,1.0,2
243444.75,251061.875,258193.15625,250605.0,221474.78125,242221.9375,239400.875,225200.90625,52618.0,1.0,2
243526.375,251152.265625,258276.46875,250677.515625,221602.984375,242261.8125,239593.453125,225224.953125,52619.0,1.0,2
243599.875,251257.671875,258397.71875,250736.875,221797.359375,242293.640625,239880.1875,225241.125,52620.0,1.0,2
243547.921875,251223.609375,258383.765625,250697.09375,221788.328125,242268.875,239864.53125,225224.59375,52621.0,1.0,2
243463.96875,251115.25,258265.03125,250624.125,221599.9375,242229.890625,239575.84375,225207.25,52622.0,1.0,2
243452.078125,251070.71875,258197.078125,250608.84375,221484.078125,242222.5625,239401.234375,225204.75,52623.0,1.0,2
243531.125,251152.890625,258274.78125,250678.21875,221608.890625,242255.8125,239589.34375,225224.328125,52624.0,1.0,2
243605.0625,251254.546875,258396.546875,250741.34375,221806.5625,242289.703125,239881.171875,225243.71875,52625.0,1.0,2
243556.78125,251226.28125,258384.5625,250703.078125,221801.734375,242269.046875,239871.25,225228.078125,52626.0,1.0,2
243472.015625,251117.125,258261.90625,250625.734375,221607.625,242229.4375,239580.671875,225208.953125,52627.0,1.0,2
243454.765625,251069.375,258190.28125,250611.171875,221489.609375,242223.09375,239404.71875,225208.046875,52628.0,1.0,2
243539.515625,251160.125,258276.203125,250685.828125,221620.953125,242266.453125,239596.671875,225231.921875,52629.0,1.0,2
243609.625,251261.25,258393.59375,250739.46875,221810.140625,242294.53125,239879.203125,225244.078125,52630.0,1.0,2
243560.171875,251230.125,258381.796875,250701.734375,221806.03125,242275.390625,239872.046875,225229.859375,52631.0,1.0,2
243467.546875,251110.5,258256.625,250622.875,221608.96875,242229.890625,239580.046875,225209.21875,52632.0,1.0,2
243452.0,251065.359375,258187.96875,250605.625,221488.28125,242221.03125,239404.546875,225206.890625,52633.0,1.0,2
243530.84375,251152.171875,258268.078125,250675.0,221613.0,242260.375,239588.625,225227.1875,52634.0,1.0,2
243608.453125,251260.625,258393.234375,250736.515625,221810.5,242295.515625,239881.25,225242.828125,52635.0,1.0,2
243554.09375,251224.5,258379.921875,250696.1875,221804.5,242271.28125,239874.546875,225227.453125,52636.0,1.0,2
243460.671875,251103.625,258249.921875,250613.84375,221605.3125,242222.375,239579.0625,225202.59375,52637.0,1.0,2
243443.859375,251055.796875,258181.078125,250596.859375,221479.78125,242212.546875,239397.921875,225198.75,52638.0,1.0,2
243526.828125,251150.734375,258266.109375,250668.921875,221603.4375,242255.734375,239584.421875,225221.015625,52639.0,1.0,2
243601.921875,251258.109375,258389.84375,250730.96875,221800.484375,242292.296875,239876.515625,225235.5,52640.0,1.0,2
243552.125,251226.375,258377.5,250691.1875,221794.046875,242269.140625,239871.515625,225223.4375,52641.0,1.0,2
243460.125,251102.546875,258249.921875,250610.453125,221591.359375,242220.40625,239578.703125,225201.96875,52642.0,1.0,2
243448.59375,251058.296875,258181.34375,250596.953125,221469.234375,242211.65625,239397.296875,225200.453125,52643.0,1.0,2
243534.515625,251155.03125,258266.46875,250670.71875,221596.71875,242257.15625,239583.796875,225219.140625,52644.0,1.0,2
243607.296875,251261.421875,258388.5,250731.515625,221792.53125,242292.03125,239876.703125,225235.59375,52645.0,1.0,2
243555.609375,251227.1875,258377.5,250693.6875,221791.984375,242271.734375,239876.34375,225225.9375,52646.0,1.0,2
243465.9375,251112.46875,258251.890625,250614.125,221595.03125,242225.234375,239583.984375,225202.859375,52647.0,1.0,2
243455.125,251072.421875,258183.5,250599.8125,221472.890625,242214.515625,239401.40625,225198.65625,52648.0,1.0,2
243535.953125,251157.53125,258267.984375,250673.484375,221598.875,242258.40625,239585.328125,225224.328125,52649.0,1.0,2
243608.1875,251257.3125,258390.921875,250734.546875,221794.40625,242292.03125,239875.890625,225239.171875,52650.0,1.0,2
243556.953125,251224.046875,258375.984375,250695.921875,221793.234375,242266.09375,239872.40625,225221.015625,52651.0,1.0,2
243464.515625,251105.59375,258247.515625,250614.296875,221596.8125,242218.796875,239580.3125,225197.59375,52652.0,1.0,2
243452.0,251062.5,258178.671875,250599.640625,221476.65625,242217.109375,239400.96875,225201.703125,52653.0,1.0,2
243532.015625,251151.09375,258260.828125,250669.109375,221599.3125,242259.21875,239581.5625,225226.109375,52654.0,1.0,2
243606.578125,251255.703125,258384.484375,250731.0625,221797.09375,242295.96875,239872.5,225240.234375,52655.0,1.0,2
243554.984375,251223.34375,258375.71875,250695.03125,221799.140625,242274.234375,239876.25,225226.203125,52656.0,1.0,2
243464.59375,251110.0625,258251.625,250615.28125,221604.328125,242228.90625,239586.921875,225204.203125,52657.0,1.0,2
243451.90625,251068.125,258180.71875,250598.734375,221481.5625,242219.25,239402.75,225203.3125,52658.0,1.0,2
243527.0,251145.90625,258254.75,250666.953125,221596.1875,242253.9375,239573.96875,225220.921875,52659.0,1.0,2
243603.53125,251251.953125,258382.0625,250729.453125,221792.890625,242288.984375,239866.78125,225237.828125,52660.0,1.0,2
243561.0625,251230.046875,258381.34375,250694.578125,221797.796875,242272.0,239877.140625,225225.84375,52661.0,1.0,2
243468.71875,251112.203125,258256.53125,250615.546875,221602.265625,242225.6875,239588.625,225203.765625,52662.0,1.0,2
243448.78125,251060.890625,258181.4375,250595.796875,221475.671875,242212.71875,239399.53125,225200.09375,52663.0,1.0,2
243527.1875,251143.671875,258259.3125,250664.28125,221595.109375,242252.515625,239575.671875,225222.09375,52664.0,1.0,2
243603.53125,251251.234375,258385.546875,250728.375,221792.703125,242290.0625,239868.109375,225240.421875,52665.0,1.0,2
243555.171875,251224.5,258381.796875,250693.78125,221799.046875,242271.375,239877.0625,225227.8125,52666.0,1.0,2
243462.984375,251112.109375,258257.078125,250613.5,221605.125,242226.40625,239590.6875,225204.203125,52667.0,1.0,2
243447.796875,251068.390625,258184.296875,250595.796875,221475.75,242216.203125,239402.65625,225200.71875,52668.0,1.0,2
243520.65625,251147.515625,258257.96875,250662.21875,221589.21875,242252.859375,239570.921875,225220.390625,52669.0,1.0,2
243594.78125,251251.328125,258381.171875,250724.53125,221788.6875,242288.8125,239863.46875,225236.65625,52670.0,1.0,2
243552.75,251228.171875,258380.71875,250694.234375,221796.546875,242270.21875,239876.96875,225225.484375,52671.0,1.0,2
243462.1875,251110.6875,258256.453125,250615.015625,221601.46875,242222.828125,239590.953125,225203.21875,52672.0,1.0,2
243443.328125,251058.375,258181.890625,250594.09375,221474.59375,242211.46875,239403.734375,225201.171875,52673.0,1.0,2
243520.5625,251141.984375,258256.53125,250662.84375,221588.59375,242251.4375,239572.625,225223.609375,52674.0,1.0,2
243598.53125,251252.84375,258381.4375,250727.125,221785.734375,242289.171875,239866.140625,225240.234375,52675.0,1.0,2
243556.0625,251231.390625,258381.265625,250694.234375,221797.359375,242273.078125,239880.359375,225225.578125,52676.0,1.0,2
243465.21875,251115.953125,258253.5,250611.53125,221602.09375,242223.90625,239591.578125,225203.046875,52677.0,1.0,2
243448.6875,251068.03125,258179.5625,250591.140625,221474.328125,242214.953125,239399.890625,225198.390625,52678.0,1.0,2
243520.84375,251145.828125,258255.640625,250656.046875,221586.359375,242255.1875,239566.09375,225218.25,52679.0,1.0,2
243597.015625,251252.3125,258379.390625,250720.25,221786.0,242290.15625,239860.34375,225235.953125,52680.0,1.0,2
243556.59375,251233.796875,258377.5,250689.3125,221800.9375,242272.359375,239880.625,225226.203125,52681.0,1.0,2
243469.15625,251123.015625,258256.53125,250613.046875,221611.484375,242231.5,239598.828125,225206.359375,52682.0,1.0,2
243445.734375,251066.609375,258177.765625,250592.84375,221475.578125,242214.6875,239399.078125,225197.953125,52683.0,1.0,2
243522.171875,251148.59375,258253.140625,250663.5625,221587.96875,242253.40625,239566.28125,225220.65625,52684.0,1.0,2
243602.46875,251259.90625,258380.453125,250729.09375,221790.203125,242292.109375,239865.171875,225241.9375,52685.0,1.0,2
243559.90625,251235.3125,258377.0625,250694.671875,221803.796875,242270.921875,239884.5625,225228.34375,52686.0,1.0,2
243462.640625,251111.9375,258249.296875,250613.765625,221608.609375,242223.71875,239597.390625,225204.390625,52687.0,1.0,2
243442.25,251062.3125,258172.5,250593.5625,221476.65625,242213.265625,239401.40625,225200.265625,52688.0,1.0,2
243516.09375,251142.0625,258245.984375,250658.640625,221586.796875,242252.328125,239564.3125,225220.484375,52689.0,1.0,2
243593.171875,251245.15625,258368.125,250718.28125,221782.875,242286.9375,239856.84375,225237.015625,52690.0,1.0,2
243557.9375,251227.265625,258372.5,250693.0625,221804.15625,242273.609375,239883.84375,225229.234375,52691.0,1.0,2
243466.03125,251111.578125,258251.4375,250614.03125,221613.984375,242227.03125,239599.359375,225204.921875,52692.0,1.0,2
243440.375,251057.125,258172.859375,250590.15625,221479.78125,242214.59375,239401.859375,225199.296875,52693.0,1.0,2
243518.328125,251140.015625,258245.0,250657.578125,221588.859375,242255.453125,239565.734375,225220.921875,52694.0,1.0,2
243595.484375,251247.125,258370.0,250723.546875,221786.890625,242289.875,239861.671875,225238.453125,52695.0,1.0,2
243553.296875,251224.671875,258371.515625,250694.578125,221802.09375,242271.734375,239886.0,225226.203125,52696.0,1.0,2
243461.109375,251110.15625,258250.375,250616.265625,221612.453125,242225.15625,239600.078125,225204.03125,52697.0,1.0,2
243438.765625,251058.734375,258169.546875,250591.5,221473.796875,242209.421875,239395.78125,225200.0,52698.0,1.0,2
243518.78125,251141.625,258243.390625,250660.34375,221583.5,242250.8125,239560.015625,225220.5625,52699.0,1.0,2
243593.703125,251243.71875,258365.96875,250723.1875,221781.703125,242286.390625,239856.84375,225234.609375,52700.0,1.0,2
243557.9375,251230.484375,258371.96875,250695.03125,221802.890625,242270.296875,239886.890625,225224.765625,52701.0,1.0,2
243463.609375,251114.96875,258251.359375,250614.46875,221610.578125,242225.15625,239604.625,225203.046875,52702.0,1.0,2
243436.96875,251058.5625,258169.015625,250589.53125,221470.484375,242209.953125,239400.34375,225196.421875,52703.0,1.0,2
243514.3125,251140.453125,258242.140625,250656.3125,221579.375,242250.546875,239559.84375,225217.703125,52704.0,1.0,2
243593.703125,251247.03125,258367.765625,250720.25,221779.921875,242285.328125,239854.34375,225233.4375,52705.0,1.0,2
243561.421875,251237.640625,258376.703125,250698.25,221804.78125,242275.84375,239890.203125,225227.984375,52706.0,1.0,2
243468.4375,251125.53125,258255.90625,250618.140625,221613.359375,242232.125,239609.375,225209.03125,52707.0,1.0,2
243444.578125,251066.25,258175.71875,250592.296875,221477.90625,242216.921875,239406.234375,225202.859375,52708.0,1.0,2
243520.296875,251143.140625,258243.65625,250655.421875,221583.046875,242253.9375,239558.046875,225218.25,52709.0,1.0,2
243603.71875,251254.984375,258372.40625,250721.859375,221785.90625,242293.28125,239854.078125,225235.140625,52710.0,1.0,2
243565.453125,251236.75,258378.84375,250697.53125,221808.796875,242279.328125,239888.859375,225226.109375,52711.0,1.0,2
243466.03125,251114.53125,258248.84375,250613.3125,221611.65625,242228.90625,239600.515625,225200.1875,52712.0,1.0,2
243446.546875,251062.21875,258170.34375,250589.796875,221472.53125,242214.515625,239395.953125,225197.328125,52713.0,1.0,2
243522.53125,251141.171875,258239.640625,250656.5,221577.59375,242251.25,239550.0,225216.90625,52714.0,1.0,2
243601.296875,251246.21875,258369.546875,250723.015625,221780.8125,242290.5,239851.21875,225234.96875,52715.0,1.0,2
243560.4375,251227.0,258374.015625,250694.140625,221802.09375,242273.25,239884.828125,225222.890625,52716.0,1.0,2
243466.390625,251113.09375,258247.859375,250612.0625,221609.421875,242222.109375,239599.890625,225197.59375,52717.0,1.0,2
243443.859375,251060.703125,258169.71875,250589.53125,221473.078125,242212.640625,239395.78125,225195.984375,52718.0,1.0,2
243520.84375,251139.921875,258243.9375,250657.65625,221577.953125,242254.5625,239550.625,225219.140625,52719.0,1.0,2
243601.484375,251249.53125,258372.859375,250724.0,221778.125,242289.875,239851.578125,225236.9375,52720.0,1.0,2
243568.578125,251234.515625,258380.015625,250697.984375,221804.5,242271.828125,239890.828125,225225.390625,52721.0,1.0,2
243474.96875,251117.84375,258258.328125,250617.6875,221615.671875,242228.546875,239609.28125,225202.421875,52722.0,1.0,2
243453.25,251061.953125,258175.265625,250592.578125,221472.890625,242213.796875,239396.84375,225198.125,52723.0,1.0,2
243527.90625,251138.3125,258241.421875,250654.625,221571.421875,242249.375,239543.75,225214.3125,52724.0,1.0,2
243607.5625,251247.296875,258366.78125,250720.609375,221774.46875,242285.5,239843.34375,225231.46875,52725.0,1.0,2
243572.25,251236.75,258376.96875,250697.265625,221802.984375,242269.859375,239884.46875,225221.734375,52726.0,1.0,2
243473.890625,251116.40625,258252.96875,250616.0,221611.5625,242222.640625,239604.8125,225196.96875,52727.0,1.0,2
243450.921875,251061.25,258173.203125,250591.40625,221472.984375,242211.203125,239399.71875,225193.296875,52728.0,1.0,2
243524.0625,251137.78125,258238.203125,250653.375,221571.328125,242250.453125,239544.8125,225214.21875,52729.0,1.0,2
243606.125,251249.09375,258367.484375,250720.78125,221775.0,242289.875,239845.765625,225231.65625,52730.0,1.0,2
243572.6875,251237.90625,258379.109375,250699.140625,221807.640625,242277.359375,239893.234375,225222.265625,52731.0,1.0,2
243474.4375,251118.015625,258251.53125,250616.53125,221615.234375,242228.453125,239610.171875,225198.84375,52732.0,1.0,2
243451.546875,251066.703125,258172.3125,250590.875,221475.046875,242217.28125,239400.875,225197.0625,52733.0,1.0,2
243521.109375,251138.40625,258236.953125,250653.1875,221571.78125,242254.5625,239546.609375,225217.4375,52734.0,1.0,2
243601.75,251244.4375,258361.953125,250719.171875,221773.296875,242293.640625,239847.015625,225235.5,52735.0,1.0,2
243567.421875,251236.75,258373.296875,250696.546875,221805.3125,242279.15625,239896.8125,225224.5,52736.0,1.0,2
243472.734375,251119.890625,258249.203125,250613.765625,221616.75,242230.25,239618.046875,225202.328125,52737.0,1.0,2
243444.390625,251058.734375,258165.078125,250585.859375,221473.96875,242214.0625,239402.125,225196.609375,52738.0,1.0,2
243517.0,251133.03125,258231.421875,250647.828125,221569.1875,242249.296875,239543.484375,225215.921875,52739.0,1.0,2
243599.875,251245.15625,258358.8125,250714.796875,221772.140625,242289.078125,239847.1875,225235.40625,52740.0,1.0,2
243564.46875,251231.03125,258369.546875,250689.484375,221803.796875,242271.28125,239894.046875,225223.78125,52741.0,1.0,2
243469.78125,251117.921875,258249.5625,250608.21875,221616.03125,242224.796875,239614.5625,225197.6875,52742.0,1.0,2
243443.328125,251059.640625,258166.6875,250584.078125,221470.75,242210.125,239396.140625,225190.796875,52743.0,1.0,2
243511.359375,251128.390625,258227.296875,250646.3125,221561.140625,242243.65625,239530.515625,225213.421875,52744.0,1.0,2
243594.15625,251238.09375,258354.265625,250713.09375,221762.21875,242281.65625,239830.5625,225233.71875,52745.0,1.0,2
243569.828125,251236.484375,258373.21875,250693.25,221802.984375,242275.390625,239886.171875,225225.3125,52746.0,1.0,2
243478.09375,251126.0625,258254.125,250613.3125,221619.4375,242231.140625,239613.21875,225202.515625,52747.0,1.0,2
243450.296875,251063.5625,258166.328125,250582.375,221469.40625,242212.09375,239394.25,225196.15625,52748.0,1.0,2
243518.15625,251133.3125,258226.671875,250642.28125,221559.0,242246.96875,239529.4375,225214.3125,52749.0,1.0,2
243600.40625,251246.5,258355.78125,250713.984375,221764.359375,242287.375,239834.765625,225231.75,52750.0,1.0,2
243568.9375,251236.5625,258369.1875,250691.71875,221801.828125,242274.0625,239889.578125,225223.609375,52751.0,1.0,2
243474.96875,251119.890625,258249.5625,250610.09375,221617.5625,242229.265625,239615.71875,225201.796875,52752.0,1.0,2
243450.734375,251061.25,258165.4375,250581.578125,221470.578125,242215.671875,239399.0,225196.34375,52753.0,1.0,2
243516.359375,251131.78125,258226.5,250641.125,221560.34375,242249.921875,239532.03125,225215.65625,52754.0,1.0,2
243596.828125,251240.59375,258354.4375,250709.34375,221765.609375,242287.015625,239832.984375,225234.34375,52755.0,1.0,2
243566.4375,251233.34375,258370.0,250688.328125,221807.28125,242275.125,239889.125,225223.15625,52756.0,1.0,2
243468.984375,251115.25,258246.34375,250605.359375,221621.578125,242225.953125,239613.578125,225196.421875,52757.0,1.0,2
243449.21875,251063.03125,258165.078125,250581.65625,221481.5625,242215.859375,239402.9375,225195.265625,52758.0,1.0,2
243521.1875,251138.671875,258231.59375,250646.21875,221572.578125,242256.359375,239539.8125,225217.0,52759.0,1.0,2
243603.265625,251249.09375,258359.984375,250713.71875,221775.890625,242296.046875,239844.0625,225235.5,52760.0,1.0,2
243572.15625,251239.96875,258374.46875,250690.828125,221813.8125,242282.28125,239903.875,225226.296875,52761.0,1.0,2
243475.234375,251123.46875,258253.3125,250608.9375,221626.765625,242234.625,239627.96875,225204.921875,52762.0,1.0,2
243441.71875,251057.3125,258164.8125,250579.703125,221477.015625,242218.0,239404.890625,225203.140625,52763.0,1.0,2
243506.359375,251123.296875,258222.921875,250641.65625,221563.5625,242251.25,239534.890625,225222.984375,52764.0,1.0,2
243588.609375,251233.265625,258350.234375,250709.6875,221765.34375,242286.75,239833.78125,225238.890625,52765.0,1.0,2
243560.625,251230.9375,258364.625,250686.453125,221804.59375,242273.703125,239894.9375,225230.765625,52766.0,1.0,2
243463.265625,251115.25,258242.328125,250601.609375,221618.546875,242224.078125,239620.546875,225204.390625,52767.0,1.0,2
243432.6875,251048.1875,258151.125,250570.40625,221463.421875,242201.71875,239390.859375,225191.421875,52768.0,1.0,2
243502.953125,251116.859375,258211.03125,250632.796875,221550.953125,242236.953125,239517.375,225211.265625,52769.0,1.0,2
243587.71875,251231.03125,258343.703125,250705.765625,221757.921875,242279.953125,239822.0625,225230.84375,52770.0,1.0,2
243563.65625,251227.359375,258362.125,250685.5625,221801.109375,242268.421875,239887.78125,225217.796875,52771.0,1.0,2
243471.578125,251117.21875,258244.734375,250605.359375,221620.0625,242225.0625,239619.734375,225198.125,52772.0,1.0,2
243443.234375,251057.125,258158.546875,250575.859375,221470.75,242208.078125,239397.5625,225193.75,52773.0,1.0,2
243511.53125,251125.703125,258218.546875,250637.984375,221557.390625,242247.0625,239523.625,225213.421875,52774.0,1.0,2
243589.859375,251233.265625,258343.984375,250706.03125,221758.8125,242283.984375,239823.671875,225230.671875,52775.0,1.0,2
243567.328125,251237.28125,258367.765625,250690.921875,221804.15625,242275.390625,239894.40625,225225.9375,52776.0,1.0,2
243472.015625,251120.78125,258245.8125,250608.84375,221619.609375,242228.453125,239623.5,225202.859375,52777.0,1.0,2
243438.765625,251050.421875,258156.21875,250579.25,221467.703125,242210.75,239398.734375,225197.0625,52778.0,1.0,2
243511.71875,251123.46875,258216.03125,250640.3125,221554.34375,242249.734375,239524.25,225218.609375,52779.0,1.0,2
243595.671875,251237.828125,258344.0625,250712.203125,221760.25,242289.703125,239828.78125,225238.625,52780.0,1.0,2
243571.53125,251236.75,258367.3125,250696.28125,221810.765625,242277.984375,239904.328125,225234.25,52781.0,1.0,2
243474.96875,251123.734375,258250.09375,250615.453125,221630.34375,242233.28125,239636.546875,225212.515625,52782.0,1.0,2
243441.71875,251059.09375,258161.140625,250583.984375,221478.265625,242215.234375,239410.53125,225205.734375,52783.0,1.0,2
243510.90625,251124.453125,258219.078125,250643.71875,221558.640625,242249.5625,239530.0625,225224.765625,52784.0,1.0,2
243595.40625,251231.46875,258343.703125,250712.640625,221758.8125,242283.4375,239827.34375,225242.03125,52785.0,1.0,2
243573.046875,251235.9375,258367.21875,250696.375,221813.53125,242273.078125,239902.53125,225229.421875,52786.0,1.0,2
243469.78125,251116.3125,258242.765625,250609.46875,221630.078125,242226.484375,239630.65625,225199.734375,52787.0,1.0,2
243436.078125,251049.703125,258149.25,250576.390625,221475.484375,242211.65625,239403.5625,225192.578125,52788.0,1.0,2
243500.71875,251115.953125,258202.890625,250631.546875,221551.484375,242242.046875,239515.578125,225210.90625,52789.0,1.0,2
243582.796875,251227.09375,258328.6875,250698.515625,221751.578125,242280.140625,239817.875,225228.53125,52790.0,1.0,2
243560.171875,251227.0,258353.1875,250682.875,221802.09375,242272.984375,239896.28125,225221.546875,52791.0,1.0,2
243469.609375,251116.578125,258239.375,250605.359375,221625.609375,242233.5625,239631.453125,225199.734375,52792.0,1.0,2
243436.890625,251050.421875,258145.140625,250571.46875,221466.28125,242216.296875,239397.75,225192.578125,52793.0,1.0,2
243494.90625,251107.203125,258193.78125,250626.28125,221536.90625,242246.78125,239509.0625,225210.90625,52794.0,1.0,2
243581.09375,251220.921875,258323.234375,250700.3125,221741.203125,242284.515625,239812.421875,225232.375,52795.0,1.0,2
243565.0,251229.6875,258352.296875,250688.953125,221797.796875,242274.5,239895.46875,225225.390625,52796.0,1.0,2
243472.015625,251119.0,258238.828125,250609.640625,221622.390625,242231.234375,239635.296875,225205.375,52797.0,1.0,2
243437.6875,251050.25,258147.015625,250573.796875,221465.203125,242210.21875,239401.859375,225196.15625,52798.0,1.0,2
243508.3125,251118.28125,258200.921875,250632.890625,221541.734375,242244.546875,239512.625,225213.859375,52799.0,1.0,2
243593.4375,251231.109375,258333.078125,250708.359375,221748.984375,242285.140625,239814.015625,225233.71875,52800.0,1.0,2
243572.515625,251236.390625,258362.03125,250694.40625,221806.734375,242275.3125,239898.6875,225228.609375,52801.0,1.0,2
243478.546875,251127.3125,258247.6875,250614.5625,221630.609375,242229.984375,239637.0,225207.609375,52802.0,1.0,2
243443.40625,251058.203125,258156.9375,250581.3125,221474.234375,242213.53125,239405.34375,225203.578125,52803.0,1.0,2
243505.09375,251121.140625,258209.0625,250636.828125,221548.71875,242246.078125,239513.34375,225222.09375,52804.0,1.0,2
243586.015625,251233.703125,258333.609375,250704.421875,221749.4375,242281.484375,239811.875,225237.109375,52805.0,1.0,2
243563.65625,251239.875,258361.859375,250692.4375,221807.640625,242274.59375,239904.0625,225231.296875,52806.0,1.0,2
243473.453125,251131.515625,258251.265625,250613.40625,221633.734375,242230.875,239646.203125,225207.15625,52807.0,1.0,2
243441.265625,251068.03125,258159.4375,250578.09375,221475.40625,242211.921875,239409.640625,225199.5625,52808.0,1.0,2
243506.0,251132.859375,258209.328125,250635.578125,221548.53125,242246.34375,239515.84375,225220.921875,52809.0,1.0,2
243591.828125,251248.375,258335.484375,250705.578125,221750.328125,242280.671875,239815.625,225235.234375,52810.0,1.0,2
243574.390625,251257.9375,258367.140625,250695.203125,221810.9375,242274.0625,239905.484375,225229.6875,52811.0,1.0,2
243478.640625,251148.328125,258255.546875,250617.15625,221638.125,242229.359375,239648.078125,225210.375,52812.0,1.0,2
243439.296875,251077.609375,258159.171875,250580.40625,221476.203125,242208.34375,239409.71875,225197.953125,52813.0,1.0,2
243499.828125,251132.859375,258204.40625,250633.515625,221543.796875,242239.1875,239510.671875,225214.671875,52814.0,1.0,2
243587.359375,251247.125,258335.578125,250706.390625,221751.125,242282.28125,239815.71875,225237.28125,52815.0,1.0,2
243564.921875,251248.90625,258363.203125,250693.421875,221809.6875,242273.703125,239906.109375,225228.796875,52816.0,1.0,2
243464.875,251134.640625,258244.921875,250608.390625,221634.90625,242226.3125,239645.9375,225203.40625,52817.0,1.0,2
243425.703125,251063.125,258146.828125,250567.890625,221474.140625,242207.890625,239408.5625,225200.0,52818.0,1.0,2
243494.1875,251127.578125,258200.390625,250626.546875,221545.765625,242245.09375,239512.984375,225219.578125,52819.0,1.0,2
243582.796875,251241.9375,258330.65625,250698.78125,221750.234375,242287.015625,239816.609375,225238.984375,52820.0,1.0,2
243564.5625,251249.890625,258360.703125,250688.0625,221811.65625,242280.9375,239909.421875,225233.71875,52821.0,1.0,2
243474.796875,251137.5,258251.53125,250610.546875,221642.6875,242239.546875,239652.46875,225212.515625,52822.0,1.0,2
243441.171875,251061.15625,258155.78125,250573.703125,221480.671875,242215.859375,239411.25,225200.359375,52823.0,1.0,2
243506.078125,251118.828125,258204.234375,250630.296875,221549.078125,242249.015625,239511.5625,225218.6875,52824.0,1.0,2
243599.0625,251237.546875,258337.984375,250706.65625,221758.8125,242291.21875,239817.953125,225242.46875,52825.0,1.0,2
243584.046875,251249.625,258371.78125,250698.421875,221823.734375,242282.640625,239911.390625,225237.90625,52826.0,1.0,2
243487.3125,251135.453125,258257.796875,250614.828125,221650.90625,242235.609375,239651.03125,225211.453125,52827.0,1.0,2
243449.84375,251059.546875,258161.3125,250577.109375,221491.84375,242215.40625,239409.640625,225206.4375,52828.0,1.0,2
243515.921875,251121.5,258209.421875,250632.71875,221558.90625,242246.34375,239507.265625,225224.0625,52829.0,1.0,2
243602.203125,251236.921875,258340.765625,250707.375,221765.171875,242287.5625,239814.828125,225243.90625,52830.0,1.0,2
243582.890625,251240.953125,258372.765625,250697.453125,221828.28125,242279.59375,239913.0,225237.015625,52831.0,1.0,2
243490.890625,251136.53125,258262.4375,250617.78125,221655.46875,242235.609375,239656.84375,225213.5,52832.0,1.0,2
243454.765625,251065.53125,258165.4375,250581.3125,221488.90625,242214.953125,239413.125,225208.3125,52833.0,1.0,2
243516.28125,251120.875,258211.921875,250636.921875,221552.109375,242248.9375,239508.609375,225225.671875,52834.0,1.0,2
243601.84375,251235.671875,258342.640625,250707.109375,221753.546875,242286.578125,239810.359375,225241.9375,52835.0,1.0,2
243589.046875,251250.703125,258380.28125,250697.71875,221821.40625,242282.734375,239912.90625,225239.703125,52836.0,1.0,2
243490.625,251139.203125,258265.5625,250615.28125,221647.59375,242235.609375,239658.71875,225214.671875,52837.0,1.0,2
243448.234375,251065.09375,258170.796875,250577.28125,221482.015625,242215.234375,239416.078125,225204.921875,52838.0,1.0,2
243504.46875,251117.921875,258210.671875,250626.015625,221537.984375,242241.6875,239503.328125,225218.25,52839.0,1.0,2
243590.125,251234.515625,258338.25,250699.328125,221743.171875,242282.8125,239807.671875,225236.125,52840.0,1.0,2
243576.8125,251249.625,258373.125,250687.875,221813.890625,242275.390625,239911.75,225230.40625,52841.0,1.0,2
243479.796875,251140.015625,258261.8125,250605.890625,221644.734375,242229.984375,239661.234375,225207.0625,52842.0,1.0,2
243434.5625,251060.609375,258160.515625,250564.40625,221476.203125,242209.0625,239414.734375,225195.09375,52843.0,1.0,2
243496.25,251116.40625,258202.359375,250617.515625,221532.984375,242241.609375,239502.171875,225211.1875,52844.0,1.0,2
243583.875,251231.828125,258332.0,250690.828125,221735.9375,242283.796875,239807.140625,225232.109375,52845.0,1.0,2
243569.109375,251245.78125,258369.734375,250685.015625,221806.296875,242274.6875,239911.484375,225226.5625,52846.0,1.0,2
243478.453125,251140.09375,258262.625,250607.765625,221640.890625,242232.125,239662.65625,225203.3125,52847.0,1.0,2
243439.921875,251065.984375,258165.171875,250568.875,221473.96875,242208.34375,239414.546875,225197.765625,52848.0,1.0,2
243494.375,251116.765625,258206.375,250620.828125,221528.59375,242238.03125,239498.953125,225215.203125,52849.0,1.0,2
243580.65625,251229.0625,258331.90625,250691.640625,221731.90625,242281.296875,239803.46875,225236.84375,52850.0,1.0,2
243576.53125,251252.484375,258373.03125,250686.453125,221810.140625,242281.65625,239914.703125,225233.890625,52851.0,1.0,2
243481.140625,251141.265625,258260.296875,250606.421875,221642.953125,242237.578125,239662.75,225208.3125,52852.0,1.0,2
243440.1875,251061.15625,258159.625,250565.65625,221474.421875,242212.984375,239413.390625,225198.578125,52853.0,1.0,2
243501.25,251116.3125,258202.71875,250620.828125,221533.78125,242243.390625,239497.515625,225215.46875,52854.0,1.0,2
243587.171875,251229.78125,258329.046875,250694.578125,221738.34375,242281.390625,239799.09375,225234.34375,52855.0,1.0,2
243576.625,251244.4375,258368.65625,250689.671875,221817.203125,242280.046875,239913.4375,225230.3125,52856.0,1.0,2
243486.421875,251140.015625,258261.546875,250611.171875,221655.28125,242237.84375,239668.921875,225210.109375,52857.0,1.0,2
243443.234375,251058.828125,258156.484375,250566.546875,221484.15625,242209.59375,239415.0,225197.0625,52858.0,1.0,2
243498.9375,251110.234375,258196.015625,250616.078125,221539.5,242238.5625,239492.96875,225214.21875,52859.0,1.0,2
243586.375,251223.25,258325.03125,250691.1875,221742.640625,242281.5625,239795.421875,225233.984375,52860.0,1.0,2
243580.296875,251241.578125,258367.9375,250687.703125,221821.671875,242283.71875,239911.390625,225228.796875,52861.0,1.0,2
243486.765625,251131.703125,258256.625,250605.796875,221655.90625,242239.359375,239664.0,225203.765625,52862.0,1.0,2
243450.03125,251061.875,258158.375,250566.375,221490.515625,242219.421875,239417.859375,225197.765625,52863.0,1.0,2
243505.8125,251113.453125,258195.65625,250615.453125,221540.3125,242248.578125,239493.765625,225216.359375,52864.0,1.0,2
243598.078125,251230.671875,258325.921875,250691.90625,221745.671875,242292.109375,239797.390625,225237.5625,52865.0,1.0,2
243589.59375,251249.09375,258369.90625,250690.734375,221824.625,242290.953125,239913.890625,225232.109375,52866.0,1.0,2
243488.375,251132.859375,258258.140625,250607.328125,221655.203125,242243.75,239664.265625,225205.8125,52867.0,1.0,2
243445.28125,251053.46875,258156.765625,250567.8125,221484.25,242220.328125,239413.21875,225197.6875,52868.0,1.0,2
243502.234375,251105.234375,258193.5,250617.421875,221533.328125,242247.40625,239486.96875,225212.796875,52869.0,1.0,2
243594.59375,251224.5,258326.1875,250694.578125,221742.09375,242291.578125,239795.609375,225234.78125,52870.0,1.0,2
243591.296875,251250.515625,258373.65625,250695.03125,221823.546875,242291.671875,239920.78125,225234.34375,52871.0,1.0,2
243490.265625,251139.109375,258258.5,250609.015625,221650.453125,242237.75,239667.75,225204.46875,52872.0,1.0,2
243450.109375,251065.359375,258162.921875,250571.46875,221484.34375,242219.875,239418.390625,225197.953125,52873.0,1.0,2
243507.875,251116.671875,258201.828125,250621.453125,221534.046875,242248.046875,239493.953125,225214.21875,52874.0,1.0,2
243596.390625,251235.671875,258330.75,250693.6875,221737.265625,242287.640625,239797.390625,225234.609375,52875.0,1.0,2
243588.703125,251255.96875,258376.171875,250691.28125,221820.953125,242285.859375,239921.671875,225232.015625,52876.0,1.0,2
243491.15625,251149.3125,258265.484375,250608.484375,221655.375,242236.234375,239677.140625,225207.0625,52877.0,1.0,2
243446.265625,251069.46875,258162.125,250567.53125,221485.328125,242211.65625,239422.875,225199.015625,52878.0,1.0,2
243504.921875,251121.953125,258197.078125,250615.90625,221535.125,242242.046875,239492.421875,225216.640625,52879.0,1.0,2
243595.21875,251240.953125,258324.484375,250689.21875,221739.6875,242284.421875,239795.421875,225236.03125,52880.0,1.0,2
243586.46875,251259.1875,258365.96875,250685.203125,221818.0,242279.328125,239918.09375,225230.578125,52881.0,1.0,2
243491.25,251150.734375,258259.484375,250608.3125,221659.84375,242235.609375,239679.46875,225210.5625,52882.0,1.0,2
243445.734375,251067.59375,258153.71875,250564.671875,221489.4375,242210.484375,239422.875,225197.328125,52883.0,1.0,2
243496.421875,251111.9375,258183.5,250608.484375,221531.8125,242234.984375,239484.640625,225207.875,52884.0,1.0,2
243593.4375,251236.21875,258319.21875,250690.375,221743.53125,242285.671875,239795.421875,225236.84375,52885.0,1.0,2
243588.515625,251257.21875,258365.53125,250688.0625,221829.09375,242281.75,239920.328125,225232.28125,52886.0,1.0,2
243490.890625,251148.0625,258260.03125,250605.984375,221668.421875,242236.0625,239680.71875,225207.25,52887.0,1.0,2
243444.65625,251060.703125,258155.421875,250563.78125,221491.84375,242210.484375,239421.078125,225195.890625,52888.0,1.0,2
243501.34375,251105.765625,258187.15625,250611.25,221530.5625,242237.125,239485.8125,225213.78125,52889.0,1.0,2
243594.328125,251222.71875,258317.421875,250687.703125,221734.6875,242282.8125,239789.171875,225235.328125,52890.0,1.0,2
243591.734375,251253.5625,258366.859375,250690.296875,221822.5625,242284.96875,239918.546875,225233.4375,52891.0,1.0,2
243493.5625,251145.015625,258256.8125,250609.828125,221661.28125,242238.03125,239677.40625,225210.375,52892.0,1.0,2
243443.671875,251057.40625,258149.515625,250564.671875,221486.578125,242210.125,239418.484375,225198.390625,52893.0,1.0,2
243502.0625,251106.578125,258185.546875,250613.84375,221531.28125,242241.0625,239484.921875,225217.171875,52894.0,1.0,2
243594.953125,251228.34375,258317.875,250690.828125,221737.546875,242284.703125,239790.328125,225238.984375,52895.0,1.0,2
243595.21875,251255.171875,258367.671875,250692.265625,221826.859375,242285.5,239924.4375,225237.015625,52896.0,1.0,2
243495.09375,251142.953125,258256.265625,250607.59375,221659.3125,242236.328125,239681.4375,225208.953125,52897.0,1.0,2
243446.09375,251054.359375,258146.5625,250558.5,221480.234375,242207.0,239417.328125,225195.265625,52898.0,1.0,2
243501.25,251102.109375,258177.765625,250603.03125,221519.5625,242234.1875,239478.03125,225212.703125,52899.0,1.0,2
243598.359375,251226.375,258316.4375,250685.828125,221730.296875,242283.09375,239788.09375,225239.25,52900.0,1.0,2
243596.5625,251251.765625,258367.671875,250689.046875,221818.984375,242277.546875,239918.71875,225233.71875,52901.0,1.0,2
243500.625,251140.90625,258261.984375,250608.484375,221660.375,242232.21875,239682.953125,225208.40625,52902.0,1.0,2
243451.09375,251055.703125,258155.328125,250560.921875,221487.109375,242206.375,239423.671875,225199.015625,52903.0,1.0,2
243507.609375,251110.15625,258189.9375,250609.734375,221529.140625,242237.40625,239483.390625,225213.78125,52904.0,1.0,2
243593.171875,251227.265625,258318.9375,250685.375,221732.359375,242280.578125,239783.71875,225233.890625,52905.0,1.0,2
243586.734375,251250.078125,258367.140625,250686.09375,221821.9375,242281.5625,239917.828125,225232.1875,52906.0,1.0,2
243492.40625,251145.28125,258261.8125,250605.171875,221666.8125,242235.4375,239686.171875,225205.734375,52907.0,1.0,2
243447.25,251067.40625,258156.9375,250557.703125,221489.078125,242206.828125,239423.3125,225192.40625,52908.0,1.0,2
243498.484375,251110.78125,258184.828125,250602.046875,221523.5,242231.59375,239475.890625,225207.875,52909.0,1.0,2
243587.4375,251221.1875,258312.234375,250679.125,221725.375,242274.234375,239777.71875,225229.15625,52910.0,1.0,2
243589.859375,251252.9375,258366.515625,250683.671875,221822.203125,242278.078125,239920.15625,225231.203125,52911.0,1.0,2
243489.546875,251144.03125,258258.234375,250602.671875,221663.15625,242231.953125,239686.96875,225205.734375,52912.0,1.0,2
243442.0625,251057.578125,258151.84375,250557.796875,221485.0625,242204.5,239423.765625,225193.65625,52913.0,1.0,2
243497.953125,251104.515625,258181.34375,250605.625,221519.296875,242231.859375,239473.46875,225210.90625,52914.0,1.0,2
243588.78125,251222.53125,258308.84375,250681.171875,221722.25,242275.125,239773.25,225229.953125,52915.0,1.0,2
243588.34375,251249.984375,258362.75,250685.375,221817.734375,242278.265625,239917.015625,225229.953125,52916.0,1.0,2
243496.34375,251150.296875,258261.28125,250607.59375,221666.28125,242240.4375,239691.0,225209.296875,52917.0,1.0,2
243448.6875,251070.0,258156.3125,250562.0,221491.40625,242216.84375,239430.5625,225200.625,52918.0,1.0,2
243499.5625,251112.390625,258183.84375,250608.671875,221525.375,242242.671875,239481.34375,225215.5625,52919.0,1.0,2
243592.453125,251229.859375,258313.21875,250686.359375,221728.59375,242286.578125,239783.625,225236.65625,52920.0,1.0,2
243595.9375,251259.8125,258366.0625,250691.09375,221824.890625,242288.984375,239926.046875,225235.765625,52921.0,1.0,2
243498.75,251149.84375,258260.109375,250609.203125,221668.078125,242242.671875,239694.125,225212.078125,52922.0,1.0,2
243449.484375,251064.109375,258154.078125,250562.625,221491.9375,242218.171875,239432.078125,225200.90625,52923.0,1.0,2
243502.421875,251106.578125,258182.0625,250607.859375,221525.921875,242244.734375,239478.125,225216.71875,52924.0,1.0,2
243596.65625,251226.109375,258313.21875,250688.78125,221729.859375,242289.171875,239781.84375,225239.078125,52925.0,1.0,2
243595.40625,251254.90625,258367.21875,250689.671875,221825.515625,242286.75,239925.515625,225235.046875,52926.0,1.0,2
243494.28125,251149.21875,258262.078125,250605.171875,221667.71875,242237.75,239694.578125,225209.75,52927.0,1.0,2
243446.09375,251066.78125,258156.578125,250558.953125,221490.234375,242214.15625,239431.0,225200.8125,52928.0,1.0,2
243498.9375,251106.9375,258181.078125,250603.21875,221520.546875,242241.0625,239474.8125,225215.734375,52929.0,1.0,2
243591.640625,251223.703125,258311.25,250683.40625,221726.09375,242285.859375,239778.171875,225238.0,52930.0,1.0,2
243592.09375,251253.5625,258365.4375,250686.453125,221823.546875,242286.578125,239924.625,225233.984375,52931.0,1.0,2
243501.171875,251156.546875,258265.5625,250608.9375,221673.703125,242242.578125,239700.203125,225210.015625,52932.0,1.0,2
243450.109375,251070.359375,258155.515625,250559.9375,221494.0,242213.4375,239433.6875,225196.15625,52933.0,1.0,2
243497.59375,251105.328125,258175.890625,250600.078125,221518.765625,242236.59375,239471.953125,225212.4375,52934.0,1.0,2
243588.078125,251218.234375,258301.78125,250678.578125,221720.28125,242282.28125,239770.21875,225236.390625,52935.0,1.0,2
243592.71875,251255.609375,258359.265625,250684.03125,221820.78125,242284.34375,239917.203125,225231.828125,52936.0,1.0,2
243500.0,251153.875,258259.671875,250605.625,221671.296875,242240.53125,239695.65625,225209.75,52937.0,1.0,2
243446.8125,251062.046875,258150.859375,250554.9375,221492.65625,242214.515625,239430.375,225197.328125,52938.0,1.0,2
243498.21875,251100.5,258173.03125,250595.34375,221519.203125,242238.296875,239467.84375,225211.71875,52939.0,1.0,2
243592.0,251221.375,258306.421875,250676.078125,221722.4375,242282.28125,239769.140625,225234.78125,52940.0,1.0,2
243595.84375,251254.90625,258363.921875,250684.390625,221822.5625,242284.0625,239919.703125,225234.96875,52941.0,1.0,2
243496.875,251148.0625,258260.203125,250604.109375,221670.3125,242236.328125,239695.5625,225210.203125,52942.0,1.0,2
243446.71875,251063.296875,258153.625,250561.640625,221494.0,242213.171875,239433.78125,225202.78125,52943.0,1.0,2
243497.59375,251103.4375,258175.984375,250604.546875,221519.390625,242238.5625,239469.09375,225213.78125,52944.0,1.0,2
243594.0625,251220.5625,258305.359375,250684.03125,221722.609375,242282.015625,239768.6875,225237.109375,52945.0,1.0,2
243602.828125,251257.3125,258367.140625,250691.640625,221826.859375,242284.78125,239922.109375,225235.671875,52946.0,1.0,2
243505.1875,251154.046875,258265.75,250610.1875,221677.375,242240.171875,239698.875,225212.703125,52947.0,1.0,2
243452.890625,251066.34375,258154.703125,250558.953125,221494.984375,242212.09375,239427.703125,225199.734375,52948.0,1.0,2
243502.0625,251104.609375,258178.125,250600.890625,221519.5625,242237.75,239463.28125,225215.203125,52949.0,1.0,2
243593.4375,251224.953125,258305.890625,250678.765625,221719.484375,242278.265625,239763.421875,225236.21875,52950.0,1.0,2
243596.921875,251260.265625,258365.53125,250687.4375,221824.359375,242280.765625,239920.78125,225235.5,52951.0,1.0,2
243496.875,251152.609375,258262.265625,250604.109375,221674.59375,242232.65625,239699.5,225208.140625,52952.0,1.0,2
243453.0625,251072.859375,258156.484375,250558.15625,221497.84375,242208.96875,239436.015625,225199.46875,52953.0,1.0,2
243500.90625,251112.109375,258177.328125,250600.0,221520.453125,242235.34375,239469.453125,225216.015625,52954.0,1.0,2
243591.015625,251229.0625,258305.53125,250679.296875,221721.8125,242284.421875,239770.21875,225238.265625,52955.0,1.0,2
243595.84375,251260.359375,258362.03125,250684.03125,221824.53125,242286.578125,239927.125,225235.859375,52956.0,1.0,2
243501.609375,251157.171875,258264.9375,250605.796875,221679.515625,242241.875,239710.9375,225209.578125,52957.0,1.0,2
243446.625,251064.375,258152.46875,250557.078125,221494.0,242211.46875,239437.796875,225196.34375,52958.0,1.0,2
243493.125,251100.5,258168.296875,250594.453125,221509.640625,242231.046875,239461.21875,225207.421875,52959.0,1.0,2
243587.359375,251217.796875,258299.453125,250673.84375,221713.40625,242277.1875,239761.625,225234.34375,52960.0,1.0,2
243596.03125,251254.359375,258362.578125,250683.859375,221822.484375,242283.0,239924.171875,225234.34375,52961.0,1.0,2
243502.515625,251154.765625,258263.6875,250604.640625,221676.203125,242239.640625,239705.125,225209.21875,52962.0,1.0,2
243449.3125,251069.46875,258152.921875,250554.390625,221493.734375,242210.84375,239432.703125,225198.125,52963.0,1.0,2
243496.15625,251104.875,258171.875,250595.4375,221510.8125,242236.328125,239460.59375,225214.21875,52964.0,1.0,2
243591.203125,251222.796875,258302.9375,250676.53125,221713.21875,242281.203125,239761.8125,225236.75,52965.0,1.0,2
243600.140625,251260.984375,258364.8125,250685.015625,221822.484375,242283.984375,239924.078125,225236.21875,52966.0,1.0,2
243501.4375,251155.921875,258263.0625,250604.28125,221678.078125,242237.21875,239707.8125,225207.96875,52967.0,1.0,2
243448.78125,251067.6875,258153.71875,250555.921875,221495.15625,242211.65625,239435.921875,225196.78125,52968.0,1.0,2
243496.875,251103.796875,258172.671875,250595.25,221511.515625,242236.421875,239458.8125,225213.59375,52969.0,1.0,2
243592.984375,251225.9375,258304.1875,250677.859375,221717.15625,242281.03125,239759.65625,225239.078125,52970.0,1.0,2
243598.4375,251259.640625,258364.0,250688.140625,221827.125,242282.640625,239926.140625,225237.28125,52971.0,1.0,2
243500.265625,251153.953125,258264.046875,250608.390625,221684.96875,242236.0625,239716.921875,225211.265625,52972.0,1.0,2
243446.890625,251067.6875,258151.125,250557.609375,221500.25,242206.109375,239441.828125,225199.296875,52973.0,1.0,2
243492.859375,251102.109375,258165.875,250593.109375,221512.765625,242229.265625,239461.3125,225212.875,52974.0,1.0,2
243582.265625,251214.046875,258290.421875,250668.75,221710.359375,242273.78125,239757.609375,225233.078125,52975.0,1.0,2
243592.984375,251251.859375,258354.078125,250679.390625,221820.15625,242277.28125,239924.171875,225232.734375,52976.0,1.0,2
243500.90625,251154.3125,258258.859375,250603.21875,221681.125,242232.84375,239714.609375,225208.5,52977.0,1.0,2
243448.15625,251064.28125,258150.59375,250554.65625,221499.453125,242207.359375,239441.46875,225199.375,52978.0,1.0,2
243491.15625,251097.71875,258162.21875,250590.515625,221509.015625,242231.046875,239454.34375,225209.21875,52979.0,1.0,2
243578.234375,251208.5,258285.859375,250665.890625,221705.265625,242273.25,239746.078125,225229.859375,52980.0,1.0,2
243594.953125,251250.515625,258356.046875,250685.203125,221822.75,242284.34375,239917.921875,225233.71875,52981.0,1.0,2
243500.90625,251152.078125,258260.65625,250609.5625,221683.625,242239.546875,239709.328125,225210.640625,52982.0,1.0,2
243452.4375,251067.765625,258155.421875,250562.53125,221502.21875,242214.328125,239437.078125,225201.609375,52983.0,1.0,2
243499.734375,251099.59375,258169.90625,250600.796875,221511.15625,242234.71875,239450.140625,225213.421875,52984.0,1.0,2
243591.921875,251217.609375,258297.578125,250680.734375,221710.8125,242280.578125,239750.015625,225236.9375,52985.0,1.0,2
243600.59375,251257.484375,258362.03125,250691.1875,221826.59375,242286.125,239921.765625,225237.90625,52986.0,1.0,2
243500.359375,251153.515625,258264.671875,250609.734375,221687.65625,242238.734375,239711.734375,225212.4375,52987.0,1.0,2
243448.5,251067.859375,258157.390625,250559.84375,221505.53125,242213.703125,239439.3125,225203.21875,52988.0,1.0,2
243490.4375,251096.46875,258168.203125,250594.53125,221513.21875,242236.6875,239450.9375,225214.75,52989.0,1.0,2
243582.609375,251214.046875,258290.875,250672.40625,221710.359375,242280.40625,239746.078125,225235.046875,52990.0,1.0,2
243598.171875,251260.171875,258359.359375,250686.984375,221830.609375,242288.984375,239926.5,225235.5,52991.0,1.0,2
243501.703125,251158.609375,258263.25,250606.25,221693.828125,242244.015625,239723.71875,225210.28125,52992.0,1.0,2
243443.046875,251062.3125,258146.296875,250551.625,221505.171875,242214.328125,239445.21875,225197.0625,52993.0,1.0,2
243483.640625,251088.421875,258153.265625,250583.90625,221504.90625,242232.84375,239447.90625,225206.890625,52994.0,1.0,2
243578.421875,251208.234375,258281.390625,250664.1875,221702.21875,242277.984375,239740.890625,225228.890625,52995.0,1.0,2
243594.421875,251254.625,258353.359375,250679.03125,221823.734375,242287.640625,239919.078125,225230.578125,52996.0,1.0,2
243499.015625,251151.359375,258257.875,250601.515625,221685.859375,242241.515625,239716.125,225206.0,52997.0,1.0,2
243447.25,251067.59375,258146.65625,250551.09375,221498.5625,242212.90625,239438.78125,225196.421875,52998.0,1.0,2
243488.203125,251091.90625,258159.078125,250584.875,221502.484375,242234.359375,239443.15625,225211.71875,52999.0,1.0,2
243582.703125,251205.8125,258282.375,250664.1875,221701.328125,242277.8125,239735.34375,225230.578125,53000.0,1.0,2
243604.4375,251255.875,258354.078125,250682.34375,221823.015625,242287.015625,239916.484375,225232.375,53001.0,1.0,2
243515.5625,251166.03125,258266.46875,250609.734375,221694.984375,242250.09375,239724.703125,225213.78125,53002.0,1.0,2
243455.75,251072.515625,258150.859375,250556.1875,221505.53125,242220.40625,239445.484375,225200.265625,53003.0,1.0,2
243498.65625,251102.546875,258162.125,250590.78125,221508.03125,242245.0,239452.8125,225215.5625,53004.0,1.0,2
243588.875,251216.09375,258287.203125,250668.125,221705.4375,242290.78125,239748.3125,225239.25,53005.0,1.0,2
243606.9375,251263.484375,258359.171875,250683.234375,221827.484375,242296.59375,239932.484375,225241.578125,53006.0,1.0,2
243509.125,251162.453125,258263.953125,250604.90625,221693.28125,242247.953125,239736.234375,225217.890625,53007.0,1.0,2
243446.265625,251066.96875,258146.5625,250549.296875,221501.5,242215.859375,239453.796875,225201.53125,53008.0,1.0,2
243487.3125,251096.734375,258155.78125,250585.328125,221502.125,242239.09375,239452.015625,225214.84375,53009.0,1.0,2
243574.03125,251207.0625,258274.78125,250661.140625,221692.921875,242276.921875,239735.96875,225233.625,53010.0,1.0,2
243588.34375,251251.6875,258343.53125,250674.640625,221813.09375,242279.953125,239913.359375,225233.4375,53011.0,1.0,2
243498.390625,251157.53125,258253.671875,250599.359375,221683.265625,242234.71875,239717.546875,225209.578125,53012.0,1.0,2
243438.765625,251064.734375,258138.703125,250545.546875,221493.90625,242205.390625,239435.5625,225194.640625,53013.0,1.0,2
243473.1875,251085.296875,258137.890625,250573.171875,221486.21875,242221.3125,239427.25,225201.4375,53014.0,1.0,2
243569.5625,251201.171875,258264.3125,250656.140625,221683.0,242266.640625,239718.09375,225224.328125,53015.0,1.0,2
243592.546875,251251.046875,258341.921875,250678.40625,221811.03125,242276.03125,239906.734375,225228.890625,53016.0,1.0,2
243504.46875,251158.96875,258254.125,250603.296875,221681.75,242233.90625,239716.125,225205.546875,53017.0,1.0,2
243450.109375,251070.984375,258145.765625,250552.0625,221499.1875,242208.703125,239440.390625,225196.609375,53018.0,1.0,2
243486.859375,251092.171875,258149.78125,250584.875,221497.21875,242230.6875,239436.015625,225210.46875,53019.0,1.0,2
243579.578125,251209.65625,258275.40625,250665.4375,221695.703125,242278.171875,239732.125,225236.84375,53020.0,1.0,2
243598.890625,251256.0625,258348.453125,250683.40625,221822.5625,242287.015625,239922.296875,225239.25,53021.0,1.0,2
243503.578125,251154.140625,258255.375,250605.359375,221695.703125,242243.390625,239730.421875,225214.3125,53022.0,1.0,2
243447.609375,251063.828125,258140.84375,250550.1875,221507.9375,242212.546875,239446.5625,225199.640625,53023.0,1.0,2
243486.59375,251087.34375,258146.03125,250582.203125,221505.4375,242233.5625,239439.3125,225212.25,53024.0,1.0,2
243580.921875,251202.328125,258269.5,250661.953125,221699.0,242279.78125,239729.171875,225232.640625,53025.0,1.0,2
243608.1875,251255.875,258343.890625,250681.625,221824.796875,242290.78125,239917.28125,225235.140625,53026.0,1.0,2
243514.21875,251161.015625,258255.375,250604.90625,221694.71875,242246.703125,239727.390625,225210.203125,53027.0,1.0,2
243451.28125,251063.203125,258140.125,250549.921875,221504.640625,242211.828125,239444.234375,225196.703125,53028.0,1.0,2
243485.078125,251079.21875,258142.359375,250579.078125,221495.0625,242228.640625,239431.359375,225204.921875,53029.0,1.0,2
243575.734375,251193.921875,258268.078125,250660.34375,221688.8125,242273.34375,239720.328125,225228.53125,53030.0,1.0,2
243602.375,251251.5,258348.625,250685.734375,221822.5625,242287.375,239916.84375,225236.21875,53031.0,1.0,2
243508.40625,251159.328125,258260.65625,250609.203125,221697.390625,242245.359375,239730.78125,225212.25,53032.0,1.0,2
243447.078125,251068.21875,258146.203125,250552.609375,221509.015625,242218.625,239450.9375,225199.015625,53033.0,1.0,2
243480.96875,251085.109375,258145.140625,250582.375,221497.484375,242237.125,239433.15625,225208.40625,53034.0,1.0,2
243577.15625,251202.234375,258270.9375,250665.96875,221693.28125,242285.671875,239724.265625,225231.921875,53035.0,1.0,2
243600.234375,251254.984375,258346.296875,250685.375,221823.546875,242292.390625,239917.46875,225234.34375,53036.0,1.0,2
243509.75,251164.234375,258261.28125,250610.984375,221699.625,242251.96875,239736.59375,225212.515625,53037.0,1.0,2
243447.875,251067.234375,258145.9375,250554.21875,221509.546875,242223.265625,239456.3125,225201.25,53038.0,1.0,2
243481.046875,251084.671875,258141.296875,250578.71875,221494.984375,242237.671875,239436.015625,225209.84375,53039.0,1.0,2
243575.28125,251199.203125,258261.90625,250658.015625,221688.71875,242282.109375,239723.8125,225232.640625,53040.0,1.0,2
243593.25,251243.28125,258335.484375,250677.328125,221816.75,242289.171875,239918.0,225234.875,53041.0,1.0,2
243502.234375,251151.546875,258250.90625,250602.859375,221694.09375,242246.25,239736.421875,225209.84375,53042.0,1.0,2
243436.703125,251055.609375,258134.40625,250544.5625,221501.0625,242214.421875,239449.59375,225197.765625,53043.0,1.0,2
243466.75,251072.59375,258133.0625,250570.578125,221488.0,242233.28125,239430.015625,225208.234375,53044.0,1.0,2
243561.875,251192.578125,258257.25,250653.28125,221685.0625,242283.0,239720.140625,225230.84375,53045.0,1.0,2
243587.71875,251249.53125,258335.484375,250675.90625,221817.296875,242291.9375,239918.359375,225232.375,53046.0,1.0,2
243495.265625,251156.375,258251.703125,250601.25,221696.953125,242249.015625,239739.453125,225209.390625,53047.0,1.0,2
243430.625,251059.640625,258135.390625,250542.859375,221503.65625,242216.390625,239456.390625,225196.515625,53048.0,1.0,2
243466.65625,251085.65625,258134.046875,250570.578125,221489.609375,242229.078125,239433.5,225207.0625,53049.0,1.0,2
243560.984375,251201.609375,258253.40625,250651.046875,221677.453125,242270.65625,239718.53125,225231.03125,53050.0,1.0,2
243590.484375,251259.90625,258335.84375,250677.421875,221813.625,242284.0625,239922.203125,225237.28125,53051.0,1.0,2
243499.828125,251165.40625,258251.265625,250601.328125,221694.71875,242237.84375,239742.046875,225213.78125,53052.0,1.0,2
243438.671875,251069.015625,258133.515625,250542.5,221499.546875,242202.984375,239456.390625,225198.125,53053.0,1.0,2
243476.578125,251088.953125,258130.390625,250569.6875,221482.46875,242220.953125,239431.09375,225207.875,53054.0,1.0,2
243567.78125,251201.25,258251.703125,250648.09375,221674.234375,242266.71875,239713.265625,225229.421875,53055.0,1.0,2
243591.375,251255.96875,258335.3125,250672.234375,221813.984375,242282.90625,239918.453125,225236.65625,53056.0,1.0,2
243501.171875,251168.703125,258255.375,250598.203125,221698.734375,242241.328125,239746.796875,225213.5,53057.0,1.0,2
243439.390625,251075.546875,258138.34375,250540.984375,221506.875,242210.671875,239463.375,225202.0625,53058.0,1.0,2
243471.390625,251089.046875,258131.640625,250566.28125,221486.3125,242225.78125,239430.46875,225211.09375,53059.0,1.0,2
243566.078125,251206.53125,258257.078125,250647.921875,221680.140625,242273.15625,239717.28125,225233.625,53060.0,1.0,2
243597.1875,251265.359375,258345.234375,250678.3125,221824.09375,242291.484375,239927.921875,225242.828125,53061.0,1.0,2
243510.015625,251172.375,258265.65625,250608.125,221714.921875,242253.84375,239758.765625,225221.46875,53062.0,1.0,2
243444.296875,251071.96875,258143.078125,250545.359375,221518.578125,242218.625,239468.640625,225202.328125,53063.0,1.0,2
243476.9375,251088.875,258138.609375,250569.59375,221497.21875,242234.890625,239439.9375,225212.4375,53064.0,1.0,2
243570.28125,251201.875,258261.90625,250651.21875,221689.34375,242282.90625,239726.21875,225240.78125,53065.0,1.0,2
243597.1875,251258.296875,258342.375,250674.46875,221826.953125,242296.3125,239931.59375,225242.203125,53066.0,1.0,2
243509.296875,251168.625,258259.125,250599.71875,221713.578125,242252.78125,239757.609375,225219.578125,53067.0,1.0,2
243446.625,251069.921875,258141.921875,250538.921875,221519.5625,242218.890625,239469.984375,225202.953125,53068.0,1.0,2
243477.921875,251083.328125,258135.03125,250564.5,221498.5625,242235.4375,239436.8125,225214.671875,53069.0,1.0,2
243572.96875,251198.484375,258257.703125,250645.234375,221691.578125,242282.453125,239720.421875,225238.984375,53070.0,1.0,2
243606.84375,251262.765625,258342.640625,250673.3125,221832.484375,242294.359375,239929.8125,225244.703125,53071.0,1.0,2
243520.296875,251175.421875,258265.484375,250604.546875,221720.640625,242253.046875,239763.328125,225223.609375,53072.0,1.0,2
243454.9375,251074.65625,258147.28125,250546.078125,221527.53125,242220.859375,239473.734375,225208.671875,53073.0,1.0,2
243477.75,251080.640625,258135.484375,250566.46875,221499.453125,242233.734375,239433.6875,225217.625,53074.0,1.0,2
243572.25,251197.5,258257.703125,250647.203125,221689.265625,242279.875,239715.3125,225238.625,53075.0,1.0,2
243601.921875,251261.78125,258342.8125,250674.203125,221831.328125,242296.859375,239927.5625,225243.71875,53076.0,1.0,2
243507.0625,251169.96875,258261.09375,250600.96875,221715.375,242253.671875,239762.53125,225216.546875,53077.0,1.0,2
243440.28125,251071.171875,258141.921875,250540.625,221518.40625,242216.125,239471.78125,225199.921875,53078.0,1.0,2
243468.71875,251082.171875,258135.296875,250562.625,221489.96875,242227.75,239430.203125,225208.859375,53079.0,1.0,2
243563.484375,251199.109375,258260.46875,250646.390625,221680.40625,242276.46875,239714.25,225233.71875,53080.0,1.0,2
243590.578125,251258.5625,258343.796875,250672.5,221820.0625,242288.890625,239924.890625,225237.46875,53081.0,1.0,2
243501.703125,251172.734375,258266.546875,250600.078125,221712.15625,242247.6875,239767.0,225215.390625,53082.0,1.0,2
243434.828125,251069.5625,258145.046875,250535.890625,221515.453125,242210.125,239475.625,225197.5,53083.0,1.0,2
243462.1875,251074.921875,258131.453125,250555.28125,221486.390625,242225.515625,239428.40625,225205.015625,53084.0,1.0,2
243554.90625,251188.734375,258252.421875,250635.21875,221676.03125,242270.125,239707.453125,225227.359375,53085.0,1.0,2
243585.296875,251248.46875,258337.09375,250661.234375,221815.59375,242279.15625,239918.625,225230.84375,53086.0,1.0,2
243500.0,251165.671875,258262.265625,250592.921875,221706.875,242239.28125,239760.109375,225210.46875,53087.0,1.0,2
243433.125,251064.90625,258141.921875,250530.34375,221507.40625,242204.140625,239469.71875,225194.28125,53088.0,1.0,2
243458.25,251073.40625,258129.84375,250550.546875,221475.671875,242218.453125,239422.515625,225201.703125,53089.0,1.0,2
243550.703125,251189.625,258252.421875,250632.796875,221663.875,242262.875,239699.671875,225225.484375,53090.0,1.0,2
243588.515625,251260.53125,258345.046875,250667.140625,221812.734375,242280.765625,239920.953125,225236.125,53091.0,1.0,2
243498.9375,251168.703125,258267.625,250595.796875,221703.65625,242241.6875,239763.59375,225214.21875,53092.0,1.0,2
243432.765625,251065.890625,258145.046875,250528.5625,221503.65625,242205.578125,239469.625,225193.75,53093.0,1.0,2
243463.96875,251076.890625,258132.703125,250551.0,221470.484375,242218.0,239420.09375,225202.859375,53094.0,1.0,2
243554.984375,251187.484375,258251.625,250635.125,221657.078125,242264.40625,239696.546875,225225.9375,53095.0,1.0,2
243590.484375,251256.234375,258342.640625,250667.21875,221810.9375,242283.625,239918.8125,225235.234375,53096.0,1.0,2
243504.125,251171.921875,258266.734375,250596.78125,221710.359375,242242.671875,239766.28125,225212.609375,53097.0,1.0,2
243435.1875,251068.75,258145.046875,250533.828125,221514.921875,242209.421875,239474.453125,225195.171875,53098.0,1.0,2
243463.078125,251072.0625,258128.953125,250554.484375,221481.75,242223.71875,239422.0625,225203.046875,53099.0,1.0,2
243556.953125,251183.8125,258244.375,250633.34375,221665.296875,242268.25,239694.125,225228.171875,53100.0,1.0,2
243593.703125,251250.515625,258333.78125,250664.453125,221815.140625,242284.34375,239913.53125,225237.734375,53101.0,1.0,2
243508.046875,251167.734375,258262.703125,250598.203125,221717.15625,242247.140625,239763.859375,225213.328125,53102.0,1.0,2
243437.0625,251060.703125,258138.15625,250534.71875,221518.578125,242211.5625,239471.234375,225195.0,53103.0,1.0,2
243467.640625,251066.25,258124.578125,250556.625,221484.875,242229.078125,239418.390625,225202.515625,53104.0,1.0,2
243568.046875,251184.71875,258244.734375,250637.984375,221672.90625,242277.1875,239694.9375,225228.796875,53105.0,1.0,2
243598.53125,251245.328125,258328.875,250661.953125,221817.65625,242290.421875,239915.671875,225232.734375,53106.0,1.0,2
243509.75,251158.78125,258255.109375,250592.921875,221717.0625,242251.96875,239766.8125,225212.078125,53107.0,1.0,2
243434.921875,251051.9375,258128.6875,250527.75,221512.0625,242210.125,239467.65625,225193.484375,53108.0,1.0,2
243462.546875,251062.9375,258115.1875,250548.9375,221475.671875,242225.78125,239413.03125,225203.484375,53109.0,1.0,2
243555.609375,251177.296875,258235.4375,250630.65625,221661.640625,242273.078125,239685.28125,225228.078125,53110.0,1.0,2
243592.0,251241.125,258327.53125,250662.390625,221813.984375,242290.59375,239910.046875,225234.78125,53111.0,1.0,2
243511.265625,251164.59375,258260.46875,250597.046875,221719.75,242252.0625,239766.1875,225212.96875,53112.0,1.0,2
243442.96875,251067.6875,258141.03125,250534.28125,221523.5,242213.265625,239473.5625,225193.921875,53113.0,1.0,2
243468.890625,251075.453125,258126.0,250554.21875,221485.59375,242227.390625,239416.875,225205.546875,53114.0,1.0,2
243558.828125,251186.140625,258243.21875,250634.0625,221667.09375,242271.828125,239688.3125,225230.140625,53115.0,1.0,2
243597.640625,251258.75,258340.046875,250666.25,221819.4375,242290.328125,239917.5625,225236.21875,53116.0,1.0,2
243513.234375,251179.890625,258272.28125,250598.65625,221720.90625,242254.390625,239776.46875,225215.03125,53117.0,1.0,2
243436.96875,251069.46875,258144.15625,250530.875,221515.453125,242214.0625,239478.484375,225194.90625,53118.0,1.0,2
243460.9375,251075.453125,258126.890625,250550.90625,221475.21875,242227.125,239418.75,225203.578125,53119.0,1.0,2
243558.75,251195.53125,258248.671875,250634.859375,221662.703125,242278.4375,239694.125,225231.46875,53120.0,1.0,2
243595.671875,251265.625,258339.78125,250664.453125,221815.328125,242291.21875,239917.5625,225240.0625,53121.0,1.0,2
243514.046875,251187.484375,258274.6875,250602.234375,221723.765625,242255.734375,239779.953125,225220.5625,53122.0,1.0,2
243444.65625,251080.828125,258154.171875,250538.84375,221525.375,242220.59375,239487.0625,225201.53125,53123.0,1.0,2
243467.1875,251080.5625,258131.8125,250553.140625,221479.6875,242229.265625,239420.546875,225207.15625,53124.0,1.0,2
243563.9375,251197.046875,258252.609375,250637.546875,221665.5625,242277.28125,239694.578125,225233.0,53125.0,1.0,2
243601.03125,251263.484375,258345.765625,250671.515625,221820.328125,242293.453125,239923.90625,225240.953125,53126.0,1.0,2
243512.796875,251178.90625,258274.328125,250601.78125,221727.890625,242252.515625,239781.125,225218.6875,53127.0,1.0,2
243437.6875,251069.46875,258149.15625,250533.46875,221526.359375,242211.03125,239480.453125,225199.921875,53128.0,1.0,2
243461.65625,251072.421875,258125.375,250549.65625,221481.125,242223.0,239410.53125,225205.640625,53129.0,1.0,2
243558.390625,251189.8125,258244.734375,250634.0625,221667.171875,242273.25,239684.390625,225230.046875,53130.0,1.0,2
243595.3125,251256.59375,258336.734375,250667.140625,221821.765625,242291.046875,239916.390625,225239.34375,53131.0,1.0,2
243510.375,251177.109375,258267.71875,250598.734375,221726.984375,242254.390625,239781.296875,225216.640625,53132.0,1.0,2
243436.703125,251070.8125,258145.9375,250530.171875,221524.484375,242217.375,239483.84375,225195.890625,53133.0,1.0,2
243452.0,251061.0625,258118.046875,250543.3125,221474.421875,242223.546875,239408.65625,225203.765625,53134.0,1.0,2
243549.359375,251178.09375,258238.125,250629.9375,221658.5,242273.78125,239680.53125,225231.828125,53135.0,1.0,2
243596.125,251256.15625,258336.46875,250669.546875,221818.1875,242294.984375,239916.65625,225241.3125,53136.0,1.0,2
243512.515625,251178.90625,258270.03125,250602.234375,221729.21875,242257.875,239783.359375,225218.953125,53137.0,1.0,2
243440.90625,251072.953125,258147.90625,250533.921875,221531.28125,242220.140625,239489.5625,225202.6875,53138.0,1.0,2
243463.265625,251069.015625,258124.578125,250549.03125,221481.921875,242229.171875,239415.53125,225211.625,53139.0,1.0,2
243555.609375,251178.28125,258239.375,250629.046875,221659.046875,242275.578125,239681.703125,225236.03125,53140.0,1.0,2
243597.09375,251249.984375,258334.59375,250663.03125,221815.859375,242291.9375,239917.375,225243.640625,53141.0,1.0,2
243512.703125,251172.28125,258268.421875,250597.40625,221725.921875,242255.375,239787.203125,225220.84375,53142.0,1.0,2
243443.671875,251074.125,258149.875,250536.515625,221531.546875,242223.546875,239496.0,225204.921875,53143.0,1.0,2
243457.09375,251068.75,258121.890625,250548.3125,221480.046875,242229.984375,239414.734375,225210.5625,53144.0,1.0,2
243546.765625,251174.078125,258232.9375,250627.171875,221656.359375,242273.609375,239676.25,225230.84375,53145.0,1.0,2
243593.25,251250.34375,258329.5,250663.296875,221816.75,242291.84375,239916.125,225241.3125,53146.0,1.0,2
243513.140625,251175.953125,258264.859375,250600.96875,221729.859375,242253.9375,239789.703125,225225.484375,53147.0,1.0,2
243437.234375,251068.578125,258139.421875,250535.625,221526.890625,242213.625,239490.8125,225205.734375,53148.0,1.0,2
243453.0625,251062.5,258114.015625,250547.328125,221471.90625,242222.203125,239411.609375,225213.859375,53149.0,1.0,2
243548.109375,251174.25,258233.109375,250631.28125,221650.8125,242269.59375,239676.6875,225239.34375,53150.0,1.0,2
243591.921875,251248.546875,258332.984375,250667.671875,221812.828125,242289.609375,239913.890625,225244.625,53151.0,1.0,2
243508.234375,251171.296875,258269.765625,250601.875,221728.953125,242254.75,239789.96875,225222.796875,53152.0,1.0,2
243438.21875,251070.625,258146.484375,250535.265625,221527.171875,242215.765625,239493.953125,225203.9375,53153.0,1.0,2
243458.609375,251068.390625,258122.78125,250550.640625,221474.859375,242224.875,239415.0,225213.0625,53154.0,1.0,2
243548.90625,251177.65625,258236.59375,250632.0,221652.0625,242270.390625,239675.796875,225236.75,53155.0,1.0,2
243597.09375,251257.484375,258336.5625,250670.625,221814.96875,242292.296875,239917.5625,225245.78125,53156.0,1.0,2
243516.640625,251183.46875,258274.515625,250603.296875,221733.875,242255.375,239794.890625,225222.0,53157.0,1.0,2
243442.421875,251074.828125,258149.515625,250534.8125,221534.140625,242216.125,239497.515625,225205.015625,53158.0,1.0,2
243459.953125,251069.828125,258121.71875,250548.21875,221478.625,242223.09375,239412.140625,225208.5,53159.0,1.0,2
243554.8125,251182.921875,258234.0,250630.390625,221656.71875,242268.6875,239674.09375,225233.359375,53160.0,1.0,2
243604.96875,251260.796875,258334.859375,250671.34375,221822.921875,242290.6875,239917.46875,225244.890625,53161.0,1.0,2
243523.78125,251186.953125,258277.640625,250609.015625,221744.6875,242257.6875,239800.25,225225.484375,53162.0,1.0,2
243445.375,251078.859375,258151.75,250541.703125,221543.890625,242220.59375,239502.0,225208.5,53163.0,1.0,2
243462.90625,251073.484375,258119.828125,250552.96875,221484.703125,242230.875,239413.125,225214.75,53164.0,1.0,2
