FZ,C3,CZ,C4,PZ,PO7,OZ,PO8,Counter,Validation,Label
243500.625,251155.03125,258070.390625,250393.546875,221692.03125,242202.890625,239769.5,225211.53125,55150.0,1.0,3
243428.75,251050.6875,257950.859375,250323.546875,221498.734375,242165.609375,239479.8125,225195.0,55151.0,1.0,3
243441.4375,251036.03125,257910.4375,250329.53125,221422.109375,242171.234375,239366.90625,225203.21875,55152.0,1.0,3
243531.75,251147.34375,258019.15625,250412.0625,221586.078125,242224.078125,239608.75,225228.078125,55153.0,1.0,3
243578.421875,251226.28125,258123.140625,250456.21875,221759.984375,242248.046875,239865.875,225239.25,55154.0,1.0,3
243515.03125,251174.515625,258086.578125,250407.953125,221714.03125,242223.0,239794.171875,225226.921875,55155.0,1.0,3
243444.75,251074.75,257969.8125,250339.640625,221520.8125,242185.8125,239504.578125,225215.203125,55156.0,1.0,3
243450.5625,251056.6875,257926.890625,250341.421875,221441.6875,242186.890625,239384.78125,225216.28125,55157.0,1.0,3
243532.453125,251150.734375,258022.65625,250414.65625,221595.46875,242228.640625,239615.265625,225235.046875,55158.0,1.0,3
243580.734375,251224.328125,258123.40625,250455.6875,221767.578125,242249.640625,239869.28125,225240.859375,55159.0,1.0,3
243517.625,251169.0625,258084.078125,250403.921875,221718.671875,242217.8125,239795.0625,225224.234375,55160.0,1.0,3
243444.84375,251062.3125,257959.078125,250334.453125,221513.84375,242170.34375,239494.125,225204.921875,55161.0,1.0,3
243452.0,251045.6875,257916.609375,250338.65625,221429.890625,242173.734375,239372.265625,225209.84375,55162.0,1.0,3
243535.859375,251146.09375,258017.109375,250417.0625,221587.6875,242223.09375,239605.4375,225235.234375,55163.0,1.0,3
243582.703125,251222.09375,258118.40625,250460.703125,221761.40625,242248.9375,239865.875,225246.859375,55164.0,1.0,3
243518.609375,251167.546875,258081.21875,250409.640625,221716.984375,242218.53125,239795.96875,225230.40625,55165.0,1.0,3
243441.0,251055.4375,257955.59375,250335.796875,221517.515625,242173.65625,239498.859375,225208.40625,55166.0,1.0,3
243444.484375,251032.71875,257911.34375,250334.984375,221433.28125,242174.09375,239373.609375,225211.890625,55167.0,1.0,3
243531.5625,251138.578125,258014.953125,250415.8125,221591.09375,242224.4375,239608.390625,225238.546875,55168.0,1.0,3
243578.234375,251221.453125,258118.3125,250456.046875,221764.0,242246.78125,239867.125,225246.5,55169.0,1.0,3
243513.859375,251166.5625,258078.890625,250401.328125,221717.15625,242215.140625,239796.140625,225227.0,55170.0,1.0,3
243441.625,251059.8125,257957.46875,250330.703125,221519.390625,242175.53125,239502.4375,225210.28125,55171.0,1.0,3
243442.515625,251034.515625,257908.828125,250327.125,221429.53125,242176.78125,239375.578125,225208.59375,55172.0,1.0,3
243523.25,251132.234375,258008.96875,250401.953125,221582.328125,242222.203125,239603.46875,225232.546875,55173.0,1.0,3
243575.734375,251216.09375,258117.15625,250447.640625,221759.0,242247.953125,239865.96875,225244.4375,55174.0,1.0,3
243518.0625,251170.9375,258085.140625,250399.359375,221716.171875,242219.875,239803.296875,225226.46875,55175.0,1.0,3
243444.578125,251066.25,257965.421875,250328.46875,221517.234375,242177.765625,239511.828125,225207.78125,55176.0,1.0,3
243445.828125,251038.09375,257913.84375,250323.71875,221423.640625,242176.328125,239376.828125,225209.390625,55177.0,1.0,3
243531.65625,251142.15625,258017.203125,250401.78125,221584.203125,242229.890625,239611.875,225238.359375,55178.0,1.0,3
243586.375,251230.3125,258124.03125,250448.53125,221761.6875,242252.78125,239877.328125,225251.328125,55179.0,1.0,3
243523.96875,251177.296875,258089.890625,250400.4375,221720.46875,242225.6875,239816.609375,225233.4375,55180.0,1.0,3
243450.203125,251064.28125,257969.71875,250327.84375,221523.59375,242188.40625,239520.5,225211.09375,55181.0,1.0,3
243454.3125,251042.28125,257923.140625,250326.234375,221433.28125,242191.359375,239388.796875,225211.625,55182.0,1.0,3
243532.453125,251135.890625,258015.40625,250398.203125,221575.359375,242230.25,239605.796875,225231.65625,55183.0,1.0,3
243590.21875,251223.515625,258122.421875,250447.828125,221751.40625,242252.78125,239865.25,225244.171875,55184.0,1.0,3
243530.40625,251179.171875,258095.875,250404.734375,221721.171875,242235.34375,239816.265625,225237.109375,55185.0,1.0,3
243447.171875,251064.46875,257965.78125,250328.1875,221516.34375,242184.921875,239514.953125,225207.15625,55186.0,1.0,3
243453.328125,251042.5625,257917.78125,250331.953125,221430.515625,242188.578125,239382.359375,225210.734375,55187.0,1.0,3
243539.515625,251138.765625,258016.125,250410.625,221579.640625,242229.984375,239600.609375,225238.890625,55188.0,1.0,3
243604.609375,251243.546875,258134.40625,250463.28125,221765.34375,242262.34375,239872.671875,225245.421875,55189.0,1.0,3
243535.5,251197.328125,258101.6875,250411.34375,221725.03125,242229.796875,239814.015625,225226.109375,55190.0,1.0,3
243451.640625,251090.03125,257976.515625,250337.140625,221526.0,242185.0,239521.390625,225208.5,55191.0,1.0,3
243446.359375,251057.84375,257916.796875,250323.71875,221424.078125,242172.671875,239371.546875,225202.6875,55192.0,1.0,3
243530.40625,251155.65625,258011.65625,250397.484375,221571.6875,242212.71875,239585.953125,225226.375,55193.0,1.0,3
243582.890625,251237.734375,258119.03125,250443.53125,221750.328125,242235.4375,239849.078125,225238.359375,55194.0,1.0,3
243529.0625,251195.078125,258094.078125,250400.609375,221723.59375,242212.640625,239802.484375,225224.0625,55195.0,1.0,3
243457.09375,251092.171875,257977.59375,250332.046875,221533.328125,242173.65625,239517.453125,225204.125,55196.0,1.0,3
243457.71875,251065.171875,257922.421875,250325.515625,221435.875,242171.234375,239374.59375,225209.296875,55197.0,1.0,3
243539.34375,251163.796875,258016.484375,250401.234375,221586.359375,242225.234375,239599.53125,225238.453125,55198.0,1.0,3
243588.34375,251245.15625,258121.796875,250443.078125,221763.109375,242247.328125,239864.71875,225237.734375,55199.0,1.0,3
243525.21875,251196.421875,258093.734375,250393.90625,221727.53125,242212.71875,239811.875,225218.328125,55200.0,1.0,3
243449.3125,251087.265625,257973.46875,250322.65625,221528.953125,242172.84375,239518.359375,225197.40625,55201.0,1.0,3
243451.09375,251055.515625,257923.859375,250323.546875,221432.84375,242174.8125,239374.140625,225200.359375,55202.0,1.0,3
243528.96875,251144.921875,258016.390625,250397.484375,221572.578125,242211.65625,239580.84375,225223.4375,55203.0,1.0,3
243578.6875,251225.484375,258118.3125,250439.59375,221744.328125,242231.140625,239842.71875,225230.046875,55204.0,1.0,3
243523.34375,251179.96875,258090.59375,250394.453125,221718.671875,242205.125,239800.609375,225215.734375,55205.0,1.0,3
243449.3125,251074.921875,257973.5625,250325.609375,221533.609375,242166.234375,239519.25,225203.9375,55206.0,1.0,3
243444.296875,251038.53125,257915.359375,250316.03125,221433.921875,242163.546875,239369.40625,225205.640625,55207.0,1.0,3
243517.171875,251126.15625,258006.90625,250386.84375,221575.53125,242203.875,239577.71875,225229.15625,55208.0,1.0,3
243575.734375,251213.765625,258115.8125,250431.640625,221755.78125,242230.96875,239847.109375,225235.234375,55209.0,1.0,3
243518.609375,251175.5,258089.609375,250387.65625,221729.3125,242213.53125,239809.546875,225218.0625,55210.0,1.0,3
243446.890625,251079.484375,257977.046875,250323.8125,221541.734375,242184.46875,239529.890625,225206.265625,55211.0,1.0,3
243443.5,251047.296875,257918.3125,250313.53125,221433.203125,242174.375,239373.609375,225205.09375,55212.0,1.0,3
243514.484375,251129.8125,258000.75,250381.484375,221563.375,242207.984375,239571.375,225225.75,55213.0,1.0,3
243581.546875,251224.046875,258121.4375,250438.875,221750.859375,242244.46875,239849.515625,225237.46875,55214.0,1.0,3
243524.953125,251181.765625,258098.46875,250396.0625,221726.359375,242223.984375,239817.59375,225222.71875,55215.0,1.0,3
243455.484375,251082.875,257983.484375,250326.40625,221535.21875,242181.4375,239533.546875,225205.8125,55216.0,1.0,3
243454.59375,251060.078125,257930.734375,250321.3125,221432.578125,242178.75,239384.875,225207.96875,55217.0,1.0,3
243523.703125,251141.796875,258014.953125,250388.015625,221558.1875,242208.796875,239575.9375,225221.90625,55218.0,1.0,3
243574.84375,251220.484375,258120.546875,250431.734375,221725.46875,242219.875,239830.5625,225221.546875,55219.0,1.0,3
243527.984375,251189.28125,258109.734375,250397.3125,221712.6875,242203.328125,239807.40625,225216.8125,55220.0,1.0,3
243465.40625,251100.84375,258007.453125,250338.65625,221537.359375,242179.640625,239538.828125,225210.90625,55221.0,1.0,3
243452.265625,251062.765625,257947.015625,250325.0625,221426.046875,242168.90625,239379.5,225200.359375,55222.0,1.0,3
243514.484375,251136.4375,258019.515625,250383.53125,221548.359375,242196.0,239564.484375,225211.1875,55223.0,1.0,3
243571.796875,251218.6875,258124.21875,250432.359375,221727.703125,242220.765625,239828.859375,225223.515625,55224.0,1.0,3
243524.328125,251190.890625,258108.125,250395.078125,221715.09375,242205.65625,239805.703125,225216.453125,55225.0,1.0,3
243447.25,251087.703125,257987.78125,250321.046875,221521.359375,242168.90625,239520.671875,225193.921875,55226.0,1.0,3
243449.046875,251057.578125,257933.875,250315.046875,221413.53125,242158.8125,239360.90625,225189.984375,55227.0,1.0,3
243526.015625,251146.8125,258024.703125,250388.90625,221546.484375,242199.3125,239556.984375,225212.515625,55228.0,1.0,3
243581.984375,251232.375,258134.9375,250441.828125,221730.75,242228.09375,239830.03125,225225.9375,55229.0,1.0,3
243522.171875,251191.6875,258107.046875,250393.109375,221710.625,242202.171875,239801.6875,225214.40625,55230.0,1.0,3
243449.21875,251090.484375,257994.21875,250325.328125,221522.15625,242167.578125,239517.8125,225197.765625,55231.0,1.0,3
243449.046875,251059.453125,257940.578125,250321.9375,221418.453125,242169.625,239360.109375,225201.34375,55232.0,1.0,3
243525.390625,251144.296875,258023.0,250390.515625,221552.640625,242214.25,239558.40625,225222.359375,55233.0,1.0,3
243592.359375,251243.640625,258138.875,250448.53125,221746.21875,242253.40625,239840.671875,225243.375,55234.0,1.0,3
243539.515625,251205.453125,258121.171875,250407.3125,221732.171875,242226.765625,239816.265625,225227.0,55235.0,1.0,3
243461.203125,251097.90625,258003.78125,250336.78125,221541.375,242182.6875,239531.3125,225207.609375,55236.0,1.0,3
243446.359375,251049.53125,257933.875,250319.078125,221420.953125,242166.671875,239359.84375,225204.75,55237.0,1.0,3
243515.65625,251129.90625,258012.640625,250385.765625,221551.03125,242211.203125,239553.046875,225226.109375,55238.0,1.0,3
243581.71875,251231.203125,258132.359375,250446.125,221748.8125,242251.34375,239842.09375,225244.265625,55239.0,1.0,3
243528.078125,251192.3125,258113.046875,250405.078125,221737.359375,242228.453125,239823.859375,225235.765625,55240.0,1.0,3
243442.96875,251078.40625,257987.15625,250327.390625,221542.015625,242187.515625,239535.515625,225212.4375,55241.0,1.0,3
243436.703125,251042.828125,257929.671875,250316.75,221434.359375,242183.21875,239369.140625,225200.984375,55242.0,1.0,3
243512.515625,251125.265625,258013.796875,250387.203125,221559.984375,242216.5625,239555.734375,225222.171875,55243.0,1.0,3
243576.53125,251219.3125,258129.21875,250443.078125,221751.40625,242245.796875,239837.1875,225240.6875,55244.0,1.0,3
243521.90625,251178.71875,258104.71875,250399.71875,221734.234375,242224.171875,239817.515625,225224.234375,55245.0,1.0,3
243438.40625,251060.796875,257977.046875,250321.84375,221531.28125,242178.75,239528.015625,225202.59375,55246.0,1.0,3
243443.234375,251037.90625,257928.5,250320.953125,221429.171875,242185.28125,239373.609375,225203.578125,55247.0,1.0,3
243519.140625,251127.3125,258018.0,250395.96875,221561.859375,242228.546875,239566.28125,225228.171875,55248.0,1.0,3
243585.296875,251224.953125,258134.671875,250453.71875,221751.484375,242259.484375,239846.296875,225242.390625,55249.0,1.0,3
243531.390625,251186.140625,258112.859375,250411.25,221734.328125,242224.609375,239819.5625,225222.09375,55250.0,1.0,3
243457.53125,251086.015625,258000.5625,250341.96875,221547.640625,242185.8125,239539.8125,225210.015625,55251.0,1.0,3
243451.453125,251052.21875,257940.484375,250330.078125,221437.21875,242180.890625,239371.09375,225208.765625,55252.0,1.0,3
243523.96875,251134.921875,258017.90625,250395.25,221560.875,242217.375,239550.359375,225225.21875,55253.0,1.0,3
243587.796875,251228.4375,258131.28125,250450.234375,221747.28125,242249.015625,239826.71875,225234.78125,55254.0,1.0,3
243539.171875,251200.890625,258119.125,250412.953125,221738.96875,242234.453125,239820.015625,225224.328125,55255.0,1.0,3
243460.484375,251099.859375,258003.34375,250341.0625,221548.0,242199.484375,239541.0625,225208.40625,55256.0,1.0,3
243441.4375,251050.515625,257933.6875,250320.953125,221423.453125,242182.765625,239362.078125,225199.5625,55257.0,1.0,3
243517.4375,251136.703125,258016.296875,250391.765625,221547.375,242217.640625,239546.421875,225223.78125,55258.0,1.0,3
243591.5625,251241.84375,258140.75,250454.078125,221745.5,242253.765625,239835.03125,225241.578125,55259.0,1.0,3
243539.171875,251202.234375,258124.03125,250413.046875,221739.234375,242226.9375,239820.734375,225221.640625,55260.0,1.0,3
243451.640625,251087.4375,258000.03125,250335.078125,221545.21875,242177.5,239529.4375,225200.1875,55261.0,1.0,3
243442.515625,251047.296875,257936.90625,250325.78125,221429.71875,242170.078125,239357.515625,225203.3125,55262.0,1.0,3
243522.625,251135.984375,258024.171875,250397.9375,221558.015625,242217.1875,239548.65625,225225.125,55263.0,1.0,3
243585.390625,251226.5625,258137.53125,250448.0,221743.984375,242243.390625,239830.109375,225237.203125,55264.0,1.0,3
243541.765625,251198.65625,258125.375,250410.8125,221739.953125,242221.578125,239821.796875,225223.609375,55265.0,1.0,3
243454.3125,251083.234375,257999.9375,250331.859375,221544.59375,242175.0,239533.734375,225201.796875,55266.0,1.0,3
243439.203125,251034.15625,257930.828125,250314.15625,221421.84375,242164.171875,239355.984375,225200.90625,55267.0,1.0,3
243513.6875,251122.21875,258008.703125,250381.921875,221541.65625,242206.46875,239534.359375,225221.46875,55268.0,1.0,3
243569.75,251216.28125,258124.03125,250440.21875,221730.125,242235.796875,239815.28125,225236.296875,55269.0,1.0,3
243516.71875,251188.109375,258115.8125,250405.171875,221732.09375,242220.6875,239821.625,225228.34375,55270.0,1.0,3
243449.765625,251089.234375,258004.046875,250338.5625,221549.25,242183.046875,239545.265625,225216.28125,55271.0,1.0,3
243450.65625,251051.046875,257943.609375,250326.40625,221432.75,242177.59375,239367.4375,225211.265625,55272.0,1.0,3
243513.859375,251120.4375,258009.421875,250384.515625,221541.65625,242208.078125,239531.234375,225222.53125,55273.0,1.0,3
243577.34375,251217.171875,258122.34375,250440.40625,221732.53125,242240.265625,239813.75,225235.765625,55274.0,1.0,3
243531.65625,251192.40625,258112.859375,250404.109375,221733.421875,242220.140625,239815.71875,225220.125,55275.0,1.0,3
243452.890625,251084.046875,257991.890625,250331.234375,221546.5625,242176.515625,239532.84375,225198.484375,55276.0,1.0,3
243441.71875,251037.1875,257923.3125,250316.84375,221426.40625,242172.125,239355.90625,225198.84375,55277.0,1.0,3
243514.84375,251119.265625,258000.75,250383.1875,221543.625,242214.328125,239534.265625,225221.375,55278.0,1.0,3
243583.15625,251222.796875,258121.0,250443.625,221738.078125,242247.953125,239823.140625,225238.0,55279.0,1.0,3
243538.1875,251194.640625,258112.5,250409.734375,221742.640625,242227.921875,239829.3125,225226.015625,55280.0,1.0,3
243450.5625,251075.28125,257986.265625,250329.171875,221546.828125,242177.59375,239539.359375,225195.984375,55281.0,1.0,3
243435.90625,251026.109375,257916.875,250311.65625,221423.640625,242167.390625,239355.546875,225193.65625,55282.0,1.0,3
243507.78125,251114.078125,257996.0,250382.546875,221543.078125,242210.578125,239532.125,225220.484375,55283.0,1.0,3
243578.328125,251219.9375,258117.875,250444.609375,221736.921875,242245.171875,239821.984375,225241.578125,55284.0,1.0,3
243533.984375,251189.71875,258108.390625,250410.09375,221739.59375,242220.59375,239829.140625,225231.5625,55285.0,1.0,3
243446.09375,251073.671875,257985.09375,250332.578125,221547.28125,242177.5,239549.734375,225215.109375,55286.0,1.0,3
243436.34375,251031.65625,257914.375,250312.734375,221423.1875,242171.0625,239362.703125,225207.0625,55287.0,1.0,3
243511.625,251116.40625,257991.625,250380.9375,221538.4375,242212.453125,239532.21875,225219.671875,55288.0,1.0,3
243583.25,251219.578125,258112.6875,250442.09375,221731.46875,242245.53125,239818.671875,225237.640625,55289.0,1.0,3
243535.046875,251187.671875,258104.8125,250406.421875,221736.203125,242222.203125,239827.875,225225.125,55290.0,1.0,3
243448.78125,251073.671875,257982.234375,250329.53125,221544.875,242174.09375,239543.296875,225204.5625,55291.0,1.0,3
243442.875,251032.90625,257914.46875,250316.390625,221421.046875,242168.734375,239359.125,225202.515625,55292.0,1.0,3
243521.828125,251119.984375,257992.25,250385.421875,221533.609375,242212.28125,239529.890625,225221.828125,55293.0,1.0,3
243593.34375,251221.8125,258113.84375,250447.828125,221731.1875,242248.484375,239821.265625,225241.3125,55294.0,1.0,3
243544.078125,251186.140625,258103.296875,250410.265625,221735.9375,242225.953125,239830.75,225227.28125,55295.0,1.0,3
243459.765625,251073.84375,257980.625,250334.359375,221544.78125,242180.8125,239548.3125,225208.5,55296.0,1.0,3
243445.28125,251033.265625,257909.546875,250313.984375,221416.03125,242169.1875,239357.6875,225205.375,55297.0,1.0,3
243513.6875,251110.5,257980.53125,250376.390625,221524.65625,242208.796875,239522.46875,225223.15625,55298.0,1.0,3
243582.34375,251210.546875,258101.78125,250439.234375,221722.515625,242247.40625,239816.890625,225241.578125,55299.0,1.0,3
243540.6875,251185.421875,258099.71875,250409.828125,221735.484375,242228.09375,239835.03125,225228.53125,55300.0,1.0,3
243456.640625,251076.984375,257980.359375,250329.625,221545.21875,242180.71875,239554.75,225203.765625,55301.0,1.0,3
243443.140625,251035.578125,257911.0625,250311.46875,221419.34375,242170.796875,239365.109375,225200.625,55302.0,1.0,3
243516.28125,251115.421875,257984.296875,250379.6875,221529.765625,242208.875,239522.375,225223.34375,55303.0,1.0,3
243581.640625,251210.90625,258098.28125,250440.046875,221722.25,242240.4375,239806.421875,225237.46875,55304.0,1.0,3
243539.703125,251187.3125,258093.734375,250409.203125,221736.5625,242223.546875,239828.234375,225226.015625,55305.0,1.0,3
243457.53125,251080.640625,257975.890625,250331.6875,221549.515625,242182.6875,239552.0625,225206.4375,55306.0,1.0,3
243438.671875,251030.484375,257901.40625,250310.9375,221418.453125,242170.515625,239357.78125,225202.78125,55307.0,1.0,3
243512.96875,251109.078125,257974.453125,250381.390625,221530.109375,242208.796875,239520.140625,225226.203125,55308.0,1.0,3
243583.78125,251208.859375,258095.0625,250444.515625,221729.40625,242244.90625,239811.875,225241.046875,55309.0,1.0,3
243541.484375,251187.03125,258091.140625,250408.75,221740.9375,242221.9375,239832.078125,225225.390625,55310.0,1.0,3
243454.9375,251077.34375,257973.203125,250331.59375,221551.9375,242178.75,239553.9375,225206.4375,55311.0,1.0,3
243438.140625,251026.546875,257898.1875,250311.03125,221419.96875,242167.84375,239356.890625,225203.578125,55312.0,1.0,3
243516.546875,251115.515625,257975.265625,250380.046875,221532.0,242212.546875,239520.5,225227.8125,55313.0,1.0,3
243579.671875,251208.765625,258088.28125,250434.59375,221722.515625,242242.671875,239808.125,225237.90625,55314.0,1.0,3
243541.765625,251189.0,258091.5,250407.859375,221742.546875,242226.3125,239836.375,225229.859375,55315.0,1.0,3
243455.75,251078.671875,257971.515625,250327.03125,221551.65625,242176.515625,239554.75,225203.046875,55316.0,1.0,3
243440.375,251033.171875,257899.796875,250307.71875,221420.0625,242166.5,239361.09375,225201.96875,55317.0,1.0,3
243505.640625,251103.359375,257964.796875,250368.78125,221519.65625,242201.375,239513.796875,225218.78125,55318.0,1.0,3
243583.0625,251212.34375,258090.15625,250437.1875,221719.21875,242241.328125,239814.734375,225239.34375,55319.0,1.0,3
243543.015625,251194.734375,258092.921875,250408.65625,221738.078125,242218.625,239841.03125,225226.46875,55320.0,1.0,3
243453.609375,251076.796875,257971.6875,250325.609375,221548.265625,242171.234375,239559.84375,225199.296875,55321.0,1.0,3
243436.796875,251024.234375,257895.6875,250303.703125,221414.6875,242159.96875,239359.296875,225197.234375,55322.0,1.0,3
243508.140625,251099.328125,257964.265625,250368.078125,221514.5625,242197.875,239508.15625,225218.421875,55323.0,1.0,3
243581.984375,251203.046875,258088.546875,250435.21875,221712.234375,242238.203125,239803.03125,225239.96875,55324.0,1.0,3
243548.109375,251192.140625,258096.859375,250410.890625,221738.796875,242226.140625,239841.109375,225230.046875,55325.0,1.0,3
243461.65625,251082.875,257978.390625,250332.578125,221552.828125,242182.6875,239565.828125,225207.609375,55326.0,1.0,3
243434.921875,251021.71875,257893.1875,250302.71875,221406.5625,242159.96875,239353.671875,225197.859375,55327.0,1.0,3
243501.609375,251094.59375,257959.625,250365.75,221507.59375,242198.234375,239502.96875,225217.796875,55328.0,1.0,3
243575.109375,251201.96875,258082.375,250430.203125,221709.734375,242240.0,239798.734375,225234.78125,55329.0,1.0,3
243538.984375,251186.953125,258088.359375,250404.1875,221733.703125,242220.0625,239833.6875,225223.703125,55330.0,1.0,3
243448.859375,251075.375,257971.59375,250326.234375,221545.5,242173.203125,239557.25,225201.703125,55331.0,1.0,3
243430.625,251029.234375,257896.859375,250304.765625,221411.296875,242166.953125,239356.625,225199.296875,55332.0,1.0,3
243502.6875,251106.390625,257963.015625,250367.09375,221511.34375,242207.0,239501.640625,225219.9375,55333.0,1.0,3
243576.0,251207.609375,258082.90625,250430.5625,221710.359375,242242.40625,239794.796875,225237.28125,55334.0,1.0,3
243540.6875,251192.765625,258089.171875,250407.59375,221740.21875,242228.734375,239840.578125,225227.90625,55335.0,1.0,3
243450.828125,251077.78125,257965.875,250326.859375,221551.390625,242181.78125,239565.203125,225203.484375,55336.0,1.0,3
243433.671875,251026.28125,257888.71875,250304.328125,221413.53125,242167.578125,239359.484375,225199.015625,55337.0,1.0,3
243503.84375,251100.21875,257954.609375,250367.359375,221511.078125,242204.5,239501.453125,225222.890625,55338.0,1.0,3
243577.34375,251203.3125,258075.578125,250431.453125,221710.1875,242240.703125,239796.40625,225238.359375,55339.0,1.0,3
243540.859375,251185.34375,258083.0,250404.015625,221737.90625,242225.234375,239843.171875,225226.296875,55340.0,1.0,3
243455.921875,251078.046875,257970.53125,250326.40625,221553.71875,242181.703125,239571.109375,225205.734375,55341.0,1.0,3
243430.265625,251018.6875,257886.921875,250300.484375,221411.203125,242166.5,239360.546875,225199.921875,55342.0,1.0,3
243498.484375,251090.203125,257948.796875,250363.328125,221505.4375,242203.15625,239498.953125,225220.484375,55343.0,1.0,3
243568.84375,251192.046875,258069.3125,250424.390625,221699.90625,242236.953125,239789.703125,225234.78125,55344.0,1.0,3
243539.609375,251187.484375,258085.859375,250404.015625,221735.484375,242227.46875,239844.328125,225227.90625,55345.0,1.0,3
243458.4375,251082.34375,257970.53125,250329.0,221555.328125,242186.53125,239574.765625,225205.453125,55346.0,1.0,3
243440.734375,251031.375,257890.859375,250308.078125,221416.484375,242172.3125,239364.75,225203.484375,55347.0,1.0,3
243503.3125,251099.515625,257949.25,250365.390625,221505.265625,242203.609375,239497.515625,225219.140625,55348.0,1.0,3
243576.265625,251206.265625,258074.140625,250432.890625,221709.015625,242243.65625,239797.9375,225238.8125,55349.0,1.0,3
243543.375,251198.578125,258088.453125,250411.796875,221748.625,242235.796875,239857.296875,225232.453125,55350.0,1.0,3
243449.671875,251081.53125,257966.765625,250330.078125,221565.171875,242190.546875,239588.8125,225209.390625,55351.0,1.0,3
243421.0625,251016.890625,257877.09375,250299.40625,221416.75,242168.46875,239371.015625,225200.1875,55352.0,1.0,3
243487.21875,251087.265625,257934.9375,250357.15625,221505.0,242203.6875,239503.15625,225220.75,55353.0,1.0,3
243561.703125,251192.5,258055.46875,250423.5,221703.828125,242242.046875,239794.796875,225240.234375,55354.0,1.0,3
243529.0625,251178.28125,258066.8125,250400.890625,221740.84375,242226.84375,239847.109375,225230.21875,55355.0,1.0,3
243439.5625,251065.0,257949.96875,250320.6875,221554.25,242177.59375,239573.15625,225204.75,55356.0,1.0,3
243414.4375,251007.328125,257865.921875,250291.1875,221403.25,242155.234375,239351.796875,225194.109375,55357.0,1.0,3
243479.53125,251075.734375,257925.375,250351.4375,221492.296875,242192.421875,239482.5,225213.328125,55358.0,1.0,3
243556.328125,251181.5,258051.4375,250417.15625,221695.34375,242233.46875,239780.9375,225231.75,55359.0,1.0,3
243528.4375,251172.828125,258065.390625,250395.34375,221732.796875,242220.5,239838.96875,225221.640625,55360.0,1.0,3
243447.25,251069.375,257955.765625,250323.28125,221553.71875,242178.03125,239574.140625,225202.328125,55361.0,1.0,3
243422.484375,251010.28125,257876.109375,250296.90625,221410.21875,242166.234375,239359.921875,225197.6875,55362.0,1.0,3
243487.046875,251077.421875,257934.578125,250355.203125,221495.875,242203.328125,239488.140625,225217.703125,55363.0,1.0,3
243564.640625,251185.96875,258058.59375,250423.234375,221698.5625,242242.765625,239786.3125,225236.484375,55364.0,1.0,3
243538.984375,251184.09375,258074.5,250404.90625,221738.796875,242228.8125,239847.546875,225226.375,55365.0,1.0,3
243446.546875,251069.46875,257955.59375,250324.078125,221555.0625,242179.203125,239579.15625,225201.078125,55366.0,1.0,3
243422.671875,251011.71875,257872.890625,250296.71875,221410.84375,242165.0625,239362.421875,225198.75,55367.0,1.0,3
243489.359375,251078.953125,257932.53125,250359.21875,221497.578125,242202.078125,239487.6875,225218.953125,55368.0,1.0,3
243565.359375,251181.234375,258054.390625,250425.203125,221696.59375,242239.09375,239785.234375,225234.515625,55369.0,1.0,3
243544.0,251184.359375,258075.84375,250407.40625,221746.578125,242230.25,239856.578125,225227.625,55370.0,1.0,3
243454.859375,251074.828125,257960.875,250328.734375,221566.328125,242182.328125,239589.34375,225202.953125,55371.0,1.0,3
243431.15625,251015.375,257873.96875,250297.890625,221413.984375,242166.046875,239365.828125,225198.21875,55372.0,1.0,3
243494.1875,251078.765625,257926.171875,250353.3125,221494.890625,242198.234375,239483.3125,225217.890625,55373.0,1.0,3
243573.234375,251187.21875,258053.234375,250424.390625,221701.234375,242238.65625,239781.390625,225239.796875,55374.0,1.0,3
243549.984375,251184.796875,258074.421875,250409.109375,221751.484375,242232.03125,239855.0625,225232.8125,55375.0,1.0,3
243466.75,251081.09375,257959.96875,250331.328125,221575.0,242186.890625,239591.578125,225208.140625,55376.0,1.0,3
243437.421875,251015.28125,257867.53125,250296.8125,221419.34375,242164.71875,239362.515625,225197.765625,55377.0,1.0,3
243496.78125,251073.84375,257918.671875,250353.046875,221496.5,242196.71875,239475.96875,225215.296875,55378.0,1.0,3
243574.125,251179.703125,258040.53125,250418.5,221694.984375,242235.4375,239769.765625,225233.625,55379.0,1.0,3
243553.46875,251184.796875,258065.296875,250402.3125,221743.53125,242231.671875,239843.96875,225228.078125,55380.0,1.0,3
243465.3125,251077.34375,257954.609375,250325.78125,221568.296875,242193.234375,239584.25,225207.609375,55381.0,1.0,3
243436.53125,251015.109375,257869.234375,250297.171875,221418.0,242181.515625,239361.796875,225203.578125,55382.0,1.0,3
243496.703125,251078.3125,257921.625,250352.15625,221494.0,242217.015625,239475.796875,225221.640625,55383.0,1.0,3
243574.65625,251186.953125,258046.25,250421.796875,221694.265625,242255.453125,239774.953125,225241.40625,55384.0,1.0,3
243551.421875,251191.421875,258070.125,250407.59375,221750.140625,242248.484375,239853.984375,225234.0625,55385.0,1.0,3
243457.71875,251078.234375,257951.65625,250324.53125,221573.484375,242200.46875,239591.9375,225206.4375,55386.0,1.0,3
243425.625,251010.015625,257862.609375,250293.328125,221420.328125,242182.59375,239367.53125,225199.203125,55387.0,1.0,3
243481.5,251064.546875,257910.625,250346.796875,221492.46875,242212.8125,239477.140625,225217.0,55388.0,1.0,3
243559.453125,251173.71875,258035.796875,250414.109375,221694.359375,242251.171875,239777.09375,225239.703125,55389.0,1.0,3
243541.84375,251178.015625,258063.6875,250401.515625,221748.890625,242244.546875,239861.140625,225233.265625,55390.0,1.0,3
243459.234375,251072.6875,257955.6875,250326.5,221570.53125,242197.53125,239596.765625,225207.609375,55391.0,1.0,3
243435.359375,251017.609375,257874.6875,250300.03125,221419.4375,242181.078125,239370.46875,225203.578125,55392.0,1.0,3
243497.046875,251081.53125,257925.828125,250352.875,221489.34375,242210.40625,239477.140625,225219.40625,55393.0,1.0,3
243571.171875,251185.421875,258045.8125,250419.21875,221686.75,242243.484375,239770.65625,225234.25,55394.0,1.0,3
243549.09375,251187.75,258070.578125,250406.25,221741.03125,242231.40625,239851.03125,225226.46875,55395.0,1.0,3
243459.234375,251079.75,257958.453125,250325.328125,221563.5625,242183.3125,239593.09375,225201.609375,55396.0,1.0,3
243430.890625,251020.734375,257868.875,250292.171875,221407.09375,242162.75,239363.140625,225198.21875,55397.0,1.0,3
243496.34375,251088.6875,257922.6875,250352.875,221481.484375,242197.25,239472.21875,225219.046875,55398.0,1.0,3
243572.0625,251195.796875,258043.65625,250424.390625,221679.96875,242230.96875,239770.125,225233.625,55399.0,1.0,3
243549.0,251197.140625,258067.359375,250406.6875,221734.5,242220.328125,239852.640625,225226.46875,55400.0,1.0,3
243463.265625,251091.90625,257954.875,250326.671875,221563.28125,242175.984375,239596.9375,225203.484375,55401.0,1.0,3
243435.90625,251031.203125,257866.640625,250292.875,221411.5625,242162.390625,239368.78125,225197.234375,55402.0,1.0,3
243493.921875,251090.203125,257915.8125,250346.078125,221480.140625,242196.453125,239468.828125,225215.5625,55403.0,1.0,3
243571.4375,251197.953125,258038.46875,250415.1875,221679.609375,242231.5,239763.953125,225235.046875,55404.0,1.0,3
243551.5,251201.796875,258067.53125,250405.171875,221743.265625,242223.8125,239856.21875,225229.234375,55405.0,1.0,3
243459.59375,251093.078125,257953.890625,250324.796875,221571.328125,242178.390625,239598.46875,225205.734375,55406.0,1.0,3
243430.0,251027.53125,257863.234375,250292.515625,221412.453125,242160.875,239365.46875,225197.953125,55407.0,1.0,3
243489.09375,251082.796875,257911.34375,250344.5625,221478.625,242194.484375,239465.78125,225214.75,55408.0,1.0,3
243571.890625,251194.453125,258040.625,250416.0,221684.171875,242238.03125,239767.265625,225236.9375,55409.0,1.0,3
243553.828125,251200.890625,258073.34375,250406.421875,221748.09375,242231.3125,239859.984375,225232.375,55410.0,1.0,3
243460.578125,251086.453125,257961.3125,250327.296875,221572.578125,242185.453125,239604.1875,225209.03125,55411.0,1.0,3
243430.984375,251017.796875,257869.9375,250293.59375,221414.15625,242170.25,239372.53125,225203.3125,55412.0,1.0,3
243487.75,251073.765625,257914.90625,250341.78125,221476.828125,242197.34375,239465.6875,225215.109375,55413.0,1.0,3
243567.328125,251187.03125,258042.9375,250411.875,221678.890625,242235.34375,239760.640625,225233.625,55414.0,1.0,3
243552.125,251198.578125,258076.296875,250403.75,221748.625,242232.390625,239858.546875,225230.3125,55415.0,1.0,3
243461.203125,251084.3125,257962.65625,250322.46875,221580.359375,242185.71875,239604.28125,225206.171875,55416.0,1.0,3
243425.703125,251011.890625,257865.375,250282.234375,221419.15625,242161.140625,239365.375,225195.265625,55417.0,1.0,3
243486.140625,251072.59375,257910.53125,250334.71875,221482.109375,242190.46875,239459.53125,225213.78125,55418.0,1.0,3
243565.265625,251180.328125,258035.796875,250408.390625,221682.28125,242230.96875,239761.453125,225236.390625,55419.0,1.0,3
243554.28125,251194.375,258074.234375,250404.453125,221750.59375,242227.921875,239865.34375,225235.234375,55420.0,1.0,3
243460.9375,251082.609375,257960.421875,250318.8125,221575.171875,242176.78125,239609.1875,225205.8125,55421.0,1.0,3
243428.921875,251012.875,257863.953125,250281.34375,221411.734375,242155.5,239368.515625,225195.71875,55422.0,1.0,3
243483.46875,251064.90625,257906.875,250335.609375,221471.203125,242185.8125,239458.984375,225210.828125,55423.0,1.0,3
243561.421875,251173.984375,258033.015625,250407.234375,221671.5625,242224.34375,239759.21875,225232.1875,55424.0,1.0,3
243546.9375,251187.84375,258070.03125,250398.828125,221740.578125,242220.140625,239863.109375,225228.609375,55425.0,1.0,3
243452.34375,251076.890625,257961.046875,250315.953125,221569.359375,242173.46875,239609.109375,225202.234375,55426.0,1.0,3
243418.46875,251004.734375,257866.1875,250280.1875,221406.203125,242152.90625,239366.546875,225193.921875,55427.0,1.0,3
243472.109375,251052.03125,257902.3125,250330.703125,221461.0,242181.515625,239450.578125,225209.21875,55428.0,1.0,3
243548.46875,251161.46875,258022.296875,250399.09375,221659.484375,242219.609375,239745.625,225225.9375,55429.0,1.0,3
243540.5,251181.578125,258061.453125,250395.515625,221732.625,242216.75,239851.9375,225224.234375,55430.0,1.0,3
243446.8125,251070.984375,257950.140625,250315.953125,221562.03125,242168.46875,239601.859375,225200.0,55431.0,1.0,3
243410.328125,251000.09375,257856.0,250278.578125,221399.9375,242147.09375,239362.703125,225192.9375,55432.0,1.0,3
243466.203125,251055.078125,257896.5,250327.5625,221455.109375,242177.859375,239445.3125,225208.046875,55433.0,1.0,3
243548.109375,251164.0625,258020.859375,250398.46875,221655.015625,242219.96875,239743.84375,225227.71875,55434.0,1.0,3
243538.265625,251177.921875,258058.765625,250392.125,221728.421875,242214.78125,239853.90625,225224.40625,55435.0,1.0,3
243450.390625,251077.6875,257952.828125,250315.140625,221562.65625,242168.734375,239607.9375,225201.078125,55436.0,1.0,3
243412.75,251006.796875,257858.046875,250275.53125,221397.796875,242145.484375,239363.765625,225189.28125,55437.0,1.0,3
243468.265625,251058.46875,257900.4375,250326.046875,221453.765625,242175.171875,239445.046875,225207.0625,55438.0,1.0,3
243545.875,251164.421875,258025.6875,250397.75,221654.21875,242215.234375,239740.703125,225226.640625,55439.0,1.0,3
243535.59375,251180.953125,258063.0625,250392.03125,221728.78125,242211.375,239851.125,225222.0,55440.0,1.0,3
243445.203125,251075.8125,257955.5,250314.78125,221563.375,242166.765625,239606.875,225200.0,55441.0,1.0,3
243408.8125,251004.109375,257859.84375,250277.5,221401.28125,242144.140625,239364.3125,225189.1875,55442.0,1.0,3
243464.953125,251055.15625,257899.0,250328.1875,221455.8125,242175.625,239442.0,225206.359375,55443.0,1.0,3
243545.609375,251166.921875,258023.8125,250398.109375,221656.0,242215.140625,239738.5625,225226.375,55444.0,1.0,3
243536.21875,251183.640625,258064.484375,250396.59375,221736.828125,242213.34375,239854.25,225224.953125,55445.0,1.0,3
243446.984375,251074.390625,257957.203125,250319.875,221575.796875,242168.109375,239611.421875,225204.03125,55446.0,1.0,3
243409.53125,250997.140625,257860.28125,250281.796875,221410.671875,242147.28125,239365.828125,225195.265625,55447.0,1.0,3
243466.03125,251049.171875,257897.84375,250331.40625,221462.96875,242178.65625,239440.75,225211.984375,55448.0,1.0,3
243554.453125,251165.3125,258026.5,250407.859375,221667.359375,242224.171875,239743.75,225235.765625,55449.0,1.0,3
243548.546875,251184.0,258067.265625,250405.359375,221748.0,242223.0,239862.84375,225229.421875,55450.0,1.0,3
243456.375,251074.828125,257959.4375,250325.328125,221585.1875,242179.109375,239619.03125,225204.03125,55451.0,1.0,3
243420.515625,251005.546875,257863.421875,250285.09375,221418.984375,242160.234375,239373.15625,225196.78125,55452.0,1.0,3
243474.875,251056.6875,257898.28125,250333.375,221469.234375,242187.6875,239444.0625,225214.671875,55453.0,1.0,3
243558.125,251165.9375,258023.546875,250406.6875,221669.328125,242227.390625,239742.046875,225235.859375,55454.0,1.0,3
243549.453125,251182.84375,258064.578125,250403.125,221746.75,242223.546875,239859.4375,225228.078125,55455.0,1.0,3
243455.921875,251079.125,257957.296875,250323.640625,221582.59375,242178.484375,239618.765625,225201.96875,55456.0,1.0,3
243417.03125,251004.109375,257861.453125,250284.296875,221415.859375,242156.125,239371.90625,225193.921875,55457.0,1.0,3
243469.15625,251051.140625,257896.671875,250330.703125,221461.359375,242184.65625,239440.390625,225210.28125,55458.0,1.0,3
243554.453125,251166.75,258024.53125,250404.109375,221666.28125,242225.234375,239738.390625,225229.421875,55459.0,1.0,3
243545.421875,251188.375,258064.84375,250399.984375,221746.84375,242219.515625,239860.421875,225224.953125,55460.0,1.0,3
243450.65625,251082.34375,257956.21875,250318.453125,221583.21875,242172.3125,239622.78125,225201.609375,55461.0,1.0,3
243412.828125,251009.828125,257860.375,250280.90625,221415.671875,242151.5625,239375.65625,225196.15625,55462.0,1.0,3
243465.140625,251056.859375,257896.9375,250330.78125,221460.203125,242182.5,239440.75,225213.140625,55463.0,1.0,3
243547.484375,251168.703125,258021.671875,250401.234375,221658.953125,242221.75,239735.796875,225232.640625,55464.0,1.0,3
243537.90625,251193.828125,258065.5625,250397.9375,221741.296875,242217.734375,239860.78125,225225.125,55465.0,1.0,3
243445.375,251089.765625,257961.9375,250320.6875,221583.671875,242172.3125,239624.65625,225201.34375,55466.0,1.0,3
243405.40625,251011.625,257864.125,250280.09375,221415.046875,242149.6875,239373.15625,225194.109375,55467.0,1.0,3
243461.828125,251059.28125,257896.765625,250325.515625,221455.546875,242179.546875,239432.875,225208.953125,55468.0,1.0,3
243547.125,251170.765625,258024.609375,250401.328125,221659.046875,242221.125,239730.96875,225232.546875,55469.0,1.0,3
243539.078125,251188.203125,258068.421875,250399.546875,221743.359375,242214.421875,239855.15625,225227.28125,55470.0,1.0,3
243450.65625,251087.703125,257963.90625,250320.234375,221587.875,242170.515625,239622.25,225203.3125,55471.0,1.0,3
243408.09375,251010.1875,257863.765625,250277.765625,221415.40625,242147.09375,239372.0,225194.640625,55472.0,1.0,3
243457.453125,251052.21875,257893.90625,250322.65625,221454.5625,242174.71875,239430.375,225207.6875,55473.0,1.0,3
243544.0,251162.265625,258020.5,250396.859375,221656.71875,242217.28125,239729.4375,225230.40625,55474.0,1.0,3
243540.859375,251188.296875,258066.90625,250397.3125,221747.203125,242217.8125,239864.8125,225228.96875,55475.0,1.0,3
243450.46875,251087.078125,257963.8125,250319.796875,221592.609375,242177.234375,239636.015625,225205.09375,55476.0,1.0,3
243405.140625,251006.34375,257858.3125,250271.875,221413.171875,242148.796875,239373.875,225193.03125,55477.0,1.0,3
243453.875,251047.03125,257886.65625,250318.453125,221448.9375,242175.984375,239426.53125,225209.75,55478.0,1.0,3
243538.265625,251158.421875,258010.578125,250394.09375,221647.59375,242218.453125,239724.265625,225230.40625,55479.0,1.0,3
243536.03125,251187.84375,258057.421875,250395.078125,221739.234375,242218.09375,239857.75,225227.625,55480.0,1.0,3
243444.578125,251082.515625,257954.796875,250316.390625,221584.65625,242174.375,239627.96875,225202.78125,55481.0,1.0,3
243408.09375,251005.28125,257855.90625,250274.109375,221412.28125,242150.3125,239373.25,225192.765625,55482.0,1.0,3
243460.84375,251047.390625,257885.140625,250318.359375,221448.9375,242177.234375,239424.5625,225210.203125,55483.0,1.0,3
243546.5,251160.125,258013.796875,250395.78125,221650.375,242219.078125,239723.28125,225230.765625,55484.0,1.0,3
243545.875,251186.765625,258066.640625,250399.71875,221742.1875,242219.078125,239860.96875,225227.71875,55485.0,1.0,3
243459.59375,251088.421875,257969.625,250327.125,221592.609375,242178.84375,239637.0,225208.765625,55486.0,1.0,3
243414.078125,251005.90625,257864.125,250281.53125,221415.59375,242151.125,239376.734375,225196.078125,55487.0,1.0,3
243464.6875,251044.34375,257890.78125,250322.65625,221446.703125,242175.703125,239422.78125,225209.21875,55488.0,1.0,3
243554.453125,251160.84375,258020.765625,250398.921875,221649.921875,242220.859375,239722.46875,225230.671875,55489.0,1.0,3
243554.359375,251192.578125,258074.140625,250402.9375,221745.59375,242219.96875,239862.125,225229.953125,55490.0,1.0,3
243467.109375,251095.03125,257975.984375,250328.46875,221597.53125,242178.5625,239639.6875,225210.90625,55491.0,1.0,3
243422.9375,251012.875,257871.546875,250284.125,221421.046875,242153.265625,239381.203125,225199.296875,55492.0,1.0,3
243470.5,251049.984375,257894.703125,250323.1875,221447.234375,242176.25,239422.328125,225212.25,55493.0,1.0,3
243557.578125,251164.6875,258023.453125,250400.890625,221650.015625,242222.109375,239722.109375,225234.421875,55494.0,1.0,3
243558.390625,251192.140625,258076.65625,250405.625,221747.90625,242220.765625,239864.71875,225233.078125,55495.0,1.0,3
243461.734375,251087.703125,257973.125,250325.875,221593.234375,242171.234375,239640.21875,225211.8125,55496.0,1.0,3
243419.0,251011.359375,257872.890625,250284.03125,221422.46875,242149.328125,239383.53125,225205.1875,55497.0,1.0,3
243471.21875,251054.890625,257898.828125,250329.984375,221452.515625,242179.015625,239425.8125,225220.296875,55498.0,1.0,3
243552.046875,251159.765625,258019.078125,250400.703125,221648.046875,242219.96875,239717.828125,225238.453125,55499.0,1.0,3
243552.484375,251190.4375,258072.890625,250403.296875,221746.125,242222.375,239864.09375,225235.5,55500.0,1.0,3
243462.90625,251095.21875,257974.640625,250324.4375,221599.5,242181.515625,239647.28125,225212.96875,55501.0,1.0,3
243419.09375,251018.0625,257869.9375,250278.03125,221422.921875,242156.484375,239388.359375,225201.25,55502.0,1.0,3
243467.375,251056.421875,257892.921875,250320.15625,221448.671875,242179.28125,239426.359375,225216.28125,55503.0,1.0,3
243552.046875,251163.609375,258015.046875,250394.890625,221645.90625,242223.09375,239719.609375,225235.328125,55504.0,1.0,3
243554.1875,251197.140625,258068.609375,250397.75,221743.703125,242226.21875,239866.5,225233.890625,55505.0,1.0,3
243464.59375,251100.046875,257972.765625,250320.859375,221597.796875,242182.140625,239648.265625,225209.65625,55506.0,1.0,3
243419.359375,251019.3125,257870.484375,250277.859375,221423.90625,242157.5625,239388.265625,225197.6875,55507.0,1.0,3
243462.90625,251055.34375,257891.21875,250319.96875,221447.765625,242183.3125,239423.5,225212.96875,55508.0,1.0,3
243549.8125,251173.09375,258016.125,250396.40625,221650.375,242226.578125,239720.328125,225234.96875,55509.0,1.0,3
243552.578125,251202.5,258072.09375,250402.9375,221754.078125,242226.21875,239871.25,225234.609375,55510.0,1.0,3
243457.09375,251098.53125,257974.09375,250324.703125,221606.296875,242178.75,239651.65625,225210.203125,55511.0,1.0,3
243415.6875,251022.984375,257874.234375,250281.25,221430.25,242157.46875,239390.40625,225203.484375,55512.0,1.0,3
243466.296875,251060.34375,257894.96875,250321.484375,221451.890625,242186.34375,239424.203125,225217.34375,55513.0,1.0,3
243545.875,251162.0,258014.609375,250394.71875,221643.390625,242226.671875,239716.5625,225235.953125,55514.0,1.0,3
243551.421875,251197.671875,258073.25,250403.5625,221746.125,242229.890625,239869.359375,225236.21875,55515.0,1.0,3
243459.328125,251094.140625,257972.765625,250326.671875,221600.296875,242184.203125,239653.71875,225214.125,55516.0,1.0,3
243415.15625,251015.5625,257867.53125,250281.703125,221424.609375,242157.828125,239392.46875,225203.9375,55517.0,1.0,3
243458.875,251050.78125,257886.125,250317.28125,221442.140625,242179.46875,239417.765625,225213.328125,55518.0,1.0,3
243540.5,251159.953125,258006.828125,250391.046875,221636.421875,242218.171875,239707.890625,225232.375,55519.0,1.0,3
243546.3125,251197.671875,258068.15625,250401.515625,221743.4375,242221.578125,239865.703125,225234.15625,55520.0,1.0,3
243459.953125,251102.8125,257976.875,250328.015625,221606.5625,242184.109375,239657.5625,225213.234375,55521.0,1.0,3
243411.484375,251017.515625,257870.84375,250278.84375,221426.9375,242157.015625,239392.734375,225201.796875,55522.0,1.0,3
243458.703125,251048.8125,257888.890625,250318.625,221443.484375,242180.984375,239420.359375,225216.015625,55523.0,1.0,3
243547.390625,251163.96875,258013.078125,250395.34375,221643.21875,242227.828125,239714.15625,225232.90625,55524.0,1.0,3
243548.90625,251195.625,258066.8125,250399.453125,221745.671875,242227.5625,239867.125,225229.421875,55525.0,1.0,3
243456.375,251095.75,257968.734375,250322.03125,221601.546875,242177.765625,239655.6875,225205.375,55526.0,1.0,3
243413.28125,251015.640625,257865.296875,250275.359375,221422.296875,242151.296875,239389.15625,225195.796875,55527.0,1.0,3
243458.703125,251049.703125,257882.453125,250313.53125,221439.28125,242175.4375,239411.875,225212.078125,55528.0,1.0,3
243544.703125,251159.59375,258006.109375,250391.046875,221639.8125,242220.140625,239705.296875,225233.890625,55529.0,1.0,3
243553.375,251194.109375,258066.1875,250400.890625,221749.34375,242224.171875,239865.078125,225232.546875,55530.0,1.0,3
243469.515625,251101.921875,257975.265625,250328.015625,221612.734375,242185.359375,239659.890625,225211.1875,55531.0,1.0,3
243424.90625,251024.5,257870.75,250280.8125,221434.890625,242161.9375,239394.171875,225202.78125,55532.0,1.0,3
243463.34375,251052.390625,257885.234375,250317.734375,221445.265625,242181.703125,239410.890625,225215.203125,55533.0,1.0,3
243544.625,251156.734375,258007.453125,250391.578125,221640.171875,242222.921875,239701.734375,225234.78125,55534.0,1.0,3
243551.234375,251189.453125,258066.8125,250401.59375,221750.421875,242226.84375,239865.25,225232.734375,55535.0,1.0,3
243462.90625,251098.34375,257975.4375,250326.3125,221614.609375,242183.21875,239662.125,225210.46875,55536.0,1.0,3
243413.1875,251014.484375,257866.8125,250275.265625,221431.046875,242150.9375,239391.21875,225197.328125,55537.0,1.0,3
243456.28125,251045.78125,257879.421875,250312.109375,221442.40625,242175.0,239405.4375,225209.84375,55538.0,1.0,3
243545.15625,251156.734375,258002.078125,250390.328125,221637.578125,242222.828125,239696.1875,225232.109375,55539.0,1.0,3
243554.71875,251195.890625,258066.09375,250404.28125,221750.765625,242229.359375,239867.125,225234.0625,55540.0,1.0,3
243465.578125,251098.4375,257974.546875,250330.078125,221616.578125,242187.328125,239667.484375,225213.859375,55541.0,1.0,3
243417.75,251015.28125,257866.640625,250279.734375,221434.09375,242158.71875,239399.265625,225202.421875,55542.0,1.0,3
243458.875,251046.21875,257877.8125,250314.0625,221440.4375,242176.78125,239406.0625,225211.71875,55543.0,1.0,3
243544.703125,251158.15625,258002.890625,250392.03125,221637.3125,242221.65625,239696.28125,225234.0625,55544.0,1.0,3
243556.78125,251196.609375,258072.0,250406.25,221750.59375,242230.15625,239867.21875,225232.546875,55545.0,1.0,3
243469.96875,251103.796875,257981.609375,250331.765625,221613.625,242187.25,239665.609375,225209.390625,55546.0,1.0,3
243425.34375,251024.5,257876.734375,250285.1875,221435.4375,242161.3125,239399.71875,225201.875,55547.0,1.0,3
243467.375,251054.0,257892.390625,250324.4375,221446.796875,242184.109375,239412.5,225215.734375,55548.0,1.0,3
243550.4375,251161.734375,258013.703125,250400.96875,221640.265625,242227.921875,239703.25,225237.28125,55549.0,1.0,3
243561.515625,251201.171875,258077.546875,250411.171875,221754.34375,242233.828125,239874.640625,225239.34375,55550.0,1.0,3
243475.5,251106.484375,257984.828125,250333.5625,221618.453125,242189.484375,239676.6875,225216.453125,55551.0,1.0,3
243419.984375,251015.90625,257871.8125,250278.84375,221431.859375,242156.9375,239401.234375,225203.9375,55552.0,1.0,3
243457.984375,251041.65625,257879.0625,250313.53125,221440.0,242177.046875,239409.375,225216.09375,55553.0,1.0,3
243542.734375,251153.953125,258001.015625,250389.34375,221635.703125,242221.578125,239699.046875,225238.1875,55554.0,1.0,3
243550.25,251194.375,258063.328125,250399.28125,221746.390625,242222.5625,239866.140625,225235.5,55555.0,1.0,3
243453.25,251087.703125,257964.71875,250318.625,221602.453125,242168.375,239660.515625,225205.09375,55556.0,1.0,3
243405.40625,251004.828125,257855.28125,250266.859375,221416.921875,242135.921875,239385.578125,225191.6875,55557.0,1.0,3
243450.109375,251037.015625,257868.0625,250304.859375,221422.921875,242157.65625,239389.78125,225205.09375,55558.0,1.0,3
243536.65625,251150.46875,257991.53125,250384.515625,221619.171875,242200.203125,239679.109375,225225.84375,55559.0,1.0,3
243550.078125,251193.921875,258058.765625,250399.8125,221739.6875,242207.8125,239858.640625,225228.609375,55560.0,1.0,3
243462.546875,251101.203125,257972.578125,250327.03125,221612.015625,242170.078125,239665.34375,225209.84375,55561.0,1.0,3
243416.140625,251013.953125,257865.734375,250278.03125,221428.8125,242143.078125,239392.203125,225197.953125,55562.0,1.0,3
243456.28125,251039.875,257874.140625,250310.3125,221429.71875,242165.515625,239392.640625,225210.734375,55563.0,1.0,3
243540.234375,251152.265625,257993.0625,250385.234375,221619.703125,242208.796875,239677.859375,225231.296875,55564.0,1.0,3
243554.984375,251196.6875,258060.296875,250401.78125,221742.09375,242216.84375,239855.859375,225233.0,55565.0,1.0,3
243466.484375,251101.921875,257973.5625,250329.53125,221615.046875,242177.3125,239670.609375,225210.640625,55566.0,1.0,3
243415.34375,251014.9375,257863.0625,250277.046875,221431.59375,242148.265625,239399.984375,225198.21875,55567.0,1.0,3
243456.015625,251040.765625,257870.65625,250308.34375,221430.078125,242169.625,239397.46875,225210.5625,55568.0,1.0,3
243543.1875,251152.796875,257991.359375,250384.703125,221622.5625,242214.78125,239683.40625,225232.109375,55569.0,1.0,3
243555.796875,251191.953125,258059.75,250400.96875,221745.40625,242221.03125,239864.890625,225232.640625,55570.0,1.0,3
243471.65625,251099.0625,257975.0,250330.4375,221620.59375,242181.25,239677.234375,225209.921875,55571.0,1.0,3
243420.4375,251012.34375,257867.078125,250278.21875,221435.875,242148.625,239399.984375,225199.296875,55572.0,1.0,3
243459.6875,251035.3125,257870.5625,250310.40625,221434.265625,242171.6875,239393.984375,225214.671875,55573.0,1.0,3
243546.046875,251146.359375,257990.640625,250388.8125,221628.46875,242218.53125,239679.015625,225239.34375,55574.0,1.0,3
243562.140625,251193.46875,258064.21875,250405.359375,221752.734375,242227.390625,239864.8125,225240.234375,55575.0,1.0,3
243471.9375,251099.234375,257975.078125,250330.609375,221625.6875,242184.203125,239676.78125,225211.8125,55576.0,1.0,3
243414.796875,251008.40625,257862.796875,250277.6875,221437.140625,242153.71875,239396.3125,225199.296875,55577.0,1.0,3
243456.46875,251041.390625,257871.734375,250311.46875,221433.109375,242176.609375,239389.703125,225214.046875,55578.0,1.0,3
243544.4375,251155.203125,257994.046875,250389.890625,221624.625,242221.390625,239677.859375,225236.390625,55579.0,1.0,3
243565.984375,251202.421875,258070.21875,250408.84375,221752.375,242234.625,239869.453125,225239.4375,55580.0,1.0,3
243479.984375,251110.0625,257986.265625,250336.515625,221629.1875,242194.3125,239683.84375,225218.78125,55581.0,1.0,3
243423.390625,251016.359375,257872.625,250279.5625,221437.765625,242161.140625,239402.125,225202.421875,55582.0,1.0,3
243458.15625,251035.21875,257871.375,250309.953125,221426.5,242176.25,239386.65625,225214.40625,55583.0,1.0,3
243545.328125,251146.265625,257989.75,250389.4375,221618.265625,242218.984375,239670.53125,225235.765625,55584.0,1.0,3
243564.921875,251190.890625,258063.234375,250407.859375,221746.578125,242229.265625,239859.171875,225236.125,55585.0,1.0,3
243481.046875,251101.75,257981.078125,250334.0,221629.265625,242189.75,239682.140625,225213.6875,55586.0,1.0,3
243423.828125,251006.796875,257866.8125,250278.65625,221439.453125,242158.09375,239405.4375,225200.359375,55587.0,1.0,3
243460.125,251028.34375,257868.421875,250308.171875,221427.65625,242177.40625,239389.15625,225210.734375,55588.0,1.0,3
243543.375,251141.0,257984.46875,250385.0625,221616.84375,242220.5,239669.359375,225230.21875,55589.0,1.0,3
243562.140625,251191.59375,258058.5,250402.765625,221745.5,242231.40625,239863.28125,225232.375,55590.0,1.0,3
243481.40625,251105.671875,257978.75,250333.5625,221629.71875,242192.15625,239691.0,225213.5,55591.0,1.0,3
243427.234375,251014.84375,257864.578125,250279.296875,221440.796875,242161.578125,239412.234375,225200.1875,55592.0,1.0,3
243462.0,251034.515625,257862.515625,250307.8125,221427.125,242181.875,239391.125,225209.578125,55593.0,1.0,3
243543.71875,251142.328125,257979.109375,250385.234375,221612.1875,242220.328125,239667.75,225229.859375,55594.0,1.0,3
243570.90625,251200.625,258060.640625,250410.0,221744.78125,242230.515625,239865.875,225238.1875,55595.0,1.0,3
243487.75,251116.765625,257980.71875,250338.828125,221629.53125,242189.296875,239694.125,225218.6875,55596.0,1.0,3
243428.75,251022.078125,257865.734375,250280.8125,221439.28125,242153.796875,239413.21875,225200.453125,55597.0,1.0,3
243458.875,251039.96875,257863.234375,250306.640625,221422.296875,242168.28125,239385.578125,225209.84375,55598.0,1.0,3
243544.265625,251154.9375,257983.75,250385.234375,221614.34375,242214.875,239670.25,225236.125,55599.0,1.0,3
243569.03125,251211.53125,258061.265625,250407.5,221749.515625,242228.1875,239870.796875,225241.125,55600.0,1.0,3
243486.328125,251128.65625,257980.984375,250336.328125,221636.59375,242186.609375,239697.53125,225219.234375,55601.0,1.0,3
243428.484375,251037.8125,257865.03125,250278.390625,221445.625,242153.0,239416.25,225205.09375,55602.0,1.0,3
243460.21875,251056.0625,257861.625,250303.15625,221426.9375,242167.9375,239389.78125,225214.484375,55603.0,1.0,3
243544.703125,251163.4375,257982.5,250382.375,221616.125,242212.8125,239667.578125,225236.484375,55604.0,1.0,3
243565.984375,251216.0,258058.859375,250402.765625,221748.71875,242226.140625,239863.828125,225238.625,55605.0,1.0,3
243484.53125,251133.65625,257981.515625,250333.015625,221637.765625,242187.515625,239696.625,225218.875,55606.0,1.0,3
243426.15625,251039.703125,257867.703125,250276.78125,221448.484375,242155.0625,239417.5,225204.46875,55607.0,1.0,3
243453.328125,251047.203125,257859.296875,250300.484375,221424.96875,242167.84375,239383.625,225210.90625,55608.0,1.0,3
243540.15625,251153.0625,257976.96875,250380.140625,221613.53125,242215.046875,239659.625,225233.265625,55609.0,1.0,3
243566.875,251209.921875,258058.046875,250404.734375,221749.703125,242228.453125,239859.984375,225236.21875,55610.0,1.0,3
243485.515625,251126.875,257983.21875,250337.671875,221639.734375,242189.828125,239696.1875,225216.90625,55611.0,1.0,3
243432.328125,251032.0,257871.734375,250283.9375,221451.171875,242158.28125,239416.609375,225205.375,55612.0,1.0,3
243464.953125,251045.5,257863.859375,250305.84375,221429.890625,242172.9375,239383.53125,225214.046875,55613.0,1.0,3
243550.25,251148.328125,257979.640625,250382.90625,221615.140625,242217.28125,239658.1875,225237.734375,55614.0,1.0,3
243575.375,251198.484375,258061.71875,250407.5,221754.53125,242229.53125,239862.296875,225242.921875,55615.0,1.0,3
243492.671875,251115.421875,257985.09375,250336.78125,221643.3125,242188.671875,239701.1875,225219.3125,55616.0,1.0,3
243434.734375,251019.40625,257871.8125,250281.796875,221453.765625,242155.140625,239420.8125,225206.171875,55617.0,1.0,3
243464.6875,251033.265625,257861.265625,250304.953125,221428.375,242168.015625,239380.484375,225214.125,55618.0,1.0,3
243544.796875,251139.03125,257974.28125,250377.90625,221610.3125,242212.71875,239653.53125,225233.4375,55619.0,1.0,3
243573.3125,251199.109375,258058.328125,250403.390625,221749.25,242226.140625,239862.75,225237.28125,55620.0,1.0,3
243492.671875,251118.546875,257986.0,250336.78125,221643.390625,242188.578125,239706.375,225217.890625,55621.0,1.0,3
243433.21875,251024.5,257872.53125,250278.9375,221454.921875,242159.96875,239427.78125,225207.15625,55622.0,1.0,3
243459.140625,251032.8125,257858.9375,250299.140625,221423.984375,242172.125,239382.546875,225216.09375,55623.0,1.0,3
243549.890625,251146.8125,257979.28125,250381.75,221611.203125,242220.328125,239659.265625,225241.765625,55624.0,1.0,3
243578.5,251206.796875,258063.515625,250406.0625,221749.609375,242232.84375,239869.359375,225244.0,55625.0,1.0,3
243496.703125,251125.609375,257991.09375,250337.5,221643.578125,242196.0,239712.71875,225222.796875,55626.0,1.0,3
243431.078125,251025.21875,257872.359375,250276.15625,221447.140625,242160.0625,239424.390625,225206.0,55627.0,1.0,3
243453.25,251030.9375,257857.25,250294.484375,221414.515625,242170.34375,239378.96875,225212.078125,55628.0,1.0,3
243539.515625,251143.3125,257973.65625,250371.828125,221599.765625,242216.5625,239654.875,225236.296875,55629.0,1.0,3
243567.0625,251204.46875,258057.421875,250397.75,221742.015625,242230.609375,239865.875,225241.125,55630.0,1.0,3
243486.859375,251123.015625,257985.90625,250331.765625,221642.046875,242193.40625,239713.34375,225221.375,55631.0,1.0,3
243425.890625,251027.8125,257870.5625,250270.4375,221447.765625,242158.984375,239426.796875,225205.375,55632.0,1.0,3
243450.5625,251036.75,257857.96875,250292.078125,221413.53125,242170.25,239379.234375,225212.4375,55633.0,1.0,3
243530.84375,251140.015625,257969.90625,250367.53125,221593.234375,242211.5625,239649.875,225229.421875,55634.0,1.0,3
243564.203125,251202.78125,258057.96875,250396.0625,221740.3125,242230.875,239862.75,225235.5,55635.0,1.0,3
243478.90625,251115.6875,257984.921875,250326.671875,221633.921875,242191.71875,239708.515625,225212.4375,55636.0,1.0,3
243417.03125,251017.078125,257870.390625,250267.046875,221438.203125,242154.875,239422.328125,225198.21875,55637.0,1.0,3
243446.546875,251027.625,257860.546875,250286.890625,221405.125,242166.328125,239371.015625,225207.421875,55638.0,1.0,3
243533.796875,251136.703125,257977.953125,250364.140625,221586.265625,242212.984375,239643.796875,225228.796875,55639.0,1.0,3
243568.84375,251204.03125,258064.671875,250394.890625,221732.890625,242229.984375,239862.03125,225234.25,55640.0,1.0,3
243491.953125,251127.5,257992.875,250327.390625,221634.71875,242192.25,239714.328125,225214.125,55641.0,1.0,3
243429.015625,251027.0,257872.453125,250265.609375,221439.015625,242156.046875,239425.1875,225198.84375,55642.0,1.0,3
243453.78125,251032.453125,257859.125,250286.890625,221405.296875,242168.90625,239371.640625,225208.234375,55643.0,1.0,3
243541.84375,251141.796875,257974.734375,250365.296875,221591.890625,242217.28125,239642.1875,225233.984375,55644.0,1.0,3
243569.296875,251199.90625,258053.5,250386.75,221734.140625,242225.0625,239853.71875,225235.046875,55645.0,1.0,3
243485.34375,251117.484375,257979.734375,250319.171875,221633.5625,242185.546875,239705.21875,225210.90625,55646.0,1.0,3
243421.6875,251016.546875,257862.703125,250260.78125,221440.703125,242150.671875,239418.84375,225197.953125,55647.0,1.0,3
243448.0625,251022.078125,257847.953125,250281.53125,221407.265625,242164.984375,239364.21875,225207.96875,55648.0,1.0,3
243534.25,251131.96875,257961.859375,250360.46875,221588.859375,242213.265625,239632.53125,225230.84375,55649.0,1.0,3
243567.78125,251196.25,258048.125,250388.8125,221737.0,242230.34375,239852.921875,225236.84375,55650.0,1.0,3
243490.265625,251116.578125,257980.1875,250324.265625,221642.859375,242196.0,239711.203125,225216.71875,55651.0,1.0,3
243426.421875,251017.515625,257863.0625,250265.703125,221450.015625,242163.015625,239425.1875,225200.0,55652.0,1.0,3
243449.40625,251022.171875,257846.703125,250285.734375,221411.734375,242176.875,239370.75,225208.859375,55653.0,1.0,3
243536.578125,251127.84375,257960.515625,250363.78125,221593.234375,242220.765625,239639.046875,225230.84375,55654.0,1.0,3
243571.0,251190.171875,258046.515625,250390.59375,221740.140625,242231.140625,239857.203125,225234.25,55655.0,1.0,3
243489.984375,251110.59375,257979.734375,250324.34375,221646.703125,242191.71875,239717.640625,225216.09375,55656.0,1.0,3
243423.734375,251011.4375,257863.953125,250263.109375,221454.03125,242157.296875,239428.5,225199.296875,55657.0,1.0,3
243444.21875,251014.578125,257843.390625,250279.734375,221409.78125,242166.953125,239362.96875,225204.828125,55658.0,1.0,3
243532.28125,251127.046875,257958.09375,250358.6875,221588.859375,242212.71875,239630.46875,225230.3125,55659.0,1.0,3
243565.0,251192.578125,258049.65625,250390.328125,221742.1875,242233.375,239858.734375,225236.84375,55660.0,1.0,3
243486.859375,251120.34375,257982.59375,250324.625,221648.765625,242197.34375,239717.640625,225214.21875,55661.0,1.0,3
243422.671875,251022.171875,257866.359375,250262.65625,221453.234375,242162.03125,239428.671875,225200.1875,55662.0,1.0,3
243440.734375,251018.953125,257846.703125,250278.390625,221407.984375,242170.078125,239362.515625,225207.515625,55663.0,1.0,3
243527.546875,251127.84375,257960.0625,250354.921875,221585.453125,242213.703125,239628.421875,225231.75,55664.0,1.0,3
243564.109375,251199.46875,258048.75,250387.03125,221735.390625,242228.09375,239855.0625,225237.375,55665.0,1.0,3
243482.578125,251121.953125,257981.96875,250321.125,221643.75,242187.953125,239721.125,225215.65625,55666.0,1.0,3
243418.109375,251017.796875,257865.203125,250260.78125,221448.40625,242149.78125,239430.5625,225200.625,55667.0,1.0,3
243440.734375,251019.21875,257845.890625,250277.046875,221400.125,242162.203125,239360.734375,225205.09375,55668.0,1.0,3
243530.84375,251131.15625,257962.65625,250356.8125,221579.109375,242210.125,239627.96875,225228.796875,55669.0,1.0,3
243573.9375,251205.71875,258059.3125,250393.546875,221736.921875,242229.984375,239859.078125,225238.8125,55670.0,1.0,3
243494.8125,251125.078125,257992.78125,250329.625,221648.3125,242193.59375,239725.421875,225215.296875,55671.0,1.0,3
243429.375,251022.078125,257872.359375,250263.90625,221451.53125,242157.109375,239434.484375,225197.0625,55672.0,1.0,3
243456.375,251026.90625,257850.71875,250281.53125,221406.828125,242168.015625,239364.03125,225206.703125,55673.0,1.0,3
243543.8125,251131.609375,257962.921875,250360.109375,221582.78125,242215.234375,239626.8125,225228.53125,55674.0,1.0,3
243577.515625,251196.875,258053.9375,250391.046875,221736.375,242231.765625,239856.40625,225237.109375,55675.0,1.0,3
243500.625,251122.484375,257988.234375,250325.78125,221649.5625,242195.375,239727.296875,225217.078125,55676.0,1.0,3
243434.015625,251018.5,257866.546875,250261.3125,221452.953125,242156.21875,239435.65625,225199.921875,55677.0,1.0,3
243454.234375,251016.0,257842.5,250275.4375,221402.265625,242165.875,239359.296875,225208.5,55678.0,1.0,3
243538.1875,251122.046875,257951.921875,250351.796875,221579.5625,242211.203125,239618.671875,225232.8125,55679.0,1.0,3
243580.734375,251201.796875,258051.171875,250391.046875,221743.359375,242235.703125,239856.484375,225243.546875,55680.0,1.0,3
243502.859375,251130.4375,257990.1875,250330.609375,221660.46875,242199.765625,239732.84375,225222.796875,55681.0,1.0,3
243432.765625,251024.859375,257867.4375,250263.828125,221461.625,242157.828125,239439.765625,225202.859375,55682.0,1.0,3
243453.875,251023.421875,257843.75,250277.046875,221410.578125,242164.53125,239359.75,225209.03125,55683.0,1.0,3
243536.390625,251124.90625,257954.515625,250354.921875,221584.390625,242209.765625,239618.125,225231.390625,55684.0,1.0,3
243572.421875,251199.375,258046.875,250388.984375,221742.453125,242228.1875,239851.484375,225240.859375,55685.0,1.0,3
243494.1875,251131.609375,257986.34375,250327.75,221659.578125,242192.875,239732.65625,225217.890625,55686.0,1.0,3
243426.421875,251028.34375,257866.640625,250262.03125,221461.1875,242157.015625,239440.65625,225200.8125,55687.0,1.0,3
243446.546875,251026.46875,257844.109375,250276.609375,221408.875,242167.9375,239360.640625,225209.390625,55688.0,1.0,3
243529.78125,251128.296875,257950.859375,250350.1875,221577.40625,242207.8125,239614.734375,225230.3125,55689.0,1.0,3
243571.265625,251200.890625,258047.859375,250386.3125,221735.390625,242223.71875,239851.84375,225237.46875,55690.0,1.0,3
243496.078125,251127.9375,257986.703125,250323.09375,221651.890625,242184.828125,239729.625,225214.84375,55691.0,1.0,3
243426.6875,251022.625,257865.46875,250258.453125,221452.953125,242147.28125,239436.71875,225195.453125,55692.0,1.0,3
243447.609375,251020.390625,257844.640625,250276.25,221403.875,242162.65625,239360.734375,225208.859375,55693.0,1.0,3
243533.4375,251122.75,257953.1875,250352.78125,221575.359375,242206.546875,239612.671875,225230.5,55694.0,1.0,3
243577.796875,251198.03125,258049.03125,250387.734375,221733.96875,242228.90625,239848.4375,225236.21875,55695.0,1.0,3
243501.34375,251129.8125,257994.578125,250324.703125,221655.46875,242193.859375,239734.625,225217.0,55696.0,1.0,3
243428.484375,251024.234375,257874.328125,250259.703125,221460.921875,242154.609375,239447.359375,225200.359375,55697.0,1.0,3
243445.46875,251017.171875,257843.203125,250272.046875,221402.625,242160.6875,239359.5625,225205.8125,55698.0,1.0,3
243532.90625,251121.765625,257948.796875,250347.234375,221572.140625,242204.9375,239608.828125,225228.703125,55699.0,1.0,3
243574.921875,251196.15625,258046.96875,250384.078125,221733.609375,242222.640625,239850.234375,225237.90625,55700.0,1.0,3
243501.703125,251128.828125,257993.6875,250324.265625,221657.875,242186.34375,239739.375,225216.28125,55701.0,1.0,3
243434.734375,251028.515625,257875.125,250261.046875,221462.25,242154.96875,239450.765625,225203.21875,55702.0,1.0,3
243450.828125,251022.890625,257841.421875,250270.796875,221399.40625,242161.140625,239358.5,225205.28125,55703.0,1.0,3
243534.25,251123.5625,257943.609375,250346.875,221568.296875,242203.15625,239603.46875,225225.484375,55704.0,1.0,3
243573.046875,251193.03125,258039.546875,250382.90625,221728.953125,242219.875,239840.75,225232.8125,55705.0,1.0,3
243499.734375,251126.234375,257986.34375,250326.40625,221659.671875,242188.40625,239734.265625,225215.828125,55706.0,1.0,3
243431.875,251022.4375,257865.734375,250262.484375,221466.28125,242153.53125,239443.4375,225200.8125,55707.0,1.0,3
243446.0,251013.140625,257835.515625,250271.515625,221404.5,242161.84375,239352.421875,225203.21875,55708.0,1.0,3
243531.65625,251120.34375,257942.359375,250349.734375,221571.15625,242204.234375,239599.171875,225227.0,55709.0,1.0,3
243575.203125,251198.125,258043.65625,250392.125,221736.640625,242226.40625,239844.25,225237.734375,55710.0,1.0,3
243500.625,251132.234375,257990.640625,250332.75,221664.859375,242191.71875,239738.46875,225216.90625,55711.0,1.0,3
243432.859375,251029.765625,257874.234375,250268.828125,221470.125,242158.0,239449.6875,225200.265625,55712.0,1.0,3
243445.015625,251015.90625,257840.53125,250275.71875,221404.40625,242164.0,239353.578125,225203.40625,55713.0,1.0,3
243527.359375,251114.171875,257942.984375,250350.640625,221568.65625,242205.296875,239601.140625,225225.21875,55714.0,1.0,3
243573.9375,251195.078125,258042.765625,250389.078125,221733.703125,242228.015625,239849.34375,225235.046875,55715.0,1.0,3
243499.734375,251128.03125,257988.671875,250328.1875,221661.1875,242192.078125,239746.25,225213.59375,55716.0,1.0,3
243431.34375,251022.796875,257870.203125,250262.921875,221463.6875,242153.359375,239450.5,225194.734375,55717.0,1.0,3
243444.75,251011.71875,257834.359375,250268.109375,221392.515625,242158.546875,239349.90625,225195.625,55718.0,1.0,3
243526.46875,251109.34375,257937.171875,250344.828125,221557.921875,242202.171875,239597.125,225220.390625,55719.0,1.0,3
243571.359375,251187.671875,258037.140625,250384.796875,221726.546875,242221.9375,239843.703125,225232.1875,55720.0,1.0,3
243498.03125,251125.171875,257983.40625,250323.71875,221657.796875,242187.515625,239741.15625,225212.96875,55721.0,1.0,3
243430.09375,251024.671875,257865.921875,250258.09375,221461.8125,242149.609375,239448.890625,225198.65625,55722.0,1.0,3
243444.84375,251014.03125,257835.078125,250268.109375,221396.90625,242157.46875,239350.890625,225202.421875,55723.0,1.0,3
243531.828125,251120.34375,257944.0625,250346.078125,221565.078125,242204.765625,239598.828125,225227.625,55724.0,1.0,3
243581.359375,251201.796875,258045.359375,250388.640625,221731.640625,242225.6875,239847.109375,225237.46875,55725.0,1.0,3
243508.3125,251139.296875,257993.140625,250333.203125,221665.5625,242193.234375,239749.5625,225219.578125,55726.0,1.0,3
243435.453125,251030.671875,257871.8125,250266.140625,221469.3125,242156.390625,239456.03125,225202.421875,55727.0,1.0,3
243446.453125,251018.234375,257832.921875,250269.984375,221396.984375,242160.875,239347.671875,225203.578125,55728.0,1.0,3
243527.09375,251116.234375,257934.765625,250346.25,221560.421875,242204.5,239593.546875,225226.828125,55729.0,1.0,3
243580.03125,251200.890625,258040.625,250392.65625,221732.53125,242227.46875,239846.828125,225240.328125,55730.0,1.0,3
243503.9375,251136.25,257987.953125,250332.578125,221669.953125,242192.515625,239750.359375,225221.375,55731.0,1.0,3
243432.140625,251028.4375,257865.921875,250262.65625,221473.4375,242152.46875,239456.578125,225200.1875,55732.0,1.0,3
243447.796875,251016.09375,257830.328125,250266.953125,221401.640625,242156.046875,239347.046875,225202.6875,55733.0,1.0,3
243530.21875,251114.796875,257933.328125,250343.84375,221561.5,242200.03125,239585.40625,225225.21875,55734.0,1.0,3
243575.828125,251189.453125,258032.75,250385.953125,221728.15625,242221.578125,239836.015625,225234.875,55735.0,1.0,3
243510.5625,251131.0625,257987.78125,250331.234375,221670.9375,242192.609375,239748.9375,225216.453125,55736.0,1.0,3
243440.8125,251029.859375,257870.921875,250264.09375,221477.453125,242157.734375,239459.609375,225200.90625,55737.0,1.0,3
243446.546875,251012.0625,257830.0625,250267.578125,221400.65625,242160.6875,239350.0,225203.578125,55738.0,1.0,3
243524.40625,251106.21875,257928.0625,250341.609375,221556.84375,242204.671875,239590.0625,225224.5,55739.0,1.0,3
243579.21875,251192.140625,258035.703125,250386.84375,221730.390625,242229.53125,239848.625,225237.28125,55740.0,1.0,3
243511.625,251136.34375,257994.046875,250333.65625,221675.3125,242196.625,239762.609375,225221.734375,55741.0,1.0,3
243437.421875,251031.734375,257871.375,250264.8125,221475.75,242154.875,239464.171875,225200.09375,55742.0,1.0,3
243446.984375,251013.046875,257833.109375,250268.5625,221398.953125,242159.171875,239347.9375,225202.6875,55743.0,1.0,3
243533.078125,251116.9375,257937.0,250345.890625,221556.671875,242205.21875,239583.359375,225224.59375,55744.0,1.0,3
243583.953125,251200.0,258040.625,250390.328125,221726.0,242225.953125,239837.265625,225235.953125,55745.0,1.0,3
243518.328125,251144.125,257998.515625,250335.53125,221670.578125,242192.515625,239755.8125,225218.953125,55746.0,1.0,3
243440.375,251035.84375,257876.46875,250263.734375,221472.890625,242151.65625,239462.125,225199.375,55747.0,1.0,3
243451.453125,251018.5,257839.359375,250270.796875,221400.390625,242157.5625,239348.65625,225204.828125,55748.0,1.0,3
243529.0625,251113.71875,257938.15625,250342.59375,221557.203125,242200.5625,239579.78125,225226.296875,55749.0,1.0,3
243577.609375,251199.28125,258041.609375,250387.03125,221732.625,242226.40625,239837.625,225240.59375,55750.0,1.0,3
243505.8125,251136.796875,257991.453125,250329.984375,221673.96875,242189.921875,239754.125,225219.40625,55751.0,1.0,3
243435.8125,251036.65625,257872.359375,250265.4375,221479.78125,242155.328125,239466.953125,225205.375,55752.0,1.0,3
243443.140625,251020.203125,257831.59375,250269.71875,221403.78125,242161.3125,239350.890625,225208.046875,55753.0,1.0,3
243522.890625,251116.5,257930.734375,250345.0,221557.203125,242204.3125,239581.921875,225231.296875,55754.0,1.0,3
243576.8125,251200.0,258039.453125,250392.203125,221729.671875,242227.296875,239843.34375,225243.28125,55755.0,1.0,3
243505.546875,251138.3125,257997.703125,250340.0,221677.734375,242193.5,239766.546875,225224.6875,55756.0,1.0,3
243426.15625,251024.765625,257873.25,250270.796875,221478.171875,242151.75,239468.46875,225203.3125,55757.0,1.0,3
243434.734375,251005.453125,257829.078125,250270.34375,221395.46875,242152.46875,239344.8125,225205.546875,55758.0,1.0,3
243520.03125,251105.953125,257929.046875,250344.921875,221550.6875,242198.5,239577.1875,225227.625,55759.0,1.0,3
243574.484375,251191.515625,258038.65625,250392.203125,221729.5,242226.3125,239840.578125,225240.5,55760.0,1.0,3
243508.59375,251134.46875,258000.03125,250342.859375,221683.8125,242198.15625,239770.921875,225225.84375,55761.0,1.0,3
243431.78125,251026.828125,257876.46875,250270.53125,221483.71875,242157.5625,239476.515625,225205.09375,55762.0,1.0,3
243442.0625,251013.765625,257833.46875,250269.90625,221400.828125,242160.0625,239353.40625,225208.859375,55763.0,1.0,3
243519.9375,251110.234375,257929.484375,250340.09375,221553.546875,242204.5,239583.265625,225229.859375,55764.0,1.0,3
243569.03125,251193.296875,258035.703125,250384.15625,221726.28125,242228.1875,239841.296875,225236.65625,55765.0,1.0,3
243503.3125,251139.65625,257998.78125,250332.21875,221677.640625,242196.0,239766.375,225219.140625,55766.0,1.0,3
243430.453125,251037.1875,257878.703125,250262.578125,221480.234375,242152.28125,239471.78125,225199.734375,55767.0,1.0,3
243439.46875,251018.6875,257838.03125,250265.515625,221399.9375,242155.859375,239348.484375,225204.203125,55768.0,1.0,3
243520.65625,251111.9375,257934.5,250341.25,221552.46875,242200.828125,239575.21875,225228.609375,55769.0,1.0,3
243575.46875,251202.859375,258041.78125,250389.265625,221729.5,242228.453125,239841.46875,225242.390625,55770.0,1.0,3
243509.84375,251148.765625,258002.4375,250334.984375,221684.34375,242199.140625,239774.6875,225224.953125,55771.0,1.0,3
243436.171875,251041.484375,257880.046875,250264.8125,221487.65625,242159.796875,239482.40625,225205.1875,55772.0,1.0,3
243439.5625,251017.875,257834.8125,250264.984375,221397.53125,242158.28125,239352.234375,225207.96875,55773.0,1.0,3
243519.3125,251110.328125,257929.390625,250338.65625,221544.953125,242198.5,239572.0,225228.796875,55774.0,1.0,3
243572.78125,251194.8125,258035.171875,250386.40625,221723.859375,242225.328125,239834.140625,225240.5,55775.0,1.0,3
243507.15625,251138.578125,257994.21875,250334.546875,221677.8125,242192.34375,239768.421875,225222.265625,55776.0,1.0,3
243431.34375,251024.3125,257866.09375,250259.890625,221472.1875,242141.5625,239466.40625,225199.015625,55777.0,1.0,3
243436.265625,250996.515625,257818.359375,250259.359375,221382.140625,242140.921875,239330.0625,225198.21875,55778.0,1.0,3
243521.828125,251097.0,257920.015625,250337.21875,221533.875,242187.25,239554.921875,225220.5625,55779.0,1.0,3
243576.453125,251185.703125,258027.390625,250384.25,221711.25,242213.171875,239817.953125,225231.828125,55780.0,1.0,3
243513.859375,251134.734375,257989.21875,250333.734375,221670.578125,242182.5,239753.9375,225211.890625,55781.0,1.0,3
243443.046875,251033.265625,257874.0625,250264.984375,221477.546875,242145.046875,239464.703125,225196.34375,55782.0,1.0,3
243446.71875,251012.15625,257831.9375,250263.203125,221390.90625,242150.3125,239334.359375,225203.40625,55783.0,1.0,3
243526.296875,251108.71875,257928.328125,250336.875,221542.359375,242196.1875,239560.015625,225223.875,55784.0,1.0,3
243580.5625,251194.8125,258033.828125,250384.15625,221722.515625,242223.265625,239827.078125,225233.890625,55785.0,1.0,3
243518.328125,251147.34375,257998.515625,250334.453125,221683.625,242195.109375,239769.765625,225219.234375,55786.0,1.0,3
243439.03125,251038.53125,257873.703125,250263.109375,221484.4375,242155.5,239476.78125,225197.234375,55787.0,1.0,3
243437.953125,251010.640625,257820.59375,250260.15625,221389.75,242156.578125,239338.5625,225197.5,55788.0,1.0,3
243515.921875,251102.109375,257911.25,250332.484375,221533.421875,242198.15625,239552.859375,225220.921875,55789.0,1.0,3
243573.59375,251191.859375,258020.953125,250381.84375,221712.859375,242225.328125,239821.53125,225232.453125,55790.0,1.0,3
243514.125,251144.5625,257990.640625,250332.484375,221679.78125,242199.578125,239773.796875,225217.34375,55791.0,1.0,3
243436.796875,251036.484375,257868.953125,250259.078125,221481.921875,242156.046875,239479.640625,225196.078125,55792.0,1.0,3
243436.796875,251011.984375,257819.609375,250256.140625,221390.1875,242154.25,239342.578125,225198.84375,55793.0,1.0,3
243511.265625,251099.59375,257909.734375,250328.46875,221532.359375,242193.671875,239555.09375,225220.484375,55794.0,1.0,3
243567.953125,251187.84375,258019.875,250378.265625,221710.890625,242221.21875,239820.640625,225233.53125,55795.0,1.0,3
243511.890625,251148.0625,257994.578125,250336.328125,221682.828125,242198.6875,239774.953125,225221.828125,55796.0,1.0,3
243436.171875,251042.015625,257874.6875,250265.4375,221488.546875,242158.1875,239481.703125,225202.953125,55797.0,1.0,3
243437.6875,251012.421875,257822.015625,250260.515625,221391.984375,242157.296875,239337.84375,225205.28125,55798.0,1.0,3
243521.46875,251105.671875,257913.84375,250334.0,221536.375,242200.03125,239553.21875,225227.8125,55799.0,1.0,3
243577.15625,251192.765625,258023.09375,250383.265625,221717.0625,242225.515625,239824.3125,225238.1875,55800.0,1.0,3
243513.6875,251143.40625,257990.375,250334.09375,221684.515625,242199.484375,239774.859375,225219.765625,55801.0,1.0,3
243437.6875,251040.234375,257869.140625,250262.296875,221489.796875,242160.234375,239484.921875,225198.484375,55802.0,1.0,3
243436.796875,251010.90625,257816.75,250257.5625,221393.6875,242159.078125,239337.84375,225200.0,55803.0,1.0,3
243513.59375,251100.5,257908.125,250327.296875,221535.21875,242200.296875,239543.125,225220.5625,55804.0,1.0,3
243574.65625,251193.03125,258024.171875,250382.375,221720.640625,242233.640625,239818.046875,225236.75,55805.0,1.0,3
243512.609375,251144.5625,257991.71875,250334.625,221689.890625,242206.109375,239774.234375,225220.65625,55806.0,1.0,3
243431.4375,251034.953125,257867.4375,250260.25,221492.203125,242161.671875,239482.328125,225200.453125,55807.0,1.0,3
243434.734375,251008.671875,257813.34375,250254.796875,221392.25,242161.3125,239336.328125,225202.234375,55808.0,1.0,3
243511.625,251102.015625,257902.84375,250327.75,221531.375,242204.59375,239545.796875,225223.25,55809.0,1.0,3
243571.359375,251193.5625,258017.203125,250378.984375,221717.953125,242234.890625,239822.15625,225237.375,55810.0,1.0,3
243516.8125,251150.46875,257994.390625,250335.4375,221693.640625,242210.125,239784.34375,225225.125,55811.0,1.0,3
243435.8125,251039.515625,257868.78125,250259.890625,221496.046875,242163.8125,239490.734375,225203.765625,55812.0,1.0,3
243435.0,251014.21875,257812.625,250253.546875,221394.75,242161.84375,239338.5625,225207.421875,55813.0,1.0,3
243508.234375,251103.359375,257899.171875,250323.453125,221527.53125,242201.546875,239543.03125,225226.828125,55814.0,1.0,3
243567.0625,251195.078125,258012.71875,250375.140625,221710.625,242226.140625,239818.9375,225238.09375,55815.0,1.0,3
243509.921875,251153.78125,257988.5,250330.609375,221686.578125,242195.640625,239783.71875,225221.375,55816.0,1.0,3
243430.453125,251045.328125,257865.03125,250260.0625,221490.234375,242149.953125,239493.234375,225200.71875,55817.0,1.0,3
243432.765625,251022.53125,257812.0,250255.6875,221391.0,242149.953125,239344.1875,225202.59375,55818.0,1.0,3
243511.1875,251112.109375,257898.109375,250326.5,221528.0625,242191.0,239544.46875,225224.328125,55819.0,1.0,3
243570.1875,251201.609375,258009.328125,250377.375,221713.484375,242219.875,239818.578125,225239.875,55820.0,1.0,3
243513.859375,251159.6875,257987.0625,250335.171875,221693.015625,242197.53125,239789.609375,225227.453125,55821.0,1.0,3
243435.359375,251052.75,257865.375,250262.921875,221497.75,242155.59375,239502.0,225207.0625,55822.0,1.0,3
243431.34375,251022.890625,257807.625,250253.984375,221393.5,242151.21875,239343.5625,225207.15625,55823.0,1.0,3
243510.46875,251116.859375,257898.109375,250324.703125,221529.765625,242195.203125,239544.375,225230.5,55824.0,1.0,3
243567.5,251205.8125,258012.546875,250377.640625,221717.6875,242224.171875,239824.03125,225245.515625,55825.0,1.0,3
243508.765625,251163.53125,257988.578125,250334.625,221699.1875,242198.6875,239794.984375,225229.234375,55826.0,1.0,3
243430.453125,251056.765625,257866.546875,250259.890625,221503.828125,242153.359375,239502.796875,225205.375,55827.0,1.0,3
243432.328125,251024.9375,257811.109375,250251.3125,221397.96875,242151.390625,239344.09375,225207.15625,55828.0,1.0,3
243509.125,251108.625,257898.109375,250322.203125,221530.75,242194.21875,239543.03125,225229.6875,55829.0,1.0,3
243565.453125,251195.4375,258011.921875,250374.59375,221713.578125,242223.546875,239819.921875,225243.015625,55830.0,1.0,3
243509.21875,251151.71875,257990.1875,250329.09375,221693.015625,242199.40625,239790.78125,225226.640625,55831.0,1.0,3
243434.015625,251046.3125,257872.453125,250258.1875,221503.203125,242160.875,239504.765625,225212.25,55832.0,1.0,3
243429.1875,251012.0625,257814.6875,250247.109375,221395.921875,242156.046875,239345.984375,225211.359375,55833.0,1.0,3
243506.703125,251099.15625,257900.609375,250319.703125,221530.921875,242198.953125,239546.25,225231.921875,55834.0,1.0,3
243570.375,251193.65625,258013.984375,250376.5625,221720.734375,242228.90625,239825.640625,225247.5625,55835.0,1.0,3
243518.953125,251157.265625,257995.015625,250335.171875,221709.015625,242207.0,239805.4375,225234.421875,55836.0,1.0,3
243437.6875,251044.171875,257870.65625,250259.0,221514.203125,242162.921875,239512.359375,225212.609375,55837.0,1.0,3
243435.71875,251011.890625,257813.4375,250252.640625,221408.4375,242158.625,239346.515625,225213.328125,55838.0,1.0,3
243510.46875,251096.015625,257896.765625,250322.65625,221536.90625,242199.140625,239540.078125,225233.0,55839.0,1.0,3
243579.578125,251194.375,258014.515625,250379.96875,221727.796875,242229.53125,239823.046875,225249.0,55840.0,1.0,3
243528.34375,251158.78125,257998.328125,250339.015625,221713.84375,242206.46875,239804.640625,225234.15625,55841.0,1.0,3
243441.890625,251042.734375,257872.890625,250261.234375,221513.125,242160.6875,239510.390625,225211.265625,55842.0,1.0,3
243434.734375,251001.96875,257809.40625,250248.4375,221394.84375,242152.46875,239340.796875,225207.34375,55843.0,1.0,3
243513.6875,251095.84375,257897.03125,250322.828125,221526.71875,242197.703125,239538.65625,225231.921875,55844.0,1.0,3
243570.375,251189.359375,258009.6875,250375.578125,221713.765625,242225.0625,239816.703125,225244.265625,55845.0,1.0,3
243517.078125,251154.046875,257993.765625,250335.4375,221702.84375,242201.90625,239801.6875,225231.65625,55846.0,1.0,3
243433.671875,251040.40625,257872.171875,250258.28125,221509.203125,242156.390625,239512.0,225210.28125,55847.0,1.0,3
243425.96875,251005.546875,257807.53125,250243.078125,221394.578125,242149.6875,239341.421875,225206.53125,55848.0,1.0,3
243500.1875,251091.375,257889.34375,250310.765625,221519.484375,242187.25,239529.890625,225225.671875,55849.0,1.0,3
243561.703125,251183.1875,258002.078125,250365.296875,221703.65625,242216.390625,239809.828125,225238.359375,55850.0,1.0,3
243514.125,251154.140625,257992.25,250329.09375,221699.09375,242200.75,239800.96875,225227.90625,55851.0,1.0,3
243431.15625,251042.46875,257872.796875,250250.59375,221506.0625,242159.265625,239517.1875,225206.703125,55852.0,1.0,3
243423.03125,251004.828125,257808.96875,250237.453125,221386.890625,242150.859375,239349.734375,225203.140625,55853.0,1.0,3
243499.375,251094.953125,257895.609375,250309.953125,221515.453125,242196.890625,239542.140625,225226.5625,55854.0,1.0,3
243560.984375,251190.171875,258013.171875,250365.296875,221704.015625,242223.09375,239818.21875,225238.09375,55855.0,1.0,3
243506.078125,251151.71875,257994.9375,250322.390625,221691.859375,242194.65625,239803.65625,225221.015625,55856.0,1.0,3
243428.65625,251047.828125,257877.453125,250251.3125,221500.515625,242155.140625,239520.328125,225203.046875,55857.0,1.0,3
243419.53125,251006.796875,257811.828125,250238.4375,221383.40625,242150.140625,239344.375,225202.515625,55858.0,1.0,3
243494.90625,251092.453125,257893.015625,250306.828125,221508.75,242193.5,239528.09375,225224.40625,55859.0,1.0,3
243563.484375,251190.703125,258011.109375,250366.640625,221699.28125,242225.78125,239810.984375,225237.5625,55860.0,1.0,3
243517.171875,251158.421875,257999.140625,250331.6875,221696.59375,242200.921875,239802.3125,225227.8125,55861.0,1.0,3
243437.15625,251049.0,257878.34375,250256.671875,221505.265625,242155.5,239514.15625,225208.859375,55862.0,1.0,3
243428.21875,251007.6875,257814.59375,250242.546875,221390.828125,242149.515625,239341.421875,225207.609375,55863.0,1.0,3
243502.6875,251090.65625,257893.1875,250312.015625,221514.734375,242191.09375,239523.890625,225228.078125,55864.0,1.0,3
243568.21875,251186.328125,258007.453125,250370.578125,221705.53125,242223.984375,239805.34375,225240.859375,55865.0,1.0,3
243518.78125,251155.390625,257994.484375,250333.828125,221704.734375,242203.15625,239802.578125,225227.1875,55866.0,1.0,3
243439.03125,251044.609375,257873.25,250258.015625,221515.359375,242161.765625,239516.203125,225209.65625,55867.0,1.0,3
243427.40625,250998.75,257802.53125,250239.234375,221393.328125,242151.921875,239335.703125,225204.921875,55868.0,1.0,3
243501.796875,251084.40625,257878.171875,250307.359375,221512.140625,242192.078125,239511.203125,225226.828125,55869.0,1.0,3
243568.671875,251184.984375,257997.34375,250368.515625,221709.109375,242226.84375,239799.1875,225244.171875,55870.0,1.0,3
243519.40625,251152.96875,257983.3125,250330.34375,221707.234375,242204.5,239798.46875,225229.421875,55871.0,1.0,3
243437.59375,251042.203125,257863.59375,250253.890625,221516.609375,242160.953125,239515.5,225207.609375,55872.0,1.0,3
243429.1875,251000.796875,257799.125,250240.578125,221397.890625,242154.15625,239337.84375,225206.53125,55873.0,1.0,3
243502.59375,251085.109375,257879.78125,250311.296875,221518.84375,242197.078125,239516.5625,225229.59375,55874.0,1.0,3
243566.96875,251180.78125,257996.71875,250367.4375,221707.765625,242227.828125,239800.609375,225242.828125,55875.0,1.0,3
243522.984375,251154.765625,257988.671875,250333.015625,221709.734375,242204.59375,239803.03125,225228.34375,55876.0,1.0,3
243447.171875,251053.375,257873.34375,250262.125,221524.578125,242164.71875,239523.453125,225212.34375,55877.0,1.0,3
243435.625,251010.109375,257804.9375,250245.578125,221401.546875,242153.0,239341.234375,225208.859375,55878.0,1.0,3
243502.6875,251084.046875,257879.15625,250308.796875,221511.703125,242186.609375,239507.984375,225223.875,55879.0,1.0,3
243569.921875,251181.859375,258000.390625,250369.859375,221706.96875,242220.40625,239795.609375,225238.71875,55880.0,1.0,3
243528.34375,251160.9375,257998.953125,250337.3125,221713.484375,242202.171875,239808.125,225228.609375,55881.0,1.0,3
243444.03125,251051.234375,257877.28125,250257.828125,221518.84375,242155.59375,239523.265625,225206.265625,55882.0,1.0,3
243432.5,251009.921875,257809.765625,250242.09375,221393.859375,242148.078125,239339.359375,225203.140625,55883.0,1.0,3
243503.484375,251089.046875,257887.5625,250311.125,221508.84375,242189.125,239513.265625,225224.953125,55884.0,1.0,3
243571.359375,251187.125,258006.5625,250369.859375,221701.421875,242217.1875,239798.28125,225238.1875,55885.0,1.0,3
243524.859375,251161.015625,258000.296875,250336.515625,221709.5625,242195.109375,239806.6875,225226.375,55886.0,1.0,3
243440.546875,251053.546875,257881.46875,250261.046875,221520.90625,242152.90625,239525.421875,225206.078125,55887.0,1.0,3
243422.9375,251002.859375,257810.21875,250240.9375,221393.5,242140.296875,239337.125,225202.421875,55888.0,1.0,3
243494.46875,251080.28125,257886.03125,250305.484375,221508.125,242178.125,239506.015625,225223.78125,55889.0,1.0,3
243565.1875,251180.78125,258006.203125,250368.34375,221706.421875,242216.296875,239796.5,225244.171875,55890.0,1.0,3
243524.328125,251157.71875,258000.203125,250337.578125,221716.4375,242198.421875,239809.828125,225232.8125,55891.0,1.0,3
243438.3125,251048.71875,257875.578125,250258.015625,221523.859375,242153.453125,239523.1875,225207.875,55892.0,1.0,3
243430.0,251013.140625,257810.75,250243.796875,221402.171875,242150.859375,239338.921875,225206.078125,55893.0,1.0,3
243500.625,251092.71875,257883.4375,250309.515625,221512.6875,242187.0625,239504.5,225226.375,55894.0,1.0,3
243566.703125,251189.453125,258000.296875,250366.46875,221705.890625,242219.34375,239795.875,225242.109375,55895.0,1.0,3
243520.21875,251160.390625,257992.875,250332.9375,221713.765625,242197.25,239808.921875,225226.828125,55896.0,1.0,3
243432.5,251047.921875,257871.8125,250255.859375,221521.890625,242150.765625,239525.5,225204.5625,55897.0,1.0,3
243418.28125,251004.640625,257798.6875,250235.125,221393.140625,242139.671875,239335.15625,225202.421875,55898.0,1.0,3
243492.671875,251086.015625,257872.984375,250299.234375,221505.984375,242180.09375,239499.484375,225223.515625,55899.0,1.0,3
243561.0625,251180.78125,257991.984375,250357.515625,221699.90625,242212.1875,239786.3125,225234.96875,55900.0,1.0,3
243523.15625,251161.828125,257992.515625,250328.375,221714.65625,242196.8125,239807.40625,225223.875,55901.0,1.0,3
243439.390625,251051.40625,257873.34375,250252.46875,221524.9375,242152.1875,239527.65625,225203.046875,55902.0,1.0,3
243425.53125,251003.484375,257799.9375,250235.03125,221393.40625,242139.953125,239331.5,225198.03125,55903.0,1.0,3
243493.484375,251077.78125,257870.203125,250300.5625,221499.890625,242178.296875,239490.640625,225221.015625,55904.0,1.0,3
243561.875,251176.484375,257989.921875,250361.8125,221691.046875,242209.421875,239780.5,225235.859375,55905.0,1.0,3
243525.21875,251157.984375,257994.578125,250336.0625,221710.453125,242191.984375,239808.65625,225222.359375,55906.0,1.0,3
243441.265625,251048.453125,257880.5,250262.125,221527.796875,242151.84375,239529.890625,225202.6875,55907.0,1.0,3
243422.21875,251000.453125,257807.453125,250238.78125,221397.078125,242143.703125,239337.03125,225198.125,55908.0,1.0,3
243490.796875,251073.84375,257877.1875,250301.640625,221502.765625,242184.109375,239494.296875,225216.90625,55909.0,1.0,3
243558.828125,251174.25,257993.859375,250361.09375,221695.609375,242213.96875,239782.828125,225233.625,55910.0,1.0,3
243520.921875,251162.0,257998.6875,250333.46875,221718.859375,242199.578125,239813.390625,225226.828125,55911.0,1.0,3
243432.234375,251052.578125,257880.578125,250257.921875,221531.375,242156.671875,239535.515625,225205.09375,55912.0,1.0,3
243413.734375,251003.9375,257804.671875,250234.140625,221395.46875,242143.609375,239336.328125,225198.21875,55913.0,1.0,3
243480.6875,251079.578125,257868.15625,250290.734375,221495.609375,242176.6875,239487.15625,225216.640625,55914.0,1.0,3
243552.578125,251182.125,257990.1875,250355.640625,221692.921875,242214.875,239783.71875,225235.765625,55915.0,1.0,3
243511.359375,251162.90625,257993.140625,250327.5625,221712.59375,242199.9375,239816.4375,225223.96875,55916.0,1.0,3
243425.0,251052.390625,257874.234375,250248.890625,221524.390625,242152.1875,239537.75,225201.34375,55917.0,1.0,3
243404.609375,250998.75,257796.0,250226.359375,221388.046875,242134.5,239336.765625,225196.25,55918.0,1.0,3
243480.15625,251079.84375,257869.40625,250295.65625,221496.046875,242174.71875,239492.0625,225220.125,55919.0,1.0,3
243560.890625,251190.078125,257997.078125,250363.0625,221699.90625,242218.09375,239789.53125,225240.421875,55920.0,1.0,3
243522.53125,251169.96875,257998.421875,250334.546875,221718.859375,242199.140625,239822.78125,225227.625,55921.0,1.0,3
243434.5625,251056.6875,257878.96875,250257.5625,221532.078125,242153.53125,239543.125,225205.375,55922.0,1.0,3
243416.234375,251003.578125,257801.8125,250236.546875,221396.71875,242139.40625,239340.796875,225197.6875,55923.0,1.0,3
243486.859375,251077.6875,257867.890625,250295.65625,221493.734375,242171.59375,239489.03125,225214.125,55924.0,1.0,3
243564.109375,251183.90625,257993.0625,250361.546875,221692.84375,242207.71875,239781.75,225233.0,55925.0,1.0,3
243531.75,251170.9375,258002.265625,250339.453125,221721.171875,242195.5625,239821.359375,225227.28125,55926.0,1.0,3
243445.734375,251058.65625,257883.625,250261.765625,221533.875,242151.125,239544.90625,225205.546875,55927.0,1.0,3
243422.84375,251001.515625,257802.890625,250237.359375,221395.015625,242137.265625,239341.15625,225202.234375,55928.0,1.0,3
243491.25,251076.078125,257865.03125,250299.5,221493.1875,242175.4375,239485.359375,225221.015625,55929.0,1.0,3
243568.578125,251181.859375,257987.328125,250364.5,221692.5625,242213.34375,239778.171875,225236.84375,55930.0,1.0,3
243536.9375,251172.46875,257997.171875,250340.4375,221722.4375,242199.3125,239818.578125,225227.71875,55931.0,1.0,3
243445.734375,251059.546875,257878.96875,250260.25,221537.453125,242156.125,239545.359375,225206.171875,55932.0,1.0,3
243422.21875,251003.84375,257799.3125,250235.921875,221397.53125,242142.53125,239342.84375,225202.859375,55933.0,1.0,3
243488.65625,251074.125,257863.59375,250297.625,221494.265625,242178.84375,239483.578125,225221.546875,55934.0,1.0,3
243558.296875,251175.859375,257985.71875,250361.28125,221691.671875,242215.140625,239773.96875,225235.5,55935.0,1.0,3
243527.453125,251168.890625,257999.046875,250340.171875,221725.734375,242203.15625,239820.1875,225227.28125,55936.0,1.0,3
243438.578125,251057.84375,257881.390625,250262.296875,221540.40625,242158.1875,239545.53125,225205.09375,55937.0,1.0,3
243417.75,251006.703125,257800.65625,250236.828125,221399.40625,242144.59375,239337.84375,225200.0,55938.0,1.0,3
243488.828125,251082.4375,257865.734375,250300.75,221496.765625,242184.5625,239482.328125,225223.34375,55939.0,1.0,3
243565.890625,251187.578125,257988.234375,250364.671875,221693.90625,242220.59375,239775.21875,225237.28125,55940.0,1.0,3
243529.15625,251169.78125,257996.359375,250337.21875,221722.78125,242202.890625,239819.75,225226.921875,55941.0,1.0,3
243443.046875,251058.921875,257879.78125,250260.0625,221541.375,242157.734375,239548.578125,225206.890625,55942.0,1.0,3
243422.578125,251004.296875,257799.3125,250236.640625,221401.546875,242145.671875,239340.34375,225204.46875,55943.0,1.0,3
243488.734375,251075.546875,257861.625,250295.828125,221493.1875,242178.75,239476.25,225220.484375,55944.0,1.0,3
243560.265625,251177.203125,257981.875,250359.84375,221689.4375,242211.65625,239766.375,225236.484375,55945.0,1.0,3
243525.390625,251164.328125,257992.703125,250339.375,221721.71875,242198.234375,239816.078125,225230.21875,55946.0,1.0,3
243443.140625,251058.296875,257881.828125,250264.09375,221541.5625,242158.1875,239548.84375,225211.1875,55947.0,1.0,3
243419.984375,251001.703125,257802.53125,250239.6875,221400.03125,242143.078125,239339.453125,225207.96875,55948.0,1.0,3
243484.8125,251071.4375,257865.109375,250296.90625,221491.140625,242177.9375,239475.796875,225222.984375,55949.0,1.0,3
243567.15625,251181.140625,257992.609375,250367.359375,221697.125,242221.65625,239777.8125,225244.4375,55950.0,1.0,3
243534.0625,251168.703125,258000.03125,250342.59375,221733.25,242207.359375,239829.21875,225233.4375,55951.0,1.0,3
243447.4375,251059.359375,257880.9375,250262.296875,221550.859375,242159.796875,239557.78125,225210.828125,55952.0,1.0,3
243421.5,251002.0625,257796.984375,250234.234375,221405.75,242144.0625,239343.828125,225205.734375,55953.0,1.0,3
243484.8125,251069.921875,257858.9375,250294.671875,221497.84375,242182.140625,239478.296875,225227.453125,55954.0,1.0,3
243563.75,251182.296875,257984.828125,250362.890625,221698.203125,242222.109375,239772.0,225244.703125,55955.0,1.0,3
243532.375,251176.046875,258001.8125,250341.25,221736.5625,242210.75,239828.234375,225236.125,55956.0,1.0,3
243444.21875,251066.78125,257887.28125,250261.234375,221554.875,242167.484375,239561.0,225216.71875,55957.0,1.0,3
243422.484375,251009.5625,257803.6875,250233.78125,221406.828125,242152.828125,239344.09375,225212.078125,55958.0,1.0,3
243491.515625,251082.4375,257865.921875,250297.265625,221495.15625,242188.21875,239474.453125,225231.03125,55959.0,1.0,3
243567.0625,251186.0625,257991.09375,250363.59375,221697.484375,242226.140625,239771.28125,225248.28125,55960.0,1.0,3
243532.1875,251173.1875,258001.453125,250335.796875,221731.46875,242208.34375,239826.71875,225233.265625,55961.0,1.0,3
243444.75,251066.96875,257885.5,250255.15625,221550.046875,242160.875,239558.671875,225211.71875,55962.0,1.0,3
243423.03125,251015.375,257804.859375,250230.03125,221407.984375,242149.328125,239345.171875,225208.765625,55963.0,1.0,3
243485.34375,251079.390625,257858.859375,250286.625,221488.71875,242181.15625,239469.625,225223.4375,55964.0,1.0,3
243561.703125,251184.796875,257980.625,250353.046875,221685.859375,242219.96875,239768.0625,225241.40625,55965.0,1.0,3
243530.84375,251176.9375,257995.5625,250334.546875,221724.9375,242205.84375,239830.109375,225232.375,55966.0,1.0,3
243437.328125,251060.96875,257878.171875,250254.25,221543.625,242157.5625,239559.84375,225207.515625,55967.0,1.0,3
243414.0,251002.6875,257794.390625,250228.953125,221398.515625,242142.890625,239343.109375,225203.40625,55968.0,1.0,3
243477.46875,251067.6875,257851.171875,250287.78125,221483.171875,242178.125,239467.296875,225224.59375,55969.0,1.0,3
243554.1875,251172.734375,257975.078125,250355.015625,221683.625,242215.234375,239765.296875,225243.71875,55970.0,1.0,3
243533.0,251173.53125,257998.953125,250341.34375,221733.25,242208.25,239836.46875,225238.453125,55971.0,1.0,3
243440.546875,251060.890625,257880.40625,250260.25,221553.0,242163.453125,239568.78125,225212.875,55972.0,1.0,3
243408.359375,250994.90625,257791.265625,250228.234375,221400.484375,242145.21875,239347.3125,225204.5625,55973.0,1.0,3
243473.359375,251057.671875,257846.25,250285.8125,221478.890625,242178.21875,239466.5,225224.59375,55974.0,1.0,3
243550.703125,251168.171875,257972.046875,250351.078125,221680.140625,242215.859375,239765.03125,225240.59375,55975.0,1.0,3
243527.546875,251170.5,257996.546875,250333.5625,221728.515625,242205.484375,239837.453125,225233.890625,55976.0,1.0,3
243440.8125,251063.390625,257883.625,250254.078125,221551.65625,242160.515625,239572.796875,225209.84375,55977.0,1.0,3
243415.25,251003.9375,257799.21875,250224.65625,221403.96875,242146.921875,239351.796875,225204.203125,55978.0,1.0,3
243475.0625,251064.015625,257848.84375,250280.453125,221479.0625,242178.296875,239464.796875,225220.921875,55979.0,1.0,3
243557.046875,251178.09375,257974.734375,250352.609375,221681.84375,242219.609375,239763.421875,225243.1875,55980.0,1.0,3
243536.21875,251178.359375,258000.46875,250340.359375,221733.515625,242212.015625,239838.96875,225240.234375,55981.0,1.0,3
243448.0625,251070.09375,257888.625,250264.53125,221560.609375,242169.1875,239578.796875,225220.21875,55982.0,1.0,3
243418.46875,251004.5625,257799.578125,250229.671875,221406.90625,242150.046875,239350.8125,225208.859375,55983.0,1.0,3
243482.75,251064.734375,257852.59375,250285.375,221481.921875,242184.203125,239463.453125,225225.671875,55984.0,1.0,3
243563.03125,251176.84375,257980.1875,250357.515625,221684.171875,242226.9375,239764.140625,225245.15625,55985.0,1.0,3
243540.234375,251178.984375,258004.046875,250344.015625,221737.359375,242219.15625,239842.984375,225238.890625,55986.0,1.0,3
243450.921875,251068.125,257889.4375,250262.125,221560.15625,242168.28125,239575.75,225212.4375,55987.0,1.0,3
243425.265625,251008.9375,257802.171875,250231.546875,221409.59375,242153.09375,239349.90625,225206.265625,55988.0,1.0,3
243484.453125,251068.3125,257852.953125,250290.46875,221487.375,242188.140625,239466.59375,225230.21875,55989.0,1.0,3
243565.09375,251173.984375,257977.953125,250358.328125,221686.3125,242222.375,239766.734375,225247.390625,55990.0,1.0,3
243545.78125,251177.03125,258002.4375,250345.453125,221738.53125,242211.65625,239843.703125,225235.953125,55991.0,1.0,3
243454.046875,251065.0,257885.859375,250263.640625,221556.9375,242161.3125,239574.140625,225208.859375,55992.0,1.0,3
243427.578125,251005.0,257801.1875,250236.90625,221406.375,242149.328125,239350.890625,225207.15625,55993.0,1.0,3
243486.765625,251064.015625,257850.8125,250292.515625,221479.609375,242183.484375,239459.796875,225223.609375,55994.0,1.0,3
243559.640625,251171.84375,257971.328125,250357.515625,221678.265625,242218.890625,239753.5,225239.703125,55995.0,1.0,3
243536.390625,251173.8125,257997.609375,250344.203125,221735.21875,242212.453125,239835.84375,225235.234375,55996.0,1.0,3
243448.6875,251068.03125,257883.703125,250263.203125,221558.015625,242165.15625,239574.59375,225211.53125,55997.0,1.0,3
243420.703125,251005.625,257796.265625,250232.796875,221406.203125,242146.828125,239346.609375,225205.1875,55998.0,1.0,3
243486.0625,251070.90625,257848.21875,250292.4375,221482.734375,242185.28125,239458.09375,225225.671875,55999.0,1.0,3
243558.75,251172.546875,257970.53125,250358.0625,221682.375,242220.953125,239754.296875,225242.203125,56000.0,1.0,3
243535.140625,251173.359375,257994.046875,250342.046875,221734.59375,242207.265625,239833.421875,225235.953125,56001.0,1.0,3
243452.4375,251070.0,257886.484375,250265.25,221561.859375,242163.90625,239576.640625,225214.671875,56002.0,1.0,3
243425.625,251006.796875,257797.609375,250234.3125,221406.640625,242148.625,239347.046875,225205.015625,56003.0,1.0,3
243489.90625,251070.09375,257848.65625,250290.734375,221475.40625,242182.765625,239451.65625,225224.953125,56004.0,1.0,3
243565.984375,251175.328125,257974.09375,250361.359375,221677.375,242221.484375,239750.015625,225243.015625,56005.0,1.0,3
243550.515625,251187.484375,258006.015625,250351.078125,221740.046875,242217.640625,239844.15625,225235.5,56006.0,1.0,3
243459.0625,251079.84375,257892.65625,250270.078125,221566.0625,242170.34375,239586.296875,225212.4375,56007.0,1.0,3
243425.078125,251013.328125,257801.8125,250236.015625,221411.296875,242154.96875,239355.8125,225208.40625,56008.0,1.0,3
243484.984375,251070.71875,257847.046875,250289.921875,221478.34375,242189.921875,239458.546875,225228.34375,56009.0,1.0,3
243564.28125,251177.828125,257968.640625,250357.78125,221677.453125,242230.875,239756.359375,225248.46875,56010.0,1.0,3
243542.46875,251181.578125,257997.96875,250344.375,221739.515625,242225.421875,239849.421875,225242.03125,56011.0,1.0,3
243449.3125,251066.078125,257882.90625,250262.84375,221563.828125,242177.671875,239593.546875,225214.578125,56012.0,1.0,3
243415.515625,250997.578125,257788.5,250226.890625,221402.890625,242151.921875,239355.8125,225205.546875,56013.0,1.0,3
243470.953125,251052.21875,257826.140625,250275.890625,221460.296875,242174.015625,239443.703125,225218.78125,56014.0,1.0,3
243550.34375,251161.46875,257947.015625,250344.5625,221658.6875,242210.9375,239738.03125,225233.078125,56015.0,1.0,3
243532.28125,251166.828125,257978.65625,250334.453125,221721.359375,242202.984375,239830.921875,225227.453125,56016.0,1.0,3
243447.796875,251065.0,257873.25,250260.96875,221555.6875,242161.5,239580.671875,225208.234375,56017.0,1.0,3
243416.5,251001.078125,257779.8125,250224.390625,221393.140625,242137.625,239340.4375,225194.734375,56018.0,1.0,3
243475.59375,251058.734375,257827.46875,250279.5625,221458.59375,242172.484375,239438.0625,225214.21875,56019.0,1.0,3
243555.890625,251170.234375,257952.90625,250349.296875,221660.46875,242213.703125,239739.09375,225236.65625,56020.0,1.0,3
243536.84375,251178.28125,257987.0625,250341.15625,221727.609375,242208.703125,239838.796875,225234.25,56021.0,1.0,3
243448.421875,251076.796875,257882.453125,250265.875,221563.640625,242168.28125,239587.90625,225212.96875,56022.0,1.0,3
243417.21875,251010.546875,257795.203125,250231.453125,221406.203125,242150.140625,239352.6875,225206.703125,56023.0,1.0,3
243477.03125,251065.890625,257838.734375,250284.203125,221465.390625,242182.0625,239446.296875,225225.75,56024.0,1.0,3
243554.09375,251174.4375,257963.640625,250354.21875,221667.71875,242223.984375,239744.640625,225243.375,56025.0,1.0,3
243533.890625,251178.546875,257996.1875,250343.390625,221735.125,242214.515625,239839.953125,225236.390625,56026.0,1.0,3
243448.421875,251075.640625,257888.984375,250264.984375,221568.5625,242170.078125,239589.796875,225214.21875,56027.0,1.0,3
243416.234375,251008.84375,257797.078125,250229.84375,221407.890625,242150.140625,239352.421875,225206.265625,56028.0,1.0,3
243474.875,251064.734375,257838.921875,250284.03125,221468.96875,242181.96875,239442.53125,225224.5,56029.0,1.0,3
243558.125,251175.328125,257965.609375,250358.859375,221672.90625,242223.453125,239743.75,225245.78125,56030.0,1.0,3
243546.3125,251187.75,258001.640625,250351.265625,221742.375,242218.453125,239848.625,225240.5,56031.0,1.0,3
243455.03125,251079.125,257892.296875,250272.046875,221571.875,242170.515625,239599.0,225215.203125,56032.0,1.0,3
243417.921875,251001.875,257795.28125,250234.140625,221409.0625,242146.03125,239357.953125,225204.828125,56033.0,1.0,3
243472.28125,251049.703125,257831.5,250280.0,221466.375,242174.640625,239439.59375,225219.40625,56034.0,1.0,3
243557.3125,251164.953125,257956.21875,250352.25,221667.265625,242217.640625,239738.03125,225239.96875,56035.0,1.0,3
243540.6875,251175.953125,257990.46875,250342.59375,221734.859375,242212.546875,239842.640625,225233.0,56036.0,1.0,3
243450.109375,251072.328125,257882.28125,250262.484375,221570.4375,242169.890625,239599.265625,225210.734375,56037.0,1.0,3
243411.84375,250999.734375,257786.34375,250225.015625,221406.640625,242150.671875,239356.96875,225203.3125,56038.0,1.0,3
243465.765625,251054.890625,257820.953125,250271.875,221457.25,242180.171875,239434.484375,225217.53125,56039.0,1.0,3
243549.0,251166.03125,257945.484375,250344.921875,221659.3125,242223.546875,239736.59375,225240.234375,56040.0,1.0,3
243535.859375,251179.890625,257984.828125,250337.84375,221733.703125,242218.53125,239844.328125,225237.015625,56041.0,1.0,3
243444.578125,251068.125,257876.921875,250257.75,221569.640625,242171.5,239599.09375,225211.265625,56042.0,1.0,3
243409.34375,250996.25,257779.546875,250219.296875,221406.828125,242149.15625,239353.40625,225202.15625,56043.0,1.0,3
243468.0,251048.8125,257814.515625,250267.671875,221456.796875,242176.78125,239429.578125,225220.03125,56044.0,1.0,3
243549.265625,251160.484375,257940.125,250341.15625,221659.671875,242219.703125,239730.34375,225242.46875,56045.0,1.0,3
243543.28125,251179.53125,257987.6875,250341.609375,221742.546875,242222.109375,239850.6875,225242.65625,56046.0,1.0,3
243448.328125,251065.171875,257876.203125,250258.71875,221572.765625,242173.5625,239604.984375,225215.65625,56047.0,1.0,3
243413.453125,250993.65625,257777.140625,250218.5,221404.953125,242148.4375,239356.53125,225205.28125,56048.0,1.0,3
243468.796875,251047.921875,257816.203125,250267.84375,221459.65625,242180.171875,239436.015625,225224.328125,56049.0,1.0,3
243545.328125,251156.640625,257938.96875,250337.140625,221659.40625,242220.859375,239733.640625,225242.46875,56050.0,1.0,3
243532.546875,251172.203125,257979.203125,250330.25,221734.140625,242217.640625,239850.765625,225237.203125,56051.0,1.0,3
243440.375,251065.796875,257871.28125,250251.03125,221568.65625,242166.765625,239607.671875,225210.734375,56052.0,1.0,3
243403.890625,250996.78125,257775.34375,250212.40625,221400.203125,242140.21875,239357.328125,225199.5625,56053.0,1.0,3
243458.703125,251050.15625,257809.5,250259.984375,221445.359375,242163.734375,239428.59375,225216.546875,56054.0,1.0,3
243546.671875,251168.265625,257939.5,250337.40625,221652.515625,242209.234375,239732.21875,225240.59375,56055.0,1.0,3
243540.0625,251191.0625,257982.5,250333.65625,221733.703125,242211.46875,239852.015625,225238.1875,56056.0,1.0,3
243446.8125,251088.875,257877.625,250254.703125,221573.390625,242167.484375,239613.03125,225214.671875,56057.0,1.0,3
243403.09375,251013.859375,257776.515625,250211.609375,221403.421875,242140.84375,239362.421875,225203.765625,56058.0,1.0,3
243456.828125,251063.75,257813.34375,250263.640625,221455.1875,242172.21875,239435.828125,225221.109375,56059.0,1.0,3
243538.625,251173.09375,257933.6875,250332.9375,221654.75,242210.046875,239728.546875,225237.734375,56060.0,1.0,3
243538.359375,251201.4375,257979.109375,250332.390625,221740.671875,242212.09375,239852.015625,225235.328125,56061.0,1.0,3
243448.859375,251099.859375,257875.578125,250255.5,221581.171875,242168.640625,239616.4375,225212.96875,56062.0,1.0,3
243405.953125,251022.703125,257778.484375,250217.6875,221411.5625,242145.046875,239365.203125,225205.546875,56063.0,1.0,3
243461.109375,251070.90625,257816.5625,250268.921875,221460.015625,242177.046875,239433.953125,225223.703125,56064.0,1.0,3
243542.65625,251176.21875,257943.34375,250342.328125,221663.953125,242220.234375,239731.671875,225244.0,56065.0,1.0,3
243535.5,251193.828125,257985.8125,250338.125,221745.9375,242215.40625,239853.90625,225237.5625,56066.0,1.0,3
243450.46875,251093.421875,257883.078125,250260.96875,221586.984375,242171.5,239617.59375,225214.21875,56067.0,1.0,3
243416.234375,251019.84375,257788.765625,250223.59375,221421.84375,242152.828125,239369.046875,225209.578125,56068.0,1.0,3
243470.5,251060.53125,257822.5625,250270.171875,221466.09375,242181.875,239433.6875,225223.703125,56069.0,1.0,3
243552.84375,251169.25,257951.21875,250343.484375,221669.234375,242226.40625,239733.46875,225246.40625,56070.0,1.0,3
243546.3125,251186.140625,257997.078125,250341.421875,221754.625,242224.078125,239860.0625,225242.109375,56071.0,1.0,3
243463.078125,251089.140625,257895.421875,250265.15625,221600.921875,242179.90625,239628.0625,225219.859375,56072.0,1.0,3
243423.65625,251013.140625,257794.578125,250220.90625,221430.609375,242151.921875,239372.359375,225208.234375,56073.0,1.0,3
243478.375,251057.75,257827.203125,250268.03125,221473.515625,242182.328125,239434.40625,225225.84375,56074.0,1.0,3
243565.546875,251172.46875,257954.609375,250344.015625,221676.203125,242227.03125,239736.0625,225246.671875,56075.0,1.0,3
243561.875,251195.53125,258001.015625,250344.109375,221760.078125,242225.953125,239864.890625,225243.375,56076.0,1.0,3
243471.125,251091.375,257896.5,250267.046875,221601.375,242178.65625,239628.0625,225220.75,56077.0,1.0,3
243430.171875,251016.265625,257796.8125,250225.375,221428.28125,242153.09375,239373.25,225212.34375,56078.0,1.0,3
243482.578125,251063.75,257830.15625,250271.421875,221466.546875,242182.328125,239432.4375,225228.53125,56079.0,1.0,3
243565.453125,251172.203125,257955.59375,250345.0,221667.53125,242226.40625,239729.53125,225248.734375,56080.0,1.0,3
243561.78125,251201.515625,258002.4375,250345.453125,221754.625,242224.609375,239858.1875,225244.703125,56081.0,1.0,3
243471.578125,251103.4375,257903.734375,250270.703125,221600.65625,242180.984375,239632.96875,225223.4375,56082.0,1.0,3
243426.875,251024.3125,257802.703125,250226.8125,221428.546875,242153.796875,239379.59375,225212.515625,56083.0,1.0,3
243479.984375,251068.125,257832.03125,250269.0,221462.609375,242178.5625,239430.828125,225224.765625,56084.0,1.0,3
243563.21875,251181.140625,257956.046875,250343.390625,221660.46875,242218.53125,239723.984375,225245.15625,56085.0,1.0,3
243551.765625,251200.1875,258000.921875,250342.859375,221746.296875,242216.03125,239856.40625,225239.4375,56086.0,1.0,3
243464.25,251099.515625,257899.984375,250265.15625,221592.34375,242171.59375,239627.515625,225216.71875,56087.0,1.0,3
243426.6875,251026.015625,257800.46875,250222.96875,221420.765625,242148.625,239375.03125,225205.09375,56088.0,1.0,3
243471.84375,251061.421875,257825.15625,250262.921875,221455.640625,242171.859375,239425.28125,225217.4375,56089.0,1.0,3
243554.1875,251170.5,257948.703125,250337.671875,221654.921875,242213.53125,239721.75,225240.5,56090.0,1.0,3
243552.3125,251195.890625,258000.46875,250338.65625,221744.875,242211.921875,239858.28125,225237.734375,56091.0,1.0,3
243462.640625,251090.484375,257897.84375,250257.5625,221587.421875,242163.1875,239626.625,225212.078125,56092.0,1.0,3
243418.5625,251005.71875,257793.953125,250212.5,221410.671875,242137.890625,239367.875,225200.90625,56093.0,1.0,3
243472.015625,251053.546875,257823.359375,250258.71875,221446.15625,242168.90625,239422.78125,225218.25,56094.0,1.0,3
243554.8125,251168.265625,257952.375,250332.578125,221649.125,242218.09375,239720.765625,225237.5625,56095.0,1.0,3
243551.234375,251194.375,258002.078125,250331.59375,221738.796875,242216.5625,239856.046875,225232.109375,56096.0,1.0,3
243455.65625,251084.84375,257893.8125,250251.390625,221579.640625,242164.078125,239626.265625,225209.84375,56097.0,1.0,3
243415.609375,251005.453125,257791.984375,250209.8125,221407.984375,242138.6875,239370.921875,225201.796875,56098.0,1.0,3
243465.40625,251043.890625,257815.671875,250252.921875,221442.3125,242167.84375,239417.40625,225217.34375,56099.0,1.0,3
243553.828125,251161.203125,257940.484375,250329.625,221643.9375,242213.265625,239714.328125,225238.71875,56100.0,1.0,3
243551.234375,251187.671875,257992.4375,250332.046875,221739.0625,242211.03125,239852.46875,225234.875,56101.0,1.0,3
243464.421875,251089.046875,257892.734375,250253.09375,221591.71875,242165.34375,239629.671875,225211.8125,56102.0,1.0,3
243420.4375,251007.328125,257788.578125,250209.375,221415.59375,242138.515625,239370.75,225203.3125,56103.0,1.0,3
243469.15625,251047.921875,257813.703125,250256.484375,221447.328125,242168.28125,239414.375,225221.828125,56104.0,1.0,3
243555.53125,251162.1875,257940.484375,250334.984375,221652.78125,242215.765625,239712.375,225243.375,56105.0,1.0,3
243556.953125,251192.40625,257991.984375,250340.4375,221750.5,242215.3125,239853.265625,225238.8125,56106.0,1.0,3
243467.375,251089.140625,257892.109375,250263.28125,221602.453125,242173.828125,239632.078125,225213.859375,56107.0,1.0,3
243424.015625,251008.578125,257787.6875,250217.0625,221425.25,242151.296875,239374.671875,225205.375,56108.0,1.0,3
243472.46875,251050.0625,257810.484375,250259.4375,221450.90625,242179.546875,239413.75,225222.171875,56109.0,1.0,3
243553.828125,251158.78125,257936.375,250335.34375,221652.0625,242227.921875,239714.6875,225244.265625,56110.0,1.0,3
243554.0,251186.6875,257988.578125,250337.84375,221750.140625,242229.359375,239864.71875,225240.234375,56111.0,1.0,3
243466.203125,251088.59375,257888.09375,250259.53125,221599.765625,242181.25,239640.125,225215.46875,56112.0,1.0,3
243419.8125,251003.84375,257781.609375,250211.96875,221419.4375,242149.609375,239372.53125,225202.421875,56113.0,1.0,3
243472.015625,251040.765625,257806.734375,250256.9375,221446.703125,242173.65625,239412.9375,225218.875,56114.0,1.0,3
243559.015625,251150.65625,257934.140625,250333.828125,221647.234375,242213.890625,239711.109375,225241.578125,56115.0,1.0,3
243564.109375,251186.59375,257990.015625,250338.828125,221746.65625,242214.6875,239859.265625,225239.25,56116.0,1.0,3
243475.421875,251090.203125,257894.265625,250263.203125,221601.734375,242171.328125,239641.640625,225217.0,56117.0,1.0,3
243424.90625,251006.609375,257788.046875,250215.71875,221422.296875,242143.703125,239378.96875,225204.390625,56118.0,1.0,3
243468.625,251043.546875,257808.078125,250255.78125,221442.765625,242167.21875,239414.734375,225216.1875,56119.0,1.0,3
243552.671875,251159.234375,257932.703125,250329.984375,221641.609375,242211.375,239712.546875,225235.5,56120.0,1.0,3
243551.421875,251184.796875,257985.640625,250334.453125,221742.015625,242210.9375,239860.34375,225231.46875,56121.0,1.0,3
243461.46875,251087.703125,257889.4375,250257.296875,221596.015625,242166.328125,239645.046875,225209.296875,56122.0,1.0,3
243418.015625,251012.78125,257791.53125,250214.828125,221421.390625,242141.90625,239385.3125,225207.875,56123.0,1.0,3
243461.296875,251046.140625,257810.125,250253.8125,221439.09375,242165.34375,239411.421875,225221.90625,56124.0,1.0,3
243545.78125,251161.109375,257935.484375,250331.859375,221639.28125,242209.5,239706.203125,225241.9375,56125.0,1.0,3
243552.046875,251198.484375,257996.625,250341.0625,221748.8125,242212.359375,239861.40625,225239.796875,56126.0,1.0,3
243464.421875,251099.78125,257903.734375,250267.21875,221606.5625,242169.625,239648.078125,225217.171875,56127.0,1.0,3
243415.78125,251012.875,257796.359375,250218.21875,221425.421875,242138.421875,239381.65625,225207.78125,56128.0,1.0,3
243465.40625,251050.328125,257818.171875,250261.5,221447.0625,242166.5,239411.875,225223.875,56129.0,1.0,3
243549.359375,251162.625,257942.625,250335.4375,221644.921875,242211.203125,239705.296875,225243.375,56130.0,1.0,3
243553.015625,251195.890625,257998.328125,250342.671875,221749.15625,242214.0625,239862.296875,225242.828125,56131.0,1.0,3
243462.546875,251096.015625,257902.21875,250264.890625,221608.703125,242171.6875,239651.578125,225218.609375,56132.0,1.0,3
243415.515625,251010.453125,257796.453125,250214.828125,221426.859375,242143.4375,239381.5625,225204.46875,56133.0,1.0,3
243460.390625,251041.75,257812.1875,250249.703125,221442.140625,242166.59375,239403.375,225215.03125,56134.0,1.0,3
243545.78125,251152.796875,257933.421875,250323.8125,221639.546875,242211.203125,239699.140625,225234.6875,56135.0,1.0,3
243548.546875,251187.03125,257991.71875,250332.484375,221747.546875,242214.59375,239859.171875,225235.765625,56136.0,1.0,3
243459.953125,251089.234375,257896.578125,250256.40625,221606.734375,242170.34375,239650.40625,225214.9375,56137.0,1.0,3
243410.421875,251001.875,257786.171875,250208.65625,221423.984375,242143.515625,239382.640625,225203.765625,56138.0,1.0,3
243454.046875,251036.296875,257801.71875,250247.8125,221438.921875,242168.375,239404.8125,225219.578125,56139.0,1.0,3
243539.171875,251150.296875,257926.265625,250323.359375,221637.3125,242212.453125,239699.765625,225242.203125,56140.0,1.0,3
243550.96875,251188.015625,257991.796875,250334.625,221748.0,242220.953125,239866.59375,225240.15625,56141.0,1.0,3
243461.828125,251092.0,257898.109375,250259.171875,221607.546875,242174.71875,239655.59375,225215.109375,56142.0,1.0,3
243411.3125,251005.0,257790.640625,250209.1875,221423.984375,242144.859375,239384.78125,225202.421875,56143.0,1.0,3
243457.453125,251038.171875,257807.09375,250248.0,221437.21875,242167.65625,239404.359375,225217.265625,56144.0,1.0,3
243545.421875,251151.453125,257928.5,250324.265625,221631.953125,242208.609375,239694.21875,225237.90625,56145.0,1.0,3
243553.375,251187.390625,257991.796875,250336.953125,221743.078125,242214.78125,239861.671875,225239.96875,56146.0,1.0,3
243466.921875,251089.3125,257898.90625,250261.140625,221604.859375,242171.78125,239660.15625,225216.1875,56147.0,1.0,3
243419.984375,251004.203125,257792.15625,250211.96875,221421.671875,242142.984375,239387.46875,225202.234375,56148.0,1.0,3
243462.0,251032.8125,257804.9375,250247.734375,221428.46875,242159.4375,239396.671875,225215.390625,56149.0,1.0,3
243553.46875,251148.5,257931.359375,250326.671875,221626.40625,242201.09375,239692.609375,225239.875,56150.0,1.0,3
243561.421875,251186.140625,257992.96875,250339.015625,221736.921875,242205.75,239860.25,225241.125,56151.0,1.0,3
243476.765625,251095.578125,257904.28125,250267.484375,221606.296875,242168.734375,239659.53125,225221.1875,56152.0,1.0,3
243426.25,251007.234375,257794.578125,250215.453125,221426.578125,242140.125,239386.75,225207.25,56153.0,1.0,3
243468.09375,251039.0625,257807.796875,250250.859375,221434.1875,242163.1875,239398.734375,225218.78125,56154.0,1.0,3
243553.375,251151.71875,257931.1875,250329.0,221630.78125,242209.421875,239693.234375,225242.65625,56155.0,1.0,3
243563.484375,251191.421875,257996.28125,250339.375,221745.765625,242215.859375,239862.75,225241.3125,56156.0,1.0,3
243474.25,251098.96875,257902.390625,250261.3125,221610.671875,242171.421875,239660.421875,225217.078125,56157.0,1.0,3
243426.328125,251016.0,257795.640625,250212.40625,221429.71875,242144.953125,239390.59375,225207.0625,56158.0,1.0,3
243468.890625,251046.671875,257808.515625,250249.25,221437.84375,242168.90625,239401.59375,225220.5625,56159.0,1.0,3
243554.359375,251157.53125,257932.890625,250328.015625,221635.34375,242217.109375,239694.578125,225243.546875,56160.0,1.0,3
243562.59375,251193.203125,257994.046875,250336.78125,221749.796875,242219.875,239862.484375,225241.046875,56161.0,1.0,3
243471.578125,251098.4375,257901.140625,250261.671875,221614.25,242172.484375,239662.03125,225218.515625,56162.0,1.0,3
243415.25,251008.140625,257789.390625,250207.671875,221427.203125,242139.40625,239387.28125,225203.765625,56163.0,1.0,3
243454.859375,251036.390625,257798.234375,250242.546875,221430.96875,242162.03125,239394.171875,225216.8125,56164.0,1.0,3
