FZ,C3,CZ,C4,PZ,PO7,OZ,PO8,Counter,Validation,Label
232663.078125,283256.59375,357796.375,327669.625,257344.765625,280587.53125,252398.234375,254463.0,19536.0,1.0,4
233508.15625,284723.34375,359872.84375,328383.4375,258956.0625,281441.90625,252962.21875,255318.171875,19537.0,1.0,4
233812.9375,285002.09375,360140.4375,328423.5,259353.390625,281702.09375,252992.515625,255376.46875,19538.0,1.0,4
233150.515625,283696.9375,358210.875,327728.96875,257979.90625,281002.3125,252449.640625,254556.515625,19539.0,1.0,4
232421.046875,282595.875,356731.71875,327252.625,256723.75,280301.4375,252078.515625,253984.9375,19540.0,1.0,4
232657.4375,283253.9375,357775.71875,327664.15625,257342.625,280586.125,252399.046875,254465.140625,19541.0,1.0,4
233508.859375,284729.78125,359856.9375,328378.34375,258958.65625,281441.75,252960.875,255317.90625,19542.0,1.0,4
233820.8125,285024.1875,360143.9375,328424.65625,259375.375,281713.25,253008.171875,255391.484375,19543.0,1.0,4
233162.140625,283726.25,358222.75,327728.34375,258006.90625,281019.5625,252473.6875,254574.9375,19544.0,1.0,4
232437.234375,282621.625,356731.28125,327243.21875,256738.765625,280316.28125,252098.546875,253997.453125,19545.0,1.0,4
232671.484375,283271.375,357760.96875,327652.53125,257347.359375,280596.3125,252413.171875,254469.53125,19546.0,1.0,4
233525.046875,284748.8125,359846.84375,328375.84375,258966.609375,281456.65625,252981.34375,255326.140625,19547.0,1.0,4
233836.984375,285047.0625,360147.78125,328426.34375,259388.96875,281729.0,253024.703125,255402.125,19548.0,1.0,4
233176.1875,283746.90625,358231.96875,327734.34375,258027.296875,281035.75,252484.6875,254589.0625,19549.0,1.0,4
232439.015625,282625.46875,356724.03125,327247.625,256750.125,280323.875,252099.4375,254006.21875,19550.0,1.0,4
232659.671875,283255.09375,357734.15625,327649.15625,257339.3125,280590.03125,252408.25,254476.140625,19551.0,1.0,4
233510.109375,284733.34375,359823.75,328371.1875,258955.078125,281453.09375,252975.171875,255331.234375,19552.0,1.0,4
233835.5625,285050.03125,360145.09375,328429.125,259394.328125,281736.78125,253028.46875,255417.15625,19553.0,1.0,4
233185.921875,283758.0,358238.125,327739.53125,258043.75,281053.0,252494.703125,254605.328125,19554.0,1.0,4
232447.515625,282630.65625,356718.9375,327246.71875,256762.375,280339.625,252107.84375,254012.65625,19555.0,1.0,4
232662.53125,283250.15625,357708.75,327640.46875,257340.203125,280596.65625,252418.984375,254475.875,19556.0,1.0,4
233518.703125,284731.5625,359801.3125,328364.5625,258959.1875,281458.625,252998.6875,255348.671875,19557.0,1.0,4
233848.25,285056.09375,360140.09375,328426.8125,259408.453125,281747.15625,253049.03125,255438.078125,19558.0,1.0,4
233200.140625,283768.71875,358238.9375,327736.59375,258061.359375,281065.40625,252513.21875,254626.96875,19559.0,1.0,4
232463.78125,282638.4375,356707.75,327238.3125,256770.859375,280349.90625,252127.0625,254031.515625,19560.0,1.0,4
232671.484375,283248.125,357687.03125,327629.75,257337.4375,280606.40625,252433.109375,254483.65625,19561.0,1.0,4
233525.140625,284732.09375,359785.84375,328356.09375,258957.125,281470.0625,253005.578125,255350.625,19562.0,1.0,4
233866.3125,285075.40625,360144.375,328428.15625,259421.78125,281761.1875,253058.5,255451.9375,19563.0,1.0,4
233221.953125,283798.25,358251.09375,327742.125,258082.8125,281082.5,252528.5,254645.921875,19564.0,1.0,4
232482.203125,282657.59375,356705.59375,327237.59375,256782.578125,280356.0625,252133.859375,254037.421875,19565.0,1.0,4
232686.234375,283256.34375,357669.0625,327623.46875,257336.890625,280599.0,252429.796875,254479.890625,19566.0,1.0,4
233528.625,284733.875,359767.625,328348.125,258957.125,281455.78125,253004.953125,255348.578125,19567.0,1.0,4
233872.484375,285090.625,360149.75,328427.96875,259440.109375,281766.625,253082.640625,255459.984375,19568.0,1.0,4
233232.953125,283820.78125,358268.25,327747.125,258109.546875,281090.09375,252548.265625,254652.1875,19569.0,1.0,4
232487.84375,282673.6875,356711.3125,327241.625,256800.71875,280361.4375,252153.703125,254041.890625,19570.0,1.0,4
232681.484375,283262.25,357656.4375,327624.46875,257340.65625,280605.34375,252456.625,254482.3125,19571.0,1.0,4
233527.90625,284746.5625,359760.375,328355.0,258962.859375,281470.625,253038.65625,255359.65625,19572.0,1.0,4
233876.78125,285112.59375,360155.375,328438.78125,259455.9375,281779.78125,253112.421875,255481.171875,19573.0,1.0,4
233243.953125,283850.1875,358280.875,327753.5625,258132.53125,281111.71875,252576.875,254669.34375,19574.0,1.0,4
232497.40625,282697.46875,356710.4375,327241.71875,256816.90625,280385.125,252174.265625,254050.46875,19575.0,1.0,4
232690.515625,283275.5625,357639.375,327617.03125,257346.90625,280625.625,252465.46875,254487.140625,19576.0,1.0,4
233542.390625,284763.28125,359738.8125,328342.75,258964.46875,281487.4375,253034.8125,255360.203125,19577.0,1.0,4
233905.734375,285147.3125,360152.5,328435.75,259473.453125,281807.78125,253112.15625,255489.296875,19578.0,1.0,4
233277.65625,283889.34375,358286.84375,327759.8125,258158.734375,281143.46875,252585.28125,254694.296875,19579.0,1.0,4
232525.03125,282725.4375,356704.875,327245.90625,256833.71875,280411.9375,252183.5625,254079.265625,19580.0,1.0,4
232704.203125,283289.6875,357609.5,327611.40625,257343.328125,280636.53125,252466.90625,254506.71875,19581.0,1.0,4
233549.1875,284774.28125,359708.53125,328336.3125,258960.34375,281498.59375,253041.78125,255376.375,19582.0,1.0,4
233913.875,285165.8125,360139.375,328429.9375,259480.34375,281829.84375,253125.109375,255511.203125,19583.0,1.0,4
233290.625,283915.28125,358282.03125,327753.75,258173.296875,281171.1875,252597.4375,254718.609375,19584.0,1.0,4
232542.734375,282746.8125,356690.6875,327237.0625,256839.265625,280438.3125,252190.0,254095.890625,19585.0,1.0,4
232725.75,283302.28125,357584.46875,327598.34375,257331.984375,280655.21875,252469.765625,254513.15625,19586.0,1.0,4
233563.84375,284780.28125,359686.15625,328325.3125,258942.828125,281510.65625,253050.734375,255386.9375,19587.0,1.0,4
233935.421875,285188.6875,360138.375,328430.1875,259476.3125,281846.125,253143.4375,255530.078125,19588.0,1.0,4
233313.515625,283944.40625,358289.375,327753.5625,258173.390625,281187.8125,252615.84375,254736.9375,19589.0,1.0,4
232556.59375,282768.1875,356682.8125,327225.09375,256827.015625,280442.96875,252199.484375,254103.859375,19590.0,1.0,4
232733.53125,283318.5625,357563.90625,327584.15625,257315.265625,280661.21875,252483.265625,254522.015625,19591.0,1.0,4
233571.984375,284796.65625,359670.25,328316.65625,258932.546875,281515.6875,253059.21875,255400.25,19592.0,1.0,4
233937.921875,285205.0625,360136.34375,328424.84375,259473.453125,281852.84375,253152.65625,255550.28125,19593.0,1.0,4
233322.265625,283966.6875,358296.0625,327751.59375,258179.015625,281197.5625,252624.171875,254756.703125,19594.0,1.0,4
232568.21875,282786.6875,356681.90625,327222.65625,256833.09375,280456.75,252212.0,254122.625,19595.0,1.0,4
232722.265625,283308.90625,357543.53125,327574.40625,257306.953125,280663.53125,252484.328125,254530.40625,19596.0,1.0,4
233558.03125,284784.75,359648.78125,328302.78125,258919.21875,281515.0625,253053.859375,255400.96875,19597.0,1.0,4
233942.671875,285213.5625,360138.03125,328422.6875,259480.78125,281866.15625,253152.390625,255559.125,19598.0,1.0,4
233336.046875,283986.0,358312.875,327755.8125,258200.390625,281222.34375,252629.53125,254775.203125,19599.0,1.0,4
232570.71875,282785.6875,356682.8125,327216.5,256842.484375,280470.875,252207.34375,254132.015625,19600.0,1.0,4
232719.484375,283290.21875,357527.875,327559.09375,257301.9375,280667.1875,252476.734375,254527.734375,19601.0,1.0,4
233557.765625,284770.0,359638.78125,328289.5625,258918.78125,281526.59375,253059.671875,255401.5,19602.0,1.0,4
233945.078125,285208.09375,360141.53125,328410.25,259493.3125,281879.65625,253164.71875,255561.71875,19603.0,1.0,4
233333.265625,283973.84375,358317.15625,327739.875,258214.15625,281228.40625,252636.0625,254771.8125,19604.0,1.0,4
232562.21875,282762.90625,356675.03125,327198.34375,256849.625,280473.375,252207.796875,254119.859375,19605.0,1.0,4
232703.84375,283260.1875,357499.4375,327536.75,257294.609375,280656.03125,252468.15625,254512.078125,19606.0,1.0,4
233544.359375,284746.3125,359608.5625,328270.15625,258909.75,281506.90625,253040.984375,255385.859375,19607.0,1.0,4
233939.984375,285200.9375,360129.53125,328396.21875,259496.96875,281868.84375,253149.703125,255552.421875,19608.0,1.0,4
233344.625,283987.78125,358319.75,327734.15625,258232.3125,281230.375,252635.34375,254775.484375,19609.0,1.0,4
232567.859375,282771.3125,356662.4375,327186.46875,256854.015625,280468.28125,252205.390625,254111.90625,19610.0,1.0,4
232694.8125,283253.3125,357470.3125,327518.96875,257281.203125,280650.75,252470.46875,254497.15625,19611.0,1.0,4
233535.15625,284741.84375,359583.625,328252.375,258894.09375,281498.0625,253042.40625,255371.734375,19612.0,1.0,4
233939.890625,285208.8125,360119.875,328382.8125,259490.171875,281856.6875,253147.109375,255546.4375,19613.0,1.0,4
233349.453125,284004.21875,358317.0625,327721.375,258231.0625,281223.3125,252629.53125,254770.65625,19614.0,1.0,4
232568.03125,282781.40625,356652.59375,327175.46875,256851.59375,280467.375,252206.28125,254116.640625,19615.0,1.0,4
232694.359375,283256.34375,357444.5625,327501.34375,257267.34375,280633.9375,252456.078125,254492.234375,19616.0,1.0,4
233529.609375,284740.59375,359556.53125,328233.875,258880.859375,281483.5,253030.609375,255366.09375,19617.0,1.0,4
233933.015625,285215.96875,360111.84375,328374.0625,259492.953125,281860.34375,253152.203125,255554.21875,19618.0,1.0,4
233339.53125,284013.25,358318.6875,327715.03125,258241.15625,281232.875,252640.265625,254780.65625,19619.0,1.0,4
232556.765625,282783.90625,356641.6875,327160.09375,256850.53125,280462.8125,252200.46875,254109.578125,19620.0,1.0,4
232673.796875,283242.125,357412.8125,327477.9375,257252.3125,280624.65625,252449.015625,254475.96875,19621.0,1.0,4
233520.3125,284733.78125,359528.8125,328217.78125,258870.40625,281483.03125,253034.09375,255361.453125,19622.0,1.0,4
233930.78125,285214.34375,360099.9375,328363.78125,259493.9375,281861.21875,253148.0,255548.21875,19623.0,1.0,4
233345.34375,284018.09375,358316.71875,327706.8125,258253.234375,281241.03125,252636.953125,254773.421875,19624.0,1.0,4
232564.28125,282781.5,356628.4375,327148.65625,256855.796875,280467.8125,252197.6875,254106.53125,19625.0,1.0,4
232678.8125,283230.9375,357384.75,327460.125,257242.9375,280622.84375,252440.703125,254466.9375,19626.0,1.0,4
233509.9375,284712.25,359498.21875,328191.9375,258850.015625,281472.21875,253024.265625,255343.484375,19627.0,1.0,4
233932.203125,285211.75,360092.4375,328342.75,259489.453125,281857.125,253147.015625,255541.78125,19628.0,1.0,4
233357.9375,284024.0,358322.625,327690.34375,258260.296875,281235.90625,252638.109375,254777.625,19629.0,1.0,4
232568.125,282774.875,356618.96875,327125.9375,256857.671875,280463.71875,252196.4375,254102.328125,19630.0,1.0,4
232666.65625,283201.8125,357346.75,327429.03125,257228.265625,280609.90625,252436.859375,254456.828125,19631.0,1.0,4
233502.6875,284683.625,359460.875,328165.75,258841.078125,281465.6875,253024.703125,255341.78125,19632.0,1.0,4
233933.71875,285197.53125,360070.78125,328321.75,259492.953125,281852.65625,253149.171875,255542.59375,19633.0,1.0,4
233357.671875,284014.59375,358307.59375,327669.25,258269.765625,281237.1875,252642.5,254780.578125,19634.0,1.0,4
232558.828125,282756.5625,356596.34375,327102.5,256859.28125,280455.125,252195.640625,254102.421875,19635.0,1.0,4
232649.84375,283178.8125,357315.53125,327401.84375,257217.0,280590.03125,252423.453125,254446.28125,19636.0,1.0,4
233479.265625,284662.96875,359429.125,328138.03125,258824.71875,281439.40625,253005.578125,255324.078125,19637.0,1.0,4
233912.625,285187.1875,360054.0625,328306.5625,259489.109375,281839.25,253147.015625,255536.859375,19638.0,1.0,4
233343.546875,284011.03125,358298.125,327659.34375,258272.90625,281228.5,252640.53125,254776.546875,19639.0,1.0,4
232549.078125,282748.5,356574.1875,327089.09375,256853.5625,280444.59375,252188.75,254094.015625,19640.0,1.0,4
232633.84375,283155.75,357276.1875,327383.875,257200.28125,280575.5625,252415.3125,254434.921875,19641.0,1.0,4
233465.40625,284640.53125,359393.28125,328120.9375,258811.21875,281429.5625,252998.421875,255315.859375,19642.0,1.0,4
233899.125,285170.09375,360034.9375,328291.09375,259487.140625,281835.65625,253135.125,255538.125,19643.0,1.0,4
233334.25,284002.0,358288.65625,327647.625,258280.5,281228.21875,252629.53125,254783.796875,19644.0,1.0,4
232538.796875,282736.25,356552.0,327072.1875,256855.796875,280445.46875,252179.546875,254095.8125,19645.0,1.0,4
232616.5,283133.9375,357236.25,327362.6875,257186.421875,280573.5,252403.875,254428.40625,19646.0,1.0,4
233444.484375,284619.0,359353.3125,328102.625,258791.28125,281425.8125,252989.9375,255310.3125,19647.0,1.0,4
233892.0625,285170.8125,360016.96875,328282.84375,259482.125,281837.28125,253132.984375,255538.125,19648.0,1.0,4
233332.28125,284010.5,358284.4375,327643.59375,258284.796875,281232.15625,252630.78125,254787.375,19649.0,1.0,4
232534.421875,282738.75,356539.03125,327066.5625,256852.046875,280447.71875,252177.578125,254094.640625,19650.0,1.0,4
232607.28125,283125.96875,357203.15625,327349.71875,257168.546875,280568.78125,252395.640625,254416.328125,19651.0,1.0,4
233434.484375,284609.15625,359318.71875,328087.6875,258771.25,281412.3125,252971.609375,255294.65625,19652.0,1.0,4
233890.8125,285174.75,360002.5,328271.40625,259475.953125,281831.28125,253124.046875,255531.234375,19653.0,1.0,4
233339.34375,284029.71875,358285.59375,327636.53125,258294.453125,281243.625,252633.828125,254791.03125,19654.0,1.0,4
232534.6875,282751.28125,356531.0,327052.78125,256859.015625,280451.8125,252176.0625,254090.53125,19655.0,1.0,4
232593.6875,283118.90625,357178.03125,327324.59375,257162.28125,280554.1875,252387.6875,254401.9375,19656.0,1.0,4
233417.9375,284600.84375,359291.4375,328059.78125,258762.765625,281397.84375,252971.15625,255278.03125,19657.0,1.0,4
233886.15625,285181.28125,359990.6875,328254.59375,259481.953125,281824.125,253130.296875,255521.9375,19658.0,1.0,4
233337.734375,284036.5,358277.8125,327621.15625,258304.1875,281229.46875,252629.4375,254777.984375,19659.0,1.0,4
232527.71875,282745.65625,356508.28125,327031.875,256859.375,280437.875,252165.328125,254071.75,19660.0,1.0,4
232590.390625,283112.03125,357143.34375,327308.15625,257157.1875,280549.1875,252384.109375,254387.265625,19661.0,1.0,4
233409.171875,284583.59375,359250.75,328042.0,258750.78125,281381.65625,252958.1875,255267.3125,19662.0,1.0,4
233877.3125,285170.1875,359965.28125,328237.25,259480.078125,281813.75,253121.09375,255524.0,19663.0,1.0,4
233338.453125,284040.71875,358268.34375,327609.625,258316.078125,281236.53125,252634.359375,254789.6875,19664.0,1.0,4
232531.109375,282747.625,356495.15625,327021.5,256866.890625,280449.6875,252177.671875,254083.28125,19665.0,1.0,4
232585.828125,283097.28125,357113.75,327289.8125,257144.578125,280545.6875,252379.015625,254381.453125,19666.0,1.0,4
233408.8125,284576.4375,359227.96875,328027.96875,258738.890625,281379.6875,252951.671875,255258.359375,19667.0,1.0,4
233881.6875,285172.875,359957.53125,328228.21875,259476.859375,281818.6875,253117.78125,255518.09375,19668.0,1.0,4
233343.015625,284047.21875,358269.25,327602.84375,258321.984375,281247.0,252634.265625,254788.796875,19669.0,1.0,4
232538.0,282749.9375,356483.4375,327005.9375,256862.6875,280441.375,252160.859375,254073.984375,19670.0,1.0,4
232575.984375,283078.5,357077.625,327263.53125,257122.5,280528.09375,252356.125,254365.640625,19671.0,1.0,4
233393.796875,284554.625,359190.59375,328002.5625,258716.53125,281368.875,252942.984375,255244.234375,19672.0,1.0,4
233876.0625,285167.875,359944.5625,328212.9375,259472.46875,281817.59375,253121.1875,255515.953125,19673.0,1.0,4
233344.984375,284053.21875,358270.6875,327592.90625,258328.25,281246.375,252632.75,254793.625,19674.0,1.0,4
232530.390625,282745.8125,356471.625,326989.5,256862.140625,280441.375,252156.84375,254068.09375,19675.0,1.0,4
232565.703125,283065.46875,357047.78125,327240.375,257109.265625,280522.4375,252352.28125,254354.640625,19676.0,1.0,4
233379.765625,284538.875,359156.78125,327976.28125,258699.90625,281356.875,252939.328125,255234.84375,19677.0,1.0,4
233870.515625,285167.40625,359928.1875,328193.375,259471.671875,281810.71875,253119.296875,255512.09375,19678.0,1.0,4
233342.484375,284056.625,358263.875,327572.875,258338.53125,281242.28125,252634.0,254791.84375,19679.0,1.0,4
233342.484375,284056.625,358263.875,327572.875,258338.53125,281242.28125,252634.0,254791.84375,19680.0,0.0,4
233342.484375,284056.625,358263.875,327572.875,258338.53125,281242.28125,252634.0,254791.84375,19681.0,0.0,4
233342.484375,284056.625,358263.875,327572.875,258338.53125,281242.28125,252634.0,254791.84375,19682.0,0.0,4
233857.640625,285161.15625,359911.125,328166.71875,259476.765625,281806.15625,253119.578125,255514.96875,19683.0,1.0,4
233336.3125,284060.8125,358256.375,327551.15625,258350.765625,281247.46875,252633.109375,254792.828125,19684.0,1.0,4
232517.4375,282743.15625,356440.875,326943.8125,256876.09375,280442.0625,252155.859375,254065.046875,19685.0,1.0,4
232538.703125,283039.96875,356980.25,327182.25,257095.59375,280507.78125,252340.75,254336.9375,19686.0,1.0,4
233350.96875,284510.09375,359088.21875,327920.75,258682.390625,281341.96875,252925.46875,255219.65625,19687.0,1.0,4
233850.3125,285155.15625,359892.0625,328152.15625,259477.03125,281811.96875,253117.6875,255511.65625,19688.0,1.0,4
233347.3125,284073.96875,358258.34375,327548.28125,258370.625,281266.5,252642.9375,254801.5,19689.0,1.0,4
232528.25,282747.625,356429.25,326934.34375,256886.734375,280443.875,252151.109375,254065.9375,19690.0,1.0,4
232528.34375,283017.34375,356941.28125,327161.4375,257083.78125,280495.71875,252326.984375,254323.34375,19691.0,1.0,4
233333.8125,284485.5,359047.8125,327903.78125,258667.0,281327.75,252913.3125,255207.140625,19692.0,1.0,4
233838.78125,285143.4375,359869.4375,328140.875,259471.75,281798.65625,253101.78125,255503.609375,19693.0,1.0,4
233341.578125,284071.71875,358247.34375,327539.15625,258370.890625,281254.34375,252629.890625,254800.59375,19694.0,1.0,4
232515.28125,282736.71875,356411.0,326925.125,256881.8125,280439.84375,252144.046875,254067.546875,19695.0,1.0,4
232523.328125,283005.46875,356913.03125,327154.28125,257070.375,280492.15625,252322.859375,254322.71875,19696.0,1.0,4
233326.75,284469.5,359016.96875,327895.09375,258650.46875,281321.9375,252909.015625,255203.734375,19697.0,1.0,4
233836.265625,285142.46875,359856.125,328135.96875,259469.171875,281800.34375,253109.5625,255511.390625,19698.0,1.0,4
233345.703125,284081.375,358244.65625,327535.78125,258377.953125,281263.1875,252639.90625,254809.984375,19699.0,1.0,4
232527.796875,282745.8125,356397.59375,326915.65625,256883.25,280443.25,252147.1875,254064.515625,19700.0,1.0,4
232522.890625,282994.1875,356879.6875,327134.4375,257059.734375,280481.15625,252315.53125,254311.015625,19701.0,1.0,4
233326.828125,284458.9375,358983.96875,327872.3125,258637.859375,281305.125,252899.8125,255192.5625,19702.0,1.0,4
233845.296875,285145.34375,359841.5625,328119.4375,259467.640625,281785.59375,253098.5625,255503.703125,19703.0,1.0,4
233359.203125,284091.84375,358243.84375,327522.625,258388.859375,281255.21875,252637.578125,254811.0625,19704.0,1.0,4
232537.28125,282747.625,356389.65625,326900.8125,256893.34375,280441.09375,252152.984375,254072.203125,19705.0,1.0,4
232527.0,282983.8125,356853.03125,327114.125,257055.625,280476.3125,252317.140625,254315.125,19706.0,1.0,4
233327.453125,284444.28125,358955.25,327848.15625,258629.0,281298.78125,252895.15625,255192.828125,19707.0,1.0,4
233850.125,285138.625,359832.15625,328100.28125,259475.0625,281791.3125,253099.453125,255508.4375,19708.0,1.0,4
233361.703125,284089.25,358244.65625,327505.90625,258407.28125,281266.3125,252638.5625,254814.453125,19709.0,1.0,4
232531.734375,282740.09375,356380.0625,326879.875,256901.484375,280443.15625,252140.65625,254064.15625,19710.0,1.0,4
232507.421875,282963.625,356822.1875,327084.53125,257044.171875,280469.78125,252302.21875,254300.546875,19711.0,1.0,4
233305.28125,284425.34375,358924.875,327824.65625,258616.046875,281292.6875,252882.828125,255177.890625,19712.0,1.0,4
233832.875,285133.4375,359821.34375,328090.0,259475.515625,281787.90625,253093.640625,255506.46875,19713.0,1.0,4
233351.234375,284095.6875,358247.15625,327502.15625,258416.671875,281268.03125,252636.140625,254819.5625,19714.0,1.0,4
232520.203125,282743.6875,356373.375,326870.3125,256906.765625,280447.25,252142.53125,254067.640625,19715.0,1.0,4
232493.5625,282959.15625,356801.4375,327074.0625,257037.828125,280471.03125,252303.546875,254298.3125,19716.0,1.0,4
233295.359375,284424.96875,358904.5625,327817.3125,258606.484375,281292.96875,252890.15625,255179.0625,19717.0,1.0,4
233833.59375,285146.75,359816.15625,328086.53125,259475.609375,281789.78125,253099.90625,255509.859375,19718.0,1.0,4
233358.296875,284112.15625,358249.125,327499.84375,258424.4375,281267.84375,252635.078125,254823.578125,19719.0,1.0,4
232531.5625,282754.40625,356364.96875,326869.34375,256908.375,280438.21875,252131.625,254063.53125,19720.0,1.0,4
232501.609375,282957.8125,356769.96875,327064.59375,257022.625,280449.3125,252284.515625,254284.984375,19721.0,1.0,4
233291.515625,284408.53125,358860.3125,327801.21875,258582.609375,281265.5,252870.578125,255162.34375,19722.0,1.0,4
233832.34375,285135.40625,359786.03125,328077.21875,259463.984375,281774.875,253090.953125,255508.4375,19723.0,1.0,4
233832.34375,285135.40625,359786.03125,328077.21875,259463.984375,281774.875,253090.953125,255508.4375,19724.0,0.0,4
233832.34375,285135.40625,359786.03125,328077.21875,259463.984375,281774.875,253090.953125,255508.4375,19725.0,0.0,4
233832.34375,285135.40625,359786.03125,328077.21875,259463.984375,281774.875,253090.953125,255508.4375,19726.0,0.0,4
233832.34375,285135.40625,359786.03125,328077.21875,259463.984375,281774.875,253090.953125,255508.4375,19727.0,0.0,4
233832.34375,285135.40625,359786.03125,328077.21875,259463.984375,281774.875,253090.953125,255508.4375,19728.0,0.0,4
233368.671875,284119.90625,358237.875,327480.6875,258437.765625,281271.0625,252644.546875,254829.921875,19729.0,1.0,4
232533.078125,282747.875,356331.53125,326834.71875,256912.296875,280440.28125,252137.703125,254061.65625,19730.0,1.0,4
232484.890625,282923.3125,356701.5,327014.8125,257004.578125,280440.5625,252282.71875,254268.453125,19731.0,1.0,4
233275.59375,284375.34375,358793.34375,327751.34375,258563.921875,281255.21875,252865.296875,255148.125,19732.0,1.0,4
233828.140625,285127.0,359754.03125,328038.15625,259467.90625,281774.34375,253093.546875,255506.921875,19733.0,1.0,4
233371.796875,284125.03125,358230.1875,327464.53125,258453.328125,281277.75,252647.40625,254837.34375,19734.0,1.0,4
232534.15625,282749.75,356326.96875,326822.40625,256929.65625,280451.1875,252145.21875,254068.53125,19735.0,1.0,4
232485.953125,282916.6875,356682.375,326999.25,257007.796875,280440.09375,252275.484375,254263.71875,19736.0,1.0,4
233277.84375,284370.15625,358772.15625,327738.09375,258563.828125,281252.8125,252857.96875,255142.40625,19737.0,1.0,4
233832.25,285130.21875,359748.46875,328028.6875,259479.625,281783.8125,253097.125,255509.15625,19738.0,1.0,4
233381.109375,284137.625,358237.9375,327460.125,258474.78125,281292.59375,252656.0,254847.984375,19739.0,1.0,4
232540.140625,282754.6875,356316.40625,326809.15625,256937.0625,280450.84375,252139.140625,254065.40625,19740.0,1.0,4
232473.625,282899.59375,356645.15625,326974.375,256993.390625,280429.5625,252268.421875,254251.1875,19741.0,1.0,4
233255.03125,284340.84375,358725.5,327708.59375,258538.4375,281235.84375,252849.203125,255131.671875,19742.0,1.0,4
233818.84375,285111.90625,359716.125,328008.5625,259463.0,281764.6875,253086.84375,255506.640625,19743.0,1.0,4
233375.296875,284131.09375,358216.84375,327445.5625,258467.8125,281283.21875,252649.640625,254850.125,19744.0,1.0,4
232539.78125,282750.75,356296.5625,326798.0,256928.75,280444.125,252132.875,254068.171875,19745.0,1.0,4
232462.4375,282882.0,356613.25,326960.8125,256972.5625,280416.875,252257.6875,254243.140625,19746.0,1.0,4
233241.71875,284326.1875,358696.4375,327694.84375,258519.03125,281228.40625,252841.609375,255121.125,19747.0,1.0,4
233820.71875,285117.78125,359709.78125,328000.5,259459.421875,281767.90625,253081.03125,255502.625,19748.0,1.0,4
233380.46875,284141.03125,358226.875,327442.625,258475.9375,281288.59375,252646.34375,254851.109375,19749.0,1.0,4
232534.953125,282749.40625,356291.84375,326786.09375,256929.375,280449.3125,252136.09375,254071.484375,19750.0,1.0,4
232459.40625,282877.4375,356587.78125,326940.9375,256959.421875,280415.0,252257.234375,254246.546875,19751.0,1.0,4
233239.921875,284319.75,358666.375,327677.03125,258503.125,281220.53125,252841.421875,255121.84375,19752.0,1.0,4
233814.8125,285118.6875,359692.6875,327986.375,259455.578125,281764.84375,253091.40625,255509.234375,19753.0,1.0,4
233387.8125,284162.5625,358221.78125,327430.09375,258482.203125,281293.40625,252655.015625,254856.5625,19754.0,1.0,4
232547.828125,282772.1875,356285.75,326774.84375,256936.265625,280457.0,252139.21875,254070.765625,19755.0,1.0,4
232460.65625,282878.875,356564.78125,326921.46875,256954.421875,280411.6875,252254.296875,254236.0,19756.0,1.0,4
233230.8125,284312.5,358636.53125,327653.875,258493.734375,281209.0,252828.734375,255106.375,19757.0,1.0,4
233806.59375,285117.15625,359678.375,327967.53125,259457.546875,281760.65625,253084.796875,255499.859375,19758.0,1.0,4
233392.1875,284171.0625,358225.0,327417.75,258500.171875,281297.53125,252661.71875,254863.359375,19759.0,1.0,4
232552.484375,282775.78125,356278.25,326757.5625,256950.65625,280455.75,252142.265625,254073.09375,19760.0,1.0,4
232460.484375,282874.03125,356538.78125,326903.65625,256959.59375,280414.375,252260.8125,254234.296875,19761.0,1.0,4
233230.265625,284303.125,358608.1875,327637.53125,258493.109375,281203.375,252829.359375,255105.03125,19762.0,1.0,4
233812.046875,285113.21875,359662.125,327957.6875,259466.125,281751.25,253079.15625,255495.828125,19763.0,1.0,4
233399.96875,284170.96875,358217.84375,327412.3125,258520.015625,281297.34375,252653.140625,254857.828125,19764.0,1.0,4
232562.578125,282771.03125,356267.96875,326755.4375,256969.53125,280463.1875,252137.078125,254072.109375,19765.0,1.0,4
232459.859375,282850.625,356508.8125,326893.21875,256958.890625,280408.0,252246.515625,254227.234375,19766.0,1.0,4
233228.390625,284279.875,358577.875,327628.5625,258488.109375,281208.90625,252833.203125,255104.9375,19767.0,1.0,4
233817.234375,285107.875,359653.875,327959.90625,259471.21875,281771.125,253096.765625,255513.4375,19768.0,1.0,4
233410.875,284177.15625,358223.46875,327416.25,258531.734375,281310.75,252661.984375,254872.578125,19769.0,1.0,4
232566.6875,282770.6875,356262.0625,326750.15625,256972.5625,280469.15625,252140.03125,254074.796875,19770.0,1.0,4
232459.140625,282839.15625,356479.75,326881.40625,256944.578125,280402.90625,252238.90625,254216.5,19771.0,1.0,4
233224.1875,284261.09375,358540.875,327612.75,258464.765625,281189.25,252816.390625,255087.59375,19772.0,1.0,4
233816.6875,285096.875,359634.125,327945.15625,259460.40625,281754.3125,253087.828125,255502.453125,19773.0,1.0,4
233418.828125,284181.53125,358223.65625,327411.6875,258537.71875,281311.75,252674.859375,254874.453125,19774.0,1.0,4
232580.015625,282779.0,356259.8125,326749.09375,256976.859375,280469.0625,252157.28125,254075.515625,19775.0,1.0,4
232464.953125,282839.34375,356467.34375,326878.375,256939.75,280396.9375,252256.25,254212.484375,19776.0,1.0,4
233226.0625,284268.53125,358527.71875,327610.34375,258461.09375,281184.875,252838.5625,255084.734375,19777.0,1.0,4
233829.203125,285127.4375,359638.0625,327948.21875,259471.046875,281758.78125,253116.171875,255508.703125,19778.0,1.0,4
233436.265625,284224.15625,358238.9375,327415.4375,258559.453125,281322.28125,252697.296875,254884.90625,19779.0,1.0,4
232587.25,282811.1875,356260.28125,326743.71875,256991.96875,280482.03125,252175.875,254088.46875,19780.0,1.0,4
232466.921875,282861.25,356445.0625,326864.875,256940.203125,280409.09375,252273.328125,254223.03125,19781.0,1.0,4
233222.765625,284281.375,358495.4375,327593.4375,258450.28125,281183.0,252837.671875,255082.5,19782.0,1.0,4
233830.90625,285149.25,359620.4375,327942.84375,259472.828125,281769.9375,253121.71875,255511.828125,19783.0,1.0,4
233449.140625,284259.5625,358237.5,327415.25,258576.171875,281341.59375,252707.84375,254900.5625,19784.0,1.0,4
232600.40625,282842.5625,356253.03125,326735.21875,257004.21875,280495.09375,252174.625,254096.25,19785.0,1.0,4
232466.46875,282872.4375,356418.0625,326841.15625,256933.765625,280412.40625,252261.890625,254219.015625,19786.0,1.0,4
233223.203125,284295.0625,358472.46875,327572.6875,258443.578125,281205.78125,252842.59375,255092.15625,19787.0,1.0,4
233838.0625,285173.3125,359612.21875,327929.25,259472.921875,281790.5,253118.9375,255527.921875,19788.0,1.0,4
233461.296875,284287.28125,358240.375,327410.6875,258584.9375,281369.5,252710.890625,254916.46875,19789.0,1.0,4
232609.078125,282864.03125,356250.0,326736.03125,257009.21875,280523.875,252184.015625,254112.4375,19790.0,1.0,4
232467.09375,282882.875,356393.5,326838.03125,256922.234375,280429.28125,252264.296875,254225.0,19791.0,1.0,4
233220.171875,284296.5,358436.96875,327563.59375,258423.109375,281208.28125,252836.234375,255086.171875,19792.0,1.0,4
233834.390625,285179.3125,359589.53125,327916.90625,259460.9375,281802.3125,253128.953125,255527.921875,19793.0,1.0,4
233463.796875,284308.5625,358237.3125,327400.15625,258585.46875,281392.84375,252734.046875,254929.53125,19794.0,1.0,4
232618.734375,282886.65625,356244.1875,326722.0,257005.375,280535.3125,252192.953125,254118.78125,19795.0,1.0,4
232468.53125,282885.5625,356369.0,326820.15625,256901.21875,280426.53125,252262.0625,254222.234375,19796.0,1.0,4
233214.171875,284291.5,358413.46875,327546.0625,258396.90625,281200.25,252835.25,255086.703125,19797.0,1.0,4
233828.140625,285175.46875,359580.5,327899.75,259441.0,281789.96875,253118.59375,255525.875,19798.0,1.0,4
233466.9375,284313.125,358239.375,327385.84375,258575.625,281379.6875,252718.40625,254930.953125,19799.0,1.0,4
232621.671875,282886.375,356240.15625,326707.6875,256996.171875,280527.09375,252186.78125,254121.203125,19800.0,1.0,4
232465.484375,282871.875,356346.1875,326799.875,256882.0,280417.21875,252260.734375,254219.90625,19801.0,1.0,4
233207.65625,284269.6875,358383.5,327525.3125,258375.890625,281197.5625,252838.828125,255085.1875,19802.0,1.0,4
233835.109375,285170.71875,359570.65625,327894.125,259438.859375,281794.625,253128.515625,255541.96875,19803.0,1.0,4
233470.0625,284311.875,358241.34375,327384.0625,258585.375,281389.4375,252729.21875,254950.53125,19804.0,1.0,4
232618.90625,282879.40625,356236.65625,326699.28125,257001.71875,280546.6875,252195.28125,254133.53125,19805.0,1.0,4
232466.5625,282862.15625,356332.0625,326785.75,256875.015625,280430.09375,252255.90625,254219.546875,19806.0,1.0,4
233204.875,284253.3125,358364.5625,327510.90625,258358.46875,281193.1875,252819.515625,255077.40625,19807.0,1.0,4
233833.765625,285163.75,359567.15625,327887.6875,259431.703125,281804.46875,253124.671875,255545.984375,19808.0,1.0,4
233482.84375,284320.71875,358255.21875,327386.09375,258593.6875,281416.625,252741.109375,254969.046875,19809.0,1.0,4
232633.296875,282884.6875,356241.125,326699.71875,257005.375,280564.28125,252194.828125,254135.59375,19810.0,1.0,4
232466.640625,282851.78125,356313.03125,326777.4375,256863.21875,280432.5,252246.953125,254205.59375,19811.0,1.0,4
233198.53125,284245.0,358337.375,327497.78125,258344.25,281193.71875,252820.421875,255066.9375,19812.0,1.0,4
233833.5,285168.5625,359555.0,327879.0,259429.46875,281804.71875,253130.296875,255538.921875,19813.0,1.0,4
233494.296875,284341.125,358260.5625,327381.90625,258604.6875,281415.625,252737.984375,254959.296875,19814.0,1.0,4
232638.21875,282898.0,356238.71875,326690.0625,257015.03125,280556.34375,252194.296875,254133.71875,19815.0,1.0,4
232460.828125,282847.5625,356289.78125,326762.21875,256860.265625,280419.28125,252251.34375,254206.046875,19816.0,1.0,4
233194.234375,284236.6875,358312.4375,327482.65625,258336.015625,281177.1875,252817.734375,255061.046875,19817.0,1.0,4
233832.875,285169.03125,359541.40625,327867.03125,259428.75,281788.1875,253125.109375,255534.71875,19818.0,1.0,4
233495.359375,284349.34375,358256.8125,327376.90625,258616.484375,281404.71875,252744.0625,254961.265625,19819.0,1.0,4
232644.65625,282910.875,356234.34375,326687.3125,257027.109375,280552.75,252207.4375,254142.203125,19820.0,1.0,4
232456.1875,282841.59375,356266.09375,326748.46875,256856.78125,280408.5625,252248.5625,254206.046875,19821.0,1.0,4
233179.40625,284218.8125,358279.09375,327463.25,258322.78125,281157.78125,252806.640625,255055.953125,19822.0,1.0,4
233829.390625,285163.9375,359528.0,327856.03125,259428.84375,281779.78125,253128.515625,255541.78125,19823.0,1.0,4
233495.625,284348.8125,358258.25,327368.5,258627.671875,281407.9375,252750.3125,254975.03125,19824.0,1.0,4
232642.421875,282901.84375,356225.84375,326673.8125,257034.4375,280550.53125,252198.5,254142.296875,19825.0,1.0,4
232448.859375,282821.90625,356238.0,326728.0625,256846.859375,280399.15625,252237.296875,254196.03125,19826.0,1.0,4
233167.6875,284198.15625,358247.59375,327444.65625,258311.609375,281160.625,252805.9375,255051.125,19827.0,1.0,4
233825.71875,285154.53125,359510.75,327840.90625,259429.015625,281789.0,253121.8125,255534.359375,19828.0,1.0,4
233505.734375,284357.46875,358256.8125,327356.5,258640.09375,281419.65625,252747.546875,254971.71875,19829.0,1.0,4
232651.1875,282905.5,356220.03125,326659.125,257041.5,280560.90625,252198.234375,254141.5,19830.0,1.0,4
232449.296875,282810.75,356215.125,326709.03125,256844.71875,280408.09375,252236.671875,254192.8125,19831.0,1.0,4
233170.8125,284187.78125,358221.5,327425.71875,258305.09375,281164.5625,252807.359375,255049.515625,19832.0,1.0,4
233822.140625,285148.8125,359495.5625,327825.90625,259429.015625,281799.1875,253131.734375,255544.46875,19833.0,1.0,4
233505.640625,284360.34375,358254.03125,327341.84375,258648.3125,281430.28125,252754.875,254988.4375,19834.0,1.0,4
232649.390625,282905.59375,356212.96875,326640.71875,257047.390625,280570.5625,252207.265625,254154.546875,19835.0,1.0,4
232436.15625,282801.96875,356189.625,326685.0625,256832.28125,280406.3125,252242.21875,254199.703125,19836.0,1.0,4
233157.765625,284179.90625,358191.28125,327398.8125,258285.6875,281153.75,252799.84375,255039.3125,19837.0,1.0,4
233820.171875,285155.78125,359479.1875,327802.46875,259418.65625,281785.5,253121.1875,255533.921875,19838.0,1.0,4
233500.375,284372.0625,358250.28125,327326.375,258648.671875,281424.75,252751.75,254984.59375,19839.0,1.0,4
232639.734375,282911.125,356201.15625,326623.65625,257039.4375,280557.6875,252198.5,254148.640625,19840.0,1.0,4
232427.75,282797.59375,356162.375,326662.90625,256816.546875,280387.28125,252230.78125,254185.296875,19841.0,1.0,4
233145.0625,284171.6875,358162.84375,327378.96875,258270.484375,281137.9375,252798.0625,255033.6875,19842.0,1.0,4
233810.703125,285156.0625,359470.875,327791.46875,259416.5,281773.0,253119.125,255536.6875,19843.0,1.0,4
233504.390625,284385.375,358262.53125,327322.625,258663.703125,281422.15625,252752.28125,254989.15625,19844.0,1.0,4
232648.953125,282920.71875,356208.40625,326617.46875,257056.875,280554.5625,252194.65625,254146.234375,19845.0,1.0,4
232425.609375,282789.1875,356148.0625,326649.65625,256819.59375,280381.90625,252222.109375,254178.0625,19846.0,1.0,4
233139.25,284153.375,358139.15625,327363.03125,258265.390625,281128.53125,252784.828125,255022.953125,19847.0,1.0,4
233808.90625,285141.3125,359457.8125,327781.65625,259420.890625,281770.21875,253113.21875,255530.15625,19848.0,1.0,4
233506.8125,284377.25,358259.0625,327315.84375,258679.078125,281420.90625,252748.984375,254990.328125,19849.0,1.0,4
232652.4375,282916.25,356204.75,326611.5625,257077.265625,280564.75,252197.515625,254146.59375,19850.0,1.0,4
232425.609375,282775.59375,356129.65625,326635.8125,256826.390625,280383.4375,252219.421875,254166.890625,19851.0,1.0,4
233134.15625,284134.3125,358111.1875,327345.0625,258263.953125,281121.75,252778.125,255009.546875,19852.0,1.0,4
233805.703125,285134.5,359444.15625,327768.0625,259431.96875,281774.5,253115.71875,255527.5625,19853.0,1.0,4
233513.78125,284390.03125,358263.96875,327307.78125,258704.109375,281441.75,252761.9375,254998.1875,19854.0,1.0,4
232654.484375,282923.9375,356200.1875,326598.875,257094.515625,280582.90625,252209.765625,254156.421875,19855.0,1.0,4
232417.5625,282763.25,356100.6875,326614.53125,256824.5,280385.9375,252217.71875,254161.34375,19856.0,1.0,4
233121.015625,284111.875,358074.78125,327321.71875,258251.796875,281117.8125,252769.90625,255000.15625,19857.0,1.0,4
233801.671875,285127.4375,359423.5625,327750.15625,259429.5625,281777.09375,253114.828125,255528.90625,19858.0,1.0,4
233519.5,284393.15625,358260.3125,327295.09375,258713.671875,281445.40625,252764.53125,255010.96875,19859.0,1.0,4
232665.578125,282927.40625,356192.59375,326585.75,257103.015625,280579.75,252205.65625,254166.34375,19860.0,1.0,4
232420.609375,282760.3125,356075.90625,326600.40625,256821.5625,280380.75,252214.6875,254164.734375,19861.0,1.0,4
233114.484375,284107.3125,358043.5,327305.375,258240.71875,281110.84375,252772.9375,255000.15625,19862.0,1.0,4
233798.625,285129.6875,359402.46875,327738.28125,259422.578125,281769.5,253114.5625,255528.1875,19863.0,1.0,4
233525.578125,284410.6875,358251.4375,327290.875,258716.53125,281440.125,252760.328125,255007.84375,19864.0,1.0,4
232667.09375,282943.59375,356178.65625,326580.28125,257103.453125,280580.65625,252205.734375,254165.546875,19865.0,1.0,4
232422.21875,282770.3125,356047.5625,326593.25,256813.421875,280377.96875,252212.53125,254162.40625,19866.0,1.0,4
233117.984375,284112.9375,358009.78125,327297.875,258230.875,281096.28125,252761.234375,254995.421875,19867.0,1.0,4
233801.140625,285134.4375,359377.8125,327729.15625,259420.609375,281752.4375,253104.546875,255526.140625,19868.0,1.0,4
233526.921875,284416.65625,358244.03125,327283.09375,258728.15625,281439.0625,252755.328125,255010.96875,19869.0,1.0,4
232664.5,282940.8125,356169.34375,326570.4375,257114.0,280579.75,252199.578125,254165.8125,19870.0,1.0,4
232409.34375,282750.75,356019.125,326570.4375,256806.0,280373.3125,252205.5625,254156.953125,19871.0,1.0,4
233100.0,284087.375,357973.03125,327269.15625,258213.0,281092.0625,252748.4375,254982.453125,19872.0,1.0,4
233781.109375,285115.1875,359357.3125,327709.75,259413.734375,281756.71875,253095.703125,255520.59375,19873.0,1.0,4
233514.9375,284413.8125,358242.25,327275.15625,258738.265625,281457.125,252762.84375,255017.328125,19874.0,1.0,4
232661.640625,282944.5625,356167.1875,326561.78125,257128.046875,280601.9375,252211.109375,254170.734375,19875.0,1.0,4
232399.859375,282740.28125,355995.53125,326552.125,256804.484375,280378.875,252201.8125,254149.8125,19876.0,1.0,4
233090.078125,284071.71875,357944.53125,327249.125,258203.4375,281092.5,252743.171875,254975.5625,19877.0,1.0,4
233779.765625,285113.78125,359342.21875,327694.84375,259413.203125,281764.21875,253096.234375,255521.578125,19878.0,1.0,4
233526.5625,284427.75,358238.21875,327260.3125,258747.03125,281461.40625,252759.265625,255020.09375,19879.0,1.0,4
232665.671875,282947.25,356155.03125,326541.375,257129.65625,280596.5625,252197.515625,254163.578125,19880.0,1.0,4
232386.09375,282721.96875,355964.4375,326524.9375,256790.625,280370.0,252190.28125,254133.796875,19881.0,1.0,4
233068.71875,284051.71875,357909.125,327225.875,258187.6875,281082.21875,252740.125,254962.703125,19882.0,1.0,4
233766.265625,285108.40625,359326.125,327679.8125,259408.453125,281756.8125,253099.0,255515.953125,19883.0,1.0,4
233516.375,284431.15625,358241.78125,327252.0,258758.375,281468.28125,252773.5625,255028.140625,19884.0,1.0,4
232659.859375,282951.71875,356152.09375,326529.6875,257136.625,280597.65625,252208.875,254170.546875,19885.0,1.0,4
232381.625,282721.59375,355947.34375,326513.21875,256785.53125,280354.71875,252183.296875,254131.75,19886.0,1.0,4
233054.40625,284039.28125,357882.375,327207.125,258172.671875,281062.375,252724.125,254948.296875,19887.0,1.0,4
233757.953125,285104.125,359312.28125,327662.5625,259402.921875,281746.34375,253093.203125,255507.984375,19888.0,1.0,4
233517.265625,284438.21875,358244.03125,327239.9375,258763.390625,281461.59375,252770.796875,255026.53125,19889.0,1.0,4
232661.109375,282956.375,356152.09375,326521.09375,257143.953125,280599.53125,252206.453125,254174.75,19890.0,1.0,4
232378.9375,282710.25,355923.84375,326494.09375,256779.265625,280350.875,252174.984375,254121.546875,19891.0,1.0,4
233052.171875,284022.28125,357849.3125,327187.34375,258161.234375,281054.5,252722.15625,254943.390625,19892.0,1.0,4
233757.0625,285090.625,359288.40625,327651.1875,259398.171875,281742.9375,253093.546875,255510.21875,19893.0,1.0,4
233521.921875,284433.28125,358232.84375,327233.21875,258772.234375,281461.9375,252770.796875,255028.3125,19894.0,1.0,4
232662.09375,282948.5,356137.875,326511.0,257151.109375,280597.1875,252206.453125,254170.546875,19895.0,1.0,4
232372.6875,282695.125,355895.75,326478.71875,256774.53125,280346.5,252179.015625,254121.734375,19896.0,1.0,4
233034.46875,283996.8125,357815.25,327168.75,258146.828125,281047.0,252720.1875,254940.078125,19897.0,1.0,4
233740.78125,285073.8125,359270.875,327637.0625,259391.015625,281738.21875,253090.953125,255512.015625,19898.0,1.0,4
233518.875,284437.75,358234.1875,327227.21875,258780.28125,281470.34375,252773.828125,255037.4375,19899.0,1.0,4
232667.90625,282960.5,356135.0,326502.9375,257160.234375,280607.75,252205.296875,254174.21875,19900.0,1.0,4
232369.546875,282689.59375,355870.375,326462.1875,256765.671875,280343.71875,252168.640625,254114.578125,19901.0,1.0,4
233031.4375,283990.28125,357781.53125,327149.1875,258128.15625,281034.21875,252705.703125,254928.453125,19902.0,1.0,4
233743.203125,285079.71875,359250.5,327623.46875,259383.328125,281731.5,253086.21875,255507.8125,19903.0,1.0,4
233524.515625,284451.34375,358232.15625,327222.5,258785.46875,281472.5,252777.671875,255044.859375,19904.0,1.0,4
232670.3125,282968.625,356132.59375,326499.46875,257162.546875,280608.8125,252204.484375,254181.453125,19905.0,1.0,4
232370.53125,282690.84375,355853.03125,326454.125,256755.84375,280340.78125,252164.078125,254113.234375,19906.0,1.0,4
233032.421875,283987.6875,357755.6875,327139.34375,258114.015625,281034.5625,252709.90625,254927.734375,19907.0,1.0,4
233738.640625,285073.53125,359228.65625,327612.9375,259371.71875,281729.625,253086.84375,255506.734375,19908.0,1.0,4
233529.0625,284457.78125,358226.15625,327213.28125,258784.578125,281467.84375,252772.84375,255047.71875,19909.0,1.0,4
232677.5625,282976.21875,356127.78125,326488.71875,257165.5,280608.5625,252212.453125,254193.53125,19910.0,1.0,4
232361.6875,282677.6875,355824.0625,326435.875,256744.484375,280333.96875,252166.046875,254115.125,19911.0,1.0,4
233017.21875,283964.25,357718.78125,327120.5625,258097.03125,281019.5625,252696.59375,254917.09375,19912.0,1.0,4
233739.359375,285067.375,359211.25,327600.25,259368.21875,281721.03125,253075.84375,255493.421875,19913.0,1.0,4
233531.9375,284455.28125,358222.125,327202.5625,258792.625,281468.46875,252767.671875,255039.140625,19914.0,1.0,4
232673.265625,282962.1875,356113.8125,326471.75,257169.703125,280599.875,252191.4375,254174.578125,19915.0,1.0,4
232357.65625,282654.53125,355798.46875,326414.53125,256741.453125,280320.46875,252140.921875,254094.734375,19916.0,1.0,4
233010.953125,283936.71875,357692.5625,327097.5,258090.78125,281008.90625,252678.96875,254900.921875,19917.0,1.0,4
233732.921875,285049.03125,359196.46875,327581.71875,259372.6875,281718.09375,253070.390625,255495.921875,19918.0,1.0,4
233536.21875,284452.6875,358221.21875,327190.46875,258811.578125,281470.71875,252769.546875,255048.796875,19919.0,1.0,4
232689.53125,282969.34375,356116.5,326465.40625,257192.421875,280612.65625,252205.5625,254181.546875,19920.0,1.0,4
232362.125,282646.40625,355779.09375,326403.0625,256749.046875,280326.84375,252155.5,254093.125,19921.0,1.0,4
233010.59375,283926.34375,357660.75,327085.875,258090.15625,281005.6875,252687.734375,254899.03125,19922.0,1.0,4
233736.859375,285047.59375,359176.71875,327575.5625,259377.34375,281716.5625,253076.921875,255499.3125,19923.0,1.0,4
233546.234375,284468.96875,358221.21875,327192.53125,258830.4375,281482.3125,252782.421875,255059.796875,19924.0,1.0,4
232691.234375,282977.375,356107.84375,326458.78125,257204.671875,280615.71875,252205.5625,254185.65625,19925.0,1.0,4
232354.078125,282640.40625,355749.5625,326385.375,256742.875,280314.21875,252142.890625,254084.265625,19926.0,1.0,4
232995.40625,283915.53125,357626.21875,327065.59375,258076.46875,280989.5,252676.921875,254889.109375,19927.0,1.0,4
233727.109375,285046.625,359162.40625,327562.25,259374.65625,281708.15625,253078.0,255494.75,19928.0,1.0,4
233543.375,284475.3125,358224.1875,327185.46875,258837.421875,281477.0625,252787.0625,255059.703125,19929.0,1.0,4
232699.546875,282990.1875,356111.0625,326454.84375,257213.421875,280611.40625,252211.90625,254188.4375,19930.0,1.0,4
232356.9375,282642.5625,355736.53125,326374.09375,256740.109375,280311.375,252156.125,254085.078125,19931.0,1.0,4
232991.46875,283906.0625,357600.3125,327047.0625,258061.453125,280984.40625,252687.109375,254884.28125,19932.0,1.0,4
233732.5625,285048.3125,359141.9375,327545.96875,259365.359375,281700.9375,253079.875,255493.765625,19933.0,1.0,4
233558.484375,284488.28125,358218.5625,327175.09375,258844.484375,281477.59375,252793.0625,255070.78125,19934.0,1.0,4
232702.765625,282992.6875,356099.34375,326439.46875,257216.46875,280610.6875,252215.84375,254197.28125,19935.0,1.0,4
232348.1875,282628.96875,355703.25,326350.5,256724.28125,280302.34375,252142.796875,254076.578125,19936.0,1.0,4
232976.265625,283885.84375,357558.5625,327023.1875,258039.546875,280970.90625,252666.640625,254868.28125,19937.0,1.0,4
233714.234375,285029.09375,359109.40625,327523.96875,259351.234375,281688.21875,253060.65625,255479.921875,19938.0,1.0,4
233546.765625,284482.09375,358202.1875,327155.875,258844.296875,281473.84375,252782.0625,255058.265625,19939.0,1.0,4
232697.578125,282986.875,356081.1875,326417.65625,257216.109375,280605.5,252196.0,254175.5625,19940.0,1.0,4
232343.265625,282611.625,355669.28125,326325.84375,256714.796875,280292.59375,252120.890625,254054.953125,19941.0,1.0,4
232973.859375,283867.625,357520.71875,326998.34375,258024.890625,280961.71875,252650.984375,254851.296875,19942.0,1.0,4
233716.828125,285024.71875,359090.34375,327511.46875,259351.59375,281684.28125,253054.296875,255478.125,19943.0,1.0,4
233551.875,284487.46875,358201.75,327153.125,258860.75,281473.75,252775.796875,255069.890625,19944.0,1.0,4
232698.921875,282994.46875,356075.46875,326413.1875,257234.96875,280613.65625,252199.65625,254189.5,19945.0,1.0,4
232330.75,282605.53125,355640.6875,326312.78125,256718.65625,280296.25,252123.578125,254054.765625,19946.0,1.0,4
232957.84375,283857.25,357482.28125,326982.96875,258018.359375,280954.1875,252642.578125,254843.96875,19947.0,1.0,4
233706.546875,285021.0625,359064.53125,327497.78125,259349.8125,281682.875,253051.265625,255472.5,19948.0,1.0,4
233545.96875,284496.78125,358195.5625,327144.0,258872.546875,281484.375,252780.71875,255071.765625,19949.0,1.0,4
232699.90625,283006.28125,356075.03125,326410.3125,257249.546875,280624.46875,252205.734375,254201.125,19950.0,1.0,4
232330.65625,282605.90625,355623.34375,326303.75,256718.296875,280294.03125,252121.078125,254058.515625,19951.0,1.0,4
232949.796875,283848.46875,357457.59375,326969.1875,258009.15625,280953.65625,252649.5625,254845.296875,19952.0,1.0,4
233709.9375,285032.5,359061.03125,327495.28125,259357.3125,281698.875,253073.703125,255485.375,19953.0,1.0,4
233570.375,284526.90625,358213.28125,327149.34375,258897.9375,281505.75,252803.703125,255093.046875,19954.0,1.0,4
232720.46875,283028.53125,356083.78125,326405.9375,257270.640625,280641.53125,252215.390625,254209.0,19955.0,1.0,4
232339.234375,282609.03125,355608.59375,326290.15625,256722.40625,280305.0,252124.375,254058.796875,19956.0,1.0,4
232949.265625,283837.9375,357428.625,326950.0625,258000.828125,280948.3125,252644.109375,254844.234375,19957.0,1.0,4
233695.90625,285012.03125,359032.5,327469.96875,259343.734375,281682.78125,253058.6875,255483.046875,19958.0,1.0,4
233554.1875,284515.625,358196.90625,327124.78125,258891.0625,281501.09375,252800.390625,255093.3125,19959.0,1.0,4
232704.640625,283018.4375,356064.1875,326381.25,257261.078125,280635.90625,252211.734375,254204.4375,19960.0,1.0,4
232317.25,282587.21875,355571.375,326258.5,256694.953125,280282.3125,252106.046875,254047.171875,19961.0,1.0,4
232928.703125,283812.53125,357384.5625,326919.9375,257966.5,280928.625,252625.78125,254825.71875,19962.0,1.0,4
233693.765625,285002.375,359007.65625,327454.40625,259326.734375,281676.96875,253048.84375,255471.953125,19963.0,1.0,4
233558.03125,284510.8125,358187.625,327115.03125,258889.453125,281497.25,252784.03125,255085.546875,19964.0,1.0,4
232715.109375,283018.875,356058.375,326376.15625,257269.125,280637.875,252202.96875,254203.546875,19965.0,1.0,4
232323.0625,282578.1875,355549.3125,326251.53125,256697.015625,280280.59375,252102.921875,254043.328125,19966.0,1.0,4
232932.8125,283803.5,357355.875,326912.15625,257963.8125,280922.0,252619.78125,254821.34375,19967.0,1.0,4
233696.265625,284999.875,358985.46875,327441.53125,259322.0,281661.78125,253035.703125,255467.390625,19968.0,1.0,4
233570.015625,284527.625,358188.15625,327110.71875,258898.84375,281496.8125,252787.515625,255097.15625,19969.0,1.0,4
232720.828125,283027.90625,356057.9375,326369.09375,257273.78125,280641.1875,252206.1875,254218.375,19970.0,1.0,4
232321.8125,282574.15625,355530.53125,326239.1875,256685.921875,280279.09375,252096.84375,254045.203125,19971.0,1.0,4
232924.765625,283793.0625,357326.28125,326893.5625,257944.328125,280916.375,252614.6875,254814.09375,19972.0,1.0,4
233698.5,285006.03125,358976.375,327434.5625,259318.875,281666.9375,253041.515625,255467.578125,19973.0,1.0,4
233579.859375,284547.65625,358195.03125,327109.125,258910.546875,281506.65625,252792.875,255099.75,19974.0,1.0,4
232728.25,283045.78125,356060.96875,326365.4375,257287.015625,280647.625,252212.625,254217.671875,19975.0,1.0,4
232320.375,282577.03125,355513.53125,326224.09375,256683.328125,280277.84375,252092.109375,254032.953125,19976.0,1.0,4
232913.0625,283780.0,357295.6875,326871.375,257928.6875,280904.84375,252597.25,254799.96875,19977.0,1.0,4
233684.015625,284993.25,358949.4375,327414.34375,259310.46875,281660.6875,253035.078125,255465.96875,19978.0,1.0,4
233574.75,284545.84375,358183.40625,327096.34375,258915.734375,281504.5,252789.21875,255104.859375,19979.0,1.0,4
232737.8125,283052.125,356050.96875,326356.3125,257298.625,280650.65625,252210.5625,254226.96875,19980.0,1.0,4
232320.015625,282565.75,355485.65625,326211.46875,256686.375,280279.8125,252098.625,254048.859375,19981.0,1.0,4
232905.8125,283758.625,357257.0625,326856.1875,257921.078125,280898.59375,252599.40625,254803.546875,19982.0,1.0,4
233684.734375,284984.5625,358924.34375,327404.6875,259306.4375,281660.5,253035.53125,255465.15625,19983.0,1.0,4
233586.203125,284553.09375,358182.4375,327095.625,258928.703125,281513.875,252796.0,255113.4375,19984.0,1.0,4
232741.03125,283051.6875,356047.40625,326348.625,257307.578125,280655.75,252215.21875,254233.9375,19985.0,1.0,4
232316.984375,282554.75,355460.53125,326192.15625,256680.203125,280273.1875,252090.234375,254036.796875,19986.0,1.0,4
232903.75,283747.4375,357225.25,326837.78125,257911.609375,280890.625,252596.546875,254794.4375,19987.0,1.0,4
233679.453125,284974.125,358901.4375,327388.78125,259304.03125,281651.75,253040.625,255462.84375,19988.0,1.0,4
233589.515625,284559.28125,358179.125,327085.96875,258943.71875,281520.25,252816.65625,255117.8125,19989.0,1.0,4
232752.65625,283065.90625,356049.8125,326344.25,257325.1875,280659.0625,252227.46875,254232.6875,19990.0,1.0,4
232326.28125,282563.875,355451.5,326185.46875,256682.890625,280265.0625,252097.109375,254025.703125,19991.0,1.0,4
232900.625,283745.125,357204.21875,326826.34375,257901.0625,280875.34375,252603.6875,254780.84375,19992.0,1.0,4
233681.15625,284987.71875,358895.8125,327383.78125,259305.8125,281644.96875,253059.671875,255460.25,19993.0,1.0,4
233600.421875,284587.15625,358186.625,327083.375,258953.28125,281508.875,252823.640625,255119.78125,19994.0,1.0,4
232765.359375,283094.4375,356052.3125,326339.875,257334.578125,280654.34375,252239.265625,254236.703125,19995.0,1.0,4
232336.015625,282580.6875,355434.6875,326179.75,256682.34375,280262.0,252112.84375,254026.15625,19996.0,1.0,4
232906.171875,283757.09375,357181.15625,326821.21875,257894.078125,280874.1875,252613.796875,254778.25,19997.0,1.0,4
233684.1875,284998.875,358883.65625,327381.1875,259300.8125,281642.625,253056.453125,255457.921875,19998.0,1.0,4
233604.4375,284606.375,358192.53125,327086.40625,258962.9375,281517.375,252821.84375,255127.03125,19999.0,1.0,4
232777.875,283123.84375,356061.34375,326342.375,257351.65625,280672.375,252239.625,254245.921875,20000.0,1.0,4
232338.4375,282595.4375,355423.15625,326169.375,256684.578125,280275.59375,252103.90625,254030.1875,20001.0,1.0,4
232904.203125,283765.15625,357158.0,326805.40625,257885.59375,280887.3125,252606.203125,254782.71875,20002.0,1.0,4
233696.703125,285028.03125,358876.75,327376.53125,259303.40625,281667.84375,253068.34375,255477.59375,20003.0,1.0,4
233627.0625,284651.625,358206.65625,327092.21875,258980.90625,281563.40625,252854.75,255159.5625,20004.0,1.0,4
232797.984375,283165.78125,356076.375,326350.15625,257367.828125,280721.375,252273.78125,254275.78125,20005.0,1.0,4
232355.875,282627.625,355421.09375,326170.78125,256686.375,280313.59375,252127.59375,254047.171875,20006.0,1.0,4
232914.9375,283785.28125,357139.0625,326798.0,257873.875,280911.65625,252617.734375,254791.921875,20007.0,1.0,4
233698.234375,285037.59375,358855.75,327363.3125,259291.78125,281684.84375,253068.078125,255482.59375,20008.0,1.0,4
233632.609375,284668.4375,358197.28125,327078.625,258979.65625,281574.6875,252852.15625,255165.734375,20009.0,1.0,4
232798.96875,283177.46875,356064.46875,326333.0625,257366.765625,280729.96875,252271.359375,254284.8125,20010.0,1.0,4
232346.75,282625.21875,355398.9375,326150.3125,256674.578125,280316.0,252124.46875,254050.203125,20011.0,1.0,4
232903.9375,283775.625,357114.28125,326778.6875,257855.1875,280904.5,252618.09375,254789.6875,20012.0,1.0,4
233693.9375,285037.59375,358843.6875,327350.25,259280.515625,281683.21875,253076.65625,255486.796875,20013.0,1.0,4
233636.890625,284681.84375,358205.59375,327074.0625,258984.40625,281577.375,252860.734375,255178.609375,20014.0,1.0,4
232803.71875,283190.34375,356075.8125,326329.6875,257374.625,280733.28125,252278.703125,254299.109375,20015.0,1.0,4
232341.75,282618.96875,355386.125,326142.28125,256665.453125,280316.0,252134.21875,254062.90625,20016.0,1.0,4
232894.8125,283757.1875,357087.71875,326768.03125,257836.328125,280894.03125,252618.4375,254798.0,20017.0,1.0,4
233696.078125,285032.84375,358830.90625,327346.59375,259271.21875,281673.9375,253077.015625,255499.859375,20018.0,1.0,4
233653.96875,284692.21875,358214.25,327081.3125,258994.953125,281586.3125,252873.515625,255197.125,20019.0,1.0,4
232819.890625,283194.28125,356074.84375,326329.75,257384.46875,280736.6875,252278.15625,254304.75,20020.0,1.0,4
232348.1875,282608.75,355363.0625,326129.40625,256662.234375,280304.5625,252113.296875,254053.25,20021.0,1.0,4
232894.8125,283745.5,357058.21875,326755.78125,257825.6875,280891.53125,252603.15625,254792.734375,20022.0,1.0,4
233691.171875,285019.96875,358811.0625,327337.65625,259264.953125,281677.84375,253064.5,255498.875,20023.0,1.0,4
233645.828125,284682.1875,358207.65625,327070.84375,258997.0,281594.53125,252862.25,255200.25,20024.0,1.0,4
232824.625,283199.375,356074.84375,326320.8125,257391.4375,280756.625,252281.640625,254314.046875,20025.0,1.0,4
232353.375,282607.78125,355347.25,326118.59375,256660.53125,280327.0,252119.734375,254058.515625,20026.0,1.0,4
232894.546875,283733.59375,357031.75,326740.3125,257816.921875,280902.53125,252603.6875,254788.265625,20027.0,1.0,4
233696.96875,285018.1875,358800.3125,327325.9375,259265.578125,281688.40625,253068.609375,255495.828125,20028.0,1.0,4
233666.046875,284700.96875,358219.90625,327069.875,259016.046875,281615.8125,252879.328125,255210.078125,20029.0,1.0,4
232837.15625,283207.6875,356087.34375,326319.03125,257412.0,280771.28125,252292.734375,254318.875,20030.0,1.0,4
232355.25,282604.21875,355340.09375,326104.90625,256665.453125,280323.0,252117.234375,254051.375,20031.0,1.0,4
232887.3125,283724.21875,357008.4375,326718.15625,257808.078125,280889.5625,252596.71875,254771.8125,20032.0,1.0,4
233687.59375,285014.15625,358786.28125,327306.71875,259263.265625,281679.8125,253072.625,255487.78125,20033.0,1.0,4
233663.265625,284712.96875,358223.8125,327058.15625,259027.046875,281609.375,252885.859375,255209.1875,20034.0,1.0,4
232839.296875,283225.9375,356093.25,326311.0625,257425.40625,280765.09375,252292.28125,254315.5625,20035.0,1.0,4
232352.5625,282609.03125,355329.625,326093.90625,256667.234375,280316.1875,252120.453125,254046.90625,20036.0,1.0,4
232877.828125,283715.96875,356988.5,326705.0,257800.390625,280870.96875,252596.984375,254768.234375,20037.0,1.0,4
233686.515625,285017.5625,358774.9375,327295.28125,259259.0625,281659.71875,253066.109375,255482.15625,20038.0,1.0,4
233667.46875,284722.0,358229.09375,327052.34375,259038.578125,281601.15625,252883.71875,255212.5,20039.0,1.0,4
232846.265625,283234.96875,356097.5625,326304.71875,257441.140625,280766.0,252298.546875,254329.15625,20040.0,1.0,4
232351.578125,282602.3125,355313.09375,326078.625,256666.4375,280308.40625,252117.5,254042.421875,20041.0,1.0,4
232873.09375,283703.71875,356960.875,326685.6875,257790.015625,280870.15625,252595.203125,254759.203125,20042.0,1.0,4
233678.015625,285004.6875,358755.625,327281.78125,259256.90625,281670.78125,253068.34375,255483.3125,20043.0,1.0,4
233667.203125,284723.34375,358226.15625,327042.5,259047.078125,281616.4375,252884.15625,255212.140625,20044.0,1.0,4
232850.65625,283239.96875,356093.09375,326290.6875,257448.828125,280778.59375,252294.171875,254319.765625,20045.0,1.0,4
232348.984375,282595.96875,355291.8125,326060.90625,256664.015625,280321.09375,252114.71875,254037.328125,20046.0,1.0,4
232858.421875,283682.09375,356922.96875,326663.15625,257774.09375,280873.03125,252585.546875,254749.28125,20047.0,1.0,4
233666.046875,284990.9375,358724.9375,327262.0,259244.84375,281671.96875,253061.359375,255476.421875,20048.0,1.0,4
233666.578125,284726.375,358216.9375,327031.96875,259053.6875,281626.90625,252883.890625,255219.65625,20049.0,1.0,4
232845.46875,283236.75,356080.75,326274.59375,257453.75,280782.53125,252289.25,254325.578125,20050.0,1.0,4
232339.78125,282580.5,355261.15625,326035.625,256654.0,280311.375,252099.703125,254033.9375,20051.0,1.0,4
232848.0625,283664.125,356886.46875,326637.0625,257756.9375,280862.375,252575.703125,254748.828125,20052.0,1.0,4
233656.03125,284979.21875,358700.0,327242.15625,259232.6875,281662.9375,253054.921875,255477.40625,20053.0,1.0,4
233670.875,284734.6875,358212.84375,327022.03125,259057.796875,281625.90625,252888.8125,255225.90625,20054.0,1.0,4
232854.859375,283250.71875,356084.0625,326273.875,257467.96875,280789.0625,252305.875,254340.609375,20055.0,1.0,4
232342.8125,282583.09375,355245.9375,326027.125,256653.203125,280302.25,252104.359375,254034.296875,20056.0,1.0,4
232838.9375,283652.21875,356855.90625,326620.34375,257746.109375,280845.125,252569.453125,254732.109375,20057.0,1.0,4
233649.046875,284972.40625,358679.53125,327227.125,259231.96875,281655.0625,253058.953125,255467.578125,20058.0,1.0,4
233669.96875,284741.375,358213.09375,327009.25,259072.46875,281626.53125,252898.640625,255229.21875,20059.0,1.0,4
232853.0625,283254.28125,356083.96875,326255.03125,257480.390625,280786.46875,252299.625,254335.859375,20060.0,1.0,4
232331.640625,282569.25,355230.3125,326005.84375,256655.796875,280300.1875,252099.171875,254029.5625,20061.0,1.0,4
232833.3125,283638.5625,356830.6875,326599.0625,257738.421875,280841.0,252565.34375,254727.828125,20062.0,1.0,4
233647.625,284962.03125,358663.625,327210.59375,259228.484375,281647.8125,253048.671875,255464.625,20063.0,1.0,4
233667.375,284734.40625,358208.90625,326996.5625,259078.71875,281620.625,252887.109375,255225.28125,20064.0,1.0,4
232856.640625,283258.125,356084.84375,326248.65625,257497.390625,280797.03125,252311.328125,254344.796875,20065.0,1.0,4
232328.328125,282563.34375,355213.3125,325993.875,256662.40625,280309.5625,252105.6875,254025.265625,20066.0,1.0,4
232815.15625,283614.40625,356799.46875,326580.71875,257732.875,280836.625,252555.40625,254710.65625,20067.0,1.0,4
233632.875,284945.25,358640.71875,327194.5,259225.171875,281643.0,253041.078125,255451.03125,20068.0,1.0,4
233658.53125,284730.75,358205.6875,326988.0625,259091.0625,281628.40625,252886.84375,255226.359375,20069.0,1.0,4
232846.71875,283251.15625,356082.625,326236.15625,257509.1875,280801.9375,252301.140625,254341.140625,20070.0,1.0,4
232316.359375,282547.25,355189.8125,325972.59375,256658.828125,280307.78125,252095.140625,254017.9375,20071.0,1.0,4
232804.421875,283599.125,356766.5,326558.375,257721.078125,280834.40625,252554.515625,254707.890625,20072.0,1.0,4
233623.21875,284936.375,358616.0625,327177.53125,259217.65625,281640.75,253039.734375,255451.65625,20073.0,1.0,4
233660.59375,284737.09375,358198.25,326976.4375,259095.4375,281630.28125,252891.046875,255232.171875,20074.0,1.0,4
232853.59375,283261.96875,356076.375,326225.875,257512.5,280800.875,252306.59375,254350.703125,20075.0,1.0,4
232312.78125,282544.75,355165.03125,325956.03125,256645.515625,280293.84375,252087.09375,254018.734375,20076.0,1.0,4
232792.09375,283585.625,356727.0625,326540.5,257695.59375,280815.34375,252549.25,254706.1875,20077.0,1.0,4
233611.953125,284929.21875,358584.3125,327163.65625,259198.703125,281630.5625,253041.34375,255455.328125,20078.0,1.0,4
233662.015625,284748.375,358189.5,326975.90625,259092.578125,281631.1875,252896.5,255243.34375,20079.0,1.0,4
232864.859375,283279.59375,356073.40625,326231.0625,257517.5,280799.96875,252301.671875,254355.4375,20080.0,1.0,4
232320.90625,282548.25,355146.15625,325954.78125,256641.84375,280287.40625,252077.984375,254011.578125,20081.0,1.0,4
232794.859375,283580.53125,356695.5,326533.625,257682.546875,280802.21875,252531.546875,254692.15625,20082.0,1.0,4
233618.484375,284928.875,358559.71875,327158.5625,259189.671875,281617.0625,253029.984375,255449.25,20083.0,1.0,4
233666.484375,284755.25,358179.375,326971.53125,259099.015625,281630.375,252898.90625,255249.6875,20084.0,1.0,4
232867.015625,283288.09375,356064.8125,326224.25,257531.71875,280807.5625,252311.515625,254368.59375,20085.0,1.0,4
232319.484375,282549.125,355126.3125,325941.90625,256648.375,280293.03125,252083.515625,254018.828125,20086.0,1.0,4
232789.234375,283570.25,356667.78125,326514.21875,257681.296875,280807.46875,252538.421875,254697.96875,20087.0,1.0,4
233618.921875,284925.125,358544.09375,327143.28125,259197.90625,281626.4375,253040.4375,255461.765625,20088.0,1.0,4
233682.40625,284763.5625,358182.53125,326963.03125,259119.578125,281637.28125,252896.140625,255253.890625,20089.0,1.0,4
232879.078125,283293.875,356068.125,326213.34375,257550.9375,280818.65625,252308.46875,254365.640625,20090.0,1.0,4
232326.09375,282548.25,355111.03125,325928.5,256655.4375,280304.46875,252085.9375,254017.125,20091.0,1.0,4
232787.078125,283558.1875,356640.15625,326500.71875,257677.359375,280807.125,252537.265625,254688.484375,20092.0,1.0,4
233608.203125,284909.03125,358520.75,327125.9375,259191.640625,281619.75,253032.671875,255444.421875,20093.0,1.0,4
233668.984375,284758.28125,358176.09375,326947.28125,259125.9375,281639.875,252903.203125,255251.921875,20094.0,1.0,4
232877.734375,283302.46875,356066.25,326203.34375,257565.25,280826.53125,252320.453125,254370.828125,20095.0,1.0,4
232317.15625,282539.75,355089.75,325911.15625,256653.375,280298.5625,252083.875,254009.265625,20096.0,1.0,4
232773.765625,283541.28125,356605.03125,326478.0,257663.234375,280800.78125,252530.109375,254671.59375,20097.0,1.0,4
233601.671875,284905.09375,358493.9375,327111.8125,259183.953125,281618.03125,253033.46875,255436.734375,20098.0,1.0,4
233675.78125,284770.09375,358166.25,326943.8125,259133.078125,281642.09375,252906.78125,255251.03125,20099.0,1.0,4
232882.125,283307.9375,356060.90625,326197.25,257573.375,280825.375,252318.390625,254369.21875,20100.0,1.0,4
232317.25,282535.8125,355072.3125,325898.03125,256652.9375,280294.375,252079.5,254003.71875,20101.0,1.0,4
232769.5625,283529.46875,356573.46875,326461.09375,257651.4375,280787.90625,252520.90625,254662.203125,20102.0,1.0,4
233595.5,284891.5,358467.09375,327094.46875,259177.25,281602.9375,253023.8125,255429.125,20103.0,1.0,4
233677.390625,284770.8125,358161.59375,326929.5,259143.71875,281640.84375,252902.125,255251.296875,20104.0,1.0,4
232892.3125,283314.53125,356061.59375,326181.34375,257589.5625,280831.71875,252318.390625,254372.78125,20105.0,1.0,4
232316.0,282524.625,355052.65625,325872.625,256652.484375,280291.4375,252071.71875,253998.359375,20106.0,1.0,4
232756.421875,283506.59375,356536.34375,326428.75,257634.890625,280776.625,252506.15625,254650.578125,20107.0,1.0,4
233587.90625,284880.25,358440.90625,327073.28125,259168.125,281605.53125,253019.171875,255425.109375,20108.0,1.0,4
233674.625,284770.71875,358156.59375,326919.40625,259151.859375,281655.6875,252912.140625,255260.875,20109.0,1.0,4
232896.0625,283323.5625,356063.9375,326177.15625,257605.75,280847.53125,252329.484375,254384.234375,20110.0,1.0,4
232322.96875,282528.375,355036.75,325864.125,256660.53125,280299.84375,252080.03125,254004.875,20111.0,1.0,4
232757.3125,283498.1875,356505.78125,326414.53125,257632.75,280775.125,252508.65625,254649.953125,20112.0,1.0,4
233586.734375,284872.28125,358417.3125,327058.6875,259167.328125,281601.40625,253021.84375,255425.109375,20113.0,1.0,4
233676.59375,284770.96875,358144.15625,326909.3125,259158.921875,281651.84375,252914.296875,255268.640625,20114.0,1.0,4
232896.78125,283326.96875,356046.3125,326164.90625,257611.28125,280846.90625,252331.890625,254387.265625,20115.0,1.0,4
232318.234375,282525.96875,355004.0,325846.4375,256654.0,280294.375,252076.109375,253993.796875,20116.0,1.0,4
232743.09375,283484.0625,356460.625,326392.625,257617.1875,280764.375,252505.515625,254639.484375,20117.0,1.0,4
233567.609375,284858.59375,358376.96875,327035.625,259154.359375,281593.46875,253018.71875,255416.96875,20118.0,1.0,4
233668.359375,284776.09375,358127.34375,326889.90625,259159.1875,281649.96875,252908.75,255265.96875,20119.0,1.0,4
232891.234375,283331.625,356037.65625,326148.71875,257614.859375,280845.46875,252325.28125,254390.21875,20120.0,1.0,4
232308.484375,282518.03125,354980.40625,325826.59375,256643.453125,280289.71875,252071.8125,253993.703125,20121.0,1.0,4
232730.578125,283468.0625,356428.90625,326372.15625,257596.890625,280757.59375,252505.796875,254635.734375,20122.0,1.0,4
233560.0,284849.21875,358356.3125,327020.15625,259140.421875,281589.71875,253021.40625,255416.171875,20123.0,1.0,4
233666.125,284779.03125,358125.9375,326884.25,259162.046875,281659.34375,252919.65625,255269.546875,20124.0,1.0,4
232900.265625,283346.90625,356046.6875,326145.84375,257629.265625,280860.6875,252339.140625,254396.03125,20125.0,1.0,4
232306.96875,282515.96875,354970.9375,325813.78125,256645.6875,280295.4375,252074.9375,253993.875,20126.0,1.0,4
232719.578125,283451.78125,356401.625,326348.90625,257584.015625,280748.75,252493.359375,254623.125,20127.0,1.0,4
233552.578125,284836.78125,358337.90625,327003.1875,259132.8125,281576.90625,253006.46875,255407.578125,20128.0,1.0,4
233675.78125,284784.21875,358128.96875,326873.96875,259168.3125,281649.34375,252910.8125,255274.8125,20129.0,1.0,4
232910.1875,283352.1875,356049.09375,326133.15625,257634.625,280856.75,252330.203125,254396.578125,20130.0,1.0,4
232310.09375,282508.28125,354954.65625,325796.0,256640.421875,280291.4375,252061.4375,253978.765625,20131.0,1.0,4
232716.8125,283434.78125,356372.46875,326331.8125,257570.078125,280742.40625,252480.75,254610.796875,20132.0,1.0,4
233555.984375,284832.125,358314.21875,326985.125,259122.09375,281573.25,253001.109375,255401.859375,20133.0,1.0,4
233679.09375,284788.34375,358122.4375,326860.84375,259172.6875,281657.03125,252913.484375,255271.234375,20134.0,1.0,4
232911.265625,283353.625,356041.9375,326119.9375,257644.453125,280860.3125,252326.265625,254389.6875,20135.0,1.0,4
232308.21875,282503.71875,354932.125,325776.78125,256639.34375,280280.6875,252050.796875,253971.984375,20136.0,1.0,4
232709.65625,283424.4375,356339.46875,326306.53125,257556.921875,280722.46875,252466.625,254596.484375,20137.0,1.0,4
233539.796875,284815.6875,358288.90625,326966.6875,259111.171875,281558.40625,252989.75,255392.75,20138.0,1.0,4
233680.171875,284791.90625,358116.0,326853.6875,259176.0,281651.03125,252910.09375,255277.140625,20139.0,1.0,4
232920.03125,283364.96875,356042.65625,326114.75,257654.46875,280863.375,252330.640625,254403.90625,20140.0,1.0,4
232306.25,282503.09375,354919.6875,325767.65625,256640.59375,280286.0625,252057.421875,253984.046875,20141.0,1.0,4
232704.828125,283415.46875,356314.375,326294.71875,257547.453125,280727.28125,252471.375,254597.015625,20142.0,1.0,4
233548.203125,284820.34375,358268.8125,326955.0625,259105.1875,281561.625,252994.578125,255389.96875,20143.0,1.0,4
233682.5,284799.9375,358109.28125,326844.03125,259183.0625,281657.46875,252915.1875,255278.65625,20144.0,1.0,4
232924.671875,283375.78125,356041.5,326107.21875,257667.4375,280873.1875,252339.9375,254404.96875,20145.0,1.0,4
232307.6875,282499.40625,354900.9375,325750.9375,256639.078125,280282.5625,252056.96875,253973.234375,20146.0,1.0,4
232700.796875,283404.65625,356280.375,326273.625,257536.71875,280718.625,252469.9375,254588.4375,20147.0,1.0,4
233541.234375,284809.78125,358244.46875,326941.40625,259102.5,281556.28125,252995.03125,255387.5625,20148.0,1.0,4
233685.078125,284800.9375,358104.125,326834.8125,259194.6875,281653.53125,252914.734375,255279.90625,20149.0,1.0,4
232932.8125,283383.03125,356039.78125,326098.65625,257681.5625,280870.875,252337.53125,254409.984375,20150.0,1.0,4
232310.0,282497.625,354880.1875,325735.90625,256641.765625,280276.0625,252049.09375,253968.40625,20151.0,1.0,4
232694.71875,283391.0,356246.5,326253.15625,257525.09375,280701.71875,252452.765625,254572.703125,20152.0,1.0,4
233527.90625,284794.9375,358214.625,326921.375,259088.109375,281540.0,252981.4375,255375.9375,20153.0,1.0,4
233682.578125,284805.3125,358101.6875,326829.46875,259198.4375,281658.46875,252920.109375,255282.0625,20154.0,1.0,4
232933.890625,283392.78125,356048.03125,326101.25,257695.515625,280879.8125,252345.578125,254420.0,20155.0,1.0,4
232306.078125,282494.25,354870.15625,325729.84375,256640.6875,280271.03125,252045.25,253967.328125,20156.0,1.0,4
232682.75,283372.21875,356216.625,326239.375,257509.09375,280688.65625,252440.875,254559.296875,20157.0,1.0,4
233522.90625,284788.59375,358192.0,326910.0,259080.328125,281531.84375,252976.15625,255369.671875,20158.0,1.0,4
233684.90625,284812.5625,358097.03125,326820.34375,259203.171875,281650.40625,252912.140625,255283.578125,20159.0,1.0,4
232942.65625,283401.71875,356045.4375,326088.53125,257702.484375,280874.90625,252336.8125,254413.5625,20160.0,1.0,4
232312.515625,282492.09375,354849.96875,325714.5625,256641.3125,280269.25,252037.921875,253959.109375,20161.0,1.0,4
232679.703125,283357.28125,356180.25,326217.90625,257495.140625,280670.15625,252423.0,254548.03125,20162.0,1.0,4
233529.15625,284783.5,358168.9375,326895.53125,259072.734375,281516.5625,252958.546875,255358.046875,20163.0,1.0,4
233698.3125,284819.1875,358088.90625,326813.28125,259213.640625,281645.21875,252903.5625,255279.375,20164.0,1.0,4
232949.53125,283405.8125,356039.96875,326081.84375,257717.953125,280872.5625,252339.578125,254419.90625,20165.0,1.0,4
232305.890625,282479.75,354832.8125,325704.1875,256640.78125,280259.6875,252037.03125,253958.5625,20166.0,1.0,4
232666.5625,283337.15625,356153.875,326205.5625,257483.25,280665.59375,252425.5,254541.40625,20167.0,1.0,4
233515.921875,284765.15625,358146.59375,326885.25,259062.1875,281517.8125,252963.5625,255354.484375,20168.0,1.0,4
233702.15625,284822.5625,358091.25,326812.84375,259217.65625,281653.09375,252911.703125,255286.34375,20169.0,1.0,4
232954.90625,283410.3125,356043.8125,326078.09375,257724.03125,280878.84375,252337.796875,254423.21875,20170.0,1.0,4
232309.015625,282477.78125,354817.875,325691.03125,256636.75,280259.875,252028.359375,253956.59375,20171.0,1.0,4
232661.828125,283325.71875,356121.96875,326189.9375,257471.359375,280659.5,252422.203125,254543.375,20172.0,1.0,4
233503.765625,284750.5,358117.15625,326865.125,259048.6875,281505.21875,252956.40625,255354.296875,20173.0,1.0,4
233691.515625,284814.0625,358076.84375,326797.1875,259216.40625,281647.1875,252908.84375,255287.328125,20174.0,1.0,4
232956.59375,283413.4375,356037.125,326071.28125,257731.984375,280878.84375,252339.859375,254427.59375,20175.0,1.0,4
232312.0625,282476.875,354801.15625,325685.0625,256639.875,280260.75,252034.078125,253956.328125,20176.0,1.0,4
232661.90625,283316.5,356093.53125,326179.5625,257465.828125,280656.46875,252422.203125,254533.8125,20177.0,1.0,4
233508.0625,284747.28125,358096.15625,326858.6875,259050.5625,281507.1875,252962.390625,255358.859375,20178.0,1.0,4
233694.03125,284817.375,358068.96875,326788.34375,259227.5,281651.9375,252917.421875,255301.640625,20179.0,1.0,4
232961.25,283423.0,356035.40625,326060.03125,257748.265625,280889.28125,252348.796875,254438.328125,20180.0,1.0,4
232312.515625,282476.4375,354780.6875,325663.0625,256642.109375,280260.9375,252033.0,253959.015625,20181.0,1.0,4
232652.078125,283301.65625,356054.625,326146.75,257448.5625,280648.875,252416.390625,254529.703125,20182.0,1.0,4
233493.578125,284734.15625,358060.75,326830.1875,259033.390625,281499.5,252960.78125,255352.953125,20183.0,1.0,4
233690.890625,284822.125,358053.5,326771.625,259224.546875,281648.09375,252918.765625,255300.75,20184.0,1.0,4
232962.046875,283433.28125,356023.15625,326042.6875,257745.390625,280883.5625,252343.34375,254435.546875,20185.0,1.0,4
232302.859375,282470.4375,354750.90625,325636.6875,256623.4375,280244.9375,252015.84375,253939.875,20186.0,1.0,4
232639.03125,283287.0,356015.28125,326119.9375,257421.921875,280625.8125,252388.125,254505.109375,20187.0,1.0,4
233489.546875,284726.90625,358037.0625,326810.9375,259017.03125,281481.625,252937.453125,255336.78125,20188.0,1.0,4
233696.703125,284831.4375,358055.28125,326765.1875,259230.984375,281652.375,252913.21875,255300.921875,20189.0,1.0,4
232966.25,283441.9375,356030.5,326038.75,257760.234375,280894.65625,252342.71875,254440.5625,20190.0,1.0,4
232301.78125,282471.96875,354744.71875,325632.03125,256632.90625,280255.03125,252021.46875,253942.109375,20191.0,1.0,4
232626.78125,283274.5,355991.4375,326111.53125,257414.859375,280618.84375,252392.25,254502.15625,20192.0,1.0,4
233477.921875,284717.53125,358015.25,326803.875,259008.265625,281475.25,252947.375,255337.9375,20193.0,1.0,4
233696.796875,284836.15625,358051.53125,326762.21875,259232.0625,281651.5625,252923.59375,255304.3125,20194.0,1.0,4
232977.15625,283453.03125,356034.53125,326035.6875,257767.75,280895.375,252346.828125,254443.6875,20195.0,1.0,4
232311.796875,282469.90625,354732.84375,325624.0625,256627.359375,280252.25,252016.015625,253942.03125,20196.0,1.0,4
232630.796875,283260.375,355963.78125,326100.25,257399.03125,280616.5,252382.59375,254491.25,20197.0,1.0,4
233472.203125,284701.0625,357989.40625,326792.4375,258992.625,281467.125,252932.0,255322.734375,20198.0,1.0,4
233694.03125,284833.46875,358042.96875,326754.96875,259233.21875,281647.46875,252910.71875,255300.5625,20199.0,1.0,4
232973.765625,283456.0625,356027.71875,326028.375,257776.953125,280896.875,252344.859375,254450.296875,20200.0,1.0,4
232300.53125,282460.625,354709.15625,325609.9375,256626.296875,280249.3125,252014.046875,253947.203125,20201.0,1.0,4
232613.8125,283240.78125,355925.96875,326079.875,257388.75,280612.21875,252381.421875,254496.171875,20202.0,1.0,4
233461.84375,284688.46875,357955.59375,326772.9375,258985.46875,281467.21875,252932.703125,255326.671875,20203.0,1.0,4
233687.140625,284830.09375,358025.875,326741.65625,259237.328125,281652.8125,252914.296875,255308.25,20204.0,1.0,4
232971.265625,283458.3125,356020.65625,326022.84375,257788.84375,280907.15625,252354.15625,254465.859375,20205.0,1.0,4
232296.859375,282459.8125,354691.96875,325602.53125,256634.609375,280259.25,252026.03125,253957.765625,20206.0,1.0,4
232606.65625,283229.78125,355895.03125,326065.9375,257384.546875,280616.875,252390.71875,254496.890625,20207.0,1.0,4
233461.75,284681.9375,357931.71875,326762.125,258981.984375,281470.15625,252937.1875,255333.28125,20208.0,1.0,4
233702.96875,284841.625,358028.03125,326742.09375,259252.171875,281666.59375,252932.171875,255324.4375,20209.0,1.0,4
232992.71875,283477.625,356028.96875,326021.5,257808.609375,280922.375,252364.171875,254474.0,20210.0,1.0,4
232307.6875,282465.09375,354680.34375,325589.75,256634.96875,280258.34375,252014.859375,253948.28125,20211.0,1.0,4
232611.75,283228.96875,355867.40625,326049.90625,257368.640625,280603.71875,252374.90625,254483.65625,20212.0,1.0,4
233459.78125,284681.21875,357909.375,326748.8125,258971.890625,281458.46875,252932.703125,255325.234375,20213.0,1.0,4
233696.34375,284844.84375,358019.625,326732.8125,259252.890625,281660.4375,252926.453125,255323.90625,20214.0,1.0,4
232993.171875,283489.34375,356033.625,326019.53125,257820.234375,280930.96875,252368.546875,254474.0,20215.0,1.0,4
232307.234375,282469.375,354674.28125,325582.9375,256639.4375,280262.53125,252019.0625,253940.5,20216.0,1.0,4
232609.609375,283229.59375,355849.96875,326038.21875,257366.140625,280599.875,252378.75,254470.953125,20217.0,1.0,4
233456.921875,284685.78125,357896.3125,326737.46875,258968.84375,281449.15625,252936.375,255311.5625,20218.0,1.0,4
233705.65625,284869.78125,358028.03125,326728.78125,259266.484375,281660.0625,252941.296875,255317.8125,20219.0,1.0,4
233002.640625,283517.21875,356044.8125,326014.5,257839.90625,280931.5,252384.90625,254476.140625,20220.0,1.0,4
232308.75,282486.09375,354669.375,325575.15625,256652.9375,280262.28125,252033.546875,253939.875,20221.0,1.0,4
232585.375,283216.8125,355818.59375,326025.25,257358.53125,280590.21875,252381.609375,254461.03125,20222.0,1.0,4
233440.203125,284679.34375,357866.28125,326730.75,258961.15625,281443.625,252935.03125,255305.84375,20223.0,1.0,4
233698.5,284875.3125,358012.75,326727.625,259273.453125,281661.78125,252938.515625,255322.015625,20224.0,1.0,4
232999.25,283528.21875,356036.3125,326015.21875,257854.5625,280938.03125,252381.34375,254483.46875,20225.0,1.0,4
232302.234375,282490.84375,354644.0625,325567.5625,256656.515625,280268.34375,252028.453125,253946.234375,20226.0,1.0,4
232587.078125,283222.625,355784.0,326012.46875,257352.640625,280599.96875,252376.15625,254467.46875,20227.0,1.0,4
233442.796875,284688.09375,357837.9375,326719.75,258956.78125,281461.59375,252940.84375,255318.796875,20228.0,1.0,4
233715.84375,284906.34375,358008.0,326726.5625,259283.5625,281692.4375,252956.671875,255346.25,20229.0,1.0,4
233028.84375,283571.15625,356041.65625,326020.15625,257872.53125,280976.375,252407.171875,254513.609375,20230.0,1.0,4
232325.65625,282522.75,354639.40625,325569.28125,256666.609375,280306.34375,252056.078125,253974.921875,20231.0,1.0,4
232596.375,283238.09375,355761.75,326005.84375,257346.546875,280624.1875,252398.953125,254488.5625,20232.0,1.0,4
233448.875,284701.25,357818.28125,326711.96875,258948.546875,281478.125,252956.21875,255337.9375,20233.0,1.0,4
233728.0,284932.625,358009.6875,326725.5625,259288.828125,281719.25,252980.0,255375.9375,20234.0,1.0,4
233043.140625,283605.125,356051.15625,326016.84375,257880.046875,281008.90625,252424.703125,254541.5,20235.0,1.0,4
232345.671875,282556.90625,354634.84375,325562.21875,256663.65625,280330.6875,252058.3125,253985.296875,20236.0,1.0,4
232615.234375,283260.71875,355739.28125,325995.8125,257334.03125,280634.46875,252391.96875,254486.78125,20237.0,1.0,4
233465.40625,284722.0,357800.40625,326703.46875,258941.578125,281486.625,252953.28125,255339.28125,20238.0,1.0,4
233738.734375,284953.03125,358003.71875,326716.28125,259288.65625,281719.6875,252965.796875,255373.875,20239.0,1.0,4
233057.625,283626.3125,356051.5,326010.125,257888.359375,281009.90625,252418.078125,254541.140625,20240.0,1.0,4
232354.265625,282558.96875,354619.75,325547.4375,256657.140625,280329.875,252059.375,253984.046875,20241.0,1.0,4
232610.953125,283241.5,355706.21875,325970.53125,257307.296875,280623.9375,252385.546875,254479.890625,20242.0,1.0,4
233459.875,284700.09375,357774.375,326680.875,258919.046875,281479.28125,252953.90625,255335.515625,20243.0,1.0,4
233751.96875,284949.53125,358001.125,326702.84375,259286.59375,281723.90625,252976.25,255378.703125,20244.0,1.0,4
233068.0,283621.375,356052.03125,325992.6875,257888.453125,281005.78125,252418.171875,254546.859375,20245.0,1.0,4
232349.703125,282538.03125,354605.0,325523.59375,256648.734375,280318.6875,252051.0625,253984.671875,20246.0,1.0,4
232600.578125,283213.6875,355680.46875,325947.46875,257293.09375,280621.6875,252383.9375,254479.453125,20247.0,1.0,4
233447.265625,284671.03125,357751.84375,326659.59375,258901.34375,281476.5,252944.421875,255331.046875,20248.0,1.0,4
233740.078125,284926.65625,357995.75,326691.59375,259280.6875,281726.3125,252967.84375,255383.09375,20249.0,1.0,4
233068.71875,283609.125,356060.0,325991.34375,257897.390625,281024.375,252422.109375,254557.140625,20250.0,1.0,4
232354.359375,282524.0,354602.5,325524.28125,256655.609375,280335.15625,252057.328125,253991.640625,20251.0,1.0,4
232599.953125,283192.6875,355665.0,325946.21875,257290.3125,280630.90625,252388.578125,254480.171875,20252.0,1.0,4
233442.609375,284657.15625,357739.34375,326656.71875,258902.234375,281488.40625,252957.921875,255335.875,20253.0,1.0,4
233740.609375,284932.71875,358002.625,326689.4375,259296.609375,281748.5,252992.875,255391.9375,20254.0,1.0,4
233071.390625,283625.21875,356074.03125,325988.5,257920.09375,281046.46875,252440.53125,254565.546875,20255.0,1.0,4
232348.453125,282534.75,354599.34375,325512.40625,256664.921875,280347.9375,252067.609375,253991.203125,20256.0,1.0,4
232577.421875,283188.03125,355635.03125,325919.65625,257279.5,280621.59375,252382.859375,254462.90625,20257.0,1.0,4
233430.640625,284664.59375,357716.8125,326635.0,258893.5625,281475.34375,252946.5625,255318.890625,20258.0,1.0,4
233738.109375,284956.0625,358001.75,326675.6875,259303.765625,281740.90625,252985.1875,255390.328125,20259.0,1.0,4
233073.8125,283652.6875,356077.0,325975.875,257935.203125,281041.09375,252437.65625,254567.78125,20260.0,1.0,4
232349.4375,282551.375,354591.5625,325492.5625,256673.140625,280337.03125,252059.65625,253988.78125,20261.0,1.0,4
232582.34375,283199.375,355622.0,325902.21875,257281.734375,280615.71875,252383.390625,254463.984375,20262.0,1.0,4
233428.390625,284671.65625,357702.03125,326618.09375,258896.78125,281469.53125,252952.296875,255316.484375,20263.0,1.0,4
233738.734375,284968.125,358001.90625,326665.03125,259321.46875,281737.5,252990.828125,255392.46875,20264.0,1.0,4
233081.40625,283671.1875,356087.8125,325970.15625,257957.375,281038.59375,252439.8125,254572.609375,20265.0,1.0,4
232355.609375,282558.96875,354583.25,325480.125,256680.109375,280333.4375,252058.21875,253981.71875,20266.0,1.0,4
232577.875,283187.75,355591.40625,325881.125,257270.828125,280607.03125,252378.46875,254448.34375,20267.0,1.0,4
233419.375,284651.625,357672.71875,326597.09375,258880.234375,281455.3125,252937.359375,255306.015625,20268.0,1.0,4
233739.890625,284958.5625,357988.15625,326649.40625,259314.578125,281729.8125,252978.84375,255390.515625,20269.0,1.0,4
233085.4375,283661.71875,356078.3125,325956.5625,257958.640625,281043.875,252439.625,254580.84375,20270.0,1.0,4
232348.625,282533.46875,354557.34375,325463.125,256671.0,280330.0625,252053.21875,253991.109375,20271.0,1.0,4
232561.0625,283149.125,355544.21875,325855.46875,257242.578125,280587.53125,252358.0,254447.171875,20272.0,1.0,4
233409.53125,284622.125,357630.15625,326575.1875,258857.0,281445.75,252927.875,255310.484375,20273.0,1.0,4
233735.25,284947.5625,357969.03125,326641.875,259307.96875,281735.25,252987.15625,255408.75,20274.0,1.0,4
233086.140625,283666.0,356071.0,325954.53125,257962.03125,281056.9375,252448.75,254592.546875,20275.0,1.0,4
232349.875,282536.53125,354544.375,325460.28125,256672.25,280344.4375,252061.96875,253992.625,20276.0,1.0,4
232559.09375,283141.71875,355520.15625,325848.84375,257234.4375,280588.4375,252359.609375,254439.84375,20277.0,1.0,4
233411.140625,284620.59375,357612.71875,326569.65625,258852.171875,281443.15625,252928.6875,255304.234375,20278.0,1.0,4
233749.8125,284962.125,357970.1875,326638.65625,259320.390625,281740.96875,252995.03125,255414.375,20279.0,1.0,4
233099.65625,283682.625,356078.78125,325949.96875,257981.25,281060.875,252463.140625,254612.578125,20280.0,1.0,4
232352.109375,282537.5,354537.9375,325447.125,256678.5,280336.125,252060.984375,253997.546875,20281.0,1.0,4
232554.171875,283129.84375,355496.09375,325828.90625,257228.71875,280577.09375,252354.25,254430.1875,20282.0,1.0,4
233402.921875,284607.46875,357592.875,326551.40625,258849.578125,281434.5,252931.015625,255298.59375,20283.0,1.0,4
233743.46875,284958.5625,357971.53125,326627.9375,259330.578125,281738.75,253000.5625,255410.0,20284.0,1.0,4
233099.203125,283685.03125,356086.09375,325942.375,257994.671875,281057.65625,252462.703125,254601.765625,20285.0,1.0,4
232356.5,282541.25,354534.625,325439.28125,256689.859375,280336.3125,252069.9375,253995.671875,20286.0,1.0,4
232548.09375,283117.9375,355473.9375,325814.59375,257226.921875,280568.3125,252358.890625,254432.6875,20287.0,1.0,4
233390.125,284587.4375,357564.8125,326531.65625,258838.484375,281417.5,252923.6875,255291.0,20288.0,1.0,4
233738.46875,284949.15625,357956.78125,326610.3125,259330.859375,281731.59375,252997.890625,255407.9375,20289.0,1.0,4
233105.640625,283683.09375,356080.125,325926.8125,258007.0,281062.84375,252466.90625,254606.9375,20290.0,1.0,4
232352.75,282520.34375,354504.6875,325412.1875,256684.9375,280329.5,252058.484375,253987.0,20291.0,1.0,4
232531.015625,283082.4375,355425.46875,325783.5,257202.34375,280559.375,252345.9375,254416.953125,20292.0,1.0,4
233375.5625,284561.0625,357524.84375,326509.125,258815.875,281416.96875,252917.875,255281.15625,20293.0,1.0,4
233731.84375,284937.09375,357939.875,326599.5,259324.328125,281735.96875,252996.71875,255406.78125,20294.0,1.0,4
233104.03125,283677.71875,356077.0625,325923.84375,258013.171875,281076.15625,252471.546875,254610.796875,20295.0,1.0,4
232347.109375,282506.46875,354493.78125,325407.96875,256682.171875,280340.0625,252064.296875,253985.390625,20296.0,1.0,4
232519.9375,283062.59375,355395.15625,325769.375,257180.96875,280555.8125,252341.28125,254406.046875,20297.0,1.0,4
233368.140625,284550.15625,357499.1875,326498.125,258800.40625,281415.09375,252918.671875,255280.71875,20298.0,1.0,4
233735.59375,284951.21875,357934.78125,326597.1875,259325.046875,281744.75,253007.359375,255416.171875,20299.0,1.0,4
233108.671875,283700.0625,356078.875,325921.8125,258019.25,281080.4375,252477.453125,254620.53125,20300.0,1.0,4
232344.25,282521.25,354481.0625,325397.25,256677.796875,280329.96875,252053.125,253983.6875,20301.0,1.0,4
232513.40625,283072.96875,355372.46875,325758.0,257170.15625,280548.46875,252341.1875,254405.6875,20302.0,1.0,4
233359.828125,284563.03125,357477.1875,326489.4375,258786.8125,281402.9375,252913.9375,255276.6875,20303.0,1.0,4
233730.328125,284971.25,357929.0625,326589.5,259322.71875,281732.5,252993.6875,255405.703125,20304.0,1.0,4
233110.203125,283729.75,356082.78125,325916.0625,258027.921875,281075.34375,252471.109375,254615.34375,20305.0,1.0,4
232346.578125,282545.8125,354471.6875,325388.125,256683.6875,280329.96875,252059.109375,253981.90625,20306.0,1.0,4
232508.046875,283079.75,355345.90625,325742.34375,257167.375,280541.9375,252335.921875,254392.71875,20307.0,1.0,4
233352.046875,284566.59375,357454.03125,326473.25,258785.375,281399.4375,252917.421875,255272.9375,20308.0,1.0,4
233727.109375,284983.59375,357922.625,326582.78125,259335.328125,281737.125,253011.296875,255425.90625,20309.0,1.0,4
233115.390625,283747.71875,356085.5625,325910.71875,258045.359375,281083.3125,252479.953125,254629.65625,20310.0,1.0,4
232350.953125,282554.0625,354462.03125,325377.65625,256691.640625,280337.1875,252061.796875,253991.46875,20311.0,1.0,4
232502.046875,283069.75,355317.65625,325728.3125,257158.703125,280543.375,252337.171875,254397.828125,20312.0,1.0,4
233347.84375,284553.46875,357429.0,326458.96875,258773.84375,281401.21875,252913.75,255268.640625,20313.0,1.0,4
233733.8125,284982.625,357918.3125,326574.28125,259336.75,281749.21875,253010.40625,255423.046875,20314.0,1.0,4
233119.671875,283748.15625,356087.34375,325903.46875,258052.0625,281098.59375,252483.0,254636.1875,20315.0,1.0,4
232347.375,282539.90625,354450.9375,325366.40625,256685.03125,280342.84375,252054.640625,253989.671875,20316.0,1.0,4
232493.828125,283040.5,355289.3125,325708.21875,257135.734375,280536.84375,252322.0625,254385.21875,20317.0,1.0,4
233333.71875,284524.65625,357402.71875,326439.65625,258751.9375,281391.75,252898.640625,255259.890625,20318.0,1.0,4
233728.984375,284973.125,357917.25,326567.59375,259334.703125,281754.03125,253010.671875,255430.203125,20319.0,1.0,4
233129.15625,283752.8125,356103.71875,325907.03125,258066.1875,281118.4375,252496.5,254652.71875,20320.0,1.0,4
232355.6875,282540.625,354453.34375,325364.53125,256693.4375,280354.625,252065.640625,253998.796875,20321.0,1.0,4
232490.875,283033.0,355268.46875,325696.75,257129.734375,280537.90625,252325.546875,254382.359375,20322.0,1.0,4
233330.9375,284520.1875,357381.4375,326429.625,258746.75,281389.78125,252912.0625,255262.921875,20323.0,1.0,4
233727.828125,284977.25,357909.5625,326559.53125,259336.65625,281748.03125,253016.03125,255433.78125,20324.0,1.0,4
233125.671875,283758.375,356099.78125,325895.15625,258073.078125,281107.875,252491.484375,254647.71875,20325.0,1.0,4
232344.78125,282537.34375,354435.75,325345.84375,256695.046875,280347.5625,252061.53125,253990.125,20326.0,1.0,4
232477.375,283020.46875,355235.84375,325676.03125,257116.328125,280524.40625,252312.40625,254367.6875,20327.0,1.0,4
233315.921875,284506.25,357348.0,326407.71875,258726.640625,281368.78125,252882.109375,255238.78125,20328.0,1.0,4
233726.65625,284982.96875,357900.96875,326547.28125,259338.71875,281742.5,253004.6875,255427.34375,20329.0,1.0,4
233138.453125,283783.21875,356109.625,325892.75,258095.6875,281119.78125,252497.203125,254660.40625,20330.0,1.0,4
232353.015625,282551.625,354432.0,325334.21875,256706.671875,280352.40625,252058.21875,253995.671875,20331.0,1.0,4
232477.109375,283016.8125,355212.25,325652.78125,257112.84375,280518.34375,252302.484375,254362.78125,20332.0,1.0,4
233320.3125,284503.84375,357328.0625,326387.96875,258730.65625,281375.3125,252886.84375,255241.5625,20333.0,1.0,4
233735.25,284988.34375,357890.0625,326531.65625,259351.328125,281753.40625,253008.34375,255430.03125,20334.0,1.0,4
233149.09375,283794.84375,356105.59375,325877.53125,258114.65625,281136.0625,252502.578125,254664.515625,20335.0,1.0,4
232359.265625,282556.5625,354415.28125,325316.15625,256716.765625,280367.875,252064.03125,253991.28125,20336.0,1.0,4
232473.0,283003.40625,355173.875,325628.46875,257102.109375,280518.96875,252294.515625,254347.03125,20337.0,1.0,4
233314.3125,284488.1875,357285.78125,326366.59375,258712.953125,281369.9375,252877.453125,255227.875,20338.0,1.0,4
233737.65625,284988.25,357873.625,326519.3125,259350.515625,281757.4375,253010.671875,255431.453125,20339.0,1.0,4
233151.765625,283796.09375,356098.34375,325864.5625,258116.265625,281138.46875,252503.28125,254665.953125,20340.0,1.0,4
232365.4375,282554.3125,354400.0625,325303.8125,256714.53125,280366.34375,252064.5625,253991.46875,20341.0,1.0,4
232471.75,282991.15625,355142.25,325615.65625,257090.765625,280512.34375,252302.125,254347.578125,20342.0,1.0,4
233311.1875,284476.46875,357258.6875,326354.15625,258700.890625,281357.0625,252879.875,255229.390625,20343.0,1.0,4
233742.84375,284989.6875,357862.8125,326511.15625,259349.8125,281748.75,253008.4375,255437.171875,20344.0,1.0,4
233166.796875,283808.53125,356096.03125,325860.46875,258126.0,281136.59375,252500.421875,254672.484375,20345.0,1.0,4
232377.78125,282560.21875,354387.5625,325296.84375,256718.203125,280361.875,252060.8125,253992.984375,20346.0,1.0,4
232476.125,282985.25,355111.5625,325601.28125,257081.46875,280505.375,252296.765625,254341.671875,20347.0,1.0,4
233306.625,284463.25,357225.25,326334.84375,258686.9375,281345.4375,252873.078125,255220.1875,20348.0,1.0,4
233742.9375,284988.40625,357853.875,326500.96875,259353.828125,281743.5625,253011.921875,255439.859375,20349.0,1.0,4
233173.234375,283816.21875,356104.6875,325860.90625,258147.46875,281137.21875,252510.703125,254685.359375,20350.0,1.0,4
232378.046875,282555.65625,354382.09375,325290.5,256729.109375,280353.125,252052.9375,253990.9375,20351.0,1.0,4
232463.421875,282960.9375,355086.34375,325584.09375,257072.515625,280484.625,252279.765625,254331.03125,20352.0,1.0,4
233300.71875,284448.59375,357209.3125,326326.8125,258684.0,281339.09375,252871.640625,255225.734375,20353.0,1.0,4
233747.21875,284986.90625,357855.125,326498.5625,259363.484375,281745.8125,253014.15625,255445.9375,20354.0,1.0,4
233178.140625,283818.625,356111.9375,325855.375,258163.203125,281151.34375,252519.203125,254691.875,20355.0,1.0,4
232382.515625,282557.90625,354381.75,325283.0625,256741.984375,280377.4375,252067.96875,253999.0625,20356.0,1.0,4
232464.5,282956.75,355066.40625,325573.1875,257073.765625,280500.1875,252285.84375,254331.65625,20357.0,1.0,4
233297.5,284441.6875,357184.28125,326311.15625,258680.6875,281346.875,252873.25,255219.828125,20358.0,1.0,4
233744.8125,284988.40625,357846.09375,326487.03125,259367.78125,281757.96875,253019.96875,255450.59375,20359.0,1.0,4
233184.234375,283829.15625,356111.21875,325845.28125,258168.828125,281153.9375,252510.625,254693.40625,20360.0,1.0,4
232382.96875,282556.375,354368.15625,325264.75,256735.453125,280369.9375,252051.15625,253994.859375,20361.0,1.0,4
232461.640625,282949.0625,355042.1875,325552.625,257058.125,280496.96875,252280.671875,254326.921875,20362.0,1.0,4
233288.65625,284430.25,357157.03125,326292.84375,258662.71875,281337.5,252865.390625,255213.65625,20363.0,1.0,4
233739.4375,284985.65625,357830.875,326476.21875,259362.328125,281747.6875,253009.15625,255446.125,20364.0,1.0,4
233185.296875,283835.6875,356108.53125,325840.71875,258177.5,281155.375,252513.921875,254698.3125,20365.0,1.0,4
232382.25,282559.5,354359.46875,325258.65625,256739.65625,280369.21875,252063.140625,253998.265625,20366.0,1.0,4
232455.734375,282939.9375,355016.625,325543.34375,257048.109375,280483.21875,252281.203125,254318.078125,20367.0,1.0,4
233283.640625,284419.34375,357129.03125,326282.1875,258650.203125,281321.125,252860.375,255201.5,20368.0,1.0,4
233740.875,284990.03125,357823.09375,326474.0625,259364.203125,281743.40625,253014.78125,255444.6875,20369.0,1.0,4
233191.015625,283850.0,356112.46875,325843.65625,258191.890625,281158.6875,252523.578125,254704.75,20370.0,1.0,4
232383.140625,282566.125,354349.46875,325257.9375,256750.203125,280363.84375,252061.171875,253999.96875,20371.0,1.0,4
232445.015625,282930.28125,354985.25,325530.28125,257044.09375,280472.03125,252271.640625,254314.859375,20372.0,1.0,4
233277.75,284415.78125,357104.28125,326270.40625,258648.046875,281319.875,252855.90625,255198.46875,20373.0,1.0,4
233746.78125,284999.875,357819.875,326468.0,259377.609375,281744.46875,253013.265625,255449.6875,20374.0,1.0,4
233207.734375,283867.4375,356118.125,325838.75,258212.375,281158.40625,252518.390625,254709.3125,20375.0,1.0,4
232394.765625,282570.40625,354337.65625,325246.25,256758.4375,280362.59375,252054.015625,253999.96875,20376.0,1.0,4
232443.671875,282916.15625,354953.6875,325513.46875,257036.40625,280465.84375,252266.453125,254308.6875,20377.0,1.0,4
233272.109375,284396.8125,357069.84375,326253.5,258633.75,281303.25,252845.1875,255190.140625,20378.0,1.0,4
233749.015625,284994.6875,357804.34375,326454.9375,259377.96875,281741.59375,253010.3125,255446.65625,20379.0,1.0,4
233210.953125,283868.875,356117.03125,325825.25,258221.578125,281165.8125,252526.359375,254714.59375,20380.0,1.0,4
232397.890625,282567.0,354328.1875,325226.3125,256759.5,280367.15625,252057.765625,253997.28125,20381.0,1.0,4
232444.46875,282905.40625,354925.6875,325487.5625,257023.4375,280465.59375,252260.8125,254299.65625,20382.0,1.0,4
233273.015625,284389.125,357045.8125,326230.96875,258621.859375,281302.34375,252847.953125,255190.5,20383.0,1.0,4
233753.65625,284995.9375,357796.09375,326439.1875,259373.671875,281736.5,253010.9375,255449.875,20384.0,1.0,4
233217.75,283875.75,356116.15625,325816.5625,258227.5625,281165.65625,252523.5,254714.765625,20385.0,1.0,4
232402.984375,282567.0,354316.46875,325219.0625,256761.46875,280360.4375,252051.78125,253996.921875,20386.0,1.0,4
232440.8125,282890.5,354894.21875,325471.90625,257006.890625,280441.1875,252247.578125,254286.25,20387.0,1.0,4
233256.640625,284365.875,357011.375,326214.53125,258598.609375,281284.28125,252837.40625,255173.609375,20388.0,1.0,4
233744.09375,284994.6875,357785.28125,326435.71875,259370.109375,281745.0,253024.265625,255455.234375,20389.0,1.0,4
233222.5,283892.28125,356121.59375,325819.96875,258238.5625,281181.65625,252541.109375,254732.203125,20390.0,1.0,4
232408.265625,282578.1875,354309.40625,325212.875,256765.9375,280370.71875,252056.25,254004.875,20391.0,1.0,4
232439.640625,282890.03125,354870.96875,325460.46875,257000.109375,280449.5,252250.171875,254291.96875,20392.0,1.0,4
233253.34375,284365.53125,356986.875,326203.6875,258592.703125,281288.03125,252837.3125,255178.96875,20393.0,1.0,4
233741.140625,284998.96875,357776.4375,326426.78125,259376.359375,281750.1875,253023.8125,255459.4375,20394.0,1.0,4
233214.359375,283894.96875,356117.9375,325806.90625,258248.578125,281190.5,252543.25,254732.828125,20395.0,1.0,4
232393.78125,282574.4375,354298.21875,325198.59375,256770.6875,280380.5625,252061.34375,254004.875,20396.0,1.0,4
232418.015625,282875.03125,354843.4375,325442.5625,256992.859375,280449.9375,252248.484375,254283.828125,20397.0,1.0,4
233233.578125,284350.6875,356956.3125,326178.5,258576.078125,281276.5,252827.65625,255162.4375,20398.0,1.0,4
233730.765625,284997.4375,357759.90625,326402.71875,259366.703125,281733.75,253007.71875,255446.203125,20399.0,1.0,4
233220.4375,283913.03125,356115.4375,325791.34375,258251.984375,281180.40625,252530.734375,254730.859375,20400.0,1.0,4
232399.40625,282590.4375,354287.5,325184.625,256772.203125,280376.53125,252056.4375,254003.625,20401.0,1.0,4
232411.296875,282869.125,354808.21875,325418.53125,256975.15625,280435.1875,252235.96875,254272.203125,20402.0,1.0,4
233235.09375,284348.53125,356921.875,326159.625,258561.953125,281272.84375,252820.421875,255150.8125,20403.0,1.0,4
233747.40625,285011.84375,357750.875,326397.4375,259371.890625,281748.75,253015.953125,255448.796875,20404.0,1.0,4
233240.375,283932.34375,356123.65625,325792.59375,258270.671875,281204.28125,252546.921875,254742.75,20405.0,1.0,4
232413.359375,282596.25,354281.25,325178.125,256776.046875,280383.6875,252064.390625,254008.0,20406.0,1.0,4
232419.4375,282864.8125,354785.21875,325407.25,256961.390625,280430.28125,252236.765625,254269.34375,20407.0,1.0,4
233229.28125,284333.5,356894.25,326143.875,258538.265625,281256.40625,252810.84375,255141.515625,20408.0,1.0,4
233745.96875,285007.8125,357740.9375,326387.4375,259361.96875,281739.8125,253012.109375,255448.53125,20409.0,1.0,4
233244.390625,283932.78125,356122.5,325782.3125,258269.859375,281199.875,252546.03125,254745.796875,20410.0,1.0,4
232413.546875,282588.46875,354268.375,325159.15625,256767.375,280384.40625,252062.0625,254001.03125,20411.0,1.0,4
232413.984375,282847.75,354755.5625,325385.09375,256944.578125,280428.65625,252233.640625,254251.828125,20412.0,1.0,4
233223.828125,284313.5,356865.5625,326125.75,258524.671875,281248.53125,252810.40625,255134.09375,20413.0,1.0,4
233739.890625,284990.84375,357721.0,326372.6875,259358.5625,281734.46875,253012.453125,255450.59375,20414.0,1.0,4
233240.375,283928.9375,356112.125,325772.03125,258277.453125,281198.46875,252544.59375,254751.609375,20415.0,1.0,4
232413.265625,282586.21875,354254.15625,325150.5625,256778.640625,280378.78125,252055.890625,254005.6875,20416.0,1.0,4
232405.046875,282828.4375,354720.25,325368.625,256940.28125,280414.8125,252221.125,254247.703125,20417.0,1.0,4
233211.140625,284292.21875,356823.8125,326108.03125,258514.828125,281238.0625,252804.859375,255130.6875,20418.0,1.0,4
233739.796875,284989.9375,357706.25,326370.53125,259365.90625,281734.71875,253023.015625,255464.984375,20419.0,1.0,4
233252.171875,283934.75,356114.34375,325777.0625,258294.0,281199.34375,252559.4375,254771.625,20420.0,1.0,4
232422.296875,282579.34375,354243.59375,325147.96875,256783.375,280376.625,252065.1875,254013.546875,20421.0,1.0,4
232403.703125,282807.96875,354688.75,325354.34375,256925.09375,280405.875,252228.546875,254246.90625,20422.0,1.0,4
233211.671875,284279.875,356798.9375,326094.71875,258500.4375,281236.0,252813.0,255131.9375,20423.0,1.0,4
233746.15625,284992.1875,357700.25,326357.46875,259362.953125,281731.9375,253021.765625,255463.375,20424.0,1.0,4
233268.890625,283953.09375,356124.1875,325769.4375,258308.484375,281212.0625,252561.9375,254775.03125,20425.0,1.0,4
232434.375,282596.78125,354245.03125,325138.25,256795.53125,280392.46875,252070.734375,254018.734375,20426.0,1.0,4
232406.125,282812.6875,354675.0,325336.1875,256924.90625,280417.5,252229.96875,254244.3125,20427.0,1.0,4
233210.328125,284278.71875,356779.71875,326073.25,258492.84375,281233.78125,252812.453125,255123.71875,20428.0,1.0,4
233749.90625,285000.5,357695.25,326343.875,259366.25,281735.34375,253036.25,255463.640625,20429.0,1.0,4
233269.515625,283965.59375,356131.4375,325759.25,258317.609375,281217.78125,252584.203125,254776.90625,20430.0,1.0,4
232427.75,282599.09375,354241.5625,325123.21875,256797.5,280389.0625,252085.21875,254010.15625,20431.0,1.0,4
232394.140625,282801.71875,354649.96875,325319.28125,256910.15625,280399.15625,252228.984375,254220.265625,20432.0,1.0,4
233196.296875,284267.625,356752.46875,326061.4375,258478.984375,281221.0,252817.109375,255101.015625,20433.0,1.0,4
233739.265625,285000.65625,357684.0625,326335.3125,259365.90625,281732.125,253045.0,255449.421875,20434.0,1.0,4
233266.296875,283977.5,356130.28125,325752.90625,258331.90625,281225.0,252601.015625,254776.28125,20435.0,1.0,4
232429.0,282611.96875,354235.75,325118.5625,256812.078125,280399.78125,252104.796875,254014.09375,20436.0,1.0,4
232388.953125,282800.46875,354621.875,325312.03125,256913.109375,280398.90625,252238.015625,254226.78125,20437.0,1.0,4
233186.90625,284262.15625,356717.6875,326055.1875,258477.375,281213.9375,252819.96875,255115.671875,20438.0,1.0,4
233738.109375,285009.0,357664.0625,326337.0,259375.015625,281737.3125,253051.265625,255466.859375,20439.0,1.0,4
233277.484375,283999.59375,356124.375,325756.40625,258348.984375,281237.25,252598.328125,254793.890625,20440.0,1.0,4
232435.890625,282625.21875,354217.15625,325111.78125,256819.59375,280410.0625,252092.28125,254028.75,20441.0,1.0,4
232386.625,282801.4375,354583.875,325295.0625,256906.40625,280408.71875,252232.109375,254236.4375,20442.0,1.0,4
233187.171875,284265.03125,356681.375,326039.09375,258467.625,281230.65625,252816.65625,255120.234375,20443.0,1.0,4
233745.796875,285024.90625,357649.28125,326329.5,259376.625,281758.6875,253052.96875,255482.78125,20444.0,1.0,4
233289.734375,284025.59375,356123.75,325755.0625,258359.625,281263.625,252607.453125,254815.4375,20445.0,1.0,4
232451.984375,282652.03125,354210.15625,325112.9375,256827.1875,280437.0625,252107.75,254050.203125,20446.0,1.0,4
232393.59375,282815.21875,354560.1875,325287.46875,256894.328125,280428.3125,252241.59375,254248.953125,20447.0,1.0,4
233183.78125,284269.40625,356653.84375,326023.8125,258446.171875,281239.59375,252820.953125,255129.96875,20448.0,1.0,4
233752.40625,285046.8125,357642.3125,326320.65625,259369.921875,281775.75,253066.734375,255498.875,20449.0,1.0,4
233301.96875,284055.0,356130.90625,325752.46875,258367.3125,281287.6875,252626.046875,254837.796875,20450.0,1.0,4
232458.59375,282671.96875,354208.46875,325104.71875,256825.046875,280445.75,252111.859375,254062.8125,20451.0,1.0,4
232400.3125,282827.71875,354542.9375,325274.03125,256878.421875,280425.96875,252243.296875,254253.25,20452.0,1.0,4
233190.3125,284280.9375,356636.3125,326010.125,258429.0,281239.59375,252823.90625,255132.21875,20453.0,1.0,4
233760.90625,285063.53125,357640.96875,326308.75,259364.109375,281774.78125,253068.34375,255505.84375,20454.0,1.0,4
233316.375,284079.6875,356146.46875,325746.65625,258374.375,281290.625,252630.78125,254847.453125,20455.0,1.0,4
232472.09375,282688.4375,354218.9375,325098.09375,256831.390625,280452.71875,252119.109375,254070.953125,20456.0,1.0,4
232399.6875,282821.375,354531.0625,325260.71875,256869.65625,280422.0625,252244.28125,254252.09375,20457.0,1.0,4
233178.140625,284261.8125,356617.53125,325995.90625,258412.734375,281222.875,252818.625,255126.75,20458.0,1.0,4
233749.1875,285049.03125,357639.375,326300.875,259360.171875,281764.59375,253061.359375,255504.5,20459.0,1.0,4
233323.25,284086.21875,356165.5,325747.28125,258387.34375,281291.25,252629.265625,254859.34375,20460.0,1.0,4
232471.921875,282686.46875,354226.34375,325090.125,256837.734375,280451.28125,252112.765625,254078.453125,20461.0,1.0,4
232385.46875,282797.9375,354515.5,325244.4375,256859.375,280415.875,252226.03125,254243.140625,20462.0,1.0,4
233165.546875,284239.90625,356600.09375,325983.75,258401.640625,281222.5,252804.40625,255114.421875,20463.0,1.0,4
233742.484375,285041.96875,357641.25,326301.59375,259366.171875,281775.84375,253062.4375,255506.921875,20464.0,1.0,4
233313.234375,284081.3125,356176.75,325747.0,258404.15625,281308.875,252634.0,254860.765625,20465.0,1.0,4
232470.40625,282685.125,354232.59375,325087.09375,256853.390625,280475.15625,252124.03125,254078.1875,20466.0,1.0,4
232387.34375,282793.75,354507.90625,325236.3125,256864.03125,280432.875,252235.96875,254242.703125,20467.0,1.0,4
233166.703125,284230.6875,356587.0625,325970.625,258398.34375,281222.875,252808.875,255112.8125,20468.0,1.0,4
233754.734375,285046.625,357643.3125,326290.5,259370.109375,281777.0,253069.6875,255509.328125,20469.0,1.0,4
233339.171875,284102.03125,356193.03125,325744.875,258418.71875,281313.4375,252643.484375,254872.578125,20470.0,1.0,4
232488.8125,282696.46875,354232.6875,325081.0,256858.125,280465.15625,252119.90625,254074.890625,20471.0,1.0,4
232389.40625,282783.375,354478.5625,325220.65625,256848.828125,280410.4375,252228.1875,254227.40625,20472.0,1.0,4
233168.671875,284224.0,356552.625,325954.4375,258379.390625,281204.0,252805.9375,255102.796875,20473.0,1.0,4
233760.640625,285054.84375,357626.21875,326279.53125,259363.390625,281765.65625,253067.625,255508.25,20474.0,1.0,4
233347.84375,284120.46875,356189.625,325735.46875,258425.34375,281315.75,252650.625,254878.828125,20475.0,1.0,4
232496.59375,282710.59375,354225.625,325069.9375,256863.9375,280471.59375,252129.125,254076.578125,20476.0,1.0,4
232387.4375,282783.46875,354450.9375,325199.75,256840.234375,280404.25,252224.34375,254217.046875,20477.0,1.0,4
233160.4375,284218.4375,356521.15625,325933.0625,258372.953125,281202.3125,252804.40625,255093.671875,20478.0,1.0,4
233759.03125,285059.5,357609.15625,326264.6875,259372.875,281774.25,253072.8125,255509.78125,20479.0,1.0,4
233357.671875,284137.90625,356186.59375,325724.3125,258447.328125,281326.40625,252656.0,254884.546875,20480.0,1.0,4
232509.390625,282726.25,354215.25,325057.0625,256885.296875,280480.25,252136.265625,254086.421875,20481.0,1.0,4
232386.890625,282775.96875,354418.5625,325181.78125,256844.53125,280405.15625,252227.734375,254219.90625,20482.0,1.0,4
233147.296875,284196.09375,356479.6875,325911.4375,258364.1875,281198.0,252804.953125,255088.671875,20483.0,1.0,4
233749.015625,285042.78125,357583.3125,326247.78125,259370.640625,281769.59375,253074.0625,255506.296875,20484.0,1.0,4
233352.765625,284127.625,356176.0625,325713.21875,258457.4375,281331.5,252660.640625,254889.921875,20485.0,1.0,4
232501.96875,282707.28125,354198.90625,325041.40625,256888.875,280485.4375,252138.234375,254093.921875,20486.0,1.0,4
232375.8125,282751.1875,354387.71875,325158.53125,256834.15625,280405.875,252222.8125,254217.75,20487.0,1.0,4
233141.140625,284177.40625,356449.8125,325891.125,258350.234375,281191.5625,252791.71875,255084.109375,20488.0,1.0,4
233747.484375,285035.4375,357571.875,326236.59375,259370.640625,281771.5625,253070.03125,255513.0,20489.0,1.0,4
233351.0625,284125.65625,356180.875,325706.875,258468.796875,281337.84375,252657.34375,254897.34375,20490.0,1.0,4
232499.90625,282704.6875,354197.5625,325034.0,256895.3125,280485.4375,252129.390625,254095.09375,20491.0,1.0,4
232372.234375,282739.3125,354369.3125,325148.875,256828.4375,280405.25,252220.765625,254214.265625,20492.0,1.0,4
233138.0,284165.25,356426.5625,325877.625,258343.078125,281192.65625,252801.109375,255082.5,20493.0,1.0,4
233747.578125,285034.5625,357562.5625,326224.34375,259372.609375,281767.96875,253078.53125,255512.453125,20494.0,1.0,4
233364.65625,284142.1875,356187.5,325698.0,258481.84375,281336.15625,252665.5625,254899.578125,20495.0,1.0,4
232515.28125,282718.375,354197.75,325019.6875,256902.640625,280483.5625,252134.03125,254085.34375,20496.0,1.0,4
232371.078125,282733.84375,354343.84375,325126.25,256815.921875,280387.53125,252213.4375,254193.890625,20497.0,1.0,4
233126.375,284152.28125,356396.25,325858.0625,258323.140625,281172.25,252793.40625,255065.78125,20498.0,1.0,4
233753.296875,285041.15625,357553.375,326215.3125,259365.90625,281758.40625,253078.078125,255507.8125,20499.0,1.0,4
233378.15625,284156.59375,356189.0,325692.375,258486.671875,281331.59375,252666.71875,254897.875,20500.0,1.0,4
232520.65625,282724.90625,354188.71875,325011.625,256906.21875,280479.4375,252138.234375,254088.65625,20501.0,1.0,4
232370.890625,282726.59375,354316.5625,325109.96875,256807.515625,280381.28125,252215.84375,254195.21875,20502.0,1.0,4
233112.4375,284128.6875,356358.25,325833.65625,258304.453125,281150.4375,252775.359375,255051.296875,20503.0,1.0,4
233731.578125,285021.0625,357529.3125,326195.84375,259359.46875,281746.875,253063.15625,255502.890625,20504.0,1.0,4
233371.796875,284158.71875,356185.4375,325685.0625,258500.4375,281340.25,252666.453125,254909.859375,20505.0,1.0,4
232520.203125,282724.0,354178.53125,325001.34375,256917.9375,280486.34375,252130.546875,254093.65625,20506.0,1.0,4
232364.984375,282709.71875,354284.90625,325088.78125,256801.34375,280372.59375,252194.125,254183.25,20507.0,1.0,4
233113.6875,284115.09375,356327.15625,325813.96875,258296.40625,281151.625,252766.59375,255044.59375,20508.0,1.0,4
233742.9375,285018.46875,357511.6875,326183.59375,259363.3125,281754.65625,253071.203125,255502.71875,20509.0,1.0,4
233380.203125,284158.28125,356176.6875,325672.53125,258510.359375,281344.90625,252672.265625,254908.78125,20510.0,1.0,4
232518.953125,282719.0,354163.40625,324985.875,256921.953125,280490.0,252129.828125,254091.609375,20511.0,1.0,4
232351.84375,282697.46875,354252.625,325072.0,256794.109375,280373.15625,252196.890625,254182.625,20512.0,1.0,4
233098.125,284104.46875,356289.3125,325796.4375,258285.234375,281151.875,252775.890625,255044.6875,20513.0,1.0,4
233732.109375,285020.34375,357493.46875,326170.25,259359.640625,281754.3125,253069.5,255500.921875,20514.0,1.0,4
233379.3125,284176.0625,356180.0625,325668.96875,258520.375,281354.28125,252672.625,254913.078125,20515.0,1.0,4
232519.9375,282734.65625,354159.65625,324980.78125,256929.921875,280498.40625,252134.03125,254087.3125,20516.0,1.0,4
232348.71875,282697.28125,354227.5,325058.03125,256785.875,280368.21875,252188.75,254165.546875,20517.0,1.0,4
233090.171875,284098.03125,356259.03125,325782.3125,258272.546875,281130.34375,252756.40625,255026.625,20518.0,1.0,4
233734.53125,285029.8125,357482.71875,326162.125,259363.484375,281744.28125,253065.65625,255497.703125,20519.0,1.0,4
233387.984375,284197.4375,356182.5,325661.34375,258535.125,281350.8125,252678.171875,254919.25,20520.0,1.0,4
232523.875,282748.78125,354155.4375,324970.15625,256936.71875,280489.71875,252135.375,254095.625,20521.0,1.0,4
232341.390625,282693.0,354204.90625,325042.75,256778.015625,280356.0625,252190.359375,254168.84375,20522.0,1.0,4
233082.578125,284091.125,356228.1875,325764.71875,258254.75,281122.46875,252760.328125,255025.90625,20523.0,1.0,4
233732.109375,285030.625,357465.5625,326152.65625,259353.921875,281747.59375,253070.671875,255496.984375,20524.0,1.0,4
233387.1875,284200.46875,356180.4375,325660.0,258540.5,281369.0625,252689.4375,254926.578125,20525.0,1.0,4
232525.65625,282746.28125,354146.40625,324964.6875,256943.15625,280508.875,252139.484375,254097.59375,20526.0,1.0,4
232343.984375,282679.3125,354170.75,325024.59375,256766.84375,280356.96875,252180.0,254159.28125,20527.0,1.0,4
233073.1875,284059.40625,356187.03125,325742.71875,258237.3125,281116.46875,252745.84375,255018.125,20528.0,1.0,4
233720.765625,285005.125,357443.125,326137.53125,259349.890625,281746.53125,253063.6875,255504.0625,20529.0,1.0,4
233394.15625,284199.5,356176.9375,325650.90625,258552.828125,281372.28125,252686.390625,254939.0,20530.0,1.0,4
232533.609375,282741.625,354136.9375,324954.875,256951.46875,280510.65625,252140.75,254107.96875,20531.0,1.0,4
232333.25,282655.625,354145.78125,325015.3125,256761.5625,280359.1875,252175.703125,254155.96875,20532.0,1.0,4
233059.6875,284037.5625,356154.0625,325730.5625,258222.03125,281108.875,252733.953125,255004.8125,20533.0,1.0,4
233717.984375,284998.4375,357422.84375,326129.75,259345.609375,281739.375,253054.484375,255496.359375,20534.0,1.0,4
233394.328125,284201.0,356170.5,325645.34375,258560.96875,281370.65625,252683.0,254938.28125,20535.0,1.0,4
232538.265625,282749.9375,354130.5,324946.90625,256958.171875,280511.0,252135.828125,254105.640625,20536.0,1.0,4
232330.03125,282651.6875,354121.03125,324994.03125,256749.671875,280344.53125,252164.078125,254145.515625,20537.0,1.0,4
233055.296875,284033.8125,356129.75,325709.46875,258207.71875,281096.09375,252730.296875,254997.03125,20538.0,1.0,4
233719.234375,285008.34375,357415.5,326114.125,259342.03125,281735.34375,253060.65625,255498.328125,20539.0,1.0,4
233396.390625,284220.6875,356175.96875,325634.0,258567.5,281373.96875,252689.96875,254941.953125,20540.0,1.0,4
232528.78125,282758.875,354127.65625,324933.84375,256964.421875,280517.34375,252143.15625,254111.546875,20541.0,1.0,4
232323.6875,282656.34375,354102.15625,324978.375,256747.4375,280351.59375,252168.375,254144.171875,20542.0,1.0,4
233047.4375,284029.53125,356101.84375,325688.71875,258196.28125,281089.375,252718.84375,254986.03125,20543.0,1.0,4
233705.46875,285001.28125,357395.65625,326093.71875,259336.21875,281726.3125,253047.328125,255490.203125,20544.0,1.0,4
233395.140625,284226.5,356173.90625,325619.6875,258575.8125,281377.1875,252685.40625,254943.65625,20545.0,1.0,4
232542.546875,282772.03125,354123.625,324918.5625,256972.828125,280521.90625,252137.796875,254105.46875,20546.0,1.0,4
232331.015625,282654.71875,354077.21875,324955.65625,256743.234375,280351.25,252167.203125,254135.765625,20547.0,1.0,4
233046.546875,284019.96875,356070.90625,325668.6875,258190.109375,281098.3125,252733.59375,254986.484375,20548.0,1.0,4
233706.90625,284997.71875,357379.1875,326082.03125,259338.71875,281740.53125,253059.671875,255493.6875,20549.0,1.0,4
233398.796875,284229.1875,356172.90625,325612.4375,258590.109375,281394.53125,252693.640625,254946.328125,20550.0,1.0,4
232539.609375,282771.75,354116.46875,324908.8125,256983.203125,280534.875,252144.859375,254108.046875,20551.0,1.0,4
232321.625,282645.5,354050.9375,324941.90625,256736.078125,280351.3125,252165.515625,254137.640625,20552.0,1.0,4
233031.4375,284005.125,356037.90625,325652.78125,258176.25,281092.5,252723.859375,254984.515625,20553.0,1.0,4
233704.125,285000.59375,357365.59375,326072.71875,259340.515625,281744.65625,253064.140625,255492.96875,20554.0,1.0,4
233410.703125,284247.40625,356181.15625,325612.90625,258611.484375,281404.1875,252706.6875,254959.03125,20555.0,1.0,4
232546.484375,282774.4375,354115.3125,324901.40625,256997.59375,280536.03125,252142.890625,254114.84375,20556.0,1.0,4
232319.484375,282630.75,354027.15625,324924.65625,256736.0,280347.3125,252154.421875,254127.8125,20557.0,1.0,4
233028.125,283986.53125,356006.25,325635.96875,258169.09375,281081.34375,252712.59375,254968.953125,20558.0,1.0,4
233704.75,284989.03125,357345.9375,326062.25,259341.140625,281733.1875,253053.765625,255492.15625,20559.0,1.0,4
233416.859375,284250.53125,356174.4375,325606.28125,258620.421875,281403.75,252700.515625,254968.953125,20560.0,1.0,4
232554.359375,282783.28125,354106.53125,324894.96875,257005.015625,280538.1875,252146.734375,254126.734375,20561.0,1.0,4
232318.328125,282624.3125,354002.125,324913.28125,256727.5,280341.9375,252156.65625,254127.359375,20562.0,1.0,4
233024.09375,283977.125,355975.96875,325622.09375,258152.015625,281070.25,252707.40625,254963.140625,20563.0,1.0,4
233700.828125,284987.78125,357329.125,326050.8125,259332.8125,281724.8125,253049.5625,255490.640625,20564.0,1.0,4
233413.5625,284255.90625,356170.3125,325598.59375,258625.875,281404.90625,252708.75,254968.859375,20565.0,1.0,4
232557.21875,282788.90625,354100.90625,324887.53125,257011.359375,280539.25,252143.25,254119.140625,20566.0,1.0,4
232315.8125,282616.46875,353974.3125,324894.0625,256718.734375,280331.375,252140.109375,254111.09375,20567.0,1.0,4
233016.328125,283964.4375,355946.09375,325602.34375,258143.265625,281068.5625,252705.265625,254953.390625,20568.0,1.0,4
233700.015625,284987.875,357316.6875,326038.46875,259334.15625,281730.875,253057.875,255493.234375,20569.0,1.0,4
233424.90625,284265.84375,356172.5625,325586.53125,258634.1875,281405.0,252706.421875,254974.765625,20570.0,1.0,4
232569.109375,282794.65625,354099.21875,324870.90625,257018.34375,280542.03125,252141.375,254120.03125,20571.0,1.0,4
232308.75,282600.53125,353951.78125,324869.65625,256710.25,280328.8125,252137.25,254106.359375,20572.0,1.0,4
233003.796875,283943.53125,355914.8125,325576.6875,258128.78125,281059.875,252695.25,254940.875,20573.0,1.0,4
233700.46875,284985.125,357303.03125,326021.21875,259333.71875,281727.3125,253047.59375,255483.578125,20574.0,1.0,4
233425.359375,284270.46875,356175.78125,325580.09375,258648.765625,281410.625,252702.75,254977.53125,20575.0,1.0,4
232560.53125,282793.21875,354093.59375,324866.4375,257029.421875,280545.53125,252144.765625,254129.78125,20576.0,1.0,4
232299.8125,282592.75,353930.875,324864.90625,256710.609375,280328.09375,252142.265625,254110.828125,20577.0,1.0,4
232991.5625,283927.78125,355886.8125,325565.0625,258115.0,281045.84375,252689.875,254938.203125,20578.0,1.0,4
233688.84375,284970.28125,357283.34375,326007.71875,259321.640625,281710.84375,253043.75,255485.28125,20579.0,1.0,4
233429.03125,284273.6875,356176.6875,325572.84375,258652.96875,281405.78125,252708.828125,254985.671875,20580.0,1.0,4
232564.546875,282791.0625,354088.5625,324854.625,257031.03125,280540.4375,252148.15625,254128.890625,20581.0,1.0,4
232296.78125,282575.78125,353903.21875,324844.25,256695.140625,280312.71875,252141.015625,254103.21875,20582.0,1.0,4
232983.953125,283905.96875,355849.96875,325542.71875,258094.265625,281026.25,252685.046875,254929.609375,20583.0,1.0,4
233680.53125,284955.34375,357260.28125,325994.65625,259313.859375,281696.28125,253036.875,255478.484375,20584.0,1.0,4
233422.234375,284267.25,356165.125,325565.25,258657.625,281400.15625,252702.21875,254983.609375,20585.0,1.0,4
