FZ,C3,CZ,C4,PZ,PO7,OZ,PO8,Counter,Validation,Label
238061.375,255200.15625,318841.5625,294559.25,228489.28125,246004.03125,248797.546875,232055.90625,33948.0,1.0,1
238003.265625,255111.921875,318744.03125,294508.03125,228304.65625,245966.921875,248532.1875,232046.796875,33949.0,1.0,1
238076.578125,255158.671875,318775.40625,294572.3125,228352.671875,246011.53125,248589.046875,232071.375,33950.0,1.0,1
238203.359375,255286.171875,318897.1875,294667.34375,228571.8125,246081.359375,248896.875,232096.953125,33951.0,1.0,1
238201.921875,255311.828125,318938.40625,294659.21875,228664.796875,246079.84375,249036.890625,232090.515625,33952.0,1.0,1
238073.0,255195.515625,318832.28125,294555.875,228495.1875,246004.734375,248803.8125,232056.890625,33953.0,1.0,1
238012.828125,255105.84375,318732.125,294505.09375,228313.515625,245964.328125,248538.984375,232044.46875,33954.0,1.0,1
238085.78125,255155.90625,318763.34375,294568.65625,228362.953125,246012.25,248592.265625,232068.703125,33955.0,1.0,1
238212.75,255281.875,318885.28125,294661.90625,228576.1875,246079.578125,248892.40625,232094.359375,33956.0,1.0,1
238213.90625,255310.484375,318933.3125,294654.65625,228669.625,246077.609375,249036.4375,232091.40625,33957.0,1.0,1
238076.9375,255188.359375,318828.53125,294545.9375,228497.0625,246002.6875,248802.28125,232058.59375,33958.0,1.0,1
238018.734375,255103.59375,318732.6875,294496.125,228316.015625,245968.53125,248538.171875,232048.765625,33959.0,1.0,1
238093.828125,255158.40625,318766.1875,294563.1875,228364.203125,246021.640625,248591.28125,232075.140625,33960.0,1.0,1
238217.125,255287.15625,318885.03125,294658.6875,228576.8125,246090.578125,248891.6875,232099.546875,33961.0,1.0,1
238218.109375,255324.96875,318929.0,294654.75,228669.796875,246089.953125,249037.421875,232091.671875,33962.0,1.0,1
238077.734375,255207.9375,318820.375,294545.21875,228496.34375,246015.03125,248806.3125,232056.359375,33963.0,1.0,1
238010.421875,255117.375,318723.03125,294491.03125,228307.96875,245979.265625,248539.078125,232045.890625,33964.0,1.0,1
238080.328125,255162.78125,318750.46875,294549.875,228344.53125,246022.359375,248580.46875,232065.03125,33965.0,1.0,1
238208.0,255288.3125,318870.09375,294645.90625,228560.8125,246092.890625,248879.890625,232092.84375,33966.0,1.0,1
238207.203125,255313.4375,318912.28125,294640.8125,228660.328125,246091.015625,249029.109375,232088.09375,33967.0,1.0,1
238070.59375,255190.421875,318805.8125,294531.0,228497.515625,246019.9375,248804.515625,232055.90625,33968.0,1.0,1
238012.296875,255106.46875,318707.8125,294477.90625,228315.484375,245983.90625,248537.375,232046.171875,33969.0,1.0,1
238082.125,255151.703125,318735.25,294538.875,228355.796875,246027.984375,248577.421875,232067.265625,33970.0,1.0,1
238202.015625,255269.359375,318854.71875,294630.34375,228570.921875,246095.9375,248876.046875,232091.859375,33971.0,1.0,1
238201.84375,255295.921875,318900.03125,294624.4375,228668.546875,246095.3125,249029.015625,232085.5,33972.0,1.0,1
238075.859375,255182.90625,318803.03125,294521.0,228504.84375,246025.21875,248812.484375,232058.421875,33973.0,1.0,1
238011.84375,255094.03125,318705.3125,294464.84375,228315.296875,245983.28125,248547.03125,232050.28125,33974.0,1.0,1
238074.515625,255136.0625,318729.90625,294523.40625,228349.90625,246024.234375,248584.40625,232069.234375,33975.0,1.0,1
238196.390625,255260.78125,318843.625,294618.09375,228558.40625,246081.984375,248876.40625,232092.390625,33976.0,1.0,1
238208.625,255306.640625,318891.71875,294623.375,228660.859375,246082.078125,249035.109375,232093.90625,33977.0,1.0,1
238073.890625,255197.75,318788.71875,294521.25,228496.4375,246008.5,248819.09375,232064.5,33978.0,1.0,1
238001.921875,255109.046875,318683.78125,294460.90625,228301.4375,245962.984375,248544.96875,232051.625,33979.0,1.0,1
238068.984375,255160.640625,318703.96875,294518.5,228328.625,246000.890625,248571.265625,232072.90625,33980.0,1.0,1
238195.484375,255296.71875,318826.90625,294620.40625,228547.84375,246075.28125,248872.65625,232103.921875,33981.0,1.0,1
238202.640625,255341.953125,318877.59375,294620.0625,228655.578125,246082.078125,249035.453125,232099.453125,33982.0,1.0,1
238071.484375,255238.421875,318780.6875,294515.375,228500.375,246013.953125,248822.9375,232070.390625,33983.0,1.0,1
238002.734375,255154.46875,318682.96875,294459.9375,228314.859375,245973.453125,248553.46875,232060.46875,33984.0,1.0,1
238064.78125,255199.265625,318705.3125,294516.78125,228342.125,246011.359375,248580.5625,232077.546875,33985.0,1.0,1
238185.03125,255321.578125,318825.21875,294614.875,228555.09375,246080.375,248879.0,232101.59375,33986.0,1.0,1
238197.015625,255360.109375,318879.65625,294619.96875,228665.421875,246087.71875,249048.328125,232102.40625,33987.0,1.0,1
238080.15625,255260.875,318793.90625,294522.15625,228512.4375,246025.125,248844.671875,232076.65625,33988.0,1.0,1
238003.359375,255160.015625,318695.375,294461.28125,228316.734375,245979.265625,248570.8125,232063.421875,33989.0,1.0,1
238065.84375,255197.65625,318719.25,294517.40625,228342.296875,246021.015625,248595.75,232085.0625,33990.0,1.0,1
238195.21875,255324.34375,318843.09375,294618.0,228556.515625,246092.8125,248894.203125,232114.03125,33991.0,1.0,1
238209.796875,255364.671875,318896.71875,294619.15625,228664.25,246093.796875,249061.296875,232107.5,33992.0,1.0,1
238081.671875,255252.90625,318803.9375,294519.90625,228511.28125,246023.78125,248856.46875,232076.65625,33993.0,1.0,1
238013.8125,255156.703125,318701.65625,294461.34375,228323.53125,245979.703125,248583.0625,232066.46875,33994.0,1.0,1
238078.359375,255193.09375,318720.96875,294517.15625,228348.5625,246017.703125,248602.375,232087.734375,33995.0,1.0,1
238204.609375,255321.21875,318837.375,294617.03125,228561.96875,246085.921875,248897.328125,232114.46875,33996.0,1.0,1
238217.21875,255363.15625,318887.71875,294619.53125,228676.0625,246089.5,249067.5625,232109.375,33997.0,1.0,1
238089.09375,255253.0,318789.625,294513.21875,228523.53125,246017.53125,248857.984375,232076.03125,33998.0,1.0,1
238021.40625,255161.71875,318688.15625,294452.6875,228334.609375,245972.5625,248582.703125,232063.15625,33999.0,1.0,1
238086.328125,255201.140625,318708.34375,294512.3125,228360.546875,246015.203125,248599.0625,232085.59375,34000.0,1.0,1
238216.5,255331.40625,318825.375,294610.21875,228572.609375,246084.5,248890.359375,232111.609375,34001.0,1.0,1
238234.375,255374.234375,318881.625,294615.9375,228687.953125,246090.9375,249067.828125,232107.5,34002.0,1.0,1
238110.375,255269.09375,318789.53125,294511.6875,228536.578125,246019.21875,248865.9375,232074.78125,34003.0,1.0,1
238035.625,255175.03125,318685.46875,294447.0625,228340.15625,245972.734375,248584.40625,232058.765625,34004.0,1.0,1
238092.84375,255208.203125,318703.71875,294499.28125,228356.703125,246014.9375,248596.109375,232079.78125,34005.0,1.0,1
238211.140625,255324.796875,318818.25,294594.03125,228563.046875,246085.921875,248883.5625,232106.25,34006.0,1.0,1
238233.046875,255371.640625,318874.28125,294601.46875,228677.40625,246092.546875,249059.328125,232102.9375,34007.0,1.0,1
238108.140625,255266.40625,318781.3125,294496.84375,228527.734375,246020.390625,248856.640625,232067.984375,34008.0,1.0,1
238032.953125,255168.0625,318681.1875,294431.9375,228334.34375,245973.890625,248577.25,232052.78125,34009.0,1.0,1
238086.046875,255197.125,318698.875,294483.34375,228350.703125,246015.109375,248584.40625,232073.96875,34010.0,1.0,1
238208.0,255320.140625,318817.53125,294583.21875,228560.71875,246084.40625,248876.765625,232101.59375,34011.0,1.0,1
238230.171875,255370.65625,318881.09375,294593.6875,228684.109375,246094.421875,249061.65625,232100.34375,34012.0,1.0,1
238102.0625,255264.71875,318790.25,294487.65625,228534.171875,246024.140625,248863.078125,232066.46875,34013.0,1.0,1
238029.734375,255174.59375,318692.96875,294424.53125,228339.265625,245981.9375,248587.53125,232054.75,34014.0,1.0,1
238074.34375,255197.75,318704.34375,294470.65625,228342.75,246014.125,248583.234375,232069.140625,34015.0,1.0,1
238201.125,255326.046875,318824.59375,294568.375,228548.125,246085.828125,248875.421875,232097.21875,34016.0,1.0,1
238224.71875,255380.40625,318889.03125,294577.59375,228670.96875,246098.34375,249065.671875,232097.03125,34017.0,1.0,1
238096.421875,255275.53125,318799.0,294476.90625,228525.671875,246031.46875,248876.21875,232068.15625,34018.0,1.0,1
238018.734375,255179.78125,318694.59375,294410.3125,228324.25,245981.671875,248593.703125,232052.0625,34019.0,1.0,1
238075.5,255212.765625,318708.625,294457.5,228329.96875,246014.671875,248589.40625,232070.21875,34020.0,1.0,1
238206.75,255342.3125,318830.40625,294557.84375,228540.609375,246086.90625,248880.421875,232102.40625,34021.0,1.0,1
238231.34375,255390.859375,318891.8125,294570.875,228666.765625,246100.5,249069.25,232101.6875,34022.0,1.0,1
238105.359375,255283.125,318799.0,294470.9375,228524.96875,246030.9375,248879.359375,232069.328125,34023.0,1.0,1
238035.625,255189.25,318692.875,294408.53125,228330.5,245982.5625,248597.09375,232055.90625,34024.0,1.0,1
238083.015625,255207.140625,318695.03125,294451.15625,228333.0,246012.25,248582.875,232072.359375,34025.0,1.0,1
238208.90625,255325.515625,318810.375,294550.6875,228544.265625,246084.21875,248868.265625,232102.578125,34026.0,1.0,1
238245.828125,255380.671875,318874.75,294566.40625,228679.015625,246099.0625,249060.9375,232107.140625,34027.0,1.0,1
238128.875,255277.859375,318784.25,294467.25,228547.484375,246037.109375,248874.4375,232076.65625,34028.0,1.0,1
238047.703125,255168.421875,318669.90625,294398.3125,228350.96875,245988.640625,248588.25,232060.65625,34029.0,1.0,1
238104.390625,255191.75,318676.875,294446.875,228356.078125,246024.859375,248576.53125,232081.390625,34030.0,1.0,1
238232.140625,255314.15625,318788.46875,294546.5625,228559.203125,246098.171875,248859.6875,232109.015625,34031.0,1.0,1
238261.03125,255363.59375,318852.5625,294562.75,228693.140625,246112.75,249056.203125,232108.21875,34032.0,1.0,1
238135.140625,255253.890625,318763.4375,294457.78125,228554.90625,246039.796875,248869.4375,232073.703125,34033.0,1.0,1
238060.65625,255154.46875,318659.28125,294391.4375,228357.859375,245991.15625,248587.703125,232062.078125,34034.0,1.0,1
238104.65625,255166.625,318659.8125,294434.0,228354.90625,246018.78125,248571.890625,232077.90625,34035.0,1.0,1
238219.09375,255278.84375,318763.78125,294528.40625,228553.578125,246081.359375,248850.125,232099.984375,34036.0,1.0,1
238256.734375,255344.015625,318832.625,294548.1875,228688.84375,246095.84375,249050.296875,232102.140625,34037.0,1.0,1
238138.171875,255249.953125,318749.9375,294449.1875,228556.703125,246028.34375,248869.703125,232070.125,34038.0,1.0,1
238057.796875,255154.03125,318642.5625,294381.25,228354.1875,245975.859375,248581.1875,232052.0625,34039.0,1.0,1
238096.6875,255174.59375,318646.75,294424.25,228346.59375,246008.140625,248560.625,232070.125,34040.0,1.0,1
238211.765625,255295.296875,318761.8125,294522.15625,228548.03125,246079.578125,248844.671875,232097.9375,34041.0,1.0,1
238245.015625,255359.125,318833.15625,294542.8125,228681.15625,246095.9375,249047.890625,232101.234375,34042.0,1.0,1
238122.359375,255265.96875,318747.96875,294444.0,228543.015625,246029.5,248871.21875,232070.65625,34043.0,1.0,1
238039.109375,255171.734375,318644.34375,294377.0625,228343.28125,245981.671875,248589.40625,232055.90625,34044.0,1.0,1
238079.96875,255193.8125,318645.9375,294417.90625,228333.1875,246010.734375,248561.78125,232070.75,34045.0,1.0,1
238203.53125,255320.0625,318762.625,294519.84375,228538.8125,246084.5,248845.109375,232099.453125,34046.0,1.0,1
238240.8125,255381.75,318836.65625,294540.40625,228679.71875,246100.859375,249053.25,232102.671875,34047.0,1.0,1
238109.125,255276.875,318749.75,294439.8125,228546.328125,246030.046875,248879.359375,232070.03125,34048.0,1.0,1
238021.140625,255171.734375,318642.5625,294371.40625,228344.890625,245982.65625,248598.171875,232057.703125,34049.0,1.0,1
238063.796875,255187.46875,318638.34375,294408.4375,228330.328125,246012.15625,248566.703125,232071.734375,34050.0,1.0,1
238192.265625,255313.796875,318756.1875,294511.15625,228536.5,246087.4375,248848.328125,232098.203125,34051.0,1.0,1
238229.734375,255370.390625,318828.4375,294533.78125,228677.84375,246103.53125,249055.390625,232097.84375,34052.0,1.0,1
238114.03125,255272.9375,318747.34375,294434.625,228551.78125,246039.15625,248886.5,232068.421875,34053.0,1.0,1
238031.609375,255168.6875,318637.90625,294360.59375,228348.921875,245985.515625,248594.421875,232053.234375,34054.0,1.0,1
238068.171875,255178.796875,318634.3125,294401.1875,228333.625,246011.453125,248556.59375,232069.40625,34055.0,1.0,1
238201.5625,255309.421875,318752.53125,294504.0,228539.71875,246086.28125,248839.5625,232100.609375,34056.0,1.0,1
238243.234375,255373.703125,318825.375,294527.0625,228682.5,246103.359375,249050.921875,232105.078125,34057.0,1.0,1
238119.9375,255271.953125,318739.5625,294427.28125,228555.453125,246033.0,248881.40625,232074.953125,34058.0,1.0,1
238037.234375,255170.296875,318631.1875,294357.5625,228355.53125,245981.140625,248594.234375,232058.59375,34059.0,1.0,1
238082.65625,255186.578125,318630.3125,294397.875,228340.609375,246010.640625,248558.65625,232072.359375,34060.0,1.0,1
238212.75,255312.71875,318744.375,294500.875,228546.328125,246085.828125,248839.21875,232101.78125,34061.0,1.0,1
238253.421875,255377.359375,318817.0625,294524.84375,228690.71875,246102.46875,249051.546875,232105.796875,34062.0,1.0,1
238131.390625,255279.828125,318731.40625,294423.8125,228563.3125,246033.625,248881.765625,232073.34375,34063.0,1.0,1
238046.890625,255176.828125,318621.53125,294349.25,228360.71875,245982.84375,248593.25,232057.078125,34064.0,1.0,1
238089.71875,255194.171875,318619.75,294386.34375,228344.453125,246011.71875,248555.609375,232073.25,34065.0,1.0,1
238212.390625,255310.9375,318731.40625,294488.09375,228544.8125,246083.234375,248835.09375,232104.109375,34066.0,1.0,1
238246.0,255366.1875,318801.59375,294508.46875,228685.890625,246097.1875,249049.765625,232107.046875,34067.0,1.0,1
238128.609375,255271.421875,318721.9375,294408.875,228564.296875,246031.921875,248888.203125,232077.28125,34068.0,1.0,1
238043.046875,255167.34375,318613.40625,294336.625,228360.0,245981.5,248596.921875,232059.390625,34069.0,1.0,1
238078.1875,255175.84375,318607.25,294371.5,228335.0625,246006.703125,248548.640625,232071.5625,34070.0,1.0,1
238207.203125,255301.1875,318723.46875,294475.84375,228539.265625,246082.796875,248829.375,232101.0625,34071.0,1.0,1
238255.390625,255370.21875,318803.5625,294506.0625,228690.09375,246105.953125,249051.90625,232107.140625,34072.0,1.0,1
238129.5,255268.375,318724.71875,294406.65625,228567.78125,246041.75,248894.546875,232075.3125,34073.0,1.0,1
238036.25,255157.515625,318610.09375,294328.9375,228358.03125,245986.234375,248603.171875,232057.703125,34074.0,1.0,1
238078.015625,255171.1875,318605.34375,294369.1875,228333.71875,246012.78125,248555.25,232072.71875,34075.0,1.0,1
238199.6875,255288.578125,318717.375,294472.96875,228530.59375,246085.921875,248828.390625,232100.796875,34076.0,1.0,1
238243.40625,255355.1875,318793.03125,294504.0,228680.078125,246108.546875,249052.359375,232106.515625,34077.0,1.0,1
238127.265625,255265.515625,318714.0625,294408.0625,228563.9375,246042.03125,248898.75,232074.515625,34078.0,1.0,1
238035.359375,255157.78125,318602.0625,294330.75,228358.484375,245985.25,248604.875,232054.921875,34079.0,1.0,1
238068.171875,255166.625,318593.375,294363.0,228331.03125,246010.828125,248552.03125,232069.234375,34080.0,1.0,1
238186.734375,255283.3125,318701.5625,294461.53125,228525.40625,246081.0,248821.328125,232094.890625,34081.0,1.0,1
238237.78125,255359.65625,318780.0625,294492.125,228678.921875,246103.453125,249045.734375,232099.625,34082.0,1.0,1
238120.03125,255269.09375,318700.84375,294395.5625,228563.9375,246035.765625,248895.09375,232067.796875,34083.0,1.0,1
238021.6875,255154.296875,318580.84375,294315.34375,228352.234375,245976.84375,248596.5625,232047.59375,34084.0,1.0,1
238056.28125,255161.265625,318570.84375,294351.65625,228322.8125,246003.578125,248536.5625,232064.40625,34085.0,1.0,1
238184.578125,255283.3125,318684.125,294456.0,228522.28125,246077.34375,248808.09375,232095.078125,34086.0,1.0,1
238238.671875,255355.90625,318765.3125,294489.875,228677.21875,246100.765625,249037.421875,232099.09375,34087.0,1.0,1
238119.5,255259.53125,318690.75,294395.09375,228566.984375,246035.859375,248892.59375,232067.71875,34088.0,1.0,1
238022.75,255144.1875,318575.3125,294313.5625,228357.859375,245977.03125,248598.4375,232047.6875,34089.0,1.0,1
238056.1875,255147.40625,318560.5625,294342.8125,228319.140625,245998.03125,248534.25,232060.734375,34090.0,1.0,1
238183.59375,255266.671875,318670.09375,294445.09375,228514.59375,246072.15625,248803.359375,232092.5625,34091.0,1.0,1
238238.40625,255340.96875,318755.375,294480.9375,228675.703125,246101.390625,249039.21875,232100.4375,34092.0,1.0,1
238117.25,255244.859375,318681.0,294384.90625,228564.296875,246037.28125,248896.609375,232067.71875,34093.0,1.0,1
238021.140625,255132.03125,318569.0625,294306.40625,228356.421875,245981.578125,248603.171875,232047.59375,34094.0,1.0,1
238056.46875,255138.296875,318557.78125,294334.65625,228317.09375,246002.328125,248535.140625,232058.5,34095.0,1.0,1
238183.6875,255260.15625,318669.71875,294436.9375,228513.421875,246076.984375,248805.140625,232091.046875,34096.0,1.0,1
238240.1875,255339.453125,318753.78125,294471.09375,228676.15625,246104.25,249040.46875,232097.03125,34097.0,1.0,1
238125.75,255254.609375,318681.96875,294377.9375,228571.90625,246041.125,248902.25,232068.34375,34098.0,1.0,1
238025.96875,255143.03125,318568.96875,294296.9375,228364.03125,245984.171875,248610.59375,232050.375,34099.0,1.0,1
238050.03125,255142.140625,318551.8125,294321.25,228322.71875,246004.828125,248539.609375,232062.609375,34100.0,1.0,1
238173.40625,255265.0625,318657.46875,294421.46875,228511.109375,246075.90625,248802.90625,232092.03125,34101.0,1.0,1
238227.9375,255345.53125,318740.375,294458.0625,228670.6875,246101.84375,249039.65625,232100.25,34102.0,1.0,1
238109.84375,255256.75,318664.625,294364.71875,228561.34375,246036.296875,248901.078125,232068.34375,34103.0,1.0,1
238000.40625,255134.71875,318538.40625,294278.25,228343.015625,245972.90625,248595.125,232044.5625,34104.0,1.0,1
238037.234375,255144.375,318525.96875,294311.15625,228307.53125,246000.0,248526.90625,232063.15625,34105.0,1.0,1
238161.609375,255263.375,318635.5625,294414.6875,228500.90625,246074.84375,248791.375,232097.03125,34106.0,1.0,1
238218.28125,255339.546875,318723.90625,294454.21875,228667.65625,246103.265625,249033.578125,232107.953125,34107.0,1.0,1
238105.09375,255255.234375,318652.75,294361.65625,228566.984375,246039.609375,248901.078125,232074.515625,34108.0,1.0,1
238006.578125,255139.09375,318535.53125,294280.21875,228357.953125,245978.640625,248603.359375,232053.046875,34109.0,1.0,1
238035.1875,255137.3125,318516.75,294307.59375,228313.328125,245995.796875,248523.515625,232065.75,34110.0,1.0,1
238163.921875,255255.953125,318626.09375,294408.78125,228505.734375,246070.640625,248785.03125,232096.40625,34111.0,1.0,1
238227.40625,255334.09375,318714.96875,294448.5,228673.734375,246099.875,249028.75,232103.921875,34112.0,1.0,1
238115.375,255248.703125,318647.90625,294359.15625,228576.375,246039.515625,248901.796875,232073.171875,34113.0,1.0,1
238017.03125,255135.875,318531.0625,294276.28125,228367.25,245980.953125,248604.875,232051.984375,34114.0,1.0,1
238043.234375,255131.40625,318508.0,294298.375,228314.765625,245994.1875,248517.53125,232061.90625,34115.0,1.0,1
238169.828125,255252.015625,318619.125,294403.875,228507.53125,246066.796875,248777.515625,232095.609375,34116.0,1.0,1
238231.875,255330.609375,318707.375,294442.84375,228674.8125,246095.125,249022.859375,232104.1875,34117.0,1.0,1
238121.90625,255243.96875,318642.0,294354.53125,228579.859375,246035.671875,248902.6875,232074.859375,34118.0,1.0,1
238021.328125,255128.015625,318527.40625,294272.25,228367.6875,245974.25,248607.640625,232055.109375,34119.0,1.0,1
238047.078125,255125.6875,318508.53125,294297.9375,228318.15625,245994.734375,248524.765625,232068.875,34120.0,1.0,1
238170.1875,255245.40625,318614.3125,294400.125,228503.765625,246068.40625,248779.484375,232097.671875,34121.0,1.0,1
238234.921875,255330.34375,318701.375,294441.25,228671.046875,246097.28125,249023.84375,232103.296875,34122.0,1.0,1
238130.484375,255257.65625,318641.375,294356.65625,228583.34375,246041.84375,248910.640625,232073.34375,34123.0,1.0,1
238026.0625,255142.3125,318525.875,294271.90625,228372.796875,245984.265625,248616.5,232051.4375,34124.0,1.0,1
238050.65625,255139.625,318504.9375,294293.09375,228317.984375,246000.1875,248527.53125,232061.546875,34125.0,1.0,1
238174.921875,255258.90625,318612.96875,294395.5625,228504.3125,246076.359375,248783.59375,232094.53125,34126.0,1.0,1
238241.796875,255342.3125,318704.40625,294440.71875,228675.25,246109.078125,249035.1875,232105.078125,34127.0,1.0,1
238130.671875,255257.296875,318638.34375,294347.53125,228583.34375,246045.59375,248918.25,232075.40625,34128.0,1.0,1
238028.125,255140.4375,318526.59375,294263.3125,228376.546875,245987.578125,248625.171875,232057.4375,34129.0,1.0,1
238048.59375,255136.0625,318498.875,294281.84375,228315.921875,246001.078125,248525.921875,232067.265625,34130.0,1.0,1
238165.984375,255248.796875,318600.53125,294384.8125,228497.15625,246071.53125,248776.359375,232097.84375,34131.0,1.0,1
238231.703125,255332.578125,318694.59375,294433.5625,228674.265625,246105.40625,249034.828125,232109.5625,34132.0,1.0,1
238122.359375,255250.578125,318631.5625,294345.125,228587.1875,246046.3125,248926.828125,232079.515625,34133.0,1.0,1
238024.359375,255141.515625,318517.125,294264.125,228375.734375,245986.328125,248629.90625,232057.96875,34134.0,1.0,1
238034.828125,255120.859375,318481.34375,294276.28125,228306.359375,245988.921875,248521.375,232063.78125,34135.0,1.0,1
238153.46875,255232.25,318582.1875,294377.0625,228490.265625,246061.515625,248768.125,232095.15625,34136.0,1.0,1
238227.5,255328.109375,318680.46875,294427.375,228673.375,246099.515625,249027.59375,232105.984375,34137.0,1.0,1
238123.96875,255256.671875,318622.875,294342.90625,228593.890625,246043.359375,248928.53125,232077.09375,34138.0,1.0,1
238013.28125,255133.90625,318502.8125,294254.03125,228378.421875,245980.328125,248629.546875,232053.765625,34139.0,1.0,1
238029.734375,255124.4375,318473.40625,294269.65625,228314.140625,245992.671875,248524.859375,232062.703125,34140.0,1.0,1
238152.9375,255241.828125,318575.84375,294369.1875,228493.21875,246062.3125,248771.4375,232090.953125,34141.0,1.0,1
238222.671875,255327.921875,318669.09375,294414.96875,228668.109375,246096.734375,249028.03125,232100.4375,34142.0,1.0,1
238118.0625,255253.453125,318608.40625,294330.5625,228587.015625,246039.4375,248927.1875,232072.71875,34143.0,1.0,1
238012.65625,255136.140625,318491.28125,294244.5625,228372.078125,245971.75,248626.875,232050.8125,34144.0,1.0,1
238024.546875,255115.765625,318458.1875,294260.28125,228299.65625,245980.15625,248515.015625,232060.375,34145.0,1.0,1
238149.171875,255233.59375,318561.8125,294364.4375,228481.421875,246058.46875,248763.21875,232094.09375,34146.0,1.0,1
238220.171875,255321.671875,318654.875,294408.34375,228656.5625,246092.0,249020.265625,232103.203125,34147.0,1.0,1
238123.6875,255254.609375,318602.84375,294327.4375,228583.703125,246041.21875,248929.78125,232078.265625,34148.0,1.0,1
238021.0625,255142.046875,318487.59375,294240.53125,228375.828125,245981.578125,248636.609375,232054.390625,34149.0,1.0,1
238031.78125,255122.203125,318450.25,294252.25,228300.8125,245989.0,248520.296875,232056.265625,34150.0,1.0,1
238150.78125,255228.859375,318552.0625,294354.6875,228480.703125,246063.296875,248764.5625,232088.71875,34151.0,1.0,1
238224.09375,255318.265625,318648.28125,294402.34375,228661.21875,246100.9375,249026.515625,232097.9375,34152.0,1.0,1
238130.671875,255254.078125,318600.0,294324.46875,228592.015625,246051.234375,248940.6875,232074.0625,34153.0,1.0,1
238032.40625,255142.046875,318486.53125,294240.6875,228387.546875,245990.25,248649.40625,232054.5625,34154.0,1.0,1
238041.265625,255119.609375,318450.0625,294251.96875,228314.9375,245999.828125,248533.171875,232062.34375,34155.0,1.0,1
238159.71875,255228.328125,318551.34375,294352.90625,228493.21875,246075.375,248774.75,232094.890625,34156.0,1.0,1
238238.140625,255323.1875,318649.875,294403.78125,228675.96875,246113.375,249038.046875,232107.328125,34157.0,1.0,1
238130.484375,255246.921875,318589.625,294316.34375,228598.09375,246051.234375,248942.390625,232077.015625,34158.0,1.0,1
238010.328125,255119.78125,318465.0625,294222.5625,228379.234375,245983.46875,248640.453125,232051.984375,34159.0,1.0,1
238029.1875,255108.25,318435.75,294241.875,228309.484375,245996.6875,248528.515625,232065.75,34160.0,1.0,1
238149.71875,255221.53125,318532.5,294340.46875,228481.15625,246062.046875,248758.484375,232093.546875,34161.0,1.0,1
238223.296875,255314.6875,318628.15625,294391.4375,228661.671875,246095.84375,249019.09375,232100.609375,34162.0,1.0,1
238120.65625,255245.578125,318573.96875,294312.0625,228592.546875,246037.546875,248932.828125,232071.46875,34163.0,1.0,1
238012.296875,255128.71875,318456.59375,294223.4375,228381.46875,245974.96875,248636.4375,232048.046875,34164.0,1.0,1
238022.046875,255110.578125,318417.78125,294233.28125,228300.546875,245979.078125,248509.921875,232056.0,34165.0,1.0,1
238145.953125,255225.640625,318518.09375,294335.5625,228474.71875,246050.703125,248744.171875,232087.828125,34166.0,1.0,1
238225.0,255319.78125,318617.53125,294389.75,228659.25,246089.953125,249011.953125,232097.578125,34167.0,1.0,1
238135.140625,255259.796875,318570.40625,294314.1875,228596.484375,246040.6875,248936.671875,232071.828125,34168.0,1.0,1
238030.53125,255144.1875,318453.46875,294223.71875,228384.859375,245976.125,248642.96875,232050.375,34169.0,1.0,1
238035.453125,255122.734375,318416.25,294230.96875,228301.890625,245982.5625,248514.84375,232057.703125,34170.0,1.0,1
238143.71875,255227.078125,318508.96875,294328.15625,228470.421875,246051.953125,248742.109375,232086.484375,34171.0,1.0,1
238219.984375,255318.625,318608.65625,294382.59375,228657.734375,246091.90625,249012.390625,232101.234375,34172.0,1.0,1
238128.4375,255258.359375,318564.40625,294304.625,228596.9375,246044.078125,248941.9375,232077.640625,34173.0,1.0,1
238024.546875,255146.875,318453.28125,294218.625,228391.125,245987.9375,248652.265625,232056.8125,34174.0,1.0,1
238030.796875,255118.4375,318410.53125,294223.71875,228305.640625,245990.4375,248517.53125,232058.59375,34175.0,1.0,1
238145.953125,255221.265625,318503.34375,294320.46875,228472.921875,246056.78125,248741.125,232086.671875,34176.0,1.0,1
238224.375,255311.828125,318603.65625,294380.34375,228660.765625,246094.15625,249011.953125,232099.0,34177.0,1.0,1
238137.640625,255252.90625,318560.28125,294307.03125,228603.015625,246044.53125,248942.921875,232076.390625,34178.0,1.0,1
238037.6875,255144.1875,318445.6875,294215.75,228394.96875,245983.546875,248648.328125,232053.40625,34179.0,1.0,1
238045.109375,255120.859375,318406.53125,294220.3125,228306.359375,245988.46875,248513.328125,232059.671875,34180.0,1.0,1
238154.09375,255222.6875,318502.1875,294316.0625,228470.78125,246058.03125,248739.796875,232090.15625,34181.0,1.0,1
238232.59375,255315.3125,318603.65625,294373.65625,228659.78125,246099.421875,249011.3125,232102.140625,34182.0,1.0,1
238146.21875,255257.375,318562.625,294301.6875,228607.21875,246057.484375,248948.90625,232076.5625,34183.0,1.0,1
238039.65625,255140.890625,318441.65625,294207.1875,228393.171875,245991.515625,248651.640625,232052.609375,34184.0,1.0,1
238038.125,255110.65625,318392.65625,294208.96875,228297.59375,245990.171875,248509.03125,232055.90625,34185.0,1.0,1
238148.453125,255211.875,318484.125,294306.40625,228462.203125,246062.140625,248733.53125,232087.65625,34186.0,1.0,1
238235.28125,255317.90625,318587.03125,294366.6875,228654.59375,246106.84375,249011.234375,232102.140625,34187.0,1.0,1
238148.28125,255266.765625,318546.4375,294295.25,228601.84375,246063.484375,248952.765625,232072.265625,34188.0,1.0,1
238031.15625,255142.140625,318428.0625,294200.8125,228391.65625,246002.328125,248660.046875,232049.03125,34189.0,1.0,1
238036.609375,255112.71875,318386.65625,294206.71875,228304.65625,246006.890625,248519.40625,232058.140625,34190.0,1.0,1
238153.203125,255214.828125,318476.78125,294303.5625,228467.734375,246071.34375,248732.640625,232085.140625,34191.0,1.0,1
238232.140625,255303.0625,318573.96875,294358.71875,228659.15625,246107.921875,249003.90625,232094.796875,34192.0,1.0,1
238144.078125,255240.03125,318531.875,294285.3125,228614.09375,246058.921875,248947.578125,232072.1875,34193.0,1.0,1
238035.625,255119.96875,318411.875,294188.125,228404.078125,245992.3125,248652.4375,232048.140625,34194.0,1.0,1
238036.875,255089.828125,318366.625,294189.84375,228311.09375,245997.328125,248510.015625,232055.28125,34195.0,1.0,1
238151.671875,255189.96875,318456.75,294288.8125,228471.140625,246066.078125,248723.25,232084.078125,34196.0,1.0,1
238242.15625,255295.46875,318562.8125,294351.125,228660.5,246109.265625,249000.046875,232099.546875,34197.0,1.0,1
238157.21875,255243.875,318526.0625,294280.65625,228609.890625,246062.40625,248947.125,232074.0625,34198.0,1.0,1
238046.359375,255128.453125,318409.90625,294190.0,228395.765625,245992.21875,248653.609375,232050.09375,34199.0,1.0,1
238051.71875,255109.5,318369.59375,294196.0,228297.875,245995.359375,248512.15625,232061.09375,34200.0,1.0,1
238163.21875,255217.953125,318464.375,294295.15625,228457.640625,246067.78125,248732.375,232093.640625,34201.0,1.0,1
238247.96875,255324.53125,318567.90625,294355.0625,228647.890625,246099.515625,249006.578125,232104.640625,34202.0,1.0,1
238161.875,255276.421875,318527.46875,294285.59375,228601.40625,246044.796875,248951.15625,232081.390625,34203.0,1.0,1
238049.21875,255160.828125,318405.1875,294191.71875,228391.484375,245974.96875,248653.15625,232059.484375,34204.0,1.0,1
238047.78125,255138.296875,318359.3125,294195.5625,228297.78125,245975.6875,248504.03125,232065.203125,34205.0,1.0,1
238163.390625,255254.34375,318452.1875,294296.84375,228460.234375,246047.296875,248717.796875,232096.328125,34206.0,1.0,1
238259.953125,255374.0625,318561.0,294365.6875,228659.78125,246096.296875,249003.359375,232112.953125,34207.0,1.0,1
238177.609375,255328.375,318524.34375,294298.5625,228616.875,246052.3125,248960.265625,232092.125,34208.0,1.0,1
238058.875,255209.015625,318406.15625,294203.96875,228404.265625,245985.515625,248667.1875,232068.609375,34209.0,1.0,1
238053.515625,255178.875,318357.15625,294204.21875,228302.875,245983.734375,248513.765625,232073.53125,34210.0,1.0,1
238165.71875,255286.96875,318445.84375,294300.59375,228456.921875,246053.109375,248724.140625,232102.5,34211.0,1.0,1
238255.125,255393.546875,318551.53125,294365.25,228651.296875,246100.765625,249008.546875,232117.953125,34212.0,1.0,1
238172.953125,255343.75,318519.34375,294300.25,228612.40625,246059.90625,248970.453125,232094.09375,34213.0,1.0,1
238062.0,255227.703125,318405.34375,294206.5625,228402.734375,245994.8125,248682.75,232067.71875,34214.0,1.0,1
238060.9375,255194.34375,318357.96875,294204.59375,228297.328125,245988.921875,248525.75,232070.03125,34215.0,1.0,1
238171.890625,255287.6875,318448.28125,294304.625,228452.90625,246057.140625,248733.71875,232102.671875,34216.0,1.0,1
238265.578125,255390.234375,318556.53125,294368.5625,228655.40625,246102.640625,249020.53125,232118.046875,34217.0,1.0,1
238193.515625,255346.78125,318531.25,294304.0,228628.21875,246061.15625,248989.953125,232096.328125,34218.0,1.0,1
238076.125,255220.8125,318413.21875,294205.84375,228420.265625,245989.09375,248695.890625,232070.21875,34219.0,1.0,1
238072.546875,255176.5625,318363.59375,294204.40625,228316.546875,245979.078125,248536.390625,232077.8125,34220.0,1.0,1
238182.078125,255262.125,318450.0625,294299.875,228471.40625,246037.109375,248738.09375,232107.953125,34221.0,1.0,1
238278.015625,255361.359375,318558.5,294361.75,228674.09375,246081.0,249022.578125,232121.453125,34222.0,1.0,1
238202.375,255315.046875,318529.375,294295.875,228646.28125,246040.765625,248992.546875,232095.515625,34223.0,1.0,1
238093.390625,255200.703125,318413.84375,294199.75,228438.765625,245976.84375,248703.3125,232069.328125,34224.0,1.0,1
238083.640625,255160.828125,318361.09375,294193.3125,228326.75,245974.515625,248534.15625,232071.296875,34225.0,1.0,1
238195.9375,255260.953125,318446.84375,294291.3125,228474.890625,246047.65625,248731.203125,232101.328125,34226.0,1.0,1
238294.734375,255372.984375,318557.4375,294359.4375,228674.09375,246096.734375,249018.65625,232114.5625,34227.0,1.0,1
238214.71875,255328.015625,318529.8125,294292.46875,228643.421875,246055.078125,248989.859375,232089.890625,34228.0,1.0,1
238096.96875,255205.171875,318410.71875,294192.25,228430.09375,245989.546875,248698.21875,232063.421875,34229.0,1.0,1
238087.390625,255167.171875,318360.03125,294187.3125,228316.46875,245986.859375,248529.5,232067.359375,34230.0,1.0,1
238189.046875,255259.34375,318445.59375,294281.5625,228462.015625,246053.203125,248724.0625,232097.390625,34231.0,1.0,1
238278.546875,255364.40625,318552.875,294343.53125,228657.015625,246099.515625,249008.1875,232111.078125,34232.0,1.0,1
238207.921875,255325.15625,318529.8125,294284.4375,228632.34375,246065.984375,248986.546875,232089.703125,34233.0,1.0,1
238091.328125,255205.796875,318416.875,294190.0,228427.859375,246002.953125,248696.15625,232063.6875,34234.0,1.0,1
238077.5625,255164.484375,318366.5625,294184.03125,228316.46875,245999.109375,248525.65625,232067.09375,34235.0,1.0,1
238182.796875,255262.203125,318452.84375,294279.15625,228460.140625,246066.875,248719.671875,232097.484375,34236.0,1.0,1
238274.609375,255371.28125,318561.0,294346.375,228660.234375,246115.78125,249008.09375,232111.609375,34237.0,1.0,1
238190.921875,255324.96875,318535.09375,294285.84375,228635.015625,246072.953125,248991.5625,232087.46875,34238.0,1.0,1
238072.640625,255206.515625,318422.78125,294190.46875,228424.640625,246005.8125,248705.640625,232064.21875,34239.0,1.0,1
238059.59375,255168.78125,318370.65625,294179.90625,228306.1875,246002.328125,248533.96875,232065.921875,34240.0,1.0,1
238158.03125,255254.515625,318447.90625,294264.84375,228440.65625,246062.859375,248714.21875,232088.09375,34241.0,1.0,1
238252.4375,255363.859375,318557.625,294330.5625,228640.125,246108.90625,249004.078125,232102.84375,34242.0,1.0,1
238178.59375,255325.859375,318532.03125,294268.78125,228613.390625,246063.578125,248987.53125,232080.3125,34243.0,1.0,1
238061.109375,255206.234375,318416.625,294175.15625,228406.765625,245995.625,248699.734375,232056.625,34244.0,1.0,1
238049.3125,255165.109375,318360.90625,294166.6875,228292.59375,245987.9375,248519.9375,232060.109375,34245.0,1.0,1
238153.734375,255258.09375,318439.40625,294259.46875,228431.984375,246052.75,248700.546875,232089.4375,34246.0,1.0,1
238243.5,255357.96875,318542.875,294325.46875,228631.890625,246097.546875,248985.75,232105.0,34247.0,1.0,1
238171.4375,255321.3125,318516.9375,294265.8125,228619.375,246058.828125,248979.484375,232082.015625,34248.0,1.0,1
238058.875,255204.984375,318398.03125,294167.3125,228416.59375,245990.078125,248692.140625,232057.515625,34249.0,1.0,1
238046.625,255162.515625,318338.75,294158.09375,228300.546875,245981.671875,248511.265625,232061.09375,34250.0,1.0,1
238155.078125,255258.1875,318418.75,294252.875,228443.15625,246050.78125,248698.75,232093.28125,34251.0,1.0,1
238254.671875,255361.890625,318525.0625,294323.59375,228650.40625,246102.1875,248993.265625,232111.96875,34252.0,1.0,1
238185.46875,255319.34375,318495.375,294260.09375,228631.625,246063.578125,248979.9375,232088.1875,34253.0,1.0,1
238068.890625,255193.453125,318374.96875,294160.40625,228423.125,245998.296875,248691.953125,232063.6875,34254.0,1.0,1
238055.75,255141.859375,318313.25,294146.8125,228300.109375,245988.015625,248504.5625,232061.453125,34255.0,1.0,1
238162.140625,255226.359375,318391.75,294237.3125,228437.875,246053.296875,248685.96875,232090.0625,34256.0,1.0,1
238270.765625,255335.25,318505.125,294311.5,228643.875,246108.71875,248983.96875,232109.90625,34257.0,1.0,1
238204.609375,255294.75,318485.28125,294254.03125,228634.125,246067.953125,248982.703125,232091.9375,34258.0,1.0,1
238080.328125,255164.75,318367.34375,294153.53125,228428.40625,245994.546875,248697.40625,232066.28125,34259.0,1.0,1
238057.625,255107.53125,318303.96875,294135.28125,228301.984375,245981.234375,248507.328125,232062.609375,34260.0,1.0,1
238164.28125,255202.75,318384.78125,294229.53125,228437.796875,246046.765625,248684.53125,232092.921875,34261.0,1.0,1
238270.859375,255323.625,318500.5625,294305.6875,228645.84375,246101.296875,248983.15625,232113.21875,34262.0,1.0,1
238199.0625,255288.578125,318481.4375,294248.46875,228634.578125,246065.265625,248984.765625,232090.953125,34263.0,1.0,1
238077.203125,255169.84375,318367.8125,294151.375,228426.4375,245998.84375,248702.78125,232062.890625,34264.0,1.0,1
238057.984375,255124.515625,318304.6875,294134.125,228292.953125,245987.3125,248511.71875,232062.609375,34265.0,1.0,1
238157.484375,255218.40625,318380.59375,294224.875,228420.4375,246050.34375,248685.875,232087.296875,34266.0,1.0,1
238259.234375,255336.78125,318495.46875,294300.96875,228627.6875,246103.71875,248984.9375,232104.109375,34267.0,1.0,1
238195.484375,255318.0,318485.375,294249.46875,228626.703125,246071.796875,248998.53125,232087.03125,34268.0,1.0,1
238070.5,255203.640625,318372.53125,294154.0625,228423.9375,246002.328125,248720.84375,232063.515625,34269.0,1.0,1
238039.203125,255146.15625,318300.3125,294133.15625,228285.796875,245982.21875,248520.75,232058.6875,34270.0,1.0,1
238141.125,255238.96875,318377.625,294224.96875,228417.3125,246051.40625,248691.15625,232089.53125,34271.0,1.0,1
238246.625,255360.015625,318495.9375,294303.46875,228629.65625,246104.96875,248991.203125,232109.375,34272.0,1.0,1
238181.90625,255329.625,318480.71875,294253.21875,228628.765625,246069.390625,249002.734375,232087.46875,34273.0,1.0,1
238059.765625,255207.84375,318364.9375,294154.6875,228426.34375,245999.46875,248722.453125,232061.453125,34274.0,1.0,1
238036.875,255156.53125,318298.34375,294137.78125,228297.15625,245986.40625,248527.09375,232061.0,34275.0,1.0,1
238135.59375,255241.203125,318368.0625,294225.875,228423.125,246050.78125,248692.671875,232089.890625,34276.0,1.0,1
238244.578125,255358.953125,318486.8125,294304.53125,228640.125,246107.5625,248994.953125,232110.1875,34277.0,1.0,1
238178.953125,255322.46875,318470.625,294248.21875,228641.375,246068.75,249007.75,232088.90625,34278.0,1.0,1
238057.09375,255197.921875,318350.8125,294145.03125,228437.078125,245994.28125,248720.65625,232060.46875,34279.0,1.0,1
238035.625,255144.640625,318280.28125,294123.75,228300.453125,245978.015625,248519.765625,232058.765625,34280.0,1.0,1
238139.78125,255233.515625,318354.21875,294215.40625,228423.484375,246042.109375,248682.921875,232090.15625,34281.0,1.0,1
238241.796875,255340.796875,318463.46875,294286.46875,228622.59375,246093.078125,248973.953125,232106.875,34282.0,1.0,1
238187.796875,255315.234375,318455.59375,294236.9375,228627.6875,246064.203125,248997.46875,232090.953125,34283.0,1.0,1
238072.28125,255200.25,318346.25,294141.90625,228429.828125,245998.296875,248723.25,232067.890625,34284.0,1.0,1
238047.96875,255146.34375,318277.15625,294122.0625,228290.453125,245980.0625,248519.9375,232063.515625,34285.0,1.0,1
238143.8125,255229.578125,318345.28125,294206.71875,228408.109375,246039.515625,248673.1875,232087.296875,34286.0,1.0,1
238250.46875,255349.65625,318458.09375,294282.8125,228616.15625,246092.09375,248969.390625,232106.96875,34287.0,1.0,1
238202.90625,255336.953125,318458.09375,294240.875,228633.234375,246066.609375,249004.875,232094.0,34288.0,1.0,1
238080.59375,255212.859375,318342.84375,294138.5,228434.921875,245994.640625,248725.671875,232064.671875,34289.0,1.0,1
238047.25,255146.515625,318270.0,294109.90625,228292.6875,245972.28125,248513.859375,232059.9375,34290.0,1.0,1
238150.78125,255236.546875,318342.84375,294198.40625,228411.0625,246034.515625,248667.90625,232086.21875,34291.0,1.0,1
238264.0625,255356.171875,318462.9375,294283.0,228629.03125,246095.765625,248974.65625,232110.265625,34292.0,1.0,1
238203.265625,255323.09375,318454.0,294231.21875,228638.59375,246060.625,249002.109375,232088.09375,34293.0,1.0,1
238072.375,255190.421875,318336.15625,294127.0625,228434.484375,245987.84375,248722.0,232058.6875,34294.0,1.0,1
238050.203125,255137.578125,318268.46875,294105.96875,228297.6875,245975.328125,248519.671875,232058.6875,34295.0,1.0,1
238150.515625,255221.96875,318335.875,294193.59375,228412.125,246039.875,248671.21875,232086.046875,34296.0,1.0,1
238258.25,255339.546875,318452.75,294274.59375,228622.234375,246095.9375,248973.234375,232105.796875,34297.0,1.0,1
238195.578125,255307.359375,318447.09375,294225.78125,228635.5625,246063.921875,249004.171875,232086.75,34298.0,1.0,1
238071.03125,255185.59375,318331.59375,294122.25,228433.59375,245992.40625,248724.234375,232057.703125,34299.0,1.0,1
238045.46875,255131.40625,318263.28125,294098.46875,228291.078125,245979.34375,248518.234375,232057.34375,34300.0,1.0,1
238133.078125,255205.796875,318324.53125,294183.46875,228395.59375,246040.953125,248658.15625,232083.1875,34301.0,1.0,1
238239.203125,255320.234375,318441.5625,294265.65625,228607.75,246098.796875,248956.953125,232105.171875,34302.0,1.0,1
238185.5625,255302.0,318438.53125,294222.09375,228630.546875,246072.0625,249001.03125,232090.328125,34303.0,1.0,1
238061.640625,255184.609375,318321.75,294120.625,228435.203125,246001.703125,248728.796875,232062.171875,34304.0,1.0,1
238036.4375,255130.609375,318249.34375,294099.34375,228295.359375,245986.234375,248518.421875,232061.8125,34305.0,1.0,1
238134.421875,255211.875,318313.4375,294184.46875,228409.53125,246049.984375,248660.9375,232088.8125,34306.0,1.0,1
238240.375,255324.796875,318429.40625,294263.6875,228622.6875,246103.0,248958.21875,232106.78125,34307.0,1.0,1
238193.078125,255307.8125,318432.8125,294220.75,228650.21875,246078.234375,249006.765625,232093.640625,34308.0,1.0,1
238076.75,255191.671875,318322.03125,294122.0625,228457.453125,246010.828125,248741.046875,232065.03125,34309.0,1.0,1
238048.234375,255133.015625,318245.40625,294094.0625,228306.984375,245990.609375,248524.5,232059.390625,34310.0,1.0,1
238136.484375,255204.984375,318303.0625,294174.8125,228406.59375,246046.3125,248656.109375,232085.234375,34311.0,1.0,1
238245.5625,255319.34375,318421.90625,294256.53125,228619.109375,246102.46875,248958.296875,232104.90625,34312.0,1.0,1
238195.9375,255297.4375,318421.90625,294212.8125,228641.1875,246070.28125,249004.96875,232084.515625,34313.0,1.0,1
238071.03125,255173.421875,318310.5,294112.125,228445.390625,245998.296875,248733.4375,232058.859375,34314.0,1.0,1
238044.125,255115.3125,318238.15625,294088.1875,228296.078125,245976.671875,248513.6875,232055.28125,34315.0,1.0,1
238137.203125,255192.65625,318296.8125,294169.34375,228398.546875,246034.0625,248646.71875,232079.609375,34316.0,1.0,1
238247.96875,255312.546875,318413.84375,294251.875,228615.171875,246093.96875,248952.671875,232102.21875,34317.0,1.0,1
238200.578125,255299.046875,318418.5,294213.34375,228647.09375,246072.6875,249010.78125,232087.828125,34318.0,1.0,1
238081.3125,255183.796875,318308.875,294110.78125,228454.59375,246003.765625,248744.625,232059.3125,34319.0,1.0,1
238047.25,255123.1875,318233.875,294081.5625,228303.046875,245982.65625,248522.0,232052.78125,34320.0,1.0,1
238134.25,255199.0,318291.28125,294160.875,228401.9375,246038.0,248650.921875,232077.375,34321.0,1.0,1
238246.984375,255324.4375,318411.875,294245.71875,228620.890625,246099.78125,248960.359375,232101.0625,34322.0,1.0,1
238196.390625,255306.46875,318414.65625,294204.59375,228652.1875,246072.515625,249017.9375,232085.59375,34323.0,1.0,1
238069.15625,255184.421875,318299.9375,294099.25,228456.921875,246000.265625,248749.09375,232057.078125,34324.0,1.0,1
238031.875,255121.84375,318219.375,294067.0,228301.890625,245978.90625,248524.046875,232050.09375,34325.0,1.0,1
238119.21875,255195.953125,318275.0,294147.71875,228398.09375,246035.859375,248648.859375,232080.5,34326.0,1.0,1
238233.9375,255322.109375,318396.3125,294236.84375,228615.703125,246100.40625,248954.453125,232104.015625,34327.0,1.0,1
238195.3125,255319.609375,318405.8125,294204.75,228653.53125,246082.25,249021.953125,232090.328125,34328.0,1.0,1
238066.65625,255192.828125,318290.28125,294099.25,228459.25,246006.53125,248752.84375,232060.109375,34329.0,1.0,1
238033.484375,255128.09375,318211.34375,294068.59375,228306.546875,245985.515625,248524.046875,232053.5,34330.0,1.0,1
238125.125,255202.75,318268.375,294149.5,228401.484375,246040.953125,248643.046875,232078.890625,34331.0,1.0,1
238239.65625,255320.859375,318387.375,294236.40625,228618.21875,246098.796875,248944.71875,232103.03125,34332.0,1.0,1
238205.765625,255315.234375,318399.375,294205.65625,228661.390625,246080.921875,249016.234375,232090.953125,34333.0,1.0,1
238079.34375,255195.0625,318285.8125,294099.25,228467.5625,246007.515625,248749.984375,232060.828125,34334.0,1.0,1
238045.90625,255130.875,318207.9375,294069.5,228313.875,245984.453125,248522.171875,232057.078125,34335.0,1.0,1
238135.3125,255200.25,318264.8125,294150.84375,228409.453125,246042.296875,248640.90625,232081.578125,34336.0,1.0,1
238247.53125,255317.015625,318384.4375,294236.40625,228628.046875,246103.890625,248947.296875,232105.265625,34337.0,1.0,1
238210.0625,255311.109375,318395.34375,294203.5,228671.671875,246084.046875,249020.265625,232091.5,34338.0,1.0,1
238087.484375,255194.609375,318282.59375,294098.1875,228480.703125,246009.03125,248755.609375,232060.109375,34339.0,1.0,1
238046.890625,255124.078125,318199.8125,294062.34375,228318.078125,245979.96875,248520.390625,232051.4375,34340.0,1.0,1
238129.5,255183.625,318251.125,294138.78125,228404.0,246033.890625,248630.625,232076.390625,34341.0,1.0,1
238251.8125,255308.15625,318372.1875,294227.125,228622.953125,246098.34375,248938.984375,232100.34375,34342.0,1.0,1
238219.546875,255309.5,318386.65625,294195.375,228668.453125,246079.671875,249019.09375,232086.046875,34343.0,1.0,1
238093.5625,255190.140625,318278.21875,294091.46875,228480.078125,246009.03125,248760.984375,232060.375,34344.0,1.0,1
238057.09375,255122.90625,318197.125,294055.375,228319.953125,245983.734375,248526.375,232055.46875,34345.0,1.0,1
238143.90625,255191.40625,318250.6875,294133.78125,228405.609375,246039.875,248634.828125,232082.46875,34346.0,1.0,1
238254.59375,255310.75,318369.84375,294218.71875,228619.375,246099.328125,248936.390625,232103.46875,34347.0,1.0,1
238219.359375,255312.640625,318388.375,294190.8125,228670.609375,246087.71875,249022.234375,232091.5,34348.0,1.0,1
238097.140625,255200.96875,318281.15625,294089.4375,228484.546875,246022.4375,248767.6875,232065.390625,34349.0,1.0,1
238054.3125,255128.546875,318196.59375,294051.4375,228320.21875,245995.53125,248532.015625,232060.46875,34350.0,1.0,1
238138.0,255193.28125,318245.84375,294125.375,228401.40625,246044.171875,248633.03125,232082.546875,34351.0,1.0,1
238245.375,255309.421875,318362.53125,294212.28125,228614.8125,246102.1875,248934.15625,232101.328125,34352.0,1.0,1
238212.46875,255307.71875,318380.0625,294183.21875,228665.0625,246083.859375,249021.515625,232091.140625,34353.0,1.0,1
238083.546875,255191.21875,318270.53125,294078.15625,228477.390625,246008.671875,248764.015625,232058.421875,34354.0,1.0,1
238038.765625,255126.046875,318185.9375,294039.0,228312.171875,245977.921875,248526.5625,232051.265625,34355.0,1.0,1
238115.015625,255189.515625,318231.09375,294112.84375,228391.390625,246030.40625,248627.9375,232078.265625,34356.0,1.0,1
238228.296875,255310.75,318348.40625,294203.78125,228605.96875,246091.5625,248930.5,232102.84375,34357.0,1.0,1
238203.0,255318.890625,318370.84375,294182.40625,228663.71875,246075.8125,249022.859375,232091.671875,34358.0,1.0,1
238072.734375,255199.09375,318261.40625,294081.90625,228480.796875,246006.703125,248769.921875,232062.96875,34359.0,1.0,1
238022.9375,255122.734375,318172.90625,294042.40625,228314.3125,245975.859375,248527.71875,232053.59375,34360.0,1.0,1
238110.28125,255190.59375,318222.53125,294116.15625,228394.421875,246029.59375,248624.359375,232077.09375,34361.0,1.0,1
238234.296875,255316.390625,318345.53125,294206.5625,228614.640625,246093.515625,248929.875,232101.234375,34362.0,1.0,1
238205.59375,255316.125,318364.6875,294181.0625,228674.984375,246079.671875,249025.984375,232090.953125,34363.0,1.0,1
238080.59375,255196.21875,318256.65625,294076.8125,228489.734375,246009.390625,248774.5625,232062.796875,34364.0,1.0,1
238044.921875,255131.234375,318176.90625,294039.625,228323.078125,245981.3125,248534.25,232056.359375,34365.0,1.0,1
238126.734375,255191.046875,318223.84375,294113.5625,228397.828125,246032.90625,248625.4375,232081.65625,34366.0,1.0,1
238242.875,255309.765625,318343.40625,294204.5,228613.921875,246098.796875,248928.703125,232106.15625,34367.0,1.0,1
238216.671875,255313.34375,318363.875,294178.75,228671.859375,246086.375,249027.328125,232093.46875,34368.0,1.0,1
238092.3125,255193.1875,318255.5,294074.3125,228487.40625,246017.265625,248779.046875,232065.296875,34369.0,1.0,1
238050.5625,255120.671875,318167.71875,294033.53125,228318.15625,245987.046875,248533.796875,232056.265625,34370.0,1.0,1
238129.59375,255180.046875,318209.8125,294105.25,228387.8125,246035.40625,248616.859375,232078.171875,34371.0,1.0,1
238248.234375,255302.0,318331.3125,294197.34375,228607.65625,246101.75,248921.015625,232102.9375,34372.0,1.0,1
238230.0,255309.5,318358.25,294176.875,228674.984375,246091.28125,249027.0625,232093.015625,34373.0,1.0,1
238105.90625,255193.90625,318254.875,294076.90625,228498.234375,246022.796875,248781.359375,232065.484375,34374.0,1.0,1
238065.21875,255124.875,318175.125,294039.71875,228332.375,245997.328125,248540.59375,232061.546875,34375.0,1.0,1
238147.03125,255191.125,318222.59375,294109.71875,228401.9375,246052.578125,248629.46875,232088.015625,34376.0,1.0,1
238256.828125,255311.296875,318337.6875,294196.53125,228612.671875,246113.109375,248929.25,232111.96875,34377.0,1.0,1
238229.1875,255313.96875,318359.65625,294173.90625,228677.671875,246099.0625,249037.515625,232099.28125,34378.0,1.0,1
238096.421875,255192.734375,318246.65625,294063.6875,228491.875,246021.546875,248786.546875,232064.5,34379.0,1.0,1
238046.8125,255120.3125,318159.5625,294021.375,228319.859375,245990.890625,248542.015625,232061.1875,34380.0,1.0,1
238123.515625,255180.3125,318203.125,294093.1875,228387.984375,246043.546875,248626.78125,232086.3125,34381.0,1.0,1
238229.46875,255293.59375,318313.875,294178.125,228597.46875,246099.609375,248922.890625,232105.171875,34382.0,1.0,1
238210.859375,255308.515625,318338.3125,294159.25,228665.59375,246084.140625,249029.5625,232092.390625,34383.0,1.0,1
238083.46875,255192.65625,318228.0625,294054.75,228483.03125,246004.03125,248779.75,232059.3125,34384.0,1.0,1
238028.125,255107.453125,318135.4375,294009.40625,228307.34375,245966.921875,248525.75,232045.8125,34385.0,1.0,1
238104.921875,255163.859375,318177.625,294080.5625,228370.015625,246018.78125,248602.546875,232070.578125,34386.0,1.0,1
238228.125,255294.21875,318297.53125,294172.9375,228585.40625,246085.46875,248906.890625,232096.40625,34387.0,1.0,1
238210.421875,255308.703125,318329.625,294159.0,228661.75,246078.0625,249024.8125,232089.171875,34388.0,1.0,1
238087.3125,255195.15625,318226.8125,294056.875,228487.046875,246009.921875,248785.75,232060.46875,34389.0,1.0,1
238039.109375,255115.765625,318133.65625,294012.28125,228312.265625,245977.109375,248530.9375,232054.390625,34390.0,1.0,1
238113.40625,255169.84375,318169.59375,294079.40625,228372.078125,246026.640625,248600.671875,232075.578125,34391.0,1.0,1
238238.3125,255300.03125,318292.34375,294175.71875,228592.828125,246095.765625,248908.046875,232100.796875,34392.0,1.0,1
238224.015625,255312.71875,318324.53125,294158.53125,228670.78125,246086.28125,249030.09375,232091.671875,34393.0,1.0,1
238102.6875,255203.5625,318221.625,294053.46875,228496.796875,246015.828125,248792.0,232064.859375,34394.0,1.0,1
238047.515625,255119.0625,318130.0625,294006.09375,228319.328125,245981.234375,248535.046875,232057.34375,34395.0,1.0,1
238117.25,255165.65625,318165.65625,294072.625,228376.640625,246027.984375,248600.578125,232080.5,34396.0,1.0,1
238242.609375,255292.78125,318287.25,294167.65625,228596.9375,246098.796875,248904.03125,232109.46875,34397.0,1.0,1
238237.953125,255316.921875,318324.53125,294154.78125,228678.203125,246093.875,249030.71875,232102.140625,34398.0,1.0,1
238111.0,255198.015625,318221.0,294053.125,228501.09375,246021.015625,248791.921875,232073.34375,34399.0,1.0,1
238054.21875,255111.375,318126.6875,294005.75,228317.171875,245981.671875,248531.390625,232061.984375,34400.0,1.0,1
238130.484375,255166.28125,318165.28125,294075.125,228372.96875,246033.796875,248598.34375,232086.125,34401.0,1.0,1
238250.03125,255291.625,318288.0625,294172.40625,228591.65625,246104.96875,248904.03125,232112.328125,34402.0,1.0,1
238229.015625,255301.734375,318316.21875,294156.40625,228670.25,246094.59375,249028.9375,232102.3125,34403.0,1.0,1
238102.5,255187.90625,318209.5625,294050.28125,228496.0,246022.796875,248792.1875,232070.03125,34404.0,1.0,1
238046.359375,255107.0,318114.34375,293996.625,228313.515625,245986.234375,248530.484375,232058.859375,34405.0,1.0,1
238114.390625,255156.703125,318148.5625,294061.34375,228366.984375,246037.546875,248592.1875,232083.0,34406.0,1.0,1
238236.53125,255288.578125,318270.625,294156.40625,228581.375,246106.484375,248895.453125,232106.25,34407.0,1.0,1
238225.890625,255310.40625,318307.53125,294146.125,228664.4375,246100.40625,249027.5,232097.671875,34408.0,1.0,1
238095.703125,255195.15625,318201.9375,294039.28125,228492.78125,246029.0625,248793.34375,232064.859375,34409.0,1.0,1
238041.796875,255115.046875,318109.0625,293988.125,228315.84375,245995.171875,248536.125,232054.75,34410.0,1.0,1
238114.390625,255165.5625,318143.9375,294053.75,228370.640625,246043.015625,248594.234375,232077.734375,34411.0,1.0,1
238231.4375,255282.5,318256.84375,294143.875,228583.078125,246105.40625,248889.71875,232099.984375,34412.0,1.0,1
238218.828125,255295.734375,318288.59375,294131.4375,228668.28125,246101.03125,249024.546875,232092.65625,34413.0,1.0,1
238097.40625,255186.296875,318187.46875,294027.75,228502.25,246035.59375,248797.640625,232063.78125,34414.0,1.0,1
238043.765625,255104.578125,318094.5625,293976.0625,228320.3125,246000.546875,248534.6875,232050.71875,34415.0,1.0,1
238111.453125,255147.953125,318127.75,294040.34375,228365.015625,246045.25,248584.9375,232074.59375,34416.0,1.0,1
238230.359375,255264.984375,318248.96875,294136.1875,228578.78125,246113.546875,248888.46875,232101.78125,34417.0,1.0,1
238232.40625,255292.78125,318289.3125,294127.6875,228667.65625,246108.625,249028.75,232094.53125,34418.0,1.0,1
238108.5,255181.109375,318186.3125,294023.8125,228498.59375,246032.1875,248799.15625,232061.453125,34419.0,1.0,1
238044.125,255093.234375,318088.125,293969.96875,228312.265625,245987.125,248532.453125,232051.4375,34420.0,1.0,1
238105.359375,255134.0,318111.90625,294029.25,228349.984375,246023.15625,248573.3125,232072.0,34421.0,1.0,1
238225.890625,255259.4375,318229.21875,294124.28125,228564.84375,246089.765625,248873.09375,232101.234375,34422.0,1.0,1
238230.53125,255299.84375,318270.53125,294119.5625,228660.40625,246088.609375,249018.109375,232098.375,34423.0,1.0,1
238104.296875,255196.5,318168.15625,294017.1875,228496.4375,246017.53125,248797.1875,232068.609375,34424.0,1.0,1
238049.484375,255123.1875,318076.4375,293970.5,228316.203125,245981.140625,248538.71875,232063.25,34425.0,1.0,1
238112.703125,255170.65625,318101.1875,294031.84375,228353.125,246018.78125,248576.09375,232085.0625,34426.0,1.0,1
238227.234375,255296.09375,318215.28125,294126.0,228563.234375,246083.6875,248871.578125,232113.75,34427.0,1.0,1
238222.765625,255328.734375,318256.03125,294119.8125,228657.1875,246082.796875,249018.375,232109.375,34428.0,1.0,1
238094.09375,255226.625,318156.0,294015.21875,228492.78125,246011.890625,248796.46875,232076.46875,34429.0,1.0,1
238032.234375,255148.21875,318062.84375,293967.65625,228310.03125,245977.203125,248535.765625,232068.15625,34430.0,1.0,1
238095.625,255195.59375,318088.84375,294028.1875,228347.3125,246022.796875,248578.140625,232089.96875,34431.0,1.0,1
238218.28125,255322.828125,318210.28125,294124.46875,228561.703125,246093.25,248877.390625,232114.65625,34432.0,1.0,1
238223.390625,255361.0,318260.59375,294123.3125,228662.296875,246094.59375,249032.6875,232110.984375,34433.0,1.0,1
238095.625,255251.125,318166.0,294020.9375,228501.09375,246025.9375,248817.671875,232079.6875,34434.0,1.0,1
238029.015625,255161.890625,318069.90625,293969.1875,228312.53125,245984.984375,248551.671875,232067.984375,34435.0,1.0,1
238091.0625,255202.21875,318095.46875,294029.875,228345.34375,246026.109375,248585.65625,232088.640625,34436.0,1.0,1
238216.40625,255329.4375,318217.34375,294126.34375,228561.171875,246098.171875,248885.25,232116.0,34437.0,1.0,1
238225.625,255365.921875,318268.21875,294126.625,228666.5,246101.21875,249043.234375,232110.890625,34438.0,1.0,1
238099.203125,255253.625,318172.34375,294026.5625,228510.203125,246029.953125,248830.0,232079.34375,34439.0,1.0,1
238037.421875,255165.203125,318073.65625,293969.1875,228324.953125,245986.234375,248560.078125,232067.09375,34440.0,1.0,1
238108.578125,255210.984375,318099.84375,294027.46875,228359.375,246023.96875,248587.984375,232088.546875,34441.0,1.0,1
238227.671875,255333.5625,318218.40625,294124.03125,228573.953125,246090.484375,248883.203125,232115.1875,34442.0,1.0,1
238239.484375,255369.9375,318269.8125,294125.53125,228686.4375,246095.671875,249049.3125,232110.984375,34443.0,1.0,1
238121.109375,255265.34375,318174.9375,294023.625,228532.375,246025.84375,248841.0,232079.421875,34444.0,1.0,1
238053.78125,255172.09375,318071.6875,293964.0,228339.984375,245977.46875,248565.796875,232064.5,34445.0,1.0,1
238116.0,255208.46875,318086.71875,294017.1875,228362.78125,246012.78125,248582.875,232083.453125,34446.0,1.0,1
238248.328125,255339.453125,318207.9375,294117.9375,228579.140625,246086.90625,248880.34375,232114.03125,34447.0,1.0,1
238260.9375,255377.640625,318260.15625,294120.1875,228686.4375,246091.375,249045.734375,232111.34375,34448.0,1.0,1
238133.0,255262.828125,318161.71875,294014.875,228525.140625,246017.890625,248835.359375,232079.15625,34449.0,1.0,1
238067.546875,255166.71875,318056.75,293953.625,228330.59375,245974.078125,248560.4375,232065.828125,34450.0,1.0,1
238132.90625,255208.5625,318081.34375,294013.34375,228358.75,246021.453125,248582.34375,232087.828125,34451.0,1.0,1
238258.15625,255335.25,318202.21875,294111.6875,228571.90625,246092.546875,248876.40625,232113.40625,34452.0,1.0,1
238265.859375,255368.6875,318257.28125,294116.59375,228686.34375,246099.6875,249045.46875,232109.5625,34453.0,1.0,1
238143.453125,255264.890625,318170.03125,294021.3125,228538.1875,246037.546875,248844.578125,232082.203125,34454.0,1.0,1
238073.890625,255171.8125,318070.0625,293957.90625,228342.125,245991.59375,248565.890625,232066.640625,34455.0,1.0,1
238122.796875,255196.40625,318086.34375,294003.5,228358.578125,246027.09375,248575.453125,232083.453125,34456.0,1.0,1
238242.421875,255318.265625,318205.09375,294099.625,228566.984375,246096.46875,248868.890625,232108.9375,34457.0,1.0,1
238258.078125,255364.40625,318263.8125,294104.1875,228679.1875,246105.140625,249041.625,232103.75,34458.0,1.0,1
238129.0625,255255.40625,318171.90625,294001.71875,228523.359375,246034.78125,248835.453125,232069.859375,34459.0,1.0,1
238051.71875,255157.15625,318069.09375,293939.84375,228323.890625,245988.640625,248556.328125,232053.765625,34460.0,1.0,1
238108.9375,255191.3125,318088.21875,293994.375,228341.234375,246029.78125,248572.328125,232075.140625,34461.0,1.0,1
238233.3125,255320.0625,318207.59375,294094.34375,228550.265625,246102.375,248868.53125,232104.453125,34462.0,1.0,1
238246.359375,255363.328125,318260.59375,294098.53125,228659.96875,246108.625,249040.828125,232101.15625,34463.0,1.0,1
238119.765625,255257.375,318167.625,293998.0625,228507.078125,246038.453125,248841.71875,232069.046875,34464.0,1.0,1
238050.203125,255167.703125,318067.21875,293939.40625,228313.0625,245992.21875,248567.5,232057.4375,34465.0,1.0,1
238103.3125,255200.078125,318082.25,293990.09375,228327.015625,246027.09375,248574.125,232074.6875,34466.0,1.0,1
238229.1875,255326.140625,318202.40625,294089.5,228537.203125,246098.34375,248866.65625,232101.953125,34467.0,1.0,1
238247.34375,255369.046875,318257.90625,294097.90625,228658.984375,246106.9375,249041.8125,232099.984375,34468.0,1.0,1
238126.5625,255265.78125,318163.78125,293995.8125,228515.484375,246037.109375,248842.34375,232070.484375,34469.0,1.0,1
238055.390625,255172.265625,318060.0625,293935.8125,228324.15625,245990.796875,248562.40625,232058.328125,34470.0,1.0,1
238109.484375,255199.0,318074.09375,293986.96875,228340.609375,246026.828125,248565.0,232076.46875,34471.0,1.0,1
238234.734375,255319.875,318187.8125,294085.5,228553.65625,246096.390625,248853.15625,232103.5625,34472.0,1.0,1
238259.234375,255364.765625,318241.46875,294096.03125,228677.578125,246104.78125,249034.390625,232102.21875,34473.0,1.0,1
238137.828125,255261.578125,318150.8125,293995.625,228537.75,246041.75,248843.859375,232074.0625,34474.0,1.0,1
238064.5,255163.859375,318044.6875,293933.0625,228345.515625,245996.96875,248565.796875,232061.546875,34475.0,1.0,1
238106.890625,255177.0,318041.375,293973.71875,228341.953125,246022.53125,248553.375,232073.609375,34476.0,1.0,1
238231.96875,255295.828125,318153.0625,294069.9375,228547.140625,246094.328125,248842.078125,232098.828125,34477.0,1.0,1
238268.359375,255354.390625,318225.65625,294089.59375,228684.1875,246114.09375,249039.21875,232104.90625,34478.0,1.0,1
238146.9375,255251.21875,318137.75,293988.125,228542.84375,246043.546875,248842.609375,232072.625,34479.0,1.0,1
238067.1875,255148.03125,318029.9375,293921.59375,228342.921875,245991.78125,248555.171875,232055.203125,34480.0,1.0,1
238109.390625,255163.421875,318031.625,293965.6875,228343.46875,246015.5625,248542.5625,232069.40625,34481.0,1.0,1
238236.34375,255291.625,318147.25,294067.6875,228553.21875,246082.25,248831.078125,232099.09375,34482.0,1.0,1
238260.046875,255344.640625,318207.9375,294079.15625,228677.40625,246090.578125,249019.71875,232097.484375,34483.0,1.0,1
238136.21875,255248.984375,318124.34375,293980.4375,228536.859375,246027.8125,248837.15625,232070.484375,34484.0,1.0,1
238054.046875,255152.859375,318021.0,293913.65625,228334.078125,245982.65625,248556.0625,232054.390625,34485.0,1.0,1
238100.71875,255180.3125,318029.65625,293959.6875,228332.296875,246017.171875,248548.015625,232070.125,34486.0,1.0,1
238230.359375,255313.96875,318151.625,294064.40625,228541.5,246093.96875,248843.234375,232100.171875,34487.0,1.0,1
238256.109375,255370.390625,318213.84375,294076.0,228664.53125,246101.390625,249032.6875,232097.125,34488.0,1.0,1
238133.984375,255273.390625,318127.5625,293978.75,228524.0625,246035.59375,248851.90625,232067.09375,34489.0,1.0,1
238054.671875,255175.21875,318021.875,293914.71875,228322.28125,245985.25,248569.65625,232051.0,34490.0,1.0,1
238102.6875,255204.0,318029.9375,293960.59375,228321.109375,246012.15625,248555.25,232070.9375,34491.0,1.0,1
238224.28125,255328.1875,318145.4375,294059.375,228526.484375,246082.796875,248841.890625,232096.765625,34492.0,1.0,1
238254.671875,255384.703125,318213.21875,294077.625,228662.203125,246099.328125,249041.625,232094.359375,34493.0,1.0,1
238133.171875,255282.0625,318131.5,293981.4375,228531.484375,246035.765625,248863.796875,232066.46875,34494.0,1.0,1
238049.578125,255173.15625,318021.0,293911.9375,228328.09375,245979.0,248576.09375,232052.15625,34495.0,1.0,1
238097.40625,255190.6875,318023.6875,293953.71875,228325.40625,246006.796875,248554.1875,232070.65625,34496.0,1.0,1
238226.953125,255315.40625,318141.4375,294057.40625,228537.921875,246081.8125,248837.6875,232099.71875,34497.0,1.0,1
238264.328125,255374.765625,318211.96875,294080.65625,228675.609375,246097.640625,249038.046875,232099.984375,34498.0,1.0,1
238134.78125,255264.359375,318119.0625,293977.125,228537.296875,246022.984375,248854.671875,232070.484375,34499.0,1.0,1
238054.671875,255158.234375,318010.96875,293907.9375,228339.078125,245974.96875,248572.328125,232057.875,34500.0,1.0,1
238108.3125,255181.75,318014.375,293950.3125,228334.34375,246009.21875,248551.765625,232073.4375,34501.0,1.0,1
238232.140625,255303.609375,318126.21875,294048.46875,228536.671875,246079.21875,248831.875,232098.640625,34502.0,1.0,1
238262.71875,255361.453125,318191.5,294068.9375,228673.640625,246094.328125,249032.78125,232100.609375,34503.0,1.0,1
238138.71875,255263.28125,318108.625,293973.09375,228546.953125,246031.109375,248860.9375,232073.171875,34504.0,1.0,1
238059.40625,255163.59375,318001.9375,293902.84375,228346.328125,245979.890625,248574.390625,232057.25,34505.0,1.0,1
238105.90625,255184.609375,318005.09375,293943.59375,228336.046875,246008.140625,248545.0625,232073.171875,34506.0,1.0,1
238228.390625,255304.671875,318116.375,294042.84375,228534.703125,246077.515625,248822.84375,232101.421875,34507.0,1.0,1
238266.125,255367.0,318190.34375,294064.125,228676.5,246096.734375,249035.1875,232103.65625,34508.0,1.0,1
238143.71875,255266.234375,318107.90625,293965.15625,228551.15625,246030.40625,248866.484375,232070.75,34509.0,1.0,1
238061.5625,255161.53125,317999.0,293893.28125,228350.625,245980.15625,248579.65625,232052.515625,34510.0,1.0,1
238108.234375,255180.140625,317998.8125,293933.21875,228337.75,246006.078125,248545.515625,232068.078125,34511.0,1.0,1
238228.75,255298.859375,318111.21875,294031.03125,228536.578125,246072.875,248822.3125,232094.984375,34512.0,1.0,1
238258.4375,255353.765625,318182.71875,294052.0625,228677.21875,246089.5,249033.40625,232096.40625,34513.0,1.0,1
238134.6875,255251.921875,318100.375,293952.71875,228548.5625,246021.8125,248864.421875,232063.59375,34514.0,1.0,1
238056.46875,255152.6875,317992.75,293883.6875,228345.796875,245974.25,248579.65625,232047.328125,34515.0,1.0,1
238096.6875,255167.609375,317988.71875,293921.15625,228325.046875,246002.953125,248542.109375,232061.8125,34516.0,1.0,1
238213.375,255283.390625,318099.21875,294020.03125,228520.84375,246074.03125,248816.59375,232090.0625,34517.0,1.0,1
238248.78125,255343.21875,318173.15625,294044.71875,228663.625,246090.296875,249026.96875,232094.265625,34518.0,1.0,1
238132.546875,255253.984375,318096.28125,293950.84375,228540.15625,246023.609375,248864.515625,232062.171875,34519.0,1.0,1
238049.046875,255153.84375,317991.84375,293883.53125,228341.046875,245973.984375,248580.5625,232046.53125,34520.0,1.0,1
238088.640625,255165.734375,317987.46875,293921.78125,228323.890625,246000.265625,248540.0625,232063.25,34521.0,1.0,1
238209.609375,255288.140625,318098.78125,294020.5,228524.328125,246072.6875,248813.28125,232089.96875,34522.0,1.0,1
238245.921875,255352.875,318168.5,294040.78125,228666.765625,246090.484375,249025.09375,232091.046875,34523.0,1.0,1
238122.796875,255252.28125,318084.90625,293942.71875,228544.71875,246024.5,248864.15625,232060.03125,34524.0,1.0,1
238040.09375,255148.21875,317974.3125,293871.4375,228340.96875,245973.1875,248575.8125,232043.75,34525.0,1.0,1
238081.9375,255160.46875,317970.21875,293910.6875,228320.578125,246000.71875,248532.71875,232062.609375,34526.0,1.0,1
238205.59375,255278.484375,318082.78125,294012.34375,228521.828125,246072.0625,248807.46875,232091.046875,34527.0,1.0,1
238250.203125,255343.484375,318154.84375,294037.3125,228665.78125,246087.359375,249019.71875,232092.921875,34528.0,1.0,1
238134.953125,255247.375,318074.8125,293942.625,228545.796875,246023.34375,248862.71875,232064.3125,34529.0,1.0,1
238049.9375,255142.40625,317962.34375,293868.40625,228341.953125,245973.71875,248575.109375,232046.796875,34530.0,1.0,1
238087.75,255148.9375,317954.84375,293903.375,228319.859375,246001.34375,248530.125,232061.71875,34531.0,1.0,1
238210.515625,255265.515625,318065.34375,294000.1875,228518.25,246070.546875,248801.65625,232090.515625,34532.0,1.0,1
238261.109375,255334.09375,318145.1875,294029.0625,228670.96875,246093.171875,249026.15625,232097.03125,34533.0,1.0,1
238146.046875,255240.65625,318069.28125,293934.9375,228556.796875,246030.84375,248874.890625,232067.890625,34534.0,1.0,1
238054.859375,255132.5625,317955.1875,293859.03125,228346.6875,245972.28125,248580.5625,232045.890625,34535.0,1.0,1
238094.28125,255143.296875,317946.53125,293894.875,228316.90625,245994.640625,248525.125,232058.859375,34536.0,1.0,1
238219.625,255264.71875,318059.0,293998.6875,228517.71875,246070.453125,248800.140625,232090.78125,34537.0,1.0,1
238260.578125,255329.171875,318133.09375,294025.0625,228665.59375,246091.015625,249023.484375,232093.8125,34538.0,1.0,1
238142.109375,255234.9375,318058.71875,293930.46875,228550.0,246029.59375,248873.640625,232064.40625,34539.0,1.0,1
238047.34375,255125.59375,317946.25,293853.125,228343.109375,245976.125,248579.84375,232045.359375,34540.0,1.0,1
238086.328125,255139.984375,317938.75,293885.5625,228314.3125,246000.984375,248522.625,232060.46875,34541.0,1.0,1
238210.6875,255264.09375,318053.09375,293985.34375,228513.875,246076.0,248793.796875,232090.515625,34542.0,1.0,1
238259.953125,255340.890625,318133.5625,294018.09375,228673.46875,246100.3125,249024.46875,232098.203125,34543.0,1.0,1
238144.265625,255255.859375,318059.34375,293927.34375,228567.34375,246040.953125,248884.265625,232068.25,34544.0,1.0,1
238052.96875,255145.625,317945.34375,293852.5,228357.953125,245985.96875,248593.34375,232048.765625,34545.0,1.0,1
238078.09375,255141.59375,317926.3125,293879.9375,228315.125,246000.0,248522.703125,232057.96875,34546.0,1.0,1
238187.078125,255250.578125,318027.25,293975.4375,228504.21875,246063.84375,248783.25,232082.375,34547.0,1.0,1
238240.453125,255327.75,318112.625,294014.0625,228668.109375,246093.515625,249019.28125,232093.1875,34548.0,1.0,1
238131.109375,255245.046875,318037.90625,293919.5625,228557.6875,246033.53125,248875.78125,232063.515625,34549.0,1.0,1
238040.1875,255136.40625,317924.875,293841.40625,228350.625,245978.640625,248582.171875,232042.765625,34550.0,1.0,1
238073.09375,255140.078125,317909.875,293869.3125,228312.53125,246000.546875,248516.453125,232054.390625,34551.0,1.0,1
238188.609375,255253.890625,318015.71875,293967.125,228502.15625,246071.265625,248781.09375,232082.734375,34552.0,1.0,1
238240.28125,255326.046875,318097.15625,294001.28125,228658.453125,246093.96875,249013.28125,232088.71875,34553.0,1.0,1
238126.640625,255234.84375,318023.21875,293909.625,228552.953125,246031.46875,248876.671875,232058.953125,34554.0,1.0,1
238039.734375,255130.15625,317912.8125,293834.78125,228350.703125,245976.9375,248589.3125,232041.34375,34555.0,1.0,1
238073.09375,255132.921875,317896.28125,293862.6875,228311.015625,245993.828125,248520.03125,232052.15625,34556.0,1.0,1
238191.828125,255245.125,318003.75,293960.40625,228501.71875,246063.296875,248781.28125,232080.859375,34557.0,1.0,1
238243.59375,255316.5625,318086.25,293995.09375,228661.390625,246090.65625,249015.96875,232088.09375,34558.0,1.0,1
238129.328125,255226.171875,318015.53125,293905.0625,228558.40625,246033.265625,248880.515625,232060.5625,34559.0,1.0,1
238040.1875,255122.734375,317903.875,293827.1875,228354.28125,245977.828125,248585.203125,232044.28125,34560.0,1.0,1
238074.703125,255131.3125,317890.90625,293856.875,228316.015625,246000.09375,248514.9375,232061.90625,34561.0,1.0,1
238190.65625,255245.40625,317999.28125,293956.65625,228508.515625,246073.9375,248779.21875,232090.78125,34562.0,1.0,1
238241.984375,255318.09375,318083.3125,293993.40625,228668.015625,246097.71875,249014.8125,232095.078125,34563.0,1.0,1
238136.296875,255238.609375,318016.0625,293902.5625,228567.34375,246033.703125,248883.375,232063.78125,34564.0,1.0,1
238042.6875,255129.171875,317905.125,293824.6875,228360.8125,245978.8125,248592.890625,232046.078125,34565.0,1.0,1
238068.890625,255128.359375,317888.125,293850.96875,228316.28125,246000.1875,248515.734375,232063.25,34566.0,1.0,1
238193.703125,255251.84375,318001.5,293957.0,228512.0,246081.546875,248781.28125,232102.40625,34567.0,1.0,1
238246.984375,255325.859375,318079.46875,293989.90625,228669.984375,246103.53125,249017.046875,232099.1875,34568.0,1.0,1
238138.171875,255243.875,318011.96875,293900.5,228572.4375,246045.421875,248894.109375,232063.0625,34569.0,1.0,1
238040.28125,255129.34375,317897.78125,293817.90625,228362.328125,245987.125,248600.578125,232038.125,34570.0,1.0,1
238063.4375,255124.515625,317871.0625,293837.125,228304.65625,245998.21875,248513.765625,232046.34375,34571.0,1.0,1
238178.953125,255236.28125,317970.21875,293934.9375,228489.734375,246066.4375,248765.546875,232075.578125,34572.0,1.0,1
238235.453125,255316.75,318059.4375,293978.375,228660.859375,246099.6875,249010.25,232087.375,34573.0,1.0,1
238132.71875,255242.265625,317997.46875,293894.59375,228569.671875,246045.6875,248890.53125,232060.65625,34574.0,1.0,1
238035.0,255128.8125,317881.53125,293812.875,228360.359375,245984.0,248595.21875,232038.921875,34575.0,1.0,1
238061.828125,255128.71875,317857.375,293835.40625,228306.8125,245997.765625,248508.859375,232047.859375,34576.0,1.0,1
238177.703125,255242.0,317958.75,293935.03125,228493.046875,246072.25,248765.0,232079.78125,34577.0,1.0,1
238229.46875,255314.59375,318038.15625,293970.78125,228657.015625,246097.453125,249004.96875,232085.6875,34578.0,1.0,1
238127.0,255240.21875,317973.96875,293885.9375,228567.25,246041.671875,248886.78125,232057.875,34579.0,1.0,1
238030.53125,255129.0,317860.34375,293804.84375,228358.484375,245983.109375,248589.9375,232036.421875,34580.0,1.0,1
238051.984375,255120.5,317836.09375,293823.96875,228302.15625,245996.96875,248495.53125,232046.796875,34581.0,1.0,1
238176.4375,255240.296875,317943.5625,293926.53125,228488.296875,246072.6875,248750.15625,232079.25,34582.0,1.0,1
238236.796875,255316.03125,318032.34375,293967.65625,228657.8125,246104.15625,248998.796875,232087.921875,34583.0,1.0,1
238135.3125,255238.34375,317972.625,293882.8125,228571.984375,246047.203125,248884.890625,232060.921875,34584.0,1.0,1
238042.78125,255132.296875,317861.5,293803.21875,228362.421875,245988.375,248593.4375,232044.5625,34585.0,1.0,1
238064.859375,255122.734375,317837.4375,293823.25,228301.171875,246000.1875,248497.140625,232052.0625,34586.0,1.0,1
238179.65625,255227.15625,317940.09375,293923.03125,228481.59375,246072.15625,248744.796875,232079.34375,34587.0,1.0,1
238242.875,255309.0625,318032.625,293969.09375,228652.1875,246106.578125,248995.40625,232087.203125,34588.0,1.0,1
238137.375,255235.46875,317971.5625,293881.5625,228562.328125,246048.015625,248883.46875,232056.0,34589.0,1.0,1
238037.234375,255119.96875,317854.96875,293798.3125,228352.046875,245983.546875,248583.421875,232035.078125,34590.0,1.0,1
238051.984375,255104.859375,317826.53125,293815.46875,228293.21875,245993.125,248482.828125,232044.921875,34591.0,1.0,1
238172.421875,255220.8125,317935.15625,293918.46875,228479.1875,246066.796875,248734.875,232078.53125,34592.0,1.0,1
238242.703125,255309.859375,318028.25,293966.5,228653.265625,246100.40625,248987.265625,232087.46875,34593.0,1.0,1
238145.328125,255241.109375,317970.375,293885.9375,228574.046875,246047.484375,248885.171875,232060.46875,34594.0,1.0,1
238046.71875,255131.40625,317856.21875,293803.78125,228369.484375,245990.4375,248594.59375,232041.15625,34595.0,1.0,1
238062.1875,255118.0,317825.90625,293819.3125,228304.65625,246000.890625,248490.078125,232047.859375,34596.0,1.0,1
238182.875,255231.453125,317929.96875,293921.0625,228488.578125,246073.140625,248739.703125,232076.921875,34597.0,1.0,1
238251.1875,255317.1875,318023.5,293967.5625,228664.609375,246108.546875,248996.03125,232086.125,34598.0,1.0,1
238142.5625,255237.265625,317961.90625,293881.1875,228579.59375,246055.53125,248892.3125,232057.515625,34599.0,1.0,1
238040.1875,255127.296875,317847.28125,293798.40625,228368.953125,245998.578125,248597.359375,232037.9375,34600.0,1.0,1
238057.71875,255117.546875,317817.78125,293816.1875,228304.578125,246012.15625,248493.65625,232049.828125,34601.0,1.0,1
238169.5625,255223.5,317914.0625,293912.40625,228478.46875,246078.234375,248734.0625,232079.15625,34602.0,1.0,1
238234.375,255307.359375,318005.875,293956.5625,228652.8125,246107.296875,248989.140625,232090.25,34603.0,1.0,1
238132.28125,255234.046875,317949.375,293874.125,228576.8125,246051.5,248894.203125,232063.953125,34604.0,1.0,1
238031.6875,255120.40625,317832.0625,293789.65625,228366.359375,245988.203125,248597.09375,232040.359375,34605.0,1.0,1
238046.09375,255105.125,317794.96875,293801.34375,228291.875,245991.953125,248479.265625,232043.21875,34606.0,1.0,1
238160.984375,255212.859375,317892.4375,293899.4375,228466.75,246058.65625,248713.953125,232068.703125,34607.0,1.0,1
238226.15625,255297.53125,317986.3125,293945.9375,228644.765625,246096.5625,248971.265625,232080.140625,34608.0,1.0,1
238133.34375,255235.390625,317934.28125,293866.1875,228573.859375,246047.921875,248882.578125,232052.6875,34609.0,1.0,1
238034.109375,255126.84375,317821.53125,293782.03125,228368.328125,245988.109375,248588.15625,232031.328125,34610.0,1.0,1
238046.171875,255112.09375,317793.625,293799.5625,228300.28125,245997.59375,248480.875,232043.3125,34611.0,1.0,1
238158.203125,255218.3125,317889.9375,293898.09375,228474.171875,246066.609375,248719.3125,232073.078125,34612.0,1.0,1
238236.53125,255312.640625,317987.09375,293948.78125,228654.328125,246102.546875,248978.859375,232083.625,34613.0,1.0,1
238138.0,255242.546875,317934.90625,293870.375,228580.390625,246048.109375,248888.296875,232057.078125,34614.0,1.0,1
238027.765625,255119.15625,317812.59375,293778.1875,228360.625,245979.53125,248586.09375,232034.1875,34615.0,1.0,1
238044.84375,255104.046875,317780.03125,293791.875,228286.15625,245988.109375,248470.59375,232043.84375,34616.0,1.0,1
238161.25,255211.6875,317877.9375,293888.53125,228459.875,246056.421875,248706.359375,232070.84375,34617.0,1.0,1
238240.640625,255305.75,317974.84375,293935.5625,228642.359375,246091.734375,248967.953125,232080.671875,34618.0,1.0,1
238146.765625,255240.21875,317924.0625,293858.125,228577.359375,246042.734375,248886.953125,232059.21875,34619.0,1.0,1
238039.46875,255118.703125,317805.34375,293772.03125,228369.390625,245981.671875,248593.703125,232035.53125,34620.0,1.0,1
238049.484375,255096.0,317767.96875,293783.46875,228290.0,245989.625,248470.859375,232042.234375,34621.0,1.0,1
238175.90625,255214.203125,317874.1875,293889.59375,228465.328125,246066.875,248709.84375,232075.140625,34622.0,1.0,1
238248.0625,255303.875,317973.78125,293940.21875,228647.71875,246101.484375,248973.5,232084.25,34623.0,1.0,1
238147.125,255233.0625,317923.53125,293859.03125,228581.828125,246045.953125,248892.140625,232056.8125,34624.0,1.0,1
238042.609375,255115.140625,317810.15625,293771.40625,228372.4375,245982.84375,248597.984375,232035.265625,34625.0,1.0,1
238055.828125,255098.328125,317775.40625,293780.71875,228293.578125,245988.734375,248473.453125,232040.53125,34626.0,1.0,1
238167.0625,255204.0,317870.4375,293875.65625,228464.96875,246058.921875,248705.453125,232069.328125,34627.0,1.0,1
238245.375,255303.25,317970.03125,293929.84375,228649.78125,246098.890625,248975.109375,232083.8125,34628.0,1.0,1
238139.78125,255227.703125,317915.5,293845.78125,228576.8125,246039.4375,248890.890625,232054.21875,34629.0,1.0,1
238030.53125,255108.34375,317800.96875,293757.90625,228361.53125,245975.5,248594.421875,232031.140625,34630.0,1.0,1
238040.8125,255093.765625,317767.0,293768.90625,228278.015625,245985.25,248468.890625,232039.546875,34631.0,1.0,1
238158.109375,255203.5625,317863.0,293869.65625,228446.1875,246059.90625,248697.046875,232070.03125,34632.0,1.0,1
238239.484375,255298.0625,317964.5625,293924.375,228635.640625,246101.484375,248968.84375,232084.515625,34633.0,1.0,1
238141.84375,255229.03125,317917.5625,293846.875,228579.140625,246052.03125,248898.578125,232056.8125,34634.0,1.0,1
238032.859375,255108.78125,317800.96875,293755.9375,228372.078125,245989.71875,248605.765625,232032.21875,34635.0,1.0,1
238044.5625,255088.21875,317760.71875,293762.03125,228289.46875,245997.40625,248475.234375,232038.75,34636.0,1.0,1
238160.359375,255195.78125,317854.4375,293858.40625,228454.859375,246068.21875,248698.484375,232065.75,34637.0,1.0,1
238241.984375,255291.71875,317959.9375,293919.65625,228645.21875,246112.828125,248972.25,232082.28125,34638.0,1.0,1
238151.328125,255229.484375,317917.8125,293846.6875,228588.4375,246064.640625,248907.515625,232060.828125,34639.0,1.0,1
238052.171875,255118.984375,317809.28125,293762.8125,228382.53125,246002.953125,248619.265625,232043.9375,34640.0,1.0,1
238049.75,255084.828125,317762.59375,293764.34375,228286.6875,245997.328125,248478.09375,232044.203125,34641.0,1.0,1
238164.90625,255191.046875,317856.75,293861.71875,228448.078125,246062.59375,248699.5625,232072.0,34642.0,1.0,1
238244.03125,255285.1875,317958.75,293918.375,228637.609375,246099.0625,248970.1875,232085.328125,34643.0,1.0,1
238157.046875,255231.359375,317918.09375,293848.46875,228586.390625,246052.578125,248909.390625,232064.140625,34644.0,1.0,1
238048.0625,255117.734375,317798.71875,293754.78125,228371.453125,245979.53125,248613.453125,232040.0,34645.0,1.0,1
238052.609375,255096.984375,317753.84375,293758.625,228277.65625,245976.75,248473.8125,232045.890625,34646.0,1.0,1
238165.453125,255207.3125,317843.78125,293855.96875,228438.5,246043.546875,248695.890625,232077.09375,34647.0,1.0,1
238251.8125,255318.171875,317948.03125,293919.28125,228631.0,246089.765625,248976.1875,232096.59375,34648.0,1.0,1
238157.484375,255261.046875,317905.9375,293846.875,228579.046875,246046.765625,248918.25,232075.578125,34649.0,1.0,1
238051.984375,255159.125,317795.6875,293761.40625,228375.203125,245989.28125,248633.03125,232053.59375,34650.0,1.0,1
238054.140625,255139.28125,317754.375,293764.4375,228283.203125,245993.46875,248493.109375,232057.875,34651.0,1.0,1
238159.015625,255242.0,317839.40625,293855.09375,228439.40625,246059.015625,248705.90625,232085.5,34652.0,1.0,1
238243.328125,255344.640625,317941.0625,293915.53125,228632.78125,246102.640625,248982.359375,232099.09375,34653.0,1.0,1
238152.3125,255287.0625,317898.875,293844.71875,228583.703125,246052.9375,248925.21875,232074.59375,34654.0,1.0,1
238043.59375,255171.375,317782.90625,293755.84375,228375.390625,245986.859375,248632.859375,232048.671875,34655.0,1.0,1
238047.25,255142.84375,317741.875,293760.84375,228282.765625,245989.71875,248489.359375,232053.9375,34656.0,1.0,1
238161.875,255246.5625,317840.9375,293861.78125,228446.640625,246065.09375,248711.453125,232088.28125,34657.0,1.0,1
238244.9375,255343.125,317947.78125,293923.3125,228638.78125,246106.3125,248990.390625,232101.15625,34658.0,1.0,1
238157.84375,255285.0,317910.03125,293852.84375,228595.859375,246057.484375,248938.359375,232075.84375,34659.0,1.0,1
238058.0625,255176.28125,317800.15625,293764.4375,228394.0625,245996.421875,248650.296875,232054.296875,34660.0,1.0,1
238059.046875,255144.1875,317752.0625,293766.9375,228294.203125,245992.21875,248497.9375,232056.890625,34661.0,1.0,1
238167.765625,255240.03125,317839.5,293863.59375,228451.015625,246056.59375,248708.9375,232087.65625,34662.0,1.0,1
238254.046875,255342.578125,317945.0,293923.5,228647.359375,246098.890625,248990.3125,232100.25,34663.0,1.0,1
238170.015625,255287.15625,317909.3125,293852.3125,228609.0,246053.734375,248947.84375,232075.578125,34664.0,1.0,1
238070.234375,255178.078125,317800.875,293763.90625,228408.640625,245993.296875,248663.078125,232056.625,34665.0,1.0,1
238080.421875,255159.296875,317759.3125,293765.9375,228314.3125,245996.25,248514.578125,232066.1875,34666.0,1.0,1
238184.3125,255255.0625,317841.90625,293853.5625,228462.46875,246057.40625,248715.828125,232088.984375,34667.0,1.0,1
238269.421875,255355.8125,317946.6875,293911.875,228655.765625,246098.265625,248995.578125,232103.296875,34668.0,1.0,1
238189.046875,255307.8125,317911.5625,293844.4375,228618.65625,246051.5,248955.4375,232079.421875,34669.0,1.0,1
238079.703125,255192.203125,317796.3125,293753.25,228412.3125,245988.296875,248666.03125,232054.921875,34670.0,1.0,1
238078.09375,255158.765625,317748.75,293755.125,228310.65625,245989.09375,248512.609375,232060.375,34671.0,1.0,1
238189.671875,255258.8125,317836.90625,293850.625,228461.484375,246056.859375,248716.09375,232089.96875,34672.0,1.0,1
238283.015625,255368.328125,317944.625,293912.59375,228657.8125,246101.296875,248998.53125,232104.8125,34673.0,1.0,1
238197.09375,255316.390625,317910.3125,293842.125,228621.609375,246054.1875,248959.109375,232076.5625,34674.0,1.0,1
238082.921875,255192.296875,317792.375,293748.53125,228410.78125,245989.546875,248663.96875,232050.09375,34675.0,1.0,1
238078.8125,255154.390625,317742.84375,293746.46875,228301.984375,245987.578125,248501.15625,232054.296875,34676.0,1.0,1
238184.671875,255249.609375,317829.9375,293842.125,228452.09375,246056.421875,248702.78125,232084.34375,34677.0,1.0,1
238273.546875,255356.796875,317940.78125,293908.28125,228649.953125,246105.40625,248986.203125,232100.4375,34678.0,1.0,1
238183.59375,255299.3125,317907.71875,293839.09375,228613.296875,246059.546875,248949.8125,232075.765625,34679.0,1.0,1
238070.046875,255179.859375,317790.21875,293745.65625,228404.078125,245992.84375,248658.078125,232050.640625,34680.0,1.0,1
238072.46875,255154.921875,317745.09375,293746.0,228299.125,245991.59375,248499.015625,232054.75,34681.0,1.0,1
238170.640625,255246.109375,317827.15625,293835.15625,228442.078125,246054.90625,248693.921875,232076.203125,34682.0,1.0,1
238254.765625,255344.640625,317934.625,293898.28125,228639.671875,246103.09375,248980.921875,232091.859375,34683.0,1.0,1
238174.296875,255295.640625,317907.625,293832.03125,228608.375,246060.53125,248954.015625,232071.375,34684.0,1.0,1
238062.453125,255182.28125,317792.5625,293735.46875,228398.453125,245993.5625,248663.703125,232048.140625,34685.0,1.0,1
238056.734375,255148.75,317739.8125,293727.78125,228283.390625,245989.0,248495.359375,232051.984375,34686.0,1.0,1
238161.78125,255247.1875,317823.84375,293820.3125,228428.140625,246059.90625,248691.59375,232079.609375,34687.0,1.0,1
238253.15625,255357.421875,317935.96875,293887.1875,228632.34375,246110.515625,248978.59375,232090.15625,34688.0,1.0,1
238177.34375,255314.78125,317912.09375,293827.28125,228610.171875,246069.5625,248959.015625,232068.25,34689.0,1.0,1
238066.203125,255197.828125,317796.5,293734.5625,228402.296875,245997.046875,248671.578125,232042.765625,34690.0,1.0,1
238056.28125,255156.625,317735.78125,293725.09375,228283.390625,245985.609375,248495.4375,232043.21875,34691.0,1.0,1
238164.640625,255250.5,317816.6875,293819.0625,228428.21875,246052.9375,248685.34375,232075.140625,34692.0,1.0,1
238255.5625,255350.0,317926.84375,293887.8125,228632.34375,246102.015625,248973.234375,232093.015625,34693.0,1.0,1
238186.734375,255308.96875,317900.46875,293824.59375,228611.6875,246062.140625,248953.203125,232071.296875,34694.0,1.0,1
238079.4375,255189.515625,317780.65625,293729.125,228407.03125,245996.25,248664.875,232044.734375,34695.0,1.0,1
238074.25,255144.640625,317724.0625,293724.90625,228295.90625,245992.21875,248493.203125,232049.46875,34696.0,1.0,1
238174.03125,255227.515625,317796.59375,293812.53125,228432.515625,246050.515625,248672.015625,232074.234375,34697.0,1.0,1
238273.359375,255336.859375,317905.3125,293881.5625,228638.328125,246103.171875,248962.328125,232094.09375,34698.0,1.0,1
238203.0,255296.1875,317880.53125,293822.625,228622.5,246070.28125,248950.078125,232074.515625,34699.0,1.0,1
238093.75,255179.0625,317767.96875,293729.65625,228421.96875,246009.03125,248666.921875,232052.328125,34700.0,1.0,1
238083.640625,255134.625,317708.4375,293716.78125,228301.984375,245999.5625,248485.609375,232053.234375,34701.0,1.0,1
238188.515625,255227.25,317788.28125,293809.9375,228443.25,246066.4375,248671.21875,232082.640625,34702.0,1.0,1
238280.25,255334.625,317900.5625,293879.6875,228649.234375,246117.65625,248964.921875,232097.484375,34703.0,1.0,1
238206.21875,255291.890625,317876.96875,293816.90625,228629.484375,246073.140625,248950.078125,232072.8125,34704.0,1.0,1
238096.78125,255175.484375,317762.53125,293721.96875,228427.859375,246002.328125,248666.390625,232048.484375,34705.0,1.0,1
238081.671875,255131.578125,317703.59375,293709.90625,228307.875,245990.171875,248485.96875,232049.921875,34706.0,1.0,1
238180.734375,255225.546875,317778.625,293797.0625,228438.953125,246052.84375,248662.546875,232075.9375,34707.0,1.0,1
238265.3125,255327.65625,317884.65625,293864.5625,228636.71875,246100.859375,248949.453125,232090.515625,34708.0,1.0,1
238197.546875,255295.828125,317866.78125,293806.625,228622.6875,246066.875,248946.671875,232070.390625,34709.0,1.0,1
238085.421875,255185.046875,317756.78125,293714.625,228419.46875,246008.671875,248669.78125,232045.625,34710.0,1.0,1
238071.84375,255146.25,317700.03125,293703.8125,228299.03125,246004.921875,248493.109375,232047.59375,34711.0,1.0,1
238173.140625,255244.859375,317779.9375,293791.875,228435.546875,246073.578125,248681.046875,232078.984375,34712.0,1.0,1
238263.171875,255352.6875,317886.0,293859.375,228637.875,246118.921875,248973.671875,232091.5,34713.0,1.0,1
238188.78125,255314.953125,317865.59375,293801.71875,228625.640625,246081.359375,248969.203125,232068.609375,34714.0,1.0,1
238071.65625,255197.828125,317750.53125,293705.4375,228418.296875,246011.171875,248682.484375,232044.28125,34715.0,1.0,1
238052.609375,255149.015625,317686.53125,293689.0625,228289.28125,245993.203125,248492.484375,232043.21875,34716.0,1.0,1
238153.921875,255239.140625,317765.28125,293781.78125,228423.390625,246058.828125,248669.0625,232074.78125,34717.0,1.0,1
238251.1875,255346.875,317877.125,293853.3125,228628.765625,246109.609375,248962.6875,232093.734375,34718.0,1.0,1
238181.546875,255306.46875,317857.5625,293796.8125,228619.375,246070.28125,248962.140625,232069.234375,34719.0,1.0,1
238068.078125,255188.53125,317743.03125,293701.3125,228418.203125,246001.25,248678.640625,232043.390625,34720.0,1.0,1
238057.796875,255146.515625,317684.90625,293692.375,228295.8125,245992.21875,248491.6875,232046.96875,34721.0,1.0,1
238157.046875,255230.5625,317756.625,293780.34375,228425.90625,246057.21875,248661.203125,232074.515625,34722.0,1.0,1
238257.71875,255341.6875,317866.21875,293850.8125,228633.5,246109.078125,248953.65625,232090.515625,34723.0,1.0,1
238192.0,255306.015625,317849.0625,293795.28125,228632.34375,246073.671875,248961.515625,232070.21875,34724.0,1.0,1
238077.03125,255184.609375,317732.5625,293698.0,228432.0625,246005.640625,248679.078125,232043.3125,34725.0,1.0,1
238062.546875,255135.609375,317666.59375,293682.90625,228302.78125,245992.9375,248485.15625,232043.84375,34726.0,1.0,1
238159.09375,255218.578125,317735.0625,293767.125,228424.375,246050.609375,248647.25,232069.046875,34727.0,1.0,1
238263.078125,255334.53125,317851.65625,293843.28125,228634.9375,246107.296875,248946.046875,232090.421875,34728.0,1.0,1
238200.140625,255301.015625,317836.8125,293791.0,228633.40625,246072.875,248958.921875,232069.328125,34729.0,1.0,1
238083.8125,255178.34375,317717.28125,293693.09375,228428.671875,246001.171875,248677.03125,232040.265625,34730.0,1.0,1
238069.609375,255128.90625,317654.34375,293678.78125,228297.234375,245987.84375,248482.65625,232040.625,34731.0,1.0,1
238171.171875,255215.890625,317729.4375,293766.40625,228425.1875,246052.75,248649.578125,232071.640625,34732.0,1.0,1
238266.828125,255322.375,317840.5625,293836.6875,228632.703125,246101.484375,248943.546875,232085.234375,34733.0,1.0,1
238206.390625,255291.796875,317829.3125,293786.25,228634.484375,246068.9375,248960.09375,232067.359375,34734.0,1.0,1
238090.171875,255173.703125,317715.125,293688.0,228430.90625,246000.265625,248681.765625,232046.703125,34735.0,1.0,1
238064.234375,255115.3125,317646.5625,293668.21875,228293.578125,245983.28125,248484.4375,232042.234375,34736.0,1.0,1
238162.40625,255199.53125,317716.125,293753.25,228414.90625,246041.9375,248641.984375,232065.484375,34737.0,1.0,1
238263.609375,255314.953125,317830.1875,293826.9375,228623.3125,246092.890625,248937.734375,232083.09375,34738.0,1.0,1
238205.859375,255295.46875,317823.125,293777.9375,228630.015625,246064.203125,248964.734375,232064.578125,34739.0,1.0,1
238081.140625,255177.546875,317711.5625,293679.21875,228429.5625,245997.765625,248687.578125,232038.484375,34740.0,1.0,1
238056.734375,255129.265625,317649.96875,293662.5,228296.4375,245987.21875,248490.53125,232037.765625,34741.0,1.0,1
238152.125,255214.734375,317720.21875,293747.53125,228413.65625,246050.609375,248647.609375,232064.140625,34742.0,1.0,1
238242.34375,255318.0,317827.4375,293818.4375,228614.1875,246099.15625,248936.75,232079.875,34743.0,1.0,1
238192.1875,255303.25,317828.9375,293779.53125,228630.90625,246073.5,248971.4375,232066.28125,34744.0,1.0,1
238072.90625,255189.34375,317711.03125,293675.46875,228423.3125,245993.390625,248688.375,232037.140625,34745.0,1.0,1
238042.875,255131.9375,317637.53125,293650.4375,228277.578125,245972.90625,248480.234375,232035.171875,34746.0,1.0,1
238143.0,255218.84375,317710.03125,293740.375,228398.625,246039.4375,248639.296875,232065.296875,34747.0,1.0,1
238243.953125,255330.78125,317823.3125,293818.6875,228608.640625,246094.78125,248938.8125,232083.984375,34748.0,1.0,1
238186.1875,255308.15625,317815.0,293772.5625,228621.609375,246062.671875,248966.4375,232067.0,34749.0,1.0,1
238071.65625,255191.125,317703.59375,293676.09375,228425.359375,245994.28125,248693.03125,232041.609375,34750.0,1.0,1
238045.546875,255131.859375,317631.4375,293653.125,228282.578125,245975.234375,248484.359375,232038.921875,34751.0,1.0,1
238138.171875,255205.703125,317695.0,293737.875,228394.875,246035.40625,248633.390625,232062.890625,34752.0,1.0,1
238240.109375,255316.65625,317807.65625,293814.59375,228605.515625,246089.40625,248931.296875,232081.578125,34753.0,1.0,1
238193.25,255302.796875,317808.46875,293771.75,228627.78125,246066.796875,248970.375,232066.375,34754.0,1.0,1
238068.53125,255176.28125,317694.125,293668.59375,228428.484375,245996.6875,248693.65625,232034.71875,34755.0,1.0,1
238039.5625,255112.546875,317620.90625,293642.3125,228285.53125,245974.34375,248480.515625,232031.765625,34756.0,1.0,1
238139.4375,255191.84375,317691.25,293729.84375,228403.453125,246040.328125,248630.0,232062.890625,34757.0,1.0,1
238248.328125,255306.375,317808.84375,293811.90625,228619.109375,246099.421875,248931.390625,232082.90625,34758.0,1.0,1
238192.984375,255279.640625,317801.40625,293765.6875,228634.9375,246069.5625,248968.578125,232061.90625,34759.0,1.0,1
238068.4375,255151.796875,317682.6875,293661.4375,228433.140625,245995.53125,248691.15625,232033.109375,34760.0,1.0,1
238048.234375,255097.15625,317615.4375,293639.1875,228293.671875,245979.265625,248485.0625,232034.8125,34761.0,1.0,1
238142.921875,255175.65625,317678.375,293721.96875,228403.640625,246037.828125,248627.671875,232063.0625,34762.0,1.0,1
238251.546875,255295.640625,317794.96875,293803.21875,228614.015625,246097.546875,248927.359375,232083.265625,34763.0,1.0,1
238198.34375,255275.359375,317791.84375,293759.4375,228632.078125,246072.953125,248968.84375,232064.671875,34764.0,1.0,1
238076.75,255155.015625,317678.125,293659.90625,228435.375,246004.46875,248699.734375,232037.140625,34765.0,1.0,1
238054.578125,255103.421875,317605.59375,293635.0625,228289.1875,245984.984375,248486.953125,232032.84375,34766.0,1.0,1
238140.953125,255179.421875,317663.375,293715.625,228390.84375,246034.875,248620.515625,232054.390625,34767.0,1.0,1
238244.03125,255293.234375,317777.34375,293795.90625,228600.421875,246088.609375,248916.453125,232073.96875,34768.0,1.0,1
238186.453125,255269.546875,317776.375,293752.90625,228623.40625,246059.1875,248960.09375,232056.8125,34769.0,1.0,1
238066.75,255150.8125,317664.34375,293655.34375,228428.9375,245990.34375,248691.515625,232031.328125,34770.0,1.0,1
238046.984375,255099.21875,317592.90625,293631.9375,228287.140625,245973.8125,248480.15625,232030.609375,34771.0,1.0,1
238139.15625,255174.953125,317654.34375,293713.8125,228392.1875,246032.015625,248614.171875,232054.125,34772.0,1.0,1
238245.015625,255291.890625,317771.5625,293797.34375,228602.828125,246092.1875,248914.40625,232072.71875,34773.0,1.0,1
238197.90625,255278.5625,317776.375,293757.46875,228629.921875,246068.21875,248968.140625,232055.640625,34774.0,1.0,1
238067.546875,255149.46875,317661.21875,293652.59375,228431.984375,245992.21875,248695.796875,232027.5625,34775.0,1.0,1
238034.734375,255085.8125,317585.5,293623.875,228281.5,245972.109375,248476.671875,232027.125,34776.0,1.0,1
238129.0625,255165.65625,317646.46875,293707.125,228386.828125,246033.0,248610.515625,232053.859375,34777.0,1.0,1
238241.359375,255285.8125,317763.15625,293788.9375,228601.9375,246095.40625,248913.59375,232073.796875,34778.0,1.0,1
238200.765625,255278.484375,317771.625,293753.53125,228636.546875,246075.109375,248975.5625,232060.921875,34779.0,1.0,1
238075.140625,255159.125,317659.34375,293651.40625,228441.09375,246001.078125,248706.796875,232032.21875,34780.0,1.0,1
238035.71875,255092.0625,317579.78125,293622.28125,228288.296875,245976.40625,248483.1875,232030.609375,34781.0,1.0,1
238122.53125,255160.828125,317633.5,293699.96875,228382.53125,246031.5625,248604.78125,232054.75,34782.0,1.0,1
238245.015625,255288.578125,317753.40625,293785.8125,228600.953125,246093.703125,248906.625,232078.265625,34783.0,1.0,1
238205.40625,255281.515625,317762.6875,293751.46875,228638.328125,246074.03125,248967.0625,232063.78125,34784.0,1.0,1
238075.59375,255159.390625,317649.25,293649.09375,228444.3125,246003.125,248699.46875,232034.28125,34785.0,1.0,1
238037.0625,255090.8125,317570.375,293618.78125,228290.0,245979.078125,248474.515625,232029.359375,34786.0,1.0,1
238133.4375,255168.515625,317629.46875,293701.3125,228387.8125,246038.09375,248600.859375,232058.328125,34787.0,1.0,1
238248.953125,255293.40625,317751.625,293787.59375,228605.96875,246101.03125,248906.625,232081.84375,34788.0,1.0,1
238203.265625,255282.328125,317757.15625,293749.6875,228642.078125,246076.984375,248972.15625,232063.515625,34789.0,1.0,1
238078.984375,255157.78125,317642.4375,293643.71875,228447.171875,246001.875,248704.828125,232032.484375,34790.0,1.0,1
238048.59375,255094.75,317564.84375,293615.3125,228294.015625,245979.96875,248478.8125,232030.15625,34791.0,1.0,1
238132.90625,255163.328125,317618.65625,293693.34375,228385.75,246029.78125,248593.34375,232053.9375,34792.0,1.0,1
238247.34375,255285.359375,317743.75,293780.875,228605.421875,246092.984375,248900.71875,232079.875,34793.0,1.0,1
238211.765625,255281.078125,317752.78125,293743.15625,228644.234375,246071.796875,248970.90625,232065.484375,34794.0,1.0,1
238091.15625,255166.0,317639.6875,293638.09375,228451.921875,246002.421875,248709.578125,232035.34375,34795.0,1.0,1
238046.453125,255091.625,317556.6875,293604.46875,228289.28125,245976.3125,248478.09375,232027.75,34796.0,1.0,1
238128.25,255159.84375,317610.96875,293682.09375,228379.40625,246032.640625,248594.328125,232054.65625,34797.0,1.0,1
238241.796875,255283.671875,317730.25,293767.46875,228596.84375,246094.859375,248898.578125,232076.921875,34798.0,1.0,1
238204.25,255280.265625,317741.875,293735.28125,228638.328125,246072.0625,248970.8125,232060.375,34799.0,1.0,1
238079.625,255164.21875,317633.59375,293634.78125,228449.328125,246001.703125,248712.703125,232034.71875,34800.0,1.0,1
238034.828125,255090.375,317551.25,293598.59375,228288.484375,245974.171875,248478.8125,232029.09375,34801.0,1.0,1
238116.359375,255157.0625,317599.625,293672.96875,228373.859375,246027.890625,248586.1875,232054.75,34802.0,1.0,1
238229.28125,255279.828125,317717.625,293761.40625,228590.5,246088.6875,248889.09375,232078.890625,34803.0,1.0,1
238200.859375,255287.953125,317736.6875,293735.71875,228642.796875,246070.71875,248973.671875,232065.921875,34804.0,1.0,1
238076.3125,255172.625,317626.0,293631.03125,228453.890625,245997.59375,248715.375,232037.84375,34805.0,1.0,1
238029.453125,255097.15625,317537.65625,293593.5,228288.921875,245968.625,248476.390625,232030.34375,34806.0,1.0,1
238109.484375,255160.375,317586.03125,293667.96875,228372.4375,246022.4375,248582.078125,232054.84375,34807.0,1.0,1
238228.296875,255284.375,317706.46875,293756.125,228590.5,246086.375,248885.53125,232077.1875,34808.0,1.0,1
238205.5,255291.265625,317724.875,293729.5625,228642.171875,246069.65625,248967.234375,232063.6875,34809.0,1.0,1
238082.65625,255174.328125,317615.96875,293629.875,228457.015625,245999.5625,248710.734375,232032.046875,34810.0,1.0,1
238035.09375,255095.375,317528.53125,293591.15625,228291.34375,245969.6875,248471.390625,232024.703125,34811.0,1.0,1
238119.046875,255159.03125,317579.3125,293667.5,228372.703125,246026.921875,248575.1875,232052.609375,34812.0,1.0,1
238241.53125,255286.96875,317702.96875,293758.875,228592.109375,246094.78125,248882.125,232078.53125,34813.0,1.0,1
238209.890625,255284.109375,317715.5,293727.15625,228641.640625,246069.921875,248966.96875,232061.546875,34814.0,1.0,1
238085.78125,255164.390625,317606.0625,293624.40625,228456.828125,245998.84375,248712.875,232032.21875,34815.0,1.0,1
238043.40625,255091.53125,317525.84375,293586.96875,228296.078125,245974.609375,248476.75,232027.921875,34816.0,1.0,1
238130.484375,255159.75,317577.96875,293664.28125,228378.328125,246031.828125,248579.125,232054.921875,34817.0,1.0,1
238242.609375,255278.75,317694.3125,293750.3125,228590.671875,246092.890625,248881.328125,232074.6875,34818.0,1.0,1
238209.53125,255276.6875,317711.5625,293720.875,228642.359375,246072.953125,248970.375,232059.671875,34819.0,1.0,1
238085.34375,255158.5,317605.4375,293619.875,228458.984375,246001.796875,248719.578125,232033.828125,34820.0,1.0,1
238040.375,255083.75,317523.1875,293583.03125,228298.9375,245978.015625,248483.453125,232032.578125,34821.0,1.0,1
238125.578125,255151.703125,317572.25,293657.15625,228377.96875,246030.84375,248582.53125,232056.625,34822.0,1.0,1
238237.328125,255269.09375,317686.34375,293741.71875,228585.484375,246087.625,248880.703125,232073.53125,34823.0,1.0,1
238216.140625,255280.625,317713.625,293722.78125,228651.03125,246081.1875,248983.96875,232069.140625,34824.0,1.0,1
238085.78125,255159.5625,317604.28125,293617.8125,228468.015625,246011.625,248733.171875,232040.890625,34825.0,1.0,1
238041.0,255087.234375,317517.28125,293576.84375,228295.546875,245978.1875,248487.21875,232029.71875,34826.0,1.0,1
238119.5,255149.640625,317563.6875,293650.0,228367.515625,246030.9375,248578.953125,232053.40625,34827.0,1.0,1
238235.453125,255269.984375,317683.03125,293740.65625,228582.265625,246096.390625,248884.359375,232078.53125,34828.0,1.0,1
238212.828125,255280.71875,317706.46875,293721.25,228646.203125,246082.796875,248988.515625,232068.25,34829.0,1.0,1
238086.859375,255166.8125,317597.125,293618.96875,228461.75,246008.3125,248734.96875,232035.53125,34830.0,1.0,1
238038.40625,255090.546875,317513.25,293582.3125,228295.28125,245980.515625,248492.9375,232031.0625,34831.0,1.0,1
238119.765625,255155.375,317558.9375,293654.8125,228369.9375,246033.4375,248583.953125,232057.609375,34832.0,1.0,1
238233.3125,255280.0,317675.78125,293739.5625,228588.078125,246096.390625,248886.953125,232082.546875,34833.0,1.0,1
238209.96875,255293.046875,317700.03125,293714.09375,228655.765625,246084.578125,248994.6875,232071.734375,34834.0,1.0,1
238074.609375,255168.234375,317584.15625,293604.3125,228468.640625,246007.421875,248741.9375,232037.046875,34835.0,1.0,1
238027.3125,255091.796875,317495.0,293562.5625,228297.328125,245975.859375,248493.203125,232030.515625,34836.0,1.0,1
238098.484375,255144.640625,317533.90625,293630.15625,228362.15625,246021.453125,248572.78125,232052.515625,34837.0,1.0,1
238212.65625,255268.203125,317650.125,293717.84375,228572.796875,246079.390625,248869.96875,232071.015625,34838.0,1.0,1
238182.4375,255271.5,317668.71875,293693.1875,228630.46875,246060.171875,248969.828125,232054.921875,34839.0,1.0,1
238052.890625,255151.796875,317558.9375,293589.09375,228447.265625,245984.0,248722.890625,232023.8125,34840.0,1.0,1
238010.5,255082.140625,317473.65625,293548.875,228275.6875,245953.328125,248473.453125,232017.015625,34841.0,1.0,1
238091.421875,255144.546875,317518.09375,293620.9375,228345.34375,246005.90625,248552.578125,232041.609375,34842.0,1.0,1
238212.03125,255269.890625,317637.34375,293710.6875,228560.09375,246068.9375,248854.671875,232066.375,34843.0,1.0,1
238200.5,255290.109375,317670.78125,293696.40625,228634.9375,246060.4375,248973.328125,232056.8125,34844.0,1.0,1
238074.15625,255171.28125,317567.0625,293594.03125,228459.0625,245990.53125,248733.078125,232026.140625,34845.0,1.0,1
238023.5625,255092.0625,317477.84375,293549.5,228284.90625,245959.328125,248479.796875,232018.265625,34846.0,1.0,1
238102.5,255149.015625,317517.625,293617.71875,228346.953125,246010.734375,248552.03125,232041.96875,34847.0,1.0,1
238223.46875,255273.296875,317639.21875,293709.90625,228564.296875,246077.15625,248853.96875,232067.09375,34848.0,1.0,1
238209.4375,255287.59375,317671.40625,293694.4375,228641.1875,246066.703125,248971.53125,232057.875,34849.0,1.0,1
238084.265625,255172.984375,317569.40625,293594.5625,228468.640625,245995.890625,248734.96875,232028.828125,34850.0,1.0,1
238031.421875,255091.625,317476.15625,293548.34375,228293.046875,245959.5,248480.0625,232019.515625,34851.0,1.0,1
238104.734375,255143.125,317510.5625,293615.03125,228353.296875,246006.53125,248547.921875,232041.0625,34852.0,1.0,1
238226.0625,255267.578125,317631.34375,293710.96875,228574.5,246076.984375,248855.296875,232069.5,34853.0,1.0,1
238211.765625,255280.171875,317660.6875,293691.21875,228651.203125,246065.0,248973.953125,232058.953125,34854.0,1.0,1
238089.09375,255164.3125,317559.21875,293590.90625,228479.1875,245994.90625,248736.65625,232032.21875,34855.0,1.0,1
238041.0,255087.6875,317472.40625,293545.5625,228301.796875,245963.25,248484.0,232024.890625,34856.0,1.0,1
238117.078125,255145.890625,317509.84375,293608.3125,228355.984375,246010.375,248550.421875,232046.34375,34857.0,1.0,1
238232.859375,255268.46875,317629.21875,293699.625,228568.859375,246076.984375,248853.96875,232072.265625,34858.0,1.0,1
238218.734375,255288.5,317662.65625,293686.1875,228651.46875,246074.203125,248981.09375,232061.1875,34859.0,1.0,1
238092.40625,255173.421875,317561.875,293582.40625,228484.109375,246003.765625,248749.359375,232032.390625,34860.0,1.0,1
238028.296875,255078.296875,317460.84375,293528.5625,228295.984375,245961.296875,248483.546875,232017.734375,34861.0,1.0,1
238100.265625,255133.109375,317495.1875,293594.90625,228346.953125,246012.515625,248544.703125,232043.84375,34862.0,1.0,1
238225.0,255268.734375,317620.8125,293692.46875,228565.1875,246086.640625,248853.78125,232073.796875,34863.0,1.0,1
238215.25,255293.953125,317659.15625,293682.8125,228650.40625,246083.59375,248986.375,232068.078125,34864.0,1.0,1
238081.765625,255170.65625,317550.34375,293576.78125,228476.765625,246006.890625,248743.8125,232034.0,34865.0,1.0,1
238033.84375,255091.359375,317459.34375,293532.96875,228301.09375,245975.6875,248485.0625,232024.4375,34866.0,1.0,1
238107.25,255139.625,317488.84375,293595.0,228349.015625,246023.25,248539.421875,232046.171875,34867.0,1.0,1
238225.890625,255261.84375,317607.03125,293688.15625,228566.453125,246094.0625,248841.359375,232070.484375,34868.0,1.0,1
238213.734375,255280.53125,317641.46875,293676.28125,228651.734375,246084.9375,248973.953125,232058.859375,34869.0,1.0,1
238088.734375,255167.609375,317541.25,293573.46875,228484.015625,246013.765625,248743.90625,232028.28125,34870.0,1.0,1
238040.640625,255087.5,317452.8125,293525.09375,228308.234375,245982.125,248486.953125,232021.046875,34871.0,1.0,1
238111.265625,255132.75,317482.6875,293585.625,228351.59375,246025.125,248535.234375,232040.53125,34872.0,1.0,1
238232.140625,255259.53125,317603.65625,293680.3125,228564.125,246093.171875,248834.734375,232065.125,34873.0,1.0,1
238224.8125,255281.609375,317643.25,293672.875,228650.9375,246087.4375,248974.75,232057.703125,34874.0,1.0,1
238099.46875,255164.671875,317542.40625,293572.28125,228479.984375,246009.65625,248747.921875,232029.53125,34875.0,1.0,1
238050.296875,255088.40625,317450.9375,293525.8125,228299.65625,245971.484375,248490.53125,232023.015625,34876.0,1.0,1
238113.140625,255137.3125,317475.53125,293583.03125,228338.640625,246011.359375,248538.171875,232046.34375,34877.0,1.0,1
238225.984375,255265.25,317591.75,293674.75,228548.75,246074.296875,248838.3125,232073.96875,34878.0,1.0,1
238218.5625,255298.859375,317631.09375,293669.125,228638.15625,246067.78125,248982.171875,232067.359375,34879.0,1.0,1
238084.0,255185.5,317524.15625,293563.90625,228466.046875,245991.0625,248755.171875,232036.234375,34880.0,1.0,1
238032.140625,255119.0625,317434.03125,293520.875,228289.640625,245962.0,248499.640625,232030.875,34881.0,1.0,1
238100.53125,255178.34375,317463.375,293584.28125,228331.9375,246010.90625,248545.15625,232051.703125,34882.0,1.0,1
238216.671875,255309.765625,317581.03125,293676.8125,228544.546875,246079.21875,248844.578125,232074.6875,34883.0,1.0,1
238209.609375,255340.796875,317624.03125,293669.40625,228638.515625,246077.15625,248991.296875,232070.65625,34884.0,1.0,1
238069.15625,255217.953125,317515.21875,293561.21875,228466.125,245998.9375,248760.984375,232036.515625,34885.0,1.0,1
238017.390625,255143.46875,317421.4375,293512.75,228285.796875,245962.71875,248498.65625,232026.40625,34886.0,1.0,1
238087.578125,255193.90625,317452.71875,293575.96875,228328.265625,246013.140625,248542.734375,232050.640625,34887.0,1.0,1
238199.59375,255310.125,317568.875,293670.8125,228537.65625,246080.375,248838.234375,232075.140625,34888.0,1.0,1
238203.265625,255343.75,317618.40625,293672.78125,228639.3125,246082.796875,248992.453125,232075.21875,34889.0,1.0,1
238080.0625,255232.703125,317522.5625,293573.09375,228476.234375,246011.09375,248774.75,232046.703125,34890.0,1.0,1
238018.546875,255139.625,317428.59375,293521.59375,228290.359375,245973.71875,248510.8125,232034.09375,34891.0,1.0,1
238087.484375,255179.328125,317456.375,293581.0625,228327.640625,246016.359375,248548.546875,232054.296875,34892.0,1.0,1
238214.71875,255306.28125,317578.78125,293679.5,228546.6875,246086.546875,248848.78125,232081.75,34893.0,1.0,1
238219.359375,255337.21875,317623.75,293676.09375,228650.40625,246085.65625,249006.578125,232075.484375,34894.0,1.0,1
238094.8125,255222.515625,317526.5625,293575.5,228494.109375,246016.546875,248795.578125,232046.96875,34895.0,1.0,1
238037.59375,255133.109375,317431.625,293524.90625,228312.625,245977.65625,248530.75,232037.40625,34896.0,1.0,1
238108.671875,255176.734375,317459.25,293583.21875,228344.625,246017.34375,248562.140625,232056.984375,34897.0,1.0,1
238231.4375,255299.046875,317576.71875,293675.375,228556.078125,246080.921875,248853.515625,232083.359375,34898.0,1.0,1
238238.40625,255330.96875,317626.4375,293675.03125,228663.546875,246081.1875,249010.421875,232077.375,34899.0,1.0,1
238129.859375,255237.171875,317534.625,293577.9375,228511.8125,246013.5,248802.203125,232051.171875,34900.0,1.0,1
238077.03125,255158.046875,317442.96875,293527.0625,228329.78125,245976.40625,248538.09375,232044.015625,34901.0,1.0,1
238140.234375,255200.875,317467.75,293586.15625,228359.203125,246018.875,248566.078125,232065.5625,34902.0,1.0,1
238261.46875,255326.578125,317586.28125,293682.1875,228570.828125,246089.859375,248861.5625,232091.046875,34903.0,1.0,1
238264.78125,255358.953125,317629.375,293676.375,228670.609375,246086.1875,249014.453125,232082.546875,34904.0,1.0,1
238144.53125,255251.21875,317534.625,293575.96875,228513.421875,246017.171875,248804.078125,232055.375,34905.0,1.0,1
238081.140625,255160.203125,317437.625,293522.125,228325.21875,245979.265625,248537.375,232044.109375,34906.0,1.0,1
238138.359375,255196.9375,317460.40625,293577.125,228350.890625,246020.296875,248561.421875,232062.34375,34907.0,1.0,1
238258.515625,255323.90625,317581.5625,293672.53125,228564.75,246089.765625,248854.765625,232088.984375,34908.0,1.0,1
238264.953125,255357.25,317632.53125,293673.15625,228672.03125,246092.890625,249016.59375,232082.375,34909.0,1.0,1
238138.984375,255247.640625,317539.90625,293571.75,228517.625,246026.015625,248811.046875,232052.421875,34910.0,1.0,1
238065.40625,255147.5,317435.46875,293503.28125,228315.84375,245976.046875,248528.875,232033.203125,34911.0,1.0,1
238118.6875,255175.03125,317453.25,293556.90625,228333.984375,246013.59375,248543.453125,232049.828125,34912.0,1.0,1
238242.703125,255303.34375,317577.53125,293660.4375,228549.09375,246090.21875,248842.703125,232083.359375,34913.0,1.0,1
238255.75,255349.65625,317633.78125,293667.34375,228660.953125,246096.296875,249014.453125,232080.5,34914.0,1.0,1
238126.734375,255242.984375,317542.3125,293566.21875,228506.71875,246025.125,248809.4375,232046.796875,34915.0,1.0,1
238056.734375,255153.125,317446.03125,293508.71875,228314.046875,245981.9375,248534.515625,232033.296875,34916.0,1.0,1
238111.625,255189.96875,317463.625,293560.59375,228330.140625,246019.3125,248545.15625,232050.28125,34917.0,1.0,1
238231.96875,255320.0625,317583.25,293660.71875,228540.96875,246094.6875,248842.609375,232079.609375,34918.0,1.0,1
238240.375,255361.625,317634.75,293663.5,228650.40625,246099.6875,249015.703125,232077.90625,34919.0,1.0,1
238111.71875,255253.890625,317539.4375,293562.0,228497.421875,246029.59375,248814.796875,232047.59375,34920.0,1.0,1
238044.03125,255164.21875,317436.71875,293500.0625,228301.890625,245982.390625,248538.09375,232036.953125,34921.0,1.0,1
238092.140625,255189.25,317446.5625,293546.375,228312.265625,246015.109375,248540.328125,232055.203125,34922.0,1.0,1
238214.984375,255316.03125,317563.84375,293644.53125,228524.515625,246084.578125,248831.4375,232080.9375,34923.0,1.0,1
238234.203125,255361.71875,317619.90625,293651.34375,228645.296875,246091.90625,249007.5625,232076.921875,34924.0,1.0,1
238113.0625,255256.578125,317527.1875,293549.3125,228502.078125,246023.34375,248809.4375,232044.109375,34925.0,1.0,1
238045.109375,255160.015625,317425.53125,293489.9375,228311.8125,245978.71875,248532.546875,232031.859375,34926.0,1.0,1
238103.125,255186.125,317438.15625,293541.09375,228325.21875,246015.203125,248536.921875,232050.1875,34927.0,1.0,1
238221.59375,255299.21875,317545.71875,293635.15625,228531.75,246082.34375,248819.90625,232076.65625,34928.0,1.0,1
238247.4375,255344.828125,317600.78125,293644.96875,228656.484375,246089.59375,248996.921875,232078.53125,34929.0,1.0,1
238131.109375,255240.296875,317508.59375,293546.53125,228514.40625,246020.5625,248799.875,232047.15625,34930.0,1.0,1
238054.671875,255133.015625,317399.15625,293483.34375,228318.515625,245973.453125,248519.3125,232029.625,34931.0,1.0,1
238115.734375,255159.65625,317410.0,293537.25,228330.953125,246013.953125,248522.625,232049.921875,34932.0,1.0,1
238242.609375,255281.78125,317525.5,293635.25,228540.78125,246089.328125,248814.359375,232080.046875,34933.0,1.0,1
238267.015625,255329.71875,317585.5,293644.1875,228663.8125,246099.515625,248998.71875,232078.796875,34934.0,1.0,1
238145.234375,255219.5625,317491.96875,293540.46875,228518.25,246027.09375,248802.90625,232044.375,34935.0,1.0,1
238074.078125,255118.4375,317389.59375,293478.59375,228323.078125,245979.0,248523.0625,232032.484375,34936.0,1.0,1
238125.578125,255139.1875,317401.40625,293527.59375,228330.59375,246013.0625,248519.3125,232051.4375,34937.0,1.0,1
238252.703125,255267.578125,317518.78125,293626.9375,228543.296875,246084.765625,248807.65625,232080.59375,34938.0,1.0,1
238271.484375,255317.734375,317581.46875,293642.21875,228674.265625,246095.21875,248999.609375,232081.84375,34939.0,1.0,1
238146.765625,255217.953125,317491.875,293540.03125,228531.046875,246025.484375,248814.625,232047.59375,34940.0,1.0,1
238069.609375,255123.984375,317387.09375,293475.03125,228329.15625,245974.078125,248533.0,232028.46875,34941.0,1.0,1
238116.546875,255154.921875,317395.0625,293521.15625,228327.28125,246005.546875,248523.0625,232045.890625,34942.0,1.0,1
238233.125,255282.234375,317510.03125,293620.84375,228529.796875,246078.6875,248809.703125,232073.53125,34943.0,1.0,1
238256.28125,255341.953125,317575.65625,293637.03125,228655.9375,246093.515625,249006.140625,232074.953125,34944.0,1.0,1
238132.90625,255247.015625,317485.0,293535.0,228512.984375,246026.46875,248820.609375,232041.421875,34945.0,1.0,1
238049.3125,255145.796875,317378.0625,293467.25,228310.390625,245979.96875,248535.40625,232025.15625,34946.0,1.0,1
238098.65625,255173.96875,317389.5,293515.0,228313.0625,246018.78125,248525.75,232042.5,34947.0,1.0,1
238221.59375,255303.78125,317506.71875,293614.3125,228519.0625,246090.390625,248812.296875,232070.3125,34948.0,1.0,1
238248.6875,255360.828125,317573.40625,293632.1875,228650.9375,246102.015625,249008.640625,232074.0625,34949.0,1.0,1
238125.296875,255259.078125,317488.65625,293534.3125,228517.1875,246032.28125,248829.109375,232045.625,34950.0,1.0,1
238045.015625,255152.859375,317380.40625,293467.0625,228321.296875,245981.578125,248543.1875,232031.765625,34951.0,1.0,1
238093.828125,255172.4375,317383.96875,293510.53125,228320.671875,246013.234375,248524.140625,232046.96875,34952.0,1.0,1
238215.421875,255293.5,317497.78125,293609.84375,228528.453125,246086.90625,248807.921875,232076.03125,34953.0,1.0,1
238244.65625,255347.40625,317563.125,293626.21875,228663.09375,246101.5625,249006.578125,232077.09375,34954.0,1.0,1
238120.203125,255240.390625,317474.71875,293526.53125,228528.984375,246031.828125,248826.25,232045.1875,34955.0,1.0,1
238049.3125,255142.3125,317367.78125,293457.5,228330.140625,245982.84375,248541.84375,232032.046875,34956.0,1.0,1
238089.359375,255154.46875,317360.90625,293493.875,228314.140625,246005.453125,248510.015625,232043.390625,34957.0,1.0,1
238207.640625,255271.328125,317472.3125,293595.0,228516.5625,246071.34375,248788.34375,232069.859375,34958.0,1.0,1
238240.375,255330.421875,317540.78125,293614.21875,228653.4375,246085.921875,248992.453125,232071.109375,34959.0,1.0,1
238130.21875,255243.796875,317466.84375,293522.125,228530.5,246025.65625,248825.703125,232044.46875,34960.0,1.0,1
238054.21875,255145.078125,317360.625,293452.65625,228329.78125,245974.96875,248539.421875,232029.0,34961.0,1.0,1
238099.828125,255165.203125,317362.15625,293494.0625,228321.375,246005.546875,248510.015625,232044.921875,34962.0,1.0,1
238222.125,255289.203125,317479.0,293596.53125,228529.34375,246081.8125,248794.78125,232076.46875,34963.0,1.0,1
238255.125,255349.015625,317544.53125,293613.96875,228664.609375,246094.859375,248998.0,232073.25,34964.0,1.0,1
238143.359375,255257.65625,317465.0625,293520.4375,228538.015625,246032.453125,248829.828125,232043.84375,34965.0,1.0,1
238069.421875,255159.84375,317360.8125,293455.1875,228341.40625,245985.515625,248547.828125,232032.21875,34966.0,1.0,1
238104.296875,255166.28125,317356.15625,293490.40625,228324.515625,246008.5,248510.28125,232044.5625,34967.0,1.0,1
238218.90625,255278.84375,317466.84375,293586.875,228525.5,246078.765625,248787.4375,232073.171875,34968.0,1.0,1
238253.609375,255338.65625,317537.84375,293607.25,228665.328125,246096.390625,248995.140625,232074.953125,34969.0,1.0,1
238143.453125,255248.265625,317462.90625,293514.71875,228542.3125,246033.625,248831.515625,232048.140625,34970.0,1.0,1
238060.484375,255144.28125,317357.0625,293446.9375,228338.640625,245981.40625,248545.15625,232033.375,34971.0,1.0,1
238100.984375,255158.234375,317359.28125,293488.0625,228324.953125,246012.515625,248513.59375,232051.890625,34972.0,1.0,1
238220.078125,255278.03125,317469.4375,293587.40625,228522.015625,246080.109375,248788.34375,232078.0,34973.0,1.0,1
238257.8125,255342.578125,317542.3125,293611.0,228662.734375,246098.53125,249001.21875,232080.765625,34974.0,1.0,1
238136.65625,255243.171875,317460.84375,293514.53125,228537.296875,246035.40625,248838.859375,232047.859375,34975.0,1.0,1
238052.890625,255141.0625,317354.1875,293444.25,228334.875,245983.90625,248552.65625,232031.40625,34976.0,1.0,1
