FZ,C3,CZ,C4,PZ,PO7,OZ,PO8,Counter,Validation,Label
220524.734375,241416.109375,235741.796875,228471.3125,216027.203125,235164.5,197036.984375,224311.75,722121.0,1.0,2
220565.421875,241496.03125,236008.0625,228523.078125,216260.015625,235283.859375,197188.96875,224434.40625,722122.0,1.0,2
220619.234375,241676.546875,236506.5,228605.421875,216706.25,235566.75,197515.3125,224660.703125,722123.0,1.0,2
220598.671875,241696.578125,236537.703125,228592.90625,216741.84375,235613.140625,197561.359375,224673.390625,722124.0,1.0,2
220534.921875,241532.421875,236068.59375,228514.046875,216328.6875,235365.578125,197269.890625,224460.34375,722125.0,1.0,2
220509.171875,241406.8125,235731.609375,228468.90625,216028.71875,235163.15625,197041.453125,224312.109375,722126.0,1.0,2
220553.25,241492.546875,235998.484375,228521.828125,216264.671875,235283.59375,197190.3125,224434.59375,722127.0,1.0,2
220606.453125,241671.09375,236496.046875,228597.46875,216703.5625,235560.21875,197506.90625,224654.625,722128.0,1.0,2
220601.53125,241704.53125,236546.375,228597.46875,216750.953125,235622.53125,197566.546875,224679.203125,722129.0,1.0,2
220544.140625,241536.265625,236082.171875,228520.9375,216337.8125,235379.171875,197280.0,224466.515625,722130.0,1.0,2
220517.578125,241411.546875,235739.5625,228473.015625,216032.390625,235167.28125,197044.765625,224311.03125,722131.0,1.0,2
220570.875,241496.65625,236009.046875,228532.65625,216269.765625,235287.96875,197195.953125,224436.640625,722132.0,1.0,2
220625.40625,241669.9375,236510.796875,228611.6875,216711.796875,235565.84375,197514.421875,224662.671875,722133.0,1.0,2
220598.234375,241684.421875,236543.6875,228591.84375,216739.875,235606.171875,197556.171875,224667.859375,722134.0,1.0,2
220539.21875,241527.0625,236080.828125,228513.96875,216328.953125,235366.734375,197269.359375,224455.515625,722135.0,1.0,2
220515.53125,241401.09375,235740.109375,228474.890625,216023.265625,235157.96875,197034.03125,224304.5,722136.0,1.0,2
220567.5625,241494.609375,236011.984375,228540.609375,216262.171875,235280.015625,197188.34375,224437.453125,722137.0,1.0,2
220618.609375,241677.171875,236512.84375,228617.140625,216707.765625,235560.046875,197512.890625,224666.421875,722138.0,1.0,2
220592.859375,241694.25,236547.453125,228596.578125,216745.140625,235608.765625,197557.78125,224675.28125,722139.0,1.0,2
220536.984375,241545.390625,236088.171875,228517.8125,216341.03125,235377.5625,197275.25,224465.265625,722140.0,1.0,2
220522.234375,241427.546875,235754.234375,228483.5625,216043.84375,235179.515625,197049.234375,224319.890625,722141.0,1.0,2
220563.890625,241506.234375,236012.171875,228530.5,216267.265625,235290.75,197190.5,224433.96875,722142.0,1.0,2
220610.75,241668.5,236501.9375,228596.578125,216699.1875,235559.40625,197501.984375,224647.921875,722143.0,1.0,2
220603.140625,241700.515625,236550.84375,228590.5,216747.109375,235611.984375,197558.9375,224671.078125,722144.0,1.0,2
220547.796875,241547.796875,236091.46875,228515.578125,216340.484375,235374.703125,197278.203125,224464.359375,722145.0,1.0,2
220517.671875,241416.203125,235741.984375,228469.625,216024.4375,235163.703125,197037.796875,224307.1875,722146.0,1.0,2
220565.140625,241501.484375,236004.125,228531.75,216252.421875,235281.359375,197184.859375,224430.125,722147.0,1.0,2
220622.28125,241681.734375,236509.0,228615.53125,216699.546875,235562.8125,197508.15625,224660.796875,722148.0,1.0,2
220602.875,241702.828125,236554.875,228605.0625,216743.890625,235613.421875,197558.3125,224675.8125,722149.0,1.0,2
220526.609375,241529.828125,236078.59375,228508.25,216323.234375,235365.3125,197260.59375,224450.0625,722150.0,1.0,2
220494.0625,241401.0,235723.46875,228452.625,216003.78125,235150.828125,197013.5625,224286.4375,722151.0,1.0,2
220552.8125,241493.265625,235989.8125,228519.234375,216236.515625,235276.171875,197165.28125,224420.109375,722152.0,1.0,2
220615.390625,241677.265625,236499.265625,228603.28125,216689.359375,235564.78125,197497.078125,224659.09375,722153.0,1.0,2
220594.5625,241703.546875,236546.5625,228586.03125,216734.5,235615.03125,197548.921875,224674.65625,722154.0,1.0,2
220530.8125,241544.859375,236084.59375,228500.640625,216325.203125,235374.609375,197263.0,224461.5,722155.0,1.0,2
220504.078125,241416.375,235732.953125,228457.28125,216012.984375,235163.15625,197025.1875,224306.375,722156.0,1.0,2
220543.953125,241487.0,235974.984375,228504.3125,216227.125,235267.953125,197160.453125,224419.21875,722157.0,1.0,2
220604.21875,241668.0625,236483.609375,228592.28125,216681.046875,235553.78125,197492.515625,224655.96875,722158.0,1.0,2
220585.265625,241690.671875,236539.046875,228582.265625,216736.03125,235608.3125,197553.9375,224676.078125,722159.0,1.0,2
220529.203125,241538.421875,236084.859375,228507.34375,216333.609375,235375.0625,197278.203125,224467.578125,722160.0,1.0,2
220498.53125,241407.609375,235726.515625,228460.59375,216010.75,235158.0625,197029.390625,224303.875,722161.0,1.0,2
220547.171875,241491.03125,235978.90625,228517.453125,216230.875,235272.15625,197168.59375,224422.875,722162.0,1.0,2
220607.609375,241674.578125,236488.984375,228600.6875,216681.046875,235552.171875,197494.390625,224653.90625,722163.0,1.0,2
220593.75,241704.171875,236552.8125,228594.25,216742.734375,235615.65625,197559.390625,224678.765625,722164.0,1.0,2
220532.953125,241548.609375,236095.59375,228511.640625,216340.3125,235383.546875,197283.21875,224472.234375,722165.0,1.0,2
220506.40625,241416.734375,235737.0625,228463.1875,216019.78125,235173.71875,197042.890625,224314.421875,722166.0,1.0,2
220552.984375,241496.484375,235983.296875,228519.328125,216237.765625,235283.5,197180.75,224428.609375,722167.0,1.0,2
220603.0625,241673.59375,236483.796875,228593.453125,216683.90625,235561.734375,197502.890625,224654.796875,722168.0,1.0,2
220583.921875,241697.734375,236544.59375,228583.515625,216739.0625,235619.765625,197563.953125,224678.21875,722169.0,1.0,2
220521.78125,241533.859375,236085.9375,228500.28125,216328.59375,235372.46875,197275.796875,224462.390625,722170.0,1.0,2
220500.78125,241401.0,235729.5625,228455.21875,216005.296875,235139.296875,197022.671875,224295.5625,722171.0,1.0,2
220551.46875,241482.53125,235975.0625,228512.171875,216219.515625,235234.78125,197153.296875,224409.921875,722172.0,1.0,2
220609.40625,241669.484375,236485.484375,228596.046875,216672.1875,235517.484375,197483.296875,224644.25,722173.0,1.0,2
220590.625,241691.84375,236551.203125,228588.890625,216733.796875,235582.296875,197550.8125,224671.25,722174.0,1.0,2
220538.6875,241545.296875,236102.65625,228513.78125,216338.875,235358.421875,197279.90625,224471.78125,722175.0,1.0,2
220511.765625,241413.421875,235738.578125,228465.859375,216015.5,235141.609375,197031.703125,224306.03125,722176.0,1.0,2
220556.109375,241493.53125,235978.46875,228518.53125,216227.125,235246.671875,197163.859375,224419.125,722177.0,1.0,2
220614.046875,241673.953125,236487.1875,228601.40625,216682.203125,235533.578125,197491.984375,224654.984375,722178.0,1.0,2
220597.328125,241698.28125,236556.484375,228591.5625,216748.546875,235600.453125,197558.859375,224683.234375,722179.0,1.0,2
220534.21875,241545.75,236101.484375,228507.34375,216346.03125,235364.421875,197279.015625,224473.578125,722180.0,1.0,2
220509.796875,241418.15625,235741.53125,228465.421875,216023.09375,235148.671875,197034.578125,224310.671875,722181.0,1.0,2
220556.65625,241493.71875,235979.890625,228520.21875,216231.40625,235250.875,197164.5625,224419.390625,722182.0,1.0,2
220609.3125,241667.96875,236481.28125,228599.609375,216676.390625,235528.921875,197483.84375,224646.484375,722183.0,1.0,2
220600.640625,241706.046875,236560.765625,228597.828125,216751.9375,235601.875,197559.125,224679.203125,722184.0,1.0,2
220541.8125,241556.03125,236111.140625,228515.9375,216351.390625,235372.375,197282.578125,224465.96875,722185.0,1.0,2
220528.484375,241433.984375,235756.5625,228478.46875,216036.328125,235171.125,197047.984375,224315.0625,722186.0,1.0,2
220570.0625,241506.3125,235984.8125,228528.625,216236.515625,235269.828125,197171.1875,224422.34375,722187.0,1.0,2
220618.25,241674.671875,236481.46875,228599.890625,216675.859375,235537.515625,197481.609375,224645.40625,722188.0,1.0,2
220603.0625,241704.359375,236561.484375,228593.453125,216750.328125,235604.921875,197556.4375,224679.203125,722189.0,1.0,2
220549.6875,241554.859375,236120.078125,228521.296875,216357.5625,235376.9375,197284.015625,224479.75,722190.0,1.0,2
220524.640625,241421.734375,235757.1875,228474.71875,216027.65625,235158.953125,197036.890625,224318.625,722191.0,1.0,2
220571.578125,241498.984375,235990.71875,228532.203125,216233.5625,235262.765625,197168.40625,224431.015625,722192.0,1.0,2
220621.828125,241676.8125,236490.671875,228607.21875,216680.59375,235539.390625,197489.203125,224654.265625,722193.0,1.0,2
220611.375,241717.9375,236574.984375,228605.15625,216761.5,235617.34375,197569.40625,224688.5,722194.0,1.0,2
220554.78125,241566.578125,236130.015625,228530.140625,216366.421875,235391.328125,197300.46875,224486.0,722195.0,1.0,2
220526.703125,241428.53125,235760.671875,228481.59375,216034.8125,235169.6875,197047.984375,224317.921875,722196.0,1.0,2
220570.15625,241505.6875,235987.578125,228533.640625,216229.984375,235264.90625,197167.703125,224420.109375,722197.0,1.0,2
220626.125,241675.828125,236491.65625,228611.59375,216675.3125,235541.53125,197489.65625,224648.71875,722198.0,1.0,2
220616.015625,241712.84375,236579.453125,228607.9375,216761.5,235619.578125,197572.265625,224688.421875,722199.0,1.0,2
220557.28125,241568.640625,236134.75,228531.484375,216371.25,235396.25,197302.34375,224484.296875,722200.0,1.0,2
220524.734375,241431.84375,235757.09375,228477.484375,216033.375,235172.734375,197047.53125,224317.46875,722201.0,1.0,2
220571.046875,241500.234375,235980.25,228530.140625,216229.71875,235272.0625,197174.21875,224428.78125,722202.0,1.0,2
220624.421875,241674.765625,236485.671875,228611.328125,216676.84375,235550.5625,197495.828125,224659.8125,722203.0,1.0,2
220614.046875,241720.8125,236580.4375,228610.4375,216766.421875,235631.125,197576.5625,224698.34375,722204.0,1.0,2
220552.1875,241566.125,236133.578125,228529.609375,216371.515625,235398.296875,197299.9375,224492.265625,722205.0,1.0,2
220523.84375,241424.15625,235756.203125,228479.09375,216033.546875,235174.421875,197043.953125,224325.0625,722206.0,1.0,2
220571.5,241495.765625,235978.640625,228532.734375,216229.984375,235269.734375,197167.78125,224431.546875,722207.0,1.0,2
220632.109375,241682.546875,236493.0,228621.4375,216690.25,235557.890625,197500.734375,224670.71875,722208.0,1.0,2
220611.375,241715.171875,236581.25,228611.234375,216772.0625,235625.21875,197570.03125,224699.59375,722209.0,1.0,2
220551.5625,241566.125,236138.6875,228529.515625,216379.5625,235396.875,197293.3125,224494.5,722210.0,1.0,2
220521.96875,241425.3125,235759.859375,228481.421875,216040.265625,235173.078125,197039.046875,224324.265625,722211.0,1.0,2
220564.078125,241491.65625,235973.71875,228526.921875,216227.296875,235262.9375,197156.796875,224422.875,722212.0,1.0,2
220626.5625,241675.921875,236485.3125,228610.4375,216682.203125,235548.140625,197486.078125,224657.75,722213.0,1.0,2
220622.28125,241727.328125,236589.5625,228610.078125,216779.484375,235635.046875,197580.125,224704.25,722214.0,1.0,2
220564.703125,241573.734375,236149.671875,228528.8125,216385.734375,235409.75,197308.609375,224501.015625,722215.0,1.0,2
220534.390625,241437.828125,235767.734375,228476.40625,216037.578125,235177.828125,197046.8125,224324.890625,722216.0,1.0,2
220574.625,241497.203125,235977.921875,228526.125,216217.203125,235265.4375,197159.03125,224424.40625,722217.0,1.0,2
220630.59375,241667.078125,236485.21875,228609.546875,216667.546875,235546.265625,197483.125,224658.828125,722218.0,1.0,2
220618.875,241712.765625,236586.4375,228605.609375,216761.6875,235629.0625,197570.921875,224704.328125,722219.0,1.0,2
220553.703125,241554.515625,236139.75,228518.875,216366.421875,235401.078125,197298.328125,224499.765625,722220.0,1.0,2
220523.390625,241413.96875,235757.8125,228469.4375,216021.84375,235175.765625,197041.453125,224333.390625,722221.0,1.0,2
220571.578125,241484.5,235974.34375,228527.90625,216213.359375,235271.34375,197164.65625,224441.828125,722222.0,1.0,2
220619.78125,241652.234375,236474.40625,228602.484375,216658.78125,235541.53125,197482.40625,224669.28125,722223.0,1.0,2
220603.40625,241692.375,236575.796875,228597.828125,216752.125,235619.140625,197568.6875,224709.96875,722224.0,1.0,2
220543.15625,241545.484375,236138.234375,228518.25,216364.8125,235399.28125,197300.109375,224507.28125,722225.0,1.0,2
220510.78125,241399.203125,235752.265625,228466.578125,216018.09375,235172.015625,197036.890625,224331.234375,722226.0,1.0,2
220556.921875,241466.71875,235960.140625,228519.421875,216203.25,235263.125,197152.765625,224430.75,722227.0,1.0,2
220617.453125,241648.46875,236468.765625,228601.84375,216656.90625,235546.8125,197479.546875,224662.484375,722228.0,1.0,2
220610.46875,241698.453125,236580.171875,228599.609375,216757.296875,235632.453125,197570.921875,224705.3125,722229.0,1.0,2
220552.71875,241554.0625,236145.5625,228521.828125,216371.6875,235408.046875,197303.859375,224506.828125,722230.0,1.0,2
220514.625,241410.109375,235750.203125,228465.140625,216018.796875,235176.21875,197040.296875,224331.5,722231.0,1.0,2
220551.109375,241465.28125,235945.734375,228508.953125,216191.796875,235255.96875,197145.796875,224424.484375,722232.0,1.0,2
220608.953125,241646.328125,236456.34375,228593.53125,216647.0625,235537.421875,197472.390625,224656.140625,722233.0,1.0,2
220593.9375,241687.28125,236564.53125,228587.90625,216750.0625,235621.28125,197562.515625,224695.390625,722234.0,1.0,2
220535.46875,241542.265625,236130.640625,228510.125,216366.59375,235401.609375,197298.046875,224494.046875,722235.0,1.0,2
220501.84375,241399.03125,235740.546875,228457.90625,216017.46875,235170.046875,197036.265625,224321.046875,722236.0,1.0,2
220537.15625,241459.015625,235932.421875,228501.8125,216185.09375,235244.875,197135.875,224408.65625,722237.0,1.0,2
220599.75,241641.59375,236446.0625,228591.03125,216643.046875,235529.1875,197464.890625,224644.078125,722238.0,1.0,2
220589.734375,241689.328125,236565.875,228594.15625,216753.8125,235617.34375,197560.8125,224694.40625,722239.0,1.0,2
220526.25,241538.59375,236130.28125,228508.6875,216368.03125,235392.21875,197292.875,224492.609375,722240.0,1.0,2
220496.03125,241393.84375,235739.84375,228458.171875,216015.578125,235156.1875,197027.234375,224314.78125,722241.0,1.0,2
220536.984375,241455.359375,235934.03125,228503.5,216183.484375,235226.1875,197125.40625,224402.765625,722242.0,1.0,2
220605.921875,241645.078125,236453.390625,228597.46875,216647.15625,235517.21875,197459.875,224644.875,722243.0,1.0,2
220592.59375,241686.390625,236567.75,228593.359375,216753.015625,235607.515625,197552.421875,224685.203125,722244.0,1.0,2
220521.0625,241529.296875,236120.53125,228500.46875,216356.21875,235378.1875,197278.390625,224470.625,722245.0,1.0,2
220492.734375,241386.25,235727.953125,228450.390625,216004.859375,235150.734375,197021.0625,224297.0,722246.0,1.0,2
220540.03125,241448.65625,235922.578125,228502.875,216176.15625,235230.125,197128.265625,224390.78125,722247.0,1.0,2
220604.84375,241630.0625,236434.0,228587.71875,216632.40625,235514.625,197455.234375,224624.3125,722248.0,1.0,2
220591.703125,241676.8125,236557.1875,228585.40625,216746.03125,235604.296875,197555.984375,224674.921875,722249.0,1.0,2
220529.5625,241531.625,236129.109375,228508.15625,216366.234375,235387.390625,197298.328125,224479.109375,722250.0,1.0,2
220501.40625,241396.890625,235740.8125,228462.46875,216018.09375,235164.953125,197041.8125,224311.75,722251.0,1.0,2
220533.765625,241449.71875,235922.046875,228502.4375,216179.28125,235236.125,197137.921875,224401.328125,722252.0,1.0,2
220586.96875,241624.25,236423.4375,228575.46875,216623.734375,235509.171875,197456.296875,224625.03125,722253.0,1.0,2
220585.890625,241684.59375,236557.375,228582.8125,216746.125,235613.421875,197567.25,224686.71875,722254.0,1.0,2
220526.4375,241543.0625,236129.921875,228503.328125,216368.296875,235398.03125,197310.296875,224495.125,722255.0,1.0,2
220488.609375,241387.3125,235726.515625,228444.765625,216005.125,235161.734375,197039.40625,224310.578125,722256.0,1.0,2
220537.515625,241445.875,235916.765625,228494.921875,216170.796875,235236.75,197138.640625,224404.640625,722257.0,1.0,2
220600.90625,241631.40625,236429.25,228581.46875,216622.921875,235509.078125,197461.125,224634.78125,722258.0,1.0,2
220599.921875,241700.953125,236570.421875,228590.859375,216751.5,235606.984375,197569.3125,224693.0625,722259.0,1.0,2
220527.421875,241537.609375,236133.765625,228499.03125,216366.0625,235381.40625,197303.59375,224491.1875,722260.0,1.0,2
220496.21875,241384.640625,235730.0,228446.8125,216002.53125,235144.46875,197032.875,224310.859375,722261.0,1.0,2
220547.265625,241453.5625,235920.265625,228506.640625,216169.625,235223.328125,197132.46875,224403.390625,722262.0,1.0,2
220597.6875,241629.875,236422.015625,228581.28125,216617.296875,235496.5625,197447.625,224624.84375,722263.0,1.0,2
220585.171875,241681.46875,236554.609375,228579.5,216741.203125,235596.25,197550.359375,224676.890625,722264.0,1.0,2
220526.25,241539.75,236134.03125,228503.140625,216368.734375,235385.421875,197297.515625,224485.015625,722265.0,1.0,2
220496.296875,241396.078125,235735.015625,228454.234375,216010.3125,235154.578125,197030.90625,224309.515625,722266.0,1.0,2
220540.375,241454.546875,235918.03125,228504.9375,216171.6875,235227.890625,197127.640625,224403.296875,722267.0,1.0,2
220598.234375,241632.203125,236425.3125,228586.296875,216623.109375,235506.9375,197450.671875,224634.6875,722268.0,1.0,2
220590.53125,241687.375,236567.03125,228587.8125,216751.578125,235606.265625,197561.53125,224690.390625,722269.0,1.0,2
220535.28125,241552.453125,236153.078125,228516.28125,216385.90625,235400.359375,197313.078125,224501.296875,722270.0,1.0,2
220510.609375,241411.71875,235756.203125,228468.09375,216032.578125,235172.734375,197047.625,224326.40625,722271.0,1.0,2
220542.96875,241455.53125,235921.421875,228504.390625,216178.296875,235230.125,197128.359375,224403.5625,722272.0,1.0,2
220593.21875,241627.46875,236423.0,228579.765625,216621.5,235498.796875,197443.421875,224627.984375,722273.0,1.0,2
220585.796875,241681.734375,236566.9375,228584.0625,216750.78125,235606.078125,197558.5,224690.921875,722274.0,1.0,2
220524.46875,241531.53125,236144.3125,228501.71875,216377.59375,235394.71875,197302.515625,224495.65625,722275.0,1.0,2
220499.515625,241392.6875,235744.21875,228457.1875,216023.890625,235166.921875,197037.15625,224320.421875,722276.0,1.0,2
220551.296875,241461.34375,235926.34375,228512.53125,216183.125,235243.265625,197134.703125,224414.125,722277.0,1.0,2
220600.546875,241629.609375,236425.765625,228583.4375,216620.0625,235509.53125,197446.921875,224634.78125,722278.0,1.0,2
220588.921875,241680.9375,236570.515625,228585.578125,216752.03125,235610.28125,197561.359375,224695.125,722279.0,1.0,2
220533.859375,241548.78125,236158.265625,228510.296875,216387.96875,235403.3125,197313.34375,224505.671875,722280.0,1.0,2
220499.515625,241389.546875,235746.1875,228450.125,216018.09375,235161.828125,197038.0625,224320.859375,722281.0,1.0,2
220541.640625,241442.296875,235917.125,228497.25,216166.328125,235223.6875,197125.9375,224404.375,722282.0,1.0,2
220602.703125,241626.65625,236428.625,228583.703125,216621.859375,235509.4375,197451.828125,224638.703125,722283.0,1.0,2
220604.9375,241691.5625,236586.078125,228600.515625,216766.421875,235622.265625,197574.5,224708.171875,722284.0,1.0,2
220540.734375,241546.90625,236166.671875,228516.921875,216393.15625,235404.375,197317.984375,224510.234375,722285.0,1.0,2
220503.1875,241400.28125,235754.234375,228458.796875,216009.421875,235162.796875,197039.484375,224318.453125,722286.0,1.0,2
220541.453125,241453.296875,235922.40625,228504.84375,216144.0625,235226.90625,197126.21875,224399.71875,722287.0,1.0,2
220610.390625,241642.75,236442.84375,228596.9375,216610.234375,235514.796875,197459.796875,224642.734375,722288.0,1.0,2
220596.171875,241697.03125,236589.46875,228594.15625,216747.828125,235620.03125,197575.65625,224702.28125,722289.0,1.0,2
220542.265625,241570.421875,236185.4375,228526.125,216394.484375,235424.3125,197339.453125,224522.65625,722290.0,1.0,2
220495.328125,241409.671875,235758.078125,228456.828125,216012.453125,235170.84375,197055.578125,224325.515625,722291.0,1.0,2
220531.703125,241453.5625,235911.859375,228497.78125,216150.046875,235225.65625,197134.890625,224400.34375,722292.0,1.0,2
220599.125,241637.921875,236426.578125,228587.71875,216610.859375,235508.984375,197461.9375,224640.859375,722293.0,1.0,2
220592.328125,241691.484375,236581.25,228583.171875,216752.296875,235612.96875,197579.859375,224701.828125,722294.0,1.0,2
220537.34375,241551.734375,236170.0625,228505.921875,216385.546875,235404.828125,197326.03125,224508.359375,722295.0,1.0,2
220508.015625,241404.9375,235757.359375,228451.640625,216011.5625,235159.9375,197044.765625,224318.90625,722296.0,1.0,2
220553.875,241460.90625,235920.53125,228504.390625,216153.8125,235226.28125,197131.578125,224400.265625,722297.0,1.0,2
220607.53125,241634.625,236423.4375,228584.78125,216601.640625,235501.484375,197451.5625,224629.328125,722298.0,1.0,2
220606.28125,241698.640625,236588.3125,228597.46875,216752.921875,235618.953125,197580.84375,224702.546875,722299.0,1.0,2
220545.390625,241551.828125,236176.59375,228517.625,216388.046875,235411.4375,197331.9375,224512.5625,722300.0,1.0,2
220510.4375,241398.3125,235758.609375,228458.359375,216012.71875,235166.5625,197049.5,224322.65625,722301.0,1.0,2
220549.234375,241448.03125,235914.453125,228500.828125,216148.0,235219.84375,197122.546875,224395.796875,722302.0,1.0,2
220607.53125,241626.21875,236422.1875,228586.65625,216596.546875,235498.53125,197445.484375,224624.578125,722303.0,1.0,2
220609.9375,241707.84375,236596.359375,228603.28125,216755.78125,235624.40625,197581.921875,224700.84375,722304.0,1.0,2
220544.140625,241561.65625,236186.15625,228520.3125,216396.09375,235418.6875,197336.5,224513.984375,722305.0,1.0,2
220502.296875,241395.453125,235759.421875,228456.5625,216018.0,235170.21875,197055.140625,224323.8125,722306.0,1.0,2
220536.71875,241443.109375,235905.59375,228499.5625,216146.828125,235220.5625,197127.546875,224395.703125,722307.0,1.0,2
220597.25,241627.828125,236415.578125,228582.1875,216598.0625,235503.71875,197451.03125,224627.984375,722308.0,1.0,2
220595.71875,241695.59375,236587.234375,228591.21875,216754.265625,235628.34375,197583.4375,224702.359375,722309.0,1.0,2
220530.375,241551.203125,236178.203125,228508.78125,216395.921875,235423.609375,197339.359375,224513.53125,722310.0,1.0,2
220501.046875,241407.609375,235763.265625,228457.546875,216026.578125,235186.046875,197064.078125,224329.984375,722311.0,1.0,2
220533.59375,241445.609375,235902.46875,228493.765625,216151.296875,235231.640625,197131.046875,224398.296875,722312.0,1.0,2
220592.0625,241625.765625,236408.875,228579.046875,216602.359375,235506.84375,197452.09375,224629.765625,722313.0,1.0,2
220595.90625,241698.71875,236586.4375,228594.96875,216764.09375,235629.6875,197585.765625,224706.5625,722314.0,1.0,2
220528.484375,241549.328125,236172.203125,228511.375,216398.0625,235417.609375,197332.46875,224509.421875,722315.0,1.0,2
220492.453125,241394.109375,235748.515625,228453.890625,216022.203125,235172.640625,197052.453125,224319.25,722316.0,1.0,2
220530.640625,241438.546875,235893.796875,228496.890625,216146.65625,235227.171875,197124.421875,224387.5625,722317.0,1.0,2
220596.890625,241630.0625,236410.203125,228586.734375,216603.078125,235509.25,197452.28125,224625.75,722318.0,1.0,2
220588.390625,241699.078125,236585.265625,228591.5625,216761.0625,235627.359375,197584.328125,224700.40625,722319.0,1.0,2
220520.4375,241549.328125,236173.90625,228507.609375,216397.171875,235416.09375,197337.484375,224506.75,722320.0,1.0,2
220484.59375,241402.515625,235750.46875,228451.640625,216018.71875,235174.34375,197058.359375,224315.234375,722321.0,1.0,2
220523.484375,241447.046875,235893.96875,228496.703125,216144.78125,235228.96875,197129.703125,224389.53125,722322.0,1.0,2
220580.609375,241622.28125,236397.6875,228574.140625,216590.46875,235497.453125,197440.921875,224617.78125,722323.0,1.0,2
220589.28125,241699.078125,236586.078125,228590.046875,216761.6875,235624.5,197581.65625,224702.984375,722324.0,1.0,2
220539.125,241574.984375,236194.375,228523.4375,216418.1875,235432.640625,197348.921875,224526.765625,722325.0,1.0,2
220496.921875,241414.40625,235762.546875,228459.6875,216032.484375,235185.25,197065.140625,224334.453125,722326.0,1.0,2
220534.84375,241452.765625,235899.875,228500.640625,216155.59375,235235.21875,197137.390625,224404.46875,722327.0,1.0,2
220600.828125,241637.5625,236412.53125,228589.6875,216612.640625,235514.4375,197464.890625,224639.953125,722328.0,1.0,2
220594.390625,241704.0,236591.34375,228595.953125,216777.0625,235631.921875,197593.984375,224710.6875,722329.0,1.0,2
220531.4375,241561.84375,236188.84375,228512.359375,216420.78125,235427.0,197348.390625,224518.640625,722330.0,1.0,2
220501.3125,241410.828125,235764.78125,228459.6875,216041.328125,235185.78125,197069.703125,224330.4375,722331.0,1.0,2
220543.6875,241456.609375,235897.46875,228503.0625,216157.921875,235231.375,197133.90625,224396.765625,722332.0,1.0,2
220596.703125,241630.5,236396.0,228578.609375,216596.8125,235497.8125,197444.046875,224615.90625,722333.0,1.0,2
220592.859375,241703.546875,236584.109375,228589.953125,216768.390625,235630.140625,197586.390625,224696.109375,722334.0,1.0,2
220530.546875,241562.828125,236184.015625,228515.484375,216418.546875,235432.28125,197347.9375,224515.234375,722335.0,1.0,2
220489.0625,241404.578125,235748.328125,228450.125,216030.25,235176.125,197057.734375,224319.796875,722336.0,1.0,2
220521.515625,241435.78125,235871.796875,228482.3125,216136.375,235211.171875,197113.703125,224378.4375,722337.0,1.0,2
220591.25,241623.171875,236387.765625,228574.578125,216594.046875,235493.875,197441.109375,224617.703125,722338.0,1.0,2
220598.3125,241703.109375,236587.234375,228595.953125,216773.578125,235628.609375,197588.171875,224705.140625,722339.0,1.0,2
220541.640625,241569.625,236196.4375,228525.3125,216430.609375,235435.046875,197355.546875,224525.78125,722340.0,1.0,2
220504.703125,241417.984375,235764.0625,228462.015625,216045.359375,235189.0,197072.21875,224328.203125,722341.0,1.0,2
220538.234375,241453.75,235889.328125,228500.46875,216152.734375,235228.96875,197130.234375,224386.9375,722342.0,1.0,2
220595.90625,241626.21875,236393.484375,228581.28125,216600.390625,235504.34375,197447.0,224615.90625,722343.0,1.0,2
220595.8125,241700.421875,236587.6875,228593.359375,216775.90625,235634.515625,197591.3125,224700.671875,722344.0,1.0,2
220531.078125,241561.03125,236189.640625,228511.1875,216421.578125,235430.75,197350.171875,224510.3125,722345.0,1.0,2
220493.984375,241406.984375,235755.296875,228449.0625,216034.1875,235180.234375,197061.390625,224315.234375,722346.0,1.0,2
220530.015625,241442.75,235876.890625,228486.515625,216141.296875,235217.609375,197116.28125,224379.25,722347.0,1.0,2
220588.578125,241618.4375,236381.6875,228570.375,216588.6875,235487.265625,197429.296875,224609.734375,722348.0,1.0,2
220602.15625,241707.3125,236593.140625,228598.71875,216780.453125,235631.03125,197591.125,224709.703125,722349.0,1.0,2
220541.8125,241572.84375,236202.421875,228521.65625,216433.828125,235436.5625,197357.953125,224526.765625,722350.0,1.0,2
220502.203125,241419.765625,235763.96875,228456.828125,216040.265625,235182.03125,197063.8125,224324.265625,722351.0,1.0,2
220534.921875,241444.1875,235878.0625,228494.46875,216141.46875,235213.859375,197115.65625,224380.234375,722352.0,1.0,2
220593.484375,241613.78125,236383.03125,228575.5625,216587.4375,235487.4375,197432.796875,224610.8125,722353.0,1.0,2
220596.96875,241698.0,236590.1875,228591.125,216775.1875,235626.828125,197585.5,224700.75,722354.0,1.0,2
220539.84375,241569.34375,236203.046875,228517.453125,216433.734375,235434.59375,197354.734375,224521.140625,722355.0,1.0,2
220498.1875,241410.46875,235762.453125,228454.421875,216038.65625,235182.921875,197065.328125,224320.15625,722356.0,1.0,2
220532.421875,241442.390625,235876.265625,228491.703125,216138.078125,235216.453125,197118.796875,224379.875,722357.0,1.0,2
220589.28125,241619.953125,236378.5625,228569.671875,216581.890625,235482.171875,197428.140625,224605.359375,722358.0,1.0,2
220591.171875,241698.1875,236586.34375,228583.96875,216767.5,235619.671875,197579.6875,224696.109375,722359.0,1.0,2
220533.3125,241565.0625,236202.34375,228511.640625,216427.75,235432.546875,197354.46875,224522.125,722360.0,1.0,2
220486.640625,241402.96875,235756.015625,228440.03125,216028.28125,235170.40625,197059.6875,224320.15625,722361.0,1.0,2
220524.734375,241438.28125,235869.5625,228481.234375,216130.203125,235204.375,197111.8125,224377.640625,722362.0,1.0,2
220597.78125,241627.90625,236383.75,228578.25,216590.109375,235490.921875,197439.5,224617.34375,722363.0,1.0,2
220599.03125,241706.953125,236588.21875,228593.359375,216776.265625,235625.03125,197586.390625,224703.34375,722364.0,1.0,2
220540.46875,241577.125,236205.296875,228520.765625,216439.734375,235435.9375,197355.546875,224525.703125,722365.0,1.0,2
220493.53125,241416.375,235761.921875,228448.25,216040.890625,235177.5625,197056.921875,224317.5625,722366.0,1.0,2
220533.3125,241446.328125,235874.3125,228490.546875,216134.5,235207.15625,197106.71875,224374.59375,722367.0,1.0,2
220602.15625,241632.734375,236385.09375,228579.59375,216585.828125,235485.390625,197431.71875,224613.5,722368.0,1.0,2
220605.46875,241714.546875,236597.78125,228592.46875,216778.046875,235629.15625,197590.40625,224705.9375,722369.0,1.0,2
220546.375,241584.734375,236215.84375,228515.21875,216440.984375,235448.734375,197360.90625,224527.21875,722370.0,1.0,2
220509.890625,241430.40625,235775.234375,228457.28125,216046.609375,235196.59375,197066.125,224328.015625,722371.0,1.0,2
220537.15625,241453.484375,235872.15625,228488.75,216127.96875,235215.90625,197100.46875,224374.25,722372.0,1.0,2
220590.53125,241621.46875,236369.796875,228565.375,216569.109375,235482.703125,197413.5625,224600.078125,722373.0,1.0,2
220586.25,241696.9375,236578.65625,228576.453125,216760.171875,235620.03125,197568.515625,224690.828125,722374.0,1.0,2
220528.21875,241570.421875,236196.609375,228502.34375,216425.609375,235432.28125,197342.21875,224511.484375,722375.0,1.0,2
220493.078125,241413.328125,235756.90625,228444.3125,216032.125,235179.078125,197051.46875,224312.375,722376.0,1.0,2
220529.109375,241435.59375,235861.703125,228481.875,216122.96875,235205.8125,197095.71875,224365.125,722377.0,1.0,2
220590.359375,241612.0,236363.546875,228566.0,216569.734375,235474.390625,197410.078125,224594.453125,722378.0,1.0,2
220598.578125,241701.578125,236587.953125,228587.90625,216774.921875,235625.484375,197575.125,224695.21875,722379.0,1.0,2
220547.625,241584.453125,236220.9375,228519.5,216453.234375,235450.609375,197360.453125,224530.4375,722380.0,1.0,2
220507.84375,241425.3125,235774.796875,228456.203125,216055.375,235196.0625,197068.28125,224330.796875,722381.0,1.0,2
220540.109375,241455.625,235869.296875,228490.984375,216136.375,235216.625,197106.1875,224378.4375,722382.0,1.0,2
220585.703125,241620.21875,236358.796875,228561.53125,216568.203125,235475.1875,197410.890625,224596.0625,722383.0,1.0,2
220586.609375,241695.765625,236580.078125,228578.421875,216769.109375,235623.96875,197576.28125,224696.640625,722384.0,1.0,2
220526.796875,241574.0,236207.609375,228506.28125,216440.0,235443.09375,197356.609375,224526.0625,722385.0,1.0,2
220488.796875,241419.953125,235763.796875,228448.078125,216043.296875,235189.359375,197062.109375,224326.046875,722386.0,1.0,2
220514.8125,241436.671875,235847.65625,228476.40625,216115.71875,235200.171875,197090.625,224364.9375,722387.0,1.0,2
220574.984375,241608.421875,236349.5,228558.75,216556.140625,235466.609375,197404.625,224593.46875,722388.0,1.0,2
220585.265625,241703.640625,236584.640625,228583.25,216768.125,235621.8125,197577.359375,224701.5625,722389.0,1.0,2
220526.34375,241575.703125,236212.625,228510.390625,216439.375,235439.515625,197353.671875,224527.9375,722390.0,1.0,2
220493.625,241419.140625,235770.859375,228452.09375,216044.640625,235186.40625,197062.734375,224332.671875,722391.0,1.0,2
220529.828125,241443.46875,235861.515625,228485.53125,216123.40625,235203.21875,197094.390625,224376.65625,722392.0,1.0,2
220599.125,241627.109375,236370.421875,228574.578125,216574.828125,235474.5625,197410.265625,224610.28125,722393.0,1.0,2
220601.265625,241708.46875,236598.6875,228591.484375,216781.890625,235620.75,197574.40625,224704.875,722394.0,1.0,2
220547.53125,241585.71875,236233.625,228522.28125,216460.390625,235443.71875,197360.015625,224534.015625,722395.0,1.0,2
220508.375,241425.140625,235785.25,228461.296875,216060.28125,235187.65625,197063.53125,224327.125,722396.0,1.0,2
220535.015625,241442.578125,235863.125,228487.5,216126.71875,235198.921875,197090.625,224363.515625,722397.0,1.0,2
220595.453125,241620.9375,236364.4375,228571.90625,216573.21875,235473.21875,197409.984375,224593.921875,722398.0,1.0,2
220593.75,241704.171875,236591.890625,228583.34375,216780.453125,235620.03125,197574.328125,224690.828125,722399.0,1.0,2
220531.078125,241567.03125,236217.53125,228505.5625,216451.53125,235433.53125,197347.859375,224515.0625,722400.0,1.0,2
220494.25,241404.21875,235767.109375,228445.203125,216045.984375,235178.453125,197050.390625,224308.96875,722401.0,1.0,2
220524.46875,241424.6875,235846.5,228476.765625,216111.703125,235190.96875,197079.28125,224349.75,722402.0,1.0,2
220586.78125,241605.828125,236349.59375,228562.6875,216559.09375,235461.15625,197397.921875,224585.78125,722403.0,1.0,2
220602.15625,241706.40625,236595.546875,228593.8125,216783.328125,235626.109375,197576.28125,224702.015625,722404.0,1.0,2
220536.453125,241575.515625,236223.890625,228514.328125,216454.921875,235440.59375,197352.140625,224529.28125,722405.0,1.0,2
220480.484375,241396.96875,235755.9375,228434.921875,216037.046875,235168.796875,197039.3125,224312.640625,722406.0,1.0,2
220515.890625,241421.03125,235836.21875,228468.546875,216104.640625,235184.890625,197070.6875,224353.5,722407.0,1.0,2
220581.953125,241601.71875,236343.0625,228557.0625,216551.21875,235457.9375,197389.421875,224582.375,722408.0,1.0,2
220587.953125,241693.71875,236587.328125,228584.234375,216770.359375,235616.1875,197563.5,224691.09375,722409.0,1.0,2
220527.6875,241571.578125,236227.1875,228509.046875,216451.625,235437.640625,197345.703125,224522.203125,722410.0,1.0,2
220489.15625,241410.828125,235775.78125,228446.1875,216046.25,235181.125,197046.546875,224318.625,722411.0,1.0,2
220524.640625,241433.8125,235850.796875,228479.71875,216112.59375,235193.109375,197074.265625,224357.609375,722412.0,1.0,2
220581.515625,241603.59375,236340.109375,228558.75,216548.984375,235453.015625,197379.859375,224574.515625,722413.0,1.0,2
220593.671875,241703.375,236587.765625,228583.4375,216773.046875,235614.125,197558.046875,224685.203125,722414.0,1.0,2
220535.640625,241578.015625,236231.390625,228511.375,216456.890625,235440.859375,197349.640625,224526.765625,722415.0,1.0,2
220489.15625,241407.34375,235770.765625,228443.15625,216046.421875,235182.109375,197050.484375,224319.34375,722416.0,1.0,2
220509.625,241415.125,235828.171875,228464.875,216094.984375,235184.796875,197066.75,224349.5625,722417.0,1.0,2
220573.8125,241595.1875,236329.75,228549.640625,216538.796875,235455.609375,197383.078125,224585.78125,722418.0,1.0,2
220587.859375,241699.34375,236585.265625,228581.015625,216771.609375,235624.328125,197569.3125,224702.1875,722419.0,1.0,2
220520.171875,241560.59375,236216.109375,228499.75,216450.09375,235444.703125,197354.203125,224526.765625,722420.0,1.0,2
220483.515625,241403.765625,235758.796875,228436.265625,216045.453125,235186.59375,197058.4375,224318.0,722421.0,1.0,2
220514.546875,241425.046875,235825.125,228469.0,216103.296875,235194.8125,197081.859375,224353.234375,722422.0,1.0,2
220577.84375,241600.203125,236327.515625,228559.390625,216546.921875,235458.734375,197393.0,224583.09375,722423.0,1.0,2
220584.453125,241691.296875,236578.296875,228582.265625,216771.25,235614.3125,197569.21875,224688.59375,722424.0,1.0,2
220528.3125,241571.5,236224.25,228505.46875,216456.1875,235442.203125,197359.296875,224520.15625,722425.0,1.0,2
220487.453125,241410.828125,235767.734375,228442.078125,216047.59375,235181.3125,197056.65625,224310.765625,722426.0,1.0,2
220514.8125,241425.3125,235830.9375,228472.03125,216104.09375,235185.78125,197072.03125,224344.828125,722427.0,1.0,2
220579.546875,241603.0625,236335.375,228558.671875,216550.0625,235458.46875,197386.46875,224579.875,722428.0,1.0,2
220582.9375,241695.5,236583.921875,228575.125,216772.5,235614.578125,197560.90625,224686.359375,722429.0,1.0,2
220534.75,241586.78125,236242.21875,228512.984375,216467.625,235446.671875,197358.21875,224531.6875,722430.0,1.0,2
220494.6875,241423.890625,235788.296875,228451.734375,216058.671875,235187.21875,197060.140625,224328.828125,722431.0,1.0,2
220531.625,241438.8125,235852.84375,228488.296875,216113.03125,235192.125,197083.203125,224366.203125,722432.0,1.0,2
220600.375,241616.734375,236353.078125,228577.71875,216554.796875,235458.296875,197396.3125,224595.796875,722433.0,1.0,2
220598.859375,241700.421875,236599.390625,228593.265625,216773.84375,235613.140625,197567.609375,224695.296875,722434.0,1.0,2
220542.796875,241581.515625,236251.421875,228519.953125,216468.25,235449.53125,197364.21875,224534.453125,722435.0,1.0,2
220498.53125,241416.109375,235787.84375,228455.671875,216057.515625,235186.9375,197061.125,224330.875,722436.0,1.0,2
220528.9375,241426.5625,235843.640625,228482.765625,216103.5625,235190.25,197074.71875,224364.5,722437.0,1.0,2
220595.90625,241603.6875,236343.953125,228569.3125,216544.78125,235463.484375,197389.6875,224593.015625,722438.0,1.0,2
220603.765625,241702.296875,236604.046875,228595.140625,216779.296875,235633.171875,197577.1875,224708.09375,722439.0,1.0,2
220536.09375,241577.84375,236249.546875,228516.921875,216463.953125,235454.890625,197366.71875,224539.5625,722440.0,1.0,2
220491.296875,241410.296875,235786.5,228448.703125,216049.5625,235192.75,197063.625,224328.5625,722441.0,1.0,2
220517.3125,241409.046875,235834.515625,228475.4375,216092.03125,235191.0625,197079.28125,224356.625,722442.0,1.0,2
220582.765625,241587.765625,236333.5,228564.5625,216534.59375,235459.1875,197397.46875,224588.8125,722443.0,1.0,2
220595.71875,241695.421875,236601.546875,228589.953125,216776.96875,235630.140625,197588.890625,224705.234375,722444.0,1.0,2
220544.5,241581.78125,236261.96875,228522.8125,216478.4375,235467.765625,197385.3125,224545.453125,722445.0,1.0,2
220501.578125,241419.859375,235799.5625,228455.140625,216065.5625,235206.4375,197077.03125,224335.0,722446.0,1.0,2
220524.28125,241428.0,235843.375,228478.375,216104.90625,235201.703125,197085.265625,224359.40625,722447.0,1.0,2
220582.484375,241594.46875,236331.796875,228561.703125,216540.21875,235463.75,197396.21875,224587.03125,722448.0,1.0,2
220591.703125,241692.46875,236594.828125,228586.390625,216780.546875,235628.875,197584.328125,224706.203125,722449.0,1.0,2
220542.4375,241586.421875,236257.859375,228518.34375,216485.0625,235467.0625,197387.1875,224552.78125,722450.0,1.0,2
220494.515625,241415.921875,235786.6875,228447.171875,216064.671875,235201.421875,197077.390625,224339.90625,722451.0,1.0,2
220523.65625,241424.15625,235831.125,228475.515625,216101.6875,235195.609375,197081.0625,224365.296875,722452.0,1.0,2
220584.015625,241590.890625,236323.03125,228558.046875,216537.8125,235455.609375,197385.046875,224586.21875,722453.0,1.0,2
220592.328125,241690.859375,236593.3125,228582.453125,216780.453125,235625.21875,197573.875,224700.84375,722454.0,1.0,2
220542.53125,241584.015625,236262.59375,228517.8125,216489.890625,235469.921875,197381.828125,224547.421875,722455.0,1.0,2
220501.125,241419.5,235797.0625,228452.625,216072.453125,235206.4375,197077.484375,224338.125,722456.0,1.0,2
220525.09375,241420.84375,235830.671875,228476.6875,216098.375,235194.984375,197080.34375,224361.8125,722457.0,1.0,2
220584.8125,241588.84375,236319.46875,228559.03125,216529.859375,235452.296875,197385.578125,224586.21875,722458.0,1.0,2
220596.4375,241693.09375,236596.359375,228588.34375,216778.5,235624.328125,197579.328125,224706.484375,722459.0,1.0,2
220541.1875,241581.328125,236264.125,228519.859375,216482.109375,235464.46875,197382.359375,224549.296875,722460.0,1.0,2
220502.203125,241420.671875,235800.1875,228457.015625,216070.21875,235207.421875,197081.6875,224340.984375,722461.0,1.0,2
220526.34375,241419.765625,235833.53125,228479.453125,216098.90625,235195.53125,197080.53125,224358.78125,722462.0,1.0,2
220585.359375,241586.78125,236324.015625,228560.546875,216531.546875,235454.0,197383.703125,224576.03125,722463.0,1.0,2
220601.09375,241696.84375,236607.0,228592.90625,216783.140625,235634.15625,197583.890625,224703.078125,722464.0,1.0,2
220544.5,241585.171875,236270.5625,228522.90625,216484.34375,235470.0,197384.515625,224542.859375,722465.0,1.0,2
220494.25,241419.0625,235792.59375,228448.96875,216057.25,235195.4375,197069.703125,224319.890625,722466.0,1.0,2
220518.484375,241413.421875,235820.921875,228469.96875,216079.515625,235177.5625,197067.390625,224338.84375,722467.0,1.0,2
220589.28125,241592.5,236317.671875,228561.0,216520.828125,235440.6875,197381.5625,224572.546875,722468.0,1.0,2
220604.84375,241700.515625,236602.34375,228593.171875,216777.875,235617.703125,197580.125,224696.109375,722469.0,1.0,2
220555.671875,241595.453125,236277.4375,228531.75,216491.140625,235464.015625,197391.65625,224544.46875,722470.0,1.0,2
220515.53125,241430.40625,235810.203125,228467.828125,216073.25,235200.625,197085.265625,224335.796875,722471.0,1.0,2
220533.3125,241427.8125,235831.84375,228485.171875,216090.953125,235182.46875,197078.109375,224349.921875,722472.0,1.0,2
220596.96875,241598.40625,236322.234375,228571.546875,216526.359375,235445.78125,197389.515625,224578.984375,722473.0,1.0,2
220608.875,241705.875,236606.453125,228600.15625,216782.515625,235623.515625,197591.046875,224707.375,722474.0,1.0,2
220551.828125,241595.8125,236277.984375,228527.828125,216488.8125,235466.15625,197391.296875,224551.09375,722475.0,1.0,2
220503.28125,241427.28125,235801.34375,228454.421875,216062.171875,235199.28125,197078.921875,224330.796875,722476.0,1.0,2
220526.875,241426.203125,235821.203125,228476.0625,216081.5625,235187.125,197074.265625,224344.375,722477.0,1.0,2
220596.890625,241605.203125,236316.15625,228567.15625,216522.796875,235459.90625,197387.640625,224575.3125,722478.0,1.0,2
220607.890625,241712.484375,236603.953125,228595.6875,216778.9375,235639.25,197589.4375,224701.109375,722479.0,1.0,2
220555.046875,241600.015625,236282.0,228530.140625,216496.234375,235482.4375,197404.890625,224551.71875,722480.0,1.0,2
220503.90625,241423.078125,235802.0625,228456.125,216068.609375,235210.015625,197090.8125,224332.9375,722481.0,1.0,2
220513.203125,241408.78125,235808.234375,228467.03125,216074.140625,235178.71875,197071.671875,224340.0,722482.0,1.0,2
220575.421875,241579.359375,236297.203125,228551.875,216507.59375,235433.078125,197373.421875,224567.09375,722483.0,1.0,2
220597.6875,241693.453125,236597.078125,228589.421875,216774.65625,235616.71875,197581.65625,224698.515625,722484.0,1.0,2
220549.859375,241593.671875,236281.546875,228525.140625,216499.1875,235467.0625,197401.046875,224555.5625,722485.0,1.0,2
220493.796875,241416.90625,235793.5625,228440.65625,216064.125,235190.515625,197081.421875,224326.40625,722486.0,1.0,2
220524.921875,241419.140625,235815.921875,228470.0625,216081.921875,235176.9375,197078.109375,224344.109375,722487.0,1.0,2
220604.046875,241607.890625,236317.046875,228568.0625,216525.03125,235443.359375,197392.734375,224578.453125,722488.0,1.0,2
220614.953125,241710.703125,236610.578125,228591.65625,216786.546875,235625.3125,197593.8125,224700.578125,722489.0,1.0,2
220560.3125,241600.546875,236294.25,228525.046875,216507.953125,235479.75,197409.640625,224549.5625,722490.0,1.0,2
220511.59375,241431.03125,235813.515625,228451.296875,216080.5,235212.515625,197095.71875,224328.203125,722491.0,1.0,2
220529.203125,241425.671875,235817.171875,228468.28125,216082.734375,235188.28125,197076.953125,224333.921875,722492.0,1.0,2
220591.4375,241593.671875,236300.515625,228549.640625,216512.5,235448.734375,197380.75,224560.65625,722493.0,1.0,2
220612.984375,241709.546875,236605.828125,228588.890625,216786.984375,235641.671875,197597.5625,224704.6875,722494.0,1.0,2
220550.390625,241599.484375,236285.125,228512.71875,216501.78125,235484.9375,197407.75,224552.875,722495.0,1.0,2
220504.078125,241426.921875,235808.6875,228445.203125,216075.671875,235213.9375,197096.171875,224339.90625,722496.0,1.0,2
220531.171875,241425.140625,235820.125,228472.03125,216085.5,235194.1875,197089.46875,224356.890625,722497.0,1.0,2
220594.203125,241596.359375,236306.40625,228559.5625,216517.328125,235452.125,197396.671875,224587.5625,722498.0,1.0,2
220605.015625,241702.484375,236608.15625,228592.28125,216787.796875,235636.921875,197608.03125,224719.359375,722499.0,1.0,2
220548.515625,241595.09375,236292.546875,228522.8125,216509.921875,235484.578125,197421.25,224563.0625,722500.0,1.0,2
220505.15625,241429.96875,235817.078125,228454.328125,216084.15625,235219.3125,197110.65625,224344.734375,722501.0,1.0,2
220532.0625,241430.859375,235823.25,228475.34375,216083.359375,235194.0,197090.09375,224346.078125,722502.0,1.0,2
220592.328125,241597.15625,236302.5625,228557.6875,216506.15625,235448.640625,197385.046875,224566.46875,722503.0,1.0,2
220611.546875,241708.015625,236610.03125,228595.421875,216781.796875,235639.515625,197600.703125,224705.140625,722504.0,1.0,2
220562.734375,241611.28125,236303.8125,228532.375,216512.234375,235498.796875,197428.140625,224564.328125,722505.0,1.0,2
220512.046875,241441.859375,235821.546875,228457.453125,216081.03125,235228.078125,197110.921875,224346.34375,722506.0,1.0,2
220527.5,241427.46875,235816.375,228470.515625,216073.609375,235190.875,197080.96875,224347.0625,722507.0,1.0,2
220583.203125,241586.0625,236293.984375,228550.890625,216496.234375,235438.796875,197375.03125,224563.78125,722508.0,1.0,2
220602.875,241708.109375,236604.9375,228588.34375,216778.40625,235631.65625,197592.65625,224703.53125,722509.0,1.0,2
220550.03125,241601.171875,236299.875,228525.671875,216511.703125,235491.546875,197422.5,224567.984375,722510.0,1.0,2
220505.6875,241430.140625,235820.03125,228458.171875,216086.21875,235225.203125,197115.03125,224355.015625,722511.0,1.0,2
220517.21875,241412.078125,235805.1875,228468.90625,216072.53125,235181.046875,197085.0,224352.609375,722512.0,1.0,2
220576.59375,241573.734375,236281.109375,228548.828125,216496.234375,235431.828125,197381.203125,224570.765625,722513.0,1.0,2
220605.296875,241701.140625,236602.25,228592.015625,216786.984375,235633.171875,197605.4375,224711.3125,722514.0,1.0,2
220546.1875,241594.296875,236294.875,228522.28125,216515.1875,235486.09375,197425.640625,224559.578125,722515.0,1.0,2
220494.78125,241422.453125,235811.984375,228447.71875,216083.625,235218.5,197110.296875,224338.75,722516.0,1.0,2
220509.796875,241405.015625,235797.6875,228460.859375,216068.328125,235179.4375,197078.921875,224334.90625,722517.0,1.0,2
220575.515625,241570.421875,236276.71875,228547.3125,216491.671875,235429.859375,197380.125,224557.34375,722518.0,1.0,2
220592.859375,241682.359375,236589.375,228579.859375,216772.5,235622.625,197597.203125,224699.140625,722519.0,1.0,2
220546.28125,241588.3125,236294.78125,228521.46875,216510.890625,235485.296875,197427.0625,224567.546875,722520.0,1.0,2
220499.171875,241420.3125,235812.96875,228451.296875,216080.5,235215.90625,197110.203125,224351.984375,722521.0,1.0,2
220514.359375,241404.84375,235796.703125,228465.953125,216064.125,235174.609375,197077.390625,224348.40625,722522.0,1.0,2
220583.46875,241582.140625,236283.25,228557.859375,216496.5,235432.8125,197381.65625,224574.96875,722523.0,1.0,2
220601.171875,241695.421875,236601.359375,228594.875,216780.546875,235624.328125,197600.96875,224715.234375,722524.0,1.0,2
220539.75,241585.796875,236296.21875,228523.4375,216509.015625,235476.53125,197419.640625,224566.109375,722525.0,1.0,2
220484.765625,241409.484375,235807.421875,228438.140625,216069.140625,235199.375,197097.0625,224339.1875,722526.0,1.0,2
220510.4375,241402.34375,235797.234375,228462.5625,216058.046875,235165.046875,197069.171875,224342.5,722527.0,1.0,2
220575.609375,241568.90625,236279.046875,228549.453125,216486.484375,235421.1875,197370.03125,224565.390625,722528.0,1.0,2
220591.609375,241686.65625,236598.5,228584.78125,216773.390625,235616.546875,197588.359375,224706.203125,722529.0,1.0,2
220543.328125,241595.640625,236311.234375,228525.671875,216520.828125,235485.109375,197425.375,224572.375,722530.0,1.0,2
220496.921875,241426.65625,235829.328125,228455.84375,216088.71875,235215.109375,197112.4375,224348.140625,722531.0,1.0,2
220519.375,241412.625,235811.0,228473.828125,216068.953125,235176.03125,197079.359375,224340.265625,722532.0,1.0,2
220579.90625,241572.296875,236282.984375,228553.65625,216486.40625,235417.171875,197366.71875,224555.734375,722533.0,1.0,2
220597.15625,241689.78125,236606.09375,228587.375,216775.09375,235609.65625,197586.21875,224697.265625,722534.0,1.0,2
220546.109375,241598.140625,236319.28125,228524.515625,216520.828125,235474.5625,197418.75,224559.21875,722535.0,1.0,2
220498.359375,241429.703125,235831.296875,228450.03125,216084.421875,235199.640625,197097.6875,224335.625,722536.0,1.0,2
220530.453125,241418.875,235814.578125,228477.671875,216068.421875,235166.921875,197071.40625,224342.6875,722537.0,1.0,2
220583.46875,241573.015625,236277.984375,228548.921875,216476.46875,235410.46875,197358.21875,224552.78125,722538.0,1.0,2
220598.5,241686.109375,236600.921875,228585.671875,216765.796875,235610.546875,197579.953125,224694.234375,722539.0,1.0,2
220548.078125,241596.265625,236317.765625,228525.9375,216519.484375,235481.09375,197422.15625,224560.390625,722540.0,1.0,2
220500.328125,241425.9375,235832.734375,228455.671875,216089.171875,235212.6875,197111.453125,224345.90625,722541.0,1.0,2
220520.890625,241408.859375,235802.59375,228473.109375,216061.984375,235169.328125,197072.75,224339.640625,722542.0,1.0,2
220581.78125,241570.78125,236269.21875,228552.59375,216476.125,235412.15625,197361.703125,224549.5625,722543.0,1.0,2
220607.171875,241694.78125,236605.390625,228597.734375,216778.046875,235617.171875,197595.15625,224703.890625,722544.0,1.0,2
220549.046875,241594.921875,236317.578125,228528.453125,216523.59375,235481.71875,197427.25,224566.375,722545.0,1.0,2
220501.9375,241426.203125,235831.5625,228453.078125,216087.734375,235211.359375,197110.828125,224345.28125,722546.0,1.0,2
220519.453125,241406.09375,235793.84375,228462.375,216052.78125,235160.65625,197062.640625,224331.421875,722547.0,1.0,2
220585.171875,241572.296875,236266.796875,228552.046875,216476.5625,235411.71875,197359.03125,224549.84375,722548.0,1.0,2
220599.5625,241691.125,236594.921875,228588.703125,216775.09375,235610.828125,197590.140625,224695.921875,722549.0,1.0,2
220545.390625,241599.921875,236312.671875,228524.15625,216526.359375,235483.953125,197431.53125,224561.8125,722550.0,1.0,2
220498.453125,241428.625,235826.375,228453.53125,216091.84375,235214.390625,197115.3125,224341.609375,722551.0,1.0,2
220510.515625,241401.53125,235785.34375,228460.859375,216052.859375,235158.953125,197063.625,224327.390625,722552.0,1.0,2
220580.34375,241573.28125,236264.484375,228551.34375,216476.5625,235408.40625,197359.46875,224550.90625,722553.0,1.0,2
220606.359375,241699.703125,236605.203125,228593.453125,216782.0625,235613.59375,197593.359375,224703.96875,722554.0,1.0,2
220553.078125,241600.546875,236322.328125,228527.546875,216532.0,235476.625,197427.421875,224566.921875,722555.0,1.0,2
220501.671875,241423.171875,235828.625,228452.359375,216094.984375,235202.765625,197106.546875,224344.5625,722556.0,1.0,2
220521.34375,241400.375,235790.078125,228466.484375,216057.609375,235152.515625,197062.734375,224334.09375,722557.0,1.0,2
220585.703125,241567.203125,236260.71875,228546.859375,216473.265625,235396.78125,197351.078125,224547.328125,722558.0,1.0,2
220611.1875,241694.703125,236603.328125,228590.046875,216779.921875,235605.09375,197585.5,224701.296875,722559.0,1.0,2
220562.28125,241613.078125,236332.25,228533.1875,216540.671875,235482.796875,197433.59375,224573.171875,722560.0,1.0,2
220508.546875,241440.875,235840.328125,228456.5625,216101.6875,235209.390625,197114.59375,224347.875,722561.0,1.0,2
220523.484375,241409.3125,235794.109375,228468.09375,216060.5625,235155.65625,197066.9375,224334.453125,722562.0,1.0,2
220581.0625,241565.859375,236257.140625,228548.03125,216472.546875,235394.09375,197353.671875,224548.3125,722563.0,1.0,2
220595.015625,241681.921875,236592.875,228583.515625,216772.140625,235596.0625,197581.203125,224695.65625,722564.0,1.0,2
220553.25,241600.109375,236329.46875,228530.59375,216543.796875,235480.46875,197435.109375,224575.40625,722565.0,1.0,2
220502.109375,241424.875,235835.140625,228452.8125,216101.421875,235204.375,197110.5625,224346.609375,722566.0,1.0,2
220517.9375,241403.953125,235784.984375,228459.78125,216049.203125,235144.46875,197050.125,224323.09375,722567.0,1.0,2
220582.9375,241565.953125,236254.28125,228547.578125,216461.8125,235391.0625,197339.359375,224541.171875,722568.0,1.0,2
220606.71875,241689.25,236600.640625,228593.53125,216772.765625,235600.625,197576.828125,224695.84375,722569.0,1.0,2
220565.140625,241609.671875,236341.640625,228544.1875,216547.109375,235485.5625,197434.578125,224574.515625,722570.0,1.0,2
220522.765625,241448.734375,235860.0,228474.0,216118.046875,235221.984375,197126.75,224361.546875,722571.0,1.0,2
220525.359375,241411.640625,235792.859375,228468.015625,216054.5625,235147.6875,197056.03125,224329.53125,722572.0,1.0,2
220583.828125,241567.203125,236252.046875,228546.0625,216464.234375,235383.375,197338.015625,224541.796875,722573.0,1.0,2
220612.53125,241700.515625,236605.390625,228595.59375,216783.328125,235600.453125,197580.671875,224702.28125,722574.0,1.0,2
220557.546875,241602.78125,236337.171875,228530.421875,216546.296875,235476.359375,197426.4375,224572.8125,722575.0,1.0,2
220509.796875,241434.078125,235850.078125,228457.453125,216112.859375,235206.4375,197109.21875,224351.53125,722576.0,1.0,2
220523.125,241411.640625,235793.5625,228466.3125,216062.796875,235147.6875,197052.984375,224330.4375,722577.0,1.0,2
220590.09375,241574.09375,236257.859375,228555.09375,216476.46875,235394.71875,197344.359375,224547.328125,722578.0,1.0,2
220619.234375,241706.140625,236611.828125,228602.75,216792.078125,235608.234375,197584.78125,224706.390625,722579.0,1.0,2
220564.609375,241613.25,236344.3125,228536.859375,216555.25,235485.109375,197429.03125,224574.875,722580.0,1.0,2
220507.03125,241435.78125,235846.59375,228453.703125,216110.625,235210.015625,197109.140625,224347.875,722581.0,1.0,2
220518.828125,241402.0625,235782.125,228460.234375,216050.359375,235143.671875,197049.40625,224320.328125,722582.0,1.0,2
220594.734375,241574.53125,236257.6875,228554.734375,216468.875,235395.0,197345.625,224546.0,722583.0,1.0,2
220618.515625,241707.125,236614.5,228601.21875,216787.171875,235610.546875,197587.28125,224708.984375,722584.0,1.0,2
220554.328125,241603.0625,236342.53125,228531.046875,216549.796875,235479.3125,197431.1875,224573.703125,722585.0,1.0,2
220497.015625,241421.109375,235840.953125,228442.171875,216104.28125,235196.78125,197106.453125,224340.09375,722586.0,1.0,2
220513.015625,241394.921875,235776.765625,228453.078125,216045.890625,235136.25,197046.46875,224318.8125,722587.0,1.0,2
220576.234375,241556.921875,236236.84375,228541.59375,216454.03125,235377.65625,197333.640625,224534.375,722588.0,1.0,2
220611.453125,241700.328125,236600.921875,228592.546875,216777.421875,235598.9375,197581.46875,224699.6875,722589.0,1.0,2
220566.21875,241614.6875,236348.515625,228535.78125,216552.921875,235486.71875,197438.328125,224579.078125,722590.0,1.0,2
220516.59375,241434.53125,235855.703125,228461.84375,216114.828125,235217.515625,197122.09375,224356.09375,722591.0,1.0,2
220528.21875,241402.25,235785.25,228468.1875,216050.453125,235152.703125,197060.40625,224331.59375,722592.0,1.0,2
220583.203125,241556.296875,236236.3125,228545.609375,216449.125,235384.53125,197339.1875,224538.484375,722593.0,1.0,2
220606.546875,241690.671875,236593.765625,228587.375,216770.0,235602.953125,197584.875,224697.984375,722594.0,1.0,2
220560.234375,241612.53125,236342.703125,228529.078125,216551.671875,235491.109375,197446.109375,224578.71875,722595.0,1.0,2
220506.578125,241434.875,235846.59375,228450.578125,216107.671875,235215.203125,197123.359375,224350.28125,722596.0,1.0,2
220523.3125,241401.4375,235776.578125,228460.046875,216041.25,235147.15625,197054.59375,224324.4375,722597.0,1.0,2
220585.359375,241559.6875,236232.109375,228540.078125,216444.015625,235380.6875,197331.40625,224530.890625,722598.0,1.0,2
220613.515625,241695.140625,236598.046875,228587.546875,216772.40625,235602.5,197582.09375,224697.71875,722599.0,1.0,2
220564.15625,241614.6875,236350.84375,228530.328125,216559.0,235493.875,197445.75,224581.046875,722600.0,1.0,2
220507.65625,241438.734375,235853.296875,228452.546875,216116.34375,235219.75,197124.6875,224357.515625,722601.0,1.0,2
220523.9375,241407.4375,235778.015625,228463.8125,216045.359375,235147.78125,197050.578125,224331.328125,722602.0,1.0,2
220578.734375,241557.1875,236226.03125,228535.328125,216436.59375,235376.484375,197322.015625,224532.765625,722603.0,1.0,2
220604.046875,241688.984375,236588.3125,228579.140625,216760.796875,235593.203125,197566.359375,224691.640625,722604.0,1.0,2
220557.640625,241610.296875,236345.84375,228525.5,216551.125,235489.3125,197434.671875,224578.890625,722605.0,1.0,2
220509.71875,241440.78125,235853.734375,228457.28125,216113.21875,235222.890625,197122.1875,224357.96875,722606.0,1.0,2
220520.4375,241405.203125,235768.53125,228456.65625,216036.0625,235147.421875,197047.984375,224322.203125,722607.0,1.0,2
220577.671875,241558.359375,236217.359375,228533.546875,216434.015625,235379.34375,197322.375,224524.984375,722608.0,1.0,2
220604.84375,241693.265625,236586.96875,228580.9375,216766.609375,235602.6875,197574.5,224691.546875,722609.0,1.0,2
220565.59375,241622.015625,236355.765625,228531.9375,216566.953125,235507.734375,197452.015625,224586.40625,722610.0,1.0,2
220515.078125,241448.203125,235862.40625,228459.15625,216126.0,235239.421875,197132.46875,224359.578125,722611.0,1.0,2
220528.046875,241409.671875,235779.265625,228467.109375,216049.203125,235169.0625,197057.1875,224327.390625,722612.0,1.0,2
220586.96875,241563.0,236228.984375,228546.6875,216445.90625,235400.171875,197333.640625,224534.8125,722613.0,1.0,2
220619.5,241703.375,236606.546875,228601.84375,216787.703125,235627.09375,197591.578125,224707.734375,722614.0,1.0,2
220560.765625,241614.328125,236358.265625,228532.828125,216569.546875,235512.109375,197450.765625,224585.515625,722615.0,1.0,2
220497.640625,241432.640625,235853.46875,228447.0,216117.328125,235229.765625,197124.328125,224351.0,722616.0,1.0,2
220509.890625,241397.59375,235765.578125,228451.734375,216037.75,235153.328125,197049.953125,224320.59375,722617.0,1.0,2
220565.953125,241540.390625,236208.15625,228529.703125,216429.53125,235377.65625,197317.984375,224521.765625,722618.0,1.0,2
220591.96875,241673.234375,236579.453125,228574.3125,216761.140625,235597.953125,197569.140625,224685.015625,722619.0,1.0,2
220552.8125,241607.796875,236350.125,228527.28125,216561.234375,235499.875,197443.421875,224577.828125,722620.0,1.0,2
220494.96875,241428.0,235847.125,228446.90625,216114.015625,235223.15625,197117.0,224347.0625,722621.0,1.0,2
220503.28125,241382.671875,235752.4375,228446.28125,216028.546875,235141.171875,197032.875,224307.90625,722622.0,1.0,2
220565.140625,241537.078125,236201.984375,228527.109375,216424.0,235371.125,197306.09375,224512.90625,722623.0,1.0,2
220593.671875,241680.390625,236580.984375,228577.265625,216762.75,235596.96875,197562.078125,224679.484375,722624.0,1.0,2
220554.421875,241613.96875,236360.140625,228532.203125,216570.265625,235503.265625,197441.46875,224578.0,722625.0,1.0,2
220503.8125,241442.578125,235866.4375,228457.8125,216129.21875,235235.671875,197122.1875,224351.71875,722626.0,1.0,2
220516.421875,241406.09375,235771.046875,228458.984375,216047.40625,235159.40625,197041.09375,224313.984375,722627.0,1.0,2
220567.109375,241545.203125,236205.015625,228529.25,216435.4375,235381.21875,197308.0625,224511.296875,722628.0,1.0,2
220591.25,241681.28125,236576.59375,228574.046875,216769.109375,235602.0625,197561.984375,224675.8125,722629.0,1.0,2
220552.984375,241616.46875,236358.890625,228527.734375,216576.4375,235511.9375,197446.203125,224574.515625,722630.0,1.0,2
220496.125,241437.203125,235857.578125,228446.46875,216129.3125,235232.265625,197122.90625,224344.5625,722631.0,1.0,2
220499.703125,241387.765625,235751.90625,228445.03125,216034.890625,235142.0625,197034.296875,224300.296875,722632.0,1.0,2
220562.203125,241541.28125,236196.34375,228527.640625,216427.75,235367.71875,197305.03125,224509.25,722633.0,1.0,2
220587.40625,241677.625,236575.078125,228574.21875,216762.578125,235590.078125,197558.234375,224679.203125,722634.0,1.0,2
220535.203125,241595.015625,236343.421875,228516.109375,216557.65625,235487.796875,197431.265625,224567.625,722635.0,1.0,2
220477.96875,241415.84375,235840.0625,228436.0,216107.671875,235209.46875,197106.625,224339.640625,722636.0,1.0,2
220490.21875,241376.234375,235739.921875,228441.71875,216018.796875,235129.28125,197024.015625,224304.0625,722637.0,1.0,2
220555.84375,241533.3125,236187.859375,228526.390625,216416.125,235363.25,197299.484375,224512.015625,722638.0,1.0,2
220584.734375,241674.578125,236572.75,228575.296875,216757.65625,235589.09375,197553.9375,224677.78125,722639.0,1.0,2
220549.765625,241615.484375,236362.46875,228531.3125,216575.265625,235505.765625,197444.234375,224576.65625,722640.0,1.0,2
220490.40625,241433.359375,235859.734375,228448.609375,216127.34375,235233.25,197120.40625,224344.109375,722641.0,1.0,2
220498.453125,241383.828125,235751.734375,228446.375,216030.78125,235151.53125,197033.859375,224300.578125,722642.0,1.0,2
220562.109375,241540.03125,236196.171875,228531.671875,216426.046875,235383.109375,197309.046875,224506.296875,722643.0,1.0,2
220586.34375,241675.03125,236577.484375,228579.328125,216766.875,235605.546875,197566.0,224674.03125,722644.0,1.0,2
220541.453125,241606.546875,236359.25,228525.9375,216576.078125,235512.5625,197448.703125,224572.640625,722645.0,1.0,2
220488.609375,241434.796875,235858.65625,228444.5,216132.078125,235240.046875,197126.84375,224349.296875,722646.0,1.0,2
220500.78125,241395.8125,235751.109375,228447.0,216032.484375,235150.5625,197033.859375,224307.90625,722647.0,1.0,2
220556.109375,241529.921875,236185.984375,228524.421875,216414.25,235368.0,197295.375,224507.734375,722648.0,1.0,2
220592.859375,241680.125,236582.765625,228584.6875,216769.546875,235604.65625,197565.640625,224688.0625,722649.0,1.0,2
220547.265625,241613.703125,236368.90625,228534.34375,216583.59375,235511.046875,197450.84375,224587.484375,722650.0,1.0,2
220486.640625,241432.734375,235861.703125,228447.265625,216132.078125,235230.84375,197124.15625,224352.25,722651.0,1.0,2
220493.53125,241381.859375,235742.15625,228445.390625,216025.78125,235135.984375,197028.046875,224298.78125,722652.0,1.0,2
220560.046875,241535.5625,236181.5,228529.15625,216416.03125,235356.375,197297.421875,224500.578125,722653.0,1.0,2
220593.84375,241683.4375,236575.34375,228582.453125,216769.1875,235586.421875,197557.421875,224679.03125,722654.0,1.0,2
220551.203125,241617.09375,236367.03125,228535.6875,216589.671875,235500.9375,197445.3125,224583.0,722655.0,1.0,2
220498.984375,241445.875,235870.640625,228461.390625,216147.734375,235233.25,197126.65625,224358.15625,722656.0,1.0,2
220509.453125,241402.609375,235759.59375,228461.921875,216046.25,235147.78125,197031.4375,224315.0625,722657.0,1.0,2
220574.09375,241553.703125,236199.828125,228540.875,216433.65625,235371.390625,197297.15625,224517.109375,722658.0,1.0,2
220594.734375,241683.515625,236582.40625,228582.8125,216775.90625,235594.375,197549.5625,224682.421875,722659.0,1.0,2
220554.234375,241620.84375,236379.90625,228533.8125,216600.75,235515.6875,197444.953125,224588.8125,722660.0,1.0,2
220500.0625,241443.203125,235878.59375,228453.703125,216151.65625,235241.578125,197124.875,224360.65625,722661.0,1.0,2
220510.25,241394.828125,235758.796875,228453.4375,216038.828125,235148.046875,197026.25,224311.484375,722662.0,1.0,2
220575.703125,241546.90625,236195.359375,228535.328125,216425.25,235372.90625,197294.03125,224515.140625,722663.0,1.0,2
220609.84375,241693.890625,236594.125,228590.9375,216782.0625,235605.546875,197560.90625,224697.53125,722664.0,1.0,2
220571.3125,241633.640625,236396.0,228545.703125,216608.359375,235522.9375,197456.03125,224605.71875,722665.0,1.0,2
220514.546875,241454.828125,235892.640625,228461.75,216159.078125,235248.640625,197135.328125,224375.40625,722666.0,1.0,2
220514.09375,241393.125,235757.890625,228451.640625,216030.6875,235143.21875,197024.828125,224312.640625,722667.0,1.0,2
220577.125,241542.796875,236191.78125,228538.46875,216412.46875,235364.859375,197290.0,224516.046875,722668.0,1.0,2
220598.859375,241677.796875,236581.515625,228581.46875,216759.265625,235592.3125,197552.859375,224688.78125,722669.0,1.0,2
220554.78125,241616.203125,236381.953125,228530.859375,216585.828125,235511.484375,197452.375,224597.671875,722670.0,1.0,2
220504.890625,241443.5625,235887.453125,228459.6875,216148.796875,235249.34375,197141.59375,224378.625,722671.0,1.0,2
220508.375,241387.40625,235754.59375,228455.21875,216029.53125,235152.25,197037.4375,224323.734375,722672.0,1.0,2
220560.5,241526.53125,236177.03125,228526.75,216402.09375,235366.390625,197296.796875,224516.21875,722673.0,1.0,2
220597.6875,241679.5,236583.484375,228585.671875,216767.5,235608.5,197574.59375,224701.03125,722674.0,1.0,2
220563.984375,241628.984375,236399.03125,228546.421875,216610.765625,235534.640625,197481.609375,224618.40625,722675.0,1.0,2
220501.3125,241446.859375,235890.21875,228457.015625,216159.796875,235255.421875,197151.15625,224384.796875,722676.0,1.0,2
220502.828125,241382.84375,235749.140625,228447.890625,216031.5,235149.390625,197036.359375,224323.28125,722677.0,1.0,2
220567.828125,241529.203125,236178.375,228527.46875,216407.0,235361.203125,197293.40625,224522.03125,722678.0,1.0,2
220605.65625,241678.421875,236586.875,228584.6875,216770.796875,235600.71875,197566.625,224704.6875,722679.0,1.0,2
220564.703125,241618.609375,236399.75,228539.171875,216606.109375,235523.734375,197471.328125,224613.859375,722680.0,1.0,2
220508.109375,241438.453125,235897.109375,228460.234375,216155.140625,235245.78125,197147.671875,224382.734375,722681.0,1.0,2
220515.890625,241384.09375,235759.6875,228459.34375,216030.515625,235138.9375,197036.53125,224321.578125,722682.0,1.0,2
220580.96875,241537.703125,236189.015625,228536.40625,216409.6875,235359.234375,197299.84375,224518.640625,722683.0,1.0,2
220611.375,241684.15625,236596.53125,228588.890625,216774.5625,235600.453125,197571.546875,224702.71875,722684.0,1.0,2
220572.03125,241632.296875,236413.15625,228542.578125,216615.953125,235531.078125,197476.6875,224616.796875,722685.0,1.0,2
220500.78125,241443.375,235894.25,228448.34375,216154.703125,235243.625,197142.578125,224372.0,722686.0,1.0,2
220506.765625,241383.828125,235751.375,228446.46875,216023.0,235139.109375,197035.203125,224313.265625,722687.0,1.0,2
220568.453125,241532.515625,236175.15625,228526.75,216395.46875,235357.53125,197294.203125,224507.90625,722688.0,1.0,2
220593.046875,241673.15625,236575.25,228572.4375,216752.296875,235593.75,197559.5625,224682.78125,722689.0,1.0,2
220555.9375,241623.984375,236393.84375,228531.40625,216593.328125,235524.546875,197465.515625,224599.09375,722690.0,1.0,2
220499.34375,241455.625,235891.03125,228449.40625,216145.40625,235249.078125,197143.296875,224372.09375,722691.0,1.0,2
220503.09375,241389.828125,235744.390625,228445.84375,216013.609375,235140.546875,197030.90625,224311.03125,722692.0,1.0,2
220562.734375,241523.21875,236163.625,228518.875,216380.09375,235347.25,197280.625,224499.765625,722693.0,1.0,2
220597.78125,241673.515625,236575.25,228574.21875,216746.75,235587.9375,197552.234375,224685.46875,722694.0,1.0,2
220562.640625,241627.828125,236404.3125,228535.328125,216600.75,235523.296875,197470.515625,224609.5625,722695.0,1.0,2
220503.90625,241455.359375,235901.03125,228451.734375,216151.65625,235246.40625,197147.40625,224378.09375,722696.0,1.0,2
220504.703125,241391.15625,235748.78125,228446.46875,216011.5625,235130.796875,197026.703125,224311.296875,722697.0,1.0,2
220552.625,241526.171875,236158.34375,228511.640625,216372.765625,235333.03125,197270.421875,224492.34375,722698.0,1.0,2
220590.1875,241678.515625,236573.015625,228567.875,216743.625,235576.9375,197549.46875,224675.984375,722699.0,1.0,2
220560.671875,241632.828125,236406.546875,228533.71875,216599.046875,235516.140625,197472.21875,224600.796875,722700.0,1.0,2
220503.015625,241457.59375,235904.171875,228451.734375,216151.484375,235243.359375,197150.796875,224374.515625,722701.0,1.0,2
220498.890625,241393.125,235743.953125,228438.0625,216005.75,235127.21875,197026.96875,224305.21875,722702.0,1.0,2
220558.625,241537.796875,236159.0625,228516.015625,216377.765625,235340.90625,197282.140625,224495.828125,722703.0,1.0,2
220593.84375,241688.625,236575.875,228574.84375,216752.75,235587.9375,197562.875,224682.515625,722704.0,1.0,2
220556.921875,241634.34375,236406.71875,228532.375,216603.078125,235518.640625,197472.21875,224604.28125,722705.0,1.0,2
220498.53125,241455.796875,235901.75,228450.21875,216152.015625,235242.640625,197145.34375,224373.171875,722706.0,1.0,2
220493.71875,241384.8125,235735.984375,228436.984375,216002.0,235124.453125,197018.5625,224301.90625,722707.0,1.0,2
220557.09375,241531.078125,236155.125,228517.359375,216374.1875,235340.1875,197273.46875,224498.96875,722708.0,1.0,2
220583.921875,241673.78125,236563.71875,228565.1875,216741.65625,235578.90625,197544.09375,224678.140625,722709.0,1.0,2
220546.46875,241623.171875,236396.359375,228522.546875,216594.9375,235510.5,197462.5625,224597.046875,722710.0,1.0,2
220503.09375,241458.75,235904.796875,228451.640625,216156.484375,235246.21875,197149.8125,224375.671875,722711.0,1.0,2
220499.4375,241388.21875,235734.921875,228435.828125,216003.25,235122.65625,197017.140625,224298.78125,722712.0,1.0,2
220556.65625,241526.078125,236147.078125,228513.609375,216369.71875,235329.28125,197270.25,224492.609375,722713.0,1.0,2
220589.203125,241672.96875,236564.4375,228569.21875,216743.984375,235574.25,197551.703125,224678.765625,722714.0,1.0,2
220548.421875,241625.140625,236400.015625,228526.390625,216602.8125,235511.9375,197471.328125,224600.078125,722715.0,1.0,2
220485.03125,241441.40625,235891.203125,228440.5625,216152.90625,235233.875,197144.90625,224363.953125,722716.0,1.0,2
220485.21875,241373.453125,235723.828125,228432.875,216003.25,235115.15625,197014.0,224294.046875,722717.0,1.0,2
220552.71875,241521.875,236143.953125,228520.046875,216374.640625,235325.875,197266.046875,224491.0,722718.0,1.0,2
220580.4375,241667.875,236560.328125,228569.671875,216746.125,235563.171875,197542.140625,224675.28125,722719.0,1.0,2
220538.59375,241618.703125,236397.421875,228523.890625,216605.3125,235503.71875,197462.5625,224601.15625,722720.0,1.0,2
220492.28125,241456.15625,235906.140625,228454.328125,216171.234375,235247.734375,197156.703125,224386.3125,722721.0,1.0,2
220484.140625,241382.671875,235724.453125,228428.84375,216006.546875,235119.265625,197018.921875,224302.359375,722722.0,1.0,2
220541.1875,241515.96875,236129.390625,228503.5,216363.90625,235326.0625,197262.375,224488.421875,722723.0,1.0,2
220571.3125,241662.78125,236549.859375,228555.359375,216739.25,235569.515625,197541.0625,224672.140625,722724.0,1.0,2
220532.953125,241612.4375,236393.40625,228512.265625,216605.3125,235513.28125,197467.21875,224593.296875,722725.0,1.0,2
220482.625,241438.453125,235897.1875,228438.328125,216164.359375,235248.71875,197156.796875,224369.140625,722726.0,1.0,2
220483.96875,241367.46875,235721.421875,228429.75,216004.3125,235122.65625,197021.515625,224292.875,722727.0,1.0,2
220555.484375,241516.421875,236136.53125,228517.359375,216367.578125,235331.96875,197265.421875,224484.296875,722728.0,1.0,2
220587.234375,241667.515625,236558.0,228568.765625,216743.796875,235569.515625,197541.859375,224667.046875,722729.0,1.0,2
220541.359375,241615.125,236399.921875,228519.0625,216603.875,235503.796875,197463.015625,224585.6875,722730.0,1.0,2
220483.078125,241437.75,235896.65625,228432.515625,216153.359375,235232.09375,197142.3125,224352.15625,722731.0,1.0,2
220485.84375,241370.78125,235723.125,228423.84375,215992.703125,235111.125,197009.71875,224278.125,722732.0,1.0,2
220541.71875,241502.03125,236120.359375,228495.453125,216341.03125,235308.71875,197247.625,224461.234375,722733.0,1.0,2
220581.234375,241660.453125,236548.609375,228554.28125,216724.140625,235559.6875,197532.03125,224653.453125,722734.0,1.0,2
220547.71875,241614.59375,236404.125,228516.203125,216602.8125,235512.109375,197467.65625,224589.0,722735.0,1.0,2
220488.96875,241442.296875,235907.921875,228437.875,216162.75,235248.8125,197153.03125,224365.125,722736.0,1.0,2
220482.09375,241369.609375,235721.859375,228417.578125,215993.765625,235117.828125,197012.21875,224282.953125,722737.0,1.0,2
220542.703125,241504.078125,236123.75,228498.140625,216350.0625,235313.546875,197252.71875,224469.28125,722738.0,1.0,2
220587.40625,241667.34375,236560.234375,228565.46875,216741.203125,235567.546875,197544.453125,224667.671875,722739.0,1.0,2
220538.0625,241613.96875,236402.15625,228509.40625,216604.234375,235506.65625,197465.609375,224586.140625,722740.0,1.0,2
220481.546875,241438.546875,235899.15625,228429.390625,216155.59375,235236.921875,197144.265625,224357.34375,722741.0,1.0,2
220485.3125,241367.375,235716.953125,228420.4375,215990.375,235114.25,197007.75,224279.296875,722742.0,1.0,2
220550.75,241508.015625,236123.75,228503.953125,216349.25,235320.78125,197253.796875,224470.171875,722743.0,1.0,2
220582.40625,241661.890625,236552.546875,228559.109375,216732.71875,235569.96875,197536.046875,224660.515625,722744.0,1.0,2
220543.15625,241620.21875,236410.03125,228515.65625,216609.78125,235521.6875,197471.234375,224593.109375,722745.0,1.0,2
220485.03125,241439.890625,235906.40625,228430.71875,216162.84375,235251.140625,197152.765625,224363.0625,722746.0,1.0,2
220481.734375,241364.703125,235714.171875,228415.796875,215989.484375,235117.03125,197007.484375,224279.5625,722747.0,1.0,2
220542.796875,241503.375,236114.359375,228495.453125,216344.515625,235316.21875,197251.296875,224467.9375,722748.0,1.0,2
220575.078125,241657.234375,236545.75,228550.265625,216732.265625,235568.796875,197540.171875,224661.5,722749.0,1.0,2
220529.5625,241611.109375,236400.546875,228501.71875,216607.1875,235512.828125,197469.984375,224584.890625,722750.0,1.0,2
220473.421875,241436.484375,235898.890625,228423.3125,216162.390625,235240.859375,197145.078125,224357.96875,722751.0,1.0,2
220469.578125,241358.0,235702.203125,228406.3125,215984.828125,235102.8125,196994.515625,224271.515625,722752.0,1.0,2
220530.015625,241492.1875,236097.46875,228485.0,216335.125,235300.9375,197233.5,224457.21875,722753.0,1.0,2
220570.421875,241648.125,236536.984375,228551.609375,216725.5625,235554.234375,197520.140625,224655.875,722754.0,1.0,2
220535.203125,241604.125,236404.21875,228513.15625,216608.171875,235509.078125,197457.90625,224592.390625,722755.0,1.0,2
220483.421875,241435.0625,235906.21875,228432.328125,216163.8125,235242.640625,197144.71875,224366.546875,722756.0,1.0,2
220478.15625,241359.609375,235703.359375,228412.390625,215980.265625,235103.34375,196995.234375,224276.78125,722757.0,1.0,2
220535.109375,241481.828125,236091.75,228484.015625,216317.59375,235290.828125,197225.8125,224453.640625,722758.0,1.0,2
220579.0,241642.578125,236536.8125,228550.890625,216711.171875,235545.90625,197519.421875,224654.625,722759.0,1.0,2
220544.765625,241611.015625,236410.484375,228513.609375,216600.75,235504.78125,197461.75,224592.65625,722760.0,1.0,2
220484.234375,241437.125,235908.8125,228425.90625,216157.46875,235236.921875,197144.90625,224359.125,722761.0,1.0,2
220480.390625,241359.6875,235708.90625,228412.3125,215980.265625,235102.90625,196997.734375,224272.40625,722762.0,1.0,2
220539.21875,241498.09375,236099.96875,228490.265625,216328.421875,235295.125,197233.859375,224454.0,722763.0,1.0,2
220587.3125,241667.34375,236550.125,228561.703125,216731.015625,235560.671875,197533.640625,224659.265625,722764.0,1.0,2
220542.796875,241626.921875,236418.609375,228516.640625,216617.375,235516.765625,197474.71875,224590.703125,722765.0,1.0,2
220482.453125,241450.265625,235918.921875,228433.859375,216171.59375,235244.4375,197158.40625,224365.84375,722766.0,1.0,2
220480.125,241371.046875,235714.890625,228414.09375,215983.484375,235103.609375,197004.625,224274.46875,722767.0,1.0,2
220548.875,241514.71875,236109.890625,228498.234375,216333.96875,235305.046875,197242.171875,224459.0,722768.0,1.0,2
220590.8125,241675.203125,236554.609375,228563.578125,216729.046875,235556.1875,197533.1875,224659.546875,722769.0,1.0,2
220551.734375,241628.0,236430.328125,228520.046875,216620.875,235516.5,197477.5,224595.96875,722770.0,1.0,2
220491.296875,241451.421875,235926.34375,228435.546875,216174.546875,235248.28125,197155.890625,224360.828125,722771.0,1.0,2
220481.28125,241363.984375,235709.53125,228412.9375,215983.21875,235103.890625,196998.890625,224264.546875,722772.0,1.0,2
220544.5,241498.0,236095.046875,228490.984375,216327.171875,235300.21875,197231.4375,224448.71875,722773.0,1.0,2
220586.6875,241655.8125,236541.90625,228554.90625,216724.140625,235561.203125,197526.9375,224651.84375,722774.0,1.0,2
220547.625,241617.1875,236420.765625,228517.1875,216617.109375,235516.765625,197467.5625,224586.21875,722775.0,1.0,2
220494.875,241451.953125,235932.0625,228442.34375,216182.328125,235256.859375,197158.578125,224367.984375,722776.0,1.0,2
220483.34375,241365.859375,235715.078125,228420.984375,215985.546875,235110.6875,196998.625,224274.203125,722777.0,1.0,2
220535.109375,241488.96875,236087.265625,228489.734375,216314.734375,235293.96875,197220.71875,224447.203125,722778.0,1.0,2
220576.5,241656.25,236535.296875,228556.96875,216714.5625,235549.046875,197519.421875,224654.09375,722779.0,1.0,2
220546.8125,241630.0625,236427.015625,228527.203125,216623.1875,235516.9375,197476.421875,224603.65625,722780.0,1.0,2
220489.6875,241456.703125,235930.8125,228447.359375,216181.515625,235253.28125,197165.015625,224377.8125,722781.0,1.0,2
220475.5625,241362.640625,235704.34375,228415.890625,215973.5625,235102.453125,196998.8125,224272.140625,722782.0,1.0,2
220526.703125,241480.75,236075.375,228479.8125,216299.1875,235285.46875,197218.921875,224438.703125,722783.0,1.0,2
220565.328125,241642.21875,236525.1875,228541.046875,216697.84375,235540.28125,197512.625,224635.75,722784.0,1.0,2
220537.703125,241618.171875,236426.75,228512.984375,216613.359375,235514.625,197472.21875,224586.859375,722785.0,1.0,2
220487.90625,241455.265625,235937.875,228438.421875,216179.640625,235260.4375,197167.078125,224368.078125,722786.0,1.0,2
220486.640625,241373.015625,235719.8125,228423.390625,215980.984375,235116.765625,197011.328125,224273.21875,722787.0,1.0,2
220547.171875,241500.953125,236095.234375,228497.15625,216312.0625,235301.203125,197235.640625,224447.5625,722788.0,1.0,2
220583.46875,241660.09375,236539.84375,228556.96875,216708.484375,235554.859375,197527.5625,224645.6875,722789.0,1.0,2
220542.796875,241625.40625,236426.84375,228516.28125,216613.09375,235517.921875,197477.765625,224588.015625,722790.0,1.0,2
220484.765625,241449.28125,235927.953125,228435.640625,216171.59375,235249.796875,197160.8125,224360.734375,722791.0,1.0,2
220480.125,241362.46875,235703.53125,228417.140625,215968.375,235099.140625,196994.15625,224258.015625,722792.0,1.0,2
220538.953125,241486.734375,236075.109375,228487.953125,216297.578125,235279.921875,197212.40625,224431.1875,722793.0,1.0,2
220586.515625,241644.546875,236532.875,228557.78125,216705.0,235544.75,197511.828125,224641.65625,722794.0,1.0,2
220555.40625,241620.3125,236435.0625,228523.703125,216619.171875,235520.515625,197474.90625,224595.078125,722795.0,1.0,2
220487.71875,241439.890625,235925.359375,228429.828125,216168.5625,235247.109375,197152.5,224359.3125,722796.0,1.0,2
220487.984375,241363.796875,235703.984375,228417.9375,215972.671875,235103.53125,196997.203125,224267.578125,722797.0,1.0,2
220542.703125,241490.9375,236075.375,228491.515625,216302.84375,235287.078125,197220.453125,224441.828125,722798.0,1.0,2
220576.5,241649.90625,236522.421875,228546.234375,216700.984375,235541.53125,197510.484375,224640.3125,722799.0,1.0,2
220544.046875,241623.171875,236425.234375,228512.09375,216616.125,235513.546875,197470.421875,224592.3125,722800.0,1.0,2
220481.46875,241446.59375,235925.359375,228428.046875,216169.90625,235240.140625,197148.296875,224361.71875,722801.0,1.0,2
220472.078125,241354.6875,235693.171875,228402.734375,215962.03125,235086.359375,196983.34375,224262.125,722802.0,1.0,2
220538.953125,241486.734375,236069.921875,228486.515625,216299.09375,235278.140625,197216.0625,224445.40625,722803.0,1.0,2
220577.21875,241645.078125,236519.5625,228548.46875,216700.265625,235535.359375,197511.375,224648.71875,722804.0,1.0,2
220543.421875,241618.171875,236424.96875,228512.171875,216617.375,235510.421875,197475.078125,224599.8125,722805.0,1.0,2
220494.6875,241455.625,235937.0625,228440.296875,216180.546875,235251.5,197167.703125,224377.90625,722806.0,1.0,2
220490.9375,241372.828125,235707.109375,228423.21875,215971.234375,235105.859375,197002.109375,224278.671875,722807.0,1.0,2
220541.90625,241486.5625,236065.375,228487.40625,216286.75,235276.53125,197211.421875,224439.15625,722808.0,1.0,2
220579.359375,241643.734375,236514.375,228542.484375,216688.546875,235530.71875,197502.703125,224632.1875,722809.0,1.0,2
220555.40625,241627.546875,236434.890625,228519.421875,216622.65625,235518.90625,197476.6875,224596.859375,722810.0,1.0,2
220498.453125,241459.640625,235947.625,228439.578125,216189.75,235257.125,197170.46875,224377.1875,722811.0,1.0,2
220485.484375,241366.125,235706.84375,228413.828125,215976.609375,235100.75,196996.84375,224271.875,722812.0,1.0,2
220542.96875,241483.609375,236068.3125,228487.046875,216299.453125,235279.5625,197213.203125,224439.328125,722813.0,1.0,2
220589.734375,241650.71875,236532.421875,228559.46875,216714.75,235544.390625,197520.234375,224650.6875,722814.0,1.0,2
220557.8125,241635.78125,236448.390625,228530.140625,216643.21875,235524.453125,197491.53125,224608.21875,722815.0,1.0,2
220491.921875,241454.828125,235947.265625,228441.8125,216195.296875,235252.390625,197171.09375,224371.46875,722816.0,1.0,2
220488.609375,241364.25,235709.078125,228423.03125,215980.984375,235097.984375,197002.828125,224268.46875,722817.0,1.0,2
220554.78125,241490.40625,236074.484375,228501.359375,216306.421875,235280.90625,197224.828125,224445.140625,722818.0,1.0,2
220600.015625,241653.03125,236533.953125,228566.53125,216712.953125,235542.15625,197524.796875,224650.15625,722819.0,1.0,2
220572.484375,241637.203125,236455.453125,228534.53125,216644.296875,235526.421875,197497.96875,224610.359375,722820.0,1.0,2
220503.28125,241458.84375,235953.15625,228441.984375,216194.84375,235250.6875,197175.46875,224374.515625,722821.0,1.0,2
220488.609375,241364.703125,235703.984375,228411.953125,215970.078125,235089.765625,196998.71875,224262.578125,722822.0,1.0,2
220553.703125,241492.109375,236066.0,228490.359375,216291.21875,235271.078125,197217.59375,224436.734375,722823.0,1.0,2
220596.96875,241659.390625,236527.875,228559.828125,216704.640625,235537.234375,197524.078125,224647.015625,722824.0,1.0,2
220561.578125,241634.796875,236447.40625,228521.03125,216635.984375,235521.234375,197498.40625,224601.609375,722825.0,1.0,2
220507.03125,241470.28125,235960.140625,228443.421875,216200.484375,235266.25,197190.3125,224377.90625,722826.0,1.0,2
220500.6875,241383.5625,235715.609375,228424.203125,215979.546875,235105.140625,197016.78125,224274.109375,722827.0,1.0,2
220553.078125,241499.34375,236066.890625,228493.9375,216290.78125,235273.84375,197227.15625,224439.59375,722828.0,1.0,2
220588.84375,241656.4375,236524.46875,228553.84375,216698.75,235537.6875,197524.078125,224644.34375,722829.0,1.0,2
220560.59375,241638.109375,236449.734375,228524.6875,216637.40625,235527.859375,197502.53125,224608.84375,722830.0,1.0,2
220502.203125,241466.265625,235958.53125,228443.421875,216200.75,235267.859375,197193.625,224382.828125,722831.0,1.0,2
220499.078125,241375.6875,235714.171875,228427.0625,215982.328125,235112.734375,197020.265625,224278.578125,722832.0,1.0,2
220546.28125,241485.578125,236055.078125,228487.859375,216281.921875,235275.09375,197219.203125,224433.78125,722833.0,1.0,2
220586.15625,241650.890625,236514.1875,228554.109375,216691.140625,235539.203125,197521.296875,224641.65625,722834.0,1.0,2
220550.125,241628.890625,236440.25,228520.21875,216630.078125,235525.078125,197499.9375,224602.765625,722835.0,1.0,2
220491.828125,241459.015625,235949.859375,228436.625,216194.390625,235264.90625,197191.390625,224379.703125,722836.0,1.0,2
220482.984375,241363.890625,235698.171875,228412.75,215967.75,235100.578125,197007.75,224265.34375,722837.0,1.0,2
220543.6875,241484.5,236051.0625,228486.609375,216280.046875,235268.390625,197211.78125,224427.890625,722838.0,1.0,2
220593.046875,241656.875,236521.609375,228557.421875,216697.84375,235535.625,197517.09375,224636.5625,722839.0,1.0,2
220574.53125,241651.609375,236464.84375,228538.640625,216650.28125,235537.953125,197505.75,224611.265625,722840.0,1.0,2
220513.921875,241478.609375,235973.90625,228454.859375,216213.4375,235277.875,197195.40625,224388.1875,722841.0,1.0,2
220498.53125,241377.03125,235712.390625,228424.46875,215977.046875,235110.328125,197010.875,224271.25,722842.0,1.0,2
220547.0,241486.109375,236051.6875,228489.828125,216276.46875,235271.703125,197213.109375,224431.28125,722843.0,1.0,2
220590.1875,241662.15625,236518.484375,228558.3125,216692.9375,235536.875,197520.234375,224645.953125,722844.0,1.0,2
220557.28125,241632.296875,236454.90625,228528.09375,216638.390625,235527.578125,197499.84375,224615.734375,722845.0,1.0,2
220493.265625,241454.828125,235959.234375,228440.65625,216195.296875,235262.5,197185.765625,224386.671875,722846.0,1.0,2
220484.234375,241360.3125,235695.578125,228413.109375,215959.078125,235093.515625,197000.15625,224269.71875,722847.0,1.0,2
220535.828125,241472.515625,236033.453125,228473.90625,216256.796875,235256.0625,197198.90625,224425.46875,722848.0,1.0,2
220583.390625,241642.578125,236506.046875,228544.625,216675.40625,235523.109375,197503.0625,224636.03125,722849.0,1.0,2
220562.203125,241636.3125,236456.171875,228524.25,216633.03125,235525.703125,197491.890625,224608.578125,722850.0,1.0,2
220496.921875,241459.109375,235961.03125,228438.328125,216194.21875,235264.546875,197178.6875,224375.3125,722851.0,1.0,2
220490.21875,241363.359375,235698.796875,228414.984375,215961.5,235097.453125,196993.359375,224259.171875,722852.0,1.0,2
220544.046875,241477.796875,236036.75,228480.53125,216261.453125,235254.71875,197189.609375,224416.796875,722853.0,1.0,2
220589.828125,241648.5625,236509.8125,228549.453125,216683.359375,235525.078125,197502.53125,224633.609375,722854.0,1.0,2
220565.59375,241637.75,236458.046875,228526.484375,216640.359375,235524.71875,197494.296875,224606.515625,722855.0,1.0,2
220507.65625,241471.625,235972.921875,228446.640625,216209.59375,235267.328125,197189.515625,224385.6875,722856.0,1.0,2
220493.171875,241368.09375,235703.890625,228416.15625,215966.40625,235095.5625,196999.34375,224266.0625,722857.0,1.0,2
220549.40625,241480.390625,236044.359375,228484.90625,216265.828125,235256.234375,197195.859375,224424.046875,722858.0,1.0,2
220598.3125,241656.25,236522.5,228559.65625,216694.71875,235531.609375,197499.125,224643.453125,722859.0,1.0,2
220568.90625,241640.78125,236472.4375,228533.984375,216655.203125,235533.125,197484.28125,224619.3125,722860.0,1.0,2
220504.171875,241463.3125,235980.609375,228444.9375,216215.59375,235272.78125,197167.875,224388.09375,722861.0,1.0,2
220494.6875,241369.96875,235714.4375,228417.046875,215974.546875,235101.109375,196979.140625,224271.15625,722862.0,1.0,2
220552.265625,241486.5625,236052.140625,228489.015625,216273.703125,235262.046875,197180.9375,224432.171875,722863.0,1.0,2
220590.8125,241651.15625,236518.296875,228554.203125,216691.953125,235525.96875,197485.09375,224641.125,722864.0,1.0,2
220557.90625,241637.5625,236464.5625,228523.0,216652.15625,235530.171875,197479.109375,224615.46875,722865.0,1.0,2
220502.03125,241473.421875,235979.625,228441.546875,216220.59375,235277.953125,197176.734375,224394.453125,722866.0,1.0,2
220496.484375,241376.328125,235714.171875,228422.5,215980.0,235107.640625,196986.109375,224279.109375,722867.0,1.0,2
220552.1875,241484.859375,236044.359375,228487.140625,216269.40625,235260.890625,197177.53125,224431.46875,722868.0,1.0,2
220595.546875,241648.828125,236516.609375,228553.484375,216687.484375,235523.375,197484.015625,224641.484375,722869.0,1.0,2
220561.75,241633.984375,236470.203125,228524.25,216647.78125,235521.953125,197475.609375,224614.296875,722870.0,1.0,2
220497.203125,241461.4375,235979.71875,228438.6875,216215.046875,235266.78125,197171.28125,224389.0,722871.0,1.0,2
220490.9375,241371.046875,235708.90625,228416.0625,215972.578125,235100.125,196984.234375,224268.5625,722872.0,1.0,2
220548.078125,241476.640625,236039.171875,228485.984375,216265.5625,235259.90625,197182.09375,224421.890625,722873.0,1.0,2
220593.3125,241641.140625,236513.296875,228556.703125,216689.09375,235527.859375,197493.40625,224638.53125,722874.0,1.0,2
220562.90625,241636.140625,236474.40625,228528.53125,216660.828125,235534.46875,197491.0,224613.5,722875.0,1.0,2
220522.671875,241487.0,236008.140625,228462.5625,216248.9375,235295.3125,197202.65625,224407.859375,722876.0,1.0,2
220492.546875,241368.984375,235713.546875,228418.390625,215979.734375,235103.53125,196989.859375,224267.9375,722877.0,1.0,2
220539.125,241472.078125,236034.609375,228478.828125,216261.90625,235253.46875,197176.1875,224413.40625,722878.0,1.0,2
220588.296875,241645.703125,236512.84375,228550.265625,216689.625,235525.078125,197490.1875,224629.953125,722879.0,1.0,2
220565.953125,241647.046875,236482.0,228529.078125,216666.734375,235536.25,197495.015625,224613.671875,722880.0,1.0,2
220508.28125,241479.5,235999.828125,228449.6875,216238.5625,235282.609375,197195.765625,224397.125,722881.0,1.0,2
220486.734375,241366.390625,235709.078125,228411.328125,215974.015625,235097.171875,196991.5625,224267.84375,722882.0,1.0,2
220538.421875,241472.703125,236029.875,228474.71875,216257.78125,235246.3125,197179.40625,224419.21875,722883.0,1.0,2
220580.703125,241641.6875,236504.4375,228540.703125,216681.3125,235510.859375,197483.296875,224630.84375,722884.0,1.0,2
220552.546875,241635.953125,236472.609375,228515.84375,216653.328125,235520.25,197483.9375,224611.34375,722885.0,1.0,2
220494.78125,241468.859375,235989.375,228434.84375,216223.09375,235266.25,197180.9375,224387.296875,722886.0,1.0,2
220482.984375,241360.859375,235702.015625,228408.015625,215966.234375,235089.40625,196982.171875,224260.96875,722887.0,1.0,2
220539.578125,241467.609375,236023.703125,228477.21875,216250.09375,235245.140625,197171.984375,224413.140625,722888.0,1.0,2
220592.421875,241638.734375,236507.125,228554.015625,216681.3125,235518.375,197487.0625,224634.421875,722889.0,1.0,2
220569.078125,241639.984375,236485.40625,228534.4375,216667.09375,235537.0625,197500.375,224625.46875,722890.0,1.0,2
220497.28125,241462.421875,235995.546875,228435.734375,216231.765625,235277.78125,197193.265625,224399.546875,722891.0,1.0,2
220484.5,241353.515625,235708.1875,228407.84375,215971.59375,235095.484375,196991.46875,224270.890625,722892.0,1.0,2
220544.859375,241467.34375,236032.5625,228482.140625,216258.765625,235250.25,197186.296875,224428.78125,722893.0,1.0,2
220593.484375,241638.28125,236515.359375,228555.09375,216686.578125,235518.90625,197499.046875,224648.09375,722894.0,1.0,2
220565.5,241635.59375,236491.65625,228530.234375,216669.6875,235534.828125,197506.8125,224633.171875,722895.0,1.0,2
220515.171875,241478.78125,236021.828125,228461.125,216255.46875,235294.671875,197220.359375,224428.609375,722896.0,1.0,2
220484.328125,241352.890625,235711.765625,228414.1875,215974.09375,235091.71875,196998.8125,224283.765625,722897.0,1.0,2
220535.640625,241452.578125,236022.984375,228476.5,216246.96875,235233.796875,197174.765625,224426.453125,722898.0,1.0,2
220585.703125,241625.859375,236509.0,228550.625,216680.6875,235509.4375,197492.421875,224649.171875,722899.0,1.0,2
220565.5,241636.5,236497.03125,228535.6875,216675.5,235534.5625,197511.015625,224643.625,722900.0,1.0,2
220509.625,241472.875,236019.5,228457.09375,216249.375,235286.453125,197211.59375,224424.578125,722901.0,1.0,2
220502.734375,241369.96875,235730.09375,228430.546875,215988.140625,235113.625,197011.765625,224298.609375,722902.0,1.0,2
220540.296875,241460.90625,236026.203125,228476.5,216249.46875,235250.15625,197180.484375,224431.90625,722903.0,1.0,2
220596.171875,241642.578125,236516.78125,228557.328125,216689.984375,235531.515625,197506.015625,224661.0625,722904.0,1.0,2
220572.921875,241645.890625,236503.46875,228537.296875,216685.515625,235555.5625,197523.1875,224653.640625,722905.0,1.0,2
220503.28125,241469.03125,236013.328125,228443.6875,216250.71875,235294.5,197211.5,224422.25,722906.0,1.0,2
220479.671875,241350.578125,235706.84375,228403.546875,215974.1875,235104.515625,196995.953125,224281.890625,722907.0,1.0,2
220534.296875,241458.125,236015.84375,228467.828125,216246.609375,235248.90625,197175.203125,224427.96875,722908.0,1.0,2
220585.4375,241631.671875,236502.125,228542.84375,216680.59375,235522.21875,197492.875,224648.0,722909.0,1.0,2
220559.0625,241627.015625,236490.234375,228521.75,216673.078125,235543.953125,197510.3125,224638.4375,722910.0,1.0,2
220494.515625,241457.765625,236008.328125,228437.15625,216244.109375,235291.015625,197209.265625,224414.125,722911.0,1.0,2
220486.828125,241353.796875,235713.734375,228411.59375,215980.453125,235112.015625,197008.109375,224286.984375,722912.0,1.0,2
220541.453125,241459.203125,236018.421875,228476.328125,216245.453125,235251.578125,197181.5625,224427.53125,722913.0,1.0,2
220581.421875,241623.890625,236495.59375,228540.609375,216666.734375,235515.515625,197486.34375,224637.1875,722914.0,1.0,2
220559.25,241633.71875,236492.734375,228519.5,216668.25,235542.609375,197509.046875,224630.21875,722915.0,1.0,2
220506.140625,241476.1875,236022.09375,228444.578125,216248.125,235300.671875,197217.3125,224416.0,722916.0,1.0,2
220484.59375,241357.546875,235710.59375,228407.484375,215967.921875,235107.375,196998.8125,224274.828125,722917.0,1.0,2
220534.03125,241450.96875,236008.6875,228465.0625,216229.265625,235241.125,197168.0625,224412.953125,722918.0,1.0,2
220584.375,241622.734375,236496.046875,228538.640625,216664.765625,235512.296875,197486.078125,224635.40625,722919.0,1.0,2
220568.71875,241634.96875,236498.984375,228528.359375,216672.8125,235539.203125,197509.671875,224632.625,722920.0,1.0,2
220496.75,241457.6875,236011.71875,228435.46875,216238.65625,235277.6875,197201.21875,224399.71875,722921.0,1.0,2
220487.8125,241354.0625,235713.8125,228408.640625,215969.53125,235097.53125,196994.34375,224269.71875,722922.0,1.0,2
220551.296875,241466.4375,236023.96875,228484.640625,216245.984375,235252.125,197178.25,224421.265625,722923.0,1.0,2
220584.375,241625.234375,236494.515625,228545.609375,216665.21875,235512.109375,197481.34375,224631.90625,722924.0,1.0,2
220559.328125,241631.578125,236493.453125,228525.140625,216665.84375,235540.09375,197507.890625,224629.953125,722925.0,1.0,2
220500.78125,241472.875,236018.609375,228441.546875,216242.5,235293.78125,197212.21875,224408.578125,722926.0,1.0,2
220480.484375,241352.53125,235705.5,228405.421875,215960.234375,235104.0625,196995.046875,224268.734375,722927.0,1.0,2
220541.1875,241456.15625,236005.203125,228470.0625,216224.171875,235247.46875,197173.59375,224413.578125,722928.0,1.0,2
220589.015625,241624.0625,236488.078125,228537.921875,216650.28125,235513.90625,197480.890625,224629.140625,722929.0,1.0,2
220560.046875,241622.90625,236486.75,228515.125,216653.328125,235537.6875,197497.703125,224622.25,722930.0,1.0,2
220508.1875,241468.328125,236024.6875,228443.25,216243.65625,235302.375,197211.59375,224414.390625,722931.0,1.0,2
220486.734375,241354.5,235710.421875,228404.0,215959.796875,235110.234375,196992.546875,224271.6875,722932.0,1.0,2
220550.125,241463.671875,236013.328125,228479.359375,216231.59375,235257.84375,197172.890625,224422.34375,722933.0,1.0,2
220604.046875,241644.09375,236504.359375,228560.09375,216667.1875,235532.765625,197487.78125,224641.125,722934.0,1.0,2
220572.5625,241643.203125,236504.171875,228533.09375,216670.125,235552.96875,197507.53125,224632.1875,722935.0,1.0,2
220508.1875,241473.78125,236028.4375,228444.5,216248.40625,235303.171875,197210.171875,224412.234375,722936.0,1.0,2
220500.953125,241376.046875,235723.390625,228421.515625,215973.390625,235119.625,197001.046875,224280.984375,722937.0,1.0,2
220544.765625,241460.453125,236005.28125,228474.453125,216221.125,235249.078125,197163.3125,224409.375,722938.0,1.0,2
220595.546875,241632.734375,236496.9375,228549.375,216656.90625,235520.515625,197475.25,224627.359375,722939.0,1.0,2
220578.109375,241646.953125,236512.140625,228538.28125,216672.453125,235552.171875,197505.125,224627.984375,722940.0,1.0,2
220518.75,241485.9375,236041.234375,228457.28125,216253.234375,235305.859375,197212.765625,224414.125,722941.0,1.0,2
220491.296875,241361.03125,235712.484375,228412.484375,215961.5,235107.375,196987.453125,224269.640625,722942.0,1.0,2
220535.828125,241449.015625,235989.28125,228465.0625,216208.078125,235237.640625,197148.75,224398.109375,722943.0,1.0,2
220592.859375,241631.671875,236487.09375,228545.609375,216654.484375,235524.90625,197477.765625,224629.859375,722944.0,1.0,2
220572.390625,241645.96875,236505.875,228530.234375,216677.375,235562.28125,197514.5,224632.453125,722945.0,1.0,2
220509.09375,241480.484375,236032.5625,228445.390625,216256.171875,235309.96875,197214.28125,224410.546875,722946.0,1.0,2
220487.71875,241361.84375,235710.59375,228409.625,215968.5625,235111.578125,196990.84375,224269.90625,722947.0,1.0,2
220538.6875,241454.28125,235994.46875,228471.140625,216218.984375,235238.984375,197153.21875,224405.796875,722948.0,1.0,2
220592.328125,241632.921875,236489.78125,228547.578125,216658.515625,235515.96875,197472.75,224629.765625,722949.0,1.0,2
220571.140625,241645.96875,236506.765625,228528.71875,216676.5625,235552.171875,197508.96875,224631.375,722950.0,1.0,2
220509.625,241478.78125,236035.140625,228442.703125,216257.34375,235301.109375,197211.15625,224411.25,722951.0,1.0,2
220492.28125,241359.875,235710.6875,228406.140625,215964.71875,235100.484375,196983.96875,224265.34375,722952.0,1.0,2
220541.90625,241453.484375,235988.03125,228463.625,216208.25,235224.859375,197140.703125,224393.46875,722953.0,1.0,2
220596.796875,241634.53125,236485.765625,228539.09375,216651.71875,235506.484375,197463.453125,224621.0,722954.0,1.0,2
220580.078125,241651.34375,236516.875,228527.546875,216680.6875,235551.09375,197507.171875,224631.109375,722955.0,1.0,2
220519.375,241495.328125,236051.234375,228449.953125,216267.984375,235310.0625,197215.984375,224418.140625,722956.0,1.0,2
220494.421875,241362.46875,235719.1875,228410.78125,215972.671875,235110.6875,196990.84375,224274.375,722957.0,1.0,2
220549.859375,241456.34375,235997.421875,228472.21875,216217.90625,235239.15625,197152.5,224404.546875,722958.0,1.0,2
220602.25,241634.265625,236490.140625,228549.015625,216655.828125,235515.96875,197471.765625,224627.53125,722959.0,1.0,2
220577.03125,241646.421875,236513.125,228530.328125,216680.765625,235553.25,197509.59375,224632.53125,722960.0,1.0,2
220513.5625,241483.15625,236043.90625,228444.3125,216264.765625,235307.015625,197218.75,224413.84375,722961.0,1.0,2
220491.5625,241362.375,235713.90625,228405.953125,215969.890625,235106.390625,196994.421875,224267.671875,722962.0,1.0,2
220531.625,241447.40625,235979.53125,228459.96875,216205.21875,235224.234375,197144.71875,224390.609375,722963.0,1.0,2
220584.28125,241624.0625,236476.375,228538.015625,216644.109375,235506.578125,197469.171875,224618.59375,722964.0,1.0,2
220567.296875,241644.984375,236510.4375,228526.921875,216674.25,235555.03125,197516.828125,224628.6875,722965.0,1.0,2
220502.296875,241473.5,236041.140625,228444.671875,216257.421875,235309.15625,197223.84375,224412.234375,722966.0,1.0,2
220482.53125,241352.1875,235708.453125,228403.375,215960.234375,235107.1875,196992.90625,224266.5,722967.0,1.0,2
220529.828125,241440.78125,235975.15625,228460.765625,216196.8125,235223.78125,197142.9375,224391.234375,722968.0,1.0,2
220576.328125,241611.28125,236467.34375,228533.453125,216633.46875,235496.921875,197458.453125,224610.28125,722969.0,1.0,2
220565.234375,241638.109375,236512.40625,228526.84375,216675.859375,235547.4375,197510.9375,224629.046875,722970.0,1.0,2
220507.65625,241478.0625,236049.09375,228447.796875,216263.953125,235308.265625,197223.671875,224419.921875,722971.0,1.0,2
220487.1875,241358.703125,235715.15625,228412.046875,215963.375,235106.296875,196997.375,224276.25,722972.0,1.0,2
220540.375,241456.34375,235988.484375,228477.046875,216205.21875,235232.90625,197155.984375,224406.515625,722973.0,1.0,2
220590.265625,241631.578125,236483.875,228549.8125,216647.515625,235504.703125,197472.9375,224631.640625,722974.0,1.0,2
220555.3125,241634.34375,236508.828125,228517.8125,216673.890625,235536.703125,197506.640625,224629.859375,722975.0,1.0,2
220497.375,241476.546875,236047.21875,228434.390625,216262.703125,235295.84375,197221.609375,224412.234375,722976.0,1.0,2
220478.421875,241355.9375,235706.84375,228394.25,215958.71875,235093.6875,196993.359375,224262.484375,722977.0,1.0,2
220526.171875,241448.296875,235971.3125,228455.484375,216192.078125,235216.53125,197144.625,224388.8125,722978.0,1.0,2
220579.359375,241633.28125,236472.796875,228532.46875,216635.53125,235496.109375,197464.53125,224616.0,722979.0,1.0,2
220564.875,241648.921875,236521.609375,228524.96875,216683.71875,235550.734375,197516.75,224635.125,722980.0,1.0,2
220502.46875,241480.75,236056.25,228442.625,216269.859375,235308.09375,197225.90625,224418.3125,722981.0,1.0,2
220475.828125,241353.171875,235706.3125,228397.203125,215954.34375,235093.953125,196983.078125,224258.109375,722982.0,1.0,2
220527.328125,241441.671875,235968.984375,228459.96875,216185.640625,235212.0625,197133.546875,224386.765625,722983.0,1.0,2
220575.515625,241610.03125,236462.515625,228531.75,216620.15625,235483.5,197448.96875,224606.703125,722984.0,1.0,2
220562.375,241638.640625,236514.734375,228520.40625,216666.28125,235540.015625,197505.390625,224624.3125,722985.0,1.0,2
220499.34375,241479.765625,236051.6875,228435.203125,216258.140625,235300.671875,197217.140625,224410.453125,722986.0,1.0,2
220470.734375,241348.25,235701.21875,228389.15625,215947.28125,235089.046875,196977.96875,224252.734375,722987.0,1.0,2
220527.15625,241441.953125,235968.453125,228457.546875,216184.65625,235215.46875,197134.265625,224383.625,722988.0,1.0,2
220585.703125,241627.203125,236472.4375,228538.015625,216635.625,235497.90625,197458.984375,224614.484375,722989.0,1.0,2
220556.390625,241634.703125,236512.3125,228512.09375,216674.515625,235537.59375,197502.890625,224620.734375,722990.0,1.0,2
220494.6875,241472.078125,236053.203125,228432.421875,216264.3125,235297.71875,197215.796875,224408.65625,722991.0,1.0,2
220481.109375,241354.0625,235712.921875,228398.359375,215955.953125,235092.796875,196980.484375,224256.21875,722992.0,1.0,2
220536.09375,241443.640625,235972.390625,228462.828125,216185.28125,235213.234375,197129.15625,224380.140625,722993.0,1.0,2
220580.4375,241613.15625,236462.953125,228533.09375,216624.53125,235484.40625,197449.15625,224601.0625,722994.0,1.0,2
220558.796875,241637.203125,236515.171875,228516.203125,216676.5625,235536.703125,197507.625,224620.296875,722995.0,1.0,2
220498.71875,241479.671875,236059.015625,228437.703125,216272.890625,235300.671875,197225.0,224408.9375,722996.0,1.0,2
220479.3125,241358.171875,235713.109375,228401.3125,215964.890625,235095.390625,196992.015625,224258.546875,722997.0,1.0,2
220515.703125,241424.875,235948.6875,228447.625,216171.6875,235191.859375,197119.328125,224367.265625,722998.0,1.0,2
220576.328125,241602.515625,236455.09375,228531.484375,216619.265625,235470.8125,197443.96875,224600.0,722999.0,1.0,2
220568.015625,241643.640625,236523.125,228530.859375,216684.34375,235536.796875,197510.3125,224627.984375,723000.0,1.0,2
220507.921875,241482.0,236068.59375,228449.40625,216281.75,235304.78125,197229.296875,224422.34375,723001.0,1.0,2
220473.953125,241341.0,235702.375,228396.3125,215953.984375,235085.109375,196977.703125,224258.28125,723002.0,1.0,2
220530.640625,241431.390625,235956.015625,228463.984375,216179.90625,235201.515625,197125.859375,224383.71875,723003.0,1.0,2
220579.0,241609.3125,236455.1875,228537.921875,216624.71875,235481.359375,197446.015625,224609.03125,723004.0,1.0,2
220552.09375,241630.953125,236511.0625,228519.6875,216676.390625,235536.25,197503.875,224624.578125,723005.0,1.0,2
220498.453125,241483.25,236061.609375,228436.71875,216275.84375,235303.703125,197227.328125,224414.46875,723006.0,1.0,2
220475.5625,241353.875,235705.328125,228393.796875,215955.234375,235084.03125,196978.875,224252.734375,723007.0,1.0,2
220516.234375,241422.546875,235941.265625,228447.71875,216162.65625,235185.15625,197105.5625,224362.171875,723008.0,1.0,2
220573.8125,241607.4375,236449.8125,228534.703125,216616.84375,235470.359375,197433.421875,224598.5625,723009.0,1.0,2
220555.9375,241639.71875,236518.921875,228521.65625,216683.453125,235535.8125,197501.90625,224627.53125,723010.0,1.0,2
220496.125,241478.875,236065.28125,228439.671875,216282.375,235303.0,197225.8125,224418.234375,723011.0,1.0,2
220468.671875,241344.21875,235700.9375,228393.171875,215957.5625,235085.46875,196979.859375,224254.078125,723012.0,1.0,2
220519.453125,241430.40625,235940.828125,228452.09375,216170.703125,235193.109375,197117.625,224370.671875,723013.0,1.0,2
220573.015625,241607.703125,236443.296875,228529.078125,216618.453125,235473.3125,197439.9375,224597.578125,723014.0,1.0,2
220559.6875,241636.5,236521.515625,228524.78125,216692.21875,235543.40625,197511.109375,224632.53125,723015.0,1.0,2
220492.109375,241480.21875,236063.578125,228436.625,216286.9375,235289.671875,197224.921875,224421.71875,723016.0,1.0,2
220466.359375,241347.796875,235699.515625,228391.75,215961.40625,235045.5,196981.546875,224261.328125,723017.0,1.0,2
220520.171875,241427.28125,235942.796875,228456.5625,216174.734375,235159.859375,197123.359375,224379.609375,723018.0,1.0,2
220567.734375,241599.21875,236440.4375,228525.40625,216611.578125,235444.171875,197437.96875,224598.125,723019.0,1.0,2
220543.59375,241621.828125,236511.78125,228511.8125,216676.390625,235513.28125,197501.453125,224622.34375,723020.0,1.0,2
220482.171875,241464.921875,236062.5,228430.90625,216277.546875,235287.265625,197224.65625,224417.25,723021.0,1.0,2
220461.078125,241333.234375,235700.40625,228387.8125,215952.375,235075.1875,196978.25,224256.671875,723022.0,1.0,2
220517.140625,241417.890625,235937.0625,228451.109375,216164.171875,235180.6875,197110.03125,224372.546875,723023.0,1.0,2
220569.625,241597.78125,236436.671875,228525.3125,216611.65625,235456.0625,197427.421875,224596.421875,723024.0,1.0,2
220569.171875,241643.46875,236533.328125,228530.59375,216701.328125,235541.703125,197513.609375,224638.625,723025.0,1.0,2
220507.484375,241484.859375,236085.21875,228446.90625,216303.46875,235309.875,197234.84375,224428.875,723026.0,1.0,2
220476.09375,241349.3125,235712.828125,228397.203125,215969.984375,235087.4375,196981.546875,224260.25,723027.0,1.0,2
220524.015625,241427.8125,235944.3125,228455.046875,216177.671875,235191.234375,197114.234375,224376.5625,723028.0,1.0,2
220580.34375,241608.875,236449.640625,228536.046875,216629.0,235470.984375,197439.140625,224608.125,723029.0,1.0,2
220569.796875,241647.671875,236541.734375,228533.28125,216711.796875,235548.78125,197524.4375,224647.921875,723030.0,1.0,2
220502.03125,241488.078125,236091.03125,228447.890625,216311.25,235316.671875,197250.046875,224439.78125,723031.0,1.0,2
220476.984375,241352.71875,235720.25,228403.453125,215979.46875,235101.5625,197001.046875,224276.609375,723032.0,1.0,2
220522.40625,241424.953125,235941.0,228455.140625,216173.125,235191.6875,197119.234375,224380.953125,723033.0,1.0,2
220569.703125,241595.640625,236433.8125,228525.671875,216613.625,235461.0625,197432.25,224599.28125,723034.0,1.0,2
220562.90625,241641.0625,236529.03125,228528.359375,216700.703125,235540.734375,197520.671875,224637.546875,723035.0,1.0,2
220506.5,241491.296875,236087.265625,228450.390625,216307.859375,235311.84375,197250.40625,224433.96875,723036.0,1.0,2
220476.71875,241353.078125,235712.03125,228400.234375,215969.984375,235084.21875,196993.265625,224263.28125,723037.0,1.0,2
220519.734375,241421.65625,235930.1875,228452.28125,216160.421875,235176.84375,197110.125,224365.484375,723038.0,1.0,2
220578.46875,241608.15625,236436.859375,228532.109375,216611.75,235458.734375,197435.296875,224597.484375,723039.0,1.0,2
220572.390625,241657.421875,236537.609375,228532.203125,216707.859375,235542.25,197522.375,224641.484375,723040.0,1.0,2
220509.09375,241499.53125,236093.984375,228449.5,216311.96875,235311.84375,197246.546875,224433.078125,723041.0,1.0,2
220489.421875,241370.15625,235725.796875,228407.296875,215982.40625,235097.53125,197001.578125,224275.359375,723042.0,1.0,2
220531.53125,241440.421875,235940.203125,228454.15625,216171.859375,235188.015625,197118.34375,224378.53125,723043.0,1.0,2
220587.859375,241614.328125,236442.84375,228535.6875,216619.609375,235463.65625,197437.703125,224606.25,723044.0,1.0,2
220570.875,241648.5625,236535.296875,228527.640625,216704.203125,235531.609375,197514.5,224636.921875,723045.0,1.0,2
220513.203125,241496.578125,236096.03125,228451.296875,216312.859375,235307.828125,197241.90625,224430.75,723046.0,1.0,2
220488.4375,241363.0,235719.0,228406.3125,215977.40625,235088.234375,196991.65625,224262.390625,723047.0,1.0,2
220528.84375,241429.515625,235930.625,228455.671875,216165.78125,235180.6875,197110.484375,224367.171875,723048.0,1.0,2
220588.03125,241613.078125,236441.765625,228539.796875,216622.484375,235469.109375,197442.171875,224606.34375,723049.0,1.0,2
220566.9375,241655.453125,236537.796875,228529.515625,216712.78125,235549.578125,197528.546875,224643.890625,723050.0,1.0,2
220504.625,241507.578125,236098.984375,228448.078125,216324.578125,235326.234375,197262.46875,224442.546875,723051.0,1.0,2
220473.140625,241363.453125,235713.109375,228396.9375,215979.28125,235095.125,197002.296875,224271.15625,723052.0,1.0,2
220511.234375,241427.546875,235916.6875,228443.875,216159.703125,235177.90625,197113.875,224368.4375,723053.0,1.0,2
220574.265625,241610.75,236428.359375,228529.078125,216612.640625,235460.703125,197443.34375,224601.25,723054.0,1.0,2
220564.15625,241648.03125,236537.4375,228525.40625,216709.5625,235540.09375,197531.140625,224644.15625,723055.0,1.0,2
220500.59375,241498.359375,236100.765625,228445.65625,216320.734375,235314.96875,197260.765625,224443.984375,723056.0,1.0,2
220482.890625,241372.203125,235726.515625,228408.375,215985.453125,235098.15625,197011.6875,224282.515625,723057.0,1.0,2
220528.765625,241442.484375,235932.328125,228460.140625,216167.9375,235186.3125,197124.78125,224384.34375,723058.0,1.0,2
220573.640625,241606.8125,236425.953125,228530.328125,216606.828125,235453.203125,197437.34375,224603.125,723059.0,1.0,2
220560.859375,241651.15625,236535.640625,228527.640625,216711.890625,235540.734375,197532.296875,224649.796875,723060.0,1.0,2
220498.984375,241500.421875,236102.375,228447.796875,216327.078125,235321.40625,197264.078125,224445.859375,723061.0,1.0,2
220469.390625,241358.703125,235718.203125,228399.703125,215980.453125,235095.484375,197002.65625,224273.65625,723062.0,1.0,2
220507.75,241419.140625,235917.046875,228447.890625,216154.171875,235175.59375,197110.03125,224367.8125,723063.0,1.0,2
220569.078125,241604.125,236424.78125,228531.3125,216606.5625,235456.140625,197435.296875,224602.234375,723064.0,1.0,2
220557.09375,241646.421875,236536.0,228527.640625,216709.375,235542.515625,197527.65625,224650.953125,723065.0,1.0,2
220493.796875,241492.734375,236097.375,228443.59375,216319.828125,235318.546875,197256.03125,224447.015625,723066.0,1.0,2
220472.609375,241354.859375,235715.34375,228403.09375,215977.859375,235092.0,196997.640625,224274.28125,723067.0,1.0,2
220510.15625,241407.25,235905.78125,228445.5625,216144.234375,235163.078125,197095.640625,224357.515625,723068.0,1.0,2
220569.078125,241589.921875,236415.84375,228526.125,216595.484375,235444.171875,197420.71875,224586.9375,723069.0,1.0,2
220570.6875,241647.9375,236544.59375,228535.6875,216711.265625,235542.25,197526.046875,224641.65625,723070.0,1.0,2
220503.015625,241494.15625,236107.390625,228447.359375,216323.234375,235318.640625,197255.859375,224432.453125,723071.0,1.0,2
220470.546875,241356.03125,235718.734375,228394.421875,215975.796875,235091.015625,196992.8125,224259.4375,723072.0,1.0,2
220520.359375,241428.890625,235922.3125,228452.1875,216155.5,235178.0,197106.453125,224365.125,723073.0,1.0,2
220583.03125,241610.390625,236436.234375,228541.765625,216612.734375,235465.265625,197436.453125,224605.625,723074.0,1.0,2
220578.828125,241665.828125,236559.96875,228543.921875,216726.8125,235561.296875,197537.84375,224654.71875,723075.0,1.0,2
220519.1875,241521.515625,236129.03125,228460.859375,216346.65625,235344.921875,197276.234375,224456.3125,723076.0,1.0,2
220482.453125,241377.9375,235731.96875,228404.703125,215991.71875,235111.125,197008.109375,224278.125,723077.0,1.0,2
220520.171875,241424.15625,235918.828125,228449.859375,216157.5625,235185.515625,197108.953125,224370.21875,723078.0,1.0,2
220584.28125,241608.421875,236431.9375,228538.375,216614.703125,235471.078125,197439.578125,224610.8125,723079.0,1.0,2
220577.84375,241667.96875,236559.34375,228542.84375,216733.15625,235567.640625,197545.171875,224667.59375,723080.0,1.0,2
220518.65625,241522.6875,236131.34375,228467.109375,216354.703125,235351.625,197286.4375,224471.0625,723081.0,1.0,2
220483.34375,241373.90625,235729.109375,228407.65625,215997.078125,235112.375,197014.09375,224287.15625,723082.0,1.0,2
220532.15625,241438.09375,235924.015625,228464.703125,216169.984375,235190.4375,197118.96875,224383.09375,723083.0,1.0,2
220574.53125,241606.453125,236417.90625,228528.984375,216606.203125,235455.34375,197427.6875,224593.828125,723084.0,1.0,2
220568.640625,241663.859375,236552.453125,228531.9375,216726.640625,235557.796875,197535.25,224644.703125,723085.0,1.0,2
220516.15625,241526.96875,236134.484375,228464.25,216357.65625,235351.625,197284.46875,224452.828125,723086.0,1.0,2
220477.171875,241374.265625,235730.984375,228398.71875,215994.9375,235113.890625,197012.125,224267.21875,723087.0,1.0,2
220518.484375,241428.09375,235917.21875,228446.1875,216156.484375,235188.46875,197107.796875,224357.25,723088.0,1.0,2
220576.40625,241602.25,236419.234375,228526.84375,216600.578125,235459.1875,197426.0,224586.21875,723089.0,1.0,2
220572.921875,241656.25,236551.921875,228530.421875,216721.265625,235557.796875,197535.25,224643.53125,723090.0,1.0,2
220515.703125,241513.734375,236133.578125,228458.171875,216350.859375,235348.5,197284.640625,224456.859375,723091.0,1.0,2
220476.09375,241365.0625,235728.921875,228400.859375,215989.5625,235114.703125,197015.53125,224277.0625,723092.0,1.0,2
220510.15625,241415.296875,235899.515625,228442.078125,216138.78125,235176.125,197102.609375,224361.28125,723093.0,1.0,2
220571.140625,241593.21875,236409.765625,228527.828125,216592.171875,235454.53125,197425.8125,224594.625,723094.0,1.0,2
220574.53125,241658.671875,236557.28125,228542.125,216730.390625,235564.515625,197542.484375,224658.5625,723095.0,1.0,2
220519.1875,241521.15625,236142.078125,228468.1875,216363.203125,235358.34375,197288.671875,224464.28125,723096.0,1.0,2
220486.375,241374.984375,235737.59375,228409.71875,216001.8125,235121.765625,197015.171875,224275.890625,723097.0,1.0,2
220531.078125,241430.953125,235912.75,228456.65625,216155.328125,235188.203125,197108.6875,224360.390625,723098.0,1.0,2
220590.625,241607.609375,236415.84375,228539.171875,216602.625,235463.484375,197428.59375,224587.921875,723099.0,1.0,2
220586.6875,241668.859375,236560.5,228546.859375,216733.4375,235570.59375,197542.40625,224650.0625,723100.0,1.0,2
220528.046875,241524.828125,236142.078125,228467.734375,216362.578125,235358.0625,197286.25,224458.828125,723101.0,1.0,2
220499.96875,241381.953125,235742.609375,228416.59375,216004.140625,235128.03125,197016.25,224282.6875,723102.0,1.0,2
220535.375,241428.890625,235912.484375,228461.390625,216151.21875,235188.734375,197101.453125,224367.8125,723103.0,1.0,2
220590.8125,241603.765625,236415.125,228538.375,216597.359375,235459.28125,197419.46875,224596.953125,723104.0,1.0,2
220593.3125,241675.65625,236569.171875,228550.53125,216739.59375,235573.359375,197540.875,224668.21875,723105.0,1.0,2
220533.234375,241545.125,236154.421875,228472.75,216373.921875,235363.078125,197289.65625,224476.796875,723106.0,1.0,2
220501.40625,241389.109375,235748.0625,228424.46875,216012.984375,235131.515625,197024.640625,224298.6875,723107.0,1.0,2
220525.984375,241422.359375,235900.40625,228453.96875,216148.890625,235183.640625,197102.875,224372.90625,723108.0,1.0,2
220578.109375,241605.03125,236404.40625,228529.875,216596.734375,235461.15625,197426.078125,224602.5,723109.0,1.0,2
220572.75,241666.890625,236557.546875,228537.5625,216734.421875,235574.34375,197548.921875,224668.75,723110.0,1.0,2
220519.015625,241524.375,236146.015625,228464.703125,216369.015625,235368.796875,197299.390625,224478.765625,723111.0,1.0,2
220484.0625,241373.1875,235736.171875,228408.375,215997.703125,235131.6875,197022.859375,224294.671875,723112.0,1.0,2
220520.625,241421.109375,235896.5625,228444.234375,216137.625,235193.203125,197102.96875,224369.953125,723113.0,1.0,2
220577.484375,241596.359375,236402.4375,228526.125,216587.609375,235467.859375,197423.765625,224604.46875,723114.0,1.0,2
220569.796875,241653.125,236556.390625,228532.65625,216722.875,235573.453125,197538.734375,224670.0,723115.0,1.0,2
220514.1875,241513.109375,236148.6875,228460.5,216359.4375,235366.390625,197291.890625,224483.3125,723116.0,1.0,2
220480.203125,241362.828125,235737.15625,228408.828125,215991.625,235125.078125,197019.109375,224300.578125,723117.0,1.0,2
220519.546875,241410.203125,235898.53125,228455.578125,216135.296875,235186.140625,197102.875,224380.5,723118.0,1.0,2
220577.84375,241586.515625,236406.359375,228532.203125,216589.484375,235461.15625,197425.640625,224612.6875,723119.0,1.0,2
220575.25,241654.640625,236569.71875,228541.953125,216738.625,235573.359375,197549.015625,224681.265625,723120.0,1.0,2
220522.234375,241526.53125,236167.296875,228469.96875,216385.109375,235382.484375,197310.75,224495.390625,723121.0,1.0,2
220481.546875,241375.25,235746.8125,228405.6875,216008.703125,235139.015625,197030.640625,224304.328125,723122.0,1.0,2
220518.921875,241427.90625,235898.625,228446.90625,216144.515625,235196.78125,197109.765625,224380.671875,723123.0,1.0,2
220573.28125,241609.21875,236401.8125,228527.109375,216593.234375,235470.984375,197432.25,224608.75,723124.0,1.0,2
220566.671875,241659.828125,236562.65625,228532.296875,216737.546875,235578.375,197554.5625,224673.84375,723125.0,1.0,2
