FZ,C3,CZ,C4,PZ,PO7,OZ,PO8,Counter,Validation,Label
220956.75,231167.75,318954.3125,314075.90625,211391.984375,225499.515625,225822.015625,209002.234375,20718.0,1.0,4
221378.484375,231957.75,319379.4375,314681.8125,211978.671875,225775.515625,227587.34375,209623.875,20719.0,1.0,4
221670.484375,232631.25,319771.125,315204.21875,212568.046875,225974.453125,229550.640625,210141.640625,20720.0,1.0,4
221417.546875,232247.15625,319573.625,314905.59375,212333.359375,225831.21875,228975.390625,209830.046875,20721.0,1.0,4
220974.8125,231355.3125,319059.1875,314207.25,211601.65625,225558.4375,226697.390625,209131.515625,20722.0,1.0,4
220951.296875,231170.15625,318929.0,314062.40625,211372.234375,225552.53125,225809.140625,209003.75,20723.0,1.0,4
221380.1875,231962.296875,319362.8125,314673.78125,211967.59375,225825.140625,227573.765625,209630.21875,20724.0,1.0,4
221677.28125,232639.734375,319758.78125,315199.5625,212566.703125,226011.640625,229551.984375,210148.34375,20725.0,1.0,4
221428.109375,232255.828125,319564.0625,314905.34375,212337.015625,225845.875,228993.984375,209838.28125,20726.0,1.0,4
220984.640625,231358.625,319052.21875,314206.53125,211607.109375,225543.859375,226719.03125,209136.703125,20727.0,1.0,4
220956.75,231169.0,318923.90625,314058.03125,211378.484375,225504.53125,225818.25,209003.84375,20728.0,1.0,4
221383.125,231955.953125,319354.40625,314663.40625,211970.640625,225758.703125,227570.09375,209623.875,20729.0,1.0,4
221675.21875,232630.078125,319744.03125,315182.3125,212563.3125,225940.734375,229546.96875,210139.125,20730.0,1.0,4
221427.828125,232258.953125,319556.5625,314893.71875,212342.03125,225785.078125,229007.3125,209836.3125,20731.0,1.0,4
220989.734375,231373.28125,319056.25,314204.21875,211628.109375,225502.109375,226742.359375,209145.8125,20732.0,1.0,4
220947.8125,231165.234375,318910.3125,314033.96875,211380.546875,225467.0625,225804.3125,208991.40625,20733.0,1.0,4
221370.078125,231945.578125,319336.09375,314635.6875,211964.828125,225736.625,227536.203125,209607.34375,20734.0,1.0,4
221674.328125,232636.609375,319736.90625,315168.8125,212570.828125,225934.484375,229530.4375,210135.734375,20735.0,1.0,4
221433.640625,232272.8125,319557.625,314889.25,212359.546875,225789.203125,229015.984375,209839.265625,20736.0,1.0,4
220988.671875,231378.03125,319050.96875,314193.65625,211635.09375,225503.984375,226747.546875,209145.546875,20737.0,1.0,4
220939.9375,231157.546875,318898.53125,314023.15625,211379.390625,225461.703125,225794.5625,208985.78125,20738.0,1.0,4
221361.3125,231929.671875,319317.65625,314619.0625,211956.59375,225719.640625,227513.40625,209591.78125,20739.0,1.0,4
221669.765625,232623.5625,319727.78125,315159.0,212573.953125,225923.3125,229521.578125,210123.75,20740.0,1.0,4
221425.59375,232255.46875,319543.40625,314875.46875,212358.21875,225778.375,229010.53125,209826.65625,20741.0,1.0,4
220983.75,231367.203125,319037.28125,314181.15625,211637.859375,225503.625,226751.03125,209133.84375,20742.0,1.0,4
220938.421875,231151.296875,318889.40625,314008.75,211384.390625,225471.890625,225790.53125,208978.1875,20743.0,1.0,4
221366.59375,231931.90625,319314.4375,314609.59375,211967.765625,225743.953125,227507.515625,209595.984375,20744.0,1.0,4
221677.734375,232628.828125,319720.34375,315148.25,212580.296875,225946.28125,229521.21875,210132.875,20745.0,1.0,4
221435.53125,232266.828125,319536.875,314867.0625,212365.640625,225791.609375,229028.859375,209841.40625,20746.0,1.0,4
220994.5625,231374.0,319028.25,314170.0625,211640.71875,225505.234375,226766.953125,209142.78125,20747.0,1.0,4
220945.65625,231147.890625,318873.5,313991.875,211378.765625,225472.609375,225788.578125,208980.78125,20748.0,1.0,4
221361.859375,231912.140625,319288.59375,314585.25,211950.421875,225739.578125,227485.875,209590.53125,20749.0,1.0,4
221679.78125,232618.375,319702.75,315135.5625,212571.8125,225950.046875,229511.296875,210134.484375,20750.0,1.0,4
221446.703125,232268.25,319525.96875,314864.65625,212366.703125,225806.0,229040.296875,209849.90625,20751.0,1.0,4
221000.109375,231372.75,319016.90625,314164.5,211638.484375,225523.125,226778.03125,209151.359375,20752.0,1.0,4
220942.0,231138.0625,318857.84375,313978.375,211370.171875,225489.59375,225779.625,208981.75,20753.0,1.0,4
221364.0,231910.359375,319278.0625,314573.0,211944.25,225755.046875,227473.09375,209592.140625,20754.0,1.0,4
221675.9375,232615.875,319691.125,315120.625,212558.9375,225952.71875,229497.984375,210134.921875,20755.0,1.0,4
221445.09375,232275.5,319520.15625,314858.5,212361.875,225809.046875,229045.75,209858.390625,20756.0,1.0,4
220999.671875,231385.53125,319013.9375,314163.4375,211643.578125,225531.265625,226792.875,209161.734375,20757.0,1.0,4
220938.78125,231145.21875,318853.5625,313972.65625,211374.109375,225488.96875,225781.6875,208984.703125,20758.0,1.0,4
221350.5,231901.5,319262.3125,314554.9375,211936.484375,225744.9375,227455.03125,209582.75,20759.0,1.0,4
221663.59375,232605.9375,319671.34375,315099.09375,212551.328125,225946.828125,229486.796875,210124.296875,20760.0,1.0,4
221432.3125,232265.484375,319506.3125,314838.90625,212364.65625,225803.5,229055.234375,209854.28125,20761.0,1.0,4
220989.46875,231378.46875,319005.1875,314146.28125,211650.5625,225519.1875,226805.3125,209156.546875,20762.0,1.0,4
220918.84375,231124.640625,318833.4375,313942.15625,211366.953125,225472.609375,225762.28125,208966.640625,20763.0,1.0,4
221344.15625,231896.3125,319254.09375,314535.0,211940.234375,225744.671875,227435.8125,209577.46875,20764.0,1.0,4
221661.453125,232608.890625,319669.46875,315087.90625,212565.8125,225951.203125,229480.359375,210126.4375,20765.0,1.0,4
221435.25,232278.890625,319505.40625,314833.46875,212383.15625,225804.75,229065.875,209857.140625,20766.0,1.0,4
220991.34375,231388.484375,318996.59375,314136.0,211660.390625,225518.734375,226812.015625,209162.359375,20767.0,1.0,4
220925.90625,231140.390625,318827.0,313933.65625,211379.03125,225476.984375,225764.609375,208976.84375,20768.0,1.0,4
221346.5625,231904.28125,319246.75,314522.0625,211947.03125,225740.5625,227427.578125,209575.953125,20769.0,1.0,4
221658.859375,232612.921875,319659.09375,315072.15625,212566.34375,225938.59375,229474.46875,210120.984375,20770.0,1.0,4
221437.3125,232286.84375,319496.3125,314820.3125,212383.421875,225805.921875,229074.375,209858.65625,20771.0,1.0,4
220997.4375,231398.0625,318993.90625,314130.4375,211667.8125,225525.09375,226831.59375,209163.515625,20772.0,1.0,4
220930.90625,231142.625,318820.03125,313927.21875,211381.171875,225478.421875,225765.5,208974.15625,20773.0,1.0,4
221340.484375,231894.078125,319224.40625,314505.15625,211933.890625,225738.40625,227402.71875,209572.296875,20774.0,1.0,4
221662.53125,232611.3125,319643.1875,315063.3125,212562.78125,225951.5625,229466.5,210127.0625,20775.0,1.0,4
221450.8125,232301.328125,319492.53125,314827.09375,212394.59375,225824.0625,229096.359375,209866.96875,20776.0,1.0,4
221002.890625,231407.265625,318984.09375,314131.625,211673.09375,225538.234375,226850.90625,209164.328125,20777.0,1.0,4
220927.0625,231134.390625,318805.90625,313917.84375,211379.828125,225487.1875,225768.1875,208966.5625,20778.0,1.0,4
221335.75,231879.328125,319206.875,314489.15625,211927.265625,225741.28125,227388.59375,209556.5625,20779.0,1.0,4
221665.5625,232608.265625,319629.875,315051.0625,212559.015625,225949.59375,229455.15625,210117.046875,20780.0,1.0,4
221456.53125,232305.359375,319481.90625,314817.4375,212395.5,225820.578125,229099.484375,209870.90625,20781.0,1.0,4
221013.078125,231417.71875,318977.375,314123.65625,211678.0,225536.359375,226861.90625,209177.109375,20782.0,1.0,4
220927.609375,231136.09375,318788.5625,313899.34375,211372.046875,225479.578125,225758.703125,208968.4375,20783.0,1.0,4
221335.390625,231872.1875,319187.84375,314469.21875,211913.765625,225733.140625,227370.0,209554.859375,20784.0,1.0,4
221670.578125,232607.640625,319620.46875,315041.9375,212553.921875,225949.140625,229455.0625,210123.75,20785.0,1.0,4
221462.078125,232311.171875,319478.15625,314813.875,212395.9375,225820.21875,229118.53125,209876.09375,20786.0,1.0,4
221013.4375,231416.65625,318970.59375,314112.84375,211672.90625,225529.5625,226876.03125,209169.328125,20787.0,1.0,4
220929.921875,231127.953125,318783.53125,313884.75,211362.75,225476.453125,225755.9375,208956.640625,20788.0,1.0,4
221337.09375,231862.4375,319182.46875,314453.84375,211905.28125,225730.640625,227354.890625,209544.3125,20789.0,1.0,4
221671.46875,232602.015625,319611.28125,315025.3125,212546.59375,225947.625,229438.171875,210113.921875,20790.0,1.0,4
221464.140625,232311.796875,319469.375,314804.5,212395.40625,225821.203125,229118.984375,209874.9375,20791.0,1.0,4
221017.09375,231423.625,318964.59375,314112.46875,211680.6875,225532.0625,226886.671875,209177.734375,20792.0,1.0,4
220929.21875,231134.65625,318772.1875,313880.71875,211367.578125,225475.375,225751.203125,208959.5,20793.0,1.0,4
221332.53125,231865.921875,319164.875,314445.0625,211904.921875,225729.5625,227337.640625,209539.203125,20794.0,1.0,4
221658.5,232596.109375,319585.625,315012.71875,212538.546875,225938.859375,229426.8125,210103.28125,20795.0,1.0,4
221459.21875,232313.40625,319451.6875,314795.8125,212395.765625,225816.203125,229133.640625,209876.453125,20796.0,1.0,4
221015.3125,231422.828125,318950.5625,314103.28125,211681.40625,225531.703125,226908.125,209182.46875,20797.0,1.0,4
220920.359375,231117.9375,318751.625,313861.34375,211357.921875,225469.828125,225747.53125,208953.6875,20798.0,1.0,4
221327.515625,231852.25,319151.71875,314430.78125,211901.796875,225730.8125,227326.640625,209538.578125,20799.0,1.0,4
221665.296875,232595.21875,319582.125,315009.21875,212546.6875,225948.609375,229427.609375,210115.4375,20800.0,1.0,4
221466.09375,232314.125,319446.59375,314793.125,212403.625,225825.3125,229146.421875,209886.28125,20801.0,1.0,4
221014.421875,231417.71875,318937.25,314094.15625,211683.375,225537.421875,226912.78125,209185.875,20802.0,1.0,4
220923.3125,231118.125,318745.1875,313856.40625,211368.125,225481.90625,225751.828125,208962.796875,20803.0,1.0,4
221324.390625,231846.703125,319136.96875,314418.53125,211902.421875,225741.546875,227317.96875,209539.03125,20804.0,1.0,4
221665.484375,232595.921875,319571.75,315000.375,212547.3125,225973.28125,229424.03125,210114.1875,20805.0,1.0,4
221464.140625,232318.046875,319435.40625,314786.875,212399.34375,225850.984375,229147.6875,209884.140625,20806.0,1.0,4
221017.90625,231428.8125,318931.875,314092.53125,211683.375,225570.15625,226924.671875,209186.671875,20807.0,1.0,4
220923.484375,231118.125,318733.75,313846.5,211358.90625,225515.078125,225742.4375,208956.984375,20808.0,1.0,4
221331.546875,231850.0,319131.59375,314409.5625,211898.390625,225783.03125,227302.140625,209539.5625,20809.0,1.0,4
221667.71875,232596.828125,319565.0625,314989.5625,212542.65625,225999.921875,229413.3125,210118.296875,20810.0,1.0,4
221469.5,232327.171875,319434.59375,314783.65625,212405.234375,225866.53125,229161.453125,209892.71875,20811.0,1.0,4
221026.046875,231440.34375,318936.0625,314092.625,211696.15625,225576.59375,226950.59375,209195.890625,20812.0,1.0,4
220922.328125,231119.90625,318731.6875,313840.6875,211368.75,225506.765625,225754.6875,208956.984375,20813.0,1.0,4
221314.375,231830.78125,319109.4375,314384.90625,211885.96875,225744.9375,227278.71875,209522.578125,20814.0,1.0,4
221652.515625,232577.78125,319538.6875,314962.28125,212528.71875,225957.734375,229389.078125,210097.109375,20815.0,1.0,4
221463.78125,232325.03125,319420.125,314768.90625,212409.703125,225846.328125,229170.75,209889.0625,20816.0,1.0,4
221017.546875,231436.046875,318919.90625,314077.4375,211702.59375,225567.46875,226959.984375,209194.8125,20817.0,1.0,4
220919.015625,231116.6875,318715.5,313822.1875,211370.09375,225497.734375,225742.609375,208955.203125,20818.0,1.0,4
221311.609375,231826.765625,319098.09375,314372.46875,211893.203125,225735.734375,227263.078125,209520.609375,20819.0,1.0,4
221657.4375,232584.75,319538.78125,314962.90625,212549.0,225955.859375,229394.4375,210108.015625,20820.0,1.0,4
221471.28125,232334.59375,319419.5,314767.84375,212425.171875,225836.40625,229190.59375,209896.5625,20821.0,1.0,4
221020.859375,231444.28125,318914.4375,314070.90625,211706.703125,225542.703125,226976.703125,209195.4375,20822.0,1.0,4
220908.109375,231109.09375,318701.03125,313807.6875,211361.59375,225470.375,225738.953125,208945.71875,20823.0,1.0,4
221302.75,231819.25,319084.03125,314355.03125,211881.859375,225722.046875,227247.421875,209510.6875,20824.0,1.0,4
221646.078125,232574.921875,319515.53125,314939.5,212530.765625,225945.65625,229372.359375,210095.59375,20825.0,1.0,4
221472.984375,232339.953125,319407.59375,314761.125,212424.109375,225842.75,229194.4375,209903.09375,20826.0,1.0,4
221025.0625,231448.390625,318906.03125,314068.75,211714.578125,225560.046875,226995.5625,209209.390625,20827.0,1.0,4
220909.09375,231103.734375,318686.625,313799.8125,211364.546875,225485.84375,225743.515625,208951.1875,20828.0,1.0,4
221299.359375,231806.5625,319064.28125,314344.5,211878.28125,225732.78125,227235.265625,209513.375,20829.0,1.0,4
221650.015625,232569.734375,319504.0625,314934.65625,212533.0,225954.78125,229372.984375,210104.078125,20830.0,1.0,4
221476.921875,232342.28125,319398.03125,314755.40625,212424.1875,225848.5625,229210.71875,209908.015625,20831.0,1.0,4
221028.90625,231455.1875,318897.53125,314063.5625,211713.40625,225566.3125,227013.09375,209212.875,20832.0,1.0,4
220912.5,231108.828125,318672.9375,313789.09375,211359.984375,225491.734375,225745.03125,208952.515625,20833.0,1.0,4
221303.015625,231805.296875,319047.03125,314328.21875,211868.703125,225739.484375,227222.921875,209508.359375,20834.0,1.0,4
221651.0,232570.265625,319484.0625,314917.59375,212521.5625,225962.828125,229362.703125,210096.75,20835.0,1.0,4
221476.03125,232342.734375,319376.40625,314742.875,212417.84375,225853.125,229214.375,209909.359375,20836.0,1.0,4
221033.1875,231461.0,318882.34375,314057.5,211716.71875,225567.5625,227027.578125,209221.640625,20837.0,1.0,4
220908.46875,231098.625,318651.65625,313771.375,211349.078125,225484.140625,225735.90625,208947.421875,20838.0,1.0,4
221296.046875,231785.71875,319018.25,314301.03125,211844.5625,225720.984375,227189.3125,209495.84375,20839.0,1.0,4
221649.65625,232558.734375,319461.25,314896.21875,212502.609375,225946.90625,229338.125,210089.328125,20840.0,1.0,4
221478.625,232345.140625,319363.0,314729.21875,212412.03125,225844.453125,229217.234375,209907.203125,20841.0,1.0,4
221029.890625,231461.625,318864.8125,314040.5,211708.84375,225563.53125,227032.40625,209216.890625,20842.0,1.0,4
220908.46875,231105.78125,318643.0,313763.625,211352.921875,225490.9375,225742.171875,208953.59375,20843.0,1.0,4
221289.078125,231783.484375,319009.21875,314288.6875,211846.171875,225727.234375,227180.640625,209493.796875,20844.0,1.0,4
221649.203125,232564.09375,319459.09375,314889.0625,212509.578125,225951.03125,229337.140625,210088.34375,20845.0,1.0,4
221479.953125,232353.8125,319363.15625,314726.15625,212421.6875,225844.0,229229.9375,209909.71875,20846.0,1.0,4
221028.984375,231465.828125,318863.84375,314034.6875,211715.375,225556.203125,227042.953125,209214.03125,20847.0,1.0,4
220901.046875,231094.875,318635.125,313744.46875,211347.46875,225478.0625,225726.515625,208940.8125,20848.0,1.0,4
221286.03125,231775.4375,319001.25,314268.84375,211840.09375,225718.46875,227155.328125,209486.453125,20849.0,1.0,4
221646.078125,232559.90625,319452.3125,314874.3125,212511.28125,225951.46875,229325.25,210089.953125,20850.0,1.0,4
221484.875,232360.609375,319364.96875,314722.6875,212433.5,225856.609375,229247.1875,209919.640625,20851.0,1.0,4
221039.09375,231474.3125,318868.5625,314035.40625,211732.625,225570.0625,227073.96875,209225.921875,20852.0,1.0,4
220902.125,231089.78125,318624.03125,313730.71875,211351.21875,225475.109375,225728.9375,208934.375,20853.0,1.0,4
221288.625,231779.015625,318995.25,314261.15625,211849.484375,225716.328125,227151.3125,209477.875,20854.0,1.0,4
221640.265625,232553.734375,319438.53125,314859.28125,212508.5,225932.25,229312.90625,210074.484375,20855.0,1.0,4
221479.6875,232356.3125,319348.34375,314704.1875,212427.234375,225829.078125,229243.25,209905.59375,20856.0,1.0,4
221036.328125,231478.515625,318856.0625,314017.96875,211728.78125,225551.375,227074.0625,209217.078125,20857.0,1.0,4
220896.125,231087.09375,318610.4375,313710.40625,211343.71875,225462.59375,225716.859375,208925.875,20858.0,1.0,4
221283.53125,231769.453125,318978.09375,314234.4375,211835.265625,225707.125,227124.9375,209470.546875,20859.0,1.0,4
221648.84375,232560.609375,319433.90625,314846.96875,212508.859375,225940.921875,229301.1875,210081.109375,20860.0,1.0,4
221488.71875,232367.21875,319347.15625,314699.25,212437.0625,225841.671875,229251.484375,209918.203125,20861.0,1.0,4
221044.8125,231492.5625,318859.1875,314020.46875,211746.046875,225565.234375,227099.015625,209232.546875,20862.0,1.0,4
220900.515625,231096.3125,318607.3125,313708.0,211351.84375,225471.265625,225725.625,208931.953125,20863.0,1.0,4
221280.140625,231766.40625,318965.21875,314225.3125,211833.21875,225708.640625,227114.484375,209467.0625,20864.0,1.0,4
221645.625,232555.25,319419.6875,314837.3125,212505.28125,225943.609375,229297.703125,210081.1875,20865.0,1.0,4
221494.796875,232373.125,319339.46875,314697.65625,212437.515625,225854.375,229270.890625,209930.8125,20866.0,1.0,4
221056.890625,231501.234375,318849.78125,314016.90625,211743.453125,225580.4375,227117.609375,209243.71875,20867.0,1.0,4
220915.4375,231108.109375,318604.375,313706.65625,211357.125,225488.609375,225738.6875,208943.046875,20868.0,1.0,4
221290.6875,231773.46875,318960.03125,314219.9375,211838.578125,225724.5625,227115.546875,209475.28125,20869.0,1.0,4
221652.6875,232559.625,319409.03125,314829.34375,212506.890625,225953.890625,229298.0625,210087.0,20870.0,1.0,4
221503.109375,232387.875,319337.34375,314698.8125,212451.46875,225862.328125,229294.21875,209946.453125,20871.0,1.0,4
221056.625,231509.8125,318848.28125,314014.84375,211760.265625,225577.921875,227148.265625,209262.40625,20872.0,1.0,4
220898.359375,231090.765625,318583.1875,313683.875,211351.046875,225471.796875,225733.5,208942.59375,20873.0,1.0,4
221265.375,231735.65625,318924.4375,314184.0,211812.375,225699.703125,227075.3125,209458.296875,20874.0,1.0,4
221643.75,232540.59375,319385.78125,314803.15625,212494.375,225938.15625,229270.96875,210077.890625,20875.0,1.0,4
221498.90625,232379.828125,319317.75,314675.84375,212444.671875,225850.4375,229286.0,209938.234375,20876.0,1.0,4
221050.359375,231501.140625,318825.5625,313991.40625,211748.640625,225562.1875,227139.15625,209243.546875,20877.0,1.0,4
220895.78125,231082.984375,318563.59375,313662.9375,211340.578125,225458.84375,225718.296875,208922.296875,20878.0,1.0,4
221265.65625,231731.453125,318910.0625,314167.28125,211806.84375,225691.203125,227053.859375,209440.421875,20879.0,1.0,4
221646.53125,232544.703125,319379.25,314797.4375,212496.171875,225934.75,229258.8125,210067.0625,20880.0,1.0,4
221508.5625,232397.984375,319320.15625,314682.28125,212456.109375,225854.203125,229301.546875,209935.546875,20881.0,1.0,4
221062.34375,231521.171875,318828.25,314002.5,211763.65625,225574.171875,227165.078125,209250.15625,20882.0,1.0,4
220900.25,231088.078125,318559.21875,313666.34375,211346.75,225469.296875,225722.046875,208925.703125,20883.0,1.0,4
221264.125,231727.515625,318900.5,314158.625,211803.53125,225700.234375,227037.9375,209443.90625,20884.0,1.0,4
221638.65625,232532.265625,319363.15625,314781.25,212485.703125,225940.46875,229242.28125,210066.53125,20885.0,1.0,4
221503.296875,232389.9375,319304.25,314670.5625,212449.859375,225859.828125,229306.921875,209938.953125,20886.0,1.0,4
221051.703125,231508.109375,318809.75,313984.625,211753.015625,225575.515625,227174.296875,209247.203125,20887.0,1.0,4
220896.578125,231082.453125,318549.375,313647.90625,211336.734375,225475.828125,225722.40625,208925.703125,20888.0,1.0,4
221262.703125,231722.875,318893.15625,314144.03125,211797.0,225704.625,227031.234375,209445.6875,20889.0,1.0,4
221634.359375,232521.09375,319352.8125,314766.21875,212478.46875,225944.046875,229239.234375,210069.21875,20890.0,1.0,4
221503.109375,232384.921875,319297.375,314663.03125,212451.109375,225882.359375,229323.359375,209952.625,20891.0,1.0,4
221048.125,231501.3125,318795.78125,313975.875,211752.125,225614.140625,227190.203125,209262.578125,20892.0,1.0,4
220887.015625,231069.3125,318526.3125,313636.46875,211330.75,225527.859375,225723.21875,208931.59375,20893.0,1.0,4
221249.015625,231703.46875,318859.4375,314123.65625,211773.84375,225760.9375,227005.40625,209432.8125,20894.0,1.0,4
221628.828125,232517.078125,319323.5625,314753.96875,212459.234375,225995.8125,229219.75,210060.625,20895.0,1.0,4
221501.421875,232387.078125,319275.46875,314654.09375,212436.53125,225909.0,229320.953125,209948.78125,20896.0,1.0,4
221057.6875,231515.0,318788.09375,313974.4375,211747.828125,225607.4375,227201.46875,209262.9375,20897.0,1.0,4
220893.0,231074.21875,318517.1875,313625.84375,211322.4375,225485.390625,225718.921875,208923.203125,20898.0,1.0,4
221259.84375,231710.359375,318861.25,314119.375,211777.0625,225707.84375,226997.359375,209434.875,20899.0,1.0,4
221637.765625,232524.84375,319329.46875,314748.59375,212467.375,225951.46875,229219.03125,210069.75,20900.0,1.0,4
221503.828125,232392.796875,319277.34375,314644.28125,212446.71875,225878.609375,229336.328125,209954.953125,20901.0,1.0,4
221049.203125,231510.53125,318781.40625,313955.21875,211756.5,225597.421875,227216.484375,209262.3125,20902.0,1.0,4
220885.671875,231066.53125,318508.15625,313603.40625,211334.765625,225494.6875,225724.375,208927.3125,20903.0,1.0,4
221247.140625,231687.109375,318839.78125,314083.0625,211775.90625,225718.5625,226980.546875,209429.859375,20904.0,1.0,4
221639.375,232514.75,319316.0625,314723.5,212470.78125,225961.65625,229211.078125,210068.859375,20905.0,1.0,4
221522.25,232408.796875,319278.40625,314638.8125,212459.421875,225890.234375,229358.140625,209967.734375,20906.0,1.0,4
221066.984375,231533.0625,318781.75,313952.4375,211759.1875,225614.578125,227246.53125,209274.65625,20907.0,1.0,4
220892.5625,231082.265625,318500.21875,313594.90625,211319.125,225519.71875,225735.28125,208925.875,20908.0,1.0,4
221248.390625,231704.28125,318826.0,314072.875,211757.125,225747.71875,226976.34375,209422.171875,20909.0,1.0,4
221628.203125,232521.71875,319289.21875,314704.625,212445.734375,225995.640625,229203.65625,210055.984375,20910.0,1.0,4
221504.015625,232407.1875,319240.6875,314615.21875,212434.5625,225934.390625,229360.828125,209957.28125,20911.0,1.0,4
221063.0625,231543.4375,318756.53125,313945.375,211761.421875,225655.53125,227275.046875,209280.90625,20912.0,1.0,4
220883.703125,231070.921875,318463.90625,313576.03125,211316.359375,225519.640625,225742.703125,208920.78125,20913.0,1.0,4
221241.953125,231685.3125,318792.125,314055.53125,211753.109375,225719.453125,226970.890625,209418.0625,20914.0,1.0,4
221623.015625,232500.265625,319258.125,314694.15625,212443.15625,225948.34375,229201.5,210055.625,20915.0,1.0,4
221514.375,232405.84375,319224.3125,314625.21875,212447.625,225866.984375,229390.78125,209970.234375,20916.0,1.0,4
221067.34375,231540.921875,318733.125,313947.4375,211762.046875,225553.25,227300.796875,209285.734375,20917.0,1.0,4
220882.71875,231069.75,318440.3125,313576.75,211310.71875,225417.265625,225752.453125,208926.953125,20918.0,1.0,4
221243.390625,231686.03125,318769.6875,314055.0,211742.5625,225638.28125,226962.21875,209423.875,20919.0,1.0,4
221633.203125,232518.953125,319242.90625,314698.1875,212436.0,225887.453125,229197.75,210065.109375,20920.0,1.0,4
221523.140625,232433.65625,319214.75,314629.6875,212443.421875,225821.109375,229398.734375,209983.203125,20921.0,1.0,4
221075.296875,231570.609375,318731.5,313957.0,211766.15625,225545.65625,227316.0,209300.578125,20922.0,1.0,4
220882.453125,231088.53125,318436.65625,313580.59375,211309.015625,225438.0,225749.40625,208932.21875,20923.0,1.0,4
221231.859375,231689.875,318755.1875,314044.96875,211725.484375,225664.03125,226934.234375,209415.296875,20924.0,1.0,4
221629.453125,232525.828125,319235.0625,314692.5625,212426.078125,225920.171875,229175.75,210062.6875,20925.0,1.0,4
221526.0,232446.0,319217.0,314635.34375,212446.71875,225864.828125,229405.4375,209988.390625,20926.0,1.0,4
221072.890625,231574.71875,318733.5625,313958.78125,211765.0,225586.328125,227323.953125,209304.703125,20927.0,1.0,4
220880.21875,231091.921875,318439.3125,313579.34375,211308.578125,225466.34375,225747.984375,208933.203125,20928.0,1.0,4
221228.09375,231689.15625,318758.0625,314044.53125,211729.765625,225695.3125,226922.15625,209419.21875,20929.0,1.0,4
221624.53125,232528.703125,319234.875,314692.28125,212433.21875,225955.671875,229167.796875,210067.34375,20930.0,1.0,4
221521.09375,232453.5,319217.96875,314638.625,212458.53125,225908.015625,229415.28125,209995.0,20931.0,1.0,4
221072.4375,231591.171875,318739.03125,313970.3125,211786.359375,225633.625,227351.765625,209320.875,20932.0,1.0,4
220873.0625,231096.390625,318434.0625,313580.9375,211319.578125,225504.890625,225755.671875,208944.109375,20933.0,1.0,4
221215.140625,231680.40625,318743.59375,314030.75,211724.765625,225718.75,226900.796875,209409.03125,20934.0,1.0,4
221613.625,232518.234375,319224.84375,314680.21875,212424.734375,225970.609375,229148.03125,210055.53125,20935.0,1.0,4
221519.484375,232452.96875,319215.1875,314634.96875,212459.78125,225909.890625,229421.890625,209995.359375,20936.0,1.0,4
221079.859375,231591.4375,318740.90625,313967.90625,211790.921875,225622.8125,227369.203125,209323.296875,20937.0,1.0,4
220881.109375,231092.640625,318434.59375,313571.9375,211319.390625,225484.671875,225759.6875,208933.75,20938.0,1.0,4
221222.46875,231674.859375,318743.125,314019.75,211726.640625,225693.703125,226896.953125,209401.796875,20939.0,1.0,4
221622.203125,232517.703125,319226.90625,314671.1875,212432.328125,225945.125,229152.421875,210055.71875,20940.0,1.0,4
221531.375,232462.890625,319220.46875,314630.40625,212471.578125,225889.515625,229442.359375,210000.546875,20941.0,1.0,4
221085.9375,231606.375,318743.40625,313960.21875,211802.546875,225607.4375,227392.171875,209322.578125,20942.0,1.0,4
220884.515625,231099.796875,318436.5625,313562.90625,211328.421875,225476.0,225768.90625,208930.4375,20943.0,1.0,4
221226.21875,231677.90625,318740.53125,314007.0625,211726.109375,225686.734375,226881.296875,209392.046875,20944.0,1.0,4
221627.484375,232522.34375,319224.3125,314659.03125,212430.1875,225942.171875,229136.59375,210044.890625,20945.0,1.0,4
221535.390625,232473.265625,319220.75,314622.09375,212472.828125,225891.484375,229448.984375,209992.765625,20946.0,1.0,4
221090.5,231611.015625,318743.125,313953.34375,211803.0,225612.796875,227408.984375,209316.40625,20947.0,1.0,4
220890.859375,231101.9375,318438.0,313554.5625,211330.203125,225491.921875,225779.359375,208930.34375,20948.0,1.0,4
221227.828125,231671.1875,318735.25,313991.25,211723.25,225702.46875,226877.015625,209390.796875,20949.0,1.0,4
221622.828125,232505.8125,319212.53125,314640.25,212422.9375,225953.171875,229124.703125,210043.28125,20950.0,1.0,4
221542.359375,232469.328125,319214.5625,314613.59375,212475.328125,225907.125,229456.84375,210001.796875,20951.0,1.0,4
221099.078125,231615.140625,318735.1875,313946.53125,211808.0,225618.875,227426.0625,209327.765625,20952.0,1.0,4
220888.265625,231095.6875,318417.25,313534.0,211319.296875,225480.75,225768.09375,208926.328125,20953.0,1.0,4
221221.3125,231658.3125,318710.3125,313967.1875,211706.703125,225688.171875,226843.65625,209381.234375,20954.0,1.0,4
221629.984375,232509.46875,319198.125,314627.46875,212417.9375,225949.328125,229108.15625,210042.578125,20955.0,1.0,4
221544.6875,232471.390625,319194.46875,314596.15625,212461.296875,225887.8125,229444.328125,209997.875,20956.0,1.0,4
221104.09375,231627.921875,318724.625,313939.375,211804.609375,225606.71875,227426.234375,209332.328125,20957.0,1.0,4
220883.171875,231099.875,318398.28125,313519.875,211312.328125,225464.203125,225757.28125,208927.046875,20958.0,1.0,4
221218.71875,231661.8125,318694.125,313951.71875,211699.015625,225670.203125,226820.5,209383.28125,20959.0,1.0,4
221626.671875,232514.5625,319182.9375,314612.09375,212413.640625,225929.75,229084.015625,210047.21875,20960.0,1.0,4
221547.015625,232484.4375,319186.15625,314591.6875,212475.15625,225879.671875,229453.359375,210007.96875,20961.0,1.0,4
221105.34375,231631.140625,318712.90625,313929.46875,211815.6875,225597.953125,227440.0,209336.703125,20962.0,1.0,4
220884.953125,231094.078125,318389.96875,313509.6875,211321.53125,225457.5,225759.421875,208922.5625,20963.0,1.0,4
221210.046875,231639.90625,318679.375,313935.0,211700.984375,225659.015625,226800.84375,209368.53125,20964.0,1.0,4
221619.4375,232492.671875,319168.53125,314595.8125,212414.359375,225913.734375,229064.796875,210033.625,20965.0,1.0,4
221547.1875,232470.140625,319180.875,314578.8125,212480.078125,225867.609375,229448.171875,210004.75,20966.0,1.0,4
221104.0,231621.03125,318707.8125,313916.84375,211820.515625,225588.390625,227439.203125,209335.984375,20967.0,1.0,4
220884.6875,231087.1875,318384.25,313499.59375,211328.515625,225453.203125,225750.84375,208923.546875,20968.0,1.0,4
221207.53125,231630.953125,318667.6875,313920.34375,211704.203125,225653.03125,226778.578125,209363.890625,20969.0,1.0,4
221616.65625,232481.671875,319153.78125,314580.53125,212414.265625,225913.03125,229047.546875,210027.8125,20970.0,1.0,4
221550.5,232470.9375,319173.53125,314573.71875,212492.046875,225875.203125,229462.484375,210011.28125,20971.0,1.0,4
221109.546875,231621.578125,318707.375,313912.375,211837.6875,225596.53125,227467.1875,209347.703125,20972.0,1.0,4
220885.84375,231075.03125,318379.34375,313481.8125,211332.71875,225452.140625,225760.9375,208929.8125,20973.0,1.0,4
221209.6875,231618.625,318664.46875,313899.6875,211699.375,225656.421875,226771.15625,209367.09375,20974.0,1.0,4
221615.59375,232479.609375,319148.78125,314557.1875,212403.984375,225915.796875,229034.671875,210024.515625,20975.0,1.0,4
221550.859375,232485.0625,319171.5625,314560.5,212487.671875,225877.796875,229465.4375,210012.890625,20976.0,1.0,4
221109.1875,231636.859375,318698.15625,313901.65625,211829.734375,225600.453125,227470.9375,209346.53125,20977.0,1.0,4
220886.03125,231089.59375,318366.1875,313471.53125,211323.0625,225468.3125,225754.328125,208923.640625,20978.0,1.0,4
221206.546875,231627.828125,318649.96875,313889.0625,211691.6875,225680.5625,226757.65625,209362.8125,20979.0,1.0,4
221614.25,232480.0625,319132.0625,314548.6875,212394.25,225940.734375,229022.6875,210024.15625,20980.0,1.0,4
221556.671875,232488.015625,319161.5625,314562.8125,212486.0625,225905.609375,229477.5,210022.0,20981.0,1.0,4
221108.296875,231634.453125,318686.4375,313901.9375,211825.796875,225616.375,227491.5,209355.203125,20982.0,1.0,4
220876.109375,231076.1875,318348.9375,313463.84375,211312.953125,225460.625,225758.625,208928.734375,20983.0,1.0,4
221192.25,231598.421875,318620.46875,313868.84375,211667.28125,225645.25,226729.3125,209350.296875,20984.0,1.0,4
221611.484375,232467.359375,319114.8125,314538.5,212385.390625,225905.34375,229008.03125,210021.03125,20985.0,1.0,4
221556.3125,232489.453125,319152.53125,314555.3125,212493.390625,225874.578125,229494.21875,210026.296875,20986.0,1.0,4
221116.078125,231651.34375,318683.15625,313898.875,211846.0,225590.171875,227523.25,209360.671875,20987.0,1.0,4
220881.296875,231093.0,318346.0,313455.4375,211333.34375,225439.96875,225778.375,208925.4375,20988.0,1.0,4
221194.578125,231614.953125,318618.15625,313852.21875,211682.921875,225643.828125,226729.21875,209344.921875,20989.0,1.0,4
221611.484375,232481.578125,319111.3125,314521.0625,212398.796875,225916.25,229005.609375,210018.25,20990.0,1.0,4
221557.5625,232500.53125,319145.375,314539.9375,212498.671875,225895.0625,229497.890625,210023.53125,20991.0,1.0,4
221112.046875,231654.46875,318676.15625,313886.1875,211849.9375,225621.65625,227535.765625,209358.96875,20992.0,1.0,4
220875.03125,231086.5625,318337.5,313438.34375,211333.15625,225473.328125,225776.6875,208920.15625,20993.0,1.0,4
221194.125,231604.765625,318611.15625,313838.28125,211683.375,225668.046875,226712.234375,209339.109375,20994.0,1.0,4
221609.234375,232468.96875,319101.65625,314509.0,212399.25,225922.6875,228987.015625,210008.59375,20995.0,1.0,4
221558.453125,232495.25,319138.40625,314532.96875,212506.1875,225887.28125,229497.625,210019.140625,20996.0,1.0,4
221119.828125,231661.0,318672.78125,313882.78125,211863.515625,225602.6875,227546.40625,209365.578125,20997.0,1.0,4
220876.46875,231089.6875,318324.1875,313431.71875,211337.28125,225440.875,225772.828125,208919.171875,20998.0,1.0,4
221185.625,231601.71875,318589.96875,313825.5625,211678.71875,225630.5,226691.9375,209331.515625,20999.0,1.0,4
221601.734375,232465.578125,319080.03125,314494.0625,212392.984375,225897.734375,228964.484375,210006.09375,21000.0,1.0,4
221562.03125,232510.09375,319130.0,314533.6875,212517.796875,225885.046875,229506.828125,210034.078125,21001.0,1.0,4
221115.890625,231666.1875,318660.4375,313876.0,211872.375,225610.296875,227560.171875,209370.671875,21002.0,1.0,4
220871.28125,231080.03125,318308.78125,313417.53125,211339.234375,225457.046875,225771.5,208920.328125,21003.0,1.0,4
221180.0,231577.21875,318566.90625,313803.75,211669.953125,225646.0625,226667.0,209328.203125,21004.0,1.0,4
221602.265625,232446.4375,319059.46875,314477.34375,212385.21875,225907.921875,228943.5625,210002.15625,21005.0,1.0,4
221567.578125,232500.4375,319113.46875,314523.75,212510.203125,225890.9375,229502.0,210029.78125,21006.0,1.0,4
221133.78125,231673.25,318656.6875,313879.40625,211873.984375,225612.796875,227573.671875,209378.640625,21007.0,1.0,4
220892.734375,231093.890625,318310.03125,313421.375,211347.640625,225454.28125,225781.59375,208931.953125,21008.0,1.0,4
221189.203125,231585.09375,318559.59375,313794.71875,211668.796875,225635.15625,226650.453125,209325.703125,21009.0,1.0,4
221605.3125,232452.078125,319054.28125,314467.5,212385.65625,225900.234375,228928.546875,209998.9375,21010.0,1.0,4
221567.3125,232507.6875,319111.21875,314513.90625,212514.578125,225880.21875,229505.390625,210033.0,21011.0,1.0,4
221131.984375,231680.40625,318649.875,313868.3125,211876.578125,225608.328125,227585.828125,209380.421875,21012.0,1.0,4
220886.46875,231094.875,318298.78125,313405.71875,211343.625,225462.765625,225786.34375,208929.28125,21013.0,1.0,4
221184.203125,231578.5625,318550.625,313780.34375,211666.46875,225649.640625,226644.28125,209322.21875,21014.0,1.0,4
221602.71875,232441.96875,319043.8125,314454.71875,212384.40625,225912.9375,228920.671875,209995.8125,21015.0,1.0,4
221573.125,232507.6875,319105.5,314504.15625,212520.484375,225897.375,229518.1875,210033.90625,21016.0,1.0,4
221136.8125,231683.625,318648.1875,313859.53125,211887.125,225626.5625,227605.765625,209382.484375,21017.0,1.0,4
220884.6875,231087.359375,318290.5625,313391.3125,211347.640625,225470.640625,225785.984375,208924.359375,21018.0,1.0,4
221180.71875,231568.375,318537.5,313760.75,211662.796875,225649.1875,226627.390625,209315.875,21019.0,1.0,4
221598.609375,232439.46875,319032.53125,314435.875,212380.921875,225906.328125,228909.140625,209994.921875,21020.0,1.0,4
221569.546875,232509.03125,319095.65625,314492.90625,212521.203125,225886.828125,229523.640625,210039.53125,21021.0,1.0,4
221135.296875,231688.890625,318640.21875,313852.03125,211889.546875,225614.765625,227623.828125,209394.015625,21022.0,1.0,4
220876.90625,231085.671875,318276.875,313375.6875,211341.5625,225451.6875,225788.390625,208924.453125,21023.0,1.0,4
221170.875,231563.015625,318518.53125,313738.03125,211650.109375,225631.125,226608.875,209307.28125,21024.0,1.0,4
221596.28125,232442.59375,319019.125,314418.0625,212375.015625,225907.296875,228896.984375,209990.53125,21025.0,1.0,4
221573.921875,232524.21875,319091.375,314482.625,212524.6875,225900.859375,229534.453125,210037.828125,21026.0,1.0,4
221145.671875,231704.0,318642.5625,313846.65625,211903.125,225634.703125,227651.015625,209395.171875,21027.0,1.0,4
220879.859375,231092.28125,318273.5625,313362.34375,211349.875,225466.4375,225803.140625,208919.34375,21028.0,1.0,4
221164.625,231556.578125,318512.09375,313717.21875,211649.578125,225644.265625,226599.578125,209295.671875,21029.0,1.0,4
221591.890625,232439.203125,319013.78125,314400.8125,212373.671875,225912.9375,228885.984375,209983.109375,21030.0,1.0,4
221569.015625,232524.046875,319086.1875,314470.71875,212525.84375,225898.1875,229542.859375,210042.125,21031.0,1.0,4
221136.1875,231705.703125,318634.9375,313837.09375,211902.6875,225619.40625,227665.140625,209401.703125,21032.0,1.0,4
220871.28125,231089.421875,318265.0,313351.625,211347.46875,225450.171875,225802.78125,208926.765625,21033.0,1.0,4
221160.59375,231555.234375,318503.34375,313708.28125,211648.234375,225636.765625,226587.15625,209305.859375,21034.0,1.0,4
221589.484375,232434.1875,318999.1875,314387.84375,212367.875,225908.203125,228866.859375,209983.734375,21035.0,1.0,4
221567.84375,232524.140625,319073.03125,314462.9375,212530.40625,225900.0625,229543.03125,210043.203125,21036.0,1.0,4
221138.609375,231712.40625,318627.71875,313831.1875,211917.875,225637.5625,227686.59375,209406.796875,21037.0,1.0,4
220874.5,231091.75,318256.59375,313342.9375,211357.75,225465.1875,225816.015625,208923.28125,21038.0,1.0,4
221157.203125,231540.84375,318484.125,313688.875,211646.984375,225635.234375,226574.375,209287.703125,21039.0,1.0,4
221585.453125,232419.4375,318981.03125,314368.0,212367.328125,225900.6875,228854.96875,209972.5625,21040.0,1.0,4
221579.203125,232530.390625,319067.9375,314458.3125,212539.4375,225899.171875,229557.25,210050.96875,21041.0,1.0,4
221144.328125,231713.296875,318615.625,313824.40625,211919.21875,225621.296875,227697.328125,209411.0,21042.0,1.0,4
220867.25,231077.171875,318232.8125,313324.71875,211348.0,225441.84375,225805.296875,208915.15625,21043.0,1.0,4
221147.359375,231519.203125,318457.3125,313667.40625,211632.859375,225617.453125,226547.28125,209275.546875,21044.0,1.0,4
221586.078125,232410.671875,318966.375,314358.15625,212363.84375,225901.3125,228840.484375,209970.6875,21045.0,1.0,4
221582.328125,232528.703125,319057.21875,314447.125,212541.046875,225901.9375,229555.828125,210051.6875,21046.0,1.0,4
221152.46875,231721.796875,318610.0,313817.25,211927.09375,225635.59375,227709.390625,209414.125,21047.0,1.0,4
220878.15625,231090.9375,318232.1875,313320.15625,211362.046875,225469.921875,225820.21875,208919.625,21048.0,1.0,4
221149.15625,231526.796875,318451.75,313655.25,211638.03125,225639.796875,226543.609375,209276.4375,21049.0,1.0,4
221579.921875,232406.921875,318951.0,314339.46875,212358.21875,225912.578125,228826.984375,209966.03125,21050.0,1.0,4
221579.375,232529.046875,319042.65625,314440.4375,212538.546875,225916.328125,229564.140625,210053.296875,21051.0,1.0,4
221154.078125,231728.140625,318603.03125,313820.5625,211932.453125,225645.15625,227738.09375,209424.328125,21052.0,1.0,4
220874.3125,231086.109375,318220.625,313316.40625,211357.921875,225464.828125,225830.140625,208926.0625,21053.0,1.0,4
221150.5,231517.0625,318437.28125,313647.84375,211626.859375,225633.625,226530.734375,209277.875,21054.0,1.0,4
221582.515625,232404.859375,318935.53125,314331.34375,212348.640625,225907.578125,228814.546875,209966.9375,21055.0,1.0,4
221579.296875,232533.796875,319028.875,314430.3125,212531.21875,225910.34375,229568.875,210057.6875,21056.0,1.0,4
221145.125,231725.46875,318580.6875,313800.90625,211916.71875,225633.453125,227740.5,209420.921875,21057.0,1.0,4
220873.78125,231091.921875,318206.15625,313303.78125,211349.703125,225463.9375,225832.921875,208931.25,21058.0,1.0,4
221141.109375,231511.953125,318419.03125,313627.09375,211615.234375,225628.71875,226513.65625,209274.75,21059.0,1.0,4
221574.28125,232398.421875,318919.53125,314311.125,212336.046875,225902.75,228792.5625,209963.359375,21060.0,1.0,4
221586.359375,232546.84375,319030.5,314429.875,212539.96875,225917.5,229583.546875,210068.140625,21061.0,1.0,4
221154.078125,231740.125,318583.1875,313801.78125,211925.65625,225639.078125,227764.28125,209431.75,21062.0,1.0,4
220867.96875,231083.796875,318192.21875,313285.90625,211342.109375,225454.015625,225830.328125,208922.484375,21063.0,1.0,4
221135.390625,231500.0625,318404.625,313606.6875,211606.921875,225618.609375,226492.921875,209263.921875,21064.0,1.0,4
221571.78125,232386.984375,318906.3125,314293.15625,212332.109375,225889.6875,228771.8125,209955.84375,21065.0,1.0,4
221582.59375,232534.234375,319013.21875,314409.84375,212533.453125,225900.6875,229570.84375,210059.5625,21066.0,1.0,4
221153.171875,231734.40625,318571.90625,313788.09375,211929.421875,225628.890625,227771.078125,209430.046875,21067.0,1.0,4
220868.6875,231080.921875,318183.1875,313277.9375,211351.84375,225445.78125,225839.0,208927.671875,21068.0,1.0,4
221128.140625,231486.125,318385.0625,313590.875,211606.75,225605.734375,226478.078125,209262.671875,21069.0,1.0,4
221563.828125,232375.453125,318888.78125,314280.03125,212333.984375,225884.6875,228759.203125,209953.34375,21070.0,1.0,4
221580.984375,232536.390625,319004.1875,314405.8125,212547.390625,225901.765625,229584.875,210066.359375,21071.0,1.0,4
221155.5,231742.71875,318566.65625,313787.9375,211948.28125,225631.125,227800.140625,209439.96875,21072.0,1.0,4
220863.3125,231075.828125,318169.3125,313260.96875,211354.4375,225441.578125,225840.421875,208920.25,21073.0,1.0,4
221121.890625,231476.375,318370.65625,313570.3125,211601.203125,225604.21875,226460.109375,209249.265625,21074.0,1.0,4
221560.15625,232366.328125,318876.53125,314265.1875,212328.96875,225883.4375,228746.875,209947.078125,21075.0,1.0,4
221586.625,232538.0,318998.125,314399.65625,212548.65625,225904.171875,229592.921875,210072.515625,21076.0,1.0,4
221163.28125,231751.21875,318566.90625,313789.09375,211957.671875,225642.84375,227825.4375,209454.90625,21077.0,1.0,4
220871.984375,231082.09375,318172.28125,313267.84375,211368.390625,225456.328125,225865.8125,208937.953125,21078.0,1.0,4
221124.484375,231468.59375,318365.65625,313566.125,211608.171875,225612.078125,226464.671875,209255.609375,21079.0,1.0,4
221562.390625,232360.078125,318865.25,314251.0625,212326.109375,225888.171875,228737.125,209947.265625,21080.0,1.0,4
221585.8125,232534.421875,318983.625,314385.96875,212543.109375,225908.015625,229592.484375,210070.90625,21081.0,1.0,4
221164.078125,231753.265625,318553.3125,313778.1875,211953.640625,225644.8125,227833.390625,209453.5625,21082.0,1.0,4
220860.546875,231072.171875,318151.625,313247.5625,211351.671875,225455.078125,225857.953125,208926.421875,21083.0,1.0,4
221114.734375,231461.984375,318344.5625,313547.6875,211585.28125,225610.734375,226437.390625,209241.21875,21084.0,1.0,4
221557.921875,232360.515625,318849.71875,314240.5,212313.0625,225894.609375,228717.640625,209938.765625,21085.0,1.0,4
221583.9375,232537.375,318972.65625,314380.4375,212536.671875,225916.515625,229593.828125,210073.15625,21086.0,1.0,4
221163.90625,231755.234375,318541.25,313769.25,211944.4375,225647.125,227839.828125,209452.65625,21087.0,1.0,4
220864.921875,231075.75,318137.59375,313236.375,211345.046875,225451.6875,225856.34375,208924.8125,21088.0,1.0,4
221116.34375,231452.421875,318331.3125,313529.53125,211579.65625,225607.796875,226421.296875,209239.34375,21089.0,1.0,4
221558.015625,232345.59375,318835.21875,314218.4375,212301.625,225882.984375,228692.234375,209932.25,21090.0,1.0,4
221586.359375,232534.0625,318963.15625,314367.1875,212534.078125,225899.796875,229589.34375,210067.6875,21091.0,1.0,4
221165.875,231757.109375,318536.4375,313765.84375,211948.734375,225633.1875,227852.625,209454.984375,21092.0,1.0,4
220871.09375,231081.203125,318136.3125,313235.40625,211351.3125,225443.734375,225866.171875,208930.171875,21093.0,1.0,4
221115.890625,231451.96875,318318.71875,313518.1875,211575.0,225596.4375,226406.1875,209236.125,21094.0,1.0,4
221556.484375,232349.53125,318827.96875,314213.15625,212307.34375,225883.078125,228685.890625,209936.359375,21095.0,1.0,4
221587.6875,232538.265625,318956.46875,314360.5,212540.875,225905.15625,229596.140625,210071.625,21096.0,1.0,4
221171.6875,231762.484375,318530.4375,313756.1875,211958.03125,225642.921875,227869.15625,209459.640625,21097.0,1.0,4
220875.125,231080.921875,318133.8125,313225.65625,211359.71875,225457.046875,225875.390625,208931.6875,21098.0,1.0,4
221118.3125,231446.15625,318318.625,313508.90625,211579.203125,225607.875,226400.203125,209232.71875,21099.0,1.0,4
221559.796875,232341.5625,318823.875,314201.4375,212304.75,225888.265625,228673.375,209929.375,21100.0,1.0,4
221597.078125,232540.140625,318958.4375,314357.90625,212547.75,225914.71875,229606.421875,210075.390625,21101.0,1.0,4
221180.453125,231768.640625,318531.96875,313758.15625,211968.21875,225651.59375,227891.328125,209466.609375,21102.0,1.0,4
220878.421875,231086.5625,318129.1875,313224.125,211370.265625,225460.453125,225892.734375,208935.71875,21103.0,1.0,4
221115.453125,231446.421875,318301.5625,313493.875,211577.6875,225604.21875,226390.015625,209226.546875,21104.0,1.0,4
221552.203125,232336.375,318801.25,314179.09375,212292.671875,225880.484375,228651.109375,209918.203125,21105.0,1.0,4
221605.390625,232555.96875,318954.03125,314354.15625,212553.203125,225922.140625,229616.0,210082.625,21106.0,1.0,4
221189.921875,231789.390625,318533.65625,313758.96875,211977.15625,225660.453125,227915.828125,209475.640625,21107.0,1.0,4
220884.515625,231100.59375,318126.75,313215.90625,211369.015625,225466.171875,225903.1875,208937.5,21108.0,1.0,4
221119.203125,231446.609375,318298.96875,313483.15625,211573.9375,225612.171875,226385.09375,209225.5625,21109.0,1.0,4
221562.921875,232340.5,318805.0,314176.5,212299.375,225892.90625,228653.53125,209923.65625,21110.0,1.0,4
221621.40625,232572.421875,318956.8125,314357.09375,212561.4375,225934.578125,229632.71875,210092.734375,21111.0,1.0,4
221206.828125,231810.578125,318535.0,313763.34375,211990.296875,225674.21875,227948.375,209487.265625,21112.0,1.0,4
220881.375,231099.25,318113.53125,313204.8125,211369.015625,225469.03125,225917.5,208932.859375,21113.0,1.0,4
221103.375,231431.84375,318272.9375,313459.4375,211558.28125,225609.9375,226369.453125,209213.046875,21114.0,1.0,4
221546.390625,232325.03125,318776.75,314152.53125,212281.5,225892.375,228633.40625,209914.265625,21115.0,1.0,4
221594.9375,232550.59375,318925.78125,314330.09375,212543.375,225923.671875,229624.046875,210080.03125,21116.0,1.0,4
221185.984375,231797.796875,318513.71875,313745.90625,211981.890625,225665.640625,227958.203125,209484.046875,21117.0,1.0,4
220871.28125,231094.34375,318096.4375,313192.125,211362.484375,225462.765625,225920.171875,208934.375,21118.0,1.0,4
221095.0625,231419.15625,318251.21875,313441.9375,211547.015625,225595.984375,226347.8125,209206.34375,21119.0,1.0,4
221540.9375,232315.1875,318752.15625,314134.1875,212268.359375,225879.046875,228606.953125,209902.65625,21120.0,1.0,4
221598.421875,232552.828125,318908.71875,314319.90625,212538.640625,225923.21875,229621.53125,210077.34375,21121.0,1.0,4
221186.96875,231797.4375,318497.4375,313733.9375,211979.125,225658.84375,227962.859375,209481.984375,21122.0,1.0,4
220869.671875,231082.265625,318081.625,313177.5625,211358.375,225452.84375,225915.625,208932.140625,21123.0,1.0,4
221098.015625,231408.96875,318241.75,313427.25,211545.234375,225590.171875,226330.015625,209203.84375,21124.0,1.0,4
221545.046875,232309.296875,318748.125,314123.28125,212273.8125,225874.046875,228588.703125,209904.890625,21125.0,1.0,4
221610.21875,232558.203125,318910.9375,314315.34375,212553.390625,225917.5,229620.015625,210085.3125,21126.0,1.0,4
221202.34375,231810.21875,318502.4375,313731.6875,211998.890625,225657.953125,227976.359375,209491.828125,21127.0,1.0,4
220877.171875,231095.5,318081.34375,313168.78125,211374.015625,225451.859375,225918.75,208935.359375,21128.0,1.0,4
221099.890625,231421.03125,318241.28125,313419.9375,211560.078125,225593.671875,226324.296875,209206.34375,21129.0,1.0,4
221543.171875,232318.40625,318741.53125,314112.5625,212278.46875,225875.75,228579.953125,209904.265625,21130.0,1.0,4
221601.734375,232565.171875,318896.46875,314302.90625,212550.4375,225914.546875,229621.265625,210086.375,21131.0,1.0,4
221192.515625,231815.140625,318487.0625,313723.375,211996.375,225659.828125,227988.96875,209498.078125,21132.0,1.0,4
220874.578125,231094.96875,318065.59375,313162.34375,211368.921875,225460.09375,225927.78125,208942.6875,21133.0,1.0,4
221097.296875,231406.09375,318221.71875,313404.375,211543.71875,225598.671875,226308.203125,209206.703125,21134.0,1.0,4
221546.5625,232303.5625,318729.90625,314097.90625,212266.921875,225884.328125,228560.1875,209900.765625,21135.0,1.0,4
221615.40625,232565.890625,318899.59375,314302.5625,212562.15625,225936.359375,229632.625,210094.703125,21136.0,1.0,4
221202.171875,231815.5,318484.03125,313719.1875,212004.78125,225677.890625,228008.90625,209501.390625,21137.0,1.0,4
220877.796875,231096.84375,318056.03125,313153.84375,211375.1875,225475.296875,225939.484375,208939.46875,21138.0,1.0,4
221090.140625,231404.84375,318199.1875,313386.9375,211544.34375,225610.296875,226298.28125,209195.703125,21139.0,1.0,4
221534.671875,232300.703125,318701.90625,314079.5,212264.6875,225895.328125,228546.859375,209898.453125,21140.0,1.0,4
221605.84375,232567.140625,318874.75,314285.84375,212553.296875,225941.09375,229628.875,210096.484375,21141.0,1.0,4
221204.59375,231832.21875,318478.21875,313716.3125,212009.171875,225681.46875,228026.703125,209514.625,21142.0,1.0,4
220878.875,231106.671875,318053.90625,313147.5,211373.65625,225468.046875,225947.8125,208945.71875,21143.0,1.0,4
221090.6875,231405.46875,318199.1875,313377.8125,211538.078125,225592.234375,226285.40625,209194.90625,21144.0,1.0,4
221535.65625,232299.546875,318699.59375,314066.53125,212254.140625,225867.875,228520.21875,209891.734375,21145.0,1.0,4
221618.984375,232583.6875,318880.65625,314283.15625,212560.984375,225922.59375,229626.546875,210102.109375,21146.0,1.0,4
221218.171875,231848.21875,318481.15625,313712.28125,212024.015625,225676.90625,228038.859375,209523.828125,21147.0,1.0,4
220892.109375,231119.28125,318056.5,313143.125,211394.578125,225480.46875,225959.78125,208956.09375,21148.0,1.0,4
221092.375,231402.171875,318188.28125,313357.71875,211544.78125,225611.8125,226271.28125,209192.125,21149.0,1.0,4
221532.890625,232293.90625,318684.75,314046.125,212255.84375,225891.65625,228505.375,209886.28125,21150.0,1.0,4
221614.875,232583.40625,318869.65625,314273.59375,212563.140625,225946.46875,229639.234375,210100.234375,21151.0,1.0,4
221212.1875,231855.8125,318468.375,313704.4375,212017.65625,225683.96875,228064.34375,209518.375,21152.0,1.0,4
220883.4375,231124.015625,318036.46875,313131.0625,211376.078125,225466.4375,225973.546875,208949.84375,21153.0,1.0,4
221083.078125,231398.0625,318164.5,313342.40625,211513.765625,225595.625,226263.6875,209180.421875,21154.0,1.0,4
221525.375,232289.0,318661.78125,314033.4375,212231.25,225896.9375,228499.65625,209878.953125,21155.0,1.0,4
221611.828125,232583.953125,318844.78125,314263.5625,212550.265625,225961.484375,229648.71875,210099.078125,21156.0,1.0,4
221210.21875,231855.640625,318444.6875,313697.71875,212016.859375,225705.953125,228090.71875,209525.171875,21157.0,1.0,4
220877.171875,231119.90625,318012.40625,313122.125,211383.40625,225496.203125,225995.8125,208955.5625,21158.0,1.0,4
221072.703125,231387.140625,318135.96875,313327.3125,211520.640625,225607.703125,226266.359375,209182.203125,21159.0,1.0,4
221519.125,232276.75,318631.71875,314017.53125,212230.1875,225868.765625,228494.828125,209879.140625,21160.0,1.0,4
221606.203125,232573.84375,318816.4375,314254.0,212543.109375,225900.59375,229655.15625,210100.859375,21161.0,1.0,4
221206.828125,231854.03125,318419.21875,313696.09375,212007.5625,225629.515625,228106.984375,209529.546875,21162.0,1.0,4
220873.78125,231116.78125,317989.25,313122.46875,211366.875,225409.9375,226003.859375,208960.296875,21163.0,1.0,4
221075.65625,231391.4375,318121.75,313333.375,211507.328125,225541.8125,226267.703125,209189.265625,21164.0,1.0,4
221524.84375,232288.09375,318620.90625,314025.21875,212221.859375,225831.125,228495.28125,209884.671875,21165.0,1.0,4
221619.4375,232598.515625,318816.4375,314267.40625,212552.5,225904.890625,229679.03125,210120.984375,21166.0,1.0,4
221223.1875,231886.75,318428.34375,313711.03125,212029.1875,225664.65625,228147.3125,209557.265625,21167.0,1.0,4
220879.953125,231137.96875,317990.3125,313123.09375,211381.53125,225450.4375,226024.25,208973.625,21168.0,1.0,4
221069.40625,231396.453125,318109.15625,313317.125,211505.984375,225568.453125,226249.828125,209187.84375,21169.0,1.0,4
221515.71875,232289.171875,318610.625,314009.21875,212219.546875,225853.484375,228467.5625,209884.765625,21170.0,1.0,4
221612.734375,232601.203125,318811.625,314256.59375,212552.046875,225920.984375,229664.1875,210119.734375,21171.0,1.0,4
221221.9375,231894.078125,318426.375,313705.5,212031.15625,225676.453125,228145.515625,209556.90625,21172.0,1.0,4
220883.171875,231152.0,317989.25,313121.65625,211385.28125,225467.328125,226027.203125,208974.78125,21173.0,1.0,4
221068.328125,231396.359375,318100.46875,313312.28125,211505.359375,225585.34375,226235.34375,209184.53125,21174.0,1.0,4
221516.890625,232285.59375,318598.5625,314001.4375,212218.015625,225870.921875,228444.046875,209883.25,21175.0,1.0,4
221622.109375,232613.71875,318806.53125,314259.1875,212560.890625,225940.203125,229660.96875,210127.0625,21176.0,1.0,4
221230.78125,231907.765625,318424.84375,313714.875,212046.546875,225692.015625,228158.125,209565.859375,21177.0,1.0,4
220878.25,231138.859375,317975.75,313118.0,211388.421875,225469.296875,226019.859375,208969.953125,21178.0,1.0,4
221068.78125,231386.25,318090.5625,313305.65625,211505.890625,225583.109375,226213.515625,209177.921875,21179.0,1.0,4
221518.84375,232283.546875,318590.15625,313994.46875,212216.0625,225858.9375,228424.921875,209875.921875,21180.0,1.0,4
221623.8125,232614.4375,318802.59375,314255.09375,212564.296875,225929.921875,229660.25,210129.390625,21181.0,1.0,4
221231.859375,231906.421875,318421.1875,313704.875,212049.578125,225684.046875,228165.453125,209571.125,21182.0,1.0,4
220885.671875,231144.765625,317980.40625,313104.875,211392.609375,225466.34375,226025.40625,208976.578125,21183.0,1.0,4
221063.59375,231375.34375,318084.90625,313280.8125,211498.296875,225574.171875,226192.515625,209173.09375,21184.0,1.0,4
221516.609375,232277.1875,318591.15625,313976.84375,212218.109375,225861.171875,228406.140625,209879.5,21185.0,1.0,4
221626.59375,232619.984375,318807.9375,314244.4375,212573.140625,225936.890625,229662.3125,210138.6875,21186.0,1.0,4
221239.984375,231922.875,318428.96875,313704.875,212069.0625,225692.09375,228189.328125,209583.640625,21187.0,1.0,4
220883.796875,231150.671875,317975.5,313099.6875,211404.6875,225459.015625,226035.875,208978.8125,21188.0,1.0,4
221066.265625,231382.59375,318082.5,313277.6875,211510.1875,225569.078125,226190.8125,209172.375,21189.0,1.0,4
221517.953125,232274.15625,318578.71875,313965.9375,212214.265625,225854.546875,228387.625,209868.140625,21190.0,1.0,4
221631.6875,232618.453125,318794.625,314234.53125,212564.921875,225931.171875,229648.453125,210126.875,21191.0,1.0,4
221245.0,231928.234375,318422.875,313696.75,212064.328125,225693.265625,228194.515625,209580.0625,21192.0,1.0,4
220891.03125,231162.734375,317975.75,313094.21875,211406.65625,225469.390625,226047.5,208981.484375,21193.0,1.0,4
221057.328125,231375.796875,318067.5,313252.46875,211496.59375,225568.265625,226171.765625,209160.75,21194.0,1.0,4
221506.953125,232260.65625,318563.25,313939.375,212201.578125,225850.4375,228363.3125,209857.953125,21195.0,1.0,4
221629.359375,232617.828125,318788.71875,314221.1875,212570.28125,225932.609375,229651.3125,210130.640625,21196.0,1.0,4
221240.96875,231930.921875,318412.59375,313685.65625,212071.75,225686.203125,228206.21875,209579.984375,21197.0,1.0,4
220884.59375,231156.921875,317960.09375,313078.9375,211407.375,225457.40625,226049.015625,208973.984375,21198.0,1.0,4
221056.171875,231371.953125,318054.4375,313240.40625,211498.390625,225559.0625,226159.609375,209154.3125,21199.0,1.0,4
221508.03125,232266.46875,318553.0625,313931.96875,212206.484375,225844.265625,228352.671875,209852.578125,21200.0,1.0,4
221627.21875,232625.078125,318774.59375,314210.03125,212568.5,225924.828125,229649.34375,210122.046875,21201.0,1.0,4
221244.375,231944.6875,318404.46875,313678.84375,212073.09375,225684.5,228216.953125,209580.15625,21202.0,1.0,4
220882.28125,231162.921875,317949.90625,313072.75,211409.609375,225457.671875,226054.734375,208975.046875,21203.0,1.0,4
221046.328125,231361.9375,318036.5625,313227.34375,211491.234375,225555.75,226142.796875,209148.328125,21204.0,1.0,4
221498.90625,232253.328125,318531.6875,313915.4375,212195.40625,225839.796875,228327.8125,209845.78125,21205.0,1.0,4
221623.015625,232618.28125,318759.40625,314198.84375,212563.671875,225920.796875,229639.328125,210121.078125,21206.0,1.0,4
221240.703125,231936.109375,318392.46875,313670.4375,212073.09375,225677.625,228222.40625,209580.34375,21207.0,1.0,4
220883.796875,231162.5625,317944.09375,313066.3125,211414.796875,225450.53125,226062.328125,208978.09375,21208.0,1.0,4
221042.3125,231351.921875,318020.71875,313210.0,211485.25,225538.234375,226123.765625,209141.4375,21209.0,1.0,4
221505.078125,232245.453125,318526.5,313907.46875,212200.59375,225831.390625,228315.390625,209846.140625,21210.0,1.0,4
221636.6875,232618.28125,318758.78125,314198.125,212577.171875,225914.28125,229651.484375,210129.65625,21211.0,1.0,4
221260.375,231948.984375,318394.96875,313673.59375,212093.125,225673.421875,228253.4375,209593.75,21212.0,1.0,4
220901.3125,231166.9375,317942.03125,313060.78125,211426.140625,225442.5625,226079.140625,208984.078125,21213.0,1.0,4
221058.234375,231349.421875,318021.09375,313198.28125,211492.3125,225535.546875,226125.09375,209143.3125,21214.0,1.0,4
221508.296875,232236.15625,318516.65625,313884.65625,212193.078125,225823.890625,228299.296875,209839.171875,21215.0,1.0,4
221643.578125,232622.578125,318757.0,314186.6875,212577.96875,225915.078125,229654.4375,210132.328125,21216.0,1.0,4
221263.140625,231951.21875,318393.8125,313664.0,212093.203125,225671.53125,228267.015625,209600.90625,21217.0,1.0,4
220899.53125,231166.3125,317934.625,313044.96875,211415.59375,225437.65625,226078.78125,208988.28125,21218.0,1.0,4
221050.53125,231348.4375,318008.5625,313179.96875,211476.65625,225538.328125,226111.953125,209139.109375,21219.0,1.0,4
221496.59375,232230.96875,318496.90625,313857.84375,212170.90625,225827.1875,228278.015625,209827.1875,21220.0,1.0,4
221640.265625,232626.6875,318743.40625,314167.5625,212565.09375,225931.359375,229650.328125,210126.34375,21221.0,1.0,4
221263.765625,231960.0625,318382.09375,313651.40625,212084.8125,225702.109375,228280.609375,209598.671875,21222.0,1.0,4
220886.65625,231157.109375,317911.8125,313022.6875,211398.15625,225471.265625,226083.875,208978.1875,21223.0,1.0,4
221045.078125,231337.53125,317993.0,313164.3125,211467.359375,225576.140625,226108.828125,209140.546875,21224.0,1.0,4
221497.21875,232220.421875,318487.15625,313852.03125,212168.21875,225853.03125,228278.015625,209833.265625,21225.0,1.0,4
221639.109375,232616.140625,318730.15625,314162.90625,212559.46875,225927.59375,229660.515625,210133.5,21226.0,1.0,4
221268.421875,231960.78125,318373.625,313655.6875,212088.46875,225679.578125,228307.96875,209613.859375,21227.0,1.0,4
220899.0,231165.6875,317911.1875,313035.40625,211415.765625,225436.84375,226117.234375,208997.9375,21228.0,1.0,4
221035.875,231320.359375,317971.28125,313153.59375,211462.984375,225514.359375,226097.390625,209136.15625,21229.0,1.0,4
221484.25,232206.828125,318464.0,313838.28125,212161.34375,225794.46875,228254.140625,209825.046875,21230.0,1.0,4
221628.28125,232609.78125,318708.71875,314149.40625,212554.453125,225890.671875,229644.421875,210122.765625,21231.0,1.0,4
221263.328125,231964.359375,318361.8125,313644.6875,212089.8125,225668.5,228310.203125,209605.640625,21232.0,1.0,4
220894.171875,231169.890625,317906.71875,313021.8125,211417.203125,225441.046875,226117.671875,208985.15625,21233.0,1.0,4
221032.390625,231321.34375,317971.8125,313134.46875,211460.484375,225533.578125,226085.140625,209122.75,21234.0,1.0,4
221481.5625,232199.671875,318462.3125,313813.6875,212154.0,225821.5625,228230.28125,209814.671875,21235.0,1.0,4
221640.359375,232624.984375,318724.28125,314145.5625,212570.375,225935.015625,229654.265625,210131.265625,21236.0,1.0,4
221273.15625,231976.78125,318377.375,313645.875,212110.5625,225708.734375,228333.71875,209615.921875,21237.0,1.0,4
220896.3125,231171.9375,317910.03125,313016.875,211427.671875,225467.328125,226129.296875,208986.3125,21238.0,1.0,4
221026.84375,231312.046875,317960.8125,313121.03125,211461.8125,225547.078125,226073.328125,209112.921875,21239.0,1.0,4
221475.9375,232191.90625,318448.90625,313801.4375,212155.890625,225827.109375,228214.1875,209805.546875,21240.0,1.0,4
221634.8125,232618.1875,318709.53125,314134.03125,212570.375,225925.359375,229649.796875,210125.984375,21241.0,1.0,4
221269.671875,231978.21875,318365.21875,313636.65625,212116.28125,225696.65625,228348.921875,209616.09375,21242.0,1.0,4
220889.6875,231168.546875,317891.25,313001.25,211422.390625,225452.3125,226137.078125,208985.0625,21243.0,1.0,4
221024.078125,231306.859375,317941.96875,313103.6875,211452.703125,225533.40625,226066.0,209109.875,21244.0,1.0,4
221477.1875,232189.9375,318434.0625,313787.5625,212149.625,225815.21875,228206.765625,209804.5625,21245.0,1.0,4
221629.625,232611.578125,318685.375,314112.75,212556.421875,225911.78125,229640.84375,210120.265625,21246.0,1.0,4
221268.875,231976.609375,318345.53125,313622.09375,212107.6875,225688.609375,228348.46875,209617.0,21247.0,1.0,4
220890.234375,231163.8125,317876.59375,312989.875,211421.765625,225451.859375,226133.6875,208987.390625,21248.0,1.0,4
221019.6875,231293.265625,317923.28125,313086.8125,211448.5,225525.796875,226043.734375,209105.3125,21249.0,1.0,4
221474.421875,232179.5625,318415.46875,313769.6875,212145.78125,225800.375,228180.75,209797.328125,21250.0,1.0,4
221637.21875,232613.359375,318682.59375,314109.0,212567.609375,225898.359375,229643.4375,210127.421875,21251.0,1.0,4
221275.390625,231978.75,318338.84375,313616.34375,212113.234375,225665.71875,228363.578125,209622.359375,21252.0,1.0,4
220892.90625,231169.078125,317864.09375,312976.84375,211417.921875,225424.5,226138.421875,208985.515625,21253.0,1.0,4
221023.09375,231302.390625,317914.15625,313070.25,211440.359375,225506.671875,226030.15625,209100.046875,21254.0,1.0,4
221480.859375,232192.171875,318412.25,313757.625,212142.296875,225805.734375,228168.671875,209797.0625,21255.0,1.0,4
221639.015625,232622.578125,318675.625,314095.40625,212562.234375,225919.109375,229638.078125,210125.453125,21256.0,1.0,4
221281.03125,231992.4375,318339.0,313608.9375,212117.96875,225700.234375,228374.84375,209625.9375,21257.0,1.0,4
220901.765625,231179.0,317870.25,312975.65625,211433.46875,225459.28125,226156.390625,208994.984375,21258.0,1.0,4
221020.140625,231291.21875,317904.5,313060.15625,211446.703125,225533.40625,226023.4375,209100.84375,21259.0,1.0,4
221469.234375,232163.640625,318387.03125,313733.84375,212132.734375,225814.40625,228136.75,209785.078125,21260.0,1.0,4
221649.296875,232621.765625,318671.59375,314094.6875,212576.453125,225933.046875,229642.109375,210133.40625,21261.0,1.0,4
221287.28125,231991.1875,318334.90625,313607.875,212131.828125,225704.625,228394.34375,209637.640625,21262.0,1.0,4
220905.703125,231174.1875,317864.25,312971.375,211444.203125,225465.28125,226171.046875,209005.0,21263.0,1.0,4
221021.390625,231284.859375,317898.6875,313050.15625,211451.0,225538.40625,226019.59375,209098.25,21264.0,1.0,4
221472.8125,232161.59375,318385.3125,313726.25,212139.609375,225820.9375,228132.546875,209784.28125,21265.0,1.0,4
221644.203125,232611.84375,318659.34375,314079.21875,212576.359375,225929.296875,229638.34375,210127.953125,21266.0,1.0,4
221288.359375,231994.046875,318328.09375,313602.40625,212144.96875,225703.09375,228409.890625,209636.390625,21267.0,1.0,4
220899.265625,231176.140625,317850.03125,312957.25,211448.5,225455.171875,226175.875,208995.890625,21268.0,1.0,4
221007.71875,231272.703125,317872.9375,313022.34375,211435.53125,225518.46875,225990.984375,209083.859375,21269.0,1.0,4
221464.578125,232158.46875,318366.5625,313707.375,212128.4375,225811.8125,228106.0,209783.109375,21270.0,1.0,4
221640.171875,232620.15625,318646.5625,314061.5,212567.15625,225930.453125,229626.453125,210134.21875,21271.0,1.0,4
221287.5625,232011.203125,318321.5,313587.75,212139.171875,225718.921875,228417.046875,209642.46875,21272.0,1.0,4
220899.078125,231189.5625,317847.90625,312945.625,211448.765625,225478.78125,226187.6875,208997.140625,21273.0,1.0,4
221010.484375,231282.09375,317874.0,313014.75,211444.203125,225544.671875,225996.171875,209085.109375,21274.0,1.0,4
221460.109375,232154.609375,318359.125,313690.21875,212127.71875,225819.859375,228096.4375,209771.484375,21275.0,1.0,4
221632.671875,232611.125,318632.90625,314048.1875,212560.265625,225930.28125,229623.765625,210120.4375,21276.0,1.0,4
221284.609375,232009.15625,318310.65625,313581.75,212134.96875,225713.5625,228427.5,209639.875,21277.0,1.0,4
220897.03125,231187.328125,317834.9375,312937.65625,211445.015625,225463.046875,226192.875,208995.53125,21278.0,1.0,4
221004.5,231273.15625,317854.34375,312997.65625,211435.625,225524.640625,225981.421875,209079.21875,21279.0,1.0,4
221458.953125,232152.734375,318343.03125,313677.4375,212125.9375,225813.875,228082.125,209771.578125,21280.0,1.0,4
221635.34375,232618.1875,318625.46875,314040.6875,212572.4375,225930.640625,229632.265625,210126.703125,21281.0,1.0,4
221288.625,232016.296875,318303.96875,313574.96875,212151.234375,225710.515625,228453.96875,209648.46875,21282.0,1.0,4
220899.625,231185.984375,317823.84375,312926.59375,211450.734375,225459.90625,226210.65625,209000.265625,21283.0,1.0,4
221001.453125,231259.65625,317839.5,312982.65625,211431.328125,225523.390625,225975.25,209077.15625,21284.0,1.0,4
221459.03125,232139.859375,318333.1875,313663.84375,212124.328125,225817.71875,228069.703125,209769.875,21285.0,1.0,4
221650.546875,232620.6875,318625.84375,314039.34375,212581.90625,225941.1875,229638.171875,210135.828125,21286.0,1.0,4
221303.296875,232019.25,318300.125,313571.5625,212156.78125,225722.671875,228466.046875,209652.671875,21287.0,1.0,4
220910.078125,231191.96875,317821.15625,312923.0,211457.609375,225472.421875,226221.65625,209005.984375,21288.0,1.0,4
221007.890625,231262.421875,317833.5,312971.65625,211431.78125,225528.578125,225967.03125,209074.65625,21289.0,1.0,4
221460.109375,232138.34375,318317.75,313645.78125,212110.375,225812.796875,228046.359375,209759.515625,21290.0,1.0,4
221648.9375,232623.46875,318610.8125,314025.3125,212571.171875,225937.078125,229628.0625,210129.203125,21291.0,1.0,4
221308.75,232036.6875,318302.09375,313573.8125,212165.625,225728.3125,228485.53125,209665.453125,21292.0,1.0,4
220910.890625,231199.65625,317814.46875,312917.03125,211458.15625,225473.765625,226232.390625,209013.671875,21293.0,1.0,4
221005.65625,231264.921875,317821.53125,312959.9375,211425.421875,225531.4375,225957.640625,209075.453125,21294.0,1.0,4
221455.1875,232133.96875,318304.3125,313629.9375,212102.328125,225816.640625,228027.5,209757.984375,21295.0,1.0,4
221648.765625,232621.140625,318600.8125,314010.1875,212565.90625,225944.234375,229623.140625,210134.390625,21296.0,1.0,4
221308.203125,232034.546875,318288.5,313557.96875,212162.671875,225734.390625,228497.875,209671.359375,21297.0,1.0,4
220908.015625,231195.90625,317804.53125,312904.84375,211462.984375,225481.015625,226249.375,209018.765625,21298.0,1.0,4
221000.921875,231253.65625,317807.75,312942.59375,211426.234375,225535.453125,225958.0,209076.34375,21299.0,1.0,4
221449.296875,232116.4375,318286.09375,313611.0,212100.09375,225816.375,228017.84375,209754.5,21300.0,1.0,4
221655.375,232625.875,318594.71875,314007.875,212578.875,225948.78125,229633.078125,210145.5625,21301.0,1.0,4
221312.046875,232044.5625,318279.1875,313554.75,212171.796875,225730.71875,228511.109375,209677.515625,21302.0,1.0,4
220906.328125,231199.484375,317786.65625,312891.90625,211460.125,225469.828125,226249.203125,209012.609375,21303.0,1.0,4
220989.828125,231242.9375,317783.625,312922.75,211415.765625,225518.46875,225936.359375,209061.421875,21304.0,1.0,4
221439.71875,232110.453125,318267.65625,313592.75,212091.59375,225807.25,227992.453125,209743.234375,21305.0,1.0,4
221638.484375,232615.59375,318569.3125,313980.5,212561.4375,225931.09375,229611.609375,210121.078125,21306.0,1.0,4
221307.578125,232050.375,318269.46875,313541.96875,212171.265625,225723.390625,228522.71875,209669.03125,21307.0,1.0,4
220916.515625,231216.640625,317793.0,312891.1875,211476.390625,225476.09375,226275.921875,209019.046875,21308.0,1.0,4
220998.765625,231246.0625,317785.84375,312915.59375,211423.28125,225521.875,225939.765625,209064.1875,21309.0,1.0,4
221449.109375,232108.21875,318260.96875,313582.125,212091.953125,225800.109375,227981.90625,209743.328125,21310.0,1.0,4
221654.484375,232628.03125,318571.03125,313982.375,212575.375,225933.765625,229621.890625,210139.578125,21311.0,1.0,4
221322.15625,232067.796875,318272.59375,313545.0,212190.84375,225729.03125,228546.78125,209690.578125,21312.0,1.0,4
220915.09375,231218.171875,317780.5,312880.0,211480.859375,225468.765625,226283.53125,209023.953125,21313.0,1.0,4
220986.703125,231237.296875,317764.84375,312893.9375,211418.015625,225506.21875,225924.5625,209052.203125,21314.0,1.0,4
221434.0,232095.78125,318242.1875,313559.125,212084.0,225789.375,227959.28125,209729.46875,21315.0,1.0,4
221644.015625,232617.65625,318557.15625,313964.96875,212571.890625,225927.6875,229611.609375,210127.953125,21316.0,1.0,4
221311.703125,232054.84375,318255.59375,313526.9375,212182.796875,225717.9375,228547.140625,209677.34375,21317.0,1.0,4
220907.125,231205.375,317768.40625,312864.4375,211472.640625,225460.71875,226285.5,209015.734375,21318.0,1.0,4
220989.65625,231234.34375,317761.53125,312884.125,211418.359375,225513.640625,225921.875,209055.421875,21319.0,1.0,4
221436.78125,232093.015625,318233.5,313547.96875,212083.828125,225789.828125,227951.859375,209729.375,21320.0,1.0,4
221654.921875,232622.9375,318552.4375,313964.59375,212578.15625,225931.984375,229619.296875,210134.578125,21321.0,1.0,4
221322.953125,232061.0,318251.65625,313525.96875,212188.421875,225725.625,228562.15625,209684.5,21322.0,1.0,4
220919.015625,231211.640625,317764.40625,312863.5625,211481.3125,225471.265625,226301.140625,209026.015625,21323.0,1.0,4
220992.78125,231231.84375,317745.625,312872.40625,211409.609375,225514.453125,225911.6875,209052.203125,21324.0,1.0,4
221437.3125,232085.234375,318216.78125,313536.34375,212068.984375,225798.765625,227931.5625,209724.90625,21325.0,1.0,4
221650.90625,232612.203125,318533.21875,313949.40625,212560.453125,225941.546875,229609.46875,210129.203125,21326.0,1.0,4
221330.828125,232067.265625,318243.625,313526.5,212189.046875,225740.296875,228584.859375,209691.921875,21327.0,1.0,4
220923.046875,231217.0,317753.125,312860.15625,211478.890625,225479.140625,226316.34375,209026.28125,21328.0,1.0,4
220984.640625,231220.84375,317727.90625,312859.875,211398.703125,225516.953125,225900.6875,209042.546875,21329.0,1.0,4
221428.8125,232070.21875,318198.1875,313520.34375,212055.65625,225793.21875,227908.953125,209712.65625,21330.0,1.0,4
221647.328125,232605.671875,318520.0625,313939.125,212554.015625,225933.5,229599.0,210125.0,21331.0,1.0,4
221321.984375,232065.296875,318229.65625,313515.6875,212185.296875,225734.5625,228591.296875,209693.171875,21332.0,1.0,4
220911.515625,231211.1875,317736.9375,312845.75,211471.734375,225474.484375,226321.53125,209023.78125,21333.0,1.0,4
220984.828125,231220.40625,317720.59375,312849.25,211399.328125,225525.890625,225897.5625,209042.734375,21334.0,1.0,4
221428.375,232067.0,318186.40625,313503.875,212055.296875,225806.0,227894.46875,209709.0,21335.0,1.0,4
221650.375,232609.078125,318510.21875,313926.78125,212557.765625,225946.375,229596.59375,210126.4375,21336.0,1.0,4
221332.171875,232076.65625,318226.625,313510.78125,212192.453125,225744.5,228602.5625,209698.171875,21337.0,1.0,4
220923.125,231230.421875,317743.84375,312852.8125,211493.921875,225494.515625,226350.859375,209040.3125,21338.0,1.0,4
220973.640625,231208.15625,317706.46875,312833.5,211397.71875,225523.03125,225892.375,209041.21875,21339.0,1.0,4
221419.4375,232054.21875,318171.5625,313486.4375,212048.15625,225794.109375,227874.96875,209705.859375,21340.0,1.0,4
221651.171875,232612.296875,318505.5,313917.40625,212561.796875,225935.375,229590.0625,210129.75,21341.0,1.0,4
221332.890625,232080.40625,318225.90625,313505.03125,212206.484375,225726.796875,228608.921875,209708.546875,21342.0,1.0,4
220915.71875,231219.515625,317728.375,312832.25,211494.546875,225453.65625,226331.0,209038.796875,21343.0,1.0,4
220971.40625,231208.328125,317695.8125,312821.0,211410.234375,225475.46875,225868.40625,209046.21875,21344.0,1.0,4
221411.734375,232052.15625,318156.90625,313470.625,212061.203125,225726.515625,227847.34375,209710.609375,21345.0,1.0,4
221637.046875,232604.0625,318480.71875,313894.40625,212572.078125,225840.609375,229565.921875,210131.984375,21346.0,1.0,4
221325.546875,232082.109375,318207.125,313487.78125,212227.234375,225617.796875,228607.65625,209712.484375,21347.0,1.0,4
220920.984375,231233.71875,317721.9375,312822.59375,211526.015625,225330.546875,226339.9375,209050.875,21348.0,1.0,4
220968.46875,231204.75,317676.34375,312795.15625,211425.96875,225324.640625,225841.953125,209046.84375,21349.0,1.0,4
221418.265625,232059.671875,318148.03125,313453.5625,212083.734375,225587.578125,227822.046875,209717.84375,21350.0,1.0,4
221651.0,232620.96875,318482.5,313886.53125,212595.234375,225731.984375,229560.46875,210146.109375,21351.0,1.0,4
221332.890625,232093.734375,318204.625,313478.21875,212238.40625,225533.84375,228614.90625,209726.609375,21352.0,1.0,4
220921.25,231237.390625,317714.9375,312809.8125,211528.25,225274.390625,226351.65625,209059.453125,21353.0,1.0,4
220968.1875,231202.34375,317669.53125,312778.34375,211418.984375,225306.125,225846.953125,209049.34375,21354.0,1.0,4
221411.03125,232042.234375,318133.1875,313427.625,212060.3125,225596.609375,227810.421875,209711.859375,21355.0,1.0,4
221646.25,232608.53125,318470.25,313869.46875,212577.53125,225766.125,229563.421875,210146.90625,21356.0,1.0,4
221338.25,232097.125,318201.59375,313472.5,212229.375,225591.078125,228638.15625,209733.140625,21357.0,1.0,4
220920.09375,231229.875,317703.59375,312796.125,211503.578125,225334.109375,226359.796875,209054.171875,21358.0,1.0,4
220963.09375,231185.359375,317650.125,312758.9375,211382.0625,225361.109375,225826.65625,209033.796875,21359.0,1.0,4
221404.40625,232023.1875,318107.71875,313405.8125,212022.671875,225654.109375,227781.8125,209691.65625,21360.0,1.0,4
221641.421875,232595.390625,318447.8125,313853.71875,212546.234375,225823.625,229549.5625,210132.0625,21361.0,1.0,4
221341.296875,232095.703125,318188.53125,313469.0,212213.375,225650.4375,228651.65625,209732.15625,21362.0,1.0,4
220928.859375,231237.921875,317699.84375,312799.625,211503.75,225409.578125,226387.234375,209059.546875,21363.0,1.0,4
220963.015625,231182.046875,317643.15625,312753.21875,211376.96875,225450.25,225833.28125,209027.71875,21364.0,1.0,4
221404.859375,232018.09375,318105.03125,313398.84375,212018.109375,225748.25,227781.984375,209684.234375,21365.0,1.0,4
221654.75,232608.265625,318458.8125,313856.78125,212555.53125,225922.6875,229574.515625,210135.109375,21366.0,1.0,4
221355.234375,232112.859375,318201.78125,313475.71875,212231.875,225745.5625,228694.921875,209740.734375,21367.0,1.0,4
220929.296875,231237.296875,317697.25,312793.375,211508.84375,225479.3125,226411.375,209056.953125,21368.0,1.0,4
220957.828125,231175.25,317633.15625,312742.3125,211376.25,225501.03125,225837.296875,209020.03125,21369.0,1.0,4
221399.5,232012.546875,318092.96875,313388.1875,212017.84375,225788.390625,227779.3125,209678.59375,21370.0,1.0,4
221647.515625,232599.234375,318442.625,313844.78125,212551.953125,225955.859375,229573.53125,210128.21875,21371.0,1.0,4
221349.875,232105.71875,318185.6875,313462.84375,212224.015625,225769.078125,228704.21875,209733.671875,21372.0,1.0,4
220930.28125,231235.609375,317690.09375,312785.84375,211508.21875,225504.609375,226428.015625,209055.515625,21373.0,1.0,4
220961.9375,231170.515625,317629.3125,312733.375,211378.765625,225523.65625,225840.875,209019.046875,21374.0,1.0,4
221399.765625,232002.09375,318084.03125,313376.65625,212015.78125,225805.203125,227769.390625,209675.828125,21375.0,1.0,4
221653.234375,232597.265625,318437.8125,313843.4375,212557.046875,225973.640625,229576.390625,210136.359375,21376.0,1.0,4
221354.703125,232112.859375,318178.96875,313467.84375,212234.734375,225785.703125,228725.859375,209743.859375,21377.0,1.0,4
220936.359375,231248.828125,317681.25,312789.53125,211518.328125,225527.6875,226452.59375,209066.875,21378.0,1.0,4
220958.1875,231171.671875,317608.125,312723.53125,211369.375,225550.03125,225839.984375,209021.359375,21379.0,1.0,4
221398.78125,232006.203125,318067.84375,313367.375,212000.765625,225846.421875,227761.25,209681.453125,21380.0,1.0,4
221654.84375,232606.84375,318428.15625,313837.1875,212542.484375,226034.078125,229580.953125,210145.296875,21381.0,1.0,4
221359.703125,232119.484375,318175.65625,313463.125,212222.5,225869.3125,228742.046875,209749.765625,21382.0,1.0,4
220944.140625,231254.640625,317680.25,312788.375,211508.125,225625.21875,226471.109375,209068.03125,21383.0,1.0,4
220969.796875,231174.09375,317608.28125,312724.0625,211365.796875,225643.46875,225850.0,209024.140625,21384.0,1.0,4
221404.59375,231997.34375,318059.78125,313356.1875,211993.4375,225909.09375,227751.046875,209674.484375,21385.0,1.0,4
221656.53125,232597.0,318414.65625,313819.75,212535.0625,226068.5,229570.671875,210135.375,21386.0,1.0,4
221373.75,232129.9375,318172.90625,313457.03125,212230.984375,225892.640625,228759.921875,209759.15625,21387.0,1.0,4
220951.203125,231266.09375,317678.90625,312778.15625,211514.203125,225626.390625,226487.734375,209078.40625,21388.0,1.0,4
220967.921875,231183.390625,317602.65625,312704.40625,211359.265625,225641.40625,225841.671875,209019.3125,21389.0,1.0,4
221408.171875,232017.46875,318058.8125,313345.1875,211988.515625,225937.875,227742.203125,209669.921875,21390.0,1.0,4
221659.40625,232627.40625,318410.8125,313811.25,212528.359375,226121.4375,229577.109375,210128.671875,21391.0,1.0,4
221364.71875,232161.046875,318164.21875,313447.5625,212220.703125,225950.75,228780.046875,209754.0625,21392.0,1.0,4
220941.109375,231288.984375,317666.59375,312767.4375,211506.15625,225683.515625,226506.859375,209076.171875,21393.0,1.0,4
220956.65625,231184.8125,317577.1875,312683.65625,211345.328125,225671.8125,225834.171875,209008.578125,21394.0,1.0,4
221390.640625,231995.109375,318020.09375,313312.09375,211970.09375,225916.25,227714.484375,209653.828125,21395.0,1.0,4
221645.359375,232599.6875,318378.625,313788.8125,212529.515625,226046.953125,229568.875,210124.46875,21396.0,1.0,4
221358.984375,232136.203125,318135.78125,313434.25,212233.125,225830.328125,228794.796875,209756.921875,21397.0,1.0,4
220941.90625,231264.21875,317642.8125,312763.875,211524.484375,225525.890625,226529.84375,209084.390625,21398.0,1.0,4
220956.921875,231159.78125,317556.0625,312680.90625,211360.34375,225492.71875,225844.890625,209016.890625,21399.0,1.0,4
221388.5,231976.078125,317997.21875,313309.6875,211975.546875,225744.21875,227715.03125,209657.046875,21400.0,1.0,4
221650.453125,232603.796875,318361.71875,313793.84375,212533.1875,225912.125,229579.515625,210135.828125,21401.0,1.0,4
221364.796875,232154.078125,318122.75,313441.84375,212237.609375,225728.3125,228817.6875,209770.421875,21402.0,1.0,4
220946.375,231292.109375,317629.03125,312767.34375,211526.453125,225460.171875,226547.71875,209092.53125,21403.0,1.0,4
220950.9375,231183.484375,317536.125,312674.28125,211349.515625,225466.609375,225836.21875,209015.640625,21404.0,1.0,4
221387.25,232006.109375,317983.625,313305.40625,211967.234375,225752.265625,227698.21875,209660.71875,21405.0,1.0,4
221653.3125,232635.8125,318355.71875,313793.75,212530.328125,225926.171875,229573.4375,210144.046875,21406.0,1.0,4
221366.40625,232179.734375,318118.625,313440.125,212231.34375,225748.96875,228822.6875,209778.28125,21407.0,1.0,4
220939.765625,231306.234375,317623.59375,312759.9375,211516.265625,225494.953125,226551.390625,209098.515625,21408.0,1.0,4
220945.03125,231189.640625,317532.65625,312665.15625,211340.9375,225510.25,225824.78125,209019.75,21409.0,1.0,4
221376.15625,232000.125,317975.3125,313293.78125,211955.34375,225785.984375,227672.375,209659.28125,21410.0,1.0,4
221647.328125,232635.53125,318347.96875,313788.03125,212520.671875,225968.453125,229554.03125,210143.15625,21411.0,1.0,4
221376.875,232206.828125,318127.5625,313456.125,212247.53125,225805.46875,228840.296875,209796.96875,21412.0,1.0,4
220949.234375,231329.84375,317627.34375,312772.34375,211524.21875,225534.390625,226564.265625,209113.359375,21413.0,1.0,4
220942.625,231196.53125,317522.28125,312663.28125,211335.125,225523.84375,225808.6875,209024.21875,21414.0,1.0,4
221372.140625,232001.28125,317958.59375,313285.8125,211944.25,225787.40625,227638.484375,209660.0,21415.0,1.0,4
221651.0,232642.421875,318338.03125,313784.96875,212520.03125,225971.140625,229538.65625,210152.09375,21416.0,1.0,4
221384.109375,232218.625,318123.8125,313454.53125,212254.5,225808.15625,228847.71875,209803.234375,21417.0,1.0,4
220955.5,231342.53125,317628.0625,312771.71875,211544.96875,225530.28125,226582.328125,209115.6875,21418.0,1.0,4
220946.015625,231197.34375,317522.5625,312657.65625,211354.796875,225514.453125,225810.828125,209018.140625,21419.0,1.0,4
221379.203125,231997.4375,317964.5625,313279.03125,211964.375,225783.203125,227638.578125,209655.078125,21420.0,1.0,4
221662.265625,232640.8125,318349.03125,313782.375,212544.53125,225961.21875,229551.53125,210153.4375,21421.0,1.0,4
221395.65625,232219.53125,318132.21875,313454.1875,212282.03125,225787.765625,228871.40625,209808.953125,21422.0,1.0,4
220961.75,231337.703125,317630.28125,312764.3125,211560.703125,225507.65625,226593.234375,209116.765625,21423.0,1.0,4
220945.9375,231188.484375,317518.96875,312643.96875,211361.40625,225495.671875,225802.609375,209011.34375,21424.0,1.0,4
221372.140625,231985.640625,317957.875,313262.84375,211968.578125,225766.484375,227617.125,209644.0,21425.0,1.0,4
221653.671875,232636.4375,318338.03125,313764.59375,212546.140625,225950.75,229529.890625,210137.078125,21426.0,1.0,4
221393.6875,232227.03125,318129.09375,313448.4375,212291.328125,225794.5625,228875.53125,209804.125,21427.0,1.0,4
220962.03125,231347.1875,317631.53125,312761.28125,211574.5625,225526.078125,226607.546875,209115.953125,21428.0,1.0,4
220941.734375,231188.84375,317517.1875,312632.96875,211372.765625,225516.234375,225801.625,209005.546875,21429.0,1.0,4
221365.609375,231980.8125,317946.25,313239.96875,211968.125,225779.71875,227596.296875,209630.671875,21430.0,1.0,4
221649.921875,232632.3125,318326.6875,313744.46875,212545.515625,225952.359375,229516.75,210129.828125,21431.0,1.0,4
221391.171875,232225.15625,318120.25,313435.5,212295.8125,225791.078125,228879.109375,209804.484375,21432.0,1.0,4
220957.828125,231341.8125,317616.96875,312747.21875,211576.53125,225516.234375,226609.421875,209118.8125,21433.0,1.0,4
220936.546875,231172.84375,317492.6875,312611.25,211359.984375,225499.96875,225775.96875,209000.53125,21434.0,1.0,4
221364.0,231968.734375,317929.34375,313227.34375,211957.21875,225765.234375,227569.46875,209631.484375,21435.0,1.0,4
221649.296875,232624.546875,318313.71875,313736.34375,212534.34375,225946.28125,229502.359375,210135.734375,21436.0,1.0,4
221392.34375,232226.328125,318110.125,313427.53125,212284.265625,225783.46875,228880.796875,209807.4375,21437.0,1.0,4
220966.234375,231353.796875,317611.40625,312743.9375,211566.15625,225508.453125,226615.9375,209118.546875,21438.0,1.0,4
220945.9375,231186.875,317490.53125,312610.71875,211351.40625,225493.4375,225773.28125,209001.609375,21439.0,1.0,4
221369.546875,231975.4375,317922.1875,313219.5625,211945.78125,225752.984375,227553.203125,209625.046875,21440.0,1.0,4
221658.328125,232637.5,318311.125,313734.09375,212532.375,225932.421875,229498.6875,210134.484375,21441.0,1.0,4
221399.9375,232236.421875,318104.59375,313422.96875,212283.5625,225759.25,228892.515625,209811.0,21442.0,1.0,4
220963.359375,231347.890625,317599.78125,312733.65625,211562.484375,225474.21875,226624.171875,209120.96875,21443.0,1.0,4
220936.546875,231167.03125,317472.21875,312590.875,211341.296875,225452.046875,225757.90625,208992.84375,21444.0,1.0,4
221372.40625,231966.0625,317913.15625,313210.1875,211949.796875,225729.296875,227542.375,209623.703125,21445.0,1.0,4
221658.953125,232627.671875,318299.40625,313724.53125,212537.46875,225913.46875,229496.640625,210131.890625,21446.0,1.0,4
221402.171875,232234.90625,318098.78125,313419.84375,212295.890625,225750.65625,228907.625,209814.765625,21447.0,1.0,4
220963.90625,231348.078125,317592.375,312726.65625,211572.765625,225470.109375,226637.84375,209121.328125,21448.0,1.0,4
220929.484375,231156.5625,317458.4375,312574.9375,211345.5,225444.71875,225746.90625,208985.875,21449.0,1.0,4
221354.796875,231942.8125,317888.125,313182.71875,211942.109375,225709.171875,227505.359375,209609.21875,21450.0,1.0,4
221648.40625,232614.609375,318281.4375,313706.03125,212539.703125,225889.6875,229476.703125,210127.421875,21451.0,1.0,4
221394.484375,232230.078125,318084.03125,313408.65625,212308.40625,225716.953125,228915.40625,209815.03125,21452.0,1.0,4
220954.25,231339.765625,317575.3125,312711.8125,211586.8125,225429.78125,226649.734375,209121.046875,21453.0,1.0,4
220919.828125,231145.75,317439.21875,312554.46875,211352.109375,225399.734375,225742.890625,208981.3125,21454.0,1.0,4
221337.359375,231913.84375,317859.15625,313147.0625,211928.515625,225659.28125,227476.75,209593.5625,21455.0,1.0,4
221646.171875,232600.9375,318269.09375,313682.96875,212535.953125,225864.203125,229468.46875,210125.984375,21456.0,1.0,4
221399.765625,232227.125,318082.40625,313393.75,212307.078125,225720.984375,228928.28125,209825.84375,21457.0,1.0,4
220962.46875,231343.25,317582.28125,312705.21875,211588.234375,225455.265625,226669.5,209137.765625,21458.0,1.0,4
220926.078125,231148.703125,317443.78125,312545.71875,211349.703125,225437.296875,225748.0625,208991.765625,21459.0,1.0,4
221345.3125,231927.515625,317863.71875,313141.78125,211924.3125,225701.21875,227477.828125,209603.84375,21460.0,1.0,4
221645.984375,232612.015625,318261.0625,313672.6875,212522.90625,225905.875,229467.578125,210130.1875,21461.0,1.0,4
221407.1875,232252.609375,318076.5,313392.3125,212304.296875,225765.328125,228947.859375,209834.875,21462.0,1.0,4
220968.8125,231367.921875,317572.15625,312703.25,211585.5625,225497.734375,226692.46875,209145.1875,21463.0,1.0,4
220922.59375,231149.6875,317425.09375,312533.90625,211336.296875,225475.828125,225750.484375,208989.796875,21464.0,1.0,4
221335.484375,231904.28125,317834.9375,313122.65625,211898.578125,225734.125,227455.65625,209593.03125,21465.0,1.0,4
221647.78125,232599.78125,318242.28125,313663.84375,212508.421875,225934.75,229459.171875,210129.390625,21466.0,1.0,4
221409.859375,232239.90625,318060.5,313386.84375,212296.515625,225782.9375,228957.515625,209838.640625,21467.0,1.0,4
220971.328125,231355.859375,317556.53125,312696.09375,211579.484375,225498.453125,226700.4375,209146.0,21468.0,1.0,4
220917.40625,231134.65625,317400.40625,312515.9375,211322.25,225456.25,225727.953125,208980.59375,21469.0,1.0,4
221336.1875,231907.234375,317822.25,313110.75,211901.15625,225714.1875,227435.0,209591.421875,21470.0,1.0,4
221651.0,232609.96875,318236.03125,313655.0625,212519.859375,225909.625,229450.40625,210131.4375,21471.0,1.0,4
221417.640625,232260.46875,318063.1875,313385.78125,212317.703125,225764.15625,228970.65625,209846.40625,21472.0,1.0,4
220980.359375,231379.8125,317562.875,312695.28125,211603.171875,225489.0625,226718.40625,209152.078125,21473.0,1.0,4
220925.90625,231154.421875,317407.9375,312513.25,211341.203125,225453.390625,225731.890625,208982.109375,21474.0,1.0,4
221343.34375,231918.84375,317826.96875,313105.3125,211913.234375,225724.109375,227426.6875,209588.109375,21475.0,1.0,4
221656.984375,232619.71875,318238.875,313649.78125,212530.328125,225933.046875,229447.46875,210129.828125,21476.0,1.0,4
221424.796875,232271.734375,318069.1875,313384.625,212335.859375,225795.453125,228990.0625,209851.0625,21477.0,1.0,4
220978.125,231372.390625,317561.0,312687.5,211615.859375,225516.140625,226737.8125,209151.1875,21478.0,1.0,4
220917.40625,231130.734375,317399.78125,312498.5,211347.203125,225475.015625,225736.53125,208973.4375,21479.0,1.0,4
221328.140625,231887.203125,317807.9375,313081.625,211910.734375,225726.34375,227410.140625,209572.46875,21480.0,1.0,4
221644.375,232597.09375,318220.1875,313630.3125,212530.5,225925.359375,229439.421875,210120.71875,21481.0,1.0,4
221414.515625,232259.765625,318048.875,313367.28125,212335.859375,225781.0625,228994.890625,209843.734375,21482.0,1.0,4
220970.34375,231373.015625,317541.5,312673.65625,211617.296875,225497.109375,226744.25,209143.5,21483.0,1.0,4
220907.046875,231127.515625,317375.03125,312477.9375,211339.421875,225453.828125,225720.71875,208962.53125,21484.0,1.0,4
221319.46875,231883.4375,317784.4375,313060.6875,211896.6875,225715.53125,227385.109375,209561.109375,21485.0,1.0,4
221637.40625,232592.625,318199.28125,313611.96875,212515.921875,225922.40625,229423.953125,210111.234375,21486.0,1.0,4
221412.71875,232260.390625,318032.875,313357.0,212328.4375,225783.921875,229004.09375,209845.609375,21487.0,1.0,4
220970.515625,231369.265625,317525.40625,312663.28125,211610.5,225500.140625,226756.140625,209152.25,21488.0,1.0,4
220904.171875,231115.703125,317356.15625,312461.65625,211331.1875,225455.0,225718.296875,208966.828125,21489.0,1.0,4
221315.265625,231862.96875,317760.625,313038.6875,211886.328125,225713.5625,227366.875,209561.734375,21490.0,1.0,4
221641.078125,232581.171875,318183.28125,313599.625,212515.296875,225924.5625,229416.34375,210116.59375,21491.0,1.0,4
221417.203125,232255.109375,318021.875,313350.71875,212331.390625,225780.4375,229009.640625,209848.828125,21492.0,1.0,4
220975.96875,231372.65625,317518.25,312659.4375,211611.75,225496.03125,226764.359375,209153.6875,21493.0,1.0,4
220907.671875,231116.78125,317348.375,312452.1875,211324.046875,225453.203125,225702.46875,208962.984375,21494.0,1.0,4
221320.90625,231868.15625,317757.0625,313032.71875,211880.421875,225718.296875,227341.84375,209560.21875,21495.0,1.0,4
221646.25,232591.640625,318180.40625,313593.65625,212511.90625,225934.21875,229401.15625,210116.953125,21496.0,1.0,4
221435.4375,232288.453125,318032.78125,313356.1875,212345.6875,225812.796875,229026.984375,209864.109375,21497.0,1.0,4
220984.203125,231389.921875,317520.9375,312653.625,211618.640625,225519.90625,226774.8125,209162.0,21498.0,1.0,4
220910.265625,231119.1875,317344.0,312439.21875,211324.046875,225470.46875,225695.671875,208964.234375,21499.0,1.0,4
221320.375,231863.0625,317751.34375,313016.71875,211881.765625,225732.421875,227328.875,209557.0,21500.0,1.0,4
221641.515625,232583.765625,318169.78125,313576.40625,212514.046875,225941.8125,229392.921875,210112.578125,21501.0,1.0,4
221429.265625,232276.75,318018.84375,313340.28125,212350.078125,225807.34375,229034.140625,209860.453125,21502.0,1.0,4
220985.359375,231389.828125,317515.75,312647.71875,211634.28125,225519.90625,226797.890625,209161.640625,21503.0,1.0,4
220908.921875,231118.5625,317339.4375,312432.53125,211339.59375,225468.859375,225706.859375,208961.46875,21504.0,1.0,4
221313.75,231856.171875,317737.03125,312997.9375,211880.875,225716.859375,227311.890625,209545.015625,21505.0,1.0,4
221647.15625,232591.09375,318164.75,313564.5,212516.28125,225927.515625,229387.5625,210110.078125,21506.0,1.0,4
221435.609375,232291.953125,318019.28125,313332.59375,212356.15625,225797.515625,229049.421875,209862.5,21507.0,1.0,4
220988.9375,231395.28125,317511.375,312631.8125,211633.203125,225509.71875,226808.890625,209158.34375,21508.0,1.0,4
220910.171875,231118.65625,317333.46875,312412.5,211336.5625,225460.8125,225704.0,208954.046875,21509.0,1.0,4
221312.140625,231853.671875,317731.125,312979.5,211883.28125,225720.0,227306.34375,209537.953125,21510.0,1.0,4
221643.125,232589.5,318158.21875,313549.65625,212524.421875,225941.546875,229393.8125,210103.90625,21511.0,1.0,4
221429.625,232292.21875,318013.125,313318.53125,212363.9375,225808.59375,229071.5,209860.265625,21512.0,1.0,4
220981.96875,231399.671875,317510.125,312623.125,211645.8125,225520.0,226837.9375,209164.0625,21513.0,1.0,4
220898.546875,231112.578125,317323.625,312396.59375,211339.234375,225469.75,225707.125,208954.125,21514.0,1.0,4
221300.703125,231844.828125,317715.84375,312960.75,211875.328125,225724.109375,227286.40625,209534.65625,21515.0,1.0,4
221626.5,232577.59375,318132.84375,313524.1875,212503.140625,225932.421875,229365.390625,210095.59375,21516.0,1.0,4
221423.90625,232293.828125,317995.25,313306.84375,212354.1875,225807.96875,229071.328125,209866.0,21517.0,1.0,4
220976.859375,231401.984375,317492.6875,312613.46875,211640.625,225523.390625,226847.0625,209172.375,21518.0,1.0,4
220895.859375,231110.703125,317304.40625,312381.90625,211329.671875,225468.3125,225696.578125,208955.828125,21519.0,1.0,4
221299.625,231839.8125,317700.1875,312944.03125,211867.90625,225716.953125,227267.90625,209535.90625,21520.0,1.0,4
221634.359375,232576.4375,318130.96875,313520.6875,212513.0625,225932.609375,229365.65625,210105.609375,21521.0,1.0,4
221435.609375,232297.125,317994.4375,313306.5625,212367.78125,225807.703125,229085.546875,209874.484375,21522.0,1.0,4
220992.25,231409.5,317492.25,312616.6875,211656.640625,225522.671875,226870.578125,209179.609375,21523.0,1.0,4
220897.03125,231103.015625,317291.78125,312371.375,211334.140625,225456.515625,225701.671875,208951.890625,21524.0,1.0,4
221298.828125,231829.796875,317680.875,312929.0,211864.953125,225707.84375,227257.265625,209526.421875,21525.0,1.0,4
221629.71875,232567.765625,318109.78125,313505.21875,212502.515625,225917.859375,229355.546875,210097.46875,21526.0,1.0,4
221434.625,232298.109375,317984.15625,313299.40625,212367.6875,225799.390625,229099.84375,209879.578125,21527.0,1.0,4
220993.859375,231415.671875,317489.03125,312612.9375,211663.515625,225522.3125,226893.28125,209188.828125,21528.0,1.0,4
220885.671875,231087.640625,317273.46875,312352.5,211320.203125,225450.4375,225692.015625,208943.9375,21529.0,1.0,4
221287.90625,231811.390625,317664.875,312911.21875,211849.484375,225711.5,227238.3125,209518.015625,21530.0,1.0,4
221632.21875,232569.28125,318105.40625,313496.65625,212503.234375,225934.84375,229354.21875,210098.890625,21531.0,1.0,4
221435.171875,232301.15625,317977.1875,313289.3125,212369.828125,225811.90625,229109.421875,209879.046875,21532.0,1.0,4
220993.3125,231416.390625,317476.0625,312598.5625,211661.109375,225529.65625,226898.296875,209181.9375,21533.0,1.0,4
220893.984375,231100.859375,317271.3125,312347.3125,211330.203125,225465.640625,225697.28125,208941.96875,21534.0,1.0,4
221287.46875,231812.90625,317654.34375,312898.59375,211849.9375,225717.140625,227224.453125,209510.15625,21535.0,1.0,4
221626.765625,232562.40625,318088.75,313481.8125,212498.140625,225935.828125,229342.859375,210091.03125,21536.0,1.0,4
221433.203125,232301.0625,317961.90625,313278.9375,212366.078125,225816.015625,229118.265625,209875.46875,21537.0,1.0,4
220988.671875,231412.984375,317460.40625,312587.71875,211655.65625,225535.453125,226910.984375,209183.546875,21538.0,1.0,4
220887.90625,231088.4375,317253.875,312336.84375,211322.875,225473.953125,225695.40625,208945.8125,21539.0,1.0,4
221283.359375,231799.3125,317633.15625,312885.375,211840.09375,225717.84375,227207.90625,209506.84375,21540.0,1.0,4
221621.40625,232554.09375,318065.6875,313467.40625,212486.25,225931.796875,229327.484375,210087.546875,21541.0,1.0,4
221433.015625,232307.328125,317950.375,313276.78125,212367.0625,225815.578125,229132.03125,209886.5625,21542.0,1.0,4
220989.46875,231427.203125,317452.09375,312587.71875,211659.671875,225534.390625,226932.171875,209194.8125,21543.0,1.0,4
220878.25,231089.25,317238.3125,312322.5625,211311.875,225463.3125,225689.234375,208942.59375,21544.0,1.0,4
221270.5625,231790.8125,317618.40625,312866.5,211823.828125,225710.34375,227184.921875,209503.625,21545.0,1.0,4
221624.53125,232558.46875,318062.125,313459.90625,212482.046875,225932.609375,229318.265625,210093.71875,21546.0,1.0,4
221450.1875,232329.234375,317952.5,313279.03125,212372.25,225820.3125,229142.234375,209898.0,21547.0,1.0,4
221004.5,231443.65625,317454.25,312588.0,211665.578125,225532.875,226947.203125,209201.25,21548.0,1.0,4
220887.8125,231097.203125,317234.03125,312310.46875,211311.609375,225455.265625,225685.03125,208938.65625,21549.0,1.0,4
221277.625,231792.609375,317609.625,312848.8125,211822.484375,225700.421875,227167.5,209496.109375,21550.0,1.0,4
221625.6875,232554.171875,318053.34375,313442.8125,212481.0625,225920.53125,229307.71875,210086.65625,21551.0,1.0,4
221445.8125,232315.90625,317942.75,313263.375,212369.828125,225807.96875,229144.1875,209891.203125,21552.0,1.0,4
221001.8125,231434.796875,317446.03125,312576.71875,211664.953125,225524.46875,226949.96875,209199.28125,21553.0,1.0,4
220883.96875,231085.578125,317223.84375,312301.375,211311.25,225443.1875,225674.125,208936.15625,21554.0,1.0,4
221274.5,231781.875,317596.75,312838.96875,211819.796875,225689.953125,227141.921875,209492.265625,21555.0,1.0,4
221630.875,232555.25,318046.125,313441.125,212490.71875,225925.09375,229299.3125,210090.40625,21556.0,1.0,4
221459.75,232334.5,317943.5625,313268.28125,212395.046875,225815.484375,229165.828125,209903.28125,21557.0,1.0,4
221011.109375,231446.25,317444.75,312577.625,211690.78125,225529.65625,226975.8125,209207.78125,21558.0,1.0,4
220883.96875,231080.390625,317214.09375,312290.4375,211328.515625,225448.921875,225680.75,208931.953125,21559.0,1.0,4
221273.703125,231773.390625,317582.28125,312822.5,211829.1875,225689.859375,227131.375,209481.28125,21560.0,1.0,4
221625.78125,232543.8125,318028.5,313422.15625,212492.140625,225918.03125,229284.109375,210081.90625,21561.0,1.0,4
221456.71875,232330.65625,317931.59375,313256.21875,212401.125,225816.828125,229172.359375,209903.90625,21562.0,1.0,4
221011.640625,231443.296875,317434.3125,312566.0,211693.46875,225535.734375,226988.0625,209212.609375,21563.0,1.0,4
220881.828125,231067.25,317198.90625,312274.0,211320.375,225452.578125,225673.953125,208933.5625,21564.0,1.0,4
221264.3125,231750.40625,317564.3125,312801.3125,211812.109375,225694.78125,227108.390625,209476.171875,21565.0,1.0,4
221621.21875,232531.734375,318014.03125,313405.96875,212477.21875,225924.65625,229266.859375,210077.890625,21566.0,1.0,4
221460.734375,232335.484375,317926.21875,313251.5,212397.46875,225825.859375,229179.328125,209910.0625,21567.0,1.0,4
221009.953125,231448.21875,317424.90625,312559.125,211690.875,225539.03125,226999.046875,209212.703125,21568.0,1.0,4
220880.21875,231074.21875,317190.5,312264.4375,211313.484375,225456.953125,225671.984375,208931.421875,21569.0,1.0,4
221263.0625,231753.625,317550.09375,312786.40625,211796.296875,225691.46875,227087.296875,209471.0,21570.0,1.0,4
221629.625,232540.671875,318005.25,313401.5,212468.984375,225929.65625,229261.3125,210082.265625,21571.0,1.0,4
221459.21875,232328.421875,317906.46875,313240.75,212380.203125,225822.359375,229179.421875,209909.09375,21572.0,1.0,4
221012.1875,231446.328125,317409.4375,312552.25,211676.84375,225536.53125,227007.375,209218.6875,21573.0,1.0,4
220878.078125,231067.96875,317172.15625,312253.96875,211298.46875,225449.8125,225665.09375,208932.765625,21574.0,1.0,4
221259.75,231743.25,317534.25,312778.15625,211783.0625,225688.796875,227071.46875,209474.21875,21575.0,1.0,4
221622.203125,232527.265625,317986.03125,313389.25,212451.828125,225921.25,229244.6875,210081.28125,21576.0,1.0,4
221465.390625,232336.734375,317901.09375,313245.6875,212383.515625,225820.84375,229193.015625,209917.140625,21577.0,1.0,4
221021.125,231455.640625,317404.71875,312559.84375,211683.375,225534.828125,227026.859375,209224.3125,21578.0,1.0,4
220884.953125,231071.265625,317165.28125,312255.75,211303.484375,225447.9375,225670.375,208931.328125,21579.0,1.0,4
221257.0625,231733.515625,317519.59375,312765.84375,211782.96875,225677.96875,227057.078125,209457.40625,21580.0,1.0,4
221626.59375,232524.21875,317977.28125,313377.0,212457.71875,225913.5625,229235.390625,210066.796875,21581.0,1.0,4
221478.171875,232351.578125,317904.84375,313242.71875,212403.546875,225827.640625,229214.296875,209918.296875,21582.0,1.0,4
221025.328125,231466.0,317405.96875,312552.6875,211700.0,225539.65625,227052.25,209224.40625,21583.0,1.0,4
220869.9375,231051.6875,317144.1875,312225.8125,211291.671875,225434.703125,225656.78125,208911.9375,21584.0,1.0,4
221252.6875,231723.9375,317509.5,312744.5625,211781.265625,225679.140625,227040.171875,209452.3125,21585.0,1.0,4
221621.40625,232521.625,317966.1875,313356.8125,212459.515625,225913.46875,229224.65625,210065.546875,21586.0,1.0,4
221472.359375,232352.03125,317894.03125,313225.84375,212407.390625,225825.3125,229216.875,209920.53125,21587.0,1.0,4
221014.5,231462.609375,317395.21875,312536.0625,211705.265625,225539.390625,227060.5625,209223.25,21588.0,1.0,4
220864.21875,231049.375,317139.53125,312214.625,211304.015625,225444.171875,225665.09375,208914.703125,21589.0,1.0,4
221251.078125,231723.3125,317501.90625,312735.15625,211788.515625,225689.0625,227035.4375,209452.75,21590.0,1.0,4
221621.140625,232523.6875,317956.8125,313352.15625,212463.0,225918.484375,229217.328125,210065.1875,21591.0,1.0,4
221471.46875,232353.015625,317882.15625,313221.8125,212404.609375,225824.421875,229218.9375,209916.78125,21592.0,1.0,4
221028.90625,231477.1875,317390.84375,312539.625,211715.203125,225547.34375,227075.765625,209231.203125,21593.0,1.0,4
220873.421875,231063.140625,317128.25,312209.71875,211307.765625,225446.328125,225661.96875,208912.90625,21594.0,1.0,4
221245.4375,231720.640625,317477.5625,312714.875,211774.203125,225679.671875,227006.828125,209438.453125,21595.0,1.0,4
221627.390625,232535.3125,317949.28125,313345.90625,212462.546875,225927.234375,229216.53125,210069.125,21596.0,1.0,4
221481.921875,232371.25,317880.8125,313223.15625,212416.140625,225840.515625,229247.90625,209934.125,21597.0,1.0,4
221037.484375,231493.8125,317386.46875,312541.78125,211724.859375,225560.3125,227110.984375,209248.640625,21598.0,1.0,4
220882.8125,231077.171875,317126.375,312212.40625,211316.796875,225461.875,225686.109375,208932.859375,21599.0,1.0,4
221252.6875,231724.21875,317471.84375,312710.65625,211777.0625,225692.1875,227010.3125,209447.75,21600.0,1.0,4
221620.5,232519.671875,317925.78125,313325.34375,212446.90625,225923.484375,229199.71875,210061.609375,21601.0,1.0,4
221473.25,232361.5,317861.125,313205.0,212401.125,225831.578125,229243.4375,209926.4375,21602.0,1.0,4
221021.390625,231478.796875,317366.34375,312521.03125,211703.578125,225542.609375,227107.6875,209235.671875,21603.0,1.0,4
220860.375,231044.984375,317098.9375,312182.0,211283.09375,225433.171875,225658.84375,208906.921875,21604.0,1.0,4
221234.09375,231698.46875,317449.5,312685.625,211749.34375,225672.25,226980.359375,209426.734375,21605.0,1.0,4
221608.078125,232506.609375,317913.4375,313309.25,212432.234375,225912.125,229182.28125,210049.8125,21606.0,1.0,4
221469.5,232360.796875,317854.34375,313195.875,212396.65625,225829.15625,229249.34375,209924.90625,21607.0,1.0,4
221023.71875,231486.828125,317363.75,312512.0,211708.484375,225545.921875,227122.25,209236.828125,21608.0,1.0,4
220864.65625,231057.953125,317098.40625,312174.21875,211295.515625,225441.140625,225666.265625,208913.625,21609.0,1.0,4
221232.03125,231700.515625,317440.75,312669.0,211754.09375,225674.484375,226965.171875,209430.140625,21610.0,1.0,4
221613.796875,232514.125,317909.78125,313296.8125,212443.0625,225924.828125,229180.140625,210056.875,21611.0,1.0,4
221473.875,232369.46875,317850.125,313184.25,212408.453125,225838.1875,229262.5625,209931.703125,21612.0,1.0,4
221031.578125,231499.625,317363.75,312506.5625,211721.8125,225554.0625,227145.5,209248.734375,21613.0,1.0,4
220864.84375,231059.734375,317088.5625,312158.9375,211297.125,225446.765625,225670.46875,208908.71875,21614.0,1.0,4
221224.4375,231687.109375,317419.90625,312643.96875,211742.640625,225673.5,226948.09375,209412.78125,21615.0,1.0,4
221605.578125,232498.828125,317886.53125,313274.65625,212427.6875,225917.859375,229161.984375,210041.859375,21616.0,1.0,4
221486.84375,232374.828125,317846.90625,313183.375,212414.359375,225850.4375,229278.65625,209938.59375,21617.0,1.0,4
221035.96875,231497.46875,317357.6875,312501.71875,211727.71875,225564.25,227164.09375,209252.296875,21618.0,1.0,4
220869.3125,231055.625,317086.25,312154.09375,211304.28125,225455.34375,225676.09375,208913.984375,21619.0,1.0,4
221238.03125,231689.078125,317421.53125,312641.71875,211750.875,225684.5,226941.65625,209418.515625,21620.0,1.0,4
221621.9375,232506.25,317886.71875,313274.375,212434.390625,225930.8125,229158.671875,210050.890625,21621.0,1.0,4
221497.578125,232388.328125,317842.8125,313185.40625,212418.65625,225861.4375,229291.0,209945.828125,21622.0,1.0,4
221042.578125,231508.109375,317350.1875,312505.46875,211728.15625,225576.9375,227180.015625,209260.703125,21623.0,1.0,4
220869.9375,231056.4375,317074.34375,312151.96875,211295.15625,225464.65625,225678.25,208918.71875,21624.0,1.0,4
221224.25,231673.515625,317398.625,312620.53125,211723.875,225678.78125,226911.703125,209408.765625,21625.0,1.0,4
221609.78125,232496.0625,317871.40625,313253.46875,212416.953125,225919.640625,229134.453125,210043.90625,21626.0,1.0,4
221489.171875,232385.5625,317833.875,313170.40625,212415.25,225845.078125,229286.796875,209948.515625,21627.0,1.0,4
221039.8125,231514.375,317343.90625,312491.53125,211732.625,225555.21875,227185.28125,209267.140625,21628.0,1.0,4
220866.09375,231059.46875,317063.4375,312130.875,211300.796875,225444.0,225671.625,208920.609375,21629.0,1.0,4
221220.5,231673.515625,317387.0,312600.59375,211737.546875,225668.046875,226900.703125,209412.515625,21630.0,1.0,4
221611.125,232501.515625,317863.375,313241.46875,212439.296875,225923.484375,229133.828125,210054.8125,21631.0,1.0,4
221492.75,232398.078125,317831.375,313162.0,212444.21875,225857.140625,229308.875,209958.796875,21632.0,1.0,4
221043.296875,231528.40625,317344.625,312484.8125,211759.8125,225573.71875,227217.65625,209271.609375,21633.0,1.0,4
220863.765625,231064.5625,317057.09375,312117.28125,211307.234375,225456.78125,225681.375,208915.421875,21634.0,1.0,4
221219.15625,231681.125,317379.9375,312586.65625,211730.484375,225672.875,226897.84375,209404.46875,21635.0,1.0,4
221607.09375,232512.15625,317847.0,313223.78125,212414.984375,225930.109375,229126.3125,210041.046875,21636.0,1.0,4
221490.515625,232414.703125,317808.21875,313147.6875,212414.1875,225900.953125,229316.03125,209948.34375,21637.0,1.0,4
221041.6875,231548.078125,317320.65625,312473.46875,211734.515625,225644.359375,227234.28125,209268.03125,21638.0,1.0,4
220860.09375,231081.015625,317030.71875,312104.5,211288.1875,225537.15625,225690.578125,208908.625,21639.0,1.0,4
221209.140625,231674.328125,317346.875,312570.21875,211711.359375,225744.84375,226889.078125,209395.4375,21640.0,1.0,4
221602.265625,232492.9375,317816.53125,313209.28125,212402.015625,225979.984375,229121.65625,210037.203125,21641.0,1.0,4
221499.1875,232404.78125,317792.125,313149.5625,212418.390625,225888.53125,229342.234375,209961.65625,21642.0,1.0,4
221048.578125,231531.71875,317305.125,312479.8125,211741.296875,225564.515625,227271.203125,209284.40625,21643.0,1.0,4
220857.953125,231048.65625,317005.59375,312100.09375,211280.671875,225400.984375,225702.296875,208914.703125,21644.0,1.0,4
221215.9375,231660.640625,317331.03125,312572.71875,211706.4375,225611.90625,226889.796875,209401.515625,21645.0,1.0,4
221605.390625,232493.5625,317802.9375,313215.71875,212400.6875,225856.34375,229126.578125,210042.65625,21646.0,1.0,4
221498.828125,232412.203125,317775.9375,313150.28125,212411.671875,225795.015625,229352.421875,209964.875,21647.0,1.0,4
221053.046875,231556.75,317291.4375,312477.9375,211735.140625,225514.984375,227283.09375,209287.34375,21648.0,1.0,4
220859.296875,231075.75,316995.9375,312099.3125,211280.046875,225405.375,225706.3125,208919.171875,21649.0,1.0,4
221204.859375,231674.328125,317309.9375,312558.3125,211695.265625,225632.203125,226868.78125,209396.875,21650.0,1.0,4
221600.921875,232511.265625,317790.78125,313207.5,212395.9375,225888.53125,229110.046875,210046.234375,21651.0,1.0,4
221507.5,232443.3125,317780.3125,313157.4375,212425.53125,225836.046875,229367.4375,209984.71875,21652.0,1.0,4
221064.84375,231587.328125,317305.1875,312491.625,211757.21875,225562.46875,227312.328125,209312.109375,21653.0,1.0,4
220866.984375,231091.390625,317002.65625,312104.9375,211293.375,225441.84375,225713.109375,208933.65625,21654.0,1.0,4
221209.328125,231675.21875,317311.1875,312558.40625,211701.34375,225665.28125,226854.65625,209403.125,21655.0,1.0,4
221611.203125,232520.109375,317796.03125,313214.375,212410.421875,225935.90625,229106.546875,210056.25,21656.0,1.0,4
221512.6875,232458.25,317784.875,313171.03125,212446.71875,225888.4375,229381.296875,209994.015625,21657.0,1.0,4
221065.828125,231597.4375,317299.75,312498.0625,211769.28125,225604.75,227318.6875,209319.71875,21658.0,1.0,4
220868.953125,231102.390625,316996.125,312103.21875,211300.34375,225476.71875,225707.21875,208940.359375,21659.0,1.0,4
221211.109375,231683.265625,317308.40625,312551.625,211706.25,225690.3125,226837.21875,209403.125,21660.0,1.0,4
221606.5625,232517.078125,317787.46875,313200.15625,212405.78125,225935.28125,229084.46875,210049.453125,21661.0,1.0,4
221520.015625,232468.078125,317782.625,313164.21875,212447.625,225883.15625,229384.15625,210001.625,21662.0,1.0,4
221078.703125,231611.109375,317304.9375,312499.21875,211779.03125,225599.921875,227336.390625,209333.84375,21663.0,1.0,4
220876.1875,231103.28125,317000.3125,312102.78125,211307.234375,225466.890625,225712.484375,208940.625,21664.0,1.0,4
221213.4375,231680.3125,317306.53125,312545.625,211709.75,225680.390625,226824.4375,209394.546875,21665.0,1.0,4
221605.484375,232511.171875,317784.25,313192.03125,212411.140625,225927.328125,229071.15625,210044.53125,21666.0,1.0,4
221509.734375,232447.0625,317772.8125,313150.0,212445.65625,225856.15625,229370.390625,209991.34375,21667.0,1.0,4
221075.84375,231599.9375,317302.78125,312489.03125,211786.0,225574.796875,227341.296875,209324.1875,21668.0,1.0,4
220871.984375,231091.484375,316994.59375,312085.34375,211310.453125,225443.453125,225705.15625,208928.5625,21669.0,1.0,4
221206.015625,231660.90625,317291.0,312518.8125,211701.25,225650.171875,226789.578125,209384.53125,21670.0,1.0,4
221607.546875,232509.03125,317773.15625,313172.71875,212404.171875,225904.890625,229040.03125,210038.8125,21671.0,1.0,4
221526.625,232476.484375,317783.09375,313149.5625,212463.0,225859.734375,229382.203125,210003.671875,21672.0,1.0,4
221075.125,231611.296875,317299.84375,312477.65625,211792.4375,225575.0625,227346.671875,209328.828125,21673.0,1.0,4
220862.15625,231086.5625,316980.03125,312064.96875,211305.71875,225455.625,225690.84375,208927.84375,21674.0,1.0,4
221200.734375,231655.09375,317281.96875,312502.78125,211699.546875,225683.15625,226769.8125,209386.140625,21675.0,1.0,4
221605.75,232502.765625,317769.3125,313160.65625,212409.4375,225952.8125,229030.015625,210047.3125,21676.0,1.0,4
221521.984375,232462.265625,317768.34375,313131.59375,212460.40625,225902.46875,229377.453125,210005.015625,21677.0,1.0,4
221082.8125,231614.328125,317297.4375,312472.84375,211802.375,225630.046875,227366.25,209338.21875,21678.0,1.0,4
220871.09375,231090.9375,316979.84375,312059.4375,211316.359375,225497.015625,225705.328125,208936.15625,21679.0,1.0,4
221199.84375,231646.421875,317269.96875,312486.875,211693.65625,225688.875,226756.484375,209382.125,21680.0,1.0,4
221602.09375,232493.109375,317751.34375,313141.59375,212396.484375,225921.703125,229008.46875,210035.15625,21681.0,1.0,4
221524.390625,232466.015625,317761.34375,313124.25,212459.234375,225865.640625,229383.71875,210003.765625,21682.0,1.0,4
221083.890625,231618.078125,317288.21875,312463.625,211803.171875,225586.25,227377.421875,209337.421875,21683.0,1.0,4
220864.21875,231080.65625,316957.84375,312038.40625,211305.890625,225443.28125,225688.4375,208924.8125,21684.0,1.0,4
221201.640625,231643.125,317251.375,312467.375,211688.109375,225648.109375,226728.234375,209373.1875,21685.0,1.0,4
221604.953125,232495.609375,317735.96875,313124.25,212391.03125,225904.796875,228986.125,210032.640625,21686.0,1.0,4
221532.890625,232481.046875,317751.15625,313116.21875,212461.03125,225863.140625,229387.375,210012.703125,21687.0,1.0,4
221087.90625,231629.796875,317277.03125,312456.3125,211798.796875,225577.03125,227386.0,209346.09375,21688.0,1.0,4
220868.59375,231093.890625,316952.3125,312031.8125,211301.15625,225434.15625,225692.09375,208934.734375,21689.0,1.0,4
221189.203125,231634.171875,317234.375,312448.0625,211668.796875,225636.046875,226707.9375,209370.671875,21690.0,1.0,4
221598.875,232486.140625,317722.46875,313110.75,212379.578125,225901.3125,228976.109375,210034.53125,21691.0,1.0,4
221531.015625,232474.78125,317740.25,313104.875,212453.703125,225864.390625,229392.203125,210012.4375,21692.0,1.0,4
221099.71875,231638.375,317278.46875,312454.96875,211810.234375,225593.75,227409.875,209347.96875,21693.0,1.0,4
220873.875,231091.65625,316949.625,312026.15625,211309.734375,225454.8125,225701.21875,208930.4375,21694.0,1.0,4
221194.484375,231625.421875,317229.03125,312439.6875,211674.34375,225655.625,226699.625,209367.734375,21695.0,1.0,4
221601.734375,232479.875,317713.0,313102.90625,212385.390625,225909.359375,228967.53125,210025.859375,21696.0,1.0,4
221531.71875,232477.46875,317732.375,313105.125,212468.625,225862.0625,229407.046875,210004.390625,21697.0,1.0,4
221098.8125,231638.5625,317271.5,312458.09375,211824.984375,225585.796875,227434.828125,209357.0,21698.0,1.0,4
220867.515625,231081.375,316936.21875,312020.0,211315.09375,225431.03125,225711.328125,208931.25,21699.0,1.0,4
221185.625,231608.875,317213.1875,312426.53125,211674.15625,225627.375,226690.421875,209354.859375,21700.0,1.0,4
221601.109375,232466.46875,317706.90625,313091.53125,212387.984375,225896.671875,228959.5625,210024.15625,21701.0,1.0,4
221540.046875,232476.84375,317737.3125,313100.5625,212480.609375,225862.25,229425.296875,210022.90625,21702.0,1.0,4
221097.296875,231634.53125,317266.84375,312440.5625,211824.71875,225573.71875,227450.015625,209357.171875,21703.0,1.0,4
220866.71875,231081.828125,316928.875,312000.78125,211309.296875,225424.78125,225713.734375,208927.390625,21704.0,1.0,4
221182.59375,231604.859375,317200.40625,312404.09375,211659.765625,225620.84375,226675.046875,209349.40625,21705.0,1.0,4
221592.609375,232465.65625,317690.375,313070.15625,212373.765625,225888.625,228946.34375,210015.296875,21706.0,1.0,4
221528.859375,232478.09375,317719.25,313080.0,212465.046875,225859.5625,229421.71875,210012.625,21707.0,1.0,4
221089.078125,231642.3125,317252.0,312425.90625,211814.625,225584.1875,227460.390625,209351.71875,21708.0,1.0,4
220856.609375,231083.703125,316917.71875,311988.15625,211302.140625,225442.828125,225718.03125,208921.234375,21709.0,1.0,4
221169.53125,231598.953125,317189.15625,312386.28125,211649.21875,225641.234375,226664.21875,209346.0,21710.0,1.0,4
221583.046875,232452.875,317681.34375,313054.96875,212363.125,225907.65625,228937.03125,210016.015625,21711.0,1.0,4
221528.5,232473.890625,317716.28125,313073.65625,212461.484375,225874.84375,229435.125,210017.265625,21712.0,1.0,4
221091.3125,231637.390625,317250.46875,312424.28125,211812.65625,225588.484375,227482.75,209362.0,21713.0,1.0,4
220853.65625,231070.375,316904.3125,311975.28125,211288.546875,225428.0,225716.953125,208922.296875,21714.0,1.0,4
221161.671875,231583.65625,317167.78125,312367.34375,211628.921875,225618.609375,226637.84375,209329.375,21715.0,1.0,4
221582.59375,232456.453125,317665.40625,313042.53125,212350.703125,225891.03125,228916.46875,210004.578125,21716.0,1.0,4
221532.0,232494.1875,317708.875,313073.3125,212467.828125,225872.703125,229442.1875,210023.703125,21717.0,1.0,4
221091.75,231666.0,317247.34375,312426.25,211830.265625,225598.3125,227505.546875,209370.671875,21718.0,1.0,4
220846.515625,231083.703125,316895.71875,311967.6875,211302.140625,225436.671875,225727.0625,208922.75,21719.0,1.0,4
221155.6875,231590.734375,317160.625,312356.15625,211639.5625,225633.546875,226633.28125,209333.21875,21720.0,1.0,4
221574.28125,232458.6875,317657.1875,313027.78125,212357.765625,225900.6875,228910.125,210004.3125,21721.0,1.0,4
221532.265625,232500.796875,317706.90625,313065.96875,212478.28125,225879.5,229455.859375,210030.234375,21722.0,1.0,4
221100.609375,231668.875,317249.0625,312425.375,211843.046875,225608.6875,227530.3125,209381.671875,21723.0,1.0,4
220861.53125,231088.265625,316900.09375,311968.9375,211315.90625,225454.90625,225743.78125,208928.921875,21724.0,1.0,4
221160.859375,231575.609375,317153.125,312349.375,211645.1875,225639.625,226625.328125,209326.78125,21725.0,1.0,4
221581.171875,232446.078125,317647.0,313022.53125,212365.984375,225907.125,228902.34375,210001.0,21726.0,1.0,4
221543.171875,232499.640625,317696.28125,313061.40625,212491.78125,225881.109375,229465.171875,210030.5,21727.0,1.0,4
221108.734375,231671.734375,317236.0,312413.5625,211852.703125,225597.328125,227540.046875,209377.46875,21728.0,1.0,4
220856.078125,231077.703125,316879.0,311945.875,211312.234375,225430.140625,225733.9375,208916.9375,21729.0,1.0,4
221161.21875,231573.203125,317135.6875,312328.375,211640.984375,225618.78125,226608.4375,209319.09375,21730.0,1.0,4
221585.375,232446.265625,317634.5,313005.8125,212362.5,225891.390625,228891.53125,209998.046875,21731.0,1.0,4
221548.09375,232502.046875,317687.59375,313048.96875,212489.90625,225874.3125,229471.421875,210027.90625,21732.0,1.0,4
221114.734375,231675.3125,317231.875,312407.3125,211861.109375,225602.34375,227563.65625,209377.203125,21733.0,1.0,4
220858.40625,231075.296875,316872.375,311936.03125,211319.921875,225438.625,225747.53125,208915.15625,21734.0,1.0,4
221156.03125,231559.875,317123.53125,312312.28125,211639.921875,225626.296875,226594.03125,209312.828125,21735.0,1.0,4
221580.90625,232436.515625,317620.09375,312992.125,212360.890625,225894.609375,228868.828125,209994.5625,21736.0,1.0,4
221550.046875,232504.109375,317678.21875,313045.84375,212494.828125,225874.84375,229470.0,210033.453125,21737.0,1.0,4
221122.0625,231689.515625,317230.28125,312413.75,211869.78125,225606.984375,227576.359375,209389.09375,21738.0,1.0,4
220859.203125,231081.546875,316865.40625,311937.28125,211317.96875,225438.71875,225744.9375,208919.625,21739.0,1.0,4
221154.25,231561.40625,317109.5,312302.25,211625.515625,225617.796875,226569.8125,209305.765625,21740.0,1.0,4
221584.03125,232441.078125,317611.0625,312985.0625,212347.21875,225893.0,228851.296875,209993.21875,21741.0,1.0,4
221560.15625,232518.59375,317679.5625,313048.53125,212494.109375,225880.84375,229477.234375,210044.8125,21742.0,1.0,4
221121.34375,231690.59375,317224.5625,312408.1875,211864.859375,225604.75,227582.875,209396.78125,21743.0,1.0,4
220867.15625,231088.53125,316865.21875,311935.59375,211320.375,225443.546875,225749.59375,208932.859375,21744.0,1.0,4
221158.71875,231558.984375,317106.71875,312295.71875,211626.859375,225620.390625,226561.3125,209310.78125,21745.0,1.0,4
221581.703125,232430.96875,317603.375,312971.90625,212347.21875,225892.734375,228838.59375,209988.03125,21746.0,1.0,4
221551.484375,232505.265625,317666.0625,313035.125,212492.40625,225882.1875,229476.875,210039.703125,21747.0,1.0,4
221116.96875,231687.015625,317209.53125,312395.15625,211863.96875,225606.71875,227592.09375,209396.875,21748.0,1.0,4
