FZ,C3,CZ,C4,PZ,PO7,OZ,PO8,Counter,Validation,Label
232401.109375,273964.4375,410547.84375,355481.96875,244129.515625,277501.65625,249156.96875,246288.15625,14864.0,1.0,1
231969.359375,273094.34375,409382.6875,355111.46875,243046.4375,277216.375,248728.25,245719.359375,14865.0,1.0,1
231493.546875,272378.1875,408640.0625,354936.6875,241906.6875,276787.375,248394.140625,245314.703125,14866.0,1.0,1
231638.203125,272821.28125,409362.28125,355202.40625,242303.296875,276826.28125,248635.625,245630.125,14867.0,1.0,1
232190.015625,273789.46875,410520.28125,355532.3125,243665.234375,277263.9375,249099.65625,246221.46875,14868.0,1.0,1
232402.8125,273973.03125,410537.46875,355475.0,244138.90625,277511.3125,249152.40625,246280.390625,14869.0,1.0,1
231981.53125,273113.21875,409374.09375,355106.5625,243066.65625,277223.0625,248721.28125,245732.5,14870.0,1.0,1
231498.90625,272385.875,408620.21875,354925.96875,241920.71875,276786.3125,248382.78125,245322.75,14871.0,1.0,1
231634.265625,272813.78125,409330.65625,355185.78125,242299.71875,276810.0,248614.078125,245627.984375,14872.0,1.0,1
232184.5625,273781.6875,410496.78125,355516.21875,243658.4375,277246.21875,249078.640625,246214.046875,14873.0,1.0,1
232398.78125,273969.90625,410529.6875,355464.625,244142.65625,277501.5625,249143.28125,246286.828125,14874.0,1.0,1
231972.859375,273105.6875,409369.90625,355095.9375,243073.53125,277219.59375,248719.859375,245742.515625,14875.0,1.0,1
231494.25,272379.625,408610.125,354916.46875,241922.859375,276791.15625,248390.390625,245329.09375,14876.0,1.0,1
231630.609375,272806.53125,409309.90625,355172.90625,242290.953125,276811.625,248615.0625,245625.125,14877.0,1.0,1
232179.109375,273776.59375,410476.65625,355503.625,243648.953125,277253.71875,249088.828125,246219.765625,14878.0,1.0,1
232396.8125,273972.21875,410520.28125,355455.34375,244143.734375,277510.0625,249164.203125,246296.5625,14879.0,1.0,1
231980.1875,273118.46875,409368.71875,355090.28125,243087.65625,277229.25,248737.5625,245750.109375,14880.0,1.0,1
231498.640625,272383.5625,408599.84375,354906.375,241928.046875,276793.65625,248402.375,245337.59375,14881.0,1.0,1
231625.953125,272794.65625,409287.90625,355157.53125,242279.0625,276807.3125,248617.921875,245626.015625,14882.0,1.0,1
232179.46875,273768.5625,410452.625,355486.71875,243632.953125,277242.1875,249081.953125,246205.90625,14883.0,1.0,1
232405.046875,273979.28125,410508.40625,355441.9375,244144.265625,277509.09375,249164.390625,246292.984375,14884.0,1.0,1
231994.046875,273131.4375,409361.125,355075.71875,243095.796875,277236.375,248744.4375,245754.578125,14885.0,1.0,1
231506.953125,272386.5,408581.78125,354888.59375,241927.609375,276799.90625,248408.71875,245343.84375,14886.0,1.0,1
231629.890625,272792.40625,409265.28125,355146.25,242270.484375,276815.0,248632.40625,245644.609375,14887.0,1.0,1
232175.890625,273759.4375,410433.3125,355472.875,243624.109375,277250.5,249096.171875,246216.375,14888.0,1.0,1
232409.0625,273979.5625,410500.625,355431.5625,244146.0625,277521.6875,249188.25,246306.671875,14889.0,1.0,1
232003.609375,273135.46875,409355.15625,355064.4375,243103.75,277242.375,248749.984375,245755.125,14890.0,1.0,1
231514.734375,272386.6875,408568.09375,354870.53125,241935.03125,276803.375,248399.953125,245319.890625,14891.0,1.0,1
231628.8125,272782.59375,409237.46875,355121.3125,242265.109375,276805.53125,248610.78125,245601.78125,14892.0,1.0,1
232178.125,273756.21875,410412.65625,355455.15625,243623.203125,277241.9375,249089.46875,246195.0,14893.0,1.0,1
232409.78125,273983.0625,410488.28125,355414.9375,244156.078125,277511.84375,249171.984375,246288.515625,14894.0,1.0,1
231995.828125,273135.375,409340.75,355050.25,243118.6875,277230.75,248728.96875,245749.21875,14895.0,1.0,1
231505.515625,272379.0,408540.1875,354860.875,241940.84375,276793.03125,248385.03125,245318.90625,14896.0,1.0,1
231618.265625,272769.34375,409199.9375,355108.09375,242258.953125,276804.46875,248606.75,245603.390625,14897.0,1.0,1
232164.1875,273741.46875,410377.34375,355444.4375,243612.65625,277239.53125,249085.96875,246207.0625,14898.0,1.0,1
232404.78125,273978.84375,410465.21875,355410.53125,244156.515625,277511.125,249176.90625,246305.0625,14899.0,1.0,1
232002.625,273142.25,409327.78125,355045.21875,243130.03125,277237.0,248750.15625,245764.6875,14900.0,1.0,1
231506.6875,272377.84375,408517.125,354842.28125,241941.46875,276784.15625,248384.578125,245319.078125,14901.0,1.0,1
231611.734375,272754.5,409164.34375,355082.59375,242244.109375,276779.15625,248581.359375,245590.515625,14902.0,1.0,1
232155.6875,273724.3125,410341.03125,355416.625,243594.328125,277212.6875,249054.59375,246182.65625,14903.0,1.0,1
232401.828125,273967.5,410441.78125,355386.125,244151.15625,277486.28125,249150.078125,246284.578125,14904.0,1.0,1
232006.734375,273140.375,409314.0,355027.34375,243135.84375,277226.46875,248737.203125,245756.90625,14905.0,1.0,1
231511.328125,272378.46875,408501.65625,354831.28125,241945.484375,276789.09375,248386.359375,245328.5625,14906.0,1.0,1
231616.65625,272755.03125,409142.25,355073.84375,242238.03125,276786.3125,248592.453125,245599.546875,14907.0,1.0,1
232166.421875,273732.15625,410326.375,355410.09375,243589.6875,277217.0625,249064.15625,246184.890625,14908.0,1.0,1
232414.703125,273985.90625,410441.53125,355382.84375,244160.984375,277498.1875,249165.640625,246298.625,14909.0,1.0,1
232014.875,273158.4375,409315.34375,355022.6875,243152.75,277240.40625,248751.765625,245775.140625,14910.0,1.0,1
231512.40625,272386.78125,408492.53125,354818.40625,241953.4375,276800.53125,248397.453125,245332.140625,14911.0,1.0,1
231613.53125,272753.0625,409123.03125,355058.28125,242235.96875,276797.125,248598.53125,245596.515625,14912.0,1.0,1
232160.875,273726.53125,410302.21875,355395.09375,243584.578125,277224.125,249067.921875,246179.890625,14913.0,1.0,1
232413.546875,273989.75,410425.34375,355373.8125,244168.5,277509.34375,249175.46875,246304.875,14914.0,1.0,1
232018.8125,273169.1875,409302.75,355012.6875,243170.71875,277259.28125,248769.734375,245782.390625,14915.0,1.0,1
231517.6875,272392.9375,408467.78125,354804.53125,241965.328125,276815.8125,248402.453125,245334.90625,14916.0,1.0,1
231609.328125,272745.3125,409084.96875,355041.65625,242233.28125,276797.3125,248596.203125,245593.296875,14917.0,1.0,1
232155.953125,273717.40625,410272.0,355381.40625,243582.96875,277222.53125,249070.5,246182.390625,14918.0,1.0,1
232408.4375,273980.375,410403.96875,355356.90625,244173.15625,277508.8125,249169.84375,246301.390625,14919.0,1.0,1
232014.0625,273162.375,409286.03125,354996.5,243182.96875,277262.21875,248766.515625,245787.21875,14920.0,1.0,1
231513.03125,272382.21875,408446.6875,354788.28125,241973.203125,276814.84375,248404.875,245339.46875,14921.0,1.0,1
231604.234375,272729.65625,409059.21875,355022.53125,242228.734375,276799.53125,248594.859375,245594.546875,14922.0,1.0,1
232147.828125,273699.90625,410245.71875,355362.625,243571.625,277217.4375,249056.375,246184.09375,14923.0,1.0,1
232409.875,273978.21875,410389.9375,355343.21875,244172.796875,277496.5625,249162.421875,246308.546875,14924.0,1.0,1
232018.546875,273165.25,409276.09375,354986.75,243190.125,277250.875,248762.046875,245792.671875,14925.0,1.0,1
231509.015625,272377.75,408428.71875,354779.5,241973.5625,276809.375,248401.46875,245348.765625,14926.0,1.0,1
231596.984375,272721.5,409035.25,355014.03125,242218.171875,276792.3125,248599.59375,245607.5,14927.0,1.0,1
232145.3125,273699.1875,410226.5,355356.0,243562.59375,277219.9375,249072.203125,246199.65625,14928.0,1.0,1
232417.921875,273987.53125,410380.5625,355335.96875,244171.546875,277509.53125,249175.109375,246313.46875,14929.0,1.0,1
232038.5625,273183.40625,409273.25,354980.21875,243199.15625,277270.53125,248776.625,245796.25,14930.0,1.0,1
231526.0,272391.875,408421.5625,354770.125,241981.703125,276830.03125,248416.234375,245345.640625,14931.0,1.0,1
231597.609375,272722.21875,409014.40625,354997.84375,242209.421875,276799.0,248598.890625,245591.234375,14932.0,1.0,1
232135.9375,273694.0,410203.34375,355335.90625,243546.9375,277203.9375,249060.84375,246182.296875,14933.0,1.0,1
232406.46875,273989.40625,410369.375,355322.3125,244169.390625,277495.9375,249178.59375,246315.4375,14934.0,1.0,1
232034.09375,273198.78125,409269.5,354970.21875,243209.4375,277263.375,248788.703125,245809.828125,14935.0,1.0,1
231519.109375,272395.625,408406.96875,354753.9375,241985.0,276815.5625,248416.046875,245348.21875,14936.0,1.0,1
231588.765625,272712.3125,408983.3125,354975.5,242197.96875,276779.6875,248577.703125,245578.0,14937.0,1.0,1
232126.1875,273683.34375,410178.03125,355322.46875,243538.546875,277196.4375,249050.5625,246181.953125,14938.0,1.0,1
232407.640625,273994.21875,410363.75,355321.5,244180.390625,277501.65625,249182.09375,246328.03125,14939.0,1.0,1
232035.890625,273202.0625,409266.28125,354964.84375,243227.5,277270.53125,248788.78125,245810.015625,14940.0,1.0,1
231519.921875,272397.6875,408393.40625,354743.84375,241996.0,276824.03125,248414.53125,245343.84375,14941.0,1.0,1
231586.078125,272707.75,408961.9375,354966.09375,242199.3125,276784.15625,248581.625,245578.453125,14942.0,1.0,1
232127.4375,273677.53125,410157.75,355310.5,243536.65625,277195.875,249047.078125,246169.25,14943.0,1.0,1
232404.234375,273986.4375,410345.6875,355306.3125,244182.8125,277495.03125,249175.03125,246314.171875,14944.0,1.0,1
232028.640625,273197.59375,409250.53125,354953.84375,243235.453125,277267.21875,248775.640625,245811.09375,14945.0,1.0,1
231521.171875,272395.8125,408374.875,354735.96875,241999.484375,276821.0,248408.0,245355.828125,14946.0,1.0,1
231583.390625,272700.9375,408938.0625,354959.03125,242192.703125,276786.03125,248580.921875,245586.140625,14947.0,1.0,1
232117.6875,273667.34375,410129.59375,355297.34375,243525.484375,277197.59375,249039.03125,246158.796875,14948.0,1.0,1
232403.171875,273987.59375,410326.46875,355292.78125,244180.75,277493.25,249165.09375,246307.296875,14949.0,1.0,1
232041.421875,273208.25,409241.96875,354942.9375,243241.703125,277267.0625,248778.234375,245808.578125,14950.0,1.0,1
231524.65625,272396.6875,408357.53125,354721.5625,241998.234375,276821.4375,248402.546875,245341.875,14951.0,1.0,1
231581.078125,272691.84375,408909.1875,354937.75,242177.40625,276781.9375,248575.375,245568.609375,14952.0,1.0,1
232124.21875,273662.96875,410107.0625,355279.5625,243506.265625,277187.46875,249046.375,246169.703125,14953.0,1.0,1
232410.671875,273987.0625,410317.4375,355277.40625,244169.9375,277487.25,249176.0,246323.03125,14954.0,1.0,1
232043.65625,273209.5,409235.25,354928.8125,243242.15625,277266.59375,248786.90625,245826.828125,14955.0,1.0,1
231529.296875,272397.15625,408342.875,354703.96875,241996.359375,276819.46875,248404.0625,245347.6875,14956.0,1.0,1
231587.421875,272689.40625,408887.09375,354920.15625,242167.296875,276778.4375,248571.609375,245566.640625,14957.0,1.0,1
232122.34375,273663.40625,410087.9375,355268.65625,243498.484375,277190.625,249049.765625,246171.3125,14958.0,1.0,1
232417.109375,274008.15625,410319.21875,355281.09375,244184.859375,277513.0,249198.625,246337.609375,14959.0,1.0,1
232058.0625,273236.3125,409238.46875,354925.875,243263.875,277285.84375,248794.953125,245822.984375,14960.0,1.0,1
231537.265625,272412.15625,408331.4375,354690.71875,242009.59375,276827.8125,248407.28125,245347.875,14961.0,1.0,1
231584.828125,272691.21875,408861.25,354901.0,242166.859375,276778.8125,248572.515625,245565.578125,14962.0,1.0,1
232112.234375,273657.15625,410058.6875,355246.40625,243491.15625,277185.96875,249037.15625,246157.8125,14963.0,1.0,1
232408.53125,274005.03125,410293.03125,355256.5,244181.28125,277503.71875,249181.1875,246324.375,14964.0,1.0,1
232057.78125,273243.90625,409224.4375,354913.0,243275.328125,277292.96875,248801.125,245837.109375,14965.0,1.0,1
231533.953125,272412.96875,408313.90625,354682.78125,242014.0625,276832.71875,248412.734375,245369.859375,14966.0,1.0,1
231565.875,272673.15625,408828.96875,354886.34375,242151.03125,276769.25,248554.1875,245563.34375,14967.0,1.0,1
232094.09375,273640.625,410024.25,355227.875,243469.875,277174.4375,249017.578125,246136.265625,14968.0,1.0,1
232395.203125,273997.1875,410270.40625,355243.25,244168.328125,277487.875,249171.359375,246314.71875,14969.0,1.0,1
232051.4375,273246.34375,409214.5,354902.71875,243273.984375,277283.5,248799.421875,245834.421875,14970.0,1.0,1
231534.84375,272421.1875,408302.71875,354670.875,242018.359375,276834.6875,248404.609375,245350.1875,14971.0,1.0,1
231567.484375,272680.03125,408811.28125,354878.3125,242148.796875,276773.53125,248552.65625,245550.734375,14972.0,1.0,1
232099.09375,273651.34375,410010.9375,355228.4375,243468.890625,277176.3125,249017.9375,246144.9375,14973.0,1.0,1
232405.5,274014.875,410268.0625,355248.71875,244182.984375,277500.0625,249175.109375,246325.53125,14974.0,1.0,1
232057.96875,273259.75,409207.875,354903.59375,243290.25,277297.625,248807.828125,245844.53125,14975.0,1.0,1
231539.40625,272429.0625,408287.625,354667.21875,242028.640625,276848.28125,248419.453125,245368.875,14976.0,1.0,1
231569.984375,272683.53125,408787.9375,354869.625,242149.953125,276780.6875,248560.4375,245569.515625,14977.0,1.0,1
232099.625,273654.75,409989.75,355219.3125,243464.953125,277182.46875,249031.4375,246162.09375,14978.0,1.0,1
232408.796875,274021.03125,410249.3125,355232.28125,244179.5,277498.0,249177.609375,246323.390625,14979.0,1.0,1
232070.390625,273273.6875,409195.09375,354887.875,243296.34375,277297.71875,248805.953125,245839.78125,14980.0,1.0,1
231547.90625,272435.5,408270.0,354654.625,242029.078125,276856.15625,248420.515625,245363.421875,14981.0,1.0,1
231568.640625,272669.75,408754.15625,354852.03125,242132.25,276773.4375,248545.6875,245545.640625,14982.0,1.0,1
232094.171875,273633.46875,409953.71875,355199.09375,243445.734375,277168.0,249011.3125,246131.78125,14983.0,1.0,1
232413.71875,274020.5,410235.25,355226.09375,244184.765625,277498.8125,249182.890625,246332.59375,14984.0,1.0,1
232077.015625,273278.625,409186.0625,354883.21875,243315.375,277298.34375,248814.171875,245854.984375,14985.0,1.0,1
231547.984375,272429.4375,408246.21875,354638.6875,242038.828125,276843.4375,248413.640625,245360.125,14986.0,1.0,1
231563.546875,272658.46875,408721.15625,354833.34375,242129.578125,276767.90625,248544.796875,245544.65625,14987.0,1.0,1
232088.09375,273623.0,409927.4375,355186.5,243445.375,277168.96875,249019.546875,246138.140625,14988.0,1.0,1
232412.46875,274014.78125,410219.0,355216.875,244194.609375,277503.0,249192.09375,246340.90625,14989.0,1.0,1
232076.46875,273273.25,409173.8125,354872.9375,243332.015625,277306.46875,248817.671875,245864.1875,14990.0,1.0,1
231550.578125,272422.53125,408228.78125,354629.03125,242051.34375,276848.625,248416.765625,245372.453125,14991.0,1.0,1
231565.78125,272645.96875,408694.59375,354818.9375,242130.015625,276766.71875,248543.0,245545.90625,14992.0,1.0,1
232098.109375,273618.34375,409903.28125,355171.46875,243441.625,277173.1875,249020.625,246141.53125,14993.0,1.0,1
232421.5,274015.6875,410206.9375,355205.0,244198.09375,277507.28125,249200.859375,246349.9375,14994.0,1.0,1
232086.3125,273280.125,409161.3125,354856.03125,243336.84375,277296.03125,248818.296875,245866.609375,14995.0,1.0,1
231552.109375,272421.03125,408206.875,354607.21875,242053.21875,276842.28125,248416.671875,245366.203125,14996.0,1.0,1
231563.71875,272637.46875,408666.25,354795.34375,242120.71875,276759.03125,248545.234375,245538.65625,14997.0,1.0,1
232088.71875,273604.84375,409875.75,355148.3125,243428.921875,277156.90625,249022.578125,246137.875,14998.0,1.0,1
232414.875,274012.1875,410187.0,355183.625,244194.609375,277497.46875,249210.15625,246355.484375,14999.0,1.0,1
232091.578125,273288.96875,409152.0,354838.6875,243348.453125,277305.21875,248834.828125,245872.59375,15000.0,1.0,1
231552.28125,272424.9375,408190.09375,354585.3125,242061.0,276849.0,248431.515625,245371.296875,15001.0,1.0,1
231557.640625,272635.0625,408639.8125,354774.15625,242119.734375,276766.09375,248557.671875,245546.171875,15002.0,1.0,1
232080.234375,273603.96875,409848.125,355128.8125,243423.734375,277163.6875,249026.703125,246136.4375,15003.0,1.0,1
232408.171875,274017.28125,410170.4375,355169.59375,244200.78125,277500.125,249203.984375,246358.875,15004.0,1.0,1
232073.875,273290.15625,409137.15625,354824.65625,243361.421875,277305.21875,248815.703125,245867.953125,15005.0,1.0,1
231542.625,272429.875,408169.15625,354573.59375,242069.40625,276852.21875,248414.53125,245361.1875,15006.0,1.0,1
231543.25,272629.25,408606.71875,354759.03125,242112.40625,276765.03125,248541.21875,245532.671875,15007.0,1.0,1
232061.71875,273595.375,409817.09375,355111.65625,243412.390625,277165.03125,249014.53125,246117.03125,15008.0,1.0,1
232399.59375,274021.125,410154.09375,355156.53125,244200.6875,277509.0,249200.859375,246337.6875,15009.0,1.0,1
232089.53125,273316.53125,409136.4375,354818.9375,243376.0,277313.0,248828.296875,245871.078125,15010.0,1.0,1
231552.375,272450.15625,408165.9375,354566.09375,242079.328125,276855.78125,248421.6875,245361.734375,15011.0,1.0,1
231539.671875,272634.25,408589.28125,354751.4375,242106.59375,276755.125,248531.390625,245522.21875,15012.0,1.0,1
232054.65625,273593.5,409797.15625,355107.90625,243399.59375,277142.875,249001.84375,246122.9375,15013.0,1.0,1
232395.390625,274029.09375,410144.59375,355152.34375,244196.578125,277492.1875,249195.9375,246341.625,15014.0,1.0,1
232088.984375,273327.4375,409130.46875,354815.0,243382.53125,277319.1875,248842.25,245874.46875,15015.0,1.0,1
231555.046875,272456.6875,408148.3125,354557.15625,242080.84375,276860.6875,248435.0,245366.203125,15016.0,1.0,1
231540.484375,272634.53125,408562.09375,354736.875,242099.4375,276762.34375,248541.9375,245521.59375,15017.0,1.0,1
232061.1875,273603.34375,409775.28125,355095.9375,243395.75,277152.875,249016.59375,246124.453125,15018.0,1.0,1
232403.609375,274043.65625,410132.28125,355144.125,244200.6875,277501.84375,249211.0625,246354.765625,15019.0,1.0,1
232099.0,273354.25,409128.5,354809.71875,243397.359375,277331.4375,248854.046875,245892.0,15020.0,1.0,1
231554.78125,272478.0625,408142.0625,354549.5625,242093.1875,276879.5625,248451.1875,245386.9375,15021.0,1.0,1
231537.625,272648.28125,408546.8125,354725.25,242096.046875,276778.34375,248552.65625,245530.171875,15022.0,1.0,1
232052.609375,273603.875,409751.65625,355077.59375,243383.78125,277150.46875,249002.296875,246113.109375,15023.0,1.0,1
232399.0625,274048.3125,410119.03125,355129.09375,244204.359375,277500.84375,249200.328125,246352.984375,15024.0,1.0,1
232097.484375,273359.53125,409120.1875,354799.09375,243413.1875,277333.5625,248855.390625,245907.5625,15025.0,1.0,1
231558.625,272481.0,408130.1875,354539.71875,242104.1875,276879.46875,248447.4375,245393.640625,15026.0,1.0,1
231531.359375,272635.15625,408522.59375,354709.6875,242092.65625,276773.71875,248541.3125,245526.6875,15027.0,1.0,1
232051.078125,273599.5,409732.4375,355063.65625,243377.078125,277154.40625,249001.390625,246113.1875,15028.0,1.0,1
232403.078125,274052.875,410111.71875,355118.53125,244202.921875,277504.875,249201.9375,246352.890625,15029.0,1.0,1
232101.515625,273362.84375,409119.46875,354790.15625,243422.40625,277344.84375,248857.0,245910.859375,15030.0,1.0,1
231559.25,272479.21875,408121.5,354527.5625,242111.328125,276893.5,248455.296875,245398.5625,15031.0,1.0,1
231536.90625,272631.65625,408506.84375,354696.71875,242090.859375,276782.1875,248546.40625,245526.59375,15032.0,1.0,1
232050.375,273585.09375,409718.59375,355054.875,243371.890625,277154.84375,249004.25,246121.6875,15033.0,1.0,1
232402.90625,274041.15625,410103.46875,355109.0625,244206.59375,277505.5,249206.140625,246357.1875,15034.0,1.0,1
232105.984375,273357.03125,409108.75,354773.0,243431.875,277342.59375,248855.390625,245899.0625,15035.0,1.0,1
231562.203125,272468.125,408100.6875,354506.46875,242114.734375,276889.21875,248441.4375,245379.15625,15036.0,1.0,1
231534.40625,272614.6875,408477.25,354676.6875,242081.109375,276773.96875,248537.375,245514.515625,15037.0,1.0,1
232050.8125,273576.5,409695.15625,355038.96875,243362.671875,277154.59375,249011.234375,246116.046875,15038.0,1.0,1
232412.375,274051.4375,410093.5625,355101.8125,244209.71875,277515.96875,249225.71875,246370.0625,15039.0,1.0,1
232120.90625,273377.59375,409107.84375,354770.3125,243444.75,277360.9375,248874.4375,245915.78125,15040.0,1.0,1
231571.234375,272480.46875,408095.3125,354502.09375,242127.15625,276902.0,248456.015625,245397.125,15041.0,1.0,1
231537.265625,272619.40625,408461.15625,354669.4375,242083.171875,276783.09375,248547.65625,245526.421875,15042.0,1.0,1
232047.234375,273578.84375,409672.4375,355027.78125,243357.484375,277160.125,249012.125,246115.96875,15043.0,1.0,1
232403.890625,274053.0625,410079.78125,355092.15625,244213.5625,277517.03125,249222.953125,246376.859375,15044.0,1.0,1
232112.234375,273381.96875,409097.46875,354759.65625,243453.78125,277349.03125,248869.703125,245926.421875,15045.0,1.0,1
231568.90625,272490.65625,408079.21875,354488.3125,242135.03125,276890.5625,248446.0,245393.109375,15046.0,1.0,1
231522.59375,272614.9375,408427.09375,354647.53125,242076.109375,276765.40625,248525.390625,245507.546875,15047.0,1.0,1
232028.015625,273569.28125,409637.84375,355009.90625,243344.4375,277147.25,248999.875,246102.1875,15048.0,1.0,1
232397.265625,274058.40625,410058.0625,355079.21875,244213.03125,277512.125,249221.34375,246366.125,15049.0,1.0,1
232113.125,273391.0,409084.96875,354745.96875,243468.4375,277352.875,248874.703125,245922.9375,15050.0,1.0,1
231565.25,272489.25,408060.34375,354472.5625,242145.9375,276901.46875,248459.234375,245393.375,15051.0,1.0,1
231524.5625,272614.3125,408408.59375,354637.875,242081.46875,276782.90625,248543.28125,245516.484375,15052.0,1.0,1
232031.0625,273565.4375,409615.84375,354993.28125,243343.71875,277139.21875,248993.34375,246101.5625,15053.0,1.0,1
232397.265625,274054.65625,410043.3125,355064.375,244217.859375,277504.34375,249215.171875,246365.859375,15054.0,1.0,1
232113.046875,273395.03125,409079.59375,354740.53125,243482.125,277358.59375,248878.015625,245930.984375,15055.0,1.0,1
231570.15625,272494.6875,408050.4375,354466.3125,242156.390625,276902.71875,248453.59375,245400.0,15056.0,1.0,1
231518.21875,272600.1875,408378.0,354617.25,242074.59375,276769.59375,248526.90625,245505.84375,15057.0,1.0,1
232024.171875,273552.5625,409589.3125,354976.375,243335.9375,277145.0,248995.140625,246091.734375,15058.0,1.0,1
232402.09375,274056.625,410033.125,355052.03125,244224.921875,277511.0625,249219.8125,246360.578125,15059.0,1.0,1
232132.359375,273409.5,409082.0,354735.96875,243507.421875,277375.875,248907.078125,245942.421875,15060.0,1.0,1
231584.015625,272501.46875,408044.71875,354458.90625,242175.53125,276919.625,248479.34375,245409.828125,15061.0,1.0,1
231526.0,272598.59375,408360.75,354608.75,242076.734375,276775.0625,248528.609375,245513.71875,15062.0,1.0,1
232023.1875,273541.375,409563.375,354965.03125,243324.046875,277136.875,248979.765625,246090.296875,15063.0,1.0,1
232397.171875,274041.59375,410008.96875,355036.75,244212.40625,277499.4375,249195.140625,246345.828125,15064.0,1.0,1
232130.921875,273402.625,409057.15625,354713.625,243499.734375,277360.5,248871.3125,245922.9375,15065.0,1.0,1
231584.828125,272497.625,408016.0,354434.59375,242167.84375,276907.1875,248451.8125,245396.140625,15066.0,1.0,1
231515.984375,272580.6875,408324.71875,354584.0625,242055.640625,276761.5625,248521.734375,245501.65625,15067.0,1.0,1
232013.265625,273527.15625,409538.59375,354950.28125,243305.71875,277129.71875,248988.96875,246100.046875,15068.0,1.0,1
232397.53125,274045.28125,409998.96875,355030.3125,244208.734375,277499.6875,249212.484375,246368.453125,15069.0,1.0,1
232133.0625,273407.8125,409053.125,354708.875,243503.578125,277358.6875,248878.734375,245937.78125,15070.0,1.0,1
231579.109375,272490.03125,408000.0,354427.15625,242165.34375,276898.25,248448.0625,245397.9375,15071.0,1.0,1
231503.109375,272563.34375,408292.71875,354569.125,242042.046875,276752.6875,248511.984375,245485.015625,15072.0,1.0,1
232004.328125,273513.75,409508.21875,354933.1875,243292.765625,277118.625,248978.234375,246076.0,15073.0,1.0,1
232398.34375,274040.90625,409980.09375,355018.5,244208.203125,277491.8125,249214.71875,246360.84375,15074.0,1.0,1
232132.984375,273406.46875,409043.125,354699.3125,243515.390625,277360.65625,248892.40625,245944.03125,15075.0,1.0,1
231578.75,272489.25,407989.71875,354413.75,242176.953125,276906.21875,248464.5,245399.453125,15076.0,1.0,1
231508.828125,272563.34375,408278.40625,354557.59375,242046.421875,276760.28125,248525.578125,245491.8125,15077.0,1.0,1
232005.9375,273510.34375,409485.59375,354918.8125,243290.703125,277118.0,248985.84375,246084.765625,15078.0,1.0,1
232396.734375,274046.15625,409966.875,355007.78125,244216.0625,277497.53125,249224.375,246380.703125,15079.0,1.0,1
232137.453125,273419.59375,409033.0,354684.84375,243531.390625,277364.34375,248889.546875,245945.640625,15080.0,1.0,1
231584.109375,272496.21875,407968.0,354393.71875,242188.859375,276902.0,248451.90625,245399.1875,15081.0,1.0,1
231500.78125,272556.375,408243.09375,354535.6875,242043.390625,276759.3125,248518.59375,245493.78125,15082.0,1.0,1
231996.90625,273503.90625,409452.40625,354899.5,243278.984375,277119.09375,248981.09375,246083.234375,15083.0,1.0,1
232389.046875,274042.5,409940.5,354986.84375,244208.109375,277491.75,249216.6875,246365.046875,15084.0,1.0,1
232133.609375,273426.5,409016.75,354671.78125,243536.9375,277371.03125,248905.375,245955.84375,15085.0,1.0,1
231581.609375,272501.65625,407949.84375,354383.15625,242192.25,276913.09375,248471.65625,245413.3125,15086.0,1.0,1
231502.390625,272555.5625,408213.59375,354516.9375,242031.046875,276749.65625,248513.234375,245483.765625,15087.0,1.0,1
231996.640625,273499.71875,409418.1875,354878.40625,243262.0,277110.15625,248971.265625,246065.1875,15088.0,1.0,1
232384.125,274040.09375,409917.6875,354971.1875,244199.25,277493.0625,249218.921875,246366.484375,15089.0,1.0,1
232139.59375,273438.125,409006.90625,354660.59375,243541.671875,277369.15625,248912.078125,245968.359375,15090.0,1.0,1
231587.78125,272513.71875,407936.625,354369.84375,242196.1875,276908.4375,248470.765625,245416.4375,15091.0,1.0,1
231498.015625,272556.75,408190.96875,354500.21875,242020.765625,276747.0625,248510.1875,245481.4375,15092.0,1.0,1
231986.359375,273491.84375,409394.21875,354861.78125,243243.140625,277096.28125,248964.203125,246060.890625,15093.0,1.0,1
232386.09375,274046.09375,409910.71875,354966.1875,244201.140625,277488.53125,249226.515625,246366.921875,15094.0,1.0,1
232148.890625,273451.78125,409007.71875,354659.71875,243559.015625,277378.09375,248922.890625,245968.4375,15095.0,1.0,1
231592.96875,272517.21875,407927.75,354363.84375,242211.46875,276913.53125,248470.5,245415.109375,15096.0,1.0,1
231499.078125,272552.1875,408172.09375,354495.65625,242030.15625,276752.25,248517.53125,245489.84375,15097.0,1.0,1
231985.015625,273489.0625,409381.25,354862.40625,243251.359375,277110.59375,248988.875,246084.84375,15098.0,1.0,1
232391.1875,274050.625,409902.65625,354960.125,244206.953125,277490.125,249223.84375,246372.46875,15099.0,1.0,1
232153.640625,273454.5625,409003.6875,354649.5,243571.265625,277379.71875,248912.703125,245970.5,15100.0,1.0,1
231597.609375,272521.0625,407920.6875,354355.8125,242222.296875,276926.875,248475.421875,245425.5625,15101.0,1.0,1
231499.171875,272546.28125,408146.90625,354479.71875,242024.796875,276758.25,248506.078125,245473.75,15102.0,1.0,1
231983.765625,273480.40625,409348.71875,354844.5,243240.640625,277107.90625,248966.796875,246056.953125,15103.0,1.0,1
232390.734375,274048.9375,409881.84375,354947.3125,244206.59375,277487.875,249219.015625,246367.375,15104.0,1.0,1
232152.921875,273459.21875,408992.59375,354640.03125,243579.40625,277383.5625,248924.0625,245973.984375,15105.0,1.0,1
231603.6875,272528.03125,407907.46875,354345.625,242230.0625,276930.25,248481.21875,245423.78125,15106.0,1.0,1
231507.125,272548.34375,408128.03125,354470.4375,242020.3125,276757.4375,248509.75,245488.859375,15107.0,1.0,1
231983.21875,273477.09375,409325.90625,354831.8125,243221.328125,277096.75,248966.34375,246068.84375,15108.0,1.0,1
232387.875,274050.1875,409866.1875,354936.40625,244196.9375,277482.4375,249226.703125,246385.4375,15109.0,1.0,1
232156.046875,273468.875,408979.71875,354624.5625,243582.96875,277379.875,248919.59375,245979.890625,15110.0,1.0,1
231606.8125,272538.78125,407888.25,354325.6875,242233.734375,276934.8125,248485.96875,245420.109375,15111.0,1.0,1
231500.96875,272548.59375,408097.09375,354444.6875,242012.1875,276761.5625,248513.6875,245469.46875,15112.0,1.0,1
231981.796875,273476.125,409294.53125,354803.125,243215.25,277095.84375,248957.9375,246038.0,15113.0,1.0,1
232388.78125,274053.21875,409845.0,354912.09375,244200.78125,277481.8125,249218.65625,246358.96875,15114.0,1.0,1
232167.3125,273485.5,408973.375,354611.875,243601.484375,277389.625,248929.421875,245978.1875,15115.0,1.0,1
231614.515625,272545.21875,407874.5625,354311.65625,242245.09375,276933.3125,248485.0625,245421.359375,15116.0,1.0,1
231496.3125,272536.96875,408067.15625,354428.15625,242006.90625,276752.34375,248503.671875,245466.0625,15117.0,1.0,1
231976.515625,273461.625,409263.6875,354793.71875,243203.796875,277089.03125,248955.34375,246047.75,15118.0,1.0,1
232393.515625,274051.25,409827.375,354908.25,244200.328125,277480.5625,249222.234375,246377.125,15119.0,1.0,1
232165.609375,273483.875,408961.46875,354607.5,243608.71875,277388.125,248928.796875,245995.171875,15120.0,1.0,1
231611.46875,272542.96875,407863.5625,354309.9375,242255.640625,276939.5625,248485.96875,245443.265625,15121.0,1.0,1
231498.09375,272534.28125,408048.625,354422.25,242007.625,276757.34375,248505.453125,245478.3125,15122.0,1.0,1
231972.671875,273450.625,409232.84375,354776.375,243193.78125,277083.78125,248944.625,246038.0,15123.0,1.0,1
232385.109375,274038.65625,409798.78125,354889.5625,244194.703125,277473.59375,249214.71875,246367.734375,15124.0,1.0,1
232177.953125,273489.96875,408947.1875,354594.625,243620.25,277389.71875,248929.953125,245992.5,15125.0,1.0,1
231619.15625,272539.5625,407842.28125,354291.15625,242263.953125,276938.84375,248484.171875,245433.25,15126.0,1.0,1
231493.625,272520.625,408015.5625,354403.46875,242003.953125,276755.8125,248505.015625,245469.90625,15127.0,1.0,1
231964.265625,273438.90625,409213.625,354769.78125,243189.765625,277100.03125,248965.625,246046.140625,15128.0,1.0,1
232380.546875,274033.21875,409792.25,354882.96875,244193.171875,277474.75,249211.0625,246372.390625,15129.0,1.0,1
232172.140625,273486.21875,408944.9375,354587.46875,243626.515625,277382.3125,248918.34375,246001.4375,15130.0,1.0,1
231619.78125,272542.53125,407836.5625,354286.78125,242272.09375,276937.5,248481.765625,245453.375,15131.0,1.0,1
231487.90625,272507.84375,407997.40625,354393.09375,241997.15625,276747.34375,248494.09375,245483.046875,15132.0,1.0,1
231960.6875,273421.84375,409186.53125,354752.5,243171.796875,277070.53125,248935.5,246040.234375,15133.0,1.0,1
232389.21875,274033.375,409779.75,354876.53125,244189.953125,277473.5,249221.421875,246379.09375,15134.0,1.0,1
232186.171875,273493.625,408938.6875,354577.8125,243635.8125,277393.375,248930.3125,245997.59375,15135.0,1.0,1
231622.28125,272537.875,407816.8125,354265.25,242272.0,276940.0,248475.234375,245426.90625,15136.0,1.0,1
231490.5,272502.8125,407967.46875,354368.875,241984.921875,276749.125,248484.4375,245450.234375,15137.0,1.0,1
231960.0625,273417.625,409156.21875,354729.71875,243156.953125,277073.3125,248934.78125,246024.671875,15138.0,1.0,1
232382.6875,274026.6875,409753.8125,354852.125,244182.625,277467.0625,249214.453125,246364.78125,15139.0,1.0,1
232180.015625,273492.03125,408919.8125,354558.21875,243638.234375,277391.15625,248936.484375,246001.515625,15140.0,1.0,1
231626.046875,272543.5,407800.1875,354250.5,242279.6875,276943.5,248493.921875,245440.9375,15141.0,1.0,1
231483.890625,272495.40625,407941.34375,354352.0625,241982.953125,276753.21875,248503.75,245460.875,15142.0,1.0,1
231943.96875,273398.40625,409125.09375,354712.46875,243146.3125,277071.25,248938.71875,246024.859375,15143.0,1.0,1
232369.46875,274013.0,409729.84375,354843.09375,244179.9375,277464.1875,249216.0625,246374.34375,15144.0,1.0,1
232175.890625,273488.71875,408905.875,354552.15625,243648.78125,277387.5,248939.53125,246016.359375,15145.0,1.0,1
231623.09375,272540.03125,407779.53125,354239.9375,242288.265625,276938.125,248487.390625,245444.15625,15146.0,1.0,1
231471.28125,272477.78125,407900.84375,354333.5625,241972.390625,276734.5625,248479.34375,245450.59375,15147.0,1.0,1
231933.515625,273386.4375,409086.46875,354698.40625,243133.4375,277067.40625,248937.828125,246019.046875,15148.0,1.0,1
232376.171875,274022.125,409711.4375,354833.875,244182.890625,277472.59375,249228.9375,246376.5,15149.0,1.0,1
232182.953125,273500.15625,408895.0625,354542.21875,243662.71875,277398.65625,248947.296875,246014.75,15150.0,1.0,1
231622.015625,272541.4375,407763.34375,354224.84375,242299.265625,276945.1875,248484.0,245438.53125,15151.0,1.0,1
231477.0,272477.875,407882.53125,354319.78125,241978.03125,276737.59375,248479.078125,245446.578125,15152.0,1.0,1
231934.140625,273380.71875,409064.9375,354683.21875,243131.921875,277059.375,248932.828125,246019.5,15153.0,1.0,1
232370.359375,274018.71875,409696.125,354821.25,244183.796875,277463.21875,249221.515625,246376.578125,15154.0,1.0,1
232193.59375,273516.6875,408894.53125,354535.96875,243678.109375,277401.96875,248947.65625,246022.796875,15155.0,1.0,1
231639.625,272560.59375,407762.1875,354222.6875,242315.09375,276958.96875,248497.859375,245455.421875,15156.0,1.0,1
231479.953125,272479.3125,407864.71875,354312.53125,241977.578125,276748.3125,248484.625,245452.828125,15157.0,1.0,1
231934.40625,273375.71875,409043.90625,354673.21875,243121.28125,277057.125,248928.96875,246017.078125,15158.0,1.0,1
232381.796875,274025.59375,409688.53125,354812.78125,244182.359375,277465.71875,249229.46875,246384.8125,15159.0,1.0,1
232196.734375,273520.90625,408890.3125,354530.96875,243683.296875,277405.09375,248963.671875,246055.53125,15160.0,1.0,1
231634.53125,272558.0,407744.5625,354207.21875,242313.578125,276954.3125,248495.625,245460.078125,15161.0,1.0,1
231478.96875,272471.875,407830.5,354284.65625,241963.375,276736.15625,248470.59375,245421.1875,15162.0,1.0,1
231927.703125,273362.46875,409006.375,354645.21875,243102.6875,277047.125,248914.578125,245989.359375,15163.0,1.0,1
232368.65625,274014.0625,409658.59375,354792.125,244173.6875,277459.28125,249216.953125,246364.34375,15164.0,1.0,1
232198.78125,273531.28125,408876.09375,354514.59375,243692.046875,277419.3125,248966.078125,246032.640625,15165.0,1.0,1
231643.390625,272567.8125,407733.3125,354197.21875,242327.609375,276965.21875,248509.03125,245452.65625,15166.0,1.0,1
231474.765625,272463.40625,407809.75,354279.28125,241964.890625,276735.8125,248479.078125,245433.703125,15167.0,1.0,1
231927.875,273353.4375,408980.71875,354636.0,243094.1875,277030.3125,248899.109375,245988.921875,15168.0,1.0,1
232370.625,274008.25,409639.90625,354781.21875,244168.953125,277441.65625,249204.171875,246358.171875,15169.0,1.0,1
232197.359375,273525.09375,408862.875,354503.34375,243698.046875,277400.625,248952.046875,246023.15625,15170.0,1.0,1
231651.96875,272575.4375,407722.21875,354190.5,242338.78125,276970.125,248513.234375,245459.8125,15171.0,1.0,1
231476.015625,272465.09375,407787.21875,354268.46875,241960.5,276742.6875,248480.0625,245439.0625,15172.0,1.0,1
231919.75,273345.65625,408952.90625,354624.125,243080.328125,277026.5625,248893.484375,245987.671875,15173.0,1.0,1
232370.53125,274011.75,409622.46875,354771.1875,244164.921875,277436.65625,249192.546875,246361.125,15174.0,1.0,1
232210.046875,273540.46875,408855.8125,354495.90625,243709.3125,277394.1875,248941.40625,246035.5,15175.0,1.0,1
231648.75,272569.625,407701.75,354170.375,242340.390625,276945.375,248478.09375,245458.28125,15176.0,1.0,1
231473.25,272457.21875,407757.34375,354244.6875,241951.75,276720.96875,248442.0625,245425.203125,15177.0,1.0,1
231919.75,273346.125,408929.03125,354608.125,243069.875,277030.5625,248886.234375,245986.0625,15178.0,1.0,1
232368.484375,274013.4375,409609.9375,354762.34375,244160.453125,277443.625,249198.984375,246367.734375,15179.0,1.0,1
232211.5625,273549.25,408853.5625,354491.34375,243716.1875,277403.125,248953.65625,246045.25,15180.0,1.0,1
231659.125,272586.96875,407701.75,354169.40625,242352.375,276961.28125,248496.6875,245472.5,15181.0,1.0,1
231478.34375,272462.25,407745.90625,354242.0,241952.8125,276733.21875,248462.453125,245446.65625,15182.0,1.0,1
231916.796875,273343.875,408909.28125,354600.78125,243065.046875,277033.78125,248899.921875,245998.9375,15183.0,1.0,1
232374.921875,274023.46875,409600.28125,354756.53125,244166.4375,277451.875,249216.234375,246387.40625,15184.0,1.0,1
232219.265625,273561.84375,408849.28125,354485.53125,243733.625,277420.5625,248980.390625,246064.375,15185.0,1.0,1
231655.453125,272588.5625,407689.59375,354160.375,242367.484375,276984.34375,248529.859375,245481.171875,15186.0,1.0,1
231473.609375,272456.59375,407721.21875,354229.46875,241952.375,276741.4375,248482.125,245447.921875,15187.0,1.0,1
231907.40625,273326.34375,408881.1875,354588.28125,243049.125,277024.125,248897.59375,245992.3125,15188.0,1.0,1
232364.28125,274008.09375,409578.03125,354742.125,244156.78125,277436.5625,249199.515625,246358.171875,15189.0,1.0,1
232213.171875,273556.65625,408834.625,354473.1875,243732.375,277400.0,248954.09375,246045.421875,15190.0,1.0,1
231656.4375,272588.9375,407671.59375,354144.375,242363.375,276956.375,248491.859375,245461.765625,15191.0,1.0,1
231459.390625,272437.03125,407686.53125,354204.8125,241932.96875,276709.59375,248436.796875,245409.921875,15192.0,1.0,1
231895.609375,273312.5,408844.625,354565.5625,243029.90625,277004.375,248868.8125,245969.0625,15193.0,1.0,1
232362.40625,274005.5625,409553.90625,354726.3125,244145.53125,277419.3125,249185.75,246359.421875,15194.0,1.0,1
232216.390625,273560.6875,408819.875,354458.28125,243734.96875,277394.8125,248950.078125,246048.1875,15195.0,1.0,1
231658.3125,272590.1875,407654.71875,354132.46875,242371.6875,276960.5625,248493.75,245470.359375,15196.0,1.0,1
231462.34375,272439.71875,407661.3125,354192.46875,241933.140625,276716.5,248437.5,245421.71875,15197.0,1.0,1
231888.71875,273304.4375,408811.90625,354547.15625,243018.546875,277003.46875,248858.078125,245958.34375,15198.0,1.0,1
232355.25,274007.53125,409532.53125,354714.96875,244141.40625,277432.46875,249195.671875,246363.265625,15199.0,1.0,1
232221.046875,273577.59375,408814.6875,354453.90625,243747.9375,277419.6875,248979.484375,246063.921875,15200.0,1.0,1
231663.6875,272602.96875,407642.71875,354120.125,242386.4375,276976.3125,248504.734375,245475.90625,15201.0,1.0,1
231461.984375,272441.125,407637.09375,354175.5625,241934.75,276724.96875,248438.21875,245413.578125,15202.0,1.0,1
231891.9375,273307.65625,408794.90625,354535.875,243014.53125,277010.90625,248870.421875,245962.71875,15203.0,1.0,1
232359.0,274008.71875,409524.5625,354702.8125,244144.265625,277429.96875,249195.140625,246365.3125,15204.0,1.0,1
232225.78125,273582.59375,408810.21875,354441.375,243759.90625,277407.4375,248963.671875,246065.09375,15205.0,1.0,1
231666.640625,272603.5,407633.6875,354108.96875,242395.109375,276968.4375,248497.40625,245471.875,15206.0,1.0,1
231463.328125,272436.3125,407620.65625,354167.625,241935.921875,276724.71875,248448.765625,245416.171875,15207.0,1.0,1
231891.140625,273300.875,408771.9375,354530.25,243010.40625,277008.84375,248883.109375,245966.390625,15208.0,1.0,1
232360.796875,274007.71875,409504.625,354699.40625,244144.984375,277424.9375,249204.34375,246361.75,15209.0,1.0,1
232235.890625,273590.71875,408799.65625,354439.125,243775.015625,277411.625,248977.53125,246066.171875,15210.0,1.0,1
231681.125,272616.375,407625.75,354106.0,242411.46875,276981.65625,248515.921875,245486.625,15211.0,1.0,1
231471.28125,272433.28125,407599.09375,354156.0625,241937.34375,276724.0,248445.546875,245418.671875,15212.0,1.0,1
231895.15625,273287.0,408741.375,354513.625,243002.546875,277000.34375,248868.625,245952.890625,15213.0,1.0,1
232367.21875,274003.25,409485.5,354687.59375,244144.71875,277424.3125,249202.203125,246361.75,15214.0,1.0,1
232238.125,273591.71875,408788.9375,354427.96875,243781.453125,277407.15625,248975.375,246067.859375,15215.0,1.0,1
231682.453125,272614.9375,407612.40625,354094.84375,242418.8125,276974.78125,248510.1875,245483.046875,15216.0,1.0,1
231464.21875,272421.90625,407575.0625,354143.375,241928.859375,276721.59375,248441.53125,245416.71875,15217.0,1.0,1
231885.953125,273277.4375,408720.34375,354504.6875,242984.3125,277000.25,248874.796875,245964.6875,15218.0,1.0,1
232370.09375,274008.71875,409480.75,354685.46875,244138.109375,277429.6875,249216.859375,246381.59375,15219.0,1.0,1
232250.640625,273602.875,408791.34375,354424.5625,243787.1875,277408.21875,248982.359375,246089.046875,15220.0,1.0,1
231694.96875,272625.5,407608.9375,354081.96875,242423.546875,276971.46875,248511.171875,245487.96875,15221.0,1.0,1
231472.359375,272424.5,407558.40625,354126.40625,241923.40625,276710.40625,248439.46875,245403.65625,15222.0,1.0,1
231891.84375,273274.75,408697.09375,354485.375,242973.125,276984.96875,248857.984375,245935.359375,15223.0,1.0,1
232368.203125,274003.0,409462.4375,354669.90625,244132.734375,277416.8125,249207.5625,246360.40625,15224.0,1.0,1
232252.15625,273613.78125,408790.90625,354424.5625,243800.5,277422.625,249003.546875,246090.21875,15225.0,1.0,1
231698.90625,272635.5,407600.53125,354082.3125,242431.5,276979.0,248513.234375,245492.53125,15226.0,1.0,1
231474.59375,272423.15625,407536.5,354116.75,241918.390625,276710.21875,248427.046875,245389.890625,15227.0,1.0,1
231882.640625,273261.96875,408671.96875,354473.84375,242960.96875,276979.6875,248854.765625,245934.5625,15228.0,1.0,1
232364.984375,273999.5,409444.5625,354658.8125,244123.34375,277409.40625,249194.515625,246351.640625,15229.0,1.0,1
232262.625,273626.125,408783.75,354412.40625,243805.515625,277419.21875,248990.484375,246075.8125,15230.0,1.0,1
231706.515625,272649.71875,407599.5625,354076.15625,242448.046875,277000.8125,248528.703125,245494.9375,15231.0,1.0,1
231471.1875,272426.03125,407521.5,354107.875,241919.46875,276724.09375,248434.015625,245396.0625,15232.0,1.0,1
231883.796875,273266.53125,408650.875,354461.03125,242950.0625,276981.5,248848.15625,245926.6875,15233.0,1.0,1
232367.21875,274012.46875,409433.8125,354648.09375,244119.6875,277419.125,249200.421875,246355.03125,15234.0,1.0,1
232262.703125,273640.71875,408777.125,354398.375,243809.359375,277425.03125,248994.25,246083.0625,15235.0,1.0,1
231707.5,272663.75,407587.125,354058.53125,242453.234375,276999.375,248528.4375,245491.546875,15236.0,1.0,1
231469.40625,272437.28125,407502.0,354096.53125,241919.203125,276730.0625,248448.953125,245405.0,15237.0,1.0,1
231874.765625,273277.09375,408628.34375,354454.78125,242942.46875,276996.875,248873.546875,245946.890625,15238.0,1.0,1
232365.796875,274026.9375,409418.4375,354642.4375,244117.265625,277431.21875,249221.15625,246372.734375,15239.0,1.0,1
232276.03125,273665.65625,408773.625,354398.71875,243822.671875,277437.09375,249006.21875,246095.765625,15240.0,1.0,1
231716.515625,272683.0625,407577.65625,354054.0625,242462.171875,277005.09375,248531.921875,245497.53125,15241.0,1.0,1
231470.109375,272446.40625,407478.75,354081.6875,241909.90625,276731.5,248444.65625,245394.09375,15242.0,1.0,1
231876.65625,273283.96875,408603.125,354437.25,242924.578125,276998.75,248866.125,245926.953125,15243.0,1.0,1
232369.546875,274038.75,409402.53125,354630.375,244105.828125,277433.71875,249213.375,246361.5625,15244.0,1.0,1
232274.78125,273682.1875,408766.03125,354386.3125,243821.328125,277450.25,249013.109375,246099.875,15245.0,1.0,1
231713.484375,272691.65625,407560.5625,354034.3125,242459.125,277007.15625,248527.265625,245501.109375,15246.0,1.0,1
231466.625,272443.1875,407449.0,354060.21875,241896.40625,276729.8125,248435.453125,245401.328125,15247.0,1.0,1
231865.828125,273267.875,408573.28125,354421.0,242904.90625,276996.6875,248863.34375,245944.65625,15248.0,1.0,1
232359.71875,274027.40625,409381.6875,354614.90625,244094.296875,277429.25,249208.1875,246368.625,15249.0,1.0,1
232274.6875,273679.5,408756.125,354371.1875,243825.359375,277446.0625,249002.375,246096.46875,15250.0,1.0,1
231724.03125,272698.90625,407557.53125,354026.96875,242472.8125,277020.375,248531.203125,245509.15625,15251.0,1.0,1
231467.609375,272434.53125,407429.5,354045.21875,241895.234375,276738.125,248426.859375,245395.078125,15252.0,1.0,1
231861.0,273253.5625,408543.3125,354398.375,242894.546875,277000.71875,248844.9375,245923.03125,15253.0,1.0,1
232347.109375,274009.78125,409357.75,354592.65625,244087.140625,277427.0,249193.796875,246355.484375,15254.0,1.0,1
232269.765625,273675.84375,408745.46875,354356.0,243832.78125,277446.84375,249003.546875,246099.875,15255.0,1.0,1
231718.84375,272691.5625,407543.5625,354010.34375,242480.9375,277019.75,248535.578125,245511.9375,15256.0,1.0,1
231455.8125,272420.21875,407406.25,354028.59375,241894.078125,276743.5,248440.015625,245393.203125,15257.0,1.0,1
231848.75,273237.46875,408518.84375,354383.0,242885.15625,276994.09375,248848.59375,245916.234375,15258.0,1.0,1
232343.09375,274008.09375,409345.84375,354583.96875,244087.953125,277425.03125,249207.5625,246366.03125,15259.0,1.0,1
232260.65625,273672.09375,408740.65625,354346.59375,243846.015625,277451.40625,249017.046875,246116.328125,15260.0,1.0,1
231713.65625,272687.8125,407533.65625,353996.75,242495.078125,277022.09375,248540.0625,245516.3125,15261.0,1.0,1
231455.640625,272416.1875,407384.0,354011.40625,241896.671875,276735.71875,248433.921875,245386.765625,15262.0,1.0,1
231840.625,273227.90625,408491.1875,354367.15625,242876.921875,276990.6875,248846.984375,245908.8125,15263.0,1.0,1
232342.015625,274008.625,409328.9375,354572.34375,244085.796875,277423.0625,249211.765625,246362.09375,15264.0,1.0,1
232269.953125,273686.40625,408731.0,354337.46875,243853.4375,277445.59375,249024.375,246121.421875,15265.0,1.0,1
231714.28125,272699.4375,407520.78125,353988.4375,242502.671875,277024.3125,248548.734375,245529.71875,15266.0,1.0,1
231441.5,272412.96875,407358.25,353995.84375,241888.984375,276733.375,248427.84375,245391.5,15267.0,1.0,1
231833.015625,273224.875,408460.53125,354345.25,242861.375,276979.53125,248830.265625,245897.359375,15268.0,1.0,1
232330.296875,274006.84375,409302.75,354551.15625,244075.515625,277420.84375,249203.71875,246345.109375,15269.0,1.0,1
232265.484375,273697.21875,408723.84375,354328.28125,243865.234375,277457.75,249031.171875,246115.78125,15270.0,1.0,1
231718.578125,272713.125,407511.9375,353977.25,242518.9375,277032.09375,248552.484375,245520.875,15271.0,1.0,1
231447.765625,272415.21875,407338.03125,353983.0625,241893.546875,276733.90625,248436.34375,245386.046875,15272.0,1.0,1
231828.8125,273214.3125,408437.90625,354334.4375,242857.609375,276977.8125,248837.6875,245899.0625,15273.0,1.0,1
232337.453125,274008.78125,409293.90625,354548.125,244086.78125,277428.78125,249220.703125,246361.296875,15274.0,1.0,1
232276.484375,273703.75,408717.65625,354318.8125,243883.203125,277457.59375,249039.84375,246130.359375,15275.0,1.0,1
231728.859375,272717.65625,407503.15625,353966.53125,242536.46875,277038.8125,248567.40625,245538.03125,15276.0,1.0,1
231451.703125,272412.15625,407318.8125,353970.8125,241898.8125,276736.5,248435.265625,245393.375,15277.0,1.0,1
231823.0,273199.75,408407.6875,354318.15625,242852.078125,276975.15625,248826.421875,245894.5,15278.0,1.0,1
232325.828125,273991.09375,409264.9375,354529.53125,244077.3125,277417.71875,249201.21875,246351.640625,15279.0,1.0,1
232276.125,273703.46875,408706.21875,354310.21875,243888.921875,277465.4375,249041.71875,246135.28125,15280.0,1.0,1
231737.71875,272726.53125,407497.34375,353959.75,242548.53125,277050.4375,248572.328125,245540.09375,15281.0,1.0,1
231458.140625,272412.15625,407303.15625,353961.96875,241901.59375,276740.71875,248439.828125,245398.296875,15282.0,1.0,1
231820.953125,273191.15625,408385.625,354302.96875,242842.6875,276959.0625,248812.921875,245883.59375,15283.0,1.0,1
232327.4375,273990.375,409251.15625,354516.03125,244073.28125,277402.40625,249188.609375,246345.65625,15284.0,1.0,1
232286.484375,273714.90625,408705.0625,354303.59375,243901.703125,277463.03125,249044.9375,246140.734375,15285.0,1.0,1
231741.640625,272727.59375,407489.03125,353948.90625,242553.359375,277042.46875,248569.109375,245544.46875,15286.0,1.0,1
231455.453125,272398.9375,407276.78125,353937.75,241887.90625,276727.46875,248423.015625,245372.8125,15287.0,1.0,1
231823.1875,273184.65625,408358.0,354283.75,242827.84375,276959.75,248820.96875,245878.5,15288.0,1.0,1
232331.015625,273990.90625,409232.46875,354501.625,244065.953125,277405.09375,249203.015625,246350.125,15289.0,1.0,1
232290.609375,273719.75,408692.90625,354289.375,243904.03125,277459.0,249043.0625,246137.875,15290.0,1.0,1
231745.484375,272734.9375,407472.15625,353930.9375,242560.96875,277038.625,248561.328125,245535.53125,15291.0,1.0,1
231449.90625,272396.78125,407250.15625,353921.03125,241887.1875,276730.6875,248424.8125,245373.34375,15292.0,1.0,1
231809.234375,273168.375,408325.71875,354267.46875,242811.75,276956.375,248815.703125,245875.546875,15293.0,1.0,1
232320.640625,273980.375,409208.25,354490.90625,244056.390625,277400.90625,249202.375,246352.53125,15294.0,1.0,1
232281.65625,273714.03125,408677.4375,354276.6875,243908.59375,277455.15625,249053.96875,246148.0625,15295.0,1.0,1
231742.546875,272729.375,407457.9375,353917.375,242573.921875,277043.4375,248578.953125,245544.296875,15296.0,1.0,1
231447.765625,272387.125,407225.8125,353906.625,241891.9375,276726.3125,248437.0625,245392.65625,15297.0,1.0,1
231806.375,273159.15625,408296.65625,354251.65625,242809.609375,276947.78125,248817.3125,245878.859375,15298.0,1.0,1
232319.84375,273976.34375,409188.40625,354474.28125,244060.59375,277398.5625,249204.078125,246340.375,15299.0,1.0,1
232283.0,273719.84375,408668.6875,354262.125,243922.09375,277464.09375,249055.3125,246136.078125,15300.0,1.0,1
231740.03125,272735.46875,407446.40625,353901.8125,242587.703125,277047.90625,248569.296875,245535.359375,15301.0,1.0,1
231436.953125,272378.625,407198.1875,353886.0625,241891.125,276727.03125,248427.140625,245369.328125,15302.0,1.0,1
231796.1875,273148.78125,408266.0,354233.40625,242801.296875,276949.21875,248811.234375,245864.28125,15303.0,1.0,1
232310.09375,273967.65625,409160.25,354456.3125,244047.171875,277384.8125,249187.625,246337.515625,15304.0,1.0,1
232286.578125,273723.0625,408653.03125,354250.84375,243922.8125,277453.125,249051.015625,246146.625,15305.0,1.0,1
231746.203125,272739.03125,407430.84375,353892.40625,242590.015625,277045.78125,248572.6875,245545.8125,15306.0,1.0,1
231439.984375,272381.84375,407173.53125,353874.0,241879.328125,276729.90625,248420.875,245371.296875,15307.0,1.0,1
231795.015625,273147.71875,408236.125,354220.71875,242776.96875,276943.21875,248807.203125,245867.6875,15308.0,1.0,1
232313.3125,273972.75,409145.40625,354451.5625,244036.453125,277390.25,249201.40625,246350.03125,15309.0,1.0,1
232282.46875,273728.3125,408643.46875,354240.75,243921.46875,277455.78125,249051.734375,246146.90625,15310.0,1.0,1
231743.96875,272747.96875,407416.875,353880.4375,242591.359375,277048.8125,248581.625,245544.75,15311.0,1.0,1
231441.0625,272386.3125,407149.90625,353861.5625,241876.015625,276731.34375,248431.6875,245366.28125,15312.0,1.0,1
231791.453125,273144.15625,408205.71875,354200.25,242767.9375,276941.96875,248806.578125,245849.625,15313.0,1.0,1
232311.171875,273974.1875,409119.46875,354428.5,244031.796875,277382.75,249194.96875,246332.328125,15314.0,1.0,1
232293.734375,273743.0,408634.6875,354228.5,243935.234375,277458.46875,249055.484375,246149.671875,15315.0,1.0,1
231755.234375,272759.59375,407411.15625,353871.40625,242609.6875,277057.5,248585.828125,245560.484375,15316.0,1.0,1
231446.609375,272387.21875,407132.5625,353845.9375,241879.6875,276736.875,248433.296875,245363.96875,15317.0,1.0,1
231799.3125,273142.96875,408185.6875,354189.34375,242764.0,276939.28125,248806.9375,245851.234375,15318.0,1.0,1
232318.671875,273972.6875,409107.21875,354424.84375,244034.296875,277381.5,249189.328125,246336.890625,15319.0,1.0,1
232298.46875,273740.84375,408630.40625,354224.375,243947.21875,277460.625,249054.59375,246149.046875,15320.0,1.0,1
231763.8125,272759.59375,407404.28125,353865.5,242623.1875,277050.78125,248582.078125,245555.03125,15321.0,1.0,1
231452.6875,272378.71875,407116.5625,353842.53125,241886.65625,276726.78125,248424.1875,245369.5,15322.0,1.0,1
231790.640625,273121.53125,408159.875,354182.625,242756.765625,276932.6875,248789.328125,245846.21875,15323.0,1.0,1
232309.015625,273958.90625,409084.25,354414.8125,244024.46875,277379.8125,249182.171875,246328.9375,15324.0,1.0,1
232306.34375,273754.625,408621.28125,354218.9375,243956.0625,277472.15625,249064.96875,246156.46875,15325.0,1.0,1
231775.0,272777.46875,407395.78125,353855.40625,242639.1875,277070.8125,248594.6875,245555.921875,15326.0,1.0,1
231445.625,272374.15625,407088.6875,353818.21875,241880.671875,276728.125,248417.296875,245355.5625,15327.0,1.0,1
231773.921875,273103.8125,408126.25,354155.90625,242733.15625,276918.71875,248783.515625,245839.96875,15328.0,1.0,1
232300.625,273952.03125,409065.03125,354395.96875,244009.625,277368.96875,249185.75,246328.21875,15329.0,1.0,1
232307.5,273758.0,408614.125,354204.625,243953.921875,277462.40625,249062.28125,246152.890625,15330.0,1.0,1
231786.078125,272787.125,407391.6875,353846.71875,242645.0,277071.53125,248595.390625,245557.796875,15331.0,1.0,1
231452.328125,272376.21875,407073.375,353810.875,241878.703125,276733.65625,248423.015625,245356.546875,15332.0,1.0,1
231783.046875,273110.0,408105.15625,354149.0,242726.90625,276930.4375,248791.5625,245835.40625,15333.0,1.0,1
232316.265625,273965.625,409054.09375,354394.625,244014.453125,277376.5,249198.53125,246337.96875,15334.0,1.0,1
232312.421875,273769.53125,408607.15625,354199.25,243965.1875,277460.09375,249064.96875,246168.09375,15335.0,1.0,1
231776.6875,272785.53125,407374.96875,353833.6875,242650.546875,277055.6875,248585.203125,245570.671875,15336.0,1.0,1
231439.71875,272370.0625,407047.1875,353793.4375,241874.5,276723.90625,248413.1875,245360.296875,15337.0,1.0,1
231777.140625,273104.4375,408072.5,354128.8125,242717.25,276913.0,248776.09375,245830.484375,15338.0,1.0,1
232305.359375,273959.0,409024.96875,354373.78125,244004.53125,277362.625,249182.890625,246335.71875,15339.0,1.0,1
232311.890625,273777.21875,408602.0625,354197.03125,243980.828125,277474.84375,249095.265625,246194.1875,15340.0,1.0,1
231788.3125,272809.125,407382.03125,353842.53125,242681.3125,277091.46875,248632.59375,245612.15625,15341.0,1.0,1
231451.15625,272379.1875,407028.9375,353780.3125,241885.9375,276720.78125,248398.34375,245348.3125,15342.0,1.0,1
231775.265625,273094.4375,408040.5,354109.21875,242711.96875,276898.53125,248754.28125,245809.125,15343.0,1.0,1
232297.9375,273945.40625,408996.25,354356.78125,243999.515625,277351.46875,249162.328125,246311.671875,15344.0,1.0,1
232315.375,273776.96875,408579.96875,354176.1875,243985.3125,277459.28125,249054.328125,246159.765625,15345.0,1.0,1
231793.59375,272809.125,407357.0,353813.03125,242683.453125,277071.25,248590.578125,245567.8125,15346.0,1.0,1
231453.578125,272376.21875,407006.59375,353764.5625,241884.515625,276725.59375,248407.28125,245351.09375,15347.0,1.0,1
231768.921875,273086.75,408020.21875,354100.71875,242701.78125,276908.09375,248770.09375,245822.078125,15348.0,1.0,1
232299.1875,273950.25,408986.25,354350.09375,243996.65625,277360.03125,249182.171875,246325.625,15349.0,1.0,1
232319.84375,273789.3125,408579.53125,354170.90625,243995.59375,277469.46875,249080.875,246175.15625,15350.0,1.0,1
231796.1875,272817.625,407352.78125,353805.59375,242699.546875,277082.34375,248608.1875,245582.734375,15351.0,1.0,1
231449.015625,272375.0625,406988.28125,353752.21875,241890.046875,276732.125,248416.40625,245361.640625,15352.0,1.0,1
231768.5625,273083.0,407990.78125,354081.5,242693.734375,276906.21875,248775.46875,245820.109375,15353.0,1.0,1
232298.296875,273945.3125,408963.0,354331.3125,243989.78125,277357.1875,249185.125,246324.015625,15354.0,1.0,1
232324.84375,273794.40625,408571.125,354157.5,244004.4375,277476.71875,249095.359375,246190.34375,15355.0,1.0,1
231804.40625,272825.0625,407343.75,353792.28125,242711.875,277085.8125,248613.453125,245593.46875,15356.0,1.0,1
231450.71875,272369.78125,406965.65625,353732.28125,241888.796875,276725.6875,248404.421875,245354.75,15357.0,1.0,1
231757.5625,273065.5625,407962.09375,354061.84375,242682.375,276899.5,248759.546875,245813.234375,15358.0,1.0,1
232284.078125,273929.59375,408938.15625,354316.375,243981.734375,277347.15625,249172.609375,246321.421875,15359.0,1.0,1
232320.203125,273789.3125,408553.6875,354144.8125,244009.453125,277463.9375,249079.265625,246185.078125,15360.0,1.0,1
231806.28125,272826.375,407327.5625,353780.3125,242724.125,277088.59375,248616.859375,245594.0,15361.0,1.0,1
231453.9375,272368.34375,406940.25,353720.03125,241891.84375,276737.0625,248413.8125,245355.46875,15362.0,1.0,1
231754.15625,273052.3125,407931.34375,354048.0625,242670.9375,276905.59375,248765.453125,245807.6875,15363.0,1.0,1
232288.1875,273925.90625,408918.46875,354308.78125,243975.5625,277358.96875,249183.25,246325.0,15364.0,1.0,1
232325.109375,273789.75,408543.9375,354136.125,244010.875,277470.71875,249086.421875,246193.21875,15365.0,1.0,1
231810.75,272826.9375,407316.75,353767.25,242728.421875,277093.59375,248625.890625,245599.90625,15366.0,1.0,1
231452.6875,272359.3125,406915.3125,353706.625,241886.203125,276744.21875,248425.171875,245359.484375,15367.0,1.0,1
231761.765625,273044.71875,407896.90625,354032.6875,242653.140625,276893.6875,248755.796875,245811.890625,15368.0,1.0,1
232292.921875,273918.125,408889.0625,354289.65625,243956.515625,277341.1875,249165.8125,246320.265625,15369.0,1.0,1
232342.734375,273800.46875,408533.9375,354127.8125,244013.375,277472.0625,249085.703125,246191.25,15370.0,1.0,1
231826.765625,272832.8125,407302.625,353758.21875,242730.125,277078.59375,248610.515625,245600.890625,15371.0,1.0,1
231459.03125,272355.21875,406887.96875,353690.53125,241872.34375,276717.375,248400.40625,245353.234375,15372.0,1.0,1
231751.03125,273035.78125,407863.75,354015.09375,242631.421875,276880.28125,248745.78125,245798.84375,15373.0,1.0,1
232289.984375,273917.78125,408866.90625,354279.0,243946.421875,277332.15625,249162.859375,246309.890625,15374.0,1.0,1
232336.015625,273800.3125,408520.53125,354118.875,244017.140625,277464.375,249085.34375,246188.203125,15375.0,1.0,1
231820.140625,272835.0625,407292.53125,353751.34375,242741.828125,277089.03125,248623.296875,245597.21875,15376.0,1.0,1
231453.75,272352.8125,406870.875,353683.84375,241879.234375,276728.46875,248419.0,245351.0,15377.0,1.0,1
231745.578125,273022.90625,407841.46875,354004.1875,242626.59375,276884.65625,248749.265625,245787.03125,15378.0,1.0,1
232282.015625,273907.15625,408848.375,354265.6875,243938.71875,277335.0,249162.78125,246304.171875,15379.0,1.0,1
232339.0625,273802.625,408512.65625,354107.0,244019.8125,277467.78125,249091.96875,246195.984375,15380.0,1.0,1
231828.109375,272844.625,407287.25,353737.75,242751.84375,277096.90625,248629.546875,245607.0625,15381.0,1.0,1
231454.921875,272350.84375,406854.96875,353663.4375,241877.53125,276725.59375,248399.59375,245351.890625,15382.0,1.0,1
231749.328125,273022.5625,407821.8125,353988.4375,242618.625,276878.75,248736.84375,245792.40625,15383.0,1.0,1
232291.5,273916.96875,408835.0625,354255.40625,243937.390625,277334.5625,249161.4375,246308.546875,15384.0,1.0,1
232348.984375,273817.8125,408506.65625,354096.71875,244029.03125,277462.5,249086.875,246199.828125,15385.0,1.0,1
231830.875,272851.15625,407274.65625,353722.09375,242757.921875,277087.625,248610.59375,245595.4375,15386.0,1.0,1
231457.953125,272356.8125,406832.15625,353648.0625,241875.125,276731.59375,248399.5,245332.578125,15387.0,1.0,1
231746.296875,273020.21875,407791.6875,353971.90625,242608.265625,276881.71875,248740.78125,245773.0,15388.0,1.0,1
232281.75,273910.625,408812.96875,354241.1875,243930.5,277334.03125,249164.921875,246307.828125,15389.0,1.0,1
232343.53125,273821.21875,408495.9375,354087.78125,244034.5625,277475.46875,249096.4375,246211.09375,15390.0,1.0,1
231830.875,272859.28125,407262.3125,353713.96875,242766.78125,277097.71875,248614.359375,245607.953125,15391.0,1.0,1
231448.296875,272347.96875,406804.375,353635.28125,241869.484375,276727.75,248388.875,245336.15625,15392.0,1.0,1
231733.59375,273008.78125,407761.65625,353961.25,242590.828125,276884.9375,248739.078125,245777.375,15393.0,1.0,1
232272.640625,273899.28125,408784.90625,354231.90625,243910.65625,277328.03125,249152.765625,246301.484375,15394.0,1.0,1
232342.015625,273819.78125,408480.65625,354081.6875,244027.6875,277467.6875,249079.171875,246203.578125,15395.0,1.0,1
231840.625,272868.59375,407257.375,353712.53125,242772.59375,277101.28125,248617.65625,245616.359375,15396.0,1.0,1
231461.71875,272358.875,406795.6875,353631.78125,241873.25,276736.4375,248402.015625,245348.21875,15397.0,1.0,1
231727.515625,272998.6875,407739.46875,353951.4375,242580.0,276878.03125,248733.265625,245777.296875,15398.0,1.0,1
232271.5625,273900.4375,408773.375,354224.28125,243906.625,277327.3125,249159.375,246306.21875,15399.0,1.0,1
232346.03125,273831.78125,408477.625,354072.9375,244037.34375,277471.53125,249095.984375,246210.46875,15400.0,1.0,1
231840.171875,272879.21875,407253.625,353703.6875,242787.703125,277109.6875,248627.9375,245620.015625,15401.0,1.0,1
231445.984375,272350.375,406778.25,353618.84375,241873.421875,276737.5,248397.453125,245340.71875,15402.0,1.0,1
231716.703125,272993.125,407714.78125,353936.84375,242567.765625,276880.71875,248732.546875,245768.078125,15403.0,1.0,1
232262.796875,273897.3125,408750.40625,354212.65625,243894.5625,277331.59375,249164.109375,246307.390625,15404.0,1.0,1
232334.0625,273828.375,408464.8125,354066.125,244032.6875,277476.625,249100.453125,246223.609375,15405.0,1.0,1
231833.375,272875.75,407240.84375,353695.1875,242785.015625,277111.5625,248632.328125,245633.796875,15406.0,1.0,1
231450.453125,272346.71875,406752.6875,353600.40625,241863.234375,276724.8125,248385.03125,245333.65625,15407.0,1.0,1
231721.078125,272986.875,407689.5,353918.34375,242558.546875,276868.84375,248720.125,245757.359375,15408.0,1.0,1
232267.265625,273896.40625,408737.0625,354197.28125,243891.15625,277326.0625,249154.28125,246294.234375,15409.0,1.0,1
232350.421875,273842.0625,408467.25,354055.9375,244048.515625,277473.75,249090.890625,246211.265625,15410.0,1.0,1
231849.65625,272890.75,407243.09375,353684.0,242806.921875,277112.75,248630.0,245624.21875,15411.0,1.0,1
231454.296875,272349.75,406741.25,353587.90625,241868.78125,276735.1875,248395.3125,245336.328125,15412.0,1.0,1
231720.71875,272984.0,407667.5,353903.5,242547.375,276872.40625,248720.921875,245752.875,15413.0,1.0,1
232264.765625,273893.46875,408714.53125,354183.6875,243877.578125,277318.1875,249149.09375,246294.875,15414.0,1.0,1
232353.015625,273849.84375,408456.5,354046.46875,244045.03125,277477.34375,249102.0625,246220.03125,15415.0,1.0,1
231852.6875,272898.90625,407236.5625,353677.3125,242807.640625,277119.4375,248639.390625,245633.25,15416.0,1.0,1
231457.421875,272353.0625,406728.71875,353580.84375,241866.453125,276741.875,248400.578125,245339.375,15417.0,1.0,1
231717.5,272974.96875,407643.625,353889.90625,242533.421875,276864.53125,248712.25,245748.953125,15418.0,1.0,1
232264.5,273884.25,408693.71875,354169.9375,243867.640625,277307.28125,249140.953125,246288.609375,15419.0,1.0,1
232354.078125,273846.78125,408440.78125,354033.5,244048.515625,277473.125,249102.25,246220.125,15420.0,1.0,1
231860.734375,272907.03125,407222.6875,353661.5625,242823.1875,277119.0,248638.21875,245636.46875,15421.0,1.0,1
231456.265625,272350.9375,406702.34375,353561.34375,241874.140625,276736.25,248395.3125,245341.609375,15422.0,1.0,1
231711.25,272965.25,407610.28125,353871.5,242531.109375,276863.5625,248711.265625,245748.859375,15423.0,1.0,1
232257.25,273882.03125,408671.90625,354156.96875,243872.203125,277317.75,249150.609375,246292.625,15424.0,1.0,1
232360.15625,273862.96875,408441.9375,354033.84375,244074.890625,277494.15625,249124.515625,246245.6875,15425.0,1.0,1
231875.40625,272924.125,407224.75,353662.5625,242854.125,277138.65625,248658.15625,245659.8125,15426.0,1.0,1
231464.484375,272352.34375,406689.125,353551.3125,241887.734375,276744.84375,248400.3125,245341.15625,15427.0,1.0,1
231713.21875,272955.65625,407588.0,353855.3125,242527.96875,276860.25,248707.515625,245736.4375,15428.0,1.0,1
232261.09375,273873.25,408654.0,354142.9375,243867.28125,277309.25,249138.71875,246284.578125,15429.0,1.0,1
232359.890625,273855.28125,408424.25,354014.375,244067.109375,277475.375,249101.4375,246223.4375,15430.0,1.0,1
231874.140625,272921.875,407209.46875,353646.1875,242849.84375,277131.875,248652.078125,245643.09375,15431.0,1.0,1
231459.828125,272347.625,406666.21875,353536.5625,241876.828125,276741.96875,248395.84375,245335.53125,15432.0,1.0,1
231704.453125,272946.71875,407559.59375,353842.25,242508.21875,276858.65625,248702.328125,245737.421875,15433.0,1.0,1
232251.0,273866.8125,408630.21875,354130.875,243851.109375,277305.6875,249141.046875,246288.78125,15434.0,1.0,1
232355.6875,273857.875,408412.25,354002.375,244069.265625,277473.59375,249109.578125,246235.5,15435.0,1.0,1
231869.671875,272923.40625,407195.6875,353630.4375,242858.234375,277129.28125,248656.828125,245658.734375,15436.0,1.0,1
231457.25,272344.5,406644.0625,353521.71875,241878.15625,276741.625,248402.90625,245346.796875,15437.0,1.0,1
231694.96875,272936.375,407529.8125,353827.5,242496.59375,276852.28125,248705.015625,245734.90625,15438.0,1.0,1
232245.640625,273868.15625,408611.0,354121.46875,243843.59375,277303.4375,249153.03125,246282.796875,15439.0,1.0,1
232361.5,273877.09375,408411.375,354003.71875,244082.046875,277484.9375,249129.25,246241.21875,15440.0,1.0,1
231875.40625,272943.0625,407194.625,353630.8125,242873.34375,277143.5,248661.296875,245653.28125,15441.0,1.0,1
231459.5625,272359.40625,406634.03125,353520.125,241888.0,276753.15625,248399.78125,245334.1875,15442.0,1.0,1
231694.796875,272941.46875,407508.8125,353822.21875,242500.34375,276852.65625,248697.859375,245724.546875,15443.0,1.0,1
232236.421875,273859.3125,408582.65625,354109.21875,243845.109375,277288.875,249127.640625,246272.25,15444.0,1.0,1
232355.25,273874.40625,408390.1875,353990.84375,244095.453125,277471.15625,249107.609375,246234.703125,15445.0,1.0,1
231876.828125,272951.03125,407178.96875,353623.03125,242903.484375,277143.40625,248666.125,245662.40625,15446.0,1.0,1
231453.484375,272355.5625,406603.46875,353505.0,241906.0625,276749.125,248405.234375,245344.203125,15447.0,1.0,1
231680.140625,272928.40625,407468.65625,353799.15625,242498.015625,276845.78125,248694.546875,245728.390625,15448.0,1.0,1
232225.875,273858.78125,408554.40625,354090.90625,243841.984375,277294.5,249140.6875,246272.6875,15449.0,1.0,1
232353.1875,273885.0625,408378.09375,353977.4375,244102.15625,277475.5625,249125.3125,246241.046875,15450.0,1.0,1
231879.25,272962.46875,407170.125,353604.25,242908.578125,277138.84375,248670.671875,245661.859375,15451.0,1.0,1
231460.109375,272365.9375,406586.84375,353484.0,241898.453125,276745.28125,248405.765625,245333.296875,15452.0,1.0,1
231686.296875,272937.0,407447.1875,353785.5625,242483.359375,276847.1875,248707.421875,245725.703125,15453.0,1.0,1
232237.3125,273872.90625,408539.125,354086.4375,243832.234375,277296.75,249160.0,246295.3125,15454.0,1.0,1
232364.015625,273903.65625,408371.3125,353969.3125,244099.03125,277485.21875,249142.296875,246247.125,15455.0,1.0,1
231888.984375,272985.34375,407168.15625,353599.78125,242913.765625,277154.3125,248691.515625,245672.328125,15456.0,1.0,1
231463.765625,272382.75,406574.6875,353477.375,241896.578125,276766.28125,248427.671875,245345.984375,15457.0,1.0,1
231687.109375,272944.3125,407426.1875,353770.71875,242464.21875,276854.875,248706.171875,245708.359375,15458.0,1.0,1
232242.140625,273881.125,408527.59375,354073.09375,243814.8125,277299.25,249149.625,246269.203125,15459.0,1.0,1
232374.46875,273921.53125,408374.96875,353965.71875,244097.515625,277494.15625,249143.546875,246252.671875,15460.0,1.0,1
231901.328125,273000.5625,407169.9375,353590.65625,242914.03125,277161.90625,248689.09375,245670.8125,15461.0,1.0,1
231475.84375,272390.25,406565.375,353464.15625,241892.28125,276764.15625,248410.953125,245333.921875,15462.0,1.0,1
231690.765625,272941.09375,407410.28125,353761.625,242455.28125,276856.6875,248696.78125,245713.09375,15463.0,1.0,1
232236.0625,273872.28125,408513.90625,354066.5,243808.015625,277301.9375,249144.09375,246273.59375,15464.0,1.0,1
232380.640625,273926.71875,408377.84375,353969.3125,244113.25,277507.84375,249159.28125,246271.796875,15465.0,1.0,1
231921.796875,273018.34375,407180.59375,353600.15625,242943.53125,277187.21875,248713.5,245703.984375,15466.0,1.0,1
231480.484375,272385.78125,406560.5625,353458.34375,241903.015625,276773.0,248416.140625,245343.390625,15467.0,1.0,1
231680.578125,272917.125,407391.9375,353741.0625,242446.703125,276847.75,248677.75,245695.03125,15468.0,1.0,1
232228.5625,273856.53125,408504.4375,354049.5,243801.9375,277304.25,249140.515625,246265.359375,15469.0,1.0,1
232380.28125,273929.21875,408380.15625,353957.59375,244121.828125,277520.53125,249158.125,246266.34375,15470.0,1.0,1
231920.109375,273019.78125,407179.15625,353583.78125,242955.96875,277184.8125,248700.546875,245691.109375,15471.0,1.0,1
231478.15625,272379.4375,406551.96875,353448.875,241911.0625,276777.71875,248411.9375,245341.078125,15472.0,1.0,1
231682.640625,272910.4375,407373.875,353736.125,242444.109375,276848.8125,248684.984375,245700.671875,15473.0,1.0,1
232240.8125,273861.71875,408489.875,354043.0625,243802.46875,277301.21875,249145.515625,246271.796875,15474.0,1.0,1
232391.1875,273933.6875,408372.8125,353946.0625,244126.21875,277512.65625,249156.34375,246268.140625,15475.0,1.0,1
231922.875,273021.84375,407176.03125,353577.875,242963.390625,277191.875,248714.671875,245703.265625,15476.0,1.0,1
231485.765625,272382.65625,406537.65625,353439.46875,241910.265625,276785.96875,248427.671875,245343.75,15477.0,1.0,1
231691.9375,272913.125,407353.78125,353726.3125,242433.734375,276858.1875,248690.4375,245689.765625,15478.0,1.0,1
232237.40625,273854.84375,408468.125,354032.6875,243786.90625,277300.75,249137.46875,246257.578125,15479.0,1.0,1
232391.28125,273935.9375,408356.03125,353934.53125,244118.078125,277502.46875,249139.53125,246258.296875,15480.0,1.0,1
231935.84375,273037.5625,407163.6875,353565.71875,242967.765625,277190.0625,248700.359375,245695.578125,15481.0,1.0,1
231491.75,272390.25,406513.4375,353422.84375,241906.421875,276781.9375,248411.75,245340.625,15482.0,1.0,1
231683.4375,272907.40625,407318.375,353707.53125,242418.359375,276853.71875,248689.8125,245705.40625,15483.0,1.0,1
232229.359375,273851.71875,408435.6875,354013.46875,243774.9375,277294.78125,249143.109375,246268.765625,15484.0,1.0,1
232390.46875,273943.8125,408334.90625,353920.125,244126.5625,277506.84375,249151.78125,246262.0625,15485.0,1.0,1
231933.953125,273045.15625,407141.25,353551.3125,242980.109375,277194.8125,248713.328125,245697.546875,15486.0,1.0,1
231487.640625,272392.59375,406484.09375,353406.40625,241912.140625,276780.875,248422.75,245340.0,15487.0,1.0,1
231674.328125,272903.5625,407286.25,353690.34375,242415.5,276851.03125,248692.9375,245697.8125,15488.0,1.0,1
232218.625,273847.0625,408409.5625,353999.875,243773.5,277293.34375,249148.296875,246269.828125,15489.0,1.0,1
232385.203125,273944.59375,408319.8125,353907.53125,244133.8125,277500.75,249156.34375,246276.265625,15490.0,1.0,1
231928.234375,273046.40625,407127.84375,353533.09375,242993.96875,277191.3125,248713.765625,245700.046875,15491.0,1.0,1
231473.15625,272380.96875,406459.53125,353386.8125,241920.546875,276781.03125,248418.375,245338.65625,15492.0,1.0,1
231654.03125,272882.34375,407249.34375,353669.96875,242409.515625,276845.21875,248683.640625,245685.734375,15493.0,1.0,1
232209.0625,273835.625,408376.3125,353980.65625,243768.9375,277284.9375,249130.671875,246252.578125,15494.0,1.0,1
232382.25,273945.5,408307.65625,353902.34375,244150.34375,277514.53125,249165.90625,246285.5625,15495.0,1.0,1
231934.671875,273052.9375,407124.25,353537.1875,243019.890625,277210.46875,248730.671875,245728.390625,15496.0,1.0,1
231482.09375,272383.75,406445.9375,353379.9375,241932.34375,276790.34375,248417.75,245343.75,15497.0,1.0,1
231661.625,272875.75,407228.34375,353656.5625,242405.390625,276846.75,248676.40625,245684.484375,15498.0,1.0,1
232204.0625,273818.71875,408356.1875,353967.0625,243754.640625,277276.09375,249132.375,246259.015625,15499.0,1.0,1
232385.640625,273942.09375,408300.59375,353890.8125,244144.09375,277506.5625,249168.234375,246287.453125,15500.0,1.0,1
231940.671875,273051.78125,407117.28125,353520.5625,243016.9375,277192.5,248713.328125,245724.0,15501.0,1.0,1
231477.265625,272372.125,406429.65625,353363.40625,241918.84375,276774.0625,248404.6875,245337.140625,15502.0,1.0,1
231655.09375,272864.125,407206.15625,353644.03125,242382.859375,276834.6875,248671.75,245678.140625,15503.0,1.0,1
232212.015625,273820.6875,408347.875,353964.5625,243742.03125,277280.1875,249140.6875,246271.4375,15504.0,1.0,1
232394.578125,273947.5625,408298.625,353887.40625,244143.28125,277508.90625,249169.390625,246289.5,15505.0,1.0,1
231952.828125,273063.3125,407116.75,353517.4375,243024.71875,277203.5625,248722.71875,245718.453125,15506.0,1.0,1
231486.03125,272372.1875,406413.90625,353355.53125,241915.53125,276772.625,248408.453125,245341.609375,15507.0,1.0,1
231645.625,272844.09375,407173.25,353622.84375,242362.125,276818.6875,248654.671875,245661.328125,15508.0,1.0,1
232201.46875,273810.03125,408322.5,353946.25,243729.515625,277275.0,249129.34375,246243.1875,15509.0,1.0,1
232398.96875,273954.4375,408287.8125,353876.84375,244149.8125,277504.15625,249171.71875,246287.71875,15510.0,1.0,1
231954.875,273065.5625,407105.21875,353505.46875,243036.4375,277198.40625,248732.1875,245729.546875,15511.0,1.0,1
231489.875,272373.625,406400.40625,353345.59375,241927.96875,276779.78125,248414.625,245340.453125,15512.0,1.0,1
231651.96875,272844.625,407150.28125,353613.03125,242366.328125,276823.96875,248656.375,245663.03125,15513.0,1.0,1
232207.28125,273804.6875,408293.4375,353930.6875,243725.484375,277261.6875,249118.875,246244.078125,15514.0,1.0,1
232404.421875,273954.09375,408267.5,353862.03125,244152.859375,277501.125,249165.90625,246290.390625,15515.0,1.0,1
231958.375,273070.1875,407092.15625,353492.9375,243046.53125,277206.625,248730.84375,245731.15625,15516.0,1.0,1
231487.46875,272377.3125,406379.15625,353331.5625,241930.46875,276791.59375,248423.46875,245341.515625,15517.0,1.0,1
231652.234375,272847.125,407124.34375,353597.90625,242356.84375,276825.84375,248661.65625,245661.953125,15518.0,1.0,1
232202.265625,273807.625,408271.8125,353916.1875,243713.953125,277258.5625,249117.625,246243.015625,15519.0,1.0,1
232402.09375,273969.8125,408262.5,353854.3125,244155.53125,277507.90625,249178.421875,246297.375,15520.0,1.0,1
231957.203125,273090.3125,407085.53125,353484.1875,243055.921875,277221.28125,248751.59375,245739.03125,15521.0,1.0,1
231491.03125,272393.03125,406360.1875,353318.4375,241931.984375,276798.03125,248424.984375,245346.96875,15522.0,1.0,1
231647.328125,272849.1875,407096.0,353583.0625,242345.9375,276821.375,248657.453125,245667.234375,15523.0,1.0,1
232199.3125,273810.59375,408242.46875,353900.625,243700.8125,277253.1875,249113.25,246235.953125,15524.0,1.0,1
232395.03125,273968.375,408239.6875,353841.53125,244152.234375,277501.3125,249177.171875,246296.03125,15525.0,1.0,1
231962.921875,273098.1875,407075.625,353477.75,243066.109375,277216.09375,248748.46875,245753.328125,15526.0,1.0,1
231485.578125,272382.9375,406334.96875,353301.15625,241929.75,276783.09375,248410.421875,245341.078125,15527.0,1.0,1
231635.875,272831.5625,407062.65625,353563.84375,242330.921875,276820.46875,248647.078125,245648.90625,15528.0,1.0,1
232192.703125,273800.65625,408222.71875,353889.375,243692.859375,277254.28125,249104.84375,246231.484375,15529.0,1.0,1
232399.0625,273970.09375,408230.3125,353827.78125,244156.703125,277496.28125,249158.84375,246284.765625,15530.0,1.0,1
231972.5,273100.6875,407065.59375,353460.125,243078.1875,277207.5,248728.703125,245736.34375,15531.0,1.0,1
231492.296875,272380.53125,406318.78125,353284.8125,241935.65625,276782.5625,248406.921875,245335.359375,15532.0,1.0,1
231635.875,272821.03125,407036.71875,353548.375,242324.75,276815.09375,248644.75,245645.0625,15533.0,1.0,1
232191.984375,273790.8125,408202.0625,353878.90625,243686.59375,277254.28125,249114.578125,246238.8125,15534.0,1.0,1
232402.359375,273968.5625,408222.34375,353823.03125,244162.0625,277504.6875,249176.09375,246310.953125,15535.0,1.0,1
231967.484375,273095.3125,407052.375,353450.5625,243081.84375,277216.71875,248745.609375,245757.625,15536.0,1.0,1
231487.015625,272371.75,406295.375,353270.0625,241933.5,276785.59375,248412.65625,245343.21875,15537.0,1.0,1
231627.5625,272807.0,407006.34375,353530.21875,242313.03125,276814.03125,248646.0,245643.09375,15538.0,1.0,1
232177.859375,273775.0,408168.09375,353855.75,243669.609375,277242.5625,249107.703125,246228.078125,15539.0,1.0,1
232391.1875,273965.4375,408201.78125,353804.34375,244157.140625,277495.65625,249173.765625,246300.5,15540.0,1.0,1
231963.375,273102.03125,407039.3125,353434.375,243088.28125,277214.75,248745.953125,245745.1875,15541.0,1.0,1
231479.953125,272368.28125,406272.3125,353248.6875,241928.953125,276775.75,248403.796875,245324.625,15542.0,1.0,1
231614.78125,272792.5,406972.34375,353506.28125,242296.5,276794.90625,248626.875,245625.75,15543.0,1.0,1
232170.625,273768.1875,408145.5625,353837.96875,243658.875,277238.625,249103.765625,246214.40625,15544.0,1.0,1
232395.296875,273973.03125,408193.03125,353792.5625,244160.28125,277496.125,249173.953125,246295.140625,15545.0,1.0,1
231973.03125,273113.125,407035.03125,353422.59375,243101.421875,277208.6875,248740.234375,245752.25,15546.0,1.0,1
231480.125,272372.375,406262.71875,353241.8125,241939.859375,276780.6875,248411.40625,245342.421875,15547.0,1.0,1
231610.03125,272792.59375,406956.0,353500.28125,242294.53125,276803.375,248636.171875,245640.046875,15548.0,1.0,1
232162.3125,273767.5625,408124.53125,353827.78125,243650.921875,277234.6875,249099.390625,246222.890625,15549.0,1.0,1
232394.140625,273981.09375,408181.6875,353782.625,244166.984375,277498.71875,249175.109375,246303.546875,15550.0,1.0,1
231976.609375,273125.375,407030.28125,353418.03125,243120.203125,277218.5,248744.890625,245760.578125,15551.0,1.0,1
231479.765625,272375.78125,406245.3125,353227.125,241947.0,276780.875,248405.59375,245337.5,15552.0,1.0,1
231603.59375,272783.90625,406924.4375,353477.5625,242284.515625,276788.5625,248613.90625,245616.171875,15553.0,1.0,1
232154.4375,273755.59375,408096.90625,353810.34375,243640.109375,277222.875,249084.1875,246201.796875,15554.0,1.0,1
232390.109375,273979.125,408171.03125,353772.25,244163.671875,277496.46875,249175.65625,246298.625,15555.0,1.0,1
231980.71875,273134.03125,407028.5,353409.0,243122.625,277223.59375,248754.625,245766.296875,15556.0,1.0,1
231492.640625,272382.03125,406237.875,353220.875,241948.609375,276787.3125,248414.34375,245345.640625,15557.0,1.0,1
231616.46875,272781.59375,406902.34375,353467.03125,242274.859375,276795.34375,248626.328125,245621.453125,15558.0,1.0,1
232168.390625,273753.71875,408079.5625,353798.4375,243630.625,277233.96875,249103.140625,246211.09375,15559.0,1.0,1
232402.09375,273980.0,408161.8125,353761.0625,244167.875,277504.15625,249190.671875,246312.125,15560.0,1.0,1
231985.8125,273131.90625,407015.71875,353396.84375,243131.921875,277240.9375,248770.015625,245779.4375,15561.0,1.0,1
231491.3125,272377.03125,406212.84375,353202.1875,241950.3125,276803.65625,248422.125,245339.28125,15562.0,1.0,1
231608.15625,272768.1875,406871.875,353446.71875,242267.34375,276800.25,248625.171875,245610.90625,15563.0,1.0,1
232164.984375,273745.03125,408052.03125,353782.1875,243624.546875,277226.65625,249088.203125,246201.4375,15564.0,1.0,1
232405.9375,273982.0625,408146.375,353752.84375,244178.421875,277505.5,249185.3125,246314.09375,15565.0,1.0,1
231998.15625,273141.8125,407005.34375,353389.3125,243155.78125,277237.375,248766.515625,245782.03125,15566.0,1.0,1
231497.5625,272372.1875,406191.03125,353186.71875,241965.25,276788.71875,248402.09375,245330.4375,15567.0,1.0,1
231609.328125,272756.21875,406844.25,353432.9375,242271.46875,276793.90625,248619.890625,245613.140625,15568.0,1.0,1
232160.875,273737.4375,408028.6875,353772.625,243626.515625,277228.4375,249101.625,246213.59375,15569.0,1.0,1
232407.734375,273982.78125,408132.5,353739.96875,244185.484375,277498.96875,249183.609375,246304.171875,15570.0,1.0,1
232003.25,273148.6875,406996.84375,353375.65625,243167.234375,277236.125,248759.640625,245772.015625,15571.0,1.0,1
231504.71875,272385.25,406181.8125,353177.34375,241972.9375,276806.59375,248417.65625,245341.96875,15572.0,1.0,1
231598.421875,272747.8125,406817.0625,353414.1875,242256.171875,276791.6875,248611.484375,245601.34375,15573.0,1.0,1
232147.734375,273721.0,408002.5,353754.90625,243606.671875,277211.53125,249074.984375,246194.734375,15574.0,1.0,1
232398.421875,273977.875,408119.53125,353728.96875,244181.28125,277495.125,249184.40625,246314.53125,15575.0,1.0,1
231997.34375,273150.03125,406988.53125,353363.40625,243173.40625,277238.53125,248767.15625,245775.859375,15576.0,1.0,1
231498.1875,272379.96875,406161.4375,353160.71875,241973.109375,276799.1875,248410.5,245336.15625,15577.0,1.0,1
231595.203125,272738.9375,406787.09375,353394.59375,242247.40625,276785.5,248602.109375,245591.234375,15578.0,1.0,1
232141.5625,273712.21875,407975.59375,353733.90625,243600.59375,277214.5625,249079.625,246192.3125,15579.0,1.0,1
232400.84375,273983.21875,408102.5625,353710.90625,244183.34375,277501.46875,249187.0,246310.0625,15580.0,1.0,1
232004.5,273161.21875,406975.03125,353348.65625,243186.453125,277245.0625,248770.28125,245781.046875,15581.0,1.0,1
231495.953125,272378.5625,406138.71875,353145.15625,241981.25,276800.09375,248413.28125,245341.515625,15582.0,1.0,1
231587.59375,272732.15625,406758.75,353380.46875,242245.0,276785.15625,248601.484375,245589.984375,15583.0,1.0,1
232139.859375,273714.375,407950.46875,353721.90625,243593.609375,277212.875,249073.1875,246182.03125,15584.0,1.0,1
232401.640625,273993.15625,408094.40625,353708.0625,244193.984375,277507.03125,249191.03125,246313.828125,15585.0,1.0,1
232007.28125,273177.03125,406972.4375,353349.625,243202.453125,277257.65625,248782.4375,245791.0625,15586.0,1.0,1
231500.609375,272392.59375,406126.65625,353140.40625,241988.046875,276811.34375,248425.796875,245344.03125,15587.0,1.0,1
231585.1875,272732.15625,406735.59375,353372.59375,242237.125,276783.90625,248604.875,245591.0625,15588.0,1.0,1
232132.09375,273705.71875,407926.40625,353711.09375,243578.421875,277204.46875,249062.8125,246177.65625,15589.0,1.0,1
232398.515625,273988.3125,408079.75,353698.75,244187.640625,277493.875,249181.28125,246311.59375,15590.0,1.0,1
232004.328125,273174.09375,406962.78125,353340.3125,243205.140625,277245.15625,248776.8125,245790.609375,15591.0,1.0,1
231497.296875,272387.40625,406110.28125,353128.4375,241986.078125,276803.84375,248411.84375,245335.625,15592.0,1.0,1
231580.09375,272723.5625,406711.28125,353359.71875,242225.328125,276785.34375,248601.296875,245586.9375,15593.0,1.0,1
232126.546875,273700.875,407907.03125,353704.75,243570.09375,277208.03125,249078.828125,246187.125,15594.0,1.0,1
232406.828125,274001.65625,408071.875,353693.9375,244194.25,277503.90625,249202.203125,246322.859375,15595.0,1.0,1
232027.5625,273196.625,406961.1875,353335.15625,243226.859375,277254.71875,248792.71875,245808.21875,15596.0,1.0,1
231508.46875,272388.28125,406092.3125,353115.8125,241997.34375,276796.5,248407.546875,245339.546875,15597.0,1.0,1
231585.625,272718.84375,406681.25,353344.8125,242223.90625,276776.84375,248594.859375,245579.34375,15598.0,1.0,1
232137.265625,273699.09375,407879.9375,353688.46875,243569.5625,277199.5625,249068.546875,246175.515625,15599.0,1.0,1
232404.953125,273991.8125,408050.4375,353675.78125,244197.296875,277490.03125,249185.21875,246321.15625,15600.0,1.0,1
232019.96875,273188.5,406943.375,353320.03125,243233.84375,277254.53125,248786.546875,245805.8125,15601.0,1.0,1
231504.265625,272382.75,406072.5625,353101.15625,241998.765625,276801.5,248403.984375,245337.765625,15602.0,1.0,1
231580.53125,272704.34375,406653.875,353324.21875,242208.25,276768.96875,248579.21875,245569.78125,15603.0,1.0,1
232125.203125,273682.1875,407853.28125,353669.875,243546.859375,277189.4375,249054.765625,246173.28125,15604.0,1.0,1
232396.734375,273986.4375,408032.53125,353661.65625,244185.9375,277486.5625,249176.71875,246316.140625,15605.0,1.0,1
232021.21875,273195.375,406931.6875,353304.75,243230.890625,277255.96875,248782.265625,245802.6875,15606.0,1.0,1
231510.265625,272392.21875,406059.96875,353089.09375,241996.890625,276814.84375,248417.390625,245341.15625,15607.0,1.0,1
231571.6875,272696.46875,406629.75,353310.28125,242196.890625,276776.125,248583.6875,245572.375,15608.0,1.0,1
232119.921875,273674.59375,407830.84375,353654.5,243537.90625,277187.84375,249050.296875,246165.765625,15609.0,1.0,1
232411.9375,273999.84375,408031.21875,353655.65625,244196.578125,277496.5625,249186.015625,246324.734375,15610.0,1.0,1
232042.234375,273213.34375,406940.15625,353300.90625,243254.765625,277266.78125,248789.40625,245814.21875,15611.0,1.0,1
231519.015625,272395.90625,406052.53125,353076.9375,242011.375,276807.59375,248411.484375,245351.359375,15612.0,1.0,1
231573.5625,272691.21875,406610.34375,353295.625,242197.171875,276769.40625,248580.828125,245580.953125,15613.0,1.0,1
232124.671875,273679.6875,407819.3125,353649.125,243541.125,277193.90625,249060.84375,246175.6875,15614.0,1.0,1
232417.296875,274011.75,408031.84375,353655.03125,244210.796875,277506.84375,249197.28125,246333.9375,15615.0,1.0,1
232045.453125,273222.71875,406933.375,353294.1875,243267.375,277272.78125,248796.921875,245822.984375,15616.0,1.0,1
231523.5,272400.1875,406034.21875,353066.03125,242017.375,276811.78125,248417.5625,245352.34375,15617.0,1.0,1
231578.125,272690.3125,406583.0,353282.65625,242191.890625,276764.0625,248581.71875,245571.390625,15618.0,1.0,1
232118.234375,273667.625,407791.3125,353632.78125,243528.890625,277183.5625,249053.078125,246163.171875,15619.0,1.0,1
232409.0625,274004.875,408012.875,353638.78125,244206.765625,277498.4375,249202.203125,246331.703125,15620.0,1.0,1
232054.5625,273234.4375,406934.90625,353291.40625,243286.5,277279.84375,248816.859375,245837.1875,15621.0,1.0,1
231535.03125,272409.9375,406031.0,353063.25,242032.390625,276821.375,248424.90625,245358.234375,15622.0,1.0,1
231580.4375,272689.59375,406564.40625,353276.40625,242192.609375,276770.84375,248582.703125,245567.71875,15623.0,1.0,1
232121.171875,273669.84375,407772.71875,353630.28125,243526.375,277187.65625,249065.140625,246177.46875,15624.0,1.0,1
232413.546875,274008.96875,407999.28125,353633.3125,244211.5,277492.09375,249189.234375,246330.1875,15625.0,1.0,1
232054.21875,273233.46875,406919.59375,353280.25,243296.78125,277271.4375,248802.46875,245826.109375,15626.0,1.0,1
231527.96875,272403.9375,406009.25,353050.125,242036.953125,276820.125,248420.78125,245359.046875,15627.0,1.0,1
231575.34375,272682.625,406535.34375,353261.1875,242182.328125,276770.75,248576.0,245564.59375,15628.0,1.0,1
232112.59375,273657.15625,407740.4375,353609.1875,243507.6875,277179.875,249050.84375,246157.0,15629.0,1.0,1
232409.609375,274007.375,407985.59375,353619.71875,244211.5,277489.84375,249192.8125,246333.3125,15630.0,1.0,1
232051.4375,273241.0625,406910.9375,353269.875,243307.875,277277.53125,248808.984375,245839.34375,15631.0,1.0,1
231533.421875,272415.375,405994.4375,353037.25,242045.359375,276830.5625,248427.671875,245362.625,15632.0,1.0,1
231572.390625,272676.46875,406508.6875,353242.4375,242175.703125,276770.84375,248575.375,245562.890625,15633.0,1.0,1
232104.015625,273647.40625,407716.75,353593.09375,243499.734375,277176.3125,249046.1875,246161.03125,15634.0,1.0,1
232412.015625,274015.6875,407973.8125,353607.5625,244211.6875,277490.125,249197.734375,246337.0625,15635.0,1.0,1
232066.375,273258.03125,406907.53125,353259.3125,243316.546875,277280.46875,248817.578125,245846.3125,15636.0,1.0,1
231537.53125,272414.3125,405983.4375,353025.96875,242047.671875,276829.59375,248434.109375,245364.40625,15637.0,1.0,1
231570.34375,272671.28125,406484.375,353229.1875,242163.015625,276766.8125,248581.8125,245564.5,15638.0,1.0,1
232103.03125,273647.59375,407692.8125,353583.59375,243486.421875,277175.875,249052.796875,246166.296875,15639.0,1.0,1
232411.9375,274020.25,407963.0625,353602.375,244213.46875,277497.71875,249209.171875,246349.5,15640.0,1.0,1
232067.4375,273271.0,406906.1875,353256.1875,243332.09375,277294.5,248830.265625,245858.109375,15641.0,1.0,1
231536.453125,272426.46875,405968.9375,353014.15625,242056.34375,276829.78125,248432.140625,245369.234375,15642.0,1.0,1
231563.71875,272669.46875,406458.90625,353214.875,242163.109375,276750.71875,248563.5625,245556.015625,15643.0,1.0,1
232099.28125,273643.125,407668.65625,353569.5625,243486.765625,277158.15625,249038.40625,246154.3125,15644.0,1.0,1
232410.859375,274024.1875,407945.8125,353593.09375,244222.140625,277490.75,249211.328125,246347.265625,15645.0,1.0,1
232073.078125,273285.59375,406896.90625,353249.5,243349.0,277290.3125,248835.453125,245866.875,15646.0,1.0,1
231542.09375,272435.21875,405955.34375,353003.875,242070.03125,276834.875,248435.265625,245372.984375,15647.0,1.0,1
231562.390625,272667.5,406433.9375,353203.1875,242163.28125,276771.65625,248582.078125,245566.828125,15648.0,1.0,1
232091.046875,273637.40625,407642.90625,353556.59375,243478.640625,277174.4375,249048.328125,246157.71875,15649.0,1.0,1
232410.328125,274028.1875,407933.9375,353584.125,244226.890625,277500.3125,249210.609375,246351.640625,15650.0,1.0,1
232077.1875,273296.03125,406890.90625,353244.9375,243367.6875,277308.1875,248843.40625,245876.078125,15651.0,1.0,1
231549.15625,272450.25,405945.4375,353001.65625,242086.484375,276856.40625,248450.65625,245386.3125,15652.0,1.0,1
231559.703125,272671.09375,406409.375,353192.53125,242158.359375,276775.21875,248576.890625,245559.5,15653.0,1.0,1
232091.140625,273644.90625,407619.65625,353545.875,243469.703125,277177.90625,249046.71875,246143.5,15654.0,1.0,1
232420.0625,274051.09375,407925.34375,353578.6875,244228.765625,277514.34375,249222.765625,246342.25,15655.0,1.0,1
232081.390625,273314.71875,406880.8125,353234.5625,243368.484375,277312.65625,248846.359375,245862.859375,15656.0,1.0,1
231545.671875,272460.0,405925.3125,352988.6875,242077.0,276860.78125,248450.828125,245369.5,15657.0,1.0,1
231558.71875,272680.375,406384.9375,353180.90625,242140.578125,276781.03125,248580.828125,245548.40625,15658.0,1.0,1
232090.59375,273651.09375,407600.09375,353538.53125,243451.28125,277173.09375,249045.65625,246149.578125,15659.0,1.0,1
232413.0,274050.8125,407915.40625,353570.71875,244219.828125,277503.71875,249214.28125,246355.390625,15660.0,1.0,1
232081.84375,273322.15625,406877.0625,353225.875,243370.09375,277310.78125,248843.0625,245878.765625,15661.0,1.0,1
231550.671875,272461.78125,405912.875,352972.59375,242075.03125,276850.34375,248436.078125,245369.5,15662.0,1.0,1
231561.140625,272669.375,406364.5625,353165.1875,242131.0,276770.125,248567.234375,245548.765625,15663.0,1.0,1
232093.28125,273640.15625,407581.3125,353523.625,243441.71875,277170.75,249040.109375,246147.96875,15664.0,1.0,1
232422.296875,274049.375,407907.65625,353557.75,244223.671875,277506.40625,249210.609375,246356.46875,15665.0,1.0,1
232090.78125,273324.5625,406878.03125,353216.6875,243388.96875,277320.0625,248846.8125,245880.90625,15666.0,1.0,1
231556.75,272459.1875,405908.875,352965.625,242096.9375,276868.65625,248446.265625,245381.671875,15667.0,1.0,1
231559.703125,272658.40625,406347.9375,353152.125,242139.40625,276782.8125,248562.859375,245545.375,15668.0,1.0,1
232086.484375,273626.125,407561.8125,353507.875,243440.28125,277167.8125,249026.25,246141.09375,15669.0,1.0,1
232421.578125,274047.5,407899.6875,353549.71875,244229.65625,277503.71875,249209.53125,246366.484375,15670.0,1.0,1
232101.78125,273333.78125,406875.875,353207.28125,243409.609375,277325.4375,248851.015625,245896.828125,15671.0,1.0,1
231555.671875,272454.28125,405891.59375,352949.09375,242108.5625,276866.6875,248442.953125,245383.8125,15672.0,1.0,1
231552.015625,272643.46875,406317.71875,353135.75,242134.3125,276781.9375,248572.328125,245548.859375,15673.0,1.0,1
232080.9375,273616.9375,407535.1875,353497.25,243432.765625,277178.4375,249049.671875,246147.96875,15674.0,1.0,1
232414.515625,274043.03125,407879.5625,353537.65625,244225.8125,277506.40625,249222.40625,246370.59375,15675.0,1.0,1
232099.984375,273334.84375,406861.125,353197.71875,243409.171875,277321.875,248860.40625,245908.265625,15676.0,1.0,1
231565.328125,272465.375,405876.40625,352939.0625,242107.046875,276871.78125,248458.6875,245389.53125,15677.0,1.0,1
231552.109375,272640.875,406289.375,353118.40625,242118.125,276772.0,248564.640625,245538.390625,15678.0,1.0,1
232072.09375,273607.8125,407501.1875,353474.34375,243408.1875,277155.125,249031.171875,246130.8125,15679.0,1.0,1
232416.046875,274047.40625,407859.90625,353520.5625,244220.453125,277498.96875,249214.28125,246351.375,15680.0,1.0,1
232103.5625,273344.15625,406850.75,353188.5,243422.3125,277325.15625,248854.140625,245896.5625,15681.0,1.0,1
231565.6875,272469.03125,405855.65625,352928.4375,242113.921875,276866.78125,248446.359375,245383.28125,15682.0,1.0,1
231548.53125,272638.09375,406255.65625,353104.65625,242111.328125,276769.59375,248556.59375,245530.609375,15683.0,1.0,1
232067.4375,273605.125,407474.8125,353463.71875,243402.1875,277162.4375,249030.546875,246127.765625,15684.0,1.0,1
232418.28125,274056.71875,407849.8125,353517.09375,244229.5625,277502.65625,249224.90625,246366.125,15685.0,1.0,1
232110.453125,273364.53125,406848.25,353181.375,243441.359375,277329.5625,248869.34375,245913.28125,15686.0,1.0,1
231568.375,272482.25,405849.3125,352916.28125,242129.21875,276872.6875,248454.046875,245393.109375,15687.0,1.0,1
231540.921875,272638.1875,406237.34375,353088.65625,242110.078125,276767.375,248558.921875,245533.75,15688.0,1.0,1
232063.59375,273606.65625,407453.375,353451.28125,243395.671875,277157.0,249034.46875,246131.078125,15689.0,1.0,1
232417.03125,274060.90625,407835.59375,353504.46875,244228.5,277499.6875,249219.8125,246369.796875,15690.0,1.0,1
232118.234375,273373.65625,406841.90625,353172.40625,243454.3125,277335.4375,248873.546875,245925.34375,15691.0,1.0,1
231569.890625,272479.65625,405830.625,352906.0,242137.53125,276881.1875,248463.34375,245408.578125,15692.0,1.0,1
231540.65625,272625.75,406207.03125,353072.8125,242110.890625,276769.6875,248554.890625,245531.328125,15693.0,1.0,1
232054.03125,273585.625,407417.6875,353427.9375,243389.234375,277138.65625,249013.203125,246112.125,15694.0,1.0,1
232409.34375,274048.9375,407813.5,353488.21875,244231.4375,277495.5,249223.484375,246360.765625,15695.0,1.0,1
232108.65625,273365.0625,406825.8125,353156.875,243466.203125,277335.28125,248877.65625,245911.046875,15696.0,1.0,1
231560.59375,272468.5,405810.4375,352886.59375,242145.484375,276874.46875,248463.34375,245394.8125,15697.0,1.0,1
231531.1875,272608.0625,406178.25,353052.34375,242102.21875,276760.28125,248551.5,245520.609375,15698.0,1.0,1
232050.71875,273574.0,407394.625,353416.9375,243381.453125,277141.4375,249021.59375,246113.1875,15699.0,1.0,1
232411.484375,274046.875,407800.25,353477.9375,244233.59375,277499.34375,249232.953125,246365.5,15700.0,1.0,1
232123.6875,273375.78125,406821.25,353150.25,243479.4375,277356.375,248902.6875,245923.921875,15701.0,1.0,1
231575.796875,272475.75,405800.6875,352877.8125,242156.671875,276892.8125,248482.125,245400.625,15702.0,1.0,1
231534.125,272601.875,406153.65625,353038.65625,242091.9375,276757.15625,248555.34375,245525.078125,15703.0,1.0,1
232045.09375,273559.09375,407367.09375,353398.34375,243360.34375,277128.03125,249003.90625,246104.609375,15704.0,1.0,1
232410.59375,274039.90625,407786.0625,353466.5625,244227.15625,277492.09375,249219.640625,246354.859375,15705.0,1.0,1
232129.578125,273375.78125,406815.34375,353139.78125,243483.203125,277347.25,248889.28125,245918.015625,15706.0,1.0,1
231585.90625,272476.09375,405788.78125,352864.875,242155.6875,276881.875,248465.578125,245393.46875,15707.0,1.0,1
231540.125,272593.03125,406129.6875,353021.9375,242084.25,276755.125,248546.40625,245504.953125,15708.0,1.0,1
232044.5625,273548.53125,407341.875,353383.15625,243349.984375,277132.84375,249018.203125,246094.15625,15709.0,1.0,1
232410.671875,274037.6875,407772.8125,353455.125,244227.234375,277487.34375,249227.140625,246359.515625,15710.0,1.0,1
232129.9375,273378.46875,406806.15625,353130.03125,243493.65625,277338.59375,248894.375,245927.40625,15711.0,1.0,1
231584.203125,272476.0,405772.96875,352853.875,242165.15625,276883.6875,248469.421875,245392.484375,15712.0,1.0,1
231531.453125,272584.28125,406105.5625,353010.9375,242082.28125,276759.21875,248543.71875,245504.875,15713.0,1.0,1
232036.953125,273541.46875,407320.875,353375.375,243345.0625,277134.46875,249015.25,246104.609375,15714.0,1.0,1
232416.40625,274047.40625,407762.8125,353449.65625,244234.296875,277502.03125,249236.984375,246365.046875,15715.0,1.0,1
232138.609375,273393.0625,406803.8125,353127.1875,243511.453125,277360.65625,248906.265625,245933.75,15716.0,1.0,1
231594.75,272487.34375,405764.5625,352851.4375,242180.890625,276895.5625,248476.390625,245402.578125,15717.0,1.0,1
231541.203125,272589.625,406083.75,353001.28125,242084.0625,276753.3125,248536.296875,245500.046875,15718.0,1.0,1
232044.734375,273541.65625,407297.8125,353362.40625,243339.875,277122.40625,249002.015625,246090.21875,15719.0,1.0,1
232422.921875,274052.59375,407752.4375,353442.59375,244237.4375,277492.8125,249233.859375,246372.109375,15720.0,1.0,1
232154.078125,273417.28125,406803.125,353123.15625,243526.828125,277354.59375,248906.796875,245950.296875,15721.0,1.0,1
231599.125,272504.625,405755.09375,352839.90625,242187.25,276893.25,248473.890625,245406.078125,15722.0,1.0,1
231532.703125,272592.40625,406060.6875,352987.625,242073.78125,276752.53125,248537.734375,245495.84375,15723.0,1.0,1
232032.84375,273542.0,407273.46875,353351.25,243323.34375,277120.59375,249012.390625,246091.734375,15724.0,1.0,1
232417.109375,274063.25,407735.71875,353433.5,244227.0625,277491.65625,249246.8125,246372.03125,15725.0,1.0,1
232153.71875,273430.25,406794.0,353111.90625,243526.640625,277357.09375,248910.296875,245936.703125,15726.0,1.0,1
231598.421875,272507.90625,405738.71875,352826.25,242185.640625,276888.59375,248466.03125,245395.078125,15727.0,1.0,1
231531.359375,272585.15625,406035.1875,352974.28125,242062.78125,276746.875,248536.5625,245496.1875,15728.0,1.0,1
232029.359375,273529.21875,407243.0,353334.6875,243305.28125,277110.3125,248998.265625,246079.03125,15729.0,1.0,1
232423.734375,274060.84375,407725.15625,353424.0,244227.0625,277496.84375,249241.359375,246363.703125,15730.0,1.0,1
232163.921875,273430.96875,406787.375,353102.6875,243536.03125,277362.28125,248911.625,245943.765625,15731.0,1.0,1
231612.90625,272507.21875,405725.40625,352817.03125,242196.71875,276894.6875,248467.71875,245401.15625,15732.0,1.0,1
231535.65625,272574.34375,406013.46875,352963.21875,242065.375,276751.4375,248528.078125,245496.46875,15733.0,1.0,1
232039.375,273523.9375,407228.15625,353323.875,243311.09375,277114.34375,248986.640625,246076.53125,15734.0,1.0,1
232430.890625,274055.28125,407707.71875,353405.5,244235.46875,277486.46875,249219.1875,246356.640625,15735.0,1.0,1
232167.40625,273423.90625,406775.9375,353087.3125,243554.8125,277361.5625,248903.9375,245945.734375,15736.0,1.0,1
231610.671875,272498.09375,405712.4375,352802.8125,242212.359375,276911.84375,248478.90625,245402.765625,15737.0,1.0,1
231531.09375,272558.875,405983.78125,352942.90625,242063.234375,276759.59375,248528.25,245485.203125,15738.0,1.0,1
232032.9375,273510.09375,407195.53125,353310.5625,243300.453125,277113.625,248994.515625,246079.671875,15739.0,1.0,1
232421.9375,274045.1875,407688.96875,353400.125,244233.140625,277486.46875,249225.09375,246365.953125,15740.0,1.0,1
232164.625,273429.625,406768.59375,353084.625,243565.546875,277369.34375,248918.6875,245958.25,15741.0,1.0,1
231609.765625,272508.8125,405701.875,352796.03125,242219.703125,276916.65625,248489.890625,245421.359375,15742.0,1.0,1
231519.5625,272557.53125,405960.53125,352924.75,242050.09375,276750.09375,248514.03125,245475.625,15743.0,1.0,1
232017.46875,273503.90625,407171.28125,353289.625,243280.875,277103.4375,248973.328125,246056.6875,15744.0,1.0,1
232417.390625,274055.90625,407676.53125,353384.40625,244228.21875,277490.03125,249228.578125,246363.4375,15745.0,1.0,1
232167.578125,273449.09375,406761.96875,353068.53125,243572.25,277373.0,248913.515625,245957.171875,15746.0,1.0,1
231611.921875,272522.125,405687.40625,352777.875,242226.84375,276916.75,248479.4375,245411.96875,15747.0,1.0,1
231519.734375,272563.0,405938.8125,352910.1875,242050.453125,276758.0625,248523.0625,245477.859375,15748.0,1.0,1
232018.359375,273508.125,407148.84375,353276.40625,243278.640625,277111.75,248985.84375,246060.359375,15749.0,1.0,1
232419.4375,274062.625,407666.59375,353375.71875,244233.765625,277494.3125,249238.328125,246366.65625,15750.0,1.0,1
232170.796875,273455.09375,406759.46875,353061.09375,243587.53125,277375.78125,248928.53125,245971.03125,15751.0,1.0,1
231608.609375,272519.28125,405676.59375,352768.03125,242236.953125,276918.8125,248490.4375,245424.765625,15752.0,1.0,1
231516.875,272555.5,405913.25,352897.21875,242045.625,276755.1875,248531.203125,245481.703125,15753.0,1.0,1
232010.5,273496.6875,407121.40625,353260.84375,243265.484375,277101.90625,248980.5625,246050.78125,15754.0,1.0,1
232412.28125,274061.28125,407648.625,353360.96875,244229.65625,277484.40625,249232.0625,246353.15625,15755.0,1.0,1
232175.453125,273470.9375,406755.71875,353053.34375,243601.578125,277376.84375,248930.859375,245962.265625,15756.0,1.0,1
231618.890625,272535.0,405671.5,352761.40625,242254.390625,276927.125,248496.15625,245418.234375,15757.0,1.0,1
231520.09375,272555.03125,405893.84375,352884.96875,242049.28125,276760.03125,248524.3125,245464.28125,15758.0,1.0,1
232005.125,273483.53125,407091.96875,353249.75,243259.234375,277105.0625,248982.796875,246047.75,15759.0,1.0,1
232410.140625,274053.59375,407631.46875,353355.25,244231.53125,277484.21875,249238.40625,246363.984375,15760.0,1.0,1
232177.953125,273471.28125,406746.5,353049.3125,243612.75,277380.78125,248934.515625,245971.484375,15761.0,1.0,1
231627.390625,272539.46875,405653.59375,352752.9375,242261.453125,276930.09375,248491.78125,245419.484375,15762.0,1.0,1
231518.84375,272546.8125,405861.84375,352872.0,242042.9375,276751.96875,248515.375,245471.25,15763.0,1.0,1
232004.765625,273472.09375,407059.875,353232.3125,243248.5,277091.8125,248968.40625,246047.828125,15764.0,1.0,1
232413.1875,274046.96875,407608.125,353341.3125,244231.71875,277484.40625,249238.234375,246371.21875,15765.0,1.0,1
232188.6875,273476.5625,406731.6875,353038.59375,243625.4375,277389.53125,248944.265625,245984.796875,15766.0,1.0,1
231626.9375,272531.875,405634.375,352736.375,242266.640625,276931.96875,248496.0625,245423.328125,15767.0,1.0,1
231515.171875,272532.40625,405836.25,352854.59375,242034.625,276752.25,248519.3125,245467.140625,15768.0,1.0,1
231995.03125,273459.84375,407038.0625,353219.1875,243235.265625,277100.40625,248981.8125,246051.234375,15769.0,1.0,1
232412.828125,274052.59375,407602.75,353333.0,244231.53125,277491.8125,249255.3125,246382.046875,15770.0,1.0,1
232188.6875,273484.875,406728.71875,353025.0625,243632.15625,277385.53125,248939.078125,245984.625,15771.0,1.0,1
231632.03125,272541.71875,405626.15625,352724.3125,242274.140625,276931.5,248492.484375,245429.765625,15772.0,1.0,1
231511.421875,272529.03125,405817.03125,352839.65625,242028.1875,276747.96875,248513.6875,245471.875,15773.0,1.0,1
231983.3125,273447.84375,407015.71875,353200.0625,243220.421875,277085.75,248963.84375,246035.765625,15774.0,1.0,1
232406.125,274047.5,407587.9375,353315.65625,244222.59375,277483.59375,249237.703125,246364.78125,15775.0,1.0,1
232187.703125,273489.96875,406726.125,353014.625,243639.65625,277397.59375,248953.828125,245992.140625,15776.0,1.0,1
231624.609375,272541.90625,405614.8125,352710.625,242280.40625,276949.21875,248515.921875,245434.328125,15777.0,1.0,1
231504.71875,272524.8125,405791.125,352820.96875,242021.03125,276750.8125,248514.390625,245458.28125,15778.0,1.0,1
231981.25,273445.09375,406987.28125,353183.40625,243208.453125,277080.46875,248961.96875,246029.328125,15779.0,1.0,1
232403.171875,274046.71875,407570.3125,353306.25,244219.28125,277480.75,249236.796875,246367.28125,15780.0,1.0,1
232183.765625,273490.3125,406715.75,353009.78125,243645.65625,277394.625,248950.96875,246000.546875,15781.0,1.0,1
231626.484375,272541.8125,405602.03125,352700.96875,242284.609375,276941.4375,248501.15625,245426.28125,15782.0,1.0,1
231504.0,272517.3125,405766.96875,352808.28125,242015.21875,276744.03125,248502.953125,245447.109375,15783.0,1.0,1
231977.953125,273439.71875,406963.9375,353175.09375,243198.25,277076.34375,248956.25,246027.984375,15784.0,1.0,1
232399.328125,274045.53125,407554.65625,353297.40625,244215.796875,277474.84375,249237.96875,246369.34375,15785.0,1.0,1
232188.859375,273498.09375,406705.21875,352998.6875,243654.859375,277390.71875,248948.640625,245988.921875,15786.0,1.0,1
231631.234375,272550.3125,405587.71875,352689.34375,242291.578125,276938.03125,248497.765625,245421.1875,15787.0,1.0,1
231503.015625,272518.28125,405743.5625,352795.03125,242012.453125,276739.71875,248501.4375,245451.578125,15788.0,1.0,1
231974.015625,273433.46875,406937.3125,353161.25,243190.921875,277078.84375,248963.125,246035.671875,15789.0,1.0,1
232395.203125,274042.78125,407537.9375,353281.6875,244211.234375,277474.125,249235.015625,246362.375,15790.0,1.0,1
232189.578125,273503.46875,406698.3125,352981.625,243658.96875,277385.53125,248943.109375,245990.171875,15791.0,1.0,1
231630.421875,272550.5625,405574.5625,352672.28125,242296.40625,276935.96875,248494.015625,245422.171875,15792.0,1.0,1
231499.078125,272510.0625,405719.84375,352775.71875,242005.5625,276742.5,248498.21875,245443.53125,15793.0,1.0,1
231969.8125,273423.375,406911.125,353140.6875,243175.8125,277066.25,248949.359375,246023.515625,15794.0,1.0,1
232399.234375,274041.78125,407518.09375,353267.28125,244208.5625,277467.5,249231.0,246363.703125,15795.0,1.0,1
232197.984375,273506.96875,406687.875,352973.65625,243671.390625,277393.125,248954.453125,245998.84375,15796.0,1.0,1
231636.859375,272550.21875,405560.625,352659.03125,242305.53125,276935.8125,248492.21875,245423.6875,15797.0,1.0,1
231493.453125,272497.28125,405690.96875,352757.65625,241996.71875,276735.8125,248490.96875,245434.6875,15798.0,1.0,1
231965.609375,273414.59375,406885.1875,353127.28125,243164.546875,277070.4375,248948.5625,246009.84375,15799.0,1.0,1
232400.75,274046.34375,407503.78125,353259.9375,244208.375,277472.6875,249235.015625,246365.953125,15800.0,1.0,1
232210.40625,273530.65625,406683.125,352973.59375,243688.203125,277407.59375,248969.75,246017.53125,15801.0,1.0,1
231645.359375,272565.21875,405544.4375,352652.78125,242319.5625,276951.34375,248505.640625,245435.046875,15802.0,1.0,1
231496.484375,272502.03125,405666.9375,352750.59375,242005.5625,276747.78125,248503.484375,245448.1875,15803.0,1.0,1
231946.75,273401.90625,406850.84375,353112.34375,243160.078125,277065.0,248945.96875,246015.46875,15804.0,1.0,1
232380.734375,274036.96875,407479.90625,353245.5625,244208.5625,277465.09375,249234.84375,246369.96875,15805.0,1.0,1
232193.953125,273522.78125,406666.40625,352953.8125,243690.265625,277391.15625,248953.203125,246009.03125,15806.0,1.0,1
231632.296875,272559.0625,405528.0625,352635.09375,242322.25,276940.4375,248497.671875,245429.859375,15807.0,1.0,1
231473.609375,272479.9375,405637.5,352726.375,241989.296875,276730.15625,248486.671875,245434.140625,15808.0,1.0,1
231931.90625,273384.28125,406821.53125,353089.90625,243137.8125,277048.09375,248931.03125,246001.171875,15809.0,1.0,1
232373.125,274027.03125,407459.34375,353228.75,244194.078125,277453.8125,249217.578125,246354.59375,15810.0,1.0,1
232193.859375,273527.0625,406663.71875,352946.9375,243697.421875,277400.8125,248960.171875,246007.25,15811.0,1.0,1
231633.46875,272565.78125,405521.71875,352627.3125,242332.53125,276948.3125,248504.375,245432.453125,15812.0,1.0,1
231468.5,272475.03125,405610.875,352713.75,241984.375,276728.125,248486.671875,245431.375,15813.0,1.0,1
231927.34375,273379.46875,406795.15625,353082.65625,243128.421875,277047.65625,248939.703125,246002.234375,15814.0,1.0,1
232378.484375,274035.53125,407445.84375,353225.96875,244196.21875,277455.4375,249237.078125,246358.4375,15815.0,1.0,1
232197.53125,273533.78125,406651.03125,352940.84375,243706.359375,277397.21875,248968.140625,246004.921875,15816.0,1.0,1
231631.859375,272566.84375,405508.125,352621.84375,242336.640625,276951.625,248516.453125,245433.078125,15817.0,1.0,1
231472.53125,272478.15625,405594.9375,352709.46875,241977.140625,276734.0,248493.921875,245425.828125,15818.0,1.0,1
231935.03125,273381.59375,406776.1875,353073.34375,243115.828125,277046.5,248935.0625,245991.234375,15819.0,1.0,1
232383.140625,274034.71875,407433.53125,353214.25,244190.234375,277451.6875,249231.703125,246360.046875,15820.0,1.0,1
232209.875,273538.25,406648.34375,352929.9375,243712.25,277388.1875,248962.0625,246018.78125,15821.0,1.0,1
231653.40625,272578.09375,405502.0625,352610.9375,242348.265625,276947.78125,248516.265625,245445.859375,15822.0,1.0,1
231479.234375,272476.09375,405572.25,352690.34375,241973.734375,276727.125,248490.53125,245431.546875,15823.0,1.0,1
231929.046875,273368.90625,406750.28125,353051.28125,243102.40625,277039.4375,248916.640625,245989.71875,15824.0,1.0,1
232377.59375,274027.5625,407419.3125,353197.90625,244187.984375,277445.96875,249222.859375,246362.09375,15825.0,1.0,1
232211.75,273547.71875,406645.40625,352920.28125,243726.828125,277395.34375,248970.546875,246034.0625,15826.0,1.0,1
231649.46875,272576.5,405490.71875,352597.8125,242358.8125,276947.6875,248508.578125,245458.015625,15827.0,1.0,1
231475.578125,272462.6875,405549.1875,352674.25,241974.90625,276723.90625,248472.734375,245421.8125,15828.0,1.0,1
231928.78125,273358.1875,406723.4375,353038.03125,243100.984375,277033.6875,248914.3125,245982.21875,15829.0,1.0,1
232381.265625,274029.625,407404.5625,353191.8125,244195.40625,277451.59375,249232.328125,246370.6875,15830.0,1.0,1
232211.390625,273550.40625,406636.90625,352912.96875,243740.6875,277403.21875,248968.3125,246028.609375,15831.0,1.0,1
231650.09375,272582.5,405480.4375,352591.09375,242373.203125,276962.4375,248512.25,245447.015625,15832.0,1.0,1
231479.234375,272469.21875,405530.125,352665.125,241977.046875,276736.25,248482.921875,245422.25,15833.0,1.0,1
231917.59375,273344.9375,406697.53125,353022.75,243084.53125,277032.375,248912.875,245979.0,15834.0,1.0,1
232372.59375,274022.65625,407388.53125,353180.46875,244182.0,277455.4375,249232.0625,246366.390625,15835.0,1.0,1
232212.828125,273559.96875,406631.8125,352905.28125,243740.0625,277406.53125,248977.078125,246033.625,15836.0,1.0,1
231652.5,272590.8125,405471.9375,352580.90625,242371.421875,276961.71875,248517.796875,245454.359375,15837.0,1.0,1
231469.046875,272459.8125,405509.125,352648.75,241960.59375,276731.6875,248478.28125,245415.109375,15838.0,1.0,1
231919.65625,273348.0,406680.71875,353009.78125,243069.875,277029.15625,248911.90625,245972.28125,15839.0,1.0,1
232378.3125,274033.46875,407378.96875,353166.6875,244176.375,277444.0,249227.234375,246359.59375,15840.0,1.0,1
232220.234375,273576.6875,406632.25,352896.6875,243749.71875,277406.4375,248984.5,246048.375,15841.0,1.0,1
231655.8125,272601.96875,405467.0,352568.46875,242380.359375,276964.5,248519.9375,245464.09375,15842.0,1.0,1
231467.609375,272462.0625,405489.53125,352634.375,241957.28125,276729.625,248477.203125,245415.28125,15843.0,1.0,1
231907.9375,273339.59375,406652.28125,352995.125,243054.9375,277020.65625,248902.25,245958.421875,15844.0,1.0,1
232370.4375,274031.15625,407360.5625,353157.65625,244170.015625,277439.96875,249226.25,246353.421875,15845.0,1.0,1
232218.8125,273583.21875,406624.90625,352894.625,243761.703125,277417.625,248995.40625,246045.25,15846.0,1.0,1
231660.203125,272606.8125,405451.375,352562.9375,242390.28125,276961.5625,248520.390625,245458.28125,15847.0,1.0,1
231465.640625,272453.84375,405459.15625,352621.9375,241950.9375,276719.78125,248468.078125,245405.359375,15848.0,1.0,1
231898.28125,273325.46875,406617.84375,352984.65625,243043.140625,277013.5,248895.0,245957.625,15849.0,1.0,1
232362.3125,274025.6875,407338.375,353152.03125,244168.765625,277444.78125,249226.703125,246356.296875,15850.0,1.0,1
232227.9375,273597.71875,406615.34375,352887.21875,243774.125,277428.15625,249003.984375,246051.046875,15851.0,1.0,1
231668.6875,272623.875,405446.28125,352557.9375,242411.03125,276987.84375,248544.703125,245469.015625,15852.0,1.0,1
231459.828125,272458.03125,405438.5,352610.5,241953.984375,276730.78125,248470.765625,245406.96875,15853.0,1.0,1
231888.984375,273330.03125,406594.6875,352972.15625,243034.375,277018.0625,248896.875,245958.875,15854.0,1.0,1
232363.734375,274044.1875,407327.75,353144.25,244168.859375,277449.1875,249230.28125,246366.296875,15855.0,1.0,1
232228.28125,273618.53125,406610.4375,352877.375,243782.53125,277431.75,249000.046875,246057.21875,15856.0,1.0,1
231668.6875,272642.84375,405435.09375,352542.8125,242415.5,276994.09375,248536.921875,245467.578125,15857.0,1.0,1
231461.796875,272473.5,405421.15625,352598.875,241951.296875,276746.25,248479.890625,245412.59375,15858.0,1.0,1
231890.515625,273340.9375,406574.6875,352957.65625,243024.984375,277030.03125,248906.0,245959.140625,15859.0,1.0,1
232359.0,274049.21875,407312.625,353129.5,244157.953125,277455.875,249236.984375,246368.8125,15860.0,1.0,1
232225.34375,273630.34375,406604.53125,352869.5,243778.234375,277440.875,249017.3125,246071.4375,15861.0,1.0,1
231672.0,272656.875,405424.90625,352533.15625,242414.78125,276996.5,248546.21875,245476.53125,15862.0,1.0,1
231465.109375,272477.875,405399.25,352583.59375,241940.03125,276743.84375,248484.265625,245420.46875,15863.0,1.0,1
231893.015625,273333.78125,406548.3125,352937.90625,243006.03125,277022.875,248900.90625,245955.203125,15864.0,1.0,1
232360.609375,274041.15625,407289.40625,353110.625,244150.703125,277448.375,249229.65625,246352.890625,15865.0,1.0,1
232236.78125,273632.5625,406594.6875,352853.25,243792.015625,277438.1875,249010.515625,246061.15625,15866.0,1.0,1
231680.84375,272655.875,405415.0625,352520.1875,242427.296875,277000.1875,248542.203125,245478.578125,15867.0,1.0,1
231466.453125,272464.28125,405378.21875,352567.84375,241943.875,276742.6875,248469.515625,245403.75,15868.0,1.0,1
231887.375,273314.65625,406522.1875,352926.375,243005.140625,277018.5,248896.4375,245951.90625,15869.0,1.0,1
232362.3125,274034.0,407274.65625,353103.3125,244155.359375,277448.375,249236.09375,246365.5,15870.0,1.0,1
232242.0625,273628.71875,406588.625,352847.15625,243807.03125,277442.21875,249014.453125,246066.875,15871.0,1.0,1
231685.59375,272648.75,405404.59375,352508.84375,242443.9375,277007.6875,248546.765625,245475.0,15872.0,1.0,1
231469.140625,272454.28125,405362.125,352554.8125,241949.515625,276758.5,248487.390625,245399.09375,15873.0,1.0,1
231887.015625,273302.65625,406504.40625,352912.15625,242999.421875,277022.15625,248897.328125,245941.4375,15874.0,1.0,1
232358.109375,274025.6875,407259.34375,353085.0625,244147.578125,277437.28125,249220.265625,246350.5625,15875.0,1.0,1
232240.265625,273633.8125,406581.1875,352830.34375,243809.703125,277439.15625,249008.09375,246059.09375,15876.0,1.0,1
231686.578125,272658.75,405398.09375,352496.5,242450.546875,277010.0,248546.40625,245473.84375,15877.0,1.0,1
231460.734375,272448.90625,405336.9375,352534.78125,241937.625,276740.90625,248469.6875,245391.046875,15878.0,1.0,1
231874.859375,273292.90625,406473.46875,352889.96875,242981.359375,277012.875,248886.953125,245926.328125,15879.0,1.0,1
232356.59375,274025.34375,407244.78125,353074.34375,244148.03125,277441.84375,249227.59375,246349.671875,15880.0,1.0,1
232243.75,273639.375,406574.75,352822.03125,243820.96875,277443.09375,249014.625,246071.0,15881.0,1.0,1
231690.953125,272660.8125,405384.59375,352484.0625,242458.765625,277013.3125,248549.53125,245483.953125,15882.0,1.0,1
231461.984375,272447.21875,405316.09375,352523.59375,241938.78125,276749.21875,248476.046875,245399.90625,15883.0,1.0,1
231878.53125,273294.15625,406454.25,352879.4375,242976.265625,277016.625,248893.921875,245935.09375,15884.0,1.0,1
232359.71875,274029.4375,407229.40625,353057.96875,244139.53125,277430.40625,249214.28125,246350.203125,15885.0,1.0,1
232250.90625,273649.03125,406570.28125,352810.9375,243830.09375,277439.34375,249011.765625,246081.90625,15886.0,1.0,1
231696.234375,272673.3125,405378.40625,352471.46875,242471.5625,277014.125,248548.90625,245492.703125,15887.0,1.0,1
231460.1875,272449.0,405294.0,352506.34375,241935.109375,276749.21875,248465.046875,245394.1875,15888.0,1.0,1
231877.71875,273294.4375,406430.5625,352865.75,242965.625,277011.71875,248880.78125,245934.828125,15889.0,1.0,1
232366.59375,274041.53125,407224.5625,353057.875,244147.046875,277442.03125,249229.828125,246376.578125,15890.0,1.0,1
232266.734375,273669.6875,406575.65625,352811.03125,243848.0625,277446.75,249025.0,246104.34375,15891.0,1.0,1
231713.296875,272685.125,405378.21875,352464.5,242489.609375,277015.28125,248542.109375,245485.109375,15892.0,1.0,1
231467.703125,272448.375,405285.4375,352497.40625,241947.0,276748.21875,248459.328125,245389.078125,15893.0,1.0,1
231876.46875,273286.9375,406413.375,352856.1875,242968.296875,277013.40625,248880.421875,245925.609375,15894.0,1.0,1
232360.4375,274031.3125,407203.125,353043.5,244145.171875,277439.6875,249222.3125,246349.859375,15895.0,1.0,1
232262.703125,273664.75,406559.21875,352798.6875,243858.890625,277453.03125,249026.96875,246083.234375,15896.0,1.0,1
231709.8125,272683.78125,405362.125,352458.3125,242503.296875,277026.625,248562.765625,245503.265625,15897.0,1.0,1
231463.59375,272439.09375,405253.34375,352482.5625,241942.53125,276745.375,248463.171875,245395.34375,15898.0,1.0,1
231858.765625,273264.21875,406371.09375,352832.40625,242949.265625,277006.0,248871.578125,245909.25,15899.0,1.0,1
232342.1875,274017.5625,407175.75,353029.09375,244135.59375,277454.28125,249241.71875,246352.09375,15900.0,1.0,1
232256.1875,273668.4375,406544.28125,352786.1875,243858.265625,277464.8125,249038.046875,246091.734375,15901.0,1.0,1
231703.015625,272681.5625,405337.8125,352437.9375,242499.0,277023.6875,248551.953125,245494.40625,15902.0,1.0,1
231448.65625,272425.5,405218.0,352465.375,241930.640625,276746.25,248459.140625,245390.515625,15903.0,1.0,1
231840.984375,273245.875,406333.53125,352817.28125,242929.3125,276992.125,248858.703125,245909.96875,15904.0,1.0,1
232341.75,274015.78125,407152.0625,353015.25,244127.015625,277433.625,249222.671875,246353.609375,15905.0,1.0,1
232263.515625,273676.125,406537.46875,352781.53125,243870.15625,277462.21875,249048.515625,246114.359375,15906.0,1.0,1
231704.625,272683.15625,405328.34375,352429.625,242506.421875,277029.15625,248570.8125,245514.96875,15907.0,1.0,1
231458.21875,272423.6875,405199.15625,352448.40625,241923.140625,276736.6875,248455.296875,245391.234375,15908.0,1.0,1
231851.34375,273242.5,406314.9375,352803.71875,242917.96875,276993.1875,248864.25,245913.09375,15909.0,1.0,1
232341.5625,274006.65625,407136.40625,353000.59375,244117.09375,277427.09375,249221.609375,246352.09375,15910.0,1.0,1
232267.8125,273673.53125,406527.5625,352765.4375,243872.828125,277447.375,249034.5625,246102.46875,15911.0,1.0,1
