FZ,C3,CZ,C4,PZ,PO7,OZ,PO8,Counter,Validation,Label
238291.328125,255287.6875,311483.5625,289292.75,228358.578125,246084.3125,248496.875,231986.796875,39948.0,1.0,3
238309.21875,255267.390625,311441.625,289299.53125,228265.234375,246088.34375,248353.734375,231993.328125,39949.0,1.0,3
238406.125,255360.921875,311522.09375,289387.34375,228413.734375,246154.5,248546.3125,232020.15625,39950.0,1.0,3
238471.3125,255448.0,311613.8125,289437.75,228598.546875,246190.078125,248806.3125,232031.0625,39951.0,1.0,3
238397.8125,255400.96875,311585.125,289375.34375,228570.203125,246151.375,248772.78125,232010.84375,39952.0,1.0,3
238320.390625,255300.5625,311484.4375,289295.34375,228377.96875,246094.59375,248501.515625,231991.71875,39953.0,1.0,3
238334.96875,255271.15625,311442.53125,289298.5625,228281.421875,246095.578125,248351.578125,231996.28125,39954.0,1.0,3
238415.703125,255345.53125,311507.25,289377.15625,228415.96875,246150.203125,248527.8125,232014.78125,39955.0,1.0,3
238481.234375,255431.359375,311599.5,289430.78125,228605.0625,246189.09375,248791.828125,232025.25,39956.0,1.0,3
238402.015625,255380.21875,311568.40625,289368.1875,228577.625,246146.1875,248761.96875,232005.390625,39957.0,1.0,3
238322.0,255279.203125,311470.9375,289292.65625,228388.34375,246090.125,248496.328125,231991.0,39958.0,1.0,3
238338.984375,255254.78125,311428.46875,289293.375,228285.890625,246089.671875,248341.578125,231993.5,39959.0,1.0,3
238433.578125,255346.78125,311506.1875,289378.75,228424.46875,246154.046875,248527.1875,232019.4375,39960.0,1.0,3
238498.578125,255434.765625,311600.5,289432.125,228610.796875,246195.359375,248794.78125,232028.828125,39961.0,1.0,3
238419.0,255383.265625,311572.25,289372.59375,228585.578125,246156.5625,248771.0,232008.078125,39962.0,1.0,3
238325.578125,255269.265625,311464.40625,289287.75,228389.0625,246089.40625,248496.96875,231985.28125,39963.0,1.0,3
238331.65625,255234.578125,311413.375,289283.96875,228281.59375,246077.515625,248332.71875,231983.765625,39964.0,1.0,3
238421.0625,255324.890625,311491.15625,289370.09375,228423.578125,246140.375,248518.234375,232011.390625,39965.0,1.0,3
238482.3125,255415.71875,311588.34375,289425.6875,228611.15625,246183.828125,248793.078125,232025.875,39966.0,1.0,3
238403.1875,255373.4375,311564.46875,289365.15625,228585.40625,246145.109375,248775.734375,232006.921875,39967.0,1.0,3
238316.90625,255276.421875,311463.25,289284.6875,228387.625,246084.578125,248506.171875,231984.03125,39968.0,1.0,3
238323.078125,255252.015625,311418.09375,289283.96875,228276.046875,246083.953125,248344.96875,231987.25,39969.0,1.0,3
238410.515625,255346.15625,311494.0,289366.875,228408.90625,246149.765625,248525.65625,232013.890625,39970.0,1.0,3
238472.03125,255441.109375,311590.125,289421.65625,228596.3125,246190.53125,248797.8125,232024.96875,39971.0,1.0,3
238391.46875,255399.359375,311563.125,289361.40625,228573.78125,246150.46875,248780.734375,232003.515625,39972.0,1.0,3
238300.546875,255297.875,311459.3125,289278.4375,228377.4375,246089.140625,248509.296875,231982.953125,39973.0,1.0,3
238304.5625,255270.078125,311412.84375,289277.53125,228269.078125,246084.765625,248343.71875,231986.796875,39974.0,1.0,3
238391.296875,255357.78125,311488.03125,289362.3125,228404.703125,246148.421875,248519.578125,232013.71875,39975.0,1.0,3
238461.46875,255453.359375,311586.28125,289416.5625,228596.3125,246191.15625,248792.0,232026.140625,39976.0,1.0,3
238388.875,255410.0,311564.75,289359.53125,228580.125,246152.984375,248782.796875,232008.796875,39977.0,1.0,3
238305.734375,255307.984375,311461.65625,289278.53125,228386.65625,246094.328125,248514.84375,231987.0625,39978.0,1.0,3
238310.90625,255270.53125,311405.9375,289271.90625,228270.328125,246085.203125,248342.375,231987.0625,39979.0,1.0,3
238397.8125,255347.6875,311475.5,289355.15625,228401.84375,246144.390625,248513.5,232015.140625,39980.0,1.0,3
238464.328125,255432.53125,311571.34375,289413.8125,228596.125,246183.90625,248787.796875,232029.171875,39981.0,1.0,3
238395.21875,255393.375,311548.09375,289355.9375,228582.984375,246144.21875,248780.828125,232006.5625,39982.0,1.0,3
238313.140625,255294.75,311449.03125,289274.875,228390.9375,246084.5,248515.5625,231988.234375,39983.0,1.0,3
238311.984375,255251.296875,311390.9375,289266.1875,228271.046875,246075.546875,248338.53125,231989.21875,39984.0,1.0,3
238397.734375,255328.109375,311459.25,289349.0625,228397.203125,246135.90625,248503.9375,232014.78125,39985.0,1.0,3
238466.578125,255416.34375,311555.78125,289408.6875,228585.671875,246175.59375,248774.125,232025.78125,39986.0,1.0,3
238407.828125,255390.15625,311543.625,289360.34375,228583.25,246145.5625,248779.484375,232010.84375,39987.0,1.0,3
238322.71875,255291.4375,311441.96875,289275.125,228393.796875,246083.953125,248512.875,231988.40625,39988.0,1.0,3
238327.359375,255256.75,311389.6875,289268.875,228276.5,246076.53125,248337.546875,231990.5625,39989.0,1.0,3
238410.953125,255332.390625,311453.59375,289349.34375,228398.453125,246135.546875,248499.828125,232014.0625,39990.0,1.0,3
238479.09375,255425.203125,311552.5625,289407.90625,228594.96875,246185.96875,248777.4375,232029.09375,39991.0,1.0,3
238411.859375,255391.40625,311536.03125,289352.1875,228588.171875,246148.6875,248777.703125,232008.703125,39992.0,1.0,3
238324.859375,255290.8125,311435.625,289269.21875,228396.9375,246087.890625,248513.40625,231989.125,39993.0,1.0,3
238325.125,255251.484375,311383.0625,289261.0,228277.84375,246081.359375,248336.296875,231991.265625,39994.0,1.0,3
238403.359375,255321.75,311445.28125,289339.59375,228395.140625,246138.671875,248493.828125,232014.609375,39995.0,1.0,3
238474.703125,255416.53125,311546.3125,289400.21875,228588.984375,246185.96875,248774.125,232030.515625,39996.0,1.0,3
238411.9375,255387.734375,311538.71875,289348.4375,228590.765625,246154.671875,248786.375,232012.109375,39997.0,1.0,3
238312.25,255278.21875,311434.5625,289260.03125,228396.9375,246093.609375,248521.28125,231987.0625,39998.0,1.0,3
238306.078125,255235.5625,311374.125,289247.9375,228269.703125,246084.046875,248338.265625,231987.0625,39999.0,1.0,3
238393.796875,255316.5625,311440.09375,289328.3125,228387.984375,246144.65625,248493.65625,232012.375,40000.0,1.0,3
238463.984375,255408.5625,311541.21875,289391.71875,228585.125,246193.484375,248771.625,232026.046875,40001.0,1.0,3
238394.59375,255373.609375,311526.5625,289339.40625,228584.953125,246157.1875,248785.484375,232004.5,40002.0,1.0,3
238307.0625,255275.625,311425.875,289253.125,228396.21875,246093.703125,248525.75,231980.359375,40003.0,1.0,3
238307.96875,255241.203125,311372.59375,289245.8125,228272.921875,246086.375,248344.96875,231985.28125,40004.0,1.0,3
238389.765625,255315.859375,311435.90625,289324.9375,228386.734375,246142.78125,248496.609375,232008.34375,40005.0,1.0,3
238466.125,255415.28125,311539.625,289391.0,228584.6875,246192.5,248778.234375,232021.578125,40006.0,1.0,3
238393.53125,255374.953125,311520.5625,289337.1875,228582.71875,246154.765625,248787.09375,232000.125,40007.0,1.0,3
238307.875,255278.296875,311422.65625,289251.53125,228396.75,246088.96875,248522.984375,231978.3125,40008.0,1.0,3
238310.375,255241.109375,311365.71875,289240.875,228268.625,246074.390625,248334.515625,231977.40625,40009.0,1.0,3
238394.15625,255314.25,311427.0625,289320.46875,228378.15625,246131.25,248481.140625,232000.75,40010.0,1.0,3
238471.75,255413.75,311530.75,289387.34375,228574.765625,246178.8125,248762.671875,232015.40625,40011.0,1.0,3
238410.609375,255388.453125,311523.875,289342.375,228586.46875,246150.46875,248790.578125,231998.953125,40012.0,1.0,3
238314.21875,255281.34375,311420.4375,289252.78125,228397.375,246084.84375,248529.421875,231974.109375,40013.0,1.0,3
238317.703125,255244.78125,311359.53125,289238.65625,228265.5,246072.78125,248339.15625,231973.390625,40014.0,1.0,3
238403.625,255321.578125,311425.15625,289321.625,228378.875,246136.4375,248488.921875,232002.796875,40015.0,1.0,3
238474.890625,255412.328125,311524.5,289386.0,228575.125,246184.265625,248768.21875,232018.71875,40016.0,1.0,3
238415.34375,255384.875,311516.375,289338.6875,228585.84375,246152.890625,248792.625,231998.0625,40017.0,1.0,3
238320.75,255278.03125,311415.6875,289251.15625,228398.359375,246088.875,248531.296875,231974.109375,40018.0,1.0,3
238317.34375,255232.890625,311356.25,289236.875,228266.671875,246076.890625,248335.84375,231975.890625,40019.0,1.0,3
238406.84375,255309.859375,311420.0,289317.0625,228378.78125,246137.78125,248478.359375,232002.984375,40020.0,1.0,3
238485.96875,255411.421875,311525.21875,289384.75,228581.375,246188.734375,248763.84375,232020.5,40021.0,1.0,3
238425.265625,255385.765625,311518.4375,289338.34375,228595.953125,246162.09375,248797.8125,232005.84375,40022.0,1.0,3
238323.25,255268.46875,311410.40625,289244.71875,228404.34375,246093.078125,248535.046875,231980.09375,40023.0,1.0,3
238320.5625,255222.59375,311350.53125,289228.5625,228270.6875,246079.03125,248338.984375,231979.46875,40024.0,1.0,3
238401.75,255294.9375,311410.59375,289304.8125,228373.421875,246132.859375,248473.625,232002.796875,40025.0,1.0,3
238483.640625,255401.421875,311517.25,289376.78125,228578.6875,246187.484375,248761.609375,232023.015625,40026.0,1.0,3
238422.578125,255377.8125,311512.0,289333.59375,228600.0625,246164.59375,248803.0,232005.84375,40027.0,1.0,3
238326.46875,255279.109375,311407.125,289245.34375,228416.0625,246100.234375,248545.328125,231982.234375,40028.0,1.0,3
238314.671875,255232.34375,311339.0625,289224.78125,228276.59375,246079.390625,248340.3125,231980.09375,40029.0,1.0,3
238389.953125,255297.53125,311390.5625,289298.71875,228372.703125,246130.984375,248467.90625,232002.53125,40030.0,1.0,3
238467.90625,255395.875,311492.21875,289368.90625,228572.703125,246181.234375,248750.875,232021.046875,40031.0,1.0,3
238413.90625,255381.203125,311494.90625,289330.1875,228602.828125,246159.859375,248800.765625,232012.1875,40032.0,1.0,3
238313.234375,255276.96875,311390.75,289238.375,228415.96875,246097.09375,248542.109375,231986.984375,40033.0,1.0,3
238306.71875,255232.25,311324.3125,289219.4375,228274.71875,246078.765625,248335.046875,231982.6875,40034.0,1.0,3
238397.640625,255310.21875,311387.25,289297.65625,228380.84375,246140.109375,248468.796875,232009.234375,40035.0,1.0,3
238476.140625,255407.234375,311494.0,289367.5,228583.4375,246195.359375,248753.109375,232025.421875,40036.0,1.0,3
238418.5625,255383.171875,311489.71875,289323.0625,228605.515625,246165.765625,248794.328125,232004.859375,40037.0,1.0,3
238325.21875,255281.4375,311387.875,289232.3125,228420.359375,246099.78125,248538.0,231981.96875,40038.0,1.0,3
238318.609375,255233.15625,311325.03125,289214.96875,228281.859375,246087.890625,248334.515625,231982.59375,40039.0,1.0,3
238396.46875,255297.96875,311379.75,289288.4375,228379.234375,246144.484375,248460.296875,232004.5,40040.0,1.0,3
238471.578125,255393.8125,311482.125,289356.75,228577.71875,246192.578125,248743.28125,232016.84375,40041.0,1.0,3
238427.40625,255384.703125,311490.875,289322.875,228611.328125,246171.9375,248799.609375,232004.328125,40042.0,1.0,3
238328.265625,255278.03125,311392.09375,289230.96875,228425.625,246105.859375,248546.140625,231978.578125,40043.0,1.0,3
238310.640625,255221.34375,311320.75,289204.84375,228276.859375,246083.59375,248333.171875,231973.03125,40044.0,1.0,3
238387.359375,255285.453125,311370.625,289277.09375,228367.25,246135.984375,248451.09375,231993.6875,40045.0,1.0,3
238472.734375,255390.15625,311478.28125,289353.34375,228572.96875,246193.125,248742.03125,232013.0,40046.0,1.0,3
238422.671875,255373.703125,311484.625,289319.28125,228607.390625,246169.78125,248800.140625,231995.921875,40047.0,1.0,3
238318.0625,255259.265625,311376.4375,289222.28125,228416.328125,246096.5625,248539.875,231967.40625,40048.0,1.0,3
238310.375,255212.59375,311311.625,289201.71875,228272.46875,246078.59375,248330.671875,231968.375,40049.0,1.0,3
238390.671875,255282.5,311364.65625,289277.53125,228366.71875,246134.5625,248450.296875,231992.703125,40050.0,1.0,3
238473.90625,255387.109375,311471.3125,289353.4375,228571.453125,246190.4375,248738.265625,232014.515625,40051.0,1.0,3
238427.671875,255379.59375,311479.4375,289319.28125,228607.390625,246168.625,248803.984375,232003.15625,40052.0,1.0,3
238325.84375,255271.953125,311375.28125,289224.875,228422.40625,246101.03125,248553.734375,231979.015625,40053.0,1.0,3
238306.078125,255215.359375,311300.90625,289197.875,228271.765625,246077.15625,248332.8125,231975.796875,40054.0,1.0,3
238383.421875,255284.5625,311353.375,289272.34375,228365.546875,246133.046875,248447.34375,232001.109375,40055.0,1.0,3
238469.25,255393.1875,311458.625,289345.9375,228573.515625,246190.4375,248736.03125,232020.328125,40056.0,1.0,3
238425.984375,255386.21875,311465.9375,289312.5,228611.421875,246169.703125,248801.578125,232008.25,40057.0,1.0,3
238327.90625,255283.84375,311369.75,289223.0,228433.3125,246107.828125,248554.890625,231983.9375,40058.0,1.0,3
238307.6875,255221.890625,311295.625,289196.1875,228280.703125,246086.1875,248334.0625,231979.734375,40059.0,1.0,3
238375.640625,255273.390625,311340.78125,289263.875,228360.90625,246135.28125,248435.984375,231999.40625,40060.0,1.0,3
238467.28125,255388.265625,311453.4375,289340.5625,228568.765625,246196.96875,248727.984375,232020.59375,40061.0,1.0,3
238423.65625,255381.5625,311462.71875,289305.625,228610.53125,246176.40625,248799.421875,232006.734375,40062.0,1.0,3
238319.9375,255271.0625,311361.0625,289212.09375,228433.234375,246110.421875,248554.09375,231981.53125,40063.0,1.0,3
238299.296875,255211.25,311285.4375,289182.9375,228279.359375,246084.671875,248333.609375,231978.21875,40064.0,1.0,3
238377.4375,255279.375,311335.3125,289257.6875,228361.4375,246139.5625,248440.640625,232000.921875,40065.0,1.0,3
238463.4375,255388.1875,311445.90625,289335.9375,228568.765625,246199.375,248735.046875,232024.078125,40066.0,1.0,3
238415.15625,255375.390625,311453.875,289300.53125,228609.71875,246173.1875,248806.046875,232005.84375,40067.0,1.0,3
238311.71875,255268.203125,311354.375,289209.78125,228430.640625,246108.453125,248564.28125,231981.96875,40068.0,1.0,3
238298.125,255217.140625,311286.6875,289186.34375,228280.875,246088.78125,248346.125,231979.203125,40069.0,1.0,3
238366.25,255273.828125,311326.09375,289250.71875,228352.9375,246133.21875,248438.40625,231998.6875,40070.0,1.0,3
238453.25,255379.953125,311434.03125,289328.78125,228558.40625,246190.34375,248727.90625,232020.859375,40071.0,1.0,3
238416.140625,255377.09375,311447.96875,289299.96875,228608.640625,246169.078125,248808.28125,232007.453125,40072.0,1.0,3
238320.84375,255277.59375,311352.5625,289212.28125,228437.4375,246103.71875,248571.4375,231985.015625,40073.0,1.0,3
238297.234375,255215.0,311273.1875,289178.125,228278.734375,246074.75,248342.46875,231977.140625,40074.0,1.0,3
238371.359375,255273.390625,311318.34375,289250.90625,228356.34375,246129.015625,248440.015625,232000.5625,40075.0,1.0,3
238458.34375,255377.984375,311425.09375,289330.03125,228562.15625,246188.390625,248727.71875,232020.59375,40076.0,1.0,3
238424.546875,255378.4375,311441.53125,289302.9375,228615.703125,246172.375,248813.734375,232011.03125,40077.0,1.0,3
238323.4375,255273.109375,311343.375,289207.8125,228438.234375,246101.296875,248570.453125,231986.171875,40078.0,1.0,3
238299.296875,255212.234375,311267.28125,289176.25,228279.546875,246072.0625,248335.765625,231979.46875,40079.0,1.0,3
238373.59375,255272.671875,311313.6875,289248.65625,228357.40625,246125.984375,248429.09375,232003.78125,40080.0,1.0,3
238460.765625,255379.328125,311424.09375,289330.75,228564.296875,246189.359375,248717.796875,232025.515625,40081.0,1.0,3
238426.875,255379.0625,311439.75,289305.71875,228619.203125,246175.515625,248805.859375,232015.953125,40082.0,1.0,3
238330.046875,255279.828125,311341.65625,289211.125,228443.875,246106.9375,248566.875,231987.34375,40083.0,1.0,3
238308.765625,255220.90625,311267.625,289178.75,228285.625,246080.734375,248339.34375,231980.546875,40084.0,1.0,3
238379.75,255278.5625,311311.0,289248.03125,228359.203125,246132.859375,248429.453125,232003.609375,40085.0,1.0,3
238474.625,255393.453125,311425.0,289329.9375,228571.28125,246198.3125,248722.0,232026.578125,40086.0,1.0,3
238436.34375,255390.859375,311439.5625,289300.0625,228624.296875,246180.515625,248812.75,232011.203125,40087.0,1.0,3
238329.234375,255282.5,311340.3125,289207.28125,228449.859375,246112.921875,248577.609375,231987.25,40088.0,1.0,3
238309.296875,255221.4375,311266.75,289179.46875,228292.0625,246089.859375,248351.5,231985.09375,40089.0,1.0,3
238382.96875,255280.265625,311312.78125,289249.5625,228362.0625,246143.140625,248438.9375,232007.0,40090.0,1.0,3
238472.03125,255388.1875,311423.125,289326.90625,228567.515625,246203.046875,248726.015625,232026.859375,40091.0,1.0,3
238439.21875,255391.765625,311443.6875,289302.5,228630.1875,246189.28125,248826.25,232018.625,40092.0,1.0,3
238324.859375,255277.765625,311335.75,289199.125,228448.078125,246111.765625,248583.5,231987.609375,40093.0,1.0,3
238295.796875,255212.234375,311255.9375,289166.0625,228283.203125,246082.796875,248350.15625,231985.09375,40094.0,1.0,3
238364.921875,255264.71875,311292.5,289230.96875,228346.421875,246132.0625,248430.359375,232005.84375,40095.0,1.0,3
238449.578125,255367.265625,311396.75,289306.59375,228548.03125,246190.265625,248716.28125,232022.734375,40096.0,1.0,3
238419.90625,255372.359375,311418.28125,289281.65625,228608.921875,246175.78125,248813.546875,232008.34375,40097.0,1.0,3
238310.375,255264.265625,311318.96875,289185.0,228433.859375,246101.5625,248573.578125,231979.015625,40098.0,1.0,3
238284.625,255200.15625,311241.53125,289152.8125,228270.0625,246069.390625,248338.625,231975.09375,40099.0,1.0,3
238353.734375,255254.15625,311280.6875,289219.25,228333.265625,246116.046875,248414.53125,231996.640625,40100.0,1.0,3
238443.421875,255361.984375,311385.84375,289298.8125,228538.8125,246174.796875,248702.0625,232015.234375,40101.0,1.0,3
238418.015625,255374.59375,311410.5,289278.78125,228608.015625,246163.96875,248810.421875,232002.453125,40102.0,1.0,3
238314.046875,255271.859375,311314.5625,289183.40625,228435.828125,246093.4375,248576.796875,231973.5625,40103.0,1.0,3
238286.859375,255204.71875,311237.15625,289150.3125,228272.203125,246065.71875,248342.203125,231969.546875,40104.0,1.0,3
238356.328125,255256.484375,311274.0625,289216.21875,228333.265625,246117.125,248418.109375,231994.484375,40105.0,1.0,3
238449.140625,255365.828125,311381.375,289295.4375,228536.765625,246177.921875,248702.15625,232014.96875,40106.0,1.0,3
238423.03125,255373.078125,311406.40625,289276.65625,228607.21875,246167.109375,248810.953125,232004.5,40107.0,1.0,3
238310.640625,255260.515625,311305.8125,289178.65625,228435.90625,246094.859375,248578.859375,231973.921875,40108.0,1.0,3
238282.484375,255194.171875,311226.40625,289143.625,228271.140625,246064.109375,248340.046875,231968.296875,40109.0,1.0,3
238359.375,255254.078125,311265.9375,289209.5,228330.5,246115.421875,248409.078125,231991.984375,40110.0,1.0,3
238446.90625,255356.890625,311369.90625,289291.40625,228535.0625,246175.78125,248692.40625,232010.5,40111.0,1.0,3
238417.671875,255359.9375,311394.875,289274.15625,228609.09375,246163.890625,248806.125,232002.265625,40112.0,1.0,3
238314.671875,255259.171875,311302.40625,289180.96875,228445.296875,246100.234375,248581.625,231979.296875,40113.0,1.0,3
238291.515625,255198.1875,311225.15625,289144.9375,228277.578125,246069.296875,248344.078125,231974.8125,40114.0,1.0,3
238359.28125,255246.5625,311257.53125,289203.96875,228324.421875,246112.75,248402.546875,231992.078125,40115.0,1.0,3
238446.8125,255349.203125,311365.625,289285.40625,228529.34375,246175.6875,248684.984375,232013.0,40116.0,1.0,3
238421.515625,255360.28125,311397.46875,289271.0,228608.203125,246169.875,248805.953125,232005.671875,40117.0,1.0,3
238316.359375,255258.625,311303.3125,289177.9375,228445.484375,246102.375,248585.5625,231978.84375,40118.0,1.0,3
238293.84375,255196.671875,311224.90625,289143.96875,228280.875,246076.890625,248348.71875,231976.15625,40119.0,1.0,3
238366.96875,255254.078125,311263.96875,289208.4375,228334.703125,246129.28125,248408.625,231998.25,40120.0,1.0,3
238453.421875,255360.109375,311371.96875,289289.78125,228538.109375,246192.234375,248690.703125,232019.25,40121.0,1.0,3
238430.453125,255376.5625,311399.25,289272.96875,228615.796875,246182.296875,248811.046875,232010.40625,40122.0,1.0,3
238320.296875,255268.46875,311300.375,289178.3125,228450.75,246111.765625,248587.625,231979.921875,40123.0,1.0,3
238292.234375,255198.546875,311221.5,289143.53125,228284.8125,246083.6875,248347.203125,231975.0,40124.0,1.0,3
238364.015625,255246.46875,311251.90625,289205.75,228335.15625,246126.96875,248397.71875,231996.09375,40125.0,1.0,3
238459.953125,255354.75,311360.25,289289.25,228543.296875,246190.0,248682.125,232020.15625,40126.0,1.0,3
238437.515625,255366.28125,311390.21875,289273.53125,228626.890625,246184.265625,248810.875,232010.765625,40127.0,1.0,3
238327.09375,255259.96875,311292.9375,289176.6875,228464.515625,246117.75,248591.46875,231979.46875,40128.0,1.0,3
238300.71875,255192.734375,311212.375,289137.1875,228294.5625,246087.0,248349.34375,231971.875,40129.0,1.0,3
238367.953125,255236.640625,311241.1875,289192.96875,228334.34375,246130.71875,248397.359375,231992.34375,40130.0,1.0,3
238457.09375,255337.671875,311345.875,289273.53125,228533.984375,246192.046875,248678.8125,232014.15625,40131.0,1.0,3
238447.703125,255359.390625,311383.6875,289265.65625,228621.703125,246186.421875,248817.75,232008.890625,40132.0,1.0,3
238346.3125,255263.015625,311292.59375,289172.84375,228460.765625,246114.09375,248602.640625,231981.53125,40133.0,1.0,3
238308.40625,255191.046875,311207.90625,289130.1875,228282.484375,246071.625,248352.5625,231972.9375,40134.0,1.0,3
238368.9375,255236.8125,311233.65625,289188.9375,228321.46875,246111.765625,248396.734375,231995.203125,40135.0,1.0,3
238459.953125,255354.921875,311339.96875,289273.25,228523.703125,246172.015625,248678.90625,232018.625,40136.0,1.0,3
238438.140625,255378.796875,311374.9375,289263.40625,228610.703125,246165.40625,248817.03125,232013.625,40137.0,1.0,3
238328.171875,255282.0625,311281.40625,289169.375,228452.546875,246095.484375,248606.65625,231987.515625,40138.0,1.0,3
238290.890625,255220.015625,311197.09375,289127.78125,228278.28125,246064.203125,248356.40625,231977.953125,40139.0,1.0,3
238355.4375,255272.765625,311225.34375,289190.5625,228317.265625,246109.796875,248397.546875,231999.9375,40140.0,1.0,3
238449.140625,255391.3125,311331.90625,289273.53125,228518.25,246174.609375,248680.0625,232023.015625,40141.0,1.0,3
238433.9375,255419.03125,311369.03125,289265.65625,228610.53125,246173.0,248820.171875,232018.0,40142.0,1.0,3
238323.96875,255321.125,311277.84375,289172.75,228458.625,246105.140625,248611.046875,231993.59375,40143.0,1.0,3
238284.265625,255249.78125,311193.59375,289132.625,228287.578125,246072.875,248362.9375,231986.078125,40144.0,1.0,3
238338.984375,255286.96875,311214.4375,289184.5625,228315.75,246110.0625,248393.25,232001.640625,40145.0,1.0,3
238437.78125,255403.46875,311326.375,289273.875,228521.203125,246178.8125,248679.53125,232027.65625,40146.0,1.0,3
238426.515625,255429.9375,311364.90625,289268.15625,228613.75,246177.65625,248825.890625,232019.96875,40147.0,1.0,3
238314.125,255322.296875,311271.84375,289170.34375,228455.3125,246110.0625,248619.8125,231987.15625,40148.0,1.0,3
238283.828125,255251.21875,311194.9375,289131.8125,228285.34375,246081.90625,248378.5,231983.21875,40149.0,1.0,3
238346.765625,255290.46875,311220.78125,289187.25,228318.703125,246124.71875,248412.5625,232003.875,40150.0,1.0,3
238438.046875,255394.4375,311321.1875,289267.0,228513.96875,246179.984375,248684.171875,232023.1875,40151.0,1.0,3
238437.6875,255426.09375,311367.5,289267.625,228618.65625,246181.5,248835.09375,232022.390625,40152.0,1.0,3
238336.3125,255327.75,311285.875,289178.21875,228476.859375,246119.359375,248636.609375,231999.3125,40153.0,1.0,3
238299.640625,255249.515625,311199.5,289131.71875,228300.8125,246080.5625,248382.78125,231990.46875,40154.0,1.0,3
238365.546875,255293.59375,311221.5,289183.21875,228328.359375,246118.015625,248405.765625,232006.46875,40155.0,1.0,3
238463.0,255402.484375,311328.4375,289268.5,228532.109375,246180.6875,248682.296875,232028.828125,40156.0,1.0,3
238457.625,255427.609375,311373.6875,289268.78125,228638.59375,246182.296875,248839.84375,232025.515625,40157.0,1.0,3
238352.84375,255328.734375,311287.03125,289179.28125,228492.953125,246117.390625,248642.6875,231995.828125,40158.0,1.0,3
238318.515625,255258.8125,311202.46875,289133.40625,228315.390625,246079.84375,248386.984375,231989.296875,40159.0,1.0,3
238382.171875,255302.796875,311223.75,289184.90625,228337.46875,246117.125,248406.21875,232009.421875,40160.0,1.0,3
238479.09375,255413.390625,311329.25,289267.78125,228535.953125,246178.8125,248680.875,232032.484375,40161.0,1.0,3
238471.21875,255440.125,311374.375,289264.65625,228638.59375,246179.0,248837.328125,232026.140625,40162.0,1.0,3
238361.96875,255339.015625,311285.875,289169.375,228487.234375,246111.40625,248637.953125,231997.4375,40163.0,1.0,3
238322.171875,255261.21875,311201.28125,289124.5625,228306.359375,246076.453125,248381.171875,231988.859375,40164.0,1.0,3
238375.28125,255292.609375,311218.0,289173.03125,228322.71875,246112.484375,248391.375,232000.203125,40165.0,1.0,3
238467.46875,255399.984375,311325.3125,289257.59375,228521.390625,246176.21875,248667.375,232020.78125,40166.0,1.0,3
238468.265625,255437.796875,311380.65625,289264.125,228634.578125,246185.796875,248836.703125,232023.71875,40167.0,1.0,3
238356.875,255340.078125,311293.28125,289169.8125,228490.453125,246121.15625,248643.328125,231995.734375,40168.0,1.0,3
238305.453125,255256.84375,311201.5625,289115.0,228301.359375,246077.34375,248376.078125,231982.859375,40169.0,1.0,3
238363.84375,255293.765625,311221.3125,289166.5,228316.203125,246116.859375,248384.9375,231999.140625,40170.0,1.0,3
238458.96875,255403.921875,311330.40625,289253.59375,228516.828125,246188.109375,248663.4375,232025.15625,40171.0,1.0,3
238454.765625,255438.25,311380.90625,289257.5,228629.203125,246196.4375,248832.5,232022.46875,40172.0,1.0,3
238339.875,255338.65625,311296.15625,289164.09375,228485.171875,246131.703125,248643.5,231994.3125,40173.0,1.0,3
238291.78125,255256.84375,311208.625,289113.21875,228298.046875,246092.1875,248384.9375,231981.875,40174.0,1.0,3
238345.15625,255293.859375,311222.21875,289160.40625,228305.734375,246126.0625,248391.015625,231993.78125,40175.0,1.0,3
238431.875,255399.359375,311324.40625,289243.375,228499.296875,246188.46875,248662.0,232017.375,40176.0,1.0,3
238433.84375,255438.609375,311376.1875,289247.6875,228611.59375,246197.140625,248831.25,232016.75,40177.0,1.0,3
238329.953125,255349.109375,311296.6875,289157.65625,228474.53125,246137.25,248648.6875,231988.765625,40178.0,1.0,3
238285.15625,255268.375,311208.53125,289107.125,228291.15625,246096.203125,248391.28125,231977.765625,40179.0,1.0,3
238344.171875,255304.234375,311224.1875,289156.75,228305.015625,246130.359375,248397.984375,231998.875,40180.0,1.0,3
238438.234375,255410.796875,311320.5625,289237.75,228498.3125,246190.265625,248665.9375,232019.796875,40181.0,1.0,3
238437.875,255436.546875,311360.53125,289239.71875,228606.328125,246189.09375,248828.125,232014.0625,40182.0,1.0,3
238337.015625,255344.1875,311282.3125,289152.8125,228477.484375,246127.234375,248651.1875,231991.0,40183.0,1.0,3
238298.9375,255266.671875,311196.125,289105.0625,228302.25,246093.25,248398.4375,231987.34375,40184.0,1.0,3
238357.765625,255292.34375,311204.59375,289150.0625,228309.765625,246124.546875,248394.765625,231999.859375,40185.0,1.0,3
238445.65625,255381.5625,311297.6875,289230.78125,228498.859375,246178.375,248651.09375,232013.796875,40186.0,1.0,3
238458.53125,255418.84375,311348.1875,289239.0,228620.359375,246190.796875,248826.6875,232014.421875,40187.0,1.0,3
238366.609375,255330.515625,311269.875,289150.5,228493.484375,246132.859375,248653.6875,231991.265625,40188.0,1.0,3
238325.125,255245.671875,311176.625,289097.3125,228310.65625,246089.5,248389.765625,231978.3125,40189.0,1.0,3
238376.09375,255263.734375,311180.46875,289140.3125,228315.5625,246120.078125,248379.125,231993.328125,40190.0,1.0,3
238468.0,255365.921875,311280.78125,289224.78125,228511.28125,246184.0,248646.890625,232016.75,40191.0,1.0,3
238479.359375,255409.28125,311339.25,289236.59375,228635.015625,246196.078125,248830.1875,232017.203125,40192.0,1.0,3
238370.90625,255311.296875,311254.6875,289144.59375,228500.203125,246129.734375,248652.078125,231989.484375,40193.0,1.0,3
238327.546875,255233.15625,311163.75,289092.90625,228314.671875,246083.6875,248386.28125,231977.953125,40194.0,1.0,3
238383.78125,255263.109375,311172.40625,289139.125,228315.5625,246111.84375,248372.0625,231994.046875,40195.0,1.0,3
238478.015625,255365.828125,311272.09375,289223.28125,228507.96875,246170.59375,248635.1875,232014.96875,40196.0,1.0,3
238485.609375,255406.953125,311329.78125,289235.78125,228632.609375,246179.078125,248821.6875,232014.0625,40197.0,1.0,3
238378.0625,255314.421875,311249.9375,289144.5,228503.234375,246115.78125,248650.5625,231986.796875,40198.0,1.0,3
238331.65625,255241.375,311160.0,289093.09375,228317.453125,246075.28125,248387.609375,231979.46875,40199.0,1.0,3
238380.828125,255275.796875,311168.125,289136.5625,228312.171875,246108.1875,248373.125,231996.015625,40200.0,1.0,3
238472.5625,255389.796875,311276.5625,289228.09375,228504.21875,246176.21875,248644.65625,232022.390625,40201.0,1.0,3
238478.015625,255438.25,311334.96875,289240.4375,228625.640625,246187.75,248832.5,232019.515625,40202.0,1.0,3
238370.640625,255351.4375,311258.59375,289150.125,228493.9375,246128.296875,248668.171875,231990.46875,40203.0,1.0,3
238315.03125,255269.1875,311165.90625,289093.71875,228299.203125,246084.5,248401.75,231975.796875,40204.0,1.0,3
238362.859375,255298.515625,311174.65625,289139.3125,228294.109375,246117.75,248383.6875,231996.015625,40205.0,1.0,3
238456.5625,255412.59375,311283.1875,289230.34375,228491.96875,246186.953125,248656.828125,232023.375,40206.0,1.0,3
238463.984375,255460.515625,311348.5625,289242.6875,228625.015625,246202.0625,248853.25,232022.5625,40207.0,1.0,3
238347.21875,255363.0625,311262.90625,289145.125,228492.59375,246128.03125,248675.6875,231987.15625,40208.0,1.0,3
238292.9375,255273.921875,311166.53125,289087.03125,228301.53125,246080.375,248402.375,231974.109375,40209.0,1.0,3
238344.34375,255297.4375,311173.21875,289133.96875,228297.421875,246113.1875,248380.828125,231992.25,40210.0,1.0,3
238437.515625,255400.875,311272.90625,289223.4375,228491.703125,246179.984375,248645.375,232017.5625,40211.0,1.0,3
238454.328125,255450.328125,311334.5,289236.875,228625.1875,246195.359375,248839.921875,232017.5625,40212.0,1.0,3
238352.21875,255362.96875,311260.40625,289148.53125,228503.5,246133.75,248678.546875,231991.8125,40213.0,1.0,3
238300.984375,255274.1875,311163.46875,289089.25,228311.28125,246085.921875,248406.921875,231977.234375,40214.0,1.0,3
238352.390625,255293.046875,311163.3125,289126.8125,228297.78125,246112.484375,248373.3125,231991.625,40215.0,1.0,3
238448.6875,255397.21875,311263.96875,289213.875,228490.625,246177.125,248633.125,232014.25,40216.0,1.0,3
238461.921875,255440.390625,311319.40625,289225.875,228621.796875,246187.21875,248824.375,232011.46875,40217.0,1.0,3
238364.734375,255352.515625,311243.3125,289137.71875,228503.140625,246127.59375,248666.484375,231987.515625,40218.0,1.0,3
238313.5,255263.734375,311147.90625,289078.34375,228312.265625,246079.03125,248396.375,231976.609375,40219.0,1.0,3
238362.5,255279.90625,311145.96875,289117.25,228295.984375,246107.203125,248363.5625,231992.4375,40220.0,1.0,3
238455.390625,255379.0625,311240.1875,289202.1875,228485.078125,246169.421875,248619.265625,232013.0,40221.0,1.0,3
238479.453125,255431.1875,311306.53125,289219.34375,228625.09375,246188.203125,248820.25,232014.875,40222.0,1.0,3
238380.734375,255346.875,311238.75,289134.5,228513.34375,246130.453125,248670.140625,231991.984375,40223.0,1.0,3
238323.078125,255254.515625,311143.375,289073.96875,228321.375,246078.6875,248396.640625,231976.15625,40224.0,1.0,3
238370.28125,255269.625,311142.90625,289110.34375,228302.78125,246104.703125,248357.9375,231990.5625,40225.0,1.0,3
238461.65625,255370.75,311240.46875,289195.65625,228490.546875,246169.078125,248612.75,232012.375,40226.0,1.0,3
238478.546875,255418.578125,311305.625,289215.6875,228631.0,246185.515625,248819.28125,232014.34375,40227.0,1.0,3
238375.90625,255328.90625,311233.5625,289126.34375,228518.609375,246126.0625,248669.703125,231987.0625,40228.0,1.0,3
238319.046875,255241.5625,311136.21875,289065.125,228325.140625,246079.578125,248397.984375,231974.109375,40229.0,1.0,3
238362.5,255257.109375,311135.03125,289102.46875,228300.375,246108.0,248360.171875,231988.40625,40230.0,1.0,3
238456.734375,255362.078125,311238.3125,289191.71875,228483.75,246179.078125,248621.421875,232012.109375,40231.0,1.0,3
238475.953125,255417.953125,311307.15625,289213.25,228622.6875,246199.46875,248830.984375,232015.046875,40232.0,1.0,3
238374.921875,255337.484375,311238.59375,289127.78125,228509.859375,246136.609375,248685.4375,231986.171875,40233.0,1.0,3
238317.96875,255251.125,311144.0625,289064.40625,228314.5,246081.546875,248411.84375,231968.65625,40234.0,1.0,3
238357.671875,255264.359375,311140.40625,289100.53125,228290.171875,246107.296875,248366.609375,231984.125,40235.0,1.0,3
238443.953125,255364.484375,311236.875,289188.65625,228477.046875,246175.234375,248622.84375,232010.40625,40236.0,1.0,3
238462.1875,255416.96875,311300.375,289204.21875,228615.171875,246188.46875,248825.265625,232010.140625,40237.0,1.0,3
238361.078125,255337.671875,311228.3125,289117.59375,228502.703125,246126.25,248677.109375,231983.9375,40238.0,1.0,3
238307.25,255255.859375,311135.5,289061.1875,228311.71875,246081.1875,248407.734375,231973.203125,40239.0,1.0,3
238345.875,255263.453125,311128.25,289097.3125,228283.828125,246103.53125,248356.859375,231984.46875,40240.0,1.0,3
238441.359375,255367.4375,311225.96875,289186.0,228470.0625,246169.875,248612.03125,232008.796875,40241.0,1.0,3
238467.109375,255424.484375,311292.75,289207.625,228616.421875,246189.640625,248823.921875,232012.015625,40242.0,1.0,3
238366.875,255342.578125,311225.96875,289124.75,228515.578125,246136.265625,248689.90625,231986.171875,40243.0,1.0,3
238302.515625,255247.015625,311123.0625,289057.5,228318.078125,246084.84375,248415.421875,231970.703125,40244.0,1.0,3
238351.5,255261.671875,311115.8125,289090.78125,228288.296875,246105.40625,248356.59375,231985.375,40245.0,1.0,3
238445.296875,255362.34375,311210.6875,289177.75,228471.671875,246169.515625,248603.171875,232009.78125,40246.0,1.0,3
238473.71875,255422.609375,311285.4375,289207.34375,228625.015625,246193.03125,248822.3125,232017.734375,40247.0,1.0,3
238373.140625,255339.90625,311220.15625,289125.5625,228525.671875,246136.078125,248691.875,231994.40625,40248.0,1.0,3
238308.40625,255242.71875,311113.78125,289055.09375,228325.21875,246079.671875,248410.0625,231972.859375,40249.0,1.0,3
238354.546875,255250.9375,311105.8125,289086.5625,228290.09375,246101.921875,248347.734375,231986.171875,40250.0,1.0,3
238451.1875,255349.375,311200.5,289174.46875,228468.015625,246168.09375,248593.25,232008.796875,40251.0,1.0,3
238477.65625,255404.640625,311271.65625,289199.9375,228617.234375,246191.6875,248809.625,232013.53125,40252.0,1.0,3
238381.28125,255323.8125,311208.53125,289116.34375,228519.421875,246137.25,248683.640625,231987.78125,40253.0,1.0,3
238321.109375,255232.796875,311111.53125,289051.78125,228326.296875,246089.859375,248411.84375,231976.78125,40254.0,1.0,3
238352.390625,255232.25,311095.96875,289076.65625,228283.390625,246105.6875,248341.21875,231987.6875,40255.0,1.0,3
238447.609375,255335.515625,311193.0625,289165.4375,228464.875,246170.40625,248588.78125,232010.9375,40256.0,1.0,3
238480.703125,255403.203125,311268.875,289194.84375,228617.671875,246192.9375,248811.765625,232016.125,40257.0,1.0,3
238382.171875,255327.75,311209.25,289113.40625,228520.84375,246138.140625,248689.359375,231993.328125,40258.0,1.0,3
238318.875,255237.078125,311111.8125,289047.9375,228326.921875,246088.609375,248418.546875,231980.984375,40259.0,1.0,3
238355.96875,255245.046875,311097.84375,289076.71875,228285.265625,246108.453125,248348.28125,231990.375,40260.0,1.0,3
238448.78125,255346.609375,311192.71875,289167.75,228463.53125,246176.9375,248591.90625,232013.265625,40261.0,1.0,3
238479.890625,255410.171875,311267.8125,289195.375,228617.140625,246199.921875,248816.859375,232016.484375,40262.0,1.0,3
238377.609375,255331.953125,311201.84375,289112.3125,228519.15625,246140.015625,248690.96875,231988.5,40263.0,1.0,3
238314.671875,255242.09375,311100.8125,289046.96875,228321.828125,246087.359375,248414.265625,231973.203125,40264.0,1.0,3
238350.4375,255245.21875,311084.34375,289073.875,228276.234375,246100.5,248337.109375,231982.421875,40265.0,1.0,3
238442.78125,255341.6875,311175.71875,289160.15625,228451.5625,246160.75,248576.265625,232002.0,40266.0,1.0,3
238476.046875,255407.234375,311251.71875,289189.75,228610.078125,246188.734375,248803.890625,232008.078125,40267.0,1.0,3
238382.265625,255339.28125,311195.84375,289110.8125,228523.265625,246141.09375,248691.15625,231989.296875,40268.0,1.0,3
238312.875,255243.34375,311094.8125,289040.34375,228323.34375,246085.828125,248412.65625,231973.75,40269.0,1.0,3
238348.375,255247.015625,311079.25,289068.34375,228277.125,246104.78125,248336.03125,231983.578125,40270.0,1.0,3
238443.328125,255350.0,311172.78125,289154.4375,228452.625,246173.09375,248575.375,232010.84375,40271.0,1.0,3
238473.90625,255410.171875,311247.25,289183.9375,228608.015625,246195.265625,248800.3125,232014.34375,40272.0,1.0,3
238377.609375,255329.359375,311185.21875,289105.875,228517.984375,246138.21875,248685.609375,231986.796875,40273.0,1.0,3
238316.71875,255235.828125,311084.34375,289038.8125,228323.171875,246085.03125,248411.21875,231971.25,40274.0,1.0,3
238354.0,255240.484375,311067.0,289060.65625,228274.078125,246099.25,248328.875,231981.25,40275.0,1.0,3
238454.5,255345.890625,311164.90625,289150.5,228455.484375,246170.953125,248573.40625,232008.171875,40276.0,1.0,3
238492.140625,255409.90625,311243.75,289183.125,228616.875,246199.65625,248806.3125,232015.40625,40277.0,1.0,3
238385.75,255324.078125,311177.59375,289096.125,228523.984375,246136.078125,248689.359375,231988.234375,40278.0,1.0,3
238324.5,255235.46875,311081.84375,289031.6875,228329.515625,246085.828125,248417.65625,231975.71875,40279.0,1.0,3
238361.078125,255238.0625,311068.625,289058.125,228280.34375,246104.875,248335.765625,231987.515625,40280.0,1.0,3
238458.171875,255337.046875,311162.84375,289146.75,228455.671875,246170.328125,248576.09375,232016.390625,40281.0,1.0,3
238498.3125,255405.4375,311243.3125,289179.46875,228616.421875,246196.875,248810.953125,232019.515625,40282.0,1.0,3
238388.703125,255320.140625,311175.90625,289090.6875,228521.03125,246133.671875,248691.953125,231987.6875,40283.0,1.0,3
238322.625,255228.59375,311077.5625,289026.9375,228326.296875,246086.375,248415.875,231974.28125,40284.0,1.0,3
238360.171875,255230.640625,311060.9375,289052.25,228276.953125,246106.484375,248329.953125,231984.390625,40285.0,1.0,3
238454.5,255330.515625,311153.46875,289140.9375,228447.625,246172.375,248565.265625,232008.96875,40286.0,1.0,3
238493.390625,255401.234375,311235.4375,289178.65625,228610.609375,246204.125,248809.34375,232017.640625,40287.0,1.0,3
238392.359375,255326.3125,311178.6875,289098.1875,228529.796875,246151.375,248709.390625,231992.875,40288.0,1.0,3
238318.25,255226.171875,311073.0,289022.1875,228325.40625,246089.046875,248424.71875,231972.765625,40289.0,1.0,3
238345.0625,255219.65625,311049.46875,289041.40625,228263.09375,246100.671875,248329.234375,231981.703125,40290.0,1.0,3
238443.421875,255324.96875,311142.46875,289131.71875,228437.34375,246168.796875,248562.40625,232007.453125,40291.0,1.0,3
238488.5625,255400.609375,311224.4375,289167.3125,228603.109375,246196.609375,248803.1875,232014.78125,40292.0,1.0,3
238400.046875,255338.828125,311176.53125,289094.53125,228533.1875,246150.921875,248712.25,231994.3125,40293.0,1.0,3
238329.515625,255245.3125,311073.53125,289022.71875,228336.3125,246093.515625,248434.640625,231975.625,40294.0,1.0,3
238351.953125,255231.09375,311044.21875,289040.15625,228269.171875,246101.921875,248332.0,231981.078125,40295.0,1.0,3
238445.828125,255329.078125,311132.90625,289129.03125,228437.15625,246167.375,248560.625,232006.296875,40296.0,1.0,3
238484.984375,255401.6875,311212.5625,289163.90625,228602.65625,246197.40625,248798.890625,232013.0,40297.0,1.0,3
238392.453125,255334.984375,311163.375,289090.15625,228531.9375,246150.296875,248710.109375,231991.984375,40298.0,1.0,3
238321.015625,255238.6875,311062.90625,289016.84375,228335.953125,246096.296875,248434.46875,231973.921875,40299.0,1.0,3
238349.265625,255235.828125,311038.9375,289035.78125,228272.390625,246110.875,248332.625,231985.28125,40300.0,1.0,3
238442.96875,255333.828125,311129.875,289124.75,228438.328125,246176.21875,248558.203125,232013.890625,40301.0,1.0,3
238479.53125,255398.734375,311207.71875,289159.53125,228599.53125,246198.484375,248793.875,232017.734375,40302.0,1.0,3
238383.953125,255328.546875,311160.25,289088.34375,228535.515625,246152.265625,248713.0625,231998.25,40303.0,1.0,3
238320.296875,255238.25,311063.15625,289019.0625,228342.65625,246101.390625,248441.796875,231980.1875,40304.0,1.0,3
238350.34375,255232.25,311037.875,289033.625,228275.421875,246110.234375,248332.90625,231987.6875,40305.0,1.0,3
238442.34375,255323.0,311127.09375,289121.53125,228441.015625,246176.671875,248554.546875,232016.296875,40306.0,1.0,3
238494.46875,255401.953125,311214.96875,289166.0625,228613.296875,246210.46875,248801.484375,232024.34375,40307.0,1.0,3
238403.359375,255339.71875,311169.8125,289090.78125,228546.15625,246158.609375,248719.765625,231998.421875,40308.0,1.0,3
238322.71875,255233.59375,311061.5625,289010.84375,228339.890625,246094.78125,248435.0,231975.0,40309.0,1.0,3
238347.5625,255219.828125,311031.5,289028.28125,228267.734375,246102.015625,248322.796875,231981.703125,40310.0,1.0,3
238445.46875,255320.234375,311122.4375,289118.3125,228431.890625,246167.1875,248547.46875,232007.625,40311.0,1.0,3
238496.609375,255402.9375,311213.53125,289161.84375,228606.859375,246201.53125,248799.78125,232021.484375,40312.0,1.0,3
238404.875,255341.15625,311166.25,289088.8125,228542.390625,246153.15625,248718.421875,231998.0625,40313.0,1.0,3
238322.265625,255232.171875,311056.8125,289010.84375,228340.875,246093.4375,248435.71875,231978.75,40314.0,1.0,3
238350.25,255223.5,311027.03125,289026.65625,228270.515625,246104.25,248321.28125,231988.40625,40315.0,1.0,3
238443.953125,255326.765625,311117.6875,289116.0625,228434.21875,246172.921875,248544.96875,232014.78125,40316.0,1.0,3
238487.21875,255403.03125,311203.0,289157.46875,228605.25,246204.390625,248794.859375,232024.171875,40317.0,1.0,3
238390.578125,255333.5625,311150.78125,289079.6875,228539.453125,246153.0625,248717.796875,231996.453125,40318.0,1.0,3
238311.453125,255229.578125,311046.4375,289002.4375,228342.484375,246099.78125,248442.25,231974.8125,40319.0,1.0,3
238332.546875,255216.171875,311017.03125,289016.5625,228266.671875,246109.96875,248324.40625,231983.9375,40320.0,1.0,3
238422.671875,255310.21875,311100.8125,289102.3125,228423.578125,246169.78125,248537.28125,232008.25,40321.0,1.0,3
238475.953125,255390.15625,311188.40625,289147.375,228600.6875,246198.9375,248791.109375,232016.125,40322.0,1.0,3
238393.796875,255334.984375,311145.59375,289078.96875,228546.421875,246154.234375,248719.5,231995.03125,40323.0,1.0,3
238314.75,255232.171875,311041.4375,289002.4375,228347.046875,246096.109375,248440.71875,231976.34375,40324.0,1.0,3
238331.75,255213.65625,311008.28125,289016.125,228268.625,246103.796875,248318.421875,231985.453125,40325.0,1.0,3
238430.265625,255318.453125,311100.53125,289110.96875,228434.578125,246176.40625,248538.09375,232014.15625,40326.0,1.0,3
238484.453125,255403.375,311191.71875,289154.6875,228615.703125,246211.09375,248793.96875,232023.09375,40327.0,1.0,3
238392.28125,255339.1875,311142.90625,289079.78125,228558.125,246164.25,248725.390625,231995.734375,40328.0,1.0,3
238311.984375,255236.734375,311033.375,288999.03125,228354.46875,246100.40625,248442.609375,231975.890625,40329.0,1.0,3
238333.625,255226.0,311000.21875,289008.78125,228273.015625,246105.0625,248316.1875,231986.4375,40330.0,1.0,3
238419.71875,255318.71875,311080.5,289094.53125,228428.84375,246168.265625,248526.90625,232011.921875,40331.0,1.0,3
238473.015625,255400.703125,311168.5625,289138.96875,228607.65625,246201.34375,248784.578125,232022.109375,40332.0,1.0,3
238389.328125,255346.4375,311131.1875,289072.96875,228561.265625,246156.90625,248729.78125,232002.359375,40333.0,1.0,3
238304.921875,255240.65625,311024.53125,288991.875,228357.953125,246094.6875,248451.09375,231977.046875,40334.0,1.0,3
238318.15625,255217.234375,310983.3125,288993.21875,228262.109375,246086.28125,248307.953125,231976.078125,40335.0,1.0,3
238411.671875,255314.0625,311066.03125,289079.0625,228412.578125,246148.515625,248512.421875,231999.859375,40336.0,1.0,3
238468.453125,255400.078125,311157.21875,289127.4375,228591.484375,246190.34375,248774.03125,232011.828125,40337.0,1.0,3
238383.953125,255341.78125,311115.28125,289056.625,228538.640625,246146.0,248716.90625,231987.6875,40338.0,1.0,3
238306.625,255239.59375,311011.03125,288980.1875,228339.359375,246084.3125,248439.390625,231966.59375,40339.0,1.0,3
238325.84375,255221.4375,310974.84375,288990.46875,228252.53125,246087.4375,248304.203125,231975.71875,40340.0,1.0,3
238414.53125,255306.90625,311056.09375,289078.0625,228403.09375,246151.8125,248504.921875,232003.609375,40341.0,1.0,3
238479.0,255398.375,311153.09375,289130.46875,228589.328125,246194.640625,248768.125,232013.625,40342.0,1.0,3
238394.234375,255341.609375,311114.3125,289062.53125,228546.515625,246152.078125,248718.515625,231989.484375,40343.0,1.0,3
238310.640625,255233.953125,311008.4375,288981.15625,228344.625,246090.03125,248441.96875,231968.109375,40344.0,1.0,3
238332.8125,255218.046875,310973.5,288988.65625,228255.578125,246091.640625,248306.796875,231976.34375,40345.0,1.0,3
238430.71875,255317.015625,311063.25,289080.21875,228414.1875,246163.796875,248515.46875,232009.515625,40346.0,1.0,3
238488.296875,255400.96875,311157.84375,289131.1875,228601.9375,246203.21875,248778.140625,232021.046875,40347.0,1.0,3
238402.015625,255341.6875,311121.1875,289064.5,228562.515625,246156.828125,248730.046875,231999.140625,40348.0,1.0,3
238321.28125,255238.0625,311013.1875,288986.625,228361.796875,246095.3125,248452.171875,231978.84375,40349.0,1.0,3
238341.578125,255219.5625,310975.1875,288994.125,228270.59375,246101.75,248312.78125,231983.9375,40350.0,1.0,3
238429.015625,255306.28125,311053.15625,289075.21875,228417.3125,246167.015625,248511.0,232008.703125,40351.0,1.0,3
238487.9375,255393.1875,311147.125,289125.5625,228602.296875,246205.28125,248772.78125,232016.296875,40352.0,1.0,3
238409.796875,255345.53125,311115.65625,289059.3125,228565.015625,246161.296875,248728.25,231994.484375,40353.0,1.0,3
238324.5,255236.375,311011.40625,288978.375,228364.03125,246096.828125,248449.75,231975.359375,40354.0,1.0,3
238334.34375,255204.546875,310964.90625,288977.40625,228260.859375,246092.546875,248295.703125,231979.5625,40355.0,1.0,3
238424.8125,255294.03125,311044.03125,289062.6875,228405.25,246158.96875,248489.453125,232003.96875,40356.0,1.0,3
238489.453125,255389.171875,311142.75,289123.21875,228595.859375,246207.96875,248761.0625,232018.71875,40357.0,1.0,3
238404.25,255339.71875,311106.625,289056.15625,228556.25,246164.0625,248721.109375,231996.359375,40358.0,1.0,3
238314.3125,255233.15625,311001.65625,288975.78125,228355.359375,246106.390625,248449.3125,231977.765625,40359.0,1.0,3
238338.546875,255219.03125,310964.28125,288981.6875,228258.703125,246109.890625,248304.828125,231982.78125,40360.0,1.0,3
238430.984375,255309.0625,311043.3125,289066.1875,228402.5625,246172.921875,248494.375,232006.5625,40361.0,1.0,3
238491.609375,255393.8125,311138.875,289118.21875,228589.953125,246215.828125,248762.328125,232017.46875,40362.0,1.0,3
238408.09375,255339.453125,311106.15625,289051.875,228555.09375,246171.3125,248729.0625,231992.4375,40363.0,1.0,3
238327.0,255236.453125,311001.84375,288969.71875,228360.546875,246110.6875,248460.03125,231972.3125,40364.0,1.0,3
238338.8125,255207.046875,310952.84375,288967.65625,228258.96875,246106.484375,248305.546875,231973.390625,40365.0,1.0,3
238427.328125,255291.890625,311031.15625,289050.90625,228399.4375,246166.921875,248494.546875,231998.59375,40366.0,1.0,3
238486.515625,255375.671875,311129.25,289105.53125,228586.65625,246207.34375,248764.28125,232015.671875,40367.0,1.0,3
238408.015625,255327.5625,311099.1875,289044.09375,228553.578125,246159.765625,248736.75,231996.984375,40368.0,1.0,3
238329.234375,255231.28125,311001.65625,288968.09375,228359.375,246098.703125,248469.421875,231978.484375,40369.0,1.0,3
238336.3125,255201.40625,310954.71875,288967.375,228247.796875,246091.375,248306.34375,231980.0,40370.0,1.0,3
238425.625,255289.65625,311031.78125,289052.78125,228384.59375,246155.125,248493.46875,232007.09375,40371.0,1.0,3
238491.0625,255386.03125,311128.59375,289108.46875,228574.5,246198.9375,248768.484375,232020.421875,40372.0,1.0,3
238410.25,255341.328125,311098.46875,289045.4375,228546.6875,246153.78125,248744.890625,232001.109375,40373.0,1.0,3
238325.671875,255244.5,310994.9375,288962.90625,228353.125,246090.296875,248474.4375,231982.328125,40374.0,1.0,3
238338.8125,255227.875,310946.9375,288961.03125,228247.796875,246086.90625,248314.75,231986.53125,40375.0,1.0,3
238421.515625,255317.640625,311019.09375,289042.40625,228383.96875,246147.96875,248496.25,232014.0625,40376.0,1.0,3
238484.1875,255414.734375,311118.59375,289104.53125,228581.015625,246198.671875,248771.265625,232033.5625,40377.0,1.0,3
238410.421875,255378.796875,311088.28125,289043.46875,228557.6875,246158.96875,248748.375,232010.046875,40378.0,1.0,3
238324.0625,255280.0,310981.1875,288961.03125,228360.90625,246096.65625,248477.921875,231987.0625,40379.0,1.0,3
238327.453125,255249.6875,310930.21875,288958.90625,228250.75,246091.015625,248314.484375,231992.078125,40380.0,1.0,3
238416.59375,255340.796875,311006.3125,289048.46875,228390.046875,246156.28125,248497.3125,232022.109375,40381.0,1.0,3
238480.96875,255433.609375,311100.0,289104.28125,228581.109375,246196.25,248768.9375,232035.265625,40382.0,1.0,3
238403.984375,255391.3125,311073.625,289047.6875,228563.40625,246159.140625,248755.96875,232014.609375,40383.0,1.0,3
238316.1875,255291.171875,310971.875,288967.84375,228371.71875,246100.859375,248490.875,231995.390625,40384.0,1.0,3
238322.265625,255259.703125,310923.78125,288966.0625,228260.765625,246096.296875,248327.09375,231995.109375,40385.0,1.0,3
238410.6875,255344.46875,310998.875,289050.625,228392.015625,246157.53125,248503.3125,232017.90625,40386.0,1.0,3
238486.953125,255444.6875,311106.4375,289116.25,228589.15625,246205.546875,248782.890625,232037.140625,40387.0,1.0,3
238412.484375,255403.375,311085.96875,289057.0625,228573.515625,246169.875,248772.875,232016.296875,40388.0,1.0,3
238326.828125,255302.890625,310988.78125,288978.84375,228386.828125,246115.875,248511.4375,231997.703125,40389.0,1.0,3
238334.703125,255268.734375,310935.9375,288971.0625,228270.234375,246104.25,248338.53125,231995.203125,40390.0,1.0,3
238420.703125,255347.234375,311005.59375,289050.90625,228396.9375,246161.203125,248504.203125,232019.171875,40391.0,1.0,3
238498.578125,255448.171875,311110.09375,289117.6875,228599.890625,246209.21875,248785.125,232039.109375,40392.0,1.0,3
238427.671875,255406.421875,311088.65625,289061.09375,228590.234375,246169.25,248780.109375,232017.5625,40393.0,1.0,3
238343.640625,255305.03125,310992.875,288978.84375,228403.453125,246107.828125,248517.96875,231997.96875,40394.0,1.0,3
238356.6875,255282.5,310945.9375,288971.78125,228290.171875,246101.75,248347.109375,232001.640625,40395.0,1.0,3
238434.828125,255355.640625,311010.0625,289048.125,228409.53125,246155.21875,248507.421875,232021.765625,40396.0,1.0,3
238509.578125,255454.171875,311113.9375,289110.4375,228606.328125,246206.359375,248786.640625,232040.796875,40397.0,1.0,3
238443.765625,255420.375,311097.0625,289054.21875,228598.0,246170.6875,248788.15625,232022.5625,40398.0,1.0,3
238354.359375,255315.140625,310993.4375,288969.09375,228402.296875,246105.6875,248517.96875,231997.171875,40399.0,1.0,3
238364.015625,255285.0,310943.4375,288968.375,228283.65625,246098.625,248342.734375,232000.390625,40400.0,1.0,3
238455.390625,255372.625,311015.40625,289053.75,228407.921875,246161.296875,248508.5,232027.5625,40401.0,1.0,3
238524.859375,255465.703125,311115.1875,289111.25,228601.5,246208.5,248784.9375,232040.171875,40402.0,1.0,3
238453.96875,255425.375,311100.4375,289055.8125,228594.25,246174.890625,248787.984375,232018.625,40403.0,1.0,3
238365.359375,255319.875,311002.0,288972.03125,228403.640625,246114.625,248523.25,231996.71875,40404.0,1.0,3
238367.859375,255280.09375,310946.65625,288959.625,228278.734375,246103.453125,248338.890625,231993.59375,40405.0,1.0,3
238447.890625,255351.078125,311008.0,289033.46875,228390.671875,246158.515625,248489.09375,232012.375,40406.0,1.0,3
238517.171875,255437.09375,311111.34375,289095.0625,228584.421875,246206.359375,248765.359375,232026.234375,40407.0,1.0,3
238447.890625,255399.1875,311105.1875,289046.15625,228584.5,246177.125,248774.84375,232009.6875,40408.0,1.0,3
238361.609375,255296.8125,311010.9375,288964.4375,228394.0625,246117.125,248511.171875,231988.234375,40409.0,1.0,3
238364.640625,255262.65625,310958.375,288955.84375,228268.625,246105.953125,248330.484375,231987.25,40410.0,1.0,3
238443.5,255343.5625,311026.6875,289039.1875,228387.359375,246167.46875,248492.046875,232016.390625,40411.0,1.0,3
238514.140625,255446.125,311132.90625,289104.0,228586.296875,246219.765625,248774.125,232033.015625,40412.0,1.0,3
238454.953125,255427.515625,311127.09375,289053.75,228586.828125,246188.734375,248791.203125,232013.71875,40413.0,1.0,3
238358.5625,255318.171875,311022.5625,288963.09375,228388.703125,246119.8125,248522.890625,231987.25,40414.0,1.0,3
238351.140625,255271.59375,310963.65625,288948.96875,228254.140625,246103.71875,248331.734375,231985.375,40415.0,1.0,3
238433.9375,255350.71875,311028.65625,289029.875,228367.421875,246163.890625,248485.0625,232010.765625,40416.0,1.0,3
238512.703125,255455.859375,311132.1875,289097.21875,228567.34375,246214.84375,248766.4375,232028.375,40417.0,1.0,3
238450.296875,255430.203125,311121.8125,289051.96875,228576.015625,246184.71875,248788.421875,232012.734375,40418.0,1.0,3
238364.203125,255334.890625,311021.78125,288967.65625,228389.78125,246121.328125,248528.4375,231989.296875,40419.0,1.0,3
238359.8125,255290.015625,310959.375,288950.9375,228256.828125,246103.71875,248332.1875,231987.34375,40420.0,1.0,3
238444.9375,255363.59375,311020.15625,289029.625,228368.328125,246160.3125,248478.09375,232011.390625,40421.0,1.0,3
238529.421875,255465.515625,311123.6875,289098.8125,228570.921875,246212.34375,248759.109375,232029.453125,40422.0,1.0,3
238475.515625,255439.40625,311117.875,289056.25,228585.765625,246183.828125,248783.15625,232014.78125,40423.0,1.0,3
238383.421875,255328.640625,311011.03125,288966.75,228395.40625,246114.265625,248520.125,231991.359375,40424.0,1.0,3
238396.296875,255294.84375,310955.875,288958.71875,228272.65625,246106.84375,248335.140625,231995.46875,40425.0,1.0,3
238476.140625,255360.28125,311009.4375,289034.1875,228379.859375,246156.109375,248473.453125,232015.40625,40426.0,1.0,3
238545.78125,255445.9375,311105.375,289098.375,228577.625,246205.109375,248749.53125,232029.359375,40427.0,1.0,3
238488.296875,255417.0625,311099.09375,289054.90625,228598.0,246183.28125,248780.375,232015.046875,40428.0,1.0,3
238404.875,255316.921875,310998.625,288970.0625,228418.5625,246125.984375,248524.5,231996.453125,40429.0,1.0,3
238410.515625,255278.75,310940.75,288954.78125,228288.921875,246115.78125,248330.125,231993.59375,40430.0,1.0,3
238494.734375,255352.234375,311004.78125,289030.5,228398.0,246175.234375,248471.21875,232016.296875,40431.0,1.0,3
238565.28125,255440.578125,311101.25,289093.1875,228594.34375,246218.6875,248746.046875,232027.390625,40432.0,1.0,3
238509.671875,255412.5,311092.03125,289048.9375,228607.65625,246185.4375,248773.046875,232010.9375,40433.0,1.0,3
238417.21875,255306.109375,310992.625,288964.15625,228422.6875,246121.5,248516.625,231993.0625,40434.0,1.0,3
238409.4375,255261.3125,310928.0625,288946.65625,228286.953125,246105.953125,248317.609375,231991.453125,40435.0,1.0,3
238491.6875,255341.6875,310993.34375,289025.15625,228398.09375,246164.78125,248460.03125,232017.828125,40436.0,1.0,3
238567.953125,255449.96875,311101.34375,289096.40625,228602.5625,246220.390625,248752.046875,232037.578125,40437.0,1.0,3
238509.21875,255433.875,311101.34375,289056.625,228619.375,246197.953125,248793.171875,232022.828125,40438.0,1.0,3
238403.984375,255328.015625,310995.65625,288962.84375,228423.125,246129.90625,248529.78125,231994.40625,40439.0,1.0,3
238391.109375,255281.4375,310929.78125,288944.40625,228281.953125,246111.21875,248328.703125,231990.46875,40440.0,1.0,3
238470.421875,255359.84375,310990.90625,289024.6875,228383.609375,246171.21875,248465.484375,232017.015625,40441.0,1.0,3
238537.296875,255457.296875,311095.25,289094.09375,228582.453125,246222.890625,248749.984375,232032.671875,40442.0,1.0,3
238481.328125,255443.171875,311094.28125,289053.5,228604.53125,246194.90625,248794.859375,232017.203125,40443.0,1.0,3
238382.078125,255340.625,310990.03125,288960.59375,228417.3125,246129.28125,248538.09375,231993.78125,40444.0,1.0,3
238371.171875,255296.546875,310924.59375,288940.46875,228281.0625,246110.953125,248336.03125,231990.109375,40445.0,1.0,3
238445.203125,255364.046875,310979.03125,289014.6875,228380.921875,246162.640625,248463.796875,232011.203125,40446.0,1.0,3
238522.0,255459.984375,311084.34375,289084.875,228584.15625,246217.4375,248748.375,232030.96875,40447.0,1.0,3
238469.875,255438.78125,311083.0,289043.375,228609.984375,246193.84375,248794.859375,232013.171875,40448.0,1.0,3
238374.75,255330.96875,310980.28125,288954.34375,228426.96875,246128.578125,248540.953125,231989.484375,40449.0,1.0,3
238368.046875,255284.296875,310914.84375,288937.09375,228286.953125,246108.359375,248336.46875,231989.578125,40450.0,1.0,3
238441.09375,255348.9375,310968.75,289012.0,228385.578125,246160.125,248460.390625,232012.90625,40451.0,1.0,3
238520.84375,255447.734375,311072.09375,289083.25,228588.171875,246212.609375,248741.3125,232031.765625,40452.0,1.0,3
238474.078125,255430.921875,311074.78125,289044.09375,228615.171875,246187.3125,248792.1875,232015.328125,40453.0,1.0,3
238376.984375,255324.53125,310970.8125,288950.65625,228425.984375,246119.890625,248532.90625,231991.09375,40454.0,1.0,3
238368.046875,255275.53125,310903.3125,288931.09375,228281.6875,246103.53125,248324.40625,231991.265625,40455.0,1.0,3
238448.875,255347.0625,310961.78125,289006.1875,228379.234375,246158.703125,248449.125,232014.78125,40456.0,1.0,3
238526.5625,255447.015625,311062.34375,289070.75,228578.6875,246206.359375,248732.109375,232028.28125,40457.0,1.0,3
238482.65625,255436.640625,311068.96875,289036.59375,228613.109375,246186.234375,248793.96875,232016.296875,40458.0,1.0,3
238391.015625,255339.90625,310973.5,288951.125,228435.90625,246126.78125,248548.1875,231996.09375,40459.0,1.0,3
238383.25,255291.0,310908.40625,288929.9375,228294.375,246109.96875,248339.78125,231993.78125,40460.0,1.0,3
238453.25,255348.75,310954.1875,288997.4375,228381.1875,246158.703125,248451.359375,232013.171875,40461.0,1.0,3
238534.34375,255448.796875,311059.6875,289070.9375,228586.03125,246212.796875,248737.015625,232032.75,40462.0,1.0,3
238487.40625,255437.453125,311066.1875,289031.3125,228620.890625,246191.78125,248798.171875,232020.15625,40463.0,1.0,3
238379.046875,255324.96875,310958.1875,288931.09375,228430.546875,246118.28125,248540.328125,231990.734375,40464.0,1.0,3
238371.4375,255276.15625,310890.53125,288912.03125,228287.046875,246100.59375,248330.578125,231987.6875,40465.0,1.0,3
238450.296875,255341.953125,310942.65625,288988.3125,228379.40625,246155.578125,248450.296875,232011.921875,40466.0,1.0,3
238533.359375,255444.0625,311048.21875,289063.875,228584.0625,246214.140625,248742.5625,232031.5,40467.0,1.0,3
238480.515625,255426.265625,311054.84375,289028.53125,228619.375,246191.6875,248806.125,232018.265625,40468.0,1.0,3
238380.109375,255323.0,310955.0625,288937.09375,228437.796875,246123.75,248557.046875,231992.609375,40469.0,1.0,3
238364.296875,255268.828125,310883.90625,288909.1875,228287.3125,246098.984375,248340.046875,231988.140625,40470.0,1.0,3
238427.859375,255319.78125,310928.96875,288975.09375,228366.171875,246147.34375,248442.421875,232009.78125,40471.0,1.0,3
238508.40625,255422.34375,311034.8125,289046.25,228567.078125,246203.84375,248725.75,232027.84375,40472.0,1.0,3
238470.765625,255422.421875,311049.65625,289016.375,228616.421875,246192.671875,248804.703125,232020.15625,40473.0,1.0,3
238368.3125,255314.25,310950.25,288923.21875,228439.40625,246128.84375,248561.78125,231996.359375,40474.0,1.0,3
238353.03125,255257.203125,310878.90625,288895.875,228286.15625,246103.265625,248341.390625,231988.859375,40475.0,1.0,3
238428.390625,255323.1875,310925.84375,288967.125,228367.0625,246157.625,248447.34375,232013.625,40476.0,1.0,3
238499.65625,255418.3125,311019.96875,289034.1875,228561.4375,246204.828125,248722.71875,232029.0,40477.0,1.0,3
238452.796875,255405.171875,311025.96875,289002.4375,228602.5625,246184.71875,248792.453125,232014.15625,40478.0,1.0,3
238360.625,255310.9375,310932.09375,288916.0625,228430.09375,246123.390625,248553.109375,231989.484375,40479.0,1.0,3
238344.53125,255258.546875,310862.25,288888.1875,228279.8125,246100.3125,248333.796875,231985.453125,40480.0,1.0,3
238407.203125,255310.40625,310901.875,288952.09375,228355.625,246146.265625,248426.78125,232001.8125,40481.0,1.0,3
238492.59375,255415.453125,311007.8125,289031.59375,228565.640625,246209.03125,248715.828125,232026.234375,40482.0,1.0,3
238460.765625,255417.59375,311024.8125,289008.34375,228617.3125,246193.5625,248797.015625,232016.578125,40483.0,1.0,3
238355.890625,255307.265625,310925.5625,288917.6875,228439.484375,246125.796875,248553.734375,231992.875,40484.0,1.0,3
238340.953125,255250.3125,310856.71875,288894.4375,228289.28125,246105.765625,248335.5,231991.265625,40485.0,1.0,3
238424.640625,255319.078125,310908.3125,288966.125,228372.34375,246162.359375,248437.421875,232012.109375,40486.0,1.0,3
238505.90625,255421.703125,311010.59375,289036.84375,228573.515625,246216.71875,248720.84375,232027.75,40487.0,1.0,3
238460.578125,255409.90625,311017.9375,289002.78125,228614.453125,246194.015625,248797.1875,232012.734375,40488.0,1.0,3
238355.796875,255297.796875,310917.96875,288911.96875,228437.25,246128.84375,248556.6875,231986.890625,40489.0,1.0,3
238338.71875,255236.90625,310846.25,288886.375,228285.265625,246106.21875,248336.46875,231985.546875,40490.0,1.0,3
238417.671875,255303.34375,310894.1875,288957.28125,228361.890625,246159.234375,248434.90625,232009.421875,40491.0,1.0,3
238506.984375,255414.015625,311005.84375,289036.5,228567.78125,246220.390625,248724.40625,232030.875,40492.0,1.0,3
238468.71875,255410.796875,311020.5,289005.84375,228617.140625,246202.953125,248807.828125,232018.1875,40493.0,1.0,3
238364.921875,255303.0625,310919.5,288910.96875,228439.484375,246136.609375,248568.046875,231990.203125,40494.0,1.0,3
238347.484375,255247.1875,310846.71875,288883.96875,228285.265625,246112.296875,248345.234375,231986.890625,40495.0,1.0,3
238418.828125,255305.125,310885.15625,288949.875,228353.5625,246157.453125,248428.296875,232006.5625,40496.0,1.0,3
238500.546875,255407.859375,310990.03125,289025.3125,228557.59375,246215.109375,248712.609375,232023.90625,40497.0,1.0,3
238464.875,255409.546875,311008.0,288999.84375,228616.875,246202.421875,248808.28125,232013.265625,40498.0,1.0,3
238364.46875,255307.890625,310913.75,288908.75,228446.90625,246139.125,248575.015625,231989.125,40499.0,1.0,3
238344.890625,255251.5625,310839.1875,288878.53125,228290.359375,246113.015625,248345.234375,231981.4375,40500.0,1.0,3
238421.234375,255315.765625,310880.875,288944.0625,228360.71875,246162.015625,248428.125,232000.921875,40501.0,1.0,3
238501.53125,255415.453125,310982.78125,289019.34375,228560.28125,246214.84375,248708.3125,232019.875,40502.0,1.0,3
238461.65625,255412.765625,311002.71875,288995.65625,228619.109375,246195.265625,248804.96875,232010.3125,40503.0,1.0,3
238357.5,255307.265625,310905.0,288903.46875,228447.09375,246127.5,248569.109375,231985.28125,40504.0,1.0,3
238335.859375,255248.890625,310826.59375,288871.625,228286.78125,246102.1875,248336.46875,231981.96875,40505.0,1.0,3
238415.703125,255313.96875,310874.4375,288943.78125,228360.453125,246159.0625,248424.984375,232010.9375,40506.0,1.0,3
238497.5,255414.921875,310977.5,289019.78125,228563.5,246219.3125,248709.03125,232031.0625,40507.0,1.0,3
238460.140625,255412.859375,310997.4375,288995.8125,228626.34375,246205.015625,248810.59375,232020.328125,40508.0,1.0,3
238358.203125,255305.484375,310897.65625,288897.84375,228448.96875,246130.359375,248573.84375,231990.90625,40509.0,1.0,3
238339.4375,255245.671875,310822.75,288864.9375,228287.859375,246105.5,248342.5625,231986.171875,40510.0,1.0,3
238410.0625,255299.765625,310863.6875,288932.78125,228353.65625,246153.515625,248419.625,232009.234375,40511.0,1.0,3
238501.53125,255406.875,310972.5,289013.25,228560.71875,246214.765625,248706.703125,232030.609375,40512.0,1.0,3
238474.34375,255415.453125,310994.5,288989.65625,228626.890625,246204.296875,248811.046875,232019.96875,40513.0,1.0,3
238365.984375,255304.671875,310895.15625,288895.96875,228456.125,246138.40625,248582.609375,231995.03125,40514.0,1.0,3
238339.4375,255236.28125,310816.3125,288860.375,228290.984375,246105.6875,248347.921875,231989.03125,40515.0,1.0,3
238415.4375,255291.984375,310855.1875,288926.71875,228351.0625,246150.03125,248417.203125,232009.15625,40516.0,1.0,3
238502.0625,255397.65625,310962.5,289006.71875,228554.28125,246212.796875,248700.546875,232028.828125,40517.0,1.0,3
238471.75,255402.484375,310990.375,288987.59375,228624.03125,246204.390625,248812.203125,232019.171875,40518.0,1.0,3
238368.40625,255301.015625,310894.375,288895.0625,228455.3125,246135.359375,248582.078125,231991.53125,40519.0,1.0,3
238344.984375,255239.328125,310815.0625,288861.25,228290.53125,246103.71875,248344.609375,231984.390625,40520.0,1.0,3
238409.796875,255285.640625,310847.5,288920.71875,228344.890625,246147.875,248412.375,232006.015625,40521.0,1.0,3
238500.8125,255396.765625,310956.0625,289002.4375,228549.90625,246213.5,248700.1875,232028.90625,40522.0,1.0,3
238472.375,255408.390625,310986.28125,288984.03125,228624.203125,246202.59375,248815.96875,232019.25,40523.0,1.0,3
238361.34375,255298.328125,310888.46875,288885.21875,228453.078125,246131.15625,248584.671875,231990.640625,40524.0,1.0,3
238338.8125,255237.984375,310812.1875,288854.125,228292.0625,246104.609375,248347.203125,231990.828125,40525.0,1.0,3
238404.171875,255288.046875,310843.03125,288915.0,228343.203125,246148.328125,248408.453125,232009.59375,40526.0,1.0,3
238490.625,255392.921875,310946.84375,288996.09375,228544.71875,246210.203125,248692.046875,232027.5625,40527.0,1.0,3
238464.609375,255403.375,310975.8125,288981.15625,228618.84375,246202.328125,248811.140625,232018.984375,40528.0,1.0,3
238371.890625,255314.953125,310890.25,288895.25,228463.53125,246143.859375,248598.078125,231998.6875,40529.0,1.0,3
238341.9375,255247.8125,310808.4375,288857.5,228295.453125,246109.96875,248355.4375,231988.140625,40530.0,1.0,3
238403.984375,255291.890625,310837.0625,288917.15625,228343.546875,246154.765625,248406.03125,232002.890625,40531.0,1.0,3
238492.046875,255396.140625,310939.4375,288996.34375,228542.578125,246213.234375,248682.296875,232022.109375,40532.0,1.0,3
238476.046875,255413.484375,310974.03125,288985.1875,228625.359375,246209.125,248807.46875,232019.171875,40533.0,1.0,3
238369.921875,255307.71875,310878.96875,288891.84375,228465.78125,246143.59375,248587.984375,231991.8125,40534.0,1.0,3
238338.359375,255235.75,310797.09375,288853.21875,228295.625,246110.6875,248345.953125,231983.3125,40535.0,1.0,3
238412.21875,255289.921875,310833.21875,288914.71875,228345.515625,246158.875,248405.140625,232005.9375,40536.0,1.0,3
238507.78125,255401.859375,310942.03125,288998.3125,228551.515625,246222.171875,248690.53125,232030.15625,40537.0,1.0,3
238487.484375,255416.34375,310973.84375,288985.1875,228632.78125,246211.625,248815.078125,232021.125,40538.0,1.0,3
238380.109375,255313.078125,310880.875,288891.21875,228469.703125,246143.59375,248595.125,231994.40625,40539.0,1.0,3
238342.296875,255236.015625,310795.65625,288847.0625,228294.828125,246108.71875,248345.140625,231984.390625,40540.0,1.0,3
238407.03125,255282.953125,310824.09375,288903.90625,228338.375,246149.765625,248395.03125,232000.921875,40541.0,1.0,3
238502.515625,255392.75,310932.8125,288988.40625,228543.296875,246213.78125,248683.546875,232026.140625,40542.0,1.0,3
238481.6875,255402.3125,310962.5,288974.1875,228622.6875,246203.9375,248811.5,232017.5625,40543.0,1.0,3
238375.46875,255297.875,310870.21875,288882.375,228464.34375,246137.25,248594.6875,231992.25,40544.0,1.0,3
238344.078125,255230.921875,310787.96875,288842.5,228295.0,246105.859375,248350.0625,231987.78125,40545.0,1.0,3
238411.234375,255281.515625,310819.875,288905.59375,228336.9375,246151.1875,248399.328125,232007.625,40546.0,1.0,3
238502.328125,255388.359375,310926.5625,288988.03125,228537.75,246214.84375,248678.453125,232031.234375,40547.0,1.0,3
238493.21875,255415.0,310964.8125,288979.0,228628.21875,246214.3125,248814.359375,232025.78125,40548.0,1.0,3
238391.296875,255320.140625,310876.5625,288886.46875,228474.453125,246150.296875,248603.53125,231997.34375,40549.0,1.0,3
238353.46875,255242.8125,310790.28125,288843.375,228301.984375,246117.125,248354.453125,231989.21875,40550.0,1.0,3
238403.984375,255272.484375,310809.6875,288896.59375,228335.6875,246152.984375,248391.28125,232005.671875,40551.0,1.0,3
238501.34375,255384.78125,310920.03125,288982.0625,228541.59375,246215.5625,248677.75,232029.359375,40552.0,1.0,3
238492.5,255408.75,310958.90625,288973.46875,228631.796875,246215.921875,248817.671875,232021.671875,40553.0,1.0,3
238393.25,255314.6875,310872.90625,288883.15625,228478.921875,246151.546875,248609.796875,231995.296875,40554.0,1.0,3
238356.6875,255237.625,310786.1875,288839.90625,228303.40625,246115.0625,248358.203125,231986.265625,40555.0,1.0,3
238419.359375,255276.875,310812.03125,288899.8125,228342.125,246161.03125,248400.046875,232009.15625,40556.0,1.0,3
238509.125,255386.75,310917.6875,288983.125,228542.3125,246220.65625,248681.765625,232032.9375,40557.0,1.0,3
238500.359375,255415.984375,310960.25,288979.375,228638.59375,246221.109375,248827.234375,232026.5,40558.0,1.0,3
238389.953125,255308.875,310869.34375,288884.5,228483.203125,246154.40625,248618.109375,231996.640625,40559.0,1.0,3
238353.46875,255238.421875,310785.09375,288841.15625,228309.9375,246121.234375,248366.96875,231990.015625,40560.0,1.0,3
238411.234375,255281.15625,310800.84375,288887.1875,228336.84375,246154.5,248392.984375,232005.75,40561.0,1.0,3
238493.390625,255381.03125,310899.8125,288966.40625,228533.1875,246212.796875,248667.546875,232027.296875,40562.0,1.0,3
238481.328125,255405.625,310940.75,288962.28125,228629.5625,246213.859375,248814.171875,232023.375,40563.0,1.0,3
238381.90625,255312.1875,310854.125,288871.09375,228479.984375,246148.859375,248609.875,231996.984375,40564.0,1.0,3
238343.71875,255239.59375,310764.0,288825.21875,228299.296875,246107.828125,248349.34375,231986.359375,40565.0,1.0,3
238399.96875,255274.453125,310782.59375,288880.03125,228323.53125,246140.46875,248373.84375,232003.078125,40566.0,1.0,3
238485.796875,255373.078125,310886.21875,288963.625,228520.9375,246200.09375,248651.71875,232021.21875,40567.0,1.0,3
238480.421875,255401.859375,310931.46875,288964.34375,228624.296875,246204.203125,248807.296875,232018.359375,40568.0,1.0,3
238376.265625,255305.484375,310844.65625,288870.375,228473.546875,246139.125,248606.75,231989.75,40569.0,1.0,3
238340.328125,255232.890625,310757.03125,288822.5625,228290.796875,246099.953125,248351.046875,231977.6875,40570.0,1.0,3
238397.015625,255267.9375,310776.53125,288871.09375,228313.78125,246132.6875,248371.4375,231995.65625,40571.0,1.0,3
238489.8125,255375.125,310883.8125,288957.8125,228514.953125,246196.703125,248650.5625,232020.5,40572.0,1.0,3
238485.078125,255403.203125,310928.875,288959.0,228619.546875,246203.9375,248807.921875,232020.15625,40573.0,1.0,3
238386.734375,255310.3125,310846.53125,288869.75,228476.953125,246143.59375,248614.625,231993.140625,40574.0,1.0,3
238348.375,255232.53125,310754.875,288818.09375,228292.6875,246098.0,248353.46875,231979.734375,40575.0,1.0,3
238404.875,255265.96875,310773.5625,288871.8125,228316.734375,246135.09375,248370.71875,231999.3125,40576.0,1.0,3
238503.5,255377.984375,310886.21875,288962.75,228526.125,246206.796875,248654.40625,232029.53125,40577.0,1.0,3
238493.390625,255404.1875,310929.21875,288960.40625,228630.109375,246208.140625,248811.5,232021.484375,40578.0,1.0,3
238385.75,255302.359375,310842.96875,288868.25,228486.0625,246145.921875,248616.59375,231993.953125,40579.0,1.0,3
238345.25,255225.640625,310749.875,288815.65625,228301.4375,246101.21875,248351.5,231982.421875,40580.0,1.0,3
238403.359375,255257.921875,310769.625,288867.53125,228323.53125,246136.53125,248368.390625,232002.265625,40581.0,1.0,3
238499.03125,255366.8125,310878.34375,288957.1875,228524.78125,246203.40625,248649.671875,232025.328125,40582.0,1.0,3
238489.640625,255392.203125,310919.3125,288948.53125,228623.84375,246196.703125,248804.796875,232015.953125,40583.0,1.0,3
238384.859375,255298.59375,310834.1875,288856.25,228481.421875,246134.109375,248614.171875,231992.96875,40584.0,1.0,3
238344.625,255225.015625,310746.5625,288808.96875,228300.640625,246099.953125,248355.875,231984.65625,40585.0,1.0,3
238399.78125,255257.5625,310762.21875,288859.5625,228315.84375,246134.734375,248363.5625,232000.921875,40586.0,1.0,3
238483.640625,255354.203125,310860.03125,288941.1875,228511.640625,246197.234375,248636.4375,232019.875,40587.0,1.0,3
238480.609375,255386.3125,310908.21875,288942.0,228624.03125,246207.25,248804.078125,232017.203125,40588.0,1.0,3
238382.34375,255298.859375,310829.09375,288852.78125,228487.859375,246151.546875,248620.96875,231995.109375,40589.0,1.0,3
238341.3125,255225.015625,310738.25,288801.1875,228304.65625,246112.484375,248362.40625,231984.390625,40590.0,1.0,3
238394.515625,255256.9375,310750.59375,288849.71875,228315.125,246149.046875,248369.109375,231999.765625,40591.0,1.0,3
238480.96875,255357.15625,310851.96875,288933.9375,228507.171875,246210.921875,248640.640625,232021.84375,40592.0,1.0,3
238475.59375,255384.078125,310898.125,288934.84375,228615.078125,246212.34375,248804.96875,232017.640625,40593.0,1.0,3
238375.28125,255291.625,310818.09375,288845.875,228480.34375,246152.703125,248621.5,231995.5625,40594.0,1.0,3
238339.53125,255216.609375,310728.59375,288796.0,228299.390625,246109.171875,248360.171875,231984.390625,40595.0,1.0,3
238396.46875,255242.625,310740.5,288842.5,228310.921875,246140.375,248362.21875,231999.671875,40596.0,1.0,3
238490.4375,255346.96875,310844.125,288928.9375,228512.171875,246204.296875,248635.625,232022.921875,40597.0,1.0,3
238492.140625,255383.265625,310897.3125,288935.03125,228632.515625,246213.328125,248810.328125,232022.109375,40598.0,1.0,3
238387.0,255288.046875,310812.8125,288841.78125,228493.84375,246146.546875,248625.265625,231992.703125,40599.0,1.0,3
238348.375,255213.921875,310720.03125,288787.59375,228303.140625,246103.53125,248360.796875,231979.734375,40600.0,1.0,3
238405.859375,255246.5625,310731.71875,288834.53125,228306.625,246138.21875,248360.265625,231996.8125,40601.0,1.0,3
238495.625,255353.40625,310834.1875,288921.78125,228499.84375,246206.09375,248635.28125,232022.734375,40602.0,1.0,3
238491.6875,255388.09375,310885.78125,288928.125,228614.1875,246209.65625,248812.5625,232019.875,40603.0,1.0,3
238394.6875,255306.28125,310812.46875,288846.15625,228486.875,246151.28125,248641.078125,231999.046875,40604.0,1.0,3
238346.859375,255228.859375,310716.96875,288791.0,228296.609375,246102.828125,248371.34375,231984.296875,40605.0,1.0,3
238404.34375,255264.625,310729.59375,288837.65625,228303.5,246135.28125,248366.875,232005.578125,40606.0,1.0,3
238499.46875,255376.5625,310834.8125,288923.75,228502.4375,246200.546875,248638.671875,232031.234375,40607.0,1.0,3
238501.0,255420.015625,310891.15625,288935.125,228627.875,246210.5625,248821.328125,232033.015625,40608.0,1.0,3
238382.4375,255321.125,310796.0,288833.8125,228484.546875,246137.328125,248631.875,231997.34375,40609.0,1.0,3
238342.296875,255255.953125,310708.40625,288786.875,228303.765625,246100.3125,248369.734375,231994.40625,40610.0,1.0,3
238396.65625,255294.03125,310719.9375,288834.53125,228307.34375,246137.875,248361.6875,232014.515625,40611.0,1.0,3
238483.203125,255399.71875,310818.375,288915.96875,228496.625,246200.71875,248625.96875,232038.5625,40612.0,1.0,3
238479.71875,255434.765625,310870.125,288923.21875,228616.6875,246207.703125,248808.015625,232035.53125,40613.0,1.0,3
238373.671875,255348.484375,310793.15625,288837.03125,228488.296875,246150.03125,248638.765625,232007.90625,40614.0,1.0,3
238330.9375,255273.75,310705.53125,288787.5,228306.0,246112.125,248379.03125,231998.0625,40615.0,1.0,3
238383.875,255302.4375,310712.0625,288830.5,228303.5,246139.921875,248365.359375,232012.640625,40616.0,1.0,3
238473.8125,255406.515625,310817.46875,288919.03125,228498.234375,246203.5,248636.609375,232037.765625,40617.0,1.0,3
238478.546875,255446.125,310875.40625,288931.8125,228623.9375,246210.828125,248822.3125,232037.3125,40618.0,1.0,3
238377.96875,255362.703125,310800.84375,288845.71875,228500.546875,246150.296875,248657.265625,232011.65625,40619.0,1.0,3
238333.796875,255284.03125,310712.15625,288794.03125,228316.203125,246110.6875,248394.859375,232001.375,40620.0,1.0,3
238383.25,255303.15625,310719.65625,288837.40625,228313.15625,246139.03125,248373.125,232016.125,40621.0,1.0,3
238472.203125,255400.25,310816.75,288923.21875,228508.515625,246201.703125,248636.890625,232039.375,40622.0,1.0,3
238484.453125,255440.3125,310874.96875,288933.9375,228640.390625,246211.453125,248828.03125,232036.953125,40623.0,1.0,3
238389.59375,255353.765625,310802.8125,288847.75,228523.4375,246152.0,248665.5,232012.015625,40624.0,1.0,3
238346.859375,255275.078125,310713.3125,288793.59375,228339.359375,246107.109375,248398.796875,232000.75,40625.0,1.0,3
238399.96875,255297.875,310714.84375,288831.65625,228326.03125,246129.46875,248371.078125,232010.3125,40626.0,1.0,3
238497.0625,255404.28125,310819.625,288921.875,228519.859375,246199.203125,248639.75,232035.703125,40627.0,1.0,3
238512.890625,255453.71875,310882.03125,288937.78125,228651.390625,246217.34375,248836.265625,232038.484375,40628.0,1.0,3
238413.640625,255367.890625,310808.875,288851.96875,228530.6875,246161.46875,248677.75,232014.34375,40629.0,1.0,3
238365.09375,255280.984375,310714.125,288793.84375,228338.28125,246115.25,248408.1875,231998.328125,40630.0,1.0,3
238419.625,255299.671875,310717.25,288833.625,228323.890625,246140.640625,248379.75,232013.796875,40631.0,1.0,3
238512.25,255399.71875,310815.3125,288916.78125,228509.859375,246201.265625,248640.90625,232036.953125,40632.0,1.0,3
238531.125,255455.59375,310882.28125,288933.25,228645.65625,246216.8125,248841.359375,232038.484375,40633.0,1.0,3
238429.28125,255372.984375,310810.78125,288845.71875,228525.234375,246156.5625,248680.0625,232011.203125,40634.0,1.0,3
238376.984375,255289.484375,310716.71875,288784.1875,228331.21875,246111.671875,248407.109375,231996.546875,40635.0,1.0,3
238421.953125,255309.6875,310720.65625,288821.03125,228314.3125,246139.125,248375.09375,232009.953125,40636.0,1.0,3
238505.546875,255405.890625,310823.5625,288909.09375,228501.171875,246203.9375,248635.453125,232036.0625,40637.0,1.0,3
238521.375,255453.71875,310890.34375,288928.59375,228637.875,246218.6875,248833.84375,232036.78125,40638.0,1.0,3
238418.375,255368.609375,310820.15625,288841.25,228519.5,246159.6875,248679.625,232010.140625,40639.0,1.0,3
238367.234375,255289.484375,310729.59375,288785.71875,228329.25,246116.765625,248414.53125,231998.25,40640.0,1.0,3
238403.1875,255300.125,310722.34375,288818.625,228301.53125,246136.53125,248367.140625,232008.890625,40641.0,1.0,3
238489.90625,255404.1875,310824.1875,288908.28125,228487.40625,246202.15625,248626.328125,232031.953125,40642.0,1.0,3
238499.203125,255454.171875,310890.4375,288926.1875,228623.671875,246215.921875,248832.234375,232033.296875,40643.0,1.0,3
238398.171875,255374.859375,310825.875,288840.6875,228514.765625,246159.6875,248688.03125,232010.671875,40644.0,1.0,3
238339.875,255291.359375,310730.375,288779.1875,228320.75,246114.71875,248415.875,231992.875,40645.0,1.0,3
238378.0625,255303.515625,310720.65625,288809.5,228289.015625,246131.875,248366.609375,232000.484375,40646.0,1.0,3
238473.546875,255409.015625,310818.46875,288895.6875,228474.09375,246195.171875,248624.90625,232024.4375,40647.0,1.0,3
238498.125,255467.578125,310886.0625,288916.96875,228617.046875,246216.640625,248832.59375,232031.5,40648.0,1.0,3
238401.921875,255388.71875,310820.15625,288835.78125,228511.546875,246164.515625,248689.359375,232009.6875,40649.0,1.0,3
238344.625,255298.953125,310720.65625,288774.90625,228318.15625,246114.890625,248415.25,231993.953125,40650.0,1.0,3
238386.375,255311.109375,310714.65625,288813.4375,228295.1875,246139.125,248368.9375,232008.078125,40651.0,1.0,3
238481.328125,255413.484375,310811.21875,288899.71875,228481.953125,246200.71875,248621.421875,232028.90625,40652.0,1.0,3
238504.65625,255464.890625,310878.90625,288920.375,228627.15625,246217.703125,248827.140625,232028.640625,40653.0,1.0,3
238407.5625,255382.8125,310808.25,288834.71875,228519.234375,246157.09375,248681.3125,232003.421875,40654.0,1.0,3
238349.890625,255287.515625,310705.0,288768.71875,228324.421875,246103.453125,248399.78125,231987.34375,40655.0,1.0,3
238390.125,255289.203125,310692.46875,288798.5,228295.90625,246124.90625,248342.109375,232000.921875,40656.0,1.0,3
238495.1875,255396.9375,310792.71875,288890.78125,228488.21875,246196.25,248599.421875,232029.09375,40657.0,1.0,3
238516.375,255445.671875,310855.125,288910.15625,228630.46875,246209.578125,248808.8125,232029.265625,40658.0,1.0,3
238422.84375,255363.5,310790.84375,288828.4375,228530.59375,246158.15625,248675.234375,232006.921875,40659.0,1.0,3
238362.140625,255267.484375,310693.09375,288764.25,228336.40625,246112.75,248399.328125,231990.46875,40660.0,1.0,3
238408.71875,255277.59375,310689.625,288798.6875,228309.671875,246142.609375,248348.546875,232007.09375,40661.0,1.0,3
238506.359375,255378.4375,310789.5625,288887.90625,228493.21875,246208.671875,248601.828125,232031.59375,40662.0,1.0,3
238532.46875,255429.125,310862.53125,288913.21875,228642.359375,246227.359375,248817.484375,232036.78125,40663.0,1.0,3
238434.921875,255346.15625,310794.40625,288829.0625,228540.609375,246162.359375,248680.609375,232008.078125,40664.0,1.0,3
238371.625,255252.109375,310693.8125,288760.5,228342.578125,246104.875,248402.015625,231989.125,40665.0,1.0,3
238410.0625,255262.390625,310683.53125,288788.21875,228304.125,246123.75,248338.984375,232002.890625,40666.0,1.0,3
238502.6875,255369.671875,310783.84375,288877.1875,228489.640625,246194.375,248596.5625,232031.140625,40667.0,1.0,3
238527.453125,255435.03125,310857.34375,288901.9375,228637.34375,246217.265625,248819.71875,232034.625,40668.0,1.0,3
238425.359375,255361.359375,310793.0625,288819.5,228531.484375,246161.65625,248690.53125,232008.25,40669.0,1.0,3
238364.640625,255276.6875,310696.25,288755.75,228330.859375,246107.828125,248415.15625,231990.375,40670.0,1.0,3
238394.0625,255281.609375,310680.78125,288781.34375,228284.28125,246123.390625,248345.59375,231998.0625,40671.0,1.0,3
238478.734375,255381.5625,310778.03125,288870.46875,228465.328125,246192.859375,248597.8125,232021.9375,40672.0,1.0,3
238511.359375,255453.09375,310858.25,288905.78125,228623.578125,246220.65625,248827.5,232031.0625,40673.0,1.0,3
238410.953125,255382.28125,310794.3125,288821.75,228523.53125,246162.90625,248700.8125,232002.265625,40674.0,1.0,3
238344.265625,255293.859375,310694.34375,288755.3125,228326.203125,246109.703125,248423.640625,231986.703125,40675.0,1.0,3
238379.046875,255304.234375,310683.8125,288784.71875,228286.953125,246129.90625,248355.96875,232000.296875,40676.0,1.0,3
238470.59375,255405.4375,310779.375,288875.84375,228468.1875,246194.546875,248604.609375,232024.171875,40677.0,1.0,3
238495.09375,255459.0,310845.53125,288900.5,228615.796875,246212.796875,248823.46875,232027.296875,40678.0,1.0,3
238395.046875,255377.28125,310777.875,288815.5625,228517.890625,246155.578125,248696.25,232002.359375,40679.0,1.0,3
238332.734375,255283.671875,310678.4375,288748.6875,228323.4375,246103.984375,248419.984375,231989.03125,40680.0,1.0,3
238373.859375,255286.34375,310660.75,288776.3125,228278.5625,246121.328125,248344.609375,231997.796875,40681.0,1.0,3
238475.78125,255390.234375,310757.75,288869.5625,228463.09375,246191.609375,248593.078125,232026.234375,40682.0,1.0,3
238508.328125,255453.0,310835.625,288898.09375,228622.421875,246217.4375,248823.46875,232036.0625,40683.0,1.0,3
238411.046875,255375.21875,310775.71875,288815.3125,228532.46875,246160.84375,248702.0625,232009.421875,40684.0,1.0,3
238351.234375,255283.21875,310677.71875,288749.6875,228339.890625,246110.6875,248427.3125,231994.046875,40685.0,1.0,3
238390.3125,255288.046875,310661.625,288776.40625,228295.71875,246127.671875,248350.515625,232004.5,40686.0,1.0,3
238479.796875,255383.796875,310752.84375,288862.0625,228472.03125,246190.265625,248588.328125,232028.546875,40687.0,1.0,3
238517.53125,255451.84375,310834.375,288894.78125,228631.625,246218.609375,248821.234375,232038.5625,40688.0,1.0,3
238424.453125,255379.515625,310775.4375,288813.875,228540.421875,246163.171875,248706.625,232012.28125,40689.0,1.0,3
238362.234375,255288.5,310676.5625,288743.15625,228339.890625,246108.546875,248427.84375,231993.140625,40690.0,1.0,3
238395.046875,255288.40625,310657.625,288764.34375,228288.75,246122.84375,248348.359375,232002.09375,40691.0,1.0,3
238484.265625,255384.875,310747.46875,288849.625,228461.03125,246186.5,248585.03125,232025.78125,40692.0,1.0,3
238517.0,255449.34375,310823.28125,288882.375,228617.3125,246211.984375,248812.5625,232031.953125,40693.0,1.0,3
238421.0625,255374.328125,310766.875,288802.4375,228532.203125,246158.25,248704.5625,232006.109375,40694.0,1.0,3
238354.359375,255276.609375,310667.0,288730.625,228333.265625,246103.984375,248426.859375,231988.59375,40695.0,1.0,3
238392.625,255280.71875,310652.25,288757.5625,228283.828125,246123.46875,248341.21875,231999.3125,40696.0,1.0,3
238486.859375,255379.515625,310746.40625,288846.875,228461.296875,246192.40625,248580.640625,232024.34375,40697.0,1.0,3
238517.625,255438.609375,310820.59375,288876.375,228614.453125,246213.5,248811.9375,232027.125,40698.0,1.0,3
238423.03125,255367.078125,310764.90625,288797.875,228531.046875,246159.421875,248707.609375,232003.15625,40699.0,1.0,3
238355.703125,255272.84375,310664.3125,288727.25,228333.1875,246104.875,248429.734375,231985.546875,40700.0,1.0,3
238383.6875,255268.5625,310644.46875,288750.125,228279.984375,246120.34375,248342.28125,231996.90625,40701.0,1.0,3
238474.078125,255364.765625,310734.3125,288837.5625,228448.609375,246184.984375,248576.359375,232022.5625,40702.0,1.0,3
238508.0625,255430.390625,310810.15625,288871.09375,228603.8125,246208.328125,248807.03125,232027.125,40703.0,1.0,3
238404.96875,255353.140625,310749.96875,288790.28125,228519.328125,246154.234375,248701.609375,232001.015625,40704.0,1.0,3
238329.515625,255251.484375,310647.96875,288720.8125,228322.546875,246101.5625,248425.078125,231986.359375,40705.0,1.0,3
238365.0,255254.4375,310630.34375,288747.8125,228270.421875,246121.328125,248335.046875,231999.765625,40706.0,1.0,3
238461.296875,255358.140625,310721.53125,288837.46875,228443.421875,246187.578125,248565.171875,232024.34375,40707.0,1.0,3
238506.71875,255436.28125,310804.875,288874.5,228613.390625,246218.15625,248805.140625,232033.5625,40708.0,1.0,3
238410.6875,255364.484375,310750.875,288795.90625,228537.125,246167.28125,248706.171875,232007.625,40709.0,1.0,3
238338.265625,255268.828125,310650.625,288724.28125,228342.484375,246113.1875,248428.390625,231988.765625,40710.0,1.0,3
238366.53125,255264.890625,310626.59375,288742.875,228284.28125,246125.171875,248330.03125,231998.0625,40711.0,1.0,3
238466.65625,255368.421875,310719.125,288834.8125,228459.96875,246191.953125,248564.015625,232026.234375,40712.0,1.0,3
238513.78125,255444.0625,310804.5,288874.75,228632.34375,246224.953125,248808.546875,232035.4375,40713.0,1.0,3
238424.546875,255377.28125,310752.46875,288796.0,228560.09375,246175.59375,248715.65625,232011.46875,40714.0,1.0,3
238351.59375,255271.5,310651.96875,288721.875,228363.578125,246120.796875,248437.859375,231993.59375,40715.0,1.0,3
238385.203125,255266.859375,310629.90625,288742.1875,228299.484375,246132.140625,248337.640625,232001.546875,40716.0,1.0,3
238477.125,255361.1875,310714.21875,288826.65625,228459.34375,246190.265625,248559.09375,232021.046875,40717.0,1.0,3
238528.265625,255435.84375,310801.375,288871.8125,228629.125,246225.75,248807.5625,232032.484375,40718.0,1.0,3
238427.59375,255353.21875,310741.9375,288789.8125,228544.90625,246168.0,248707.6875,232001.8125,40719.0,1.0,3
238360.265625,255259.265625,310638.75,288719.375,228345.96875,246115.15625,248430.171875,231985.90625,40720.0,1.0,3
238392.8125,255258.09375,310617.46875,288739.84375,228285.796875,246128.578125,248332.453125,231997.265625,40721.0,1.0,3
238484.0,255352.59375,310707.0625,288827.28125,228453.96875,246193.296875,248561.328125,232022.203125,40722.0,1.0,3
238522.71875,255420.09375,310789.65625,288866.625,228621.34375,246220.21875,248805.59375,232026.578125,40723.0,1.0,3
238420.265625,255344.734375,310733.15625,288785.625,228544.984375,246163.703125,248711.71875,231998.953125,40724.0,1.0,3
238355.96875,255258.28125,310638.21875,288717.59375,228352.859375,246114.0,248439.65625,231986.625,40725.0,1.0,3
238383.421875,255255.234375,310614.0625,288735.03125,228285.703125,246126.875,248331.734375,231996.90625,40726.0,1.0,3
238473.546875,255351.609375,310700.71875,288822.46875,228450.84375,246194.546875,248553.828125,232023.015625,40727.0,1.0,3
238513.78125,255422.609375,310780.71875,288861.8125,228619.203125,246218.953125,248797.90625,232031.140625,40728.0,1.0,3
238433.125,255371.640625,310740.5,288794.65625,228559.828125,246173.546875,248722.71875,232010.140625,40729.0,1.0,3
238353.46875,255269.8125,310631.875,288715.625,228355.171875,246114.09375,248440.8125,231988.859375,40730.0,1.0,3
238370.09375,255251.296875,310595.28125,288726.53125,228278.28125,246117.125,248324.578125,231994.40625,40731.0,1.0,3
238466.578125,255351.53125,310686.5,288817.53125,228445.125,246183.28125,248550.96875,232021.765625,40732.0,1.0,3
238515.828125,255433.25,310774.75,288860.0,228621.703125,246218.953125,248803.625,232033.109375,40733.0,1.0,3
238429.375,255370.75,310727.15625,288786.59375,228559.921875,246169.515625,248729.859375,232010.671875,40734.0,1.0,3
238355.265625,255269.265625,310623.8125,288711.5,228361.796875,246110.515625,248448.953125,231990.90625,40735.0,1.0,3
238375.203125,255250.859375,310590.375,288721.625,228283.828125,246114.71875,248326.8125,231996.640625,40736.0,1.0,3
238461.390625,255340.4375,310671.1875,288802.96875,228439.21875,246176.046875,248538.265625,232019.96875,40737.0,1.0,3
238513.515625,255422.875,310757.3125,288846.34375,228613.296875,246210.203125,248787.984375,232028.90625,40738.0,1.0,3
238426.96875,255362.4375,310711.53125,288775.34375,228555.1875,246164.6875,248716.90625,232007.1875,40739.0,1.0,3
238350.96875,255261.5,310607.09375,288696.84375,228356.703125,246105.765625,248436.609375,231987.34375,40740.0,1.0,3
238374.03125,255246.5625,310573.84375,288709.625,228278.828125,246113.109375,248315.546875,231993.859375,40741.0,1.0,3
238467.640625,255341.328125,310660.5625,288797.875,228438.5,246178.453125,248532.640625,232018.71875,40742.0,1.0,3
238517.796875,255416.609375,310752.21875,288844.625,228616.609375,246209.84375,248786.90625,232028.46875,40743.0,1.0,3
238430.1875,255351.171875,310707.21875,288773.03125,228557.421875,246161.65625,248715.03125,232005.484375,40744.0,1.0,3
238361.515625,255257.734375,310607.8125,288703.0,228361.34375,246108.8125,248442.25,231987.15625,40745.0,1.0,3
238385.75,255244.953125,310576.96875,288717.125,228284.453125,246114.625,248321.453125,231990.90625,40746.0,1.0,3
238476.046875,255339.1875,310661.625,288803.3125,228444.234375,246178.1875,248533.0,232018.546875,40747.0,1.0,3
238526.921875,255415.546875,310747.1875,288844.0,228616.421875,246209.3125,248783.6875,232027.125,40748.0,1.0,3
238441.09375,255354.828125,310706.96875,288773.46875,228561.4375,246161.46875,248719.140625,232002.890625,40749.0,1.0,3
238367.421875,255259.96875,310607.09375,288698.71875,228366.984375,246104.4375,248445.28125,231988.3125,40750.0,1.0,3
238389.5,255249.421875,310573.125,288709.375,228281.78125,246110.953125,248320.921875,231993.78125,40751.0,1.0,3
238480.15625,255344.109375,310658.6875,288798.5,228436.53125,246178.1875,248531.5625,232019.25,40752.0,1.0,3
238525.484375,255416.53125,310742.71875,288838.8125,228608.46875,246206.171875,248779.671875,232026.671875,40753.0,1.0,3
238437.609375,255360.015625,310700.96875,288766.84375,228555.53125,246158.796875,248716.1875,232001.1875,40754.0,1.0,3
238357.3125,255260.421875,310599.5,288689.6875,228359.734375,246102.640625,248441.53125,231982.328125,40755.0,1.0,3
238386.109375,255253.984375,310570.96875,288705.0625,228281.421875,246110.515625,248319.3125,231993.59375,40756.0,1.0,3
238472.734375,255341.78125,310653.40625,288793.125,228434.65625,246173.0,248528.96875,232019.078125,40757.0,1.0,3
238528.984375,255426.0,310743.96875,288842.125,228615.703125,246209.9375,248791.296875,232029.796875,40758.0,1.0,3
238441.0,255365.921875,310701.25,288770.25,228562.25,246162.09375,248731.390625,232005.75,40759.0,1.0,3
238354.8125,255258.90625,310595.28125,288689.96875,228361.4375,246104.4375,248452.34375,231983.9375,40760.0,1.0,3
238374.390625,255246.109375,310557.3125,288698.71875,228274.265625,246109.4375,248317.875,231989.390625,40761.0,1.0,3
238467.46875,255341.0625,310640.1875,288787.3125,228427.15625,246173.28125,248522.171875,232016.578125,40762.0,1.0,3
238516.015625,255417.15625,310729.40625,288835.34375,228607.21875,246207.34375,248781.8125,232025.6875,40763.0,1.0,3
238431.703125,255361.0,310692.5625,288771.15625,228563.578125,246163.34375,248729.953125,232003.703125,40764.0,1.0,3
238356.6875,255268.828125,310593.6875,288694.78125,228369.21875,246109.796875,248457.359375,231985.453125,40765.0,1.0,3
238371.359375,255251.296875,310557.21875,288700.96875,228277.75,246111.765625,248319.9375,231991.890625,40766.0,1.0,3
238459.953125,255340.0,310637.75,288785.34375,228428.046875,246174.34375,248520.203125,232016.84375,40767.0,1.0,3
238511.546875,255415.0,310726.71875,288833.71875,228609.71875,246207.96875,248777.96875,232025.953125,40768.0,1.0,3
238434.203125,255361.453125,310694.53125,288771.5,228570.109375,246165.671875,248734.0625,232008.53125,40769.0,1.0,3
238359.375,255264.0,310590.03125,288690.125,228370.375,246106.3125,248457.359375,231987.25,40770.0,1.0,3
238380.5625,255246.390625,310549.6875,288696.125,228276.59375,246111.140625,248318.328125,231990.734375,40771.0,1.0,3
238467.734375,255334.890625,310627.84375,288778.375,228419.734375,246172.734375,248515.640625,232014.96875,40772.0,1.0,3
238526.734375,255422.0625,310724.9375,288832.03125,228605.15625,246213.328125,248781.1875,232028.828125,40773.0,1.0,3
238434.109375,255359.390625,310683.71875,288762.125,228562.515625,246168.09375,248734.78125,232004.765625,40774.0,1.0,3
238354.359375,255259.96875,310579.75,288682.71875,228364.921875,246106.671875,248460.484375,231984.65625,40775.0,1.0,3
238369.203125,255237.625,310537.1875,288685.40625,228268.546875,246106.484375,248314.578125,231989.75,40776.0,1.0,3
238457.546875,255323.09375,310617.375,288771.0625,228417.40625,246171.9375,248511.265625,232017.828125,40777.0,1.0,3
238518.421875,255409.640625,310709.90625,288821.9375,228601.84375,246208.5,248775.109375,232026.5,40778.0,1.0,3
238441.359375,255362.96875,310678.34375,288755.21875,228566.53125,246167.28125,248736.578125,232002.890625,40779.0,1.0,3
238358.484375,255260.59375,310577.15625,288676.625,228374.484375,246112.03125,248467.640625,231985.546875,40780.0,1.0,3
238368.9375,255233.0625,310535.125,288679.84375,228279.625,246117.3125,248322.796875,231990.90625,40781.0,1.0,3
238469.609375,255335.4375,310620.875,288772.3125,228432.875,246192.671875,248526.640625,232021.671875,40782.0,1.0,3
238530.765625,255425.90625,310716.625,288825.15625,228619.203125,246231.484375,248793.171875,232036.6875,40783.0,1.0,3
238449.046875,255374.765625,310687.90625,288763.90625,228588.265625,246187.40625,248758.484375,232015.046875,40784.0,1.0,3
238363.3125,255269.984375,310579.375,288680.125,228387.09375,246123.921875,248481.046875,231991.53125,40785.0,1.0,3
238375.015625,255246.5625,310531.71875,288679.5,228279.71875,246118.921875,248325.5625,231993.328125,40786.0,1.0,3
238451.28125,255324.703125,310602.4375,288755.75,228410.96875,246173.90625,248507.25,232014.15625,40787.0,1.0,3
238510.640625,255410.359375,310696.9375,288809.5,228596.125,246213.234375,248773.859375,232026.765625,40788.0,1.0,3
238433.046875,255364.578125,310665.3125,288744.84375,228565.1875,246166.5625,248738.8125,232002.53125,40789.0,1.0,3
238338.546875,255253.53125,310553.71875,288655.625,228363.046875,246096.390625,248455.46875,231977.40625,40790.0,1.0,3
238348.28125,255226.890625,310507.6875,288656.53125,228259.328125,246092.984375,248299.546875,231980.359375,40791.0,1.0,3
238438.234375,255317.546875,310579.5625,288741.625,228397.640625,246153.0625,248485.875,232003.78125,40792.0,1.0,3
238501.265625,255409.1875,310675.21875,288798.3125,228587.8125,246191.953125,248756.234375,232015.40625,40793.0,1.0,3
238423.484375,255361.890625,310647.59375,288737.875,228560.28125,246150.296875,248728.96875,231995.390625,40794.0,1.0,3
238347.75,255269.984375,310551.65625,288662.875,228368.234375,246095.484375,248461.203125,231979.5625,40795.0,1.0,3
238349.171875,255235.390625,310504.625,288660.1875,228259.953125,246092.359375,248299.109375,231981.25,40796.0,1.0,3
238444.671875,255328.734375,310586.90625,288749.6875,228403.90625,246163.625,248487.578125,232011.828125,40797.0,1.0,3
238514.9375,255424.75,310689.4375,288811.09375,228597.65625,246211.09375,248761.15625,232028.828125,40798.0,1.0,3
238438.046875,255375.9375,310667.28125,288752.28125,228574.5,246172.5625,248744.171875,232008.703125,40799.0,1.0,3
238345.875,255265.0625,310558.09375,288663.40625,228373.953125,246105.40625,248468.34375,231982.515625,40800.0,1.0,3
238363.390625,255243.34375,310514.28125,288664.375,228270.953125,246104.703125,248309.921875,231989.75,40801.0,1.0,3
238451.375,255329.0,310587.0625,288747.1875,228406.671875,246170.140625,248491.421875,232015.671875,40802.0,1.0,3
238512.890625,255410.890625,310682.1875,288803.25,228598.359375,246211.265625,248763.296875,232027.296875,40803.0,1.0,3
238440.015625,255367.796875,310660.28125,288746.1875,228580.390625,246169.96875,248750.078125,232007.71875,40804.0,1.0,3
238357.9375,255268.015625,310557.75,288661.4375,228385.671875,246106.390625,248479.078125,231987.515625,40805.0,1.0,3
238362.328125,255230.109375,310502.75,288653.75,228265.953125,246096.203125,248306.875,231988.40625,40806.0,1.0,3
238452.53125,255313.34375,310577.875,288741.5625,228397.109375,246158.609375,248481.3125,232012.734375,40807.0,1.0,3
238522.265625,255406.15625,310681.9375,288805.03125,228592.90625,246206.625,248760.53125,232030.25,40808.0,1.0,3
238457.453125,255370.484375,310665.65625,288754.0625,228579.140625,246171.75,248755.53125,232011.921875,40809.0,1.0,3
238374.03125,255269.1875,310565.34375,288672.625,228387.984375,246112.390625,248488.46875,231990.734375,40810.0,1.0,3
238373.3125,255226.625,310509.71875,288661.53125,228270.859375,246100.40625,248312.78125,231990.375,40811.0,1.0,3
238457.71875,255306.90625,310579.84375,288742.96875,228400.78125,246164.953125,248484.171875,232017.28125,40812.0,1.0,3
238530.140625,255406.78125,310681.3125,288804.40625,228598.984375,246217.265625,248762.765625,232030.78125,40813.0,1.0,3
238454.40625,255365.03125,310655.1875,288746.5625,228583.171875,246180.421875,248756.0625,232008.96875,40814.0,1.0,3
238365.0,255260.328125,310550.9375,288659.84375,228388.078125,246121.59375,248490.796875,231987.515625,40815.0,1.0,3
238373.59375,255229.125,310504.09375,288655.625,228274.0,246118.203125,248322.171875,231993.5,40816.0,1.0,3
238458.609375,255313.53125,310577.0625,288734.65625,228399.796875,246178.90625,248489.890625,232021.125,40817.0,1.0,3
238521.203125,255400.34375,310673.0,288789.65625,228588.265625,246220.65625,248759.375,232031.859375,40818.0,1.0,3
238453.25,255365.65625,310656.4375,288737.6875,228583.25,246186.5,248760.09375,232013.71875,40819.0,1.0,3
238363.65625,255257.734375,310552.8125,288652.5,228394.25,246123.65625,248493.203125,231990.015625,40820.0,1.0,3
238369.5625,255219.734375,310498.90625,288649.0,228280.34375,246118.109375,248320.203125,231995.390625,40821.0,1.0,3
238443.859375,255285.640625,310555.875,288722.0625,228396.578125,246169.515625,248474.4375,232015.59375,40822.0,1.0,3
238514.671875,255379.875,310656.0,288783.46875,228591.84375,246215.109375,248748.828125,232029.359375,40823.0,1.0,3
238450.484375,255348.671875,310641.78125,288731.625,228586.65625,246179.984375,248752.84375,232009.421875,40824.0,1.0,3
238369.5625,255254.34375,310544.25,288650.25,228397.109375,246119.359375,248490.53125,231988.59375,40825.0,1.0,3
238370.015625,255218.84375,310487.84375,288642.21875,228274.796875,246109.609375,248312.515625,231990.28125,40826.0,1.0,3
238452.0,255300.125,310556.75,288724.65625,228396.3125,246170.234375,248476.578125,232017.640625,40827.0,1.0,3
238518.96875,255393.546875,310653.40625,288785.09375,228585.125,246209.84375,248751.234375,232033.734375,40828.0,1.0,3
238452.4375,255365.828125,310638.125,288734.5625,228581.5625,246176.578125,248761.875,232018.8125,40829.0,1.0,3
238360.890625,255268.734375,310533.78125,288647.125,228388.703125,246109.96875,248498.03125,231999.046875,40830.0,1.0,3
238369.296875,255244.234375,310482.1875,288641.5,228271.765625,246101.84375,248321.640625,232004.40625,40831.0,1.0,3
238451.1875,255326.671875,310545.125,288717.9375,228388.53125,246156.734375,248477.203125,232028.015625,40832.0,1.0,3
238522.890625,255429.21875,310646.4375,288783.5625,228583.171875,246202.59375,248758.921875,232045.984375,40833.0,1.0,3
238459.6875,255404.359375,310635.15625,288735.46875,228584.0625,246169.421875,248773.859375,232028.375,40834.0,1.0,3
238363.03125,255300.65625,310528.34375,288646.0625,228387.71875,246102.1875,248502.765625,232003.15625,40835.0,1.0,3
238362.328125,255268.109375,310474.59375,288636.84375,228263.796875,246091.28125,248320.5625,232003.78125,40836.0,1.0,3
238446.09375,255353.21875,310542.90625,288718.75,228382.53125,246153.875,248477.921875,232027.484375,40837.0,1.0,3
238517.984375,255451.65625,310644.90625,288784.90625,228578.421875,246205.109375,248757.765625,232043.125,40838.0,1.0,3
238456.46875,255426.265625,310637.6875,288742.53125,228584.5,246178.8125,248779.84375,232028.1875,40839.0,1.0,3
238362.234375,255320.6875,310537.28125,288655.28125,228394.875,246115.78125,248520.125,232005.125,40840.0,1.0,3
238357.765625,255275.4375,310477.8125,288639.1875,228264.875,246102.015625,248332.546875,232003.34375,40841.0,1.0,3
238438.40625,255350.90625,310539.6875,288715.875,228374.75,246158.34375,248479.4375,232025.6875,40842.0,1.0,3
238515.390625,255453.0,310643.9375,288783.9375,228575.5625,246206.984375,248763.390625,232044.015625,40843.0,1.0,3
238456.375,255425.46875,310637.75,288740.375,228586.390625,246179.0,248790.84375,232027.75,40844.0,1.0,3
238365.09375,255321.21875,310536.8125,288654.5625,228398.71875,246116.234375,248529.421875,232002.984375,40845.0,1.0,3
238364.296875,255280.0,310475.5,288641.40625,228271.046875,246099.78125,248336.65625,231999.859375,40846.0,1.0,3
238450.484375,255357.703125,310541.375,288723.21875,228389.515625,246159.0625,248486.234375,232026.765625,40847.0,1.0,3
238521.109375,255448.0,310643.65625,288785.0,228590.046875,246205.109375,248763.84375,232041.78125,40848.0,1.0,3
238459.15625,255417.234375,310635.71875,288737.0625,228604.359375,246174.609375,248792.546875,232023.640625,40849.0,1.0,3
238374.84375,255321.125,310540.3125,288652.84375,228421.25,246112.75,248536.5625,232002.625,40850.0,1.0,3
238378.0625,255284.734375,310480.5,288639.1875,228290.53125,246098.4375,248342.46875,232003.421875,40851.0,1.0,3
238461.921875,255362.34375,310540.3125,288717.40625,228400.234375,246154.765625,248483.8125,232029.359375,40852.0,1.0,3
238537.734375,255459.984375,310644.125,288783.21875,228599.4375,246203.140625,248767.421875,232046.078125,40853.0,1.0,3
238480.78125,255438.15625,310640.28125,288737.6875,228615.265625,246178.015625,248801.125,232029.53125,40854.0,1.0,3
238388.609375,255334.984375,310537.8125,288646.96875,228425.1875,246115.421875,248541.21875,232004.328125,40855.0,1.0,3
238388.078125,255292.875,310477.90625,288632.03125,228290.09375,246104.078125,248344.96875,232005.9375,40856.0,1.0,3
238468.8125,255362.96875,310537.625,288708.1875,228392.453125,246160.3125,248480.59375,232027.921875,40857.0,1.0,3
238543.453125,255459.890625,310638.84375,288774.375,228588.0,246211.71875,248760.265625,232039.375,40858.0,1.0,3
238493.578125,255443.171875,310642.15625,288734.3125,228610.4375,246189.09375,248801.296875,232024.4375,40859.0,1.0,3
238398.0,255337.21875,310543.34375,288647.75,228425.0,246124.28125,248543.0,231999.046875,40860.0,1.0,3
238383.59375,255282.59375,310477.09375,288626.40625,228284.09375,246105.328125,248339.6875,231994.84375,40861.0,1.0,3
238463.078125,255355.8125,310536.90625,288703.28125,228387.28125,246162.984375,248474.703125,232019.703125,40862.0,1.0,3
238539.4375,255454.796875,310644.90625,288772.40625,228588.171875,246218.78125,248759.640625,232039.734375,40863.0,1.0,3
238486.234375,255435.296875,310648.5,288731.4375,228607.484375,246195.0,248800.671875,232024.890625,40864.0,1.0,3
238386.015625,255326.3125,310547.46875,288638.46875,228417.140625,246125.625,248540.140625,231996.015625,40865.0,1.0,3
238374.296875,255279.203125,310486.84375,288620.3125,228277.75,246108.28125,248339.34375,231993.78125,40866.0,1.0,3
238450.484375,255354.484375,310548.09375,288700.0625,228375.296875,246169.421875,248474.78125,232019.703125,40867.0,1.0,3
238528.796875,255459.265625,310655.75,288771.21875,228574.40625,246226.03125,248761.875,232036.234375,40868.0,1.0,3
238466.578125,255434.5,310652.34375,288727.34375,228592.015625,246195.171875,248802.828125,232017.109375,40869.0,1.0,3
238365.546875,255327.390625,310547.8125,288634.15625,228398.8125,246125.984375,248543.625,231991.984375,40870.0,1.0,3
238369.203125,255292.25,310491.21875,288620.75,228263.453125,246112.921875,248346.578125,231994.484375,40871.0,1.0,3
238450.75,255365.203125,310548.90625,288694.59375,228362.6875,246167.1875,248471.03125,232015.40625,40872.0,1.0,3
238529.421875,255468.65625,310653.15625,288764.34375,228568.328125,246223.15625,248756.421875,232031.0625,40873.0,1.0,3
238476.40625,255450.140625,310652.875,288724.46875,228596.578125,246201.171875,248807.46875,232016.578125,40874.0,1.0,3
238375.203125,255340.171875,310544.6875,288630.875,228409.0,246130.359375,248547.65625,231992.796875,40875.0,1.0,3
238369.390625,255289.828125,310476.28125,288612.71875,228271.046875,246110.78125,248339.25,231993.0625,40876.0,1.0,3
238447.34375,255351.078125,310528.5,288684.9375,228369.578125,246162.28125,248456.109375,232014.96875,40877.0,1.0,3
238530.671875,255453.453125,310629.0,288754.5,228575.03125,246209.75,248733.625,232030.875,40878.0,1.0,3
238483.828125,255439.40625,310630.625,288720.8125,228613.03125,246185.078125,248791.109375,232020.15625,40879.0,1.0,3
238385.03125,255328.640625,310522.59375,288628.625,228430.640625,246118.28125,248537.640625,231997.171875,40880.0,1.0,3
238374.125,255271.78125,310447.40625,288603.25,228285.0,246096.65625,248322.796875,231992.796875,40881.0,1.0,3
238455.125,255338.65625,310496.5,288677.1875,228379.765625,246154.671875,248439.65625,232015.953125,40882.0,1.0,3
238535.953125,255436.28125,310600.5625,288749.59375,228587.453125,246216.375,248727.28125,232034.71875,40883.0,1.0,3
238494.5625,255426.453125,310605.5,288711.59375,228621.078125,246197.40625,248787.984375,232019.25,40884.0,1.0,3
238400.046875,255323.0,310504.71875,288621.5625,228439.046875,246135.546875,248540.765625,231996.71875,40885.0,1.0,3
238384.140625,255263.734375,310435.53125,288597.96875,228292.40625,246115.78125,248329.140625,231994.40625,40886.0,1.0,3
238466.484375,255333.46875,310493.09375,288673.5,228383.25,246168.09375,248447.609375,232019.609375,40887.0,1.0,3
238549.71875,255434.234375,310601.03125,288743.59375,228582.71875,246216.8125,248731.65625,232037.046875,40888.0,1.0,3
238502.953125,255420.375,310607.375,288710.25,228620.53125,246195.265625,248795.84375,232024.625,40889.0,1.0,3
238401.390625,255312.09375,310507.59375,288620.3125,228441.359375,246128.125,248545.859375,231999.40625,40890.0,1.0,3
238379.671875,255251.390625,310437.3125,288592.6875,228291.609375,246103.09375,248327.984375,231992.796875,40891.0,1.0,3
238454.765625,255319.15625,310490.15625,288665.46875,228375.109375,246158.078125,248439.5625,232016.484375,40892.0,1.0,3
238538.28125,255430.109375,310598.875,288741.71875,228576.90625,246215.46875,248728.703125,232034.09375,40893.0,1.0,3
238493.578125,255433.328125,310615.15625,288709.8125,228616.78125,246195.0,248804.515625,232019.25,40894.0,1.0,3
238388.515625,255331.59375,310518.6875,288616.65625,228431.53125,246128.296875,248559.28125,231995.734375,40895.0,1.0,3
238365.453125,255275.625,310447.25,288589.46875,228273.375,246108.0,248339.609375,231992.703125,40896.0,1.0,3
238442.96875,255347.328125,310497.21875,288661.53125,228356.15625,246162.546875,248447.15625,232014.875,40897.0,1.0,3
238520.03125,255453.453125,310601.09375,288734.125,228557.140625,246216.8125,248734.34375,232035.796875,40898.0,1.0,3
238470.5,255444.15625,310609.6875,288702.375,228600.328125,246197.40625,248809.34375,232022.5625,40899.0,1.0,3
238370.453125,255341.421875,310511.15625,288615.75,228426.53125,246133.671875,248569.46875,231999.5,40900.0,1.0,3
238352.21875,255284.375,310436.0625,288587.15625,228273.28125,246106.390625,248344.96875,231992.609375,40901.0,1.0,3
238424.1875,255344.375,310480.40625,288655.4375,228353.5625,246158.34375,248441.796875,232015.40625,40902.0,1.0,3
238514.84375,255451.9375,310586.1875,288732.78125,228561.265625,246214.9375,248727.0,232034.984375,40903.0,1.0,3
238477.03125,255443.53125,310599.6875,288705.4375,228611.78125,246197.59375,248807.734375,232023.09375,40904.0,1.0,3
238375.203125,255332.390625,310496.9375,288612.09375,228433.859375,246127.40625,248563.125,231996.015625,40905.0,1.0,3
238361.609375,255277.046875,310425.96875,288587.15625,228284.453125,246102.734375,248342.734375,231997.625,40906.0,1.0,3
238433.21875,255333.375,310468.78125,288653.65625,228359.828125,246148.859375,248434.375,232017.90625,40907.0,1.0,3
238513.859375,255429.84375,310571.96875,288727.59375,228564.21875,246204.203125,248716.71875,232036.59375,40908.0,1.0,3
238479.359375,255427.171875,310586.53125,288703.0,228617.40625,246191.0625,248800.765625,232026.9375,40909.0,1.0,3
238380.375,255322.5625,310488.375,288612.96875,228442.265625,246125.265625,248557.765625,232002.984375,40910.0,1.0,3
238363.84375,255264.4375,310414.15625,288586.15625,228287.859375,246100.40625,248332.90625,231998.328125,40911.0,1.0,3
238438.765625,255327.5625,310458.25,288652.9375,228361.34375,246148.859375,248425.609375,232017.5625,40912.0,1.0,3
238522.546875,255432.703125,310561.9375,288724.1875,228562.0625,246203.9375,248708.234375,232033.109375,40913.0,1.0,3
238479.171875,255425.734375,310575.4375,288692.46875,228610.875,246187.578125,248793.96875,232018.1875,40914.0,1.0,3
238382.078125,255324.171875,310483.34375,288603.6875,228441.28125,246128.296875,248560.4375,231995.296875,40915.0,1.0,3
238372.328125,255276.78125,310415.15625,288576.3125,228290.265625,246110.953125,248339.34375,231991.71875,40916.0,1.0,3
238443.5,255336.59375,310458.25,288641.59375,228360.90625,246159.328125,248427.671875,232007.90625,40917.0,1.0,3
238514.5,255428.234375,310555.25,288710.53125,228553.21875,246206.53125,248702.421875,232024.078125,40918.0,1.0,3
238478.28125,255429.484375,310573.40625,288687.8125,228609.625,246192.671875,248796.65625,232015.765625,40919.0,1.0,3
238382.96875,255335.515625,310480.3125,288598.5,228439.671875,246129.46875,248563.65625,231991.359375,40920.0,1.0,3
238361.34375,255270.703125,310405.65625,288565.0625,228280.96875,246100.671875,248335.140625,231985.546875,40921.0,1.0,3
238428.578125,255317.109375,310443.9375,288627.5625,228346.859375,246144.65625,248418.109375,232001.8125,40922.0,1.0,3
238513.328125,255417.859375,310548.90625,288703.0,228547.765625,246200.90625,248702.6875,232020.15625,40923.0,1.0,3
238472.03125,255412.5,310563.28125,288674.84375,228598.453125,246181.953125,248792.453125,232007.28125,40924.0,1.0,3
238371.625,255310.21875,310471.03125,288587.5,228429.203125,246120.25,248561.78125,231988.5,40925.0,1.0,3
238355.609375,255254.96875,310398.78125,288558.34375,228274.4375,246098.078125,248335.3125,231987.0625,40926.0,1.0,3
238421.875,255305.03125,310436.34375,288621.21875,228337.921875,246144.3125,248414.96875,232007.0,40927.0,1.0,3
238506.625,255408.125,310544.34375,288700.0625,228542.03125,246202.78125,248700.09375,232026.9375,40928.0,1.0,3
238477.203125,255411.25,310564.1875,288678.4375,228603.90625,246184.546875,248796.75,232013.625,40929.0,1.0,3
238383.421875,255312.71875,310471.90625,288591.4375,228436.8125,246120.796875,248566.15625,231991.359375,40930.0,1.0,3
238366.4375,255255.5,310402.96875,288563.09375,228281.78125,246101.125,248339.15625,231988.859375,40931.0,1.0,3
238431.796875,255306.375,310436.5,288623.8125,228338.640625,246144.9375,248407.109375,232003.421875,40932.0,1.0,3
238522.984375,255418.40625,310545.6875,288706.40625,228546.78125,246210.015625,248697.328125,232027.484375,40933.0,1.0,3
238497.234375,255429.75,310568.84375,288688.09375,228616.6875,246200.546875,248807.109375,232019.515625,40934.0,1.0,3
238390.9375,255323.984375,310468.59375,288594.03125,228445.84375,246132.328125,248576.625,231993.6875,40935.0,1.0,3
238366.796875,255261.671875,310390.71875,288558.1875,228283.390625,246103.71875,248341.65625,231987.34375,40936.0,1.0,3
238438.859375,255313.890625,310429.0,288621.125,228346.421875,246149.140625,248413.359375,232007.1875,40937.0,1.0,3
238527.90625,255420.09375,310536.1875,288700.78125,228552.953125,246210.5625,248697.6875,232027.921875,40938.0,1.0,3
238503.140625,255428.859375,310562.84375,288682.28125,228623.75,246203.9375,248808.8125,232020.859375,40939.0,1.0,3
238402.203125,255324.171875,310468.53125,288592.59375,228458.359375,246139.75,248583.59375,231993.953125,40940.0,1.0,3
238376.53125,255258.8125,310391.625,288558.96875,228295.90625,246107.828125,248348.546875,231985.1875,40941.0,1.0,3
238436.796875,255298.59375,310423.8125,288617.8125,228348.921875,246147.171875,248413.015625,232004.6875,40942.0,1.0,3
238524.0625,255400.796875,310530.65625,288693.71875,228550.4375,246204.75,248694.734375,232024.34375,40943.0,1.0,3
238500.640625,255410.265625,310560.59375,288674.9375,228623.40625,246197.5,248808.359375,232016.125,40944.0,1.0,3
238395.21875,255306.375,310464.9375,288581.34375,228455.578125,246132.765625,248583.859375,231989.390625,40945.0,1.0,3
238368.3125,255244.234375,310383.84375,288545.65625,228286.328125,246103.453125,248344.796875,231984.828125,40946.0,1.0,3
238429.28125,255290.734375,310415.78125,288607.625,228336.765625,246145.734375,248408.1875,232005.21875,40947.0,1.0,3
238518.34375,255396.5,310521.8125,288688.71875,228540.15625,246207.78125,248693.921875,232027.03125,40948.0,1.0,3
238496.34375,255412.59375,310551.03125,288672.625,228617.046875,246201.890625,248810.0625,232019.25,40949.0,1.0,3
238394.15625,255319.078125,310455.65625,288582.40625,228453.96875,246135.546875,248587.796875,231993.0625,40950.0,1.0,3
238361.78125,255251.65625,310375.25,288546.1875,228288.296875,246104.25,248348.1875,231987.0625,40951.0,1.0,3
238426.609375,255298.859375,310407.4375,288604.03125,228338.015625,246146.71875,248403.703125,232007.8125,40952.0,1.0,3
238511.8125,255404.359375,310507.78125,288680.65625,228536.046875,246202.6875,248680.875,232025.515625,40953.0,1.0,3
238486.6875,255419.03125,310534.6875,288667.15625,228615.625,246192.9375,248801.84375,232013.359375,40954.0,1.0,3
238390.21875,255328.015625,310447.15625,288581.875,228464.25,246131.703125,248591.28125,231991.09375,40955.0,1.0,3
238363.75,255260.6875,310367.3125,288545.46875,228300.109375,246102.1875,248351.578125,231989.296875,40956.0,1.0,3
238424.734375,255302.0,310395.1875,288604.5625,228343.46875,246144.484375,248402.8125,232008.078125,40957.0,1.0,3
238515.46875,255409.28125,310500.96875,288684.78125,228543.640625,246207.96875,248685.875,232029.625,40958.0,1.0,3
238500.359375,255429.21875,310536.09375,288671.71875,228625.8125,246201.96875,248810.15625,232022.921875,40959.0,1.0,3
238397.8125,255327.390625,310445.375,288578.375,228469.171875,246136.171875,248591.828125,231996.453125,40960.0,1.0,3
238361.78125,255253.09375,310359.4375,288535.8125,228296.34375,246103.265625,248343.984375,231988.5,40961.0,1.0,3
238429.28125,255299.140625,310388.3125,288594.21875,228340.34375,246144.9375,248394.6875,232008.796875,40962.0,1.0,3
238515.390625,255399.625,310493.28125,288674.40625,228539.171875,246203.5,248676.484375,232030.609375,40963.0,1.0,3
238495.265625,255412.40625,310530.46875,288666.0,228628.140625,246205.640625,248810.328125,232023.8125,40964.0,1.0,3
238390.75,255309.140625,310436.6875,288571.21875,228464.515625,246132.421875,248590.921875,231992.796875,40965.0,1.0,3
238364.109375,255240.9375,310353.09375,288528.21875,228289.015625,246095.84375,248344.515625,231982.953125,40966.0,1.0,3
238425.890625,255282.6875,310379.8125,288585.09375,228330.234375,246140.1875,248391.015625,232000.75,40967.0,1.0,3
238509.484375,255380.40625,310479.5,288663.75,228526.65625,246195.0,248667.28125,232018.265625,40968.0,1.0,3
238495.71875,255401.421875,310517.25,288656.0,228617.3125,246192.5,248803.625,232014.421875,40969.0,1.0,3
238394.421875,255305.390625,310433.46875,288567.84375,228467.296875,246132.234375,248597.0,231994.3125,40970.0,1.0,3
238360.890625,255233.0625,310348.875,288526.0625,228292.234375,246098.0,248349.34375,231987.78125,40971.0,1.0,3
238425.09375,255280.71875,310374.8125,288582.125,228328.796875,246138.9375,248390.125,232006.109375,40972.0,1.0,3
238517.625,255391.140625,310480.84375,288664.21875,228531.84375,246202.421875,248672.375,232028.1875,40973.0,1.0,3
238502.78125,255414.296875,310517.4375,288657.25,228622.0625,246200.71875,248812.296875,232021.3125,40974.0,1.0,3
238396.03125,255317.109375,310428.90625,288565.78125,228468.90625,246139.75,248605.234375,231994.9375,40975.0,1.0,3
238363.578125,255251.03125,310343.15625,288519.28125,228293.125,246106.3125,248354.625,231987.0625,40976.0,1.0,3
238422.671875,255291.71875,310367.5,288574.09375,228326.5625,246145.640625,248392.0,232006.296875,40977.0,1.0,3
238510.203125,255396.765625,310474.0625,288657.9375,228530.140625,246205.90625,248673.09375,232025.953125,40978.0,1.0,3
238495.265625,255420.375,310511.625,288646.78125,228622.859375,246201.796875,248813.1875,232018.359375,40979.0,1.0,3
