FZ,C3,CZ,C4,PZ,PO7,OZ,PO8,Counter,Validation,Label
238018.640625,255514.78125,241275.109375,250153.671875,225334.921875,254625.09375,229247.546875,230026.375,377354.0,1.0,1
238019.796875,255525.6875,241281.546875,250159.484375,225351.28125,254635.203125,229253.265625,230044.4375,377355.0,1.0,1
238091.515625,255552.25,241294.328125,250168.6875,225354.328125,254646.828125,229252.734375,230062.140625,377356.0,1.0,1
238134.875,255557.34375,241293.703125,250167.0,225337.953125,254642.703125,229239.953125,230051.578125,377357.0,1.0,1
238081.046875,255525.875,241278.6875,250156.890625,225320.609375,254625.1875,229237.359375,230026.1875,377358.0,1.0,1
238012.109375,255512.546875,241273.5,250152.15625,225328.296875,254623.3125,229247.453125,230025.84375,377359.0,1.0,1
238019.71875,255533.5625,241286.46875,250162.4375,225354.140625,254640.109375,229258.71875,230051.234375,377360.0,1.0,1
238089.71875,255559.84375,241297.46875,250170.484375,225359.0625,254650.21875,229256.84375,230064.546875,377361.0,1.0,1
238129.328125,255553.859375,241292.8125,250167.984375,225341.0,254642.796875,229244.515625,230050.328125,377362.0,1.0,1
238080.875,255522.828125,241279.5,250158.328125,225324.734375,254620.890625,229237.984375,230027.625,377363.0,1.0,1
238015.953125,255510.765625,241276.71875,250158.40625,225336.53125,254623.9375,229248.984375,230032.625,377364.0,1.0,1
238020.34375,255533.296875,241287.984375,250167.359375,225360.140625,254642.265625,229259.078125,230055.609375,377365.0,1.0,1
238085.25,255555.28125,241297.28125,250168.0625,225359.421875,254648.609375,229251.21875,230061.6875,377366.0,1.0,1
238126.90625,255553.59375,241294.328125,250164.765625,225338.046875,254638.78125,229238.78125,230047.46875,377367.0,1.0,1
238080.515625,255521.40625,241282.359375,250158.140625,225322.21875,254619.640625,229236.8125,230027.09375,377368.0,1.0,1
238018.015625,255513.078125,241278.15625,250155.546875,225333.765625,254619.1875,229246.65625,230028.609375,377369.0,1.0,1
238014.96875,255524.34375,241285.125,250159.125,225348.0625,254630.453125,229254.25,230043.984375,377370.0,1.0,1
238082.390625,255547.5,241297.203125,250166.28125,225350.125,254638.140625,229254.515625,230061.15625,377371.0,1.0,1
238129.15625,255555.640625,241297.109375,250165.921875,225337.609375,254632.15625,229246.125,230056.328125,377372.0,1.0,1
238082.84375,255532.578125,241283.34375,250155.8125,225323.65625,254610.34375,229242.09375,230033.078125,377373.0,1.0,1
238016.9375,255519.796875,241279.140625,250152.875,225334.03125,254612.484375,229258.359375,230032.359375,377374.0,1.0,1
238013.28125,255531.234375,241283.875,250153.21875,225352.0,254621.96875,229263.28125,230050.25,377375.0,1.0,1
238080.875,255549.921875,241295.671875,250160.921875,225352.4375,254626.53125,229255.0625,230064.1875,377376.0,1.0,1
238126.828125,255553.140625,241295.046875,250158.046875,225335.8125,254618.921875,229244.515625,230052.5625,377377.0,1.0,1
238078.09375,255524.34375,241277.53125,250143.65625,225316.765625,254594.34375,229237.53125,230024.40625,377378.0,1.0,1
238010.6875,255507.453125,241270.828125,250138.921875,225322.40625,254590.859375,229243.25,230021.359375,377379.0,1.0,1
238018.1875,255526.5,241285.21875,250149.375,225346.625,254610.796875,229257.921875,230048.28125,377380.0,1.0,1
238088.734375,255556.8125,241298.8125,250156.984375,225350.125,254623.578125,229257.921875,230065.09375,377381.0,1.0,1
238136.21875,255565.828125,241297.375,250154.828125,225334.734375,254616.6875,229246.46875,230060.078125,377382.0,1.0,1
238091.515625,255541.25,241284.859375,250147.140625,225319.984375,254600.328125,229242.09375,230041.84375,377383.0,1.0,1
238017.21875,255516.921875,241279.765625,250140.171875,225323.125,254600.15625,229249.875,230033.96875,377384.0,1.0,1
238015.25,255527.75,241289.6875,250144.28125,225337.25,254614.28125,229259.890625,230048.1875,377385.0,1.0,1
238092.40625,255567.4375,241306.859375,250155.1875,225349.046875,254628.484375,229262.65625,230071.078125,377386.0,1.0,1
238145.15625,255577.375,241310.15625,250158.140625,225337.515625,254624.203125,229254.34375,230067.5,377387.0,1.0,1
238099.375,255548.765625,241293.265625,250146.703125,225319.8125,254601.9375,229245.5,230041.21875,377388.0,1.0,1
238025.4375,255525.515625,241283.515625,250138.46875,225320.890625,254597.109375,229250.59375,230030.578125,377389.0,1.0,1
238023.734375,255539.546875,241292.015625,250146.15625,225340.28125,254611.6875,229259.0,230048.640625,377390.0,1.0,1
238099.109375,255575.140625,241309.71875,250160.109375,225351.375,254624.46875,229259.890625,230070.359375,377391.0,1.0,1
238146.671875,255582.46875,241309.796875,250157.96875,225337.953125,254619.734375,229249.609375,230062.84375,377392.0,1.0,1
238103.125,255556.359375,241296.84375,250150.71875,225324.109375,254604.625,229247.375,230040.59375,377393.0,1.0,1
238036.796875,255543.9375,241292.8125,250150.28125,225337.15625,254606.140625,229260.25,230040.671875,377394.0,1.0,1
238032.328125,255558.0625,241300.953125,250154.921875,225357.890625,254619.8125,229269.8125,230060.796875,377395.0,1.0,1
238101.515625,255588.546875,241313.828125,250162.34375,225364.96875,254634.75,229269.359375,230078.9375,377396.0,1.0,1
238145.15625,255590.515625,241312.484375,250161.1875,225348.59375,254630.734375,229260.875,230070.8125,377397.0,1.0,1
238096.78125,255558.859375,241294.25,250150.28125,225331.34375,254612.125,229253.8125,230045.59375,377398.0,1.0,1
238025.4375,255539.453125,241284.234375,250142.40625,225338.5,254610.25,229258.71875,230039.78125,377399.0,1.0,1
238022.125,255554.84375,241289.0625,250144.734375,225355.3125,254619.734375,229263.28125,230055.609375,377400.0,1.0,1
238091.328125,255580.671875,241305.515625,250158.40625,225366.390625,254637.96875,229269.359375,230077.15625,377401.0,1.0,1
238136.75,255582.203125,241302.828125,250156.359375,225348.15625,254631.625,229256.125,230068.125,377402.0,1.0,1
238091.515625,255552.15625,241286.90625,250144.734375,225327.046875,254608.90625,229246.828125,230041.84375,377403.0,1.0,1
238013.71875,255522.46875,241277.890625,250138.296875,225326.96875,254604.078125,229249.96875,230031.109375,377404.0,1.0,1
238014.703125,255535.96875,241289.234375,250146.34375,225347.171875,254622.59375,229262.5625,230050.328125,377405.0,1.0,1
238086.140625,255568.421875,241299.15625,250152.6875,225354.5,254633.140625,229260.953125,230068.84375,377406.0,1.0,1
238135.859375,255579.0625,241299.25,250152.0625,225342.515625,254628.21875,229249.875,230065.0,377407.0,1.0,1
238090.96875,255551.4375,241286.828125,250144.015625,225328.484375,254609.71875,229245.578125,230043.890625,377408.0,1.0,1
238016.046875,255527.65625,241278.953125,250137.84375,225331.796875,254605.25,229250.953125,230033.96875,377409.0,1.0,1
238019.625,255549.390625,241290.84375,250147.234375,225354.328125,254623.03125,229264.984375,230057.3125,377410.0,1.0,1
238089.0,255579.6875,241302.5625,250154.5625,225358.4375,254632.6875,229261.578125,230075.015625,377411.0,1.0,1
238133.0,255585.140625,241300.421875,250151.4375,225339.125,254624.921875,229250.3125,230064.8125,377412.0,1.0,1
238081.234375,255548.3125,241281.453125,250137.125,225314.890625,254600.59375,229238.25,230031.828125,377413.0,1.0,1
238012.65625,255532.390625,241275.921875,250135.515625,225323.390625,254599.96875,229247.1875,230031.640625,377414.0,1.0,1
238015.328125,255552.328125,241286.375,250144.46875,225344.390625,254615.625,229258.28125,230053.640625,377415.0,1.0,1
238084.984375,255580.59375,241299.875,250154.828125,225350.203125,254625.625,229256.40625,230069.90625,377416.0,1.0,1
238129.421875,255578.625,241298.359375,250154.296875,225334.5625,254616.421875,229243.609375,230061.15625,377417.0,1.0,1
238088.734375,255552.953125,241285.84375,250145.53125,225319.28125,254602.75,229241.828125,230036.75,377418.0,1.0,1
238013.359375,255527.65625,241275.203125,250135.875,225318.921875,254596.84375,229242.453125,230023.6875,377419.0,1.0,1
238004.875,255533.296875,241279.3125,250139.28125,225325.53125,254604.265625,229243.171875,230032.09375,377420.0,1.0,1
238078.1875,255560.296875,241297.375,250155.28125,225333.3125,254620.71875,229246.296875,230052.125,377421.0,1.0,1
238146.3125,255594.71875,241306.140625,250163.5,225345.734375,254629.46875,229251.75,230078.40625,377422.0,1.0,1
238106.890625,255577.8125,241285.75,250148.3125,225334.109375,254606.765625,229242.90625,230059.359375,377423.0,1.0,1
238034.015625,255560.5625,241279.3125,250144.015625,225345.015625,254605.6875,229252.734375,230057.9375,377424.0,1.0,1
238029.640625,255575.40625,241290.21875,250151.265625,225367.828125,254623.671875,229264.0,230078.5,377425.0,1.0,1
238099.203125,255602.9375,241304.265625,250160.375,225373.359375,254639.046875,229265.96875,230093.421875,377426.0,1.0,1
238151.5,255609.28125,241303.546875,250161.265625,225361.109375,254632.6875,229254.609375,230090.03125,377427.0,1.0,1
238107.609375,255579.25,241290.578125,250152.421875,225345.296875,254613.46875,229248.265625,230066.78125,377428.0,1.0,1
238028.5625,255550.09375,241281.8125,250144.109375,225345.828125,254607.21875,229250.140625,230055.34375,377429.0,1.0,1
238017.921875,255559.21875,241286.28125,250145.0,225360.40625,254620.265625,229256.125,230068.21875,377430.0,1.0,1
238090.078125,255595.609375,241301.3125,250155.453125,225369.875,254636.53125,229262.65625,230090.5625,377431.0,1.0,1
238145.234375,255609.90625,241305.875,250161.265625,225361.828125,254635.828125,229255.5,230093.609375,377432.0,1.0,1
238102.59375,255581.75,241289.859375,250150.28125,225345.65625,254614.640625,229247.8125,230068.3125,377433.0,1.0,1
238029.109375,255559.21875,241281.734375,250142.9375,225347.078125,254607.296875,229249.15625,230055.703125,377434.0,1.0,1
238020.703125,255566.90625,241290.046875,250150.09375,225362.375,254620.265625,229252.90625,230069.375,377435.0,1.0,1
238087.125,255589.609375,241305.421875,250161.0,225367.734375,254630.734375,229254.34375,230085.5625,377436.0,1.0,1
238141.390625,255599.90625,241308.546875,250163.6875,225356.5625,254628.484375,229248.53125,230081.359375,377437.0,1.0,1
238097.765625,255569.859375,241291.65625,250152.78125,225335.8125,254606.046875,229238.703125,230054.0,377438.0,1.0,1
238026.15625,255551.53125,241282.4375,250145.890625,225342.4375,254601.484375,229244.6875,230048.015625,377439.0,1.0,1
238024.0,255566.8125,241294.15625,250156.359375,225365.3125,254619.90625,229258.8125,230067.328125,377440.0,1.0,1
238091.328125,255591.859375,241306.859375,250166.90625,225371.046875,254631.984375,229256.40625,230082.96875,377441.0,1.0,1
238142.921875,255597.84375,241307.125,250168.25,225353.875,254625.359375,229242.625,230072.15625,377442.0,1.0,1
238093.828125,255554.484375,241291.03125,250155.734375,225325.265625,254600.953125,229231.546875,230035.3125,377443.0,1.0,1
238019.625,255528.734375,241283.515625,250149.734375,225326.515625,254599.796875,229237.453125,230026.1875,377444.0,1.0,1
238016.9375,255544.46875,241292.546875,250156.171875,225347.4375,254616.78125,229248.796875,230046.046875,377445.0,1.0,1
238092.671875,255584.078125,241308.28125,250167.796875,225362.71875,254632.875,229251.65625,230074.390625,377446.0,1.0,1
238148.8125,255598.734375,241312.65625,250171.546875,225356.109375,254634.75,229249.515625,230078.40625,377447.0,1.0,1
238107.875,255572.1875,241299.25,250161.71875,225340.109375,254614.90625,229240.9375,230052.296875,377448.0,1.0,1
238036.609375,255552.515625,241290.3125,250154.921875,225345.5625,254610.609375,229245.40625,230042.734375,377449.0,1.0,1
238027.40625,255555.015625,241296.75,250158.859375,225359.859375,254622.0625,229251.84375,230053.90625,377450.0,1.0,1
238085.078125,255561.625,241304.609375,250163.234375,225349.3125,254624.921875,229240.3125,230054.71875,377451.0,1.0,1
238135.671875,255562.796875,241307.296875,250164.140625,225328.484375,254617.3125,229225.546875,230040.59375,377452.0,1.0,1
238099.46875,255536.859375,241295.046875,250153.5,225309.4375,254596.578125,229216.796875,230015.90625,377453.0,1.0,1
238028.921875,255519.078125,241287.09375,250147.140625,225312.03125,254594.78125,229224.125,230010.734375,377454.0,1.0,1
238018.640625,255528.828125,241294.78125,250152.875,225328.578125,254607.921875,229234.40625,230024.765625,377455.0,1.0,1
238084.359375,255554.921875,241309.4375,250163.5,225334.03125,254618.84375,229235.84375,230041.578125,377456.0,1.0,1
238143.0,255570.84375,241314.1875,250168.328125,225324.453125,254617.5,229232.625,230044.34375,377457.0,1.0,1
238100.53125,255544.46875,241297.28125,250155.015625,225304.609375,254595.046875,229222.25,230018.6875,377458.0,1.0,1
238031.15625,255522.5625,241290.765625,250150.1875,225310.25,254593.890625,229230.296875,230013.40625,377459.0,1.0,1
238028.125,255537.140625,241300.328125,250156.53125,225331.609375,254610.15625,229242.984375,230032.90625,377460.0,1.0,1
238092.3125,255565.5625,241311.6875,250164.578125,225338.671875,254622.328125,229242.453125,230049.34375,377461.0,1.0,1
238145.59375,255574.5,241313.734375,250167.171875,225328.296875,254622.0625,229234.671875,230046.484375,377462.0,1.0,1
238103.125,255540.265625,241297.375,250155.453125,225308.1875,254598.71875,229226.890625,230022.96875,377463.0,1.0,1
238029.734375,255519.34375,241290.125,250151.171875,225313.90625,254596.65625,229234.40625,230017.703125,377464.0,1.0,1
238021.859375,255531.234375,241299.875,250158.59375,225337.421875,254614.90625,229246.75,230038.796875,377465.0,1.0,1
238086.765625,255555.46875,241311.765625,250169.40625,225344.578125,254627.859375,229246.65625,230055.4375,377466.0,1.0,1
238143.453125,255564.5,241314.1875,250171.28125,225334.203125,254626.875,229237.625,230052.03125,377467.0,1.0,1
238105.015625,255540.890625,241301.484375,250161.890625,225321.515625,254613.109375,229234.234375,230031.46875,377468.0,1.0,1
238032.328125,255524.53125,241293.890625,250157.15625,225328.578125,254610.96875,229240.3125,230025.203125,377469.0,1.0,1
238027.40625,255544.28125,241303.90625,250165.109375,225351.546875,254628.671875,229253.53125,230049.890625,377470.0,1.0,1
238093.828125,255571.375,241316.234375,250175.84375,225358.53125,254641.1875,229255.0625,230069.015625,377471.0,1.0,1
238147.484375,255580.859375,241319.015625,250176.734375,225349.046875,254641.453125,229247.453125,230065.359375,377472.0,1.0,1
238101.96875,255548.40625,241299.078125,250160.640625,225325.796875,254614.28125,229234.3125,230033.96875,377473.0,1.0,1
238023.375,255523.546875,241284.40625,250149.65625,225320.96875,254602.203125,229237.359375,230019.84375,377474.0,1.0,1
238017.125,255539.453125,241291.828125,250156.890625,225345.5625,254620.0,229254.875,230044.515625,377475.0,1.0,1
238081.5,255561.625,241302.828125,250164.21875,225351.375,254630.734375,229251.921875,230062.21875,377476.0,1.0,1
238133.265625,255569.328125,241304.53125,250164.84375,225339.296875,254629.125,229244.15625,230058.734375,377477.0,1.0,1
238092.046875,255541.515625,241288.078125,250152.953125,225321.234375,254607.75,229235.84375,230035.765625,377478.0,1.0,1
238016.671875,255520.140625,241276.8125,250143.21875,225323.203125,254600.328125,229235.75,230024.859375,377479.0,1.0,1
238006.65625,255529.453125,241285.578125,250150.1875,225341.0,254614.359375,229243.4375,230040.140625,377480.0,1.0,1
238071.65625,255549.390625,241301.671875,250164.84375,225349.046875,254629.296875,229246.296875,230059.09375,377481.0,1.0,1
238129.5,255558.328125,241306.578125,250168.6875,225338.765625,254628.484375,229240.578125,230057.9375,377482.0,1.0,1
238093.390625,255536.859375,241291.921875,250158.765625,225321.0625,254606.859375,229232.4375,230034.78125,377483.0,1.0,1
238021.859375,255518.453125,241283.609375,250155.1875,225324.640625,254602.03125,229239.953125,230025.75,377484.0,1.0,1
238013.09375,255530.78125,241294.78125,250164.84375,225347.078125,254619.46875,229253.265625,230045.859375,377485.0,1.0,1
238079.078125,255554.75,241308.8125,250174.140625,225356.828125,254632.0625,229253.1875,230065.625,377486.0,1.0,1
238136.75,255567.4375,241313.296875,250176.46875,225350.203125,254632.6875,229247.453125,230066.875,377487.0,1.0,1
238094.734375,255539.015625,241295.234375,250162.875,225328.75,254611.0625,229236.1875,230037.734375,377488.0,1.0,1
238023.921875,255520.78125,241288.34375,250158.046875,225335.71875,254609.625,229243.96875,230031.921875,377489.0,1.0,1
238019.796875,255537.765625,241297.828125,250166.71875,225355.484375,254627.15625,229256.125,230051.671875,377490.0,1.0,1
238083.28125,255562.078125,241310.34375,250176.203125,225359.78125,254636.890625,229254.078125,230068.75,377491.0,1.0,1
238132.1875,255561.8125,241310.96875,250175.046875,225341.171875,254631.4375,229241.5625,230057.84375,377492.0,1.0,1
238097.3125,255533.015625,241296.75,250166.8125,225324.453125,254614.015625,229237.71875,230033.703125,377493.0,1.0,1
238036.796875,255523.71875,241294.953125,250166.640625,225335.453125,254612.046875,229245.5,230032.90625,377494.0,1.0,1
238032.59375,255547.6875,241305.6875,250173.96875,225360.21875,254628.3125,229253.71875,230057.046875,377495.0,1.0,1
238097.046875,255579.328125,241316.234375,250179.6875,225366.75,254638.234375,229254.609375,230074.296875,377496.0,1.0,1
238154.09375,255590.25,241320.265625,250180.5,225356.109375,254635.90625,229246.921875,230072.6875,377497.0,1.0,1
238115.203125,255554.75,241305.0625,250171.375,225334.46875,254613.03125,229238.25,230043.984375,377498.0,1.0,1
238041.890625,255529.890625,241299.515625,250169.40625,225336.796875,254608.375,229245.765625,230034.0625,377499.0,1.0,1
238039.734375,255547.5,241309.796875,250175.40625,225358.53125,254623.484375,229256.9375,230051.859375,377500.0,1.0,1
238111.53125,255575.84375,241323.03125,250184.25,225366.75,254636.09375,229258.28125,230070.625,377501.0,1.0,1
238174.65625,255589.078125,241329.46875,250190.0625,225358.53125,254638.59375,229253.890625,230073.9375,377502.0,1.0,1
238141.75,255562.171875,241319.28125,250184.875,225343.0625,254624.46875,229251.65625,230053.015625,377503.0,1.0,1
238074.703125,255545.09375,241315.609375,250182.28125,225351.109375,254624.375,229262.390625,230049.4375,377504.0,1.0,1
238073.71875,255561.1875,241326.515625,250191.84375,225371.3125,254639.671875,229271.59375,230069.203125,377505.0,1.0,1
238145.328125,255589.53125,241344.84375,250204.453125,225381.234375,254654.234375,229273.828125,230091.546875,377506.0,1.0,1
238204.78125,255598.296875,241348.515625,250204.546875,225368.890625,254651.015625,229260.515625,230086.984375,377507.0,1.0,1
238173.5,255571.46875,241337.078125,250197.65625,225350.125,254631.078125,229251.84375,230060.265625,377508.0,1.0,1
238105.09375,255555.90625,241330.1875,250194.796875,225355.75,254628.671875,229260.0625,230053.28125,377509.0,1.0,1
238103.125,255580.765625,241342.875,250205.34375,225382.125,254648.515625,229273.390625,230076.078125,377510.0,1.0,1
238164.734375,255601.6875,241354.6875,250213.84375,225384.8125,254657.8125,229272.140625,230087.609375,377511.0,1.0,1
238221.59375,255607.40625,241358.4375,250216.4375,225372.203125,254654.59375,229260.875,230083.859375,377512.0,1.0,1
238193.875,255588.015625,241345.296875,250208.484375,225358.25,254637.515625,229256.671875,230060.96875,377513.0,1.0,1
238119.5,255566.28125,241335.375,250201.78125,225360.578125,254631.625,229262.21875,230053.546875,377514.0,1.0,1
238112.96875,255580.40625,241347.265625,250209.8125,225383.734375,254648.25,229273.828125,230076.34375,377515.0,1.0,1
238177.34375,255606.421875,241357.640625,250218.671875,225385.96875,254655.046875,229269.1875,230088.0625,377516.0,1.0,1
238231.96875,255616.265625,241359.0625,250221.359375,225373.640625,254652.359375,229258.1875,230084.671875,377517.0,1.0,1
238189.765625,255584.15625,241340.734375,250206.953125,225352.53125,254628.046875,229245.84375,230058.109375,377518.0,1.0,1
238124.59375,255573.703125,241333.9375,250200.609375,225360.046875,254627.421875,229256.578125,230056.140625,377519.0,1.0,1
238107.78125,255582.46875,241339.671875,250204.546875,225376.765625,254642.265625,229266.859375,230070.09375,377520.0,1.0,1
238165.984375,255601.953125,241350.921875,250212.59375,225381.59375,254653.265625,229268.828125,230082.78125,377521.0,1.0,1
238219.0,255604.734375,241353.34375,250213.3125,225368.53125,254649.6875,229262.84375,230079.296875,377522.0,1.0,1
238183.421875,255576.46875,241335.28125,250202.125,225348.515625,254627.515625,229251.21875,230055.34375,377523.0,1.0,1
238112.25,255563.421875,241328.046875,250197.484375,225357.265625,254625.359375,229257.296875,230054.71875,377524.0,1.0,1
238096.6875,255576.390625,241334.125,250201.5,225375.25,254638.234375,229265.34375,230072.6875,377525.0,1.0,1
238149.53125,255588.453125,241342.796875,250206.421875,225372.921875,254645.296875,229258.8125,230078.046875,377526.0,1.0,1
238206.578125,255597.3125,241346.375,250207.671875,225362.015625,254641.453125,229251.03125,230075.546875,377527.0,1.0,1
238175.640625,255575.484375,241332.515625,250198.203125,225348.6875,254622.859375,229243.34375,230055.703125,377528.0,1.0,1
238100.984375,255554.296875,241324.015625,250193.015625,225356.203125,254622.765625,229251.65625,230050.953125,377529.0,1.0,1
238079.703125,255561.90625,241326.609375,250192.125,225371.21875,254636.53125,229259.171875,230064.640625,377530.0,1.0,1
238136.484375,255585.140625,241334.125,250197.921875,225374.53125,254647.71875,229259.171875,230079.21875,377531.0,1.0,1
238187.796875,255590.6875,241330.1875,250194.078125,225360.9375,254642.625,229249.15625,230075.015625,377532.0,1.0,1
238154.0,255567.09375,241318.203125,250184.875,225347.890625,254631.0,229249.421875,230055.25,377533.0,1.0,1
238078.640625,255545.984375,241307.828125,250178.265625,225349.578125,254627.6875,229255.78125,230045.5,377534.0,1.0,1
238060.84375,255554.296875,241309.796875,250180.671875,225365.671875,254637.171875,229262.21875,230060.265625,377535.0,1.0,1
238118.59375,255575.484375,241320.53125,250187.640625,225368.265625,254645.484375,229256.671875,230075.546875,377536.0,1.0,1
238172.421875,255582.015625,241321.875,250188.984375,225353.15625,254640.828125,229245.140625,230070.1875,377537.0,1.0,1
238141.390625,255561.546875,241309.796875,250179.515625,225335.28125,254620.359375,229237.625,230048.015625,377538.0,1.0,1
238063.171875,255538.203125,241299.875,250173.34375,225336.34375,254613.375,229242.625,230039.6875,377539.0,1.0,1
238045.46875,255541.609375,241307.65625,250179.421875,225353.25,254627.0625,229252.375,230054.984375,377540.0,1.0,1
238108.671875,255571.375,241320.265625,250188.1875,225363.171875,254641.28125,229252.90625,230074.828125,377541.0,1.0,1
238166.078125,255585.59375,241321.15625,250189.53125,225353.78125,254641.015625,229247.375,230076.171875,377542.0,1.0,1
238137.546875,255568.421875,241312.75,250182.46875,225340.90625,254626.4375,229247.015625,230058.296875,377543.0,1.0,1
238051.71875,255534.0,241297.28125,250170.296875,225336.34375,254613.828125,229245.84375,230039.78125,377544.0,1.0,1
238033.9375,255543.9375,241299.96875,250172.359375,225353.515625,254625.625,229254.609375,230056.59375,377545.0,1.0,1
238089.359375,255564.671875,241308.375,250178.625,225359.5,254637.609375,229251.484375,230072.0625,377546.0,1.0,1
238142.203125,255567.265625,241309.09375,250178.53125,225345.296875,254633.234375,229241.5625,230064.1875,377547.0,1.0,1
238111.984375,255545.265625,241296.484375,250167.984375,225327.765625,254615.265625,229239.328125,230042.734375,377548.0,1.0,1
238041.625,255528.109375,241287.625,250162.609375,225331.875,254608.734375,229244.15625,230035.671875,377549.0,1.0,1
238027.578125,255538.296875,241295.9375,250171.546875,225354.59375,254625.09375,229258.640625,230055.609375,377550.0,1.0,1
238088.46875,255561.90625,241311.140625,250180.9375,225364.0625,254639.046875,229255.5,230071.078125,377551.0,1.0,1
238150.15625,255572.890625,241317.671875,250184.34375,225355.03125,254639.484375,229246.296875,230069.015625,377552.0,1.0,1
238115.921875,255545.265625,241302.375,250173.25,225334.390625,254620.171875,229239.859375,230043.71875,377553.0,1.0,1
238037.6875,255517.28125,241292.09375,250165.03125,225331.171875,254611.953125,229242.1875,230028.515625,377554.0,1.0,1
238024.09375,255531.6875,241299.875,250170.21875,225351.453125,254625.359375,229252.46875,230047.203125,377555.0,1.0,1
238083.546875,255555.828125,241313.203125,250179.328125,225357.546875,254636.984375,229251.484375,230064.1875,377556.0,1.0,1
238144.96875,255567.890625,241319.09375,250183.796875,225349.046875,254638.5,229244.59375,230066.609375,377557.0,1.0,1
238113.59375,255543.578125,241304.609375,250172.09375,225331.34375,254619.109375,229236.109375,230044.703125,377558.0,1.0,1
238044.390625,255528.1875,241296.296875,250168.609375,225338.234375,254614.1875,229244.15625,230039.25,377559.0,1.0,1
238032.046875,255544.734375,241307.03125,250178.890625,225363.0,254632.78125,229261.140625,230059.359375,377560.0,1.0,1
238092.484375,255572.0,241322.3125,250189.4375,225371.484375,254647.53125,229262.21875,230076.53125,377561.0,1.0,1
238152.484375,255582.109375,241325.625,250192.296875,225359.953125,254643.6875,229253.71875,230075.8125,377562.0,1.0,1
238120.5625,255555.203125,241313.828125,250184.25,225342.96875,254624.640625,229249.25,230055.78125,377563.0,1.0,1
238046.0,255533.734375,241303.984375,250177.8125,225347.265625,254619.546875,229254.34375,230044.96875,377564.0,1.0,1
238026.953125,255540.265625,241306.40625,250176.65625,225363.265625,254632.515625,229263.46875,230055.15625,377565.0,1.0,1
238087.9375,255562.96875,241317.046875,250184.078125,225371.75,254643.515625,229263.46875,230072.328125,377566.0,1.0,1
238148.640625,255573.703125,241321.421875,250187.015625,225363.796875,254644.859375,229259.96875,230074.921875,377567.0,1.0,1
238116.09375,255550.09375,241304.609375,250173.515625,225345.5625,254624.296875,229250.140625,230053.90625,377568.0,1.0,1
238042.421875,255534.625,241293.0,250164.765625,225350.125,254619.375,229254.609375,230044.703125,377569.0,1.0,1
238020.703125,255537.9375,241294.953125,250166.28125,225361.296875,254627.59375,229258.1875,230052.296875,377570.0,1.0,1
238073.8125,255552.609375,241304.34375,250170.296875,225363.796875,254638.328125,229258.28125,230066.703125,377571.0,1.0,1
238130.578125,255557.078125,241306.5,250171.546875,225349.5,254636.265625,229251.390625,230063.390625,377572.0,1.0,1
238104.03125,255533.5625,241292.8125,250162.4375,225330.265625,254619.8125,229243.796875,230039.609375,377573.0,1.0,1
238034.5625,255519.875,241285.65625,250158.140625,225334.5625,254617.765625,229252.015625,230033.25,377574.0,1.0,1
238015.609375,255529.09375,241290.484375,250160.109375,225349.765625,254628.21875,229258.1875,230045.234375,377575.0,1.0,1
238066.5625,255542.765625,241299.515625,250164.21875,225350.65625,254637.171875,229253.0,230055.609375,377576.0,1.0,1
238129.6875,255558.234375,241306.765625,250170.21875,225339.65625,254638.6875,229246.46875,230053.015625,377577.0,1.0,1
238107.421875,255542.5,241298.09375,250166.71875,225328.75,254624.203125,229241.375,230036.203125,377578.0,1.0,1
238032.859375,255520.140625,241289.15625,250161.71875,225334.828125,254619.734375,229248.078125,230030.84375,377579.0,1.0,1
238017.75,255535.25,241295.046875,250166.640625,225357.453125,254634.921875,229257.734375,230049.4375,377580.0,1.0,1
238077.03125,255561.90625,241308.015625,250176.109375,225368.359375,254650.484375,229260.328125,230068.21875,377581.0,1.0,1
238137.546875,255573.25,241312.125,250177.984375,225356.640625,254650.84375,229252.109375,230062.578125,377582.0,1.0,1
238105.640625,255542.671875,241298.453125,250168.875,225333.84375,254628.140625,229241.375,230035.5,377583.0,1.0,1
238033.65625,255516.125,241288.25,250162.171875,225333.84375,254619.375,229245.40625,230024.9375,377584.0,1.0,1
238018.28125,255530.15625,241294.0625,250166.015625,225351.453125,254629.03125,229253.09375,230043.09375,377585.0,1.0,1
238077.203125,255557.609375,241305.6875,250175.125,225360.484375,254642.34375,229255.953125,230064.109375,377586.0,1.0,1
238132.8125,255564.140625,241306.671875,250175.84375,225348.875,254639.484375,229247.640625,230059.09375,377587.0,1.0,1
238105.1875,255538.203125,241291.109375,250163.6875,225328.75,254618.03125,229237.171875,230035.046875,377588.0,1.0,1
238033.578125,255519.4375,241281.109375,250156.625,225329.5625,254611.0625,229242.09375,230024.765625,377589.0,1.0,1
238020.703125,255535.171875,241292.8125,250165.109375,225354.671875,254628.671875,229256.3125,230047.734375,377590.0,1.0,1
238079.96875,255562.078125,241307.484375,250174.6875,225365.59375,254643.15625,229258.8125,230069.46875,377591.0,1.0,1
238132.90625,255563.953125,241306.046875,250171.828125,225350.5625,254638.59375,229243.34375,230060.265625,377592.0,1.0,1
238102.234375,255534.09375,241294.15625,250163.328125,225329.640625,254618.03125,229236.015625,230032.984375,377593.0,1.0,1
238031.515625,255516.296875,241287.1875,250159.9375,225332.234375,254611.6875,229243.53125,230024.234375,377594.0,1.0,1
238020.34375,255534.0,241298.453125,250170.21875,225354.234375,254631.625,229259.96875,230042.28125,377595.0,1.0,1
238082.390625,255563.6875,241313.296875,250178.796875,225367.828125,254647.71875,229263.90625,230064.109375,377596.0,1.0,1
238139.15625,255566.734375,241312.9375,250179.328125,225352.359375,254639.046875,229246.125,230055.875,377597.0,1.0,1
238114.578125,255542.765625,241302.65625,250174.5,225334.828125,254624.296875,229241.375,230035.578125,377598.0,1.0,1
238041.984375,255523.90625,241292.90625,250167.796875,225336.796875,254617.9375,229245.046875,230024.578125,377599.0,1.0,1
238018.90625,255529.890625,241293.4375,250166.546875,225349.046875,254624.734375,229246.921875,230033.703125,377600.0,1.0,1
238077.734375,255553.234375,241307.484375,250176.921875,225357.09375,254637.875,229248.796875,230051.671875,377601.0,1.0,1
238141.75,255565.65625,241312.65625,250180.21875,225349.21875,254635.640625,229242.984375,230053.1875,377602.0,1.0,1
238115.734375,255545.09375,241301.390625,250170.21875,225334.296875,254619.8125,229237.71875,230033.53125,377603.0,1.0,1
238042.78125,255528.640625,241294.0625,250166.375,225339.390625,254617.578125,229245.140625,230028.34375,377604.0,1.0,1
238021.6875,255535.609375,241296.390625,250166.015625,225354.59375,254626.53125,229251.125,230044.515625,377605.0,1.0,1
238082.203125,255559.671875,241309.890625,250175.046875,225361.390625,254640.734375,229256.125,230059.546875,377606.0,1.0,1
238142.921875,255569.59375,241314.453125,250178.625,225349.140625,254637.796875,229244.953125,230055.078125,377607.0,1.0,1
238113.328125,255543.03125,241297.640625,250167.265625,225329.015625,254614.453125,229234.9375,230030.578125,377608.0,1.0,1
238039.46875,255520.140625,241287.8125,250161.265625,225333.671875,254608.90625,229242.453125,230021.640625,377609.0,1.0,1
238024.625,255531.234375,241296.65625,250168.515625,225356.203125,254626.703125,229257.109375,230043.0,377610.0,1.0,1
238083.90625,255556.09375,241307.921875,250177.8125,225361.296875,254639.578125,229255.6875,230059.09375,377611.0,1.0,1
238144.96875,255571.734375,241311.859375,250181.65625,225351.28125,254638.140625,229247.375,230062.84375,377612.0,1.0,1
238117.96875,255548.484375,241299.78125,250172.0,225332.5,254620.984375,229238.609375,230040.953125,377613.0,1.0,1
238042.875,255523.71875,241292.28125,250164.84375,225335.375,254614.71875,229242.984375,230029.765625,377614.0,1.0,1
238024.8125,255533.375,241302.375,250173.703125,225355.84375,254629.75,229253.71875,230043.984375,377615.0,1.0,1
238085.78125,255559.578125,241315.796875,250184.078125,225364.25,254643.6875,229257.203125,230062.765625,377616.0,1.0,1
238151.5,255574.59375,241320.078125,250186.390625,225357.890625,254646.1875,229251.578125,230065.71875,377617.0,1.0,1
238125.484375,255549.734375,241305.0625,250176.828125,225339.296875,254625.09375,229244.6875,230043.359375,377618.0,1.0,1
238048.859375,255527.21875,241294.15625,250168.96875,225340.375,254616.25,229248.0,230033.796875,377619.0,1.0,1
238024.453125,255534.8125,241297.640625,250170.65625,225358.703125,254628.84375,229254.171875,230049.265625,377620.0,1.0,1
238078.984375,255554.03125,241307.921875,250177.640625,225363.796875,254638.59375,229254.515625,230063.03125,377621.0,1.0,1
238141.671875,255566.453125,241312.390625,250179.0625,225354.5,254638.140625,229247.640625,230062.140625,377622.0,1.0,1
238121.015625,255551.0,241300.328125,250170.390625,225337.515625,254624.015625,229240.03125,230043.09375,377623.0,1.0,1
238043.765625,255525.953125,241286.90625,250161.984375,225335.453125,254616.421875,229244.59375,230029.859375,377624.0,1.0,1
238010.140625,255518.09375,241287.09375,250161.546875,225343.6875,254622.953125,229245.671875,230033.703125,377625.0,1.0,1
238069.0625,255545.625,241301.75,250171.546875,225354.59375,254637.078125,229245.21875,230052.484375,377626.0,1.0,1
238131.109375,255560.109375,241305.78125,250175.9375,225344.390625,254636.265625,229239.40625,230055.609375,377627.0,1.0,1
238107.6875,255538.75,241294.609375,250168.609375,225326.96875,254618.921875,229233.59375,230035.671875,377628.0,1.0,1
238035.71875,255520.59375,241286.109375,250161.8125,225330.71875,254612.84375,229239.859375,230025.484375,377629.0,1.0,1
238013.28125,255530.15625,241293.171875,250164.140625,225347.609375,254625.1875,229249.421875,230040.953125,377630.0,1.0,1
238074.25,255559.390625,241307.65625,250173.609375,225360.046875,254639.21875,229252.640625,230063.03125,377631.0,1.0,1
238140.59375,255577.640625,241312.578125,250177.1875,225354.40625,254640.65625,229245.40625,230063.828125,377632.0,1.0,1
238112.515625,255550.09375,241297.015625,250164.046875,225333.21875,254620.453125,229234.9375,230037.28125,377633.0,1.0,1
238034.015625,255515.140625,241286.90625,250156.984375,225327.328125,254610.34375,229235.390625,230023.6875,377634.0,1.0,1
238016.578125,255528.015625,241295.59375,250164.84375,225348.875,254626.25,229248.796875,230044.25,377635.0,1.0,1
238071.484375,255554.484375,241303.984375,250171.734375,225355.484375,254636.1875,229248.078125,230062.046875,377636.0,1.0,1
238137.375,255570.578125,241307.5625,250176.203125,225347.171875,254637.171875,229239.0625,230062.9375,377637.0,1.0,1
238109.84375,255546.4375,241293.984375,250166.453125,225326.515625,254617.765625,229228.859375,230036.828125,377638.0,1.0,1
238030.171875,255517.828125,241281.375,250155.90625,225325.984375,254609.53125,229232.265625,230023.25,377639.0,1.0,1
238008.0,255525.25,241287.359375,250159.484375,225345.828125,254622.953125,229244.234375,230038.71875,377640.0,1.0,1
238065.140625,255552.25,241298.265625,250168.421875,225352.890625,254633.140625,229244.515625,230056.40625,377641.0,1.0,1
238123.34375,255561.546875,241298.359375,250168.515625,225336.078125,254626.875,229230.375,230050.25,377642.0,1.0,1
238098.75,255535.703125,241286.015625,250160.375,225318.203125,254608.734375,229221.4375,230028.34375,377643.0,1.0,1
238045.46875,255538.828125,241290.046875,250165.75,225340.1875,254616.875,229242.28125,230041.75,377644.0,1.0,1
238044.21875,255581.390625,241309.265625,250180.3125,225387.21875,254647.71875,229270.890625,230087.078125,377645.0,1.0,1
238108.578125,255618.859375,241328.125,250193.015625,225409.3125,254671.140625,229280.984375,230117.75,377646.0,1.0,1
238185.203125,255647.1875,241339.484375,250203.734375,225411.1875,254683.828125,229284.65625,230132.59375,377647.0,1.0,1
238164.546875,255627.890625,241330.984375,250199.71875,225399.5625,254674.0,229287.15625,230117.65625,377648.0,1.0,1
238081.578125,255593.640625,241313.921875,250184.96875,225392.40625,254659.0625,229285.546875,230098.796875,377649.0,1.0,1
238055.5625,255601.234375,241315.171875,250184.515625,225406.265625,254666.21875,229289.125,230107.015625,377650.0,1.0,1
238107.421875,255621.984375,241328.578125,250193.90625,225413.515625,254677.9375,229289.125,230121.59375,377651.0,1.0,1
238155.53125,255614.03125,241321.609375,250186.75,225387.140625,254660.765625,229268.015625,230101.65625,377652.0,1.0,1
238120.390625,255573.875,241300.765625,250170.484375,225356.015625,254629.46875,229251.390625,230062.84375,377653.0,1.0,1
238041.796875,255541.78125,241284.765625,250160.921875,225349.21875,254616.25,229249.875,230042.828125,377654.0,1.0,1
238025.171875,255553.9375,241292.640625,250167.796875,225367.734375,254628.046875,229258.8125,230060.34375,377655.0,1.0,1
238076.3125,255568.703125,241301.125,250172.1875,225370.0625,254634.125,229253.890625,230071.796875,377656.0,1.0,1
238135.140625,255574.234375,241304.796875,250173.609375,225355.03125,254630.015625,229237.71875,230066.25,377657.0,1.0,1
238120.46875,255562.53125,241294.78125,250167.53125,225341.0,254616.515625,229234.234375,230049.171875,377658.0,1.0,1
238043.765625,255533.296875,241283.609375,250159.3125,225339.484375,254609.453125,229237.890625,230033.609375,377659.0,1.0,1
238010.234375,255527.125,241288.25,250164.84375,225350.75,254620.265625,229242.546875,230037.1875,377660.0,1.0,1
238064.234375,255547.234375,241301.578125,250173.25,225355.21875,254631.359375,229241.203125,230049.796875,377661.0,1.0,1
238135.140625,255568.421875,241306.40625,250175.578125,225347.96875,254635.640625,229237.265625,230057.671875,377662.0,1.0,1
238113.953125,255549.828125,241291.65625,250165.5625,225332.6875,254619.46875,229231.359375,230041.390625,377663.0,1.0,1
238035.359375,255521.484375,241279.84375,250157.34375,225331.4375,254611.140625,229236.015625,230025.390625,377664.0,1.0,1
238013.1875,255533.015625,241284.671875,250161.265625,225349.84375,254622.234375,229246.03125,230037.546875,377665.0,1.0,1
238070.40625,255557.34375,241299.515625,250171.640625,225358.171875,254633.671875,229246.390625,230056.328125,377666.0,1.0,1
238129.78125,255558.859375,241305.59375,250175.75,225343.859375,254635.90625,229239.234375,230052.921875,377667.0,1.0,1
238100.71875,255520.0625,241288.515625,250161.984375,225310.328125,254609.0,229220.28125,230015.640625,377668.0,1.0,1
238020.875,255486.078125,241271.09375,250149.203125,225298.078125,254596.21875,229216.4375,229990.515625,377669.0,1.0,1
237992.453125,255490.203125,241276.71875,250153.5,225316.140625,254610.796875,229229.671875,230004.203125,377670.0,1.0,1
238045.46875,255513.890625,241288.078125,250161.09375,225325.625,254623.390625,229232.96875,230025.03125,377671.0,1.0,1
238109.03125,255525.6875,241289.234375,250161.1875,225312.5625,254621.421875,229223.3125,230022.96875,377672.0,1.0,1
238087.21875,255498.59375,241276.0,250152.234375,225292.984375,254605.515625,229217.328125,230002.046875,377673.0,1.0,1
238023.109375,255485.90625,241270.640625,250148.3125,225297.1875,254596.84375,229220.09375,229997.21875,377674.0,1.0,1
238005.046875,255503.515625,241280.65625,250156.4375,225321.328125,254610.609375,229231.015625,230018.328125,377675.0,1.0,1
238061.734375,255533.203125,241296.84375,250171.203125,225338.765625,254628.9375,229239.40625,230045.421875,377676.0,1.0,1
238128.4375,255548.21875,241303.984375,250176.734375,225331.875,254633.671875,229234.578125,230048.09375,377677.0,1.0,1
238105.359375,255526.9375,241288.25,250163.859375,225310.609375,254611.5,229221.265625,230018.5,377678.0,1.0,1
238029.015625,255502.625,241275.734375,250156.359375,225311.671875,254604.265625,229229.125,230009.65625,377679.0,1.0,1
238006.390625,255517.640625,241285.03125,250164.140625,225337.25,254623.390625,229247.109375,230034.6875,377680.0,1.0,1
238064.328125,255549.65625,241300.140625,250174.5,225349.9375,254637.609375,229249.25,230057.484375,377681.0,1.0,1
238122.265625,255557.703125,241299.96875,250171.734375,225332.953125,254632.515625,229230.921875,230049.34375,377682.0,1.0,1
238095.078125,255523.28125,241286.46875,250159.578125,225304.96875,254611.953125,229216.34375,230014.921875,377683.0,1.0,1
238019.09375,255494.671875,241276.453125,250152.59375,225300.765625,254602.296875,229220.71875,229998.828125,377684.0,1.0,1
238001.03125,255509.6875,241284.5,250159.75,225325.625,254618.5625,229238.25,230021.90625,377685.0,1.0,1
238060.75,255540.796875,241300.140625,250169.140625,225340.828125,254635.734375,229244.328125,230045.78125,377686.0,1.0,1
238124.40625,255554.296875,241304.34375,250169.765625,225332.15625,254636.265625,229235.921875,230045.234375,377687.0,1.0,1
238104.921875,255529.984375,241293.796875,250163.234375,225316.234375,254617.3125,229229.578125,230026.546875,377688.0,1.0,1
238031.875,255505.125,241281.28125,250155.90625,225313.1875,254604.078125,229233.25,230014.578125,377689.0,1.0,1
238003.625,255507.71875,241282.796875,250154.203125,225320.171875,254609.71875,229237.53125,230019.9375,377690.0,1.0,1
238062.0,255536.953125,241298.53125,250163.6875,225332.78125,254623.125,229242.546875,230043.625,377691.0,1.0,1
238131.65625,255556.8125,241304.265625,250166.453125,225330.890625,254621.515625,229236.640625,230052.21875,377692.0,1.0,1
238107.25,255526.765625,241289.5,250154.5625,225307.734375,254599.25,229225.28125,230020.296875,377693.0,1.0,1
238041.0,255511.828125,241282.0,250149.296875,225314.984375,254591.203125,229231.453125,230013.859375,377694.0,1.0,1
238022.484375,255530.78125,241293.0,250157.609375,225349.5,254607.921875,229251.390625,230046.671875,377695.0,1.0,1
238073.09375,255554.921875,241303.8125,250163.0625,225359.234375,254618.390625,229255.5,230067.046875,377696.0,1.0,1
238136.75,255566.1875,241308.46875,250166.8125,225347.265625,254615.96875,229248.984375,230066.875,377697.0,1.0,1
238117.34375,255540.4375,241296.484375,250157.515625,225326.875,254596.578125,229239.859375,230043.625,377698.0,1.0,1
238044.484375,255517.46875,241283.78125,250146.96875,225323.125,254586.921875,229240.9375,230031.296875,377699.0,1.0,1
238020.703125,255528.734375,241288.34375,250150.546875,225338.3125,254598.984375,229252.46875,230050.25,377700.0,1.0,1
238073.1875,255551.34375,241301.9375,250160.203125,225348.15625,254611.6875,229256.3125,230071.796875,377701.0,1.0,1
238138.171875,255567.0,241306.140625,250164.140625,225337.25,254614.8125,229249.78125,230075.71875,377702.0,1.0,1
238119.5,255548.765625,241292.71875,250153.765625,225314.625,254596.75,229242.09375,230053.1875,377703.0,1.0,1
238042.15625,255521.9375,241279.578125,250144.109375,225309.53125,254586.109375,229244.328125,230038.171875,377704.0,1.0,1
238015.328125,255529.53125,241286.015625,250148.046875,225325.171875,254598.71875,229253.1875,230050.6875,377705.0,1.0,1
238074.875,255562.265625,241303.640625,250161.0,225340.828125,254618.203125,229262.296875,230076.890625,377706.0,1.0,1
238142.109375,255580.140625,241310.703125,250166.375,225334.921875,254623.125,229259.34375,230082.703125,377707.0,1.0,1
238124.40625,255562.171875,241297.203125,250156.625,225317.484375,254603.28125,229247.640625,230062.140625,377708.0,1.0,1
238048.0625,255534.09375,241285.125,250147.328125,225314.0,254590.3125,229245.671875,230046.484375,377709.0,1.0,1
238016.9375,255538.65625,241285.84375,250147.421875,225326.875,254600.328125,229252.375,230053.1875,377710.0,1.0,1
238069.96875,255568.515625,241297.734375,250155.640625,225340.28125,254617.3125,229255.859375,230073.765625,377711.0,1.0,1
238134.609375,255583.8125,241303.71875,250158.765625,225332.6875,254618.921875,229248.796875,230078.859375,377712.0,1.0,1
238114.3125,255561.71875,241287.453125,250145.625,225309.703125,254597.296875,229237.171875,230051.40625,377713.0,1.0,1
238038.9375,255535.609375,241274.484375,250135.796875,225303.453125,254585.75,229236.46875,230030.21875,377714.0,1.0,1
238006.578125,255535.890625,241276.0,250135.796875,225314.890625,254593.09375,229242.90625,230036.203125,377715.0,1.0,1
238062.71875,255560.109375,241290.484375,250146.78125,225326.96875,254608.546875,229246.828125,230060.96875,377716.0,1.0,1
238129.15625,255572.359375,241297.546875,250151.34375,225319.90625,254611.328125,229237.625,230064.640625,377717.0,1.0,1
238111.0,255549.828125,241285.484375,250144.734375,225303.0,254595.328125,229232.53125,230043.984375,377718.0,1.0,1
238036.703125,255525.515625,241274.9375,250138.734375,225304.609375,254586.203125,229236.640625,230031.296875,377719.0,1.0,1
238013.546875,255541.25,241284.046875,250144.828125,225330.265625,254602.109375,229250.859375,230049.4375,377720.0,1.0,1
238065.21875,255562.53125,241297.015625,250153.84375,225341.71875,254616.59375,229254.515625,230065.796875,377721.0,1.0,1
238127.71875,255568.609375,241299.875,250153.3125,225329.90625,254616.421875,229242.984375,230062.40625,377722.0,1.0,1
238109.65625,255547.328125,241287.984375,250144.28125,225311.5,254600.421875,229233.875,230042.015625,377723.0,1.0,1
238037.234375,255523.28125,241278.234375,250138.734375,225313.90625,254592.46875,229238.609375,230030.84375,377724.0,1.0,1
238015.609375,255538.203125,241286.828125,250144.46875,225339.921875,254607.125,229252.015625,230051.578125,377725.0,1.0,1
238066.921875,255564.3125,241300.328125,250154.75,225351.90625,254622.765625,229256.671875,230072.328125,377726.0,1.0,1
238132.90625,255580.9375,241307.03125,250159.125,225345.015625,254626.53125,229251.390625,230076.984375,377727.0,1.0,1
238106.265625,255545.546875,241289.59375,250144.828125,225314.796875,254601.046875,229232.796875,230045.140625,377728.0,1.0,1
238032.765625,255517.46875,241277.34375,250136.0625,225308.015625,254588.078125,229234.046875,230028.34375,377729.0,1.0,1
238011.046875,255534.8125,241285.578125,250142.3125,225333.671875,254607.125,229254.96875,230049.890625,377730.0,1.0,1
238059.40625,255561.28125,241294.953125,250148.578125,225342.34375,254619.734375,229255.78125,230066.875,377731.0,1.0,1
238124.59375,255574.859375,241299.25,250151.171875,225331.34375,254620.0,229244.234375,230068.84375,377732.0,1.0,1
238113.40625,255558.421875,241291.109375,250146.515625,225316.953125,254603.546875,229237.265625,230053.90625,377733.0,1.0,1
238043.3125,255541.0625,241280.65625,250140.078125,225318.46875,254592.46875,229240.75,230042.015625,377734.0,1.0,1
238014.34375,255550.28125,241287.625,250146.609375,225340.1875,254606.59375,229253.265625,230057.390625,377735.0,1.0,1
238061.28125,255568.15625,241298.53125,250153.671875,225348.234375,254620.625,229253.09375,230071.96875,377736.0,1.0,1
238124.40625,255577.546875,241303.28125,250156.265625,225337.328125,254622.0625,229244.234375,230072.0625,377737.0,1.0,1
238104.5625,255546.515625,241287.0,250144.46875,225311.671875,254597.296875,229228.59375,230044.609375,377738.0,1.0,1
238030.078125,255522.46875,241272.25,250133.203125,225311.671875,254586.5625,229229.125,230029.328125,377739.0,1.0,1
238001.46875,255532.390625,241276.71875,250138.65625,225331.96875,254600.859375,229240.84375,230045.0625,377740.0,1.0,1
238052.34375,255556.984375,241289.59375,250147.859375,225343.859375,254617.140625,229241.734375,230064.640625,377741.0,1.0,1
238122.078125,255574.6875,241298.453125,250154.75,225336.4375,254621.34375,229237.796875,230068.03125,377742.0,1.0,1
238112.078125,255557.4375,241289.421875,250148.578125,225316.765625,254603.8125,229231.453125,230048.359375,377743.0,1.0,1
238039.203125,255533.109375,241280.125,250142.765625,225316.234375,254594.96875,229238.34375,230037.640625,377744.0,1.0,1
237999.859375,255528.546875,241277.4375,250139.1875,225326.15625,254600.953125,229239.765625,230044.96875,377745.0,1.0,1
238051.453125,255552.25,241290.484375,250149.46875,225337.25,254614.90625,229241.640625,230067.953125,377746.0,1.0,1
238122.71875,255573.078125,241298.359375,250156.625,225332.0625,254618.5625,229236.546875,230075.28125,377747.0,1.0,1
238105.546875,255549.296875,241283.78125,250144.203125,225311.140625,254597.921875,229223.234375,230049.0,377748.0,1.0,1
238028.484375,255519.609375,241271.359375,250133.734375,225305.953125,254585.125,229224.84375,230030.84375,377749.0,1.0,1
237995.484375,255521.21875,241275.5625,250136.59375,225322.578125,254594.96875,229234.9375,230043.8125,377750.0,1.0,1
238052.890625,255552.421875,241290.765625,250148.125,225337.953125,254608.203125,229236.375,230068.21875,377751.0,1.0,1
238118.15625,255565.828125,241292.8125,250147.5,225328.390625,254609.265625,229225.28125,230068.65625,377752.0,1.0,1
238101.4375,255544.375,241279.84375,250138.65625,225305.59375,254591.390625,229216.796875,230043.53125,377753.0,1.0,1
238026.78125,255523.015625,241268.40625,250131.859375,225304.703125,254582.0,229221.625,230029.234375,377754.0,1.0,1
237996.375,255530.875,241272.4375,250134.1875,225326.609375,254595.234375,229234.9375,230045.234375,377755.0,1.0,1
238040.546875,255548.671875,241279.578125,250140.078125,225333.578125,254603.90625,229230.296875,230062.40625,377756.0,1.0,1
238112.4375,255565.921875,241286.90625,250145.359375,225325.265625,254607.296875,229223.765625,230065.265625,377757.0,1.0,1
238098.921875,255539.90625,241274.9375,250136.0625,225301.484375,254587.546875,229214.734375,230039.78125,377758.0,1.0,1
238021.6875,255505.578125,241261.25,250127.46875,225297.1875,254578.25,229217.953125,230022.796875,377759.0,1.0,1
237992.796875,255514.96875,241268.578125,250133.5625,225321.234375,254594.703125,229231.28125,230038.890625,377760.0,1.0,1
238049.9375,255549.03125,241284.765625,250146.4375,225338.59375,254611.328125,229237.0,230065.0,377761.0,1.0,1
238118.6875,255563.6875,241293.265625,250151.96875,225334.03125,254616.421875,229234.578125,230069.28125,377762.0,1.0,1
238099.46875,255531.234375,241277.34375,250136.953125,225307.734375,254593.890625,229216.53125,230034.421875,377763.0,1.0,1
238031.875,255515.671875,241273.59375,250134.0,225312.5625,254591.65625,229229.046875,230026.015625,377764.0,1.0,1
238000.40625,255524.96875,241277.078125,250136.421875,225332.234375,254599.4375,229233.15625,230040.40625,377765.0,1.0,1
238045.546875,255545.359375,241286.5625,250142.3125,225340.90625,254609.1875,229230.296875,230054.984375,377766.0,1.0,1
238117.078125,255562.34375,241297.28125,250150.90625,225337.328125,254614.8125,229228.5,230061.953125,377767.0,1.0,1
238106.796875,255543.65625,241287.0,250145.984375,225319.0,254598.984375,229223.234375,230046.046875,377768.0,1.0,1
238043.3125,255533.5625,241277.796875,250141.15625,225325.53125,254590.765625,229231.8125,230044.4375,377769.0,1.0,1
238022.125,255559.671875,241287.546875,250149.921875,225361.75,254610.875,229252.28125,230074.921875,377770.0,1.0,1
238072.015625,255590.515625,241299.96875,250158.046875,225378.546875,254626.96875,229256.84375,230096.109375,377771.0,1.0,1
238133.078125,255599.453125,241301.125,250157.96875,225366.484375,254626.078125,229247.8125,230093.703125,377772.0,1.0,1
238120.390625,255580.234375,241285.75,250147.6875,225343.40625,254605.0625,229236.734375,230068.84375,377773.0,1.0,1
238046.0,255551.265625,241271.53125,250139.375,225341.359375,254590.671875,229235.125,230054.71875,377774.0,1.0,1
238016.9375,255557.25,241276.625,250143.484375,225362.1875,254602.109375,229244.234375,230066.875,377775.0,1.0,1
238066.46875,255581.75,241292.375,250153.046875,225374.96875,254616.78125,229251.03125,230084.046875,377776.0,1.0,1
238134.953125,255598.296875,241300.953125,250158.859375,225369.25,254620.71875,229244.515625,230085.375,377777.0,1.0,1
238124.140625,255579.6875,241288.078125,250150.8125,225350.296875,254604.0,229233.953125,230063.75,377778.0,1.0,1
238051.09375,255550.546875,241273.59375,250140.890625,225343.140625,254589.6875,229233.328125,230047.921875,377779.0,1.0,1
238022.046875,255556.0,241278.875,250145.453125,225359.5,254598.71875,229245.21875,230062.140625,377780.0,1.0,1
238074.34375,255584.34375,241295.5,250156.890625,225372.5625,254617.5,229253.453125,230084.046875,377781.0,1.0,1
238133.984375,255588.546875,241298.53125,250157.515625,225352.625,254614.28125,229235.75,230072.859375,377782.0,1.0,1
238122.4375,255563.953125,241287.09375,250150.71875,225329.734375,254594.078125,229225.109375,230051.578125,377783.0,1.0,1
238046.453125,255530.34375,241270.640625,250139.640625,225322.671875,254578.25,229226.453125,230037.1875,377784.0,1.0,1
238011.484375,255532.21875,241272.15625,250141.25,225339.65625,254590.9375,229233.953125,230049.96875,377785.0,1.0,1
238057.171875,255550.8125,241286.734375,250151.265625,225353.25,254608.828125,229237.09375,230069.734375,377786.0,1.0,1
238130.578125,255568.609375,241296.84375,250160.375,225351.015625,254616.15625,229236.28125,230077.421875,377787.0,1.0,1
238121.1875,255550.546875,241281.8125,250147.59375,225328.9375,254593.796875,229219.828125,230052.921875,377788.0,1.0,1
238047.25,255525.421875,241268.859375,250137.84375,225325.078125,254582.265625,229221.359375,230038.0,377789.0,1.0,1
238010.234375,255529.265625,241271.984375,250140.796875,225342.15625,254594.96875,229234.40625,230047.65625,377790.0,1.0,1
238035.890625,255521.671875,241274.671875,250139.546875,225325.796875,254596.03125,229219.296875,230034.859375,377791.0,1.0,1
238094.640625,255514.875,241278.421875,250140.171875,225298.359375,254590.671875,229199.984375,230012.0625,377792.0,1.0,1
238080.59375,255485.015625,241267.25,250130.515625,225273.046875,254573.59375,229188.453125,229985.609375,377793.0,1.0,1
238007.109375,255458.453125,241254.1875,250119.875,225266.703125,254561.171875,229194.0,229971.296875,377794.0,1.0,1
237984.578125,255480.8125,241266.171875,250129.796875,225296.03125,254580.484375,229217.515625,229999.8125,377795.0,1.0,1
238027.046875,255499.046875,241272.609375,250132.21875,225301.390625,254588.53125,229213.21875,230014.125,377796.0,1.0,1
238092.84375,255509.6875,241277.4375,250135.96875,225291.46875,254589.15625,229204.1875,230016.265625,377797.0,1.0,1
238082.390625,255489.578125,241269.296875,250132.125,225270.90625,254572.875,229197.65625,229996.15625,377798.0,1.0,1
238013.359375,255468.921875,241257.59375,250123.984375,225270.640625,254563.84375,229200.78125,229982.921875,377799.0,1.0,1
237988.875,255487.6875,241265.71875,250130.15625,225294.6875,254579.046875,229215.546875,230002.953125,377800.0,1.0,1
238036.96875,255516.75,241278.421875,250140.265625,225305.859375,254591.5625,229217.234375,230023.0625,377801.0,1.0,1
238095.53125,255519.703125,241280.65625,250140.4375,225292.546875,254590.21875,229206.328125,230018.140625,377802.0,1.0,1
238080.875,255491.09375,241269.484375,250134.0,225270.1875,254574.21875,229198.28125,229995.4375,377803.0,1.0,1
238022.578125,255480.8125,241262.328125,250128.90625,225280.65625,254570.109375,229210.625,229995.34375,377804.0,1.0,1
237995.484375,255496.1875,241268.5,250133.109375,225309.796875,254585.578125,229225.203125,230020.828125,377805.0,1.0,1
238043.671875,255524.078125,241280.65625,250142.9375,225327.328125,254601.84375,229229.9375,230046.75,377806.0,1.0,1
238121.28125,255554.125,241292.640625,250152.515625,225330.359375,254611.5,229228.765625,230057.75,377807.0,1.0,1
238115.921875,255539.640625,241284.859375,250147.5,225317.578125,254600.328125,229224.03125,230039.609375,377808.0,1.0,1
238035.09375,255504.859375,241268.140625,250134.546875,225309.53125,254582.359375,229218.40625,230014.921875,377809.0,1.0,1
237997.546875,255505.75,241271.453125,250136.328125,225324.28125,254589.25,229225.90625,230020.296875,377810.0,1.0,1
238039.390625,255523.640625,241282.984375,250146.25,225332.6875,254601.40625,229227.25,230035.671875,377811.0,1.0,1
238114.75,255548.40625,241291.921875,250154.5625,225331.171875,254607.21875,229225.015625,230048.09375,377812.0,1.0,1
238112.078125,255541.515625,241281.28125,250146.96875,225315.875,254592.015625,229216.796875,230032.359375,377813.0,1.0,1
238042.25,255518.984375,241268.3125,250138.65625,225315.875,254584.140625,229222.875,230018.59375,377814.0,1.0,1
238005.953125,255520.328125,241270.375,250141.515625,225334.5625,254594.96875,229234.234375,230032.625,377815.0,1.0,1
238052.078125,255547.5,241281.8125,250150.546875,225347.171875,254607.75,229237.53125,230055.609375,377816.0,1.0,1
238119.5,255564.578125,241286.5625,250151.4375,225333.9375,254607.75,229228.328125,230057.046875,377817.0,1.0,1
238106.34375,255537.84375,241271.453125,250137.765625,225305.953125,254583.15625,229215.09375,230030.578125,377818.0,1.0,1
238028.75,255502.71875,241256.15625,250128.640625,225298.984375,254568.765625,229216.34375,230010.09375,377819.0,1.0,1
237992.0,255503.15625,241260.53125,250131.59375,225315.078125,254579.9375,229228.234375,230020.375,377820.0,1.0,1
238039.734375,255535.078125,241272.609375,250139.640625,225325.890625,254593.171875,229228.234375,230040.234375,377821.0,1.0,1
238108.671875,255552.328125,241278.875,250145.53125,225319.359375,254595.765625,229216.96875,230046.671875,377822.0,1.0,1
238101.4375,255530.078125,241265.453125,250134.453125,225296.203125,254578.953125,229205.4375,230024.9375,377823.0,1.0,1
238029.8125,255506.375,241253.65625,250126.140625,225291.734375,254568.328125,229210.171875,230010.90625,377824.0,1.0,1
237992.71875,255506.109375,241259.375,250130.609375,225308.546875,254579.671875,229221.0,230021.640625,377825.0,1.0,1
238034.203125,255518.8125,241269.5625,250137.125,225311.671875,254589.328125,229218.140625,230028.421875,377826.0,1.0,1
238108.40625,255537.578125,241278.234375,250144.828125,225308.1875,254598.359375,229215.1875,230037.109375,377827.0,1.0,1
238106.703125,255524.625,241269.921875,250139.375,225299.875,254588.890625,229212.234375,230029.5,377828.0,1.0,1
238045.203125,255517.46875,241262.78125,250135.171875,225313.546875,254582.625,229222.25,230031.640625,377829.0,1.0,1
238018.015625,255540.796875,241271.796875,250142.9375,225344.3125,254599.171875,229240.03125,230057.9375,377830.0,1.0,1
238060.484375,255562.171875,241283.703125,250152.421875,225357.265625,254613.109375,229243.34375,230076.265625,377831.0,1.0,1
238118.515625,255560.46875,241284.328125,250151.171875,225336.703125,254608.546875,229224.21875,230064.1875,377832.0,1.0,1
238112.96875,255540.359375,241274.390625,250142.40625,225315.34375,254592.546875,229213.390625,230040.859375,377833.0,1.0,1
238050.734375,255528.109375,241266.34375,250137.046875,225320.890625,254586.46875,229223.234375,230033.25,377834.0,1.0,1
238019.09375,255541.34375,241270.640625,250143.390625,225347.96875,254601.671875,229240.484375,230054.171875,377835.0,1.0,1
238061.28125,255562.34375,241278.421875,250147.859375,225359.0625,254613.296875,229243.34375,230074.03125,377836.0,1.0,1
238132.09375,255581.390625,241285.125,250150.453125,225351.640625,254614.453125,229237.09375,230079.75,377837.0,1.0,1
238128.25,255567.984375,241275.65625,250144.640625,225331.96875,254598.8125,229226.8125,230057.9375,377838.0,1.0,1
238049.671875,255533.734375,241260.8125,250135.078125,225325.078125,254585.3125,229225.90625,230037.8125,377839.0,1.0,1
238010.953125,255536.15625,241264.828125,250137.3125,225343.953125,254596.65625,229236.8125,230052.03125,377840.0,1.0,1
238050.828125,255557.609375,241276.71875,250144.28125,225354.40625,254610.4375,229238.421875,230068.390625,377841.0,1.0,1
238120.921875,255574.859375,241282.265625,250146.078125,225346.625,254615.890625,229232.703125,230068.21875,377842.0,1.0,1
238113.5,255550.71875,241273.0625,250140.984375,225326.96875,254602.390625,229225.546875,230045.0625,377843.0,1.0,1
238034.375,255513.890625,241258.03125,250130.6875,225315.703125,254584.859375,229219.203125,230023.6875,377844.0,1.0,1
237999.59375,255522.03125,241263.125,250133.28125,225336.078125,254595.953125,229234.40625,230039.34375,377845.0,1.0,1
238049.3125,255553.046875,241276.28125,250143.75,225352.796875,254611.6875,229242.71875,230064.546875,377846.0,1.0,1
238113.953125,255557.875,241279.671875,250146.25,225337.421875,254611.5,229229.9375,230060.703125,377847.0,1.0,1
238112.078125,255543.84375,241268.3125,250138.03125,225317.9375,254593.890625,229219.296875,230038.984375,377848.0,1.0,1
238042.78125,255520.5,241258.390625,250132.21875,225316.59375,254582.984375,229222.421875,230024.3125,377849.0,1.0,1
238006.125,255523.359375,241266.171875,250138.03125,225338.671875,254595.40625,229237.171875,230039.34375,377850.0,1.0,1
238042.25,255537.765625,241275.5625,250143.125,225346.453125,254606.140625,229237.359375,230053.46875,377851.0,1.0,1
238113.6875,255554.75,241282.0,250149.203125,225338.9375,254610.796875,229229.9375,230057.046875,377852.0,1.0,1
238116.09375,255544.828125,241279.3125,250148.75,225327.328125,254603.09375,229227.796875,230044.875,377853.0,1.0,1
238036.34375,255508.875,241261.875,250135.34375,225314.0,254585.125,229224.84375,230017.796875,377854.0,1.0,1
237995.3125,255507.546875,241262.953125,250136.859375,225332.328125,254595.859375,229237.53125,230030.21875,377855.0,1.0,1
238039.5625,255536.15625,241274.046875,250144.109375,225343.765625,254605.25,229233.421875,230050.15625,377856.0,1.0,1
238115.46875,255561.546875,241286.46875,250152.515625,225343.40625,254613.296875,229230.46875,230060.53125,377857.0,1.0,1
238117.96875,255553.5,241279.765625,250146.96875,225326.96875,254600.15625,229224.75,230043.09375,377858.0,1.0,1
238038.046875,255516.921875,241263.75,250134.1875,225314.796875,254579.234375,229221.265625,230017.875,377859.0,1.0,1
237998.890625,255521.125,241267.78125,250137.40625,225332.953125,254587.1875,229230.46875,230030.125,377860.0,1.0,1
238047.34375,255548.671875,241283.34375,250148.671875,225347.796875,254605.328125,229237.09375,230053.734375,377861.0,1.0,1
238116.359375,255563.515625,241289.234375,250150.8125,225339.484375,254607.21875,229227.515625,230057.484375,377862.0,1.0,1
238117.25,255547.15625,241280.75,250146.078125,225324.90625,254595.234375,229221.265625,230043.53125,377863.0,1.0,1
238046.171875,255514.25,241266.796875,250137.3125,225319.984375,254583.34375,229221.078125,230024.859375,377864.0,1.0,1
238007.828125,255518.09375,241266.53125,250137.765625,225333.21875,254592.109375,229230.734375,230030.84375,377865.0,1.0,1
238046.625,255539.28125,241278.515625,250146.703125,225345.65625,254606.046875,229235.296875,230051.40625,377866.0,1.0,1
238113.140625,255551.4375,241284.59375,250149.203125,225336.34375,254605.421875,229226.625,230055.875,377867.0,1.0,1
238113.5,255536.328125,241275.828125,250142.59375,225315.78125,254588.96875,229218.21875,230037.109375,377868.0,1.0,1
238039.921875,255503.96875,241264.390625,250134.09375,225308.359375,254577.53125,229220.71875,230018.765625,377869.0,1.0,1
238003.703125,255509.78125,241269.75,250140.34375,225330.265625,254589.515625,229234.046875,230035.578125,377870.0,1.0,1
238049.3125,255537.3125,241283.15625,250151.265625,225346.09375,254606.140625,229234.234375,230057.484375,377871.0,1.0,1
238119.9375,255554.65625,241290.3125,250155.90625,225338.3125,254607.921875,229224.84375,230057.84375,377872.0,1.0,1
238116.546875,255539.8125,241281.546875,250149.375,225321.78125,254594.515625,229219.65625,230038.53125,377873.0,1.0,1
238033.390625,255498.515625,241260.890625,250134.359375,225306.125,254573.328125,229208.5625,230009.828125,377874.0,1.0,1
237998.25,255502.171875,241265.546875,250137.765625,225327.328125,254585.484375,229220.8125,230021.640625,377875.0,1.0,1
238045.109375,255533.109375,241281.375,250147.5,225344.75,254603.453125,229230.734375,230044.96875,377876.0,1.0,1
238117.96875,255554.921875,241286.828125,250150.28125,225338.046875,254608.109375,229221.984375,230050.328125,377877.0,1.0,1
238117.4375,255540.984375,241277.609375,250143.125,225317.75,254592.8125,229213.484375,230028.609375,377878.0,1.0,1
238046.71875,255513.0,241267.78125,250138.109375,225313.46875,254582.453125,229219.46875,230011.265625,377879.0,1.0,1
238006.578125,255515.859375,241271.359375,250140.984375,225333.125,254594.96875,229233.78125,230027.0,377880.0,1.0,1
238049.9375,255543.296875,241285.125,250149.921875,225351.28125,254612.9375,229239.140625,230049.171875,377881.0,1.0,1
238120.390625,255559.125,241293.4375,250156.171875,225345.921875,254618.390625,229233.0625,230051.40625,377882.0,1.0,1
238118.328125,255540.0,241279.765625,250145.171875,225320.890625,254598.453125,229221.265625,230026.46875,377883.0,1.0,1
238048.234375,255513.171875,241266.0,250135.796875,225315.078125,254582.625,229221.703125,230009.296875,377884.0,1.0,1
238006.65625,255513.890625,241268.671875,250140.171875,225331.34375,254593.890625,229233.6875,230020.5625,377885.0,1.0,1
238048.0625,255536.421875,241284.5,250153.046875,225345.375,254609.71875,229240.578125,230041.296875,377886.0,1.0,1
238119.21875,255554.03125,241291.921875,250156.09375,225339.5625,254611.765625,229231.015625,230043.984375,377887.0,1.0,1
238113.6875,255529.453125,241278.515625,250143.390625,225315.703125,254591.203125,229212.765625,230019.046875,377888.0,1.0,1
238041.171875,255499.3125,241268.234375,250139.546875,225311.765625,254582.09375,229218.9375,230005.09375,377889.0,1.0,1
238000.484375,255504.5,241272.609375,250144.28125,225331.171875,254593.0,229230.921875,230019.40625,377890.0,1.0,1
238039.65625,255526.859375,241283.421875,250151.078125,225341.265625,254605.96875,229233.328125,230035.9375,377891.0,1.0,1
238111.625,255541.96875,241293.265625,250159.21875,225336.171875,254611.5,229228.140625,230042.640625,377892.0,1.0,1
238112.703125,255526.40625,241283.25,250153.046875,225318.015625,254596.03125,229217.328125,230024.40625,377893.0,1.0,1
238039.296875,255493.328125,241265.359375,250139.640625,225307.65625,254577.0,229215.0,230003.125,377894.0,1.0,1
238001.65625,255497.96875,241267.6875,250141.15625,225324.640625,254587.0,229228.421875,230016.1875,377895.0,1.0,1
238043.671875,255525.0625,241280.484375,250149.375,225340.109375,254603.453125,229235.484375,230040.953125,377896.0,1.0,1
238117.4375,255549.46875,241288.25,250153.5,225335.8125,254611.234375,229233.0625,230048.71875,377897.0,1.0,1
238115.828125,255532.84375,241278.234375,250145.890625,225315.25,254593.625,229220.1875,230027.984375,377898.0,1.0,1
238044.65625,255508.078125,241266.34375,250136.953125,225310.515625,254582.71875,229225.90625,230011.53125,377899.0,1.0,1
238003.984375,255511.5625,241267.875,250138.109375,225329.375,254591.03125,229235.921875,230024.046875,377900.0,1.0,1
238045.734375,255535.796875,241283.96875,250152.6875,225348.515625,254610.25,229246.46875,230050.0625,377901.0,1.0,1
238110.734375,255550.1875,241288.078125,250153.5,225337.6875,254609.0,229232.171875,230047.46875,377902.0,1.0,1
238114.578125,255537.9375,241278.0625,250147.0625,225319.359375,254594.703125,229221.890625,230028.34375,377903.0,1.0,1
238039.203125,255504.6875,241262.78125,250137.765625,225308.546875,254579.3125,229221.4375,230008.40625,377904.0,1.0,1
237994.765625,255503.34375,241264.5625,250138.46875,225323.921875,254587.8125,229231.28125,230019.046875,377905.0,1.0,1
238033.578125,255523.1875,241278.875,250149.03125,225339.65625,254607.03125,229239.5,230040.5,377906.0,1.0,1
238109.65625,255546.078125,241287.453125,250155.015625,225335.1875,254614.1875,229234.046875,230047.46875,377907.0,1.0,1
238111.71875,255531.6875,241274.390625,250144.015625,225313.1875,254597.375,229219.296875,230025.75,377908.0,1.0,1
238040.09375,255503.703125,241261.875,250135.4375,225308.453125,254584.5,229221.984375,230011.4375,377909.0,1.0,1
238000.140625,255510.765625,241264.828125,250140.171875,225328.21875,254594.34375,229235.03125,230024.9375,377910.0,1.0,1
238037.5,255533.015625,241275.828125,250150.28125,225342.15625,254610.15625,229239.40625,230044.171875,377911.0,1.0,1
238104.46875,255540.890625,241282.53125,250154.125,225329.828125,254611.953125,229229.046875,230043.1875,377912.0,1.0,1
238115.640625,255536.859375,241279.046875,250150.8125,225317.84375,254600.328125,229226.09375,230032.09375,377913.0,1.0,1
238047.78125,255514.34375,241269.21875,250146.34375,225316.40625,254589.59375,229233.328125,230021.015625,377914.0,1.0,1
237997.1875,255504.5,241268.40625,250145.453125,225326.6875,254596.3125,229238.25,230024.40625,377915.0,1.0,1
238037.78125,255526.671875,241279.21875,250152.78125,225339.65625,254608.734375,229234.3125,230041.921875,377916.0,1.0,1
238117.609375,255555.90625,241291.109375,250160.828125,225339.5625,254617.578125,229231.8125,230052.75,377917.0,1.0,1
238115.296875,255537.84375,241281.640625,250153.5,225317.84375,254602.828125,229221.171875,230028.875,377918.0,1.0,1
238043.3125,255505.390625,241269.03125,250145.359375,225313.375,254587.640625,229222.15625,230011.796875,377919.0,1.0,1
238004.15625,255509.859375,241271.71875,250146.96875,225332.78125,254597.375,229233.515625,230023.59375,377920.0,1.0,1
238043.40625,255533.921875,241283.15625,250155.015625,225348.15625,254614.359375,229240.21875,230044.25,377921.0,1.0,1
238114.671875,255551.171875,241290.765625,250158.40625,225344.125,254621.34375,229235.296875,230052.5625,377922.0,1.0,1
238119.578125,255537.140625,241280.921875,250150.453125,225323.5625,254603.71875,229221.984375,230033.96875,377923.0,1.0,1
238045.734375,255507.625,241262.0625,250135.875,225312.65625,254584.234375,229217.6875,230011.890625,377924.0,1.0,1
237999.234375,255507.09375,241264.65625,250138.03125,225331.703125,254594.078125,229229.125,230022.4375,377925.0,1.0,1
238037.421875,255528.375,241277.609375,250148.125,225345.015625,254609.0,229235.03125,230041.21875,377926.0,1.0,1
238115.46875,255554.03125,241286.734375,250155.453125,225342.15625,254614.90625,229230.921875,230050.609375,377927.0,1.0,1
238118.421875,255539.1875,241275.921875,250148.578125,225323.828125,254597.921875,229218.84375,230031.5625,377928.0,1.0,1
238040.90625,255501.46875,241260.8125,250139.015625,225315.703125,254583.15625,229218.3125,230011.4375,377929.0,1.0,1
237996.828125,255503.515625,241264.203125,250140.890625,225333.21875,254593.796875,229230.03125,230022.890625,377930.0,1.0,1
238034.375,255527.65625,241276.90625,250148.484375,225345.65625,254606.5,229235.5625,230042.109375,377931.0,1.0,1
238102.6875,255542.859375,241283.15625,250151.34375,225336.078125,254607.21875,229225.015625,230044.34375,377932.0,1.0,1
238109.296875,255531.234375,241273.5,250145.359375,225316.59375,254592.546875,229217.78125,230027.171875,377933.0,1.0,1
238037.6875,255501.546875,241258.125,250135.4375,225307.828125,254576.640625,229215.90625,230006.96875,377934.0,1.0,1
237993.421875,255504.765625,241259.375,250136.421875,225325.625,254587.09375,229225.015625,230019.40625,377935.0,1.0,1
238030.890625,255525.25,241271.796875,250144.828125,225341.265625,254603.546875,229232.96875,230043.09375,377936.0,1.0,1
238104.109375,255545.8125,241282.0,250151.96875,225336.796875,254611.140625,229228.6875,230049.625,377937.0,1.0,1
238112.4375,255537.765625,241274.21875,250146.515625,225321.234375,254601.9375,229220.546875,230032.546875,377938.0,1.0,1
238037.6875,255504.140625,241257.5,250136.421875,225312.390625,254586.65625,229218.40625,230011.4375,377939.0,1.0,1
237988.6875,255499.046875,241255.984375,250135.078125,225325.171875,254591.390625,229226.625,230017.25,377940.0,1.0,1
238031.15625,255525.25,241272.96875,250147.859375,225343.234375,254612.40625,229237.359375,230040.59375,377941.0,1.0,1
238105.453125,255547.234375,241281.109375,250154.75,225341.71875,254618.5625,229235.84375,230050.953125,377942.0,1.0,1
238107.25,255533.640625,241268.234375,250146.25,225321.0625,254599.34375,229219.65625,230029.6875,377943.0,1.0,1
238027.671875,255494.21875,241247.03125,250127.5625,225300.765625,254573.328125,229203.65625,229998.65625,377944.0,1.0,1
237986.984375,255495.921875,241254.109375,250131.765625,225320.703125,254585.84375,229219.5625,230012.875,377945.0,1.0,1
238022.3125,255516.03125,241265.90625,250139.546875,225335.015625,254603.1875,229227.703125,230031.5625,377946.0,1.0,1
238099.28125,255538.390625,241274.75,250146.078125,225332.234375,254612.75,229224.65625,230039.0625,377947.0,1.0,1
238104.921875,255524.796875,241264.921875,250138.46875,225313.1875,254596.390625,229212.6875,230020.375,377948.0,1.0,1
238036.875,255500.03125,241254.453125,250132.578125,225309.4375,254584.0625,229214.203125,230005.09375,377949.0,1.0,1
237985.828125,255494.21875,241254.734375,250133.640625,225322.21875,254591.921875,229223.234375,230007.78125,377950.0,1.0,1
238009.515625,255499.765625,241260.09375,250137.9375,225321.328125,254599.875,229221.078125,230012.0625,377951.0,1.0,1
238073.453125,255502.171875,241263.671875,250137.84375,225302.28125,254596.21875,229205.796875,230003.3125,377952.0,1.0,1
238083.46875,255491.09375,241259.46875,250134.546875,225284.859375,254586.03125,229199.09375,229984.984375,377953.0,1.0,1
238015.0625,255464.625,241248.015625,250126.046875,225278.140625,254571.359375,229199.625,229967.453125,377954.0,1.0,1
237981.984375,255479.015625,241258.296875,250135.875,225309.796875,254589.78125,229223.671875,229994.640625,377955.0,1.0,1
238033.03125,255525.6875,241276.546875,250150.546875,225340.546875,254610.078125,229237.359375,230035.046875,377956.0,1.0,1
238108.5,255552.953125,241282.984375,250153.9375,225340.375,254615.796875,229231.8125,230048.640625,377957.0,1.0,1
238115.5625,255540.171875,241274.671875,250148.125,225324.375,254603.09375,229224.921875,230034.6875,377958.0,1.0,1
238040.28125,255502.265625,241258.390625,250136.0625,225308.359375,254583.34375,229219.75,230006.078125,377959.0,1.0,1
237990.75,255494.578125,241257.953125,250135.609375,225320.4375,254590.3125,229227.34375,230008.765625,377960.0,1.0,1
238026.953125,255520.0625,241267.875,250143.75,225334.296875,254606.59375,229236.90625,230029.6875,377961.0,1.0,1
238100.71875,255541.34375,241276.625,250151.265625,225329.828125,254611.6875,229229.21875,230039.0625,377962.0,1.0,1
238107.6875,255523.8125,241267.328125,250147.5,225311.140625,254594.96875,229214.734375,230021.453125,377963.0,1.0,1
238039.734375,255491.984375,241255.53125,250140.53125,225303.890625,254577.078125,229217.421875,230002.046875,377964.0,1.0,1
237994.6875,255493.765625,241257.859375,250140.078125,225319.984375,254582.625,229226.984375,230009.65625,377965.0,1.0,1
238032.046875,255519.078125,241272.96875,250151.265625,225338.046875,254602.828125,229237.0,230031.5625,377966.0,1.0,1
238106.703125,255540.625,241283.34375,250158.765625,225332.953125,254613.03125,229233.0625,230038.4375,377967.0,1.0,1
238114.3125,255528.546875,241276.28125,250151.609375,225311.859375,254599.609375,229221.53125,230018.234375,377968.0,1.0,1
238037.6875,255493.140625,241256.15625,250134.8125,225297.375,254574.9375,229212.6875,229991.6875,377969.0,1.0,1
237986.09375,255487.25,241250.34375,250130.421875,225307.46875,254574.21875,229213.484375,229994.0,377970.0,1.0,1
238019.796875,255505.578125,241263.40625,250139.546875,225321.0625,254591.296875,229219.03125,230013.671875,377971.0,1.0,1
238098.03125,255530.25,241273.859375,250148.046875,225320.078125,254601.671875,229218.140625,230024.5,377972.0,1.0,1
238110.28125,255522.109375,241266.796875,250143.65625,225304.609375,254589.875,229207.140625,230011.078125,377973.0,1.0,1
238047.703125,255501.109375,241257.046875,250137.3125,225303.71875,254580.84375,229211.515625,230000.890625,377974.0,1.0,1
238010.6875,255514.6875,241266.171875,250144.546875,225328.03125,254598.0,229233.953125,230020.109375,377975.0,1.0,1
238049.9375,255543.390625,241285.84375,250162.53125,225350.296875,254623.03125,229248.703125,230048.359375,377976.0,1.0,1
238128.25,255571.015625,241299.875,250174.140625,225354.328125,254639.84375,229251.21875,230065.265625,377977.0,1.0,1
238139.078125,255562.96875,241291.65625,250168.875,225339.03125,254631.796875,229246.921875,230052.390625,377978.0,1.0,1
238061.828125,255523.015625,241271.796875,250154.296875,225322.5,254610.34375,229242.453125,230025.03125,377979.0,1.0,1
238009.875,255514.34375,241267.6875,250151.609375,225332.6875,254608.90625,229243.890625,230027.09375,377980.0,1.0,1
238033.21875,255523.453125,241271.625,250153.765625,225336.796875,254616.421875,229241.109375,230038.4375,377981.0,1.0,1
238098.578125,255536.59375,241272.15625,250149.65625,225324.90625,254614.8125,229226.453125,230037.734375,377982.0,1.0,1
238102.421875,255521.671875,241261.515625,250141.25,225302.015625,254597.203125,229211.15625,230016.09375,377983.0,1.0,1
238030.078125,255491.0,241248.109375,250130.609375,225293.609375,254578.875,229209.734375,229995.609375,377984.0,1.0,1
237983.6875,255490.375,241251.59375,250133.5625,225311.578125,254588.890625,229222.78125,230003.390625,377985.0,1.0,1
238023.109375,255518.984375,241268.3125,250146.4375,225330.625,254606.3125,229229.484375,230026.109375,377986.0,1.0,1
238092.671875,255532.484375,241274.671875,250149.203125,225323.390625,254609.890625,229217.6875,230027.984375,377987.0,1.0,1
238099.734375,255519.515625,241264.296875,250139.375,225303.890625,254594.96875,229202.671875,230007.78125,377988.0,1.0,1
238031.78125,255493.140625,241252.578125,250132.296875,225296.5625,254585.125,229205.890625,229988.203125,377989.0,1.0,1
237973.9375,255473.125,241251.0625,250129.71875,225299.875,254588.53125,229211.78125,229980.953125,377990.0,1.0,1
238007.015625,255487.875,241262.140625,250138.65625,225310.328125,254600.78125,229215.546875,229997.046875,377991.0,1.0,1
238080.25,255508.34375,241268.671875,250144.375,225303.1875,254606.3125,229210.09375,230004.375,377992.0,1.0,1
238086.40625,255491.265625,241258.125,250134.71875,225278.234375,254589.875,229197.296875,229980.6875,377993.0,1.0,1
238020.078125,255464.53125,241248.296875,250128.90625,225273.59375,254577.078125,229198.46875,229961.734375,377994.0,1.0,1
237972.6875,255458.546875,241253.03125,250133.109375,225292.90625,254586.65625,229212.5,229974.703125,377995.0,1.0,1
238008.625,255481.875,241267.328125,250142.5,225304.875,254600.5,229217.859375,229991.765625,377996.0,1.0,1
238085.25,255507.09375,241281.109375,250153.21875,225305.78125,254612.046875,229217.6875,230004.46875,377997.0,1.0,1
238093.828125,255493.6875,241271.53125,250147.140625,225287.359375,254596.3125,229209.1875,229989.625,377998.0,1.0,1
238025.53125,255462.5625,241253.828125,250137.125,225276.984375,254576.640625,229205.609375,229968.4375,377999.0,1.0,1
237983.5,255466.0625,241257.046875,250140.34375,225297.28125,254587.1875,229218.40625,229984.078125,378000.0,1.0,1
238015.0625,255485.546875,241272.34375,250150.09375,225313.375,254604.265625,229224.125,230007.15625,378001.0,1.0,1
238089.0,255503.34375,241283.34375,250156.984375,225309.4375,254610.875,229217.59375,230014.75,378002.0,1.0,1
238100.265625,255494.046875,241271.625,250149.5625,225288.875,254593.71875,229204.453125,229997.140625,378003.0,1.0,1
238034.28125,255466.5,241256.515625,250139.71875,225279.484375,254577.265625,229202.484375,229977.640625,378004.0,1.0,1
237987.890625,255470.4375,241260.09375,250142.5,225302.375,254591.125,229219.125,229991.140625,378005.0,1.0,1
238018.90625,255493.328125,241273.953125,250152.0625,225323.296875,254608.546875,229227.25,230015.828125,378006.0,1.0,1
238093.296875,255514.6875,241281.640625,250156.4375,225317.9375,254610.34375,229217.421875,230025.03125,378007.0,1.0,1
238104.828125,255502.53125,241272.703125,250150.984375,225296.75,254597.109375,229208.03125,230008.046875,378008.0,1.0,1
238036.515625,255474.109375,241256.515625,250139.09375,225286.90625,254578.875,229204.0,229985.0625,378009.0,1.0,1
237986.359375,255473.390625,241254.28125,250135.796875,225302.28125,254584.328125,229213.03125,229990.515625,378010.0,1.0,1
238021.0625,255495.203125,241268.765625,250146.703125,225320.609375,254602.75,229221.703125,230015.90625,378011.0,1.0,1
238095.0,255516.296875,241276.0,250150.984375,225315.25,254606.859375,229214.375,230023.6875,378012.0,1.0,1
238111.53125,255512.90625,241269.484375,250146.515625,225301.03125,254597.46875,229206.78125,230005.546875,378013.0,1.0,1
238040.015625,255483.484375,241254.8125,250135.96875,225292.453125,254578.875,229205.53125,229984.53125,378014.0,1.0,1
237991.640625,255487.15625,241255.171875,250137.484375,225309.703125,254584.5,229214.296875,229996.515625,378015.0,1.0,1
238017.921875,255507.984375,241264.828125,250144.734375,225322.21875,254598.265625,229220.375,230017.875,378016.0,1.0,1
238081.40625,255519.171875,241268.234375,250142.59375,225309.4375,254597.375,229209.546875,230018.234375,378017.0,1.0,1
238097.59375,255514.0625,241263.046875,250137.578125,225294.6875,254584.859375,229204.453125,230006.4375,378018.0,1.0,1
238037.234375,255493.953125,241248.921875,250128.015625,225290.9375,254572.34375,229208.75,229992.390625,378019.0,1.0,1
237989.140625,255495.109375,241250.609375,250129.984375,225308.359375,254581.90625,229223.5,230001.96875,378020.0,1.0,1
238019.171875,255518.71875,241260.984375,250137.40625,225325.0,254594.34375,229228.140625,230022.4375,378021.0,1.0,1
238083.109375,255532.046875,241266.34375,250137.3125,225317.125,254595.40625,229221.171875,230029.140625,378022.0,1.0,1
238095.4375,255520.140625,241260.0,250131.234375,225297.640625,254578.15625,229208.296875,230011.171875,378023.0,1.0,1
238033.65625,255497.625,241247.21875,250124.703125,225296.390625,254560.28125,229211.34375,229998.484375,378024.0,1.0,1
237992.53125,255513.796875,241250.34375,250125.15625,225327.59375,254572.703125,229227.34375,230023.59375,378025.0,1.0,1
238027.40625,255543.84375,241263.3125,250132.296875,225348.234375,254590.859375,229235.921875,230050.0625,378026.0,1.0,1
238097.3125,255554.84375,241271.984375,250136.6875,225339.5625,254595.859375,229226.890625,230050.515625,378027.0,1.0,1
238111.0,255540.53125,241269.390625,250132.84375,225322.3125,254584.6875,229221.4375,230035.046875,378028.0,1.0,1
238045.015625,255514.78125,241255.625,250122.375,225317.390625,254568.234375,229225.46875,230020.5625,378029.0,1.0,1
237995.484375,255515.859375,241254.109375,250122.203125,225335.09375,254577.625,229240.671875,230029.953125,378030.0,1.0,1
238028.203125,255541.609375,241266.703125,250131.046875,225352.4375,254594.421875,229247.546875,230053.015625,378031.0,1.0,1
238095.625,255551.4375,241273.765625,250134.625,225342.78125,254597.109375,229235.125,230056.0625,378032.0,1.0,1
238111.890625,255539.546875,241265.359375,250127.03125,225321.234375,254577.984375,229219.296875,230038.171875,378033.0,1.0,1
238049.125,255521.40625,241249.90625,250115.3125,225314.890625,254560.546875,229219.125,230018.6875,378034.0,1.0,1
237993.609375,255515.59375,241248.5625,250112.546875,225327.59375,254567.0625,229229.9375,230025.484375,378035.0,1.0,1
238026.78125,255541.34375,241260.984375,250122.828125,225348.15625,254585.484375,229238.875,230052.125,378036.0,1.0,1
238102.6875,255568.78125,241272.609375,250130.25,225345.921875,254592.90625,229235.296875,230060.078125,378037.0,1.0,1
238110.28125,255550.015625,241264.65625,250123.625,225321.515625,254575.109375,229217.78125,230036.03125,378038.0,1.0,1
238042.6875,255518.265625,241249.625,250113.265625,225309.265625,254557.859375,229215.71875,230015.109375,378039.0,1.0,1
237995.9375,255519.609375,241252.140625,250117.90625,225326.875,254567.0625,229229.046875,230025.484375,378040.0,1.0,1
238028.203125,255544.015625,241265.015625,250128.015625,225345.015625,254582.71875,229235.390625,230047.5625,378041.0,1.0,1
238103.125,255567.359375,241273.859375,250132.84375,225342.15625,254590.21875,229227.703125,230052.75,378042.0,1.0,1
238115.46875,255556.0,241263.671875,250125.234375,225315.875,254575.03125,229213.125,230029.5,378043.0,1.0,1
238048.765625,255523.28125,241250.4375,250117.734375,225305.421875,254559.921875,229215.546875,230008.40625,378044.0,1.0,1
237999.953125,255520.140625,241251.421875,250120.234375,225320.25,254569.125,229226.625,230016.09375,378045.0,1.0,1
238031.25,255545.453125,241264.390625,250128.453125,225339.21875,254587.1875,229230.5625,230035.9375,378046.0,1.0,1
238106.4375,255568.703125,241275.828125,250135.703125,225340.28125,254596.578125,229226.1875,230045.421875,378047.0,1.0,1
238116.1875,255551.0,241268.234375,250128.734375,225319.71875,254583.96875,229215.984375,230028.421875,378048.0,1.0,1
238046.359375,255513.078125,241252.3125,250118.09375,225308.453125,254567.96875,229214.828125,230005.984375,378049.0,1.0,1
237994.40625,255505.3125,241250.96875,250118.09375,225321.234375,254575.03125,229227.96875,230012.609375,378050.0,1.0,1
238022.390625,255525.421875,241260.453125,250124.171875,225334.921875,254589.875,229231.90625,230033.96875,378051.0,1.0,1
238098.125,255549.203125,241271.265625,250132.03125,225334.46875,254599.703125,229227.703125,230044.796875,378052.0,1.0,1
238117.078125,255542.140625,241264.828125,250129.984375,225316.40625,254589.15625,229220.546875,230029.5,378053.0,1.0,1
238046.171875,255509.6875,241247.390625,250118.09375,225304.515625,254568.859375,229217.234375,230009.5625,378054.0,1.0,1
237991.375,255503.703125,241248.46875,250117.828125,225320.4375,254574.21875,229227.4375,230018.59375,378055.0,1.0,1
238022.125,255527.21875,241264.390625,250126.671875,225334.734375,254592.28125,229235.390625,230037.8125,378056.0,1.0,1
238091.15625,255542.859375,241275.734375,250133.015625,225322.765625,254599.53125,229226.8125,230037.28125,378057.0,1.0,1
238098.296875,255519.609375,241264.65625,250122.65625,225288.703125,254580.03125,229208.5625,230006.25,378058.0,1.0,1
238029.375,255484.921875,241247.390625,250112.015625,225278.953125,254561.796875,229208.296875,229984.078125,378059.0,1.0,1
237980.640625,255486.265625,241244.53125,250109.859375,225295.84375,254565.1875,229215.546875,229991.140625,378060.0,1.0,1
238015.0625,255522.828125,241255.53125,250119.34375,225318.734375,254579.234375,229222.78125,230021.8125,378061.0,1.0,1
238094.8125,255557.25,241268.9375,250129.625,225325.265625,254587.453125,229222.15625,230044.703125,378062.0,1.0,1
238117.53125,255558.328125,241266.890625,250128.015625,225315.515625,254580.84375,229220.640625,230037.546875,378063.0,1.0,1
238045.640625,255521.3125,241251.6875,250117.28125,225306.75,254562.875,229217.421875,230017.96875,378064.0,1.0,1
237991.8125,255516.03125,241248.109375,250116.296875,225318.375,254566.09375,229222.6875,230023.953125,378065.0,1.0,1
238022.671875,255540.71875,241261.875,250125.6875,225335.546875,254581.546875,229230.203125,230046.484375,378066.0,1.0,1
238096.609375,255560.65625,241271.796875,250129.984375,225331.4375,254588.078125,229223.671875,230051.5,378067.0,1.0,1
238112.15625,255548.3125,241266.0,250126.671875,225311.765625,254575.828125,229212.953125,230035.3125,378068.0,1.0,1
238048.953125,255517.46875,241251.859375,250117.1875,225302.5625,254558.3125,229208.921875,230014.65625,378069.0,1.0,1
238000.578125,255515.765625,241251.859375,250117.734375,225318.734375,254567.34375,229218.765625,230021.09375,378070.0,1.0,1
238027.84375,255536.859375,241263.671875,250124.171875,225335.90625,254583.96875,229225.46875,230041.296875,378071.0,1.0,1
238099.375,255554.296875,241274.390625,250130.609375,225333.484375,254592.1875,229221.53125,230049.078125,378072.0,1.0,1
238115.734375,255542.5,241265.71875,250124.171875,225313.015625,254578.421875,229211.25,230029.6875,378073.0,1.0,1
238046.359375,255508.703125,241246.0625,250111.03125,225298.890625,254554.734375,229204.984375,230005.984375,378074.0,1.0,1
237993.421875,255500.921875,241247.484375,250114.515625,225317.390625,254564.5625,229219.03125,230017.609375,378075.0,1.0,1
238022.484375,255523.1875,241260.984375,250125.234375,225335.375,254582.453125,229227.25,230041.296875,378076.0,1.0,1
238097.59375,255551.34375,241268.578125,250131.5,225330.453125,254584.953125,229216.96875,230047.734375,378077.0,1.0,1
238118.328125,255545.09375,241265.640625,250127.921875,225311.578125,254576.015625,229207.21875,230031.5625,378078.0,1.0,1
238044.5625,255502.171875,241249.1875,250113.625,225289.765625,254555.453125,229200.25,230000.796875,378079.0,1.0,1
237993.609375,255498.953125,241250.53125,250114.953125,225303.71875,254562.0625,229212.765625,230007.421875,378080.0,1.0,1
238021.6875,255526.40625,241263.046875,250124.796875,225323.390625,254578.328125,229222.875,230029.6875,378081.0,1.0,1
238090.609375,255545.0,241270.1875,250129.53125,225319.359375,254586.296875,229218.765625,230039.15625,378082.0,1.0,1
238110.375,255538.390625,241263.3125,250124.890625,225302.203125,254575.03125,229207.578125,230025.203125,378083.0,1.0,1
238046.8125,255510.3125,241247.3125,250116.296875,225292.1875,254558.75,229206.6875,230006.96875,378084.0,1.0,1
237997.71875,255510.3125,241247.9375,250117.734375,225308.28125,254569.3125,229221.078125,230016.0,378085.0,1.0,1
238028.125,255534.28125,241263.9375,250129.078125,225326.6875,254585.9375,229227.25,230042.109375,378086.0,1.0,1
238101.875,255558.6875,241270.28125,250132.125,225321.78125,254588.265625,229217.953125,230049.265625,378087.0,1.0,1
238118.234375,255549.203125,241261.875,250123.71875,225300.953125,254573.0625,229204.71875,230030.671875,378088.0,1.0,1
238047.78125,255510.046875,241245.875,250110.75,225289.40625,254555.171875,229200.25,230006.875,378089.0,1.0,1
237994.328125,255504.234375,241248.46875,250112.1875,225305.0625,254562.875,229212.140625,230013.59375,378090.0,1.0,1
238024.71875,255534.71875,241264.109375,250123.09375,225323.75,254582.359375,229222.515625,230034.15625,378091.0,1.0,1
238100.984375,255560.734375,241275.65625,250132.84375,225327.140625,254594.515625,229222.421875,230048.28125,378092.0,1.0,1
238117.796875,255545.984375,241266.265625,250126.671875,225306.125,254582.09375,229211.078125,230030.390625,378093.0,1.0,1
238047.96875,255504.0625,241248.46875,250114.328125,225289.140625,254558.3125,229204.984375,230001.78125,378094.0,1.0,1
237995.21875,255495.03125,241249.09375,250116.390625,225303.1875,254562.875,229215.09375,230006.078125,378095.0,1.0,1
238027.578125,255523.015625,241265.453125,250129.171875,225326.0625,254584.234375,229227.515625,230033.4375,378096.0,1.0,1
238098.03125,255537.046875,241273.0625,250134.453125,225323.390625,254590.40625,229219.5625,230042.640625,378097.0,1.0,1
238117.171875,255529.453125,241262.59375,250125.6875,225303.0,254576.015625,229204.71875,230022.078125,378098.0,1.0,1
238049.671875,255496.8125,241245.609375,250114.15625,225290.484375,254558.578125,229202.3125,229995.703125,378099.0,1.0,1
237994.6875,255492.34375,241248.734375,250116.84375,225307.734375,254568.671875,229216.875,230004.203125,378100.0,1.0,1
238023.734375,255519.4375,241260.453125,250125.328125,225326.0625,254584.953125,229228.234375,230029.0625,378101.0,1.0,1
238094.734375,255541.6875,241266.53125,250129.0,225321.515625,254589.59375,229218.40625,230037.375,378102.0,1.0,1
238112.078125,255535.53125,241258.84375,250123.09375,225301.921875,254578.421875,229206.953125,230019.046875,378103.0,1.0,1
238043.3125,255504.328125,241242.84375,250112.28125,225287.984375,254558.75,229206.328125,229996.421875,378104.0,1.0,1
237990.484375,255503.15625,241244.71875,250115.046875,225305.6875,254566.796875,229221.703125,230007.0625,378105.0,1.0,1
238014.171875,255522.390625,241253.921875,250119.96875,225322.21875,254577.703125,229220.28125,230026.640625,378106.0,1.0,1
238089.359375,255543.75,241263.21875,250126.84375,225323.296875,254585.125,229213.84375,230038.4375,378107.0,1.0,1
238106.0,255532.390625,241254.734375,250121.046875,225301.21875,254570.015625,229199.359375,230021.453125,378108.0,1.0,1
238037.5,255497.53125,241238.09375,250107.890625,225286.640625,254553.03125,229197.03125,229995.703125,378109.0,1.0,1
237980.640625,255487.421875,241236.671875,250106.46875,225299.15625,254558.3125,229206.25,230000.0,378110.0,1.0,1
238007.28125,255508.171875,241252.5,250118.359375,225317.390625,254575.921875,229215.71875,230023.0625,378111.0,1.0,1
238087.9375,255533.828125,241267.515625,250131.328125,225320.53125,254589.59375,229217.0625,230037.8125,378112.0,1.0,1
238109.65625,255524.890625,241262.328125,250128.375,225303.984375,254579.9375,229208.125,230022.796875,378113.0,1.0,1
238040.09375,255491.8125,241241.578125,250111.390625,225288.078125,254557.59375,229201.953125,229995.796875,378114.0,1.0,1
237981.09375,255480.453125,241237.921875,250109.5,225303.359375,254563.671875,229210.265625,230002.6875,378115.0,1.0,1
238004.34375,255499.046875,241248.921875,250116.21875,225318.203125,254577.53125,229215.0,230023.25,378116.0,1.0,1
238082.125,255527.5625,241260.984375,250122.65625,225318.640625,254589.59375,229211.703125,230035.21875,378117.0,1.0,1
238088.46875,255500.84375,241248.46875,250110.9375,225282.96875,254571.265625,229189.4375,229998.921875,378118.0,1.0,1
238005.046875,255435.21875,241229.0625,250096.453125,225246.046875,254542.390625,229176.5625,229950.640625,378119.0,1.0,1
237943.984375,255416.171875,241225.484375,250093.140625,225249.984375,254541.046875,229182.109375,229946.796875,378120.0,1.0,1
237970.265625,255442.09375,241238.90625,250102.359375,225268.9375,254557.6875,229192.390625,229971.65625,378121.0,1.0,1
238047.96875,255471.421875,241252.671875,250112.71875,225272.609375,254572.96875,229194.171875,229989.0,378122.0,1.0,1
238073.453125,255471.15625,241248.46875,250111.5625,225256.875,254562.0625,229185.5,229982.5625,378123.0,1.0,1
238012.921875,255447.015625,241234.609375,250104.3125,225247.484375,254545.4375,229186.21875,229965.484375,378124.0,1.0,1
237954.359375,255438.515625,241232.28125,250102.890625,225258.65625,254548.203125,229194.984375,229965.75,378125.0,1.0,1
237981.625,255465.4375,241244.890625,250114.0625,225284.140625,254566.09375,229205.609375,229994.71875,378126.0,1.0,1
238067.015625,255506.734375,241257.234375,250123.984375,225294.6875,254576.8125,229204.71875,230021.640625,378127.0,1.0,1
238088.46875,255502.09375,241251.6875,250119.703125,225275.90625,254564.390625,229192.65625,230007.515625,378128.0,1.0,1
238027.765625,255473.390625,241239.34375,250112.1875,225265.09375,254548.921875,229196.234375,229988.734375,378129.0,1.0,1
237968.03125,255457.296875,241235.140625,250107.625,225273.3125,254552.765625,229203.65625,229983.546875,378130.0,1.0,1
237986.8125,255472.140625,241243.375,250112.546875,225286.1875,254564.125,229203.828125,230000.71875,378131.0,1.0,1
238064.0625,255500.84375,241254.90625,250121.671875,225287.53125,254574.84375,229200.34375,230014.578125,378132.0,1.0,1
238085.96875,255493.140625,241249.0,250114.953125,225270.8125,254566.171875,229191.40625,229998.390625,378133.0,1.0,1
238020.25,255454.171875,241233.984375,250102.078125,225255.96875,254549.359375,229188.453125,229971.125,378134.0,1.0,1
237968.390625,255449.34375,241235.234375,250103.515625,225274.21875,254559.203125,229203.109375,229983.28125,378135.0,1.0,1
237995.578125,255474.375,241248.46875,250113.890625,225296.828125,254579.859375,229213.65625,230010.015625,378136.0,1.0,1
238069.15625,255494.671875,241257.765625,250119.25,225293.703125,254586.109375,229210.0,230020.296875,378137.0,1.0,1
238095.796875,255490.640625,241251.6875,250116.390625,225277.25,254573.234375,229199.8125,230008.765625,378138.0,1.0,1
238033.9375,255467.84375,241237.03125,250106.90625,225273.40625,254558.125,229201.421875,229994.359375,378139.0,1.0,1
237982.875,255471.953125,241238.640625,250109.234375,225293.96875,254567.0625,229216.703125,230009.921875,378140.0,1.0,1
238017.484375,255516.578125,241254.375,250121.75,225329.203125,254589.15625,229235.5625,230051.3125,378141.0,1.0,1
238096.25,255553.3125,241264.390625,250128.1875,225338.234375,254597.828125,229231.71875,230072.234375,378142.0,1.0,1
238122.359375,255552.328125,241257.953125,250123.71875,225325.078125,254589.78125,229224.65625,230062.140625,378143.0,1.0,1
238056.109375,255520.328125,241240.421875,250113.53125,225314.09375,254572.078125,229222.421875,230038.171875,378144.0,1.0,1
237996.015625,255513.4375,241236.578125,250112.453125,225324.90625,254572.875,229226.09375,230037.28125,378145.0,1.0,1
238017.75,255539.015625,241249.8125,250121.671875,225342.15625,254589.59375,229234.5,230057.484375,378146.0,1.0,1
238089.71875,255558.140625,241261.4375,250128.28125,225340.1875,254597.203125,229229.9375,230068.578125,378147.0,1.0,1
238113.40625,255550.71875,241255.171875,250122.828125,225319.984375,254582.890625,229215.453125,230052.484375,378148.0,1.0,1
238046.8125,255514.0625,241239.53125,250110.125,225302.828125,254562.78125,229209.90625,230023.0625,378149.0,1.0,1
237986.640625,255501.375,241238.1875,250109.859375,225315.34375,254568.671875,229221.890625,230024.859375,378150.0,1.0,1
238010.421875,255525.25,241249.546875,250119.703125,225335.640625,254587.546875,229231.71875,230044.25,378151.0,1.0,1
238075.953125,255536.421875,241252.765625,250119.4375,225326.0625,254590.21875,229217.59375,230043.53125,378152.0,1.0,1
238091.59375,255513.265625,241241.671875,250109.59375,225296.125,254574.671875,229198.640625,230018.0625,378153.0,1.0,1
238018.28125,255462.390625,241220.3125,250093.40625,225265.890625,254549.09375,229186.65625,229973.890625,378154.0,1.0,1
237956.59375,255445.9375,241217.890625,250094.390625,225273.859375,254555.359375,229196.671875,229976.03125,378155.0,1.0,1
237977.0625,255461.046875,241231.578125,250106.90625,225290.21875,254570.5625,229207.671875,230002.046875,378156.0,1.0,1
238048.421875,255474.640625,241239.171875,250110.40625,225281.015625,254571.890625,229195.6875,230001.96875,378157.0,1.0,1
238078.546875,255471.15625,241239.625,250108.875,225264.5625,254564.828125,229183.796875,229986.3125,378158.0,1.0,1
238018.90625,255439.59375,241226.65625,250100.921875,225251.328125,254546.59375,229183.71875,229965.21875,378159.0,1.0,1
237959.0,255428.0625,241221.828125,250098.859375,225263.578125,254546.953125,229194.984375,229970.3125,378160.0,1.0,1
237985.375,255460.515625,241236.671875,250109.6875,225287.53125,254565.453125,229207.046875,229998.828125,378161.0,1.0,1
238064.234375,255496.453125,241251.234375,250119.34375,225293.609375,254580.75,229204.71875,230018.140625,378162.0,1.0,1
238091.515625,255493.0625,241245.421875,250116.296875,225276.0,254569.03125,229191.484375,230007.15625,378163.0,1.0,1
238025.703125,255455.859375,241228.796875,250104.3125,225260.359375,254548.296875,229186.484375,229981.578125,378164.0,1.0,1
237966.34375,255450.40625,241227.015625,250101.640625,225274.21875,254553.65625,229198.015625,229986.59375,378165.0,1.0,1
237988.25,255478.75,241239.4375,250108.34375,225296.390625,254569.21875,229207.21875,230011.796875,378166.0,1.0,1
238062.546875,255501.546875,241250.078125,250116.125,225298.53125,254578.328125,229202.9375,230024.5,378167.0,1.0,1
238088.375,255496.359375,241244.265625,250112.546875,225280.828125,254569.21875,229195.25,230009.203125,378168.0,1.0,1
238028.296875,255467.3125,241228.796875,250102.984375,225267.15625,254551.15625,229191.140625,229984.984375,378169.0,1.0,1
237969.640625,255462.65625,241227.09375,250099.84375,225278.234375,254554.828125,229199.0,229985.0625,378170.0,1.0,1
237985.203125,255478.9375,241238.1875,250107.1875,225291.828125,254571.890625,229209.90625,230000.0,378171.0,1.0,1
238061.109375,255500.65625,241249.1875,250115.578125,225294.234375,254580.84375,229203.5625,230013.9375,378172.0,1.0,1
238085.78125,255488.59375,241239.265625,250107.0,225272.6875,254563.9375,229184.875,229998.03125,378173.0,1.0,1
238028.03125,255460.0625,241225.046875,250097.078125,225262.59375,254548.203125,229185.046875,229977.375,378174.0,1.0,1
237961.78125,255439.6875,241219.859375,250093.140625,225267.5,254547.75,229188.453125,229971.75,378175.0,1.0,1
237966.875,255438.609375,241225.671875,250096.984375,225263.9375,254555.265625,229186.125,229969.234375,378176.0,1.0,1
238041.171875,255460.328125,241239.96875,250109.5,225261.421875,254565.90625,229185.5,229980.59375,378177.0,1.0,1
238076.84375,255470.4375,241240.15625,250111.109375,225255.96875,254563.9375,229187.5625,229983.28125,378178.0,1.0,1
238015.15625,255437.890625,241225.765625,250100.296875,225244.625,254546.421875,229184.78125,229961.1875,378179.0,1.0,1
237956.59375,255430.734375,241223.703125,250096.359375,225256.234375,254549.09375,229189.53125,229963.4375,378180.0,1.0,1
237986.90625,255469.0,241244.265625,250113.703125,225287.984375,254575.734375,229207.046875,229995.96875,378181.0,1.0,1
238063.34375,255500.484375,241252.21875,250122.109375,225294.328125,254583.78125,229204.359375,230013.859375,378182.0,1.0,1
238084.890625,255494.21875,241240.0625,250110.75,225275.28125,254567.421875,229188.890625,229997.765625,378183.0,1.0,1
238018.828125,255458.015625,241220.125,250092.25,225260.265625,254544.625,229183.171875,229971.828125,378184.0,1.0,1
237976.4375,255465.34375,241229.0625,250102.796875,225285.484375,254557.5,229202.390625,229987.84375,378185.0,1.0,1
238004.25,255495.65625,241246.5,250117.734375,225310.78125,254577.796875,229216.25,230018.234375,378186.0,1.0,1
238076.40625,255518.453125,241259.375,250127.03125,225310.6875,254584.328125,229211.15625,230030.3125,378187.0,1.0,1
238106.078125,255518.09375,241258.03125,250125.234375,225295.484375,254577.078125,229202.671875,230020.375,378188.0,1.0,1
238041.53125,255483.140625,241240.875,250112.359375,225282.078125,254559.828125,229199.53125,229994.640625,378189.0,1.0,1
237988.25,255483.84375,241242.203125,250115.046875,225305.0625,254569.390625,229215.453125,230008.3125,378190.0,1.0,1
238011.75,255511.75,241254.28125,250123.359375,225328.390625,254587.640625,229228.0625,230034.234375,378191.0,1.0,1
238078.09375,255527.21875,241259.90625,250127.03125,225322.765625,254593.0,229218.40625,230040.671875,378192.0,1.0,1
238100.0,255507.984375,241252.140625,250121.390625,225298.625,254581.203125,229206.78125,230020.375,378193.0,1.0,1
238035.984375,255468.921875,241232.203125,250106.90625,225277.078125,254552.40625,229194.0,229988.546875,378194.0,1.0,1
237979.125,255462.921875,241230.140625,250106.5625,225290.65625,254554.109375,229200.875,229990.78125,378195.0,1.0,1
237994.5,255480.71875,241240.875,250112.546875,225309.625,254571.71875,229209.1875,230011.984375,378196.0,1.0,1
238068.53125,255508.703125,241252.9375,250120.765625,225310.421875,254581.546875,229208.03125,230026.640625,378197.0,1.0,1
238099.109375,255507.546875,241249.625,250117.1875,225293.4375,254572.4375,229195.609375,230018.5,378198.0,1.0,1
238039.203125,255475.4375,241236.671875,250108.96875,225279.671875,254554.546875,229194.265625,229996.0625,378199.0,1.0,1
237976.359375,255463.640625,241232.828125,250106.46875,225290.484375,254558.75,229204.90625,229996.59375,378200.0,1.0,1
237990.84375,255481.796875,241240.59375,250111.5625,225304.796875,254571.71875,229207.859375,230011.265625,378201.0,1.0,1
238058.421875,255494.84375,241246.859375,250115.671875,225297.640625,254576.28125,229199.625,230015.546875,378202.0,1.0,1
238091.328125,255495.921875,241241.859375,250112.71875,225283.6875,254566.171875,229189.96875,230006.796875,378203.0,1.0,1
238030.4375,255465.78125,241224.859375,250101.90625,225272.875,254548.390625,229188.265625,229985.328125,378204.0,1.0,1
237970.8125,255457.296875,241222.8125,250099.40625,225285.75,254552.9375,229198.203125,229989.71875,378205.0,1.0,1
237990.484375,255482.59375,241232.90625,250105.84375,225305.140625,254565.546875,229203.375,230013.046875,378206.0,1.0,1
238066.03125,255511.390625,241244.09375,250116.390625,225306.84375,254576.375,229200.15625,230026.8125,378207.0,1.0,1
238093.75,255501.46875,241238.453125,250111.921875,225285.65625,254565.734375,229187.734375,230006.4375,378208.0,1.0,1
238027.140625,255459.265625,241219.046875,250098.421875,225265.453125,254541.046875,229180.765625,229975.859375,378209.0,1.0,1
237963.484375,255447.1875,241214.140625,250094.75,225274.21875,254542.75,229188.890625,229976.3125,378210.0,1.0,1
237983.140625,255471.421875,241229.0625,250106.734375,225296.03125,254562.515625,229200.703125,229999.375,378211.0,1.0,1
238055.390625,255496.015625,241242.84375,250114.953125,225299.34375,254574.21875,229200.78125,230017.15625,378212.0,1.0,1
238082.84375,255490.546875,241235.234375,250107.453125,225279.046875,254563.21875,229184.78125,230001.515625,378213.0,1.0,1
238029.90625,255467.21875,241221.109375,250098.859375,225268.3125,254545.796875,229181.203125,229981.484375,378214.0,1.0,1
237968.484375,255455.0625,241218.421875,250096.625,225279.578125,254547.84375,229190.859375,229983.8125,378215.0,1.0,1
237986.359375,255476.421875,241230.671875,250103.6875,225298.984375,254565.90625,229198.734375,230004.640625,378216.0,1.0,1
238058.0625,255497.96875,241243.015625,250110.75,225299.78125,254577.265625,229196.765625,230015.828125,378217.0,1.0,1
238089.71875,255493.765625,241240.421875,250108.515625,225283.875,254569.3125,229188.359375,230001.78125,378218.0,1.0,1
238030.984375,255461.765625,241225.046875,250100.03125,225271.078125,254551.6875,229187.640625,229976.578125,378219.0,1.0,1
237970.984375,255453.09375,241223.703125,250100.75,225284.765625,254554.375,229197.296875,229981.40625,378220.0,1.0,1
237986.71875,255472.9375,241235.859375,250107.359375,225304.4375,254569.390625,229205.4375,230004.640625,378221.0,1.0,1
238060.65625,255499.5,241247.125,250114.0625,225305.859375,254578.6875,229201.0625,230017.4375,378222.0,1.0,1
238090.25,255492.15625,241241.046875,250109.234375,225285.5625,254569.21875,229188.8125,230003.3125,378223.0,1.0,1
238029.734375,255459.625,241225.484375,250099.484375,225269.921875,254549.90625,229183.53125,229978.8125,378224.0,1.0,1
237970.90625,255453.0,241226.5625,250100.75,225281.28125,254553.84375,229192.828125,229979.171875,378225.0,1.0,1
237986.359375,255469.8125,241238.28125,250108.515625,225295.84375,254570.203125,229201.765625,229995.078125,378226.0,1.0,1
238061.640625,255495.828125,241249.453125,250115.9375,225300.046875,254579.9375,229202.9375,230013.140625,378227.0,1.0,1
238091.59375,255491.53125,241243.734375,250111.46875,225284.5,254568.953125,229194.171875,230003.125,378228.0,1.0,1
238035.984375,255463.375,241228.171875,250097.796875,225269.03125,254549.28125,229191.484375,229974.0625,378229.0,1.0,1
237972.0625,255455.953125,241225.046875,250095.296875,225279.75,254550.890625,229198.640625,229974.703125,378230.0,1.0,1
237983.6875,255474.546875,241231.921875,250101.453125,225297.375,254564.03125,229201.859375,229997.5,378231.0,1.0,1
238062.0,255506.734375,241247.671875,250114.25,225305.859375,254579.765625,229203.03125,230019.21875,378232.0,1.0,1
238092.046875,255499.140625,241244.09375,250113.53125,225290.03125,254572.171875,229192.03125,230007.59375,378233.0,1.0,1
238020.703125,255448.53125,241222.8125,250097.171875,225263.84375,254546.234375,229181.921875,229971.75,378234.0,1.0,1
237960.53125,255441.828125,241222.8125,250097.609375,225275.46875,254550.625,229195.328125,229973.890625,378235.0,1.0,1
237979.390625,255467.484375,241235.5,250106.5625,225295.40625,254565.734375,229203.65625,229994.90625,378236.0,1.0,1
238055.484375,255492.078125,241246.6875,250115.40625,225299.6875,254576.375,229200.609375,230012.96875,378237.0,1.0,1
238089.8125,255490.546875,241242.84375,250113.890625,225287.890625,254569.3125,229191.140625,230004.921875,378238.0,1.0,1
238033.296875,255461.59375,241227.09375,250103.875,225274.578125,254550.53125,229187.921875,229984.625,378239.0,1.0,1
237970.09375,255453.09375,241221.5625,250100.03125,225284.21875,254551.515625,229196.5,229989.890625,378240.0,1.0,1
237979.65625,255469.71875,241229.515625,250103.78125,225301.03125,254566.796875,229204.8125,230012.34375,378241.0,1.0,1
238047.078125,255483.9375,241236.84375,250106.734375,225296.125,254571.0,229195.78125,230019.125,378242.0,1.0,1
238085.421875,255484.109375,241235.5,250105.84375,225278.234375,254564.296875,229185.59375,230006.875,378243.0,1.0,1
238031.875,255458.1875,241221.921875,250094.484375,225263.484375,254546.59375,229179.515625,229981.140625,378244.0,1.0,1
237973.21875,255453.890625,241222.0,250096.0,225281.546875,254553.125,229194.171875,229986.671875,378245.0,1.0,1
237984.75,255470.078125,241232.734375,250103.34375,225301.84375,254569.03125,229202.578125,230006.875,378246.0,1.0,1
238058.34375,255492.96875,241245.515625,250113.703125,225301.125,254578.25,229196.671875,230020.46875,378247.0,1.0,1
238094.453125,255496.09375,241242.296875,250110.3125,225284.765625,254569.125,229187.28125,230011.625,378248.0,1.0,1
238032.671875,255459.703125,241224.78125,250096.90625,225266.4375,254548.03125,229183.71875,229983.453125,378249.0,1.0,1
237967.765625,255444.953125,241222.359375,250095.375,225279.671875,254553.125,229195.0625,229985.421875,378250.0,1.0,1
237983.421875,255470.796875,241234.515625,250105.125,225301.03125,254573.234375,229207.140625,230007.421875,378251.0,1.0,1
238056.734375,255499.5,241243.46875,250111.46875,225300.3125,254580.03125,229200.609375,230017.609375,378252.0,1.0,1
238086.5,255493.5,241240.0625,250109.5,225284.5,254571.984375,229190.953125,230005.8125,378253.0,1.0,1
238026.234375,255455.328125,241220.75,250094.65625,225266.4375,254547.75,229182.109375,229978.625,378254.0,1.0,1
237960.796875,255440.484375,241212.96875,250088.578125,225271.265625,254541.953125,229183.796875,229971.828125,378255.0,1.0,1
237975.8125,255463.640625,241226.828125,250099.9375,225292.625,254562.78125,229197.390625,229992.75,378256.0,1.0,1
238051.546875,255488.9375,241242.125,250112.71875,225299.609375,254579.046875,229199.53125,230008.21875,378257.0,1.0,1
238081.40625,255479.828125,241234.15625,250106.90625,225279.046875,254563.046875,229180.578125,229991.859375,378258.0,1.0,1
238023.375,255449.15625,241215.03125,250091.171875,225258.921875,254537.296875,229171.546875,229963.609375,378259.0,1.0,1
237970.90625,255452.46875,241222.625,250099.671875,225282.625,254552.046875,229195.609375,229977.28125,378260.0,1.0,1
237993.421875,255484.296875,241243.640625,250117.46875,225314.171875,254579.40625,229217.15625,230008.484375,378261.0,1.0,1
238067.375,255508.796875,241255.171875,250125.6875,225316.328125,254589.328125,229213.75,230020.921875,378262.0,1.0,1
238102.59375,255505.9375,241251.515625,250122.5625,225299.421875,254581.375,229203.828125,230011.796875,378263.0,1.0,1
238041.984375,255472.046875,241234.15625,250107.71875,225280.375,254559.828125,229198.203125,229988.109375,378264.0,1.0,1
237985.203125,255466.59375,241235.859375,250109.140625,225298.265625,254568.328125,229211.609375,229993.109375,378265.0,1.0,1
237999.0625,255483.578125,241248.734375,250118.359375,225318.46875,254586.296875,229221.984375,230015.375,378266.0,1.0,1
238066.921875,255501.640625,241257.046875,250122.296875,225314.796875,254590.671875,229214.296875,230023.328125,378267.0,1.0,1
238107.421875,255507.1875,241257.40625,250124.4375,225304.515625,254587.1875,229209.015625,230016.8125,378268.0,1.0,1
238053.0625,255478.9375,241241.40625,250113.890625,225288.515625,254567.875,229203.203125,229992.125,378269.0,1.0,1
237993.34375,255471.78125,241237.828125,250111.03125,225299.421875,254570.5625,229212.765625,229994.453125,378270.0,1.0,1
238006.03125,255496.8125,241249.8125,250119.515625,225320.890625,254589.328125,229224.21875,230017.96875,378271.0,1.0,1
238075.0625,255518.09375,241259.90625,250124.890625,225318.828125,254596.9375,229221.4375,230027.453125,378272.0,1.0,1
238104.03125,255507.1875,241251.15625,250116.84375,225295.140625,254579.3125,229199.890625,230010.453125,378273.0,1.0,1
238041.984375,255466.6875,241230.671875,250102.078125,225274.390625,254554.109375,229191.40625,229978.09375,378274.0,1.0,1
237979.390625,255456.484375,241227.09375,250100.03125,225287.53125,254557.0625,229204.90625,229978.546875,378275.0,1.0,1
237986.453125,255473.390625,241233.265625,250104.140625,225303.71875,254569.578125,229210.625,229998.921875,378276.0,1.0,1
238066.5625,255509.15625,241250.25,250115.859375,225313.109375,254588.078125,229215.90625,230023.875,378277.0,1.0,1
238100.71875,255507.265625,241247.03125,250114.609375,225296.296875,254584.6875,229206.59375,230012.78125,378278.0,1.0,1
238040.1875,255467.046875,241228.796875,250099.3125,225275.546875,254562.328125,229196.765625,229982.921875,378279.0,1.0,1
237967.5,255442.625,241218.15625,250091.71875,225279.9375,254557.859375,229200.25,229978.8125,378280.0,1.0,1
237981.71875,255466.0625,241228.53125,250101.8125,225301.03125,254575.828125,229212.953125,230004.734375,378281.0,1.0,1
238056.28125,255495.296875,241239.796875,250111.390625,225303.71875,254586.734375,229209.640625,230019.671875,378282.0,1.0,1
238092.3125,255491.984375,241237.203125,250108.171875,225286.546875,254577.984375,229197.390625,230005.8125,378283.0,1.0,1
238038.40625,255458.640625,241225.3125,250099.40625,225272.875,254560.90625,229195.25,229982.828125,378284.0,1.0,1
237976.796875,255449.6875,241222.09375,250095.921875,225283.0625,254562.328125,229204.0,229982.828125,378285.0,1.0,1
237984.046875,255466.59375,241232.28125,250102.703125,225298.984375,254577.984375,229215.265625,230001.15625,378286.0,1.0,1
238056.015625,255491.625,241241.3125,250107.890625,225300.046875,254587.453125,229208.921875,230012.421875,378287.0,1.0,1
238093.75,255489.921875,241238.546875,250106.015625,225287.09375,254582.171875,229198.734375,230004.734375,378288.0,1.0,1
238038.046875,255460.609375,241220.75,250093.140625,225272.25,254557.765625,229188.8125,229981.40625,378289.0,1.0,1
237973.140625,255450.5,241216.375,250090.1875,225282.625,254558.046875,229198.640625,229980.15625,378290.0,1.0,1
237981.1875,255466.859375,241225.765625,250096.453125,225299.25,254573.5,229205.34375,229998.75,378291.0,1.0,1
238056.8125,255493.234375,241242.203125,250108.171875,225302.28125,254588.4375,229209.375,230020.109375,378292.0,1.0,1
238099.640625,255497.34375,241238.1875,250104.59375,225284.40625,254577.078125,229196.046875,230011.171875,378293.0,1.0,1
238042.328125,255464.984375,241222.09375,250091.265625,225266.078125,254556.34375,229188.453125,229982.828125,378294.0,1.0,1
237976.625,255451.84375,241220.125,250091.265625,225277.25,254558.046875,229197.125,229983.375,378295.0,1.0,1
237981.359375,255459.796875,241227.90625,250098.953125,225288.515625,254569.390625,229201.421875,229996.78125,378296.0,1.0,1
238059.046875,255489.484375,241241.3125,250107.8125,225292.359375,254580.03125,229198.46875,230009.65625,378297.0,1.0,1
238099.5625,255493.328125,241242.296875,250109.421875,225282.4375,254577.703125,229192.65625,230006.078125,378298.0,1.0,1
238044.390625,255462.390625,241226.65625,250098.859375,225268.578125,254558.484375,229189.4375,229983.546875,378299.0,1.0,1
237978.765625,255453.546875,241221.734375,250096.71875,225276.890625,254556.78125,229196.234375,229985.421875,378300.0,1.0,1
237992.359375,255481.875,241236.75,250108.96875,225301.65625,254577.984375,229211.875,230012.0625,378301.0,1.0,1
238056.46875,255494.671875,241247.578125,250115.40625,225299.6875,254586.5625,229209.640625,230021.546875,378302.0,1.0,1
238094.015625,255491.890625,241243.546875,250110.9375,225279.40625,254576.015625,229194.53125,230008.21875,378303.0,1.0,1
238045.90625,255465.78125,241227.09375,250099.671875,225262.765625,254555.0,229185.765625,229982.390625,378304.0,1.0,1
237979.84375,255454.171875,241221.640625,250096.0,225270.8125,254554.109375,229194.265625,229979.078125,378305.0,1.0,1
237982.515625,255469.28125,241230.59375,250102.625,225288.15625,254565.1875,229199.453125,229999.109375,378306.0,1.0,1
238057.171875,255497.96875,241245.34375,250113.890625,225293.875,254579.046875,229198.90625,230016.359375,378307.0,1.0,1
238090.078125,255491.8125,241240.515625,250109.859375,225275.546875,254571.09375,229188.546875,230003.84375,378308.0,1.0,1
238027.578125,255450.859375,241216.8125,250091.984375,225253.109375,254542.21875,229173.34375,229970.3125,378309.0,1.0,1
237962.859375,255439.40625,241211.640625,250089.125,225264.28125,254541.953125,229182.28125,229968.96875,378310.0,1.0,1
237981.625,255470.078125,241231.03125,250105.125,225296.46875,254568.046875,229202.21875,229999.015625,378311.0,1.0,1
238062.0,255506.640625,241250.171875,250119.703125,225308.71875,254588.703125,229207.9375,230019.578125,378312.0,1.0,1
238106.53125,255511.921875,241256.78125,250125.515625,225298.53125,254591.65625,229203.5625,230015.828125,378313.0,1.0,1
238058.703125,255486.984375,241247.125,250119.15625,225290.9375,254581.546875,229210.265625,230001.15625,378314.0,1.0,1
237997.28125,255483.140625,241244.53125,250118.09375,225305.859375,254589.328125,229229.125,230007.859375,378315.0,1.0,1
238005.671875,255505.75,241254.546875,250125.6875,225325.53125,254605.421875,229238.25,230027.453125,378316.0,1.0,1
238075.953125,255530.515625,241266.53125,250134.265625,225329.46875,254616.59375,229235.84375,230042.5625,378317.0,1.0,1
238108.5,255523.546875,241258.578125,250127.390625,225308.28125,254604.625,229220.453125,230027.171875,378318.0,1.0,1
238037.859375,255471.78125,241231.125,250104.5,225272.96875,254571.09375,229201.859375,229986.234375,378319.0,1.0,1
237961.59375,255443.171875,241218.15625,250093.765625,225266.796875,254558.3125,229200.875,229974.96875,378320.0,1.0,1
237969.109375,255461.140625,241226.390625,250099.84375,225283.953125,254567.609375,229202.9375,229994.0,378321.0,1.0,1
238043.59375,255490.109375,241239.53125,250110.125,225292.0,254579.9375,229202.484375,230013.59375,378322.0,1.0,1
238081.40625,255488.3125,241235.859375,250107.1875,225275.546875,254570.734375,229189.609375,230003.3125,378323.0,1.0,1
238034.28125,255459.703125,241223.796875,250099.765625,225263.9375,254552.5,229185.328125,229982.828125,378324.0,1.0,1
237967.765625,255443.53125,241217.0,250095.296875,225272.328125,254552.671875,229192.46875,229981.671875,378325.0,1.0,1
237972.859375,255463.375,241225.484375,250101.8125,225292.90625,254571.890625,229201.765625,230001.421875,378326.0,1.0,1
238043.671875,255489.578125,241236.671875,250106.90625,225294.6875,254580.5625,229196.046875,230014.484375,378327.0,1.0,1
238089.359375,255496.546875,241240.875,250109.5,225285.390625,254580.390625,229193.28125,230011.703125,378328.0,1.0,1
238039.203125,255468.921875,241228.0,250099.40625,225269.65625,254559.375,229185.953125,229989.171875,378329.0,1.0,1
237969.5625,255449.78125,241223.25,250096.453125,225278.421875,254560.453125,229193.640625,229987.21875,378330.0,1.0,1
237973.9375,255464.53125,241232.109375,250104.765625,225295.3125,254575.5625,229200.96875,230003.578125,378331.0,1.0,1
238048.6875,255496.359375,241249.359375,250115.9375,225300.765625,254589.59375,229201.59375,230020.375,378332.0,1.0,1
238093.921875,255505.03125,241247.578125,250113.625,225285.65625,254582.625,229189.96875,230011.0,378333.0,1.0,1
238042.6875,255473.03125,241229.609375,250100.390625,225268.40625,254560.28125,229185.234375,229983.90625,378334.0,1.0,1
237978.5,255459.0,241225.21875,250096.90625,225279.578125,254559.921875,229194.4375,229985.421875,378335.0,1.0,1
237984.75,255478.578125,241234.703125,250104.046875,225302.015625,254577.078125,229204.90625,230006.703125,378336.0,1.0,1
238052.078125,255500.921875,241243.8125,250112.09375,225303.0,254588.609375,229202.046875,230016.625,378337.0,1.0,1
238094.015625,255501.8125,241243.1875,250113.171875,225289.953125,254582.890625,229189.703125,230009.65625,378338.0,1.0,1
238047.515625,255476.703125,241228.984375,250102.0,225276.359375,254563.3125,229184.421875,229986.3125,378339.0,1.0,1
237976.796875,255461.046875,241222.546875,250094.578125,225282.171875,254559.015625,229188.984375,229980.234375,378340.0,1.0,1
237979.125,255476.421875,241230.671875,250101.1875,225299.96875,254574.21875,229197.5625,229999.8125,378341.0,1.0,1
238048.234375,255496.28125,241240.0625,250109.421875,225300.765625,254584.5,229196.40625,230011.796875,378342.0,1.0,1
238091.328125,255499.578125,241236.125,250107.984375,225284.765625,254578.328125,229187.5625,230006.53125,378343.0,1.0,1
238032.140625,255459.796875,241214.5,250091.09375,225263.03125,254553.125,229175.671875,229976.9375,378344.0,1.0,1
237964.8125,255441.203125,241209.3125,250085.984375,225266.96875,254547.84375,229181.203125,229970.21875,378345.0,1.0,1
237977.0625,255464.71875,241225.765625,250099.140625,225289.765625,254567.875,229197.125,229998.296875,378346.0,1.0,1
238049.9375,255493.953125,241240.59375,250110.484375,225295.40625,254582.890625,229199.171875,230017.34375,378347.0,1.0,1
238095.625,255501.734375,241240.25,250109.0625,225284.21875,254576.8125,229190.59375,230011.4375,378348.0,1.0,1
238046.625,255474.546875,241223.171875,250097.796875,225270.015625,254555.453125,229183.09375,229986.234375,378349.0,1.0,1
237975.8125,255454.96875,241217.0,250096.265625,225278.859375,254555.359375,229190.421875,229982.109375,378350.0,1.0,1
237980.734375,255471.515625,241229.421875,250104.859375,225299.96875,254573.5,229202.9375,230002.6875,378351.0,1.0,1
238049.484375,255493.953125,241238.359375,250108.796875,225297.015625,254578.421875,229196.3125,230013.40625,378352.0,1.0,1
238092.484375,255494.21875,241235.59375,250106.5625,225278.59375,254567.78125,229185.765625,230005.71875,378353.0,1.0,1
238044.921875,255467.3125,241220.75,250096.359375,225263.390625,254544.984375,229179.515625,229981.40625,378354.0,1.0,1
237975.640625,255451.03125,241215.65625,250092.609375,225272.25,254544.890625,229188.546875,229979.609375,378355.0,1.0,1
237985.65625,255478.9375,241227.1875,250100.203125,225295.578125,254562.15625,229204.71875,230003.75,378356.0,1.0,1
238057.984375,255510.3125,241240.953125,250110.84375,225305.0625,254575.109375,229207.671875,230023.515625,378357.0,1.0,1
238096.421875,255509.0625,241236.40625,250103.78125,225287.359375,254566.359375,229191.84375,230011.078125,378358.0,1.0,1
238049.21875,255480.265625,241220.390625,250089.484375,225265.71875,254541.140625,229181.5625,229982.828125,378359.0,1.0,1
