FZ,C3,CZ,C4,PZ,PO7,OZ,PO8,Counter,Validation,Label
230103.265625,269865.84375,298690.125,279660.46875,239429.75,274645.5625,246188.734375,242096.9375,204831.0,1.0,3
230653.390625,270903.6875,299932.8125,280050.28125,240615.921875,275086.34375,246645.078125,242693.546875,204832.0,1.0,3
231219.515625,271719.25,300794.875,280250.75,241994.390625,275617.75,247041.765625,243181.0,204833.0,1.0,3
231020.578125,271185.78125,300080.78125,279980.90625,241660.015625,275501.90625,246814.046875,242877.109375,204834.0,1.0,3
230331.875,270037.59375,298778.65625,279618.90625,240077.6875,274902.0625,246288.875,242214.421875,204835.0,1.0,3
230101.75,269856.5625,298682.0,279664.5,239426.625,274641.34375,246190.34375,242105.53125,204836.0,1.0,3
230651.234375,270895.90625,299924.75,280054.21875,240614.21875,275088.21875,246664.125,242700.53125,204837.0,1.0,3
231221.921875,271720.34375,300796.03125,280255.3125,241999.84375,275621.96875,247062.421875,243190.390625,204838.0,1.0,3
231038.375,271203.03125,300097.03125,279988.25,241681.015625,275518.25,246837.75,242893.015625,204839.0,1.0,3
230340.453125,270044.9375,298787.21875,279617.9375,240097.4375,274907.34375,246295.84375,242215.3125,204840.0,1.0,3
230096.296875,269847.4375,298677.96875,279656.0,239427.96875,274633.46875,246180.0625,242096.5,204841.0,1.0,3
230650.875,270890.46875,299924.125,280050.28125,240606.703125,275076.9375,246648.65625,242705.53125,204842.0,1.0,3
231223.71875,271715.5,300796.8125,280247.25,241997.078125,275610.53125,247038.46875,243173.765625,204843.0,1.0,3
231035.328125,271192.375,300094.53125,279978.6875,241685.40625,275498.5,246814.140625,242876.296875,204844.0,1.0,3
230342.609375,270041.09375,298790.0,279616.21875,240107.09375,274903.125,246295.40625,242220.40625,204845.0,1.0,3
230097.0,269845.28125,298669.75,279650.90625,239426.171875,274631.78125,246175.859375,242087.546875,204846.0,1.0,3
230638.546875,270876.15625,299903.5625,280036.875,240590.171875,275064.6875,246630.765625,242678.359375,204847.0,1.0,3
231206.09375,271703.78125,300785.5625,280240.03125,241980.09375,275594.875,247030.15625,243174.296875,204848.0,1.0,3
231021.03125,271192.03125,300097.40625,279978.3125,241677.890625,275500.8125,246824.6875,242881.390625,204849.0,1.0,3
230335.984375,270049.21875,298793.3125,279618.1875,240105.21875,274915.21875,246302.734375,242220.859375,204850.0,1.0,3
230096.375,269854.0625,298672.875,279657.53125,239427.703125,274648.25,246190.96875,242102.03125,204851.0,1.0,3
230635.5,270880.96875,299902.84375,280042.53125,240586.671875,275072.125,246644.265625,242689.796875,204852.0,1.0,3
231204.9375,271715.34375,300789.40625,280249.6875,241986.34375,275609.71875,247045.171875,243178.859375,204853.0,1.0,3
231029.34375,271216.4375,300110.28125,279990.3125,241697.375,275523.875,246842.03125,242895.703125,204854.0,1.0,3
230339.75,270067.5625,298799.125,279619.8125,240118.71875,274922.4375,246316.234375,242228.640625,204855.0,1.0,3
230086.546875,269856.46875,298665.71875,279654.5,239427.25,274646.09375,246194.015625,242095.328125,204856.0,1.0,3
230621.5625,270880.4375,299892.75,280040.46875,240579.25,275072.46875,246648.921875,242681.84375,204857.0,1.0,3
231201.71875,271722.3125,300785.75,280249.21875,241981.25,275609.28125,247052.765625,243179.75,204858.0,1.0,3
231033.09375,271230.90625,300113.75,279991.8125,241705.609375,275517.28125,246829.875,242895.4375,204859.0,1.0,3
230337.0625,270076.6875,298802.96875,279629.8125,240130.796875,274927.09375,246312.84375,242239.1875,204860.0,1.0,3
230075.015625,269850.125,298658.03125,279656.71875,239424.203125,274642.5,246183.828125,242096.046875,204861.0,1.0,3
230607.875,270864.4375,299878.4375,280034.375,240564.59375,275054.6875,246616.375,242664.5,204862.0,1.0,3
231193.671875,271714.4375,300781.28125,280247.625,241975.171875,275594.34375,247021.65625,243174.203125,204863.0,1.0,3
231026.03125,271229.84375,300114.28125,279991.375,241704.265625,275510.84375,246822.09375,242899.640625,204864.0,1.0,3
230332.328125,270072.21875,298799.21875,279624.1875,240128.28125,274924.40625,246305.328125,242227.5625,204865.0,1.0,3
230077.875,269850.75,298655.1875,279656.1875,239418.046875,274653.96875,246191.328125,242097.390625,204866.0,1.0,3
230610.5625,270861.5,299876.28125,280036.875,240551.546875,275065.40625,246631.484375,242680.5,204867.0,1.0,3
231196.0,271711.9375,300782.875,280246.8125,241961.046875,275595.875,247026.84375,243177.25,204868.0,1.0,3
231031.75,271228.40625,300127.71875,279994.3125,241700.421875,275516.1875,246830.6875,242907.140625,204869.0,1.0,3
230343.328125,270074.875,298811.46875,279624.0,240128.640625,274929.875,246313.203125,242235.34375,204870.0,1.0,3
230081.71875,269840.65625,298649.375,279646.09375,239403.640625,274644.46875,246182.65625,242088.453125,204871.0,1.0,3
230614.40625,270856.125,299871.28125,280032.3125,240535.453125,275068.09375,246635.328125,242671.109375,204872.0,1.0,3
231201.265625,271719.34375,300788.78125,280250.46875,241954.609375,275614.375,247046.59375,243180.734375,204873.0,1.0,3
231036.3125,271246.5625,300141.84375,279998.4375,241705.703125,275543.375,246852.3125,242909.46875,204874.0,1.0,3
230345.734375,270095.90625,298829.96875,279632.0625,240133.828125,274954.28125,246332.421875,242246.515625,204875.0,1.0,3
230074.46875,269854.9375,298662.25,279651.8125,239395.78125,274657.09375,246201.890625,242096.140625,204876.0,1.0,3
230601.890625,270865.0625,299878.0,280036.0,240520.078125,275071.5625,246639.171875,242673.078125,204877.0,1.0,3
231192.234375,271730.09375,300802.0,280257.1875,241947.984375,275622.5,247051.078125,243188.15625,204878.0,1.0,3
231033.90625,271264.8125,300160.34375,280009.0625,241715.0,275556.34375,246864.5625,242926.734375,204879.0,1.0,3
230344.75,270108.40625,298842.03125,279637.21875,240144.828125,274958.9375,246331.25,242256.171875,204880.0,1.0,3
230077.0625,269858.71875,298664.46875,279656.375,239401.59375,274661.65625,246183.90625,242095.328125,204881.0,1.0,3
230600.546875,270860.34375,299875.75,280038.59375,240518.546875,275069.4375,246622.71875,242666.828125,204882.0,1.0,3
231192.859375,271733.375,300805.3125,280259.5,241951.46875,275625.375,247051.25,243184.671875,204883.0,1.0,3
231048.203125,271283.5,300173.46875,280015.15625,241731.53125,275563.75,246874.046875,242944.078125,204884.0,1.0,3
230350.03125,270115.125,298845.78125,279635.90625,240159.140625,274956.0625,246319.71875,242258.59375,204885.0,1.0,3
230073.3125,269852.625,298653.46875,279647.875,239406.328125,274656.46875,246173.8125,242089.78125,204886.0,1.0,3
230603.578125,270855.78125,299863.59375,280033.75,240518.46875,275065.40625,246619.59375,242667.890625,204887.0,1.0,3
231199.296875,271725.15625,300795.3125,280253.6875,241950.3125,275610.78125,247034.359375,243179.65625,204888.0,1.0,3
231045.171875,271264.4375,300164.0,280005.84375,241731.890625,275548.21875,246854.375,242928.96875,204889.0,1.0,3
230362.359375,270111.8125,298844.34375,279632.6875,240167.625,274959.0,246327.765625,242258.140625,204890.0,1.0,3
230083.421875,269846.71875,298649.1875,279646.34375,239405.171875,274657.25,246184.0,242096.859375,204891.0,1.0,3
230604.484375,270844.40625,299854.9375,280030.34375,240508.890625,275068.4375,246634.96875,242676.828125,204892.0,1.0,3
231199.21875,271720.4375,300792.625,280257.625,241947.984375,275617.5,247059.125,243200.046875,204893.0,1.0,3
231055.359375,271276.25,300172.3125,280010.34375,241739.578125,275551.5,246866.625,242941.921875,204894.0,1.0,3
230366.65625,270118.4375,298849.8125,279635.0,240175.234375,274964.75,246344.3125,242275.390625,204895.0,1.0,3
230080.46875,269842.34375,298642.9375,279641.78125,239399.4375,274652.625,246190.890625,242100.78125,204896.0,1.0,3
230606.359375,270842.71875,299847.3125,280020.0625,240496.375,275056.03125,246624.328125,242659.765625,204897.0,1.0,3
231209.5,271727.75,300794.40625,280249.03125,241942.265625,275611.25,247054.203125,243193.34375,204898.0,1.0,3
231069.3125,271288.6875,300184.375,280009.625,241748.078125,275555.28125,246878.515625,242944.515625,204899.0,1.0,3
230381.59375,270132.75,298863.3125,279636.6875,240188.015625,274968.125,246349.671875,242268.421875,204900.0,1.0,3
230093.609375,269853.875,298649.1875,279645.375,239407.84375,274658.59375,246195.359375,242097.203125,204901.0,1.0,3
230606.171875,270845.125,299845.1875,280024.0,240491.640625,275063.0,246629.703125,242660.65625,204902.0,1.0,3
231204.046875,271731.34375,300793.59375,280249.84375,241933.953125,275613.84375,247051.515625,243182.15625,204903.0,1.0,3
231069.390625,271302.625,300194.59375,280016.0625,241754.0625,275577.25,246888.796875,242946.3125,204904.0,1.0,3
230384.984375,270143.46875,298870.46875,279640.71875,240198.921875,274984.9375,246353.25,242268.0625,204905.0,1.0,3
230086.984375,269843.40625,298637.5625,279638.5,239400.515625,274646.0,246167.46875,242079.15625,204906.0,1.0,3
230599.5625,270833.34375,299831.3125,280020.96875,240478.046875,275047.25,246603.5,242641.78125,204907.0,1.0,3
231205.203125,271728.84375,300793.0625,280255.21875,241928.5,275605.59375,247029.875,243172.0625,204908.0,1.0,3
231080.125,271306.46875,300203.25,280021.59375,241757.015625,275563.3125,246864.21875,242945.0625,204909.0,1.0,3
230396.25,270148.65625,298878.6875,279643.65625,240200.171875,274980.21875,246338.140625,242272.984375,204910.0,1.0,3
230100.84375,269853.25,298649.53125,279647.0625,239402.65625,274667.0,246185.515625,242093.90625,204911.0,1.0,3
230610.5625,270834.59375,299836.25,280026.59375,240472.78125,275060.5,246616.46875,242658.5,204912.0,1.0,3
231219.6875,271732.6875,300796.03125,280258.15625,241927.609375,275617.21875,247042.75,243180.375,204913.0,1.0,3
231094.25,271314.6875,300208.625,280024.375,241766.671875,275575.75,246883.171875,242948.546875,204914.0,1.0,3
230404.75,270150.875,298879.125,279643.5,240211.34375,274986.71875,246355.484375,242270.03125,204915.0,1.0,3
230094.59375,269835.1875,298631.75,279636.15625,239399.4375,274658.96875,246181.140625,242082.1875,204916.0,1.0,3
230596.609375,270811.59375,299811.90625,280010.6875,240463.03125,275049.84375,246609.21875,242644.5625,204917.0,1.0,3
231203.859375,271715.78125,300782.25,280245.375,241920.984375,275608.28125,247041.421875,243177.96875,204918.0,1.0,3
231077.265625,271301.90625,300204.875,280013.625,241768.453125,275570.03125,246878.6875,242950.15625,204919.0,1.0,3
230392.578125,270146.25,298880.125,279643.125,240221.265625,274991.90625,246360.21875,242293.015625,204920.0,1.0,3
230077.78125,269828.03125,298622.09375,279637.6875,239397.5625,274662.53125,246192.234375,242105.53125,204921.0,1.0,3
230581.140625,270807.9375,299802.53125,280012.03125,240456.40625,275048.34375,246620.21875,242652.25,204922.0,1.0,3
231190.265625,271716.125,300782.4375,280252.25,241922.328125,275608.5625,247049.46875,243187.96875,204923.0,1.0,3
231070.828125,271313.71875,300217.75,280026.15625,241782.859375,275579.3125,246884.953125,242962.765625,204924.0,1.0,3
230387.125,270157.78125,298891.03125,279648.78125,240234.6875,274999.59375,246361.46875,242291.21875,204925.0,1.0,3
230063.5625,269825.71875,298621.65625,279635.90625,239398.546875,274652.25,246174.609375,242088.53125,204926.0,1.0,3
230560.765625,270793.09375,299796.71875,280009.34375,240443.71875,275028.65625,246586.78125,242638.75,204927.0,1.0,3
231180.703125,271707.71875,300780.375,280248.6875,241912.21875,275587.90625,247018.96875,243172.421875,204928.0,1.0,3
231071.984375,271313.90625,300218.90625,280023.65625,241782.3125,275561.625,246871.28125,242955.96875,204929.0,1.0,3
230383.546875,270147.125,298884.84375,279643.75,240233.25,274984.40625,246345.375,242281.125,204930.0,1.0,3
230063.484375,269812.65625,298610.1875,279630.53125,239388.71875,274640.46875,246157.71875,242074.953125,204931.0,1.0,3
230567.015625,270786.375,299786.4375,280010.875,240430.65625,275028.5625,246587.671875,242630.703125,204932.0,1.0,3
231189.5625,271711.125,300780.8125,280255.84375,241907.21875,275598.28125,247031.765625,243178.046875,204933.0,1.0,3
231083.4375,271322.90625,300226.59375,280029.71875,241786.703125,275572.78125,246878.875,242963.109375,204934.0,1.0,3
230397.765625,270155.34375,298888.0625,279646.09375,240240.765625,274993.78125,246351.015625,242285.234375,204935.0,1.0,3
230070.0,269814.0,298606.96875,279636.15625,239390.953125,274658.53125,246173.90625,242083.703125,204936.0,1.0,3
230565.5,270782.53125,299778.21875,280013.5625,240423.78125,275040.1875,246598.21875,242642.859375,204937.0,1.0,3
231185.265625,271705.0625,300772.40625,280253.59375,241897.109375,275599.625,247029.171875,243179.03125,204938.0,1.0,3
231087.1875,271325.4375,300226.5,280027.0625,241789.65625,275572.53125,246874.84375,242961.5,204939.0,1.0,3
230411.1875,270166.1875,298893.0,279646.96875,240248.71875,274992.71875,246356.46875,242290.5,204940.0,1.0,3
230090.484375,269824.28125,298606.09375,279635.28125,239393.359375,274657.625,246178.1875,242088.265625,204941.0,1.0,3
230582.03125,270787.8125,299774.90625,280012.03125,240423.59375,275038.3125,246588.390625,242636.25,204942.0,1.0,3
231198.234375,271712.46875,300775.625,280257.8125,241907.40625,275607.5625,247031.3125,243185.734375,204943.0,1.0,3
231102.203125,271340.625,300237.21875,280034.1875,241810.21875,275589.4375,246891.21875,242972.6875,204944.0,1.0,3
230416.90625,270176.09375,298901.03125,279647.6875,240266.421875,274997.0,246350.84375,242294.53125,204945.0,1.0,3
230087.890625,269825.1875,298603.9375,279628.28125,239397.46875,274651.8125,246163.53125,242075.03125,204946.0,1.0,3
230573.09375,270780.75,299766.3125,280003.09375,240415.46875,275030.28125,246589.015625,242628.46875,204947.0,1.0,3
231193.765625,271709.96875,300772.6875,280247.4375,241900.328125,275597.375,247023.71875,243168.578125,204948.0,1.0,3
231103.90625,271348.40625,300244.1875,280031.59375,241818.796875,275585.40625,246891.390625,242976.265625,204949.0,1.0,3
230413.6875,270179.3125,298903.53125,279646.53125,240276.53125,275000.15625,246363.0,242308.03125,204950.0,1.0,3
230080.546875,269819.375,298595.53125,279625.96875,239397.296875,274651.71875,246169.34375,242080.84375,204951.0,1.0,3
230561.734375,270769.3125,299747.90625,279993.875,240401.609375,275020.53125,246572.75,242604.140625,204952.0,1.0,3
231176.234375,271700.75,300758.03125,280239.3125,241888.0,275590.21875,247016.65625,243150.421875,204953.0,1.0,3
231089.515625,271345.4375,300239.03125,280022.3125,241815.125,275580.3125,246880.65625,242957.578125,204954.0,1.0,3
230409.921875,270181.90625,298900.78125,279641.875,240283.328125,275002.09375,246357.8125,242283.71875,204955.0,1.0,3
230069.90625,269812.84375,298582.75,279617.84375,239395.0625,274651.625,246166.84375,242061.453125,204956.0,1.0,3
230547.34375,270757.25,299733.40625,279987.25,240388.90625,275018.8125,246581.234375,242600.125,204957.0,1.0,3
231173.640625,271695.21875,300750.59375,280238.9375,241877.0,275586.375,247027.734375,243155.34375,204958.0,1.0,3
231090.765625,271344.90625,300244.65625,280027.5,241816.46875,275588.25,246901.765625,242969.203125,204959.0,1.0,3
230415.921875,270185.5,298909.96875,279646.1875,240286.890625,275019.71875,246380.875,242301.140625,204960.0,1.0,3
230068.3125,269803.53125,298583.65625,279620.15625,239387.28125,274665.21875,246182.9375,242076.015625,204961.0,1.0,3
230537.328125,270735.15625,299722.78125,279979.40625,240367.28125,274999.25,246564.078125,242592.34375,204962.0,1.0,3
231168.71875,271681.34375,300747.03125,280231.6875,241862.6875,275564.21875,247002.703125,243141.65625,204963.0,1.0,3
231091.5625,271337.59375,300244.1875,280018.71875,241813.15625,275557.59375,246862.78125,242956.140625,204964.0,1.0,3
230412.34375,270173.875,298909.28125,279637.875,240287.796875,274987.1875,246346.984375,242294.53125,204965.0,1.0,3
230064.546875,269790.5625,298576.75,279612.65625,239383.34375,274638.40625,246156.734375,242065.921875,204966.0,1.0,3
230542.4375,270734.96875,299717.78125,279981.53125,240364.0625,275005.0625,246565.859375,242598.78125,204967.0,1.0,3
231165.421875,271680.09375,300744.15625,280232.59375,241858.671875,275569.125,247006.28125,243152.75,204968.0,1.0,3
231090.9375,271349.125,300253.59375,280025.8125,241822.1875,275573.96875,246885.40625,242971.78125,204969.0,1.0,3
230414.84375,270189.96875,298919.09375,279644.375,240299.5,275001.40625,246365.140625,242303.921875,204970.0,1.0,3
230060.890625,269792.1875,298573.375,279610.78125,239379.953125,274632.15625,246150.75,242062.78125,204971.0,1.0,3
230530.453125,270725.0625,299714.28125,279980.1875,240355.03125,274994.96875,246565.765625,242598.15625,204972.0,1.0,3
231161.84375,271683.15625,300754.90625,280242.78125,241861.078125,275575.5625,247028.90625,243164.546875,204973.0,1.0,3
231097.296875,271362.25,300271.84375,280037.78125,241832.296875,275580.84375,246899.796875,242979.484375,204974.0,1.0,3
230415.109375,270194.875,298930.1875,279650.65625,240307.90625,275001.46875,246369.171875,242313.03125,204975.0,1.0,3
230060.53125,269793.25,298575.6875,279616.3125,239384.78125,274639.5625,246162.90625,242071.1875,204976.0,1.0,3
230526.875,270716.46875,299705.4375,279979.40625,240349.390625,274993.625,246560.859375,242587.421875,204977.0,1.0,3
231156.296875,271671.53125,300742.03125,280234.21875,241853.75,275565.625,247009.234375,243145.59375,204978.0,1.0,3
231102.390625,271360.125,300267.625,280028.65625,241838.375,275581.1875,246885.046875,242967.234375,204979.0,1.0,3
230425.390625,270196.84375,298924.5625,279642.6875,240319.890625,275006.65625,246357.90625,242296.234375,204980.0,1.0,3
230059.625,269782.625,298559.15625,279605.75,239387.109375,274639.28125,246152.625,242049.46875,204981.0,1.0,3
230526.96875,270708.0625,299691.84375,279976.53125,240342.78125,274995.84375,246566.125,242589.65625,204982.0,1.0,3
231166.21875,271675.09375,300738.0,280235.1875,241850.0,275570.28125,247018.4375,243147.46875,204983.0,1.0,3
231105.609375,271362.8125,300267.4375,280028.84375,241842.21875,275585.03125,246890.9375,242964.453125,204984.0,1.0,3
230427.28125,270195.6875,298927.5,279639.03125,240324.984375,275009.34375,246365.40625,242298.828125,204985.0,1.0,3
230063.296875,269778.3125,298561.46875,279603.96875,239381.734375,274644.21875,246163.703125,242062.96875,204986.0,1.0,3
230528.84375,270701.71875,299688.0,279976.625,240328.921875,274996.21875,246565.328125,242583.5,204987.0,1.0,3
231168.015625,271670.625,300743.0,280243.3125,241841.5,275567.96875,247018.171875,243147.109375,204988.0,1.0,3
231112.9375,271365.3125,300281.5625,280036.4375,241841.78125,275577.625,246889.78125,242977.59375,204989.0,1.0,3
230437.015625,270202.28125,298938.59375,279640.375,240328.109375,275010.34375,246363.984375,242304.984375,204990.0,1.0,3
230067.671875,269779.125,298556.8125,279597.625,239377.453125,274639.125,246157.0,242058.5,204991.0,1.0,3
230529.90625,270700.90625,299680.125,279971.15625,240319.078125,274991.125,246566.21875,242586.4375,204992.0,1.0,3
231168.71875,271672.0625,300738.625,280237.15625,241836.40625,275569.65625,247022.8125,243149.265625,204993.0,1.0,3
231111.859375,271370.40625,300283.375,280036.53125,241848.921875,275585.9375,246895.234375,242984.390625,204994.0,1.0,3
230435.234375,270207.9375,298941.09375,279646.71875,240340.8125,275020.625,246365.59375,242312.234375,204995.0,1.0,3
230066.34375,269781.28125,298549.3125,279599.0625,239379.5,274642.5,246149.140625,242056.078125,204996.0,1.0,3
230516.953125,270690.375,299661.90625,279961.875,240309.78125,274984.59375,246546.8125,242577.765625,204997.0,1.0,3
231152.90625,271663.21875,300724.5,280226.78125,241826.84375,275557.9375,246996.09375,243145.59375,204998.0,1.0,3
231111.0625,271378.96875,300286.65625,280038.40625,241856.703125,275589.25,246892.828125,242993.6875,204999.0,1.0,3
230443.015625,270220.8125,298947.71875,279650.1875,240352.25,275024.28125,246371.3125,242324.296875,205000.0,1.0,3
230065.71875,269779.5,298547.875,279600.9375,239381.46875,274645.28125,246152.53125,242060.546875,205001.0,1.0,3
230512.296875,270681.96875,299656.71875,279963.84375,240302.984375,274982.71875,246544.765625,242576.4375,205002.0,1.0,3
231147.265625,271656.6875,300720.90625,280227.3125,241822.546875,275556.0,247003.234375,243151.859375,205003.0,1.0,3
231107.03125,271377.0,300287.9375,280030.34375,241860.8125,275588.15625,246899.609375,242994.859375,205004.0,1.0,3
230436.578125,270216.6875,298949.21875,279642.96875,240359.765625,275026.96875,246378.015625,242327.609375,205005.0,1.0,3
230062.140625,269776.4375,298545.03125,279599.6875,239383.96875,274649.9375,246165.3125,242076.5625,205006.0,1.0,3
230507.65625,270676.875,299649.65625,279966.15625,240297.53125,274987.625,246560.140625,242592.4375,205007.0,1.0,3
231146.015625,271656.6875,300724.0625,280233.9375,241817.8125,275562.40625,247007.625,243151.859375,205008.0,1.0,3
231113.109375,271386.9375,300301.59375,280042.59375,241866.625,275600.5,246913.296875,243000.9375,205009.0,1.0,3
230450.15625,270234.5625,298966.03125,279656.46875,240370.84375,275042.53125,246394.828125,242342.28125,205010.0,1.0,3
230066.0625,269778.78125,298553.6875,279608.625,239383.265625,274657.625,246167.734375,242073.25,205011.0,1.0,3
230511.140625,270674.625,299652.25,279965.96875,240287.4375,274979.9375,246540.203125,242565.703125,205012.0,1.0,3
231158.0,271663.46875,300729.59375,280234.90625,241819.59375,275559.28125,247001.890625,243137.734375,205013.0,1.0,3
231132.421875,271404.375,300319.46875,280048.96875,241885.21875,275605.25,246916.421875,243006.125,205014.0,1.0,3
230461.78125,270243.59375,298979.90625,279659.5,240390.25,275047.78125,246395.546875,242337.265625,205015.0,1.0,3
230067.953125,269776.53125,298551.1875,279601.03125,239390.6875,274653.5,246155.21875,242057.78125,205016.0,1.0,3
230514.171875,270672.84375,299647.40625,279964.28125,240289.484375,274986.0,246546.90625,242572.234375,205017.0,1.0,3
231162.921875,271670.1875,300738.53125,280243.40625,241827.921875,275578.4375,247025.59375,243164.109375,205018.0,1.0,3
231132.96875,271408.75,300328.78125,280054.5,241896.671875,275612.03125,246912.484375,243013.8125,205019.0,1.0,3
230464.28125,270245.9375,298980.25,279657.25,240399.375,275042.96875,246377.21875,242332.4375,205020.0,1.0,3
230072.15625,269775.09375,298541.1875,279594.3125,239390.6875,274645.1875,246143.328125,242055.1875,205021.0,1.0,3
230502.109375,270653.1875,299627.21875,279953.09375,240275.546875,274970.8125,246525.984375,242558.109375,205022.0,1.0,3
231150.3125,271649.15625,300717.34375,280228.84375,241809.046875,275556.0,246990.625,243138.71875,205023.0,1.0,3
231137.4375,271407.3125,300324.84375,280049.9375,241893.1875,275604.875,246902.125,243009.609375,205024.0,1.0,3
230469.5625,270248.96875,298985.71875,279662.28125,240410.28125,275048.0625,246386.15625,242346.203125,205025.0,1.0,3
230067.046875,269768.84375,298538.21875,279597.90625,239396.671875,274652.34375,246150.46875,242065.375,205026.0,1.0,3
230501.296875,270655.15625,299620.0625,279954.0,240273.484375,274976.625,246531.609375,242566.5,205027.0,1.0,3
231155.765625,271661.9375,300721.375,280235.09375,241814.6875,275567.78125,247009.234375,243155.78125,205028.0,1.0,3
231141.28125,271423.78125,300338.96875,280056.90625,241913.828125,275624.46875,246935.46875,243033.296875,205029.0,1.0,3
230474.5625,270262.8125,298995.09375,279665.75,240429.328125,275062.0,246407.78125,242367.671875,205030.0,1.0,3
230074.03125,269778.6875,298540.46875,279598.53125,239403.375,274652.96875,246155.296875,242078.34375,205031.0,1.0,3
230497.8125,270648.71875,299616.03125,279948.0,240265.890625,274965.625,246531.53125,242568.5625,205032.0,1.0,3
231144.5,271652.03125,300716.8125,280228.40625,241803.0625,275555.28125,247008.78125,243158.015625,205033.0,1.0,3
231132.34375,271423.875,300342.28125,280053.4375,241910.796875,275620.34375,246932.078125,243035.09375,205034.0,1.0,3
230470.1875,270268.1875,299001.8125,279658.78125,240431.296875,275061.375,246406.890625,242362.125,205035.0,1.0,3
230064.640625,269773.3125,298537.4375,279588.875,239395.0625,274651.1875,246150.75,242058.3125,205036.0,1.0,3
230492.984375,270644.6875,299612.09375,279947.21875,240254.625,274967.875,246528.125,242553.546875,205037.0,1.0,3
231141.8125,271647.03125,300716.71875,280230.71875,241796.984375,275552.59375,247002.34375,243145.0625,205038.0,1.0,3
231134.578125,271422.53125,300346.5625,280055.5625,241913.03125,275614.53125,246923.84375,243030.171875,205039.0,1.0,3
230478.328125,270275.0625,299009.84375,279666.125,240441.21875,275067.46875,246403.5,242368.65625,205040.0,1.0,3
230065.984375,269773.40625,298538.5,279594.5,239399.71875,274652.53125,246152.4375,242069.9375,205041.0,1.0,3
230478.140625,270631.625,299601.0,279944.34375,240247.015625,274961.6875,246521.0625,242549.4375,205042.0,1.0,3
231139.3125,271649.53125,300718.3125,280235.0,241797.0625,275554.90625,247002.4375,243147.734375,205043.0,1.0,3
231141.640625,271434.84375,300360.625,280065.40625,241925.09375,275624.03125,246939.21875,243037.234375,205044.0,1.0,3
230476.71875,270276.21875,299020.125,279671.46875,240452.75,275068.4375,246423.171875,242380.1875,205045.0,1.0,3
230065.984375,269768.84375,298539.75,279598.78125,239404.8125,274658.15625,246167.640625,242082.28125,205046.0,1.0,3
230474.125,270617.15625,299593.40625,279944.09375,240237.71875,274958.9375,246523.921875,242548.09375,205047.0,1.0,3
231135.5625,271635.3125,300710.90625,280230.1875,241785.0,275544.8125,246992.234375,243132.1875,205048.0,1.0,3
231146.015625,271432.34375,300363.46875,280062.09375,241925.90625,275619.46875,246926.171875,243026.140625,205049.0,1.0,3
230493.078125,270285.875,299025.0625,279672.625,240461.515625,275073.90625,246409.21875,242365.96875,205050.0,1.0,3
230074.203125,269770.46875,298530.1875,279595.125,239401.765625,274648.25,246147.171875,242058.9375,205051.0,1.0,3
230484.046875,270621.625,299584.90625,279947.84375,240231.375,274951.15625,246518.203125,242546.125,205052.0,1.0,3
231137.703125,271638.4375,300706.71875,280238.84375,241783.21875,275545.53125,246998.5,243144.4375,205053.0,1.0,3
231148.15625,271439.40625,300365.34375,280070.3125,241933.6875,275617.9375,246931.796875,243040.0,205054.0,1.0,3
230486.640625,270286.15625,299025.125,279677.03125,240472.0625,275067.1875,246411.984375,242377.953125,205055.0,1.0,3
230065.171875,269765.28125,298526.15625,279597.09375,239406.234375,274651.1875,246153.609375,242064.046875,205056.0,1.0,3
230470.71875,270609.8125,299575.0,279946.3125,240226.09375,274951.59375,246523.296875,242544.6875,205057.0,1.0,3
231133.046875,271641.9375,300706.71875,280238.59375,241783.125,275549.09375,247004.9375,243146.40625,205058.0,1.0,3
231150.125,271453.53125,300373.9375,280074.34375,241946.109375,275627.0625,246941.453125,243044.75,205059.0,1.0,3
230492.1875,270297.59375,299029.0625,279673.4375,240487.34375,275072.28125,246417.09375,242377.234375,205060.0,1.0,3
230066.0625,269767.5,298520.34375,279591.09375,239415.71875,274654.125,246160.484375,242070.828125,205061.0,1.0,3
230466.796875,270605.15625,299562.125,279939.15625,240223.859375,274948.71875,246518.109375,242550.234375,205062.0,1.0,3
231126.96875,271633.4375,300692.9375,280230.09375,241777.3125,275539.625,246998.953125,243149.34375,205063.0,1.0,3
231141.546875,271450.3125,300369.90625,280066.375,241949.859375,275624.65625,246939.046875,243043.765625,205064.0,1.0,3
230488.78125,270306.625,299036.9375,279675.59375,240502.453125,275093.125,246432.109375,242383.9375,205065.0,1.0,3
230062.765625,269774.46875,298522.40625,279592.34375,239418.75,274668.09375,246164.59375,242071.90625,205066.0,1.0,3
230457.671875,270601.0625,299550.84375,279930.84375,240210.0,274940.15625,246501.484375,242533.34375,205067.0,1.0,3
231119.109375,271630.75,300687.3125,280224.5625,241764.078125,275534.53125,246987.328125,243128.78125,205068.0,1.0,3
231144.859375,271459.28125,300382.78125,280070.59375,241949.859375,275627.5,246949.78125,243052.515625,205069.0,1.0,3
230492.0,270311.8125,299047.21875,279675.21875,240503.078125,275089.375,246437.203125,242386.359375,205070.0,1.0,3
230060.96875,269770.71875,298517.9375,279586.4375,239410.0,274666.5625,246165.9375,242053.484375,205071.0,1.0,3
230454.71875,270595.78125,299543.625,279932.46875,240198.5625,274945.96875,246513.921875,242521.890625,205072.0,1.0,3
231115.96875,271626.28125,300681.59375,280225.53125,241755.3125,275534.15625,246990.546875,243122.703125,205073.0,1.0,3
231141.453125,271457.84375,300377.96875,280069.6875,241950.21875,275626.25,246942.359375,243041.078125,205074.0,1.0,3
230490.125,270317.0,299047.5,279678.09375,240509.4375,275091.59375,246434.15625,242389.21875,205075.0,1.0,3
230056.328125,269769.5625,298513.90625,279588.6875,239408.46875,274667.71875,246163.265625,242062.609375,205076.0,1.0,3
230451.859375,270595.40625,299538.25,279933.4375,240188.546875,274955.25,246518.390625,242532.4375,205077.0,1.0,3
231115.34375,271631.65625,300685.15625,280230.8125,241749.234375,275544.53125,246998.5,243139.515625,205078.0,1.0,3
231150.75,271477.0625,300394.6875,280075.25,241965.609375,275640.84375,246955.859375,243060.65625,205079.0,1.0,3
230500.671875,270331.3125,299057.3125,279675.0625,240529.640625,275096.625,246431.484375,242390.46875,205080.0,1.0,3
230055.25,269766.0,298509.875,279577.34375,239415.625,274660.5625,246147.171875,242051.703125,205081.0,1.0,3
230449.0,270583.78125,299526.25,279920.5625,240184.96875,274934.6875,246498.0,242520.109375,205082.0,1.0,3
231112.9375,271623.875,300680.6875,280221.96875,241751.921875,275534.4375,246990.546875,243134.421875,205083.0,1.0,3
231148.78125,271473.84375,300397.53125,280069.25,241972.21875,275638.875,246947.453125,243052.078125,205084.0,1.0,3
230499.609375,270332.65625,299063.40625,279670.40625,240540.1875,275105.8125,246439.703125,242392.703125,205085.0,1.0,3
230054.796875,269767.25,298511.59375,279572.6875,239425.109375,274674.25,246167.90625,242061.71875,205086.0,1.0,3
230438.71875,270573.0625,299521.4375,279914.65625,240186.40625,274942.5625,246509.890625,242521.0,205087.0,1.0,3
231105.421875,271616.4375,300676.84375,280216.6875,241749.59375,275533.0,246996.890625,243134.0625,205088.0,1.0,3
231153.34375,271479.03125,300404.25,280068.09375,241980.171875,275635.03125,246958.0,243063.25,205089.0,1.0,3
230513.375,270344.90625,299077.4375,279678.71875,240556.1875,275106.96875,246453.390625,242418.625,205090.0,1.0,3
230055.703125,269760.4375,298513.375,279580.1875,239425.546875,274666.90625,246175.6875,242074.5,205091.0,1.0,3
230433.890625,270564.65625,299517.25,279920.9375,240170.484375,274938.8125,246525.265625,242526.8125,205092.0,1.0,3
231100.59375,271613.9375,300676.65625,280222.84375,241735.828125,275536.3125,247016.828125,243138.359375,205093.0,1.0,3
231155.5,271487.53125,300414.625,280075.0625,241980.890625,275648.6875,246977.578125,243057.0,205094.0,1.0,3
230507.65625,270337.9375,299079.0625,279674.59375,240554.484375,275096.875,246448.015625,242397.53125,205095.0,1.0,3
230050.328125,269751.40625,298507.03125,279573.3125,239417.6875,274653.5,246164.515625,242056.96875,205096.0,1.0,3
230431.390625,270559.21875,299508.28125,279917.71875,240158.78125,274925.84375,246500.765625,242510.453125,205097.0,1.0,3
231102.296875,271611.78125,300674.4375,280223.65625,241728.40625,275515.46875,246981.953125,243119.3125,205098.0,1.0,3
231154.328125,271485.46875,300420.15625,280082.46875,241981.875,275630.0,246954.421875,243060.84375,205099.0,1.0,3
230512.921875,270349.625,299092.65625,279689.90625,240567.015625,275108.21875,246452.046875,242411.03125,205100.0,1.0,3
230060.171875,269762.21875,298510.96875,279584.03125,239423.3125,274663.6875,246159.5,242061.265625,205101.0,1.0,3
230428.078125,270554.375,299502.125,279921.90625,240149.203125,274932.625,246501.671875,242511.96875,205102.0,1.0,3
231091.921875,271609.28125,300672.09375,280228.75,241720.359375,275533.0,246992.875,243133.4375,205103.0,1.0,3
231158.09375,271498.15625,300427.84375,280089.53125,241991.078125,275641.5625,246961.484375,243081.21875,205104.0,1.0,3
230518.921875,270357.40625,299094.4375,279691.0625,240576.3125,275107.25,246446.5,242418.984375,205105.0,1.0,3
230052.125,269753.90625,298503.0,279580.90625,239423.5,274658.34375,246149.21875,242055.453125,205106.0,1.0,3
230415.65625,270540.25,299486.3125,279912.4375,240142.328125,274914.3125,246487.1875,242497.9375,205107.0,1.0,3
231085.40625,271599.46875,300659.6875,280219.1875,241710.34375,275511.28125,246977.9375,243112.6875,205108.0,1.0,3
231155.046875,271494.3125,300427.03125,280080.4375,241988.3125,275637.53125,246951.828125,243060.296875,205109.0,1.0,3
230522.140625,270362.59375,299103.09375,279686.3125,240587.84375,275117.8125,246452.765625,242415.046875,205110.0,1.0,3
230059.8125,269761.96875,298511.40625,279579.9375,239433.59375,274677.75,246172.375,242067.4375,205111.0,1.0,3
230427.546875,270545.34375,299491.3125,279913.21875,240142.140625,274927.71875,246500.0625,242511.34375,205112.0,1.0,3
231099.875,271603.125,300671.3125,280224.8125,241716.25,275522.90625,246991.53125,243134.15625,205113.0,1.0,3
231167.65625,271502.375,300445.28125,280090.625,242002.890625,275653.25,246978.65625,243089.09375,205114.0,1.0,3
230532.59375,270369.9375,299115.15625,279691.59375,240598.484375,275125.9375,246462.6875,242430.15625,205115.0,1.0,3
230060.34375,269751.0625,298504.0625,279572.875,239427.515625,274665.21875,246158.703125,242055.90625,205116.0,1.0,3
230414.21875,270516.28125,299471.8125,279903.21875,240120.515625,274912.53125,246470.8125,242481.390625,205117.0,1.0,3
231092.546875,271583.625,300657.625,280220.53125,241696.046875,275511.09375,246969.171875,243108.765625,205118.0,1.0,3
231171.859375,271496.0,300441.25,280091.78125,241997.078125,275641.8125,246954.953125,243070.9375,205119.0,1.0,3
230533.75,270359.84375,299112.84375,279695.34375,240598.84375,275117.09375,246450.703125,242426.578125,205120.0,1.0,3
230058.109375,269737.90625,298494.34375,279579.65625,239421.703125,274658.96875,246151.734375,242062.96875,205121.0,1.0,3
230411.890625,270509.84375,299461.53125,279912.59375,240113.71875,274917.0,246484.40625,242495.15625,205122.0,1.0,3
231084.5,271580.6875,300649.65625,280226.59375,241691.21875,275514.40625,246979.546875,243122.4375,205123.0,1.0,3
231166.484375,271499.59375,300435.53125,280090.96875,241998.421875,275640.125,246957.375,243078.359375,205124.0,1.0,3
230530.359375,270365.375,299104.8125,279690.625,240601.609375,275112.34375,246443.46875,242424.625,205125.0,1.0,3
230057.390625,269742.5625,298483.59375,279573.75,239420.546875,274661.03125,246143.6875,242057.421875,205126.0,1.0,3
230408.140625,270507.71875,299446.34375,279905.53125,240102.453125,274912.6875,246477.890625,242497.484375,205127.0,1.0,3
231080.03125,271577.8125,300638.3125,280217.40625,241678.15625,275499.46875,246971.671875,243120.921875,205128.0,1.0,3
231163.453125,271505.125,300442.875,280089.1875,242001.8125,275641.8125,246966.765625,243087.390625,205129.0,1.0,3
230538.3125,270384.78125,299121.875,279694.90625,240617.703125,275132.46875,246468.046875,242444.375,205130.0,1.0,3
230054.984375,269747.46875,298489.59375,279574.75,239426.171875,274660.46875,246153.15625,242074.40625,205131.0,1.0,3
230399.921875,270504.03125,299444.28125,279898.9375,240094.671875,274891.5,246466.96875,242488.8125,205132.0,1.0,3
231077.984375,271584.53125,300643.75,280216.21875,241673.875,275497.4375,246973.28125,243121.8125,205133.0,1.0,3
231167.921875,271518.8125,300452.96875,280086.40625,242002.4375,275643.78125,246963.453125,243083.453125,205134.0,1.0,3
230542.96875,270395.40625,299131.25,279687.65625,240621.28125,275129.15625,246460.984375,242424.34375,205135.0,1.0,3
230058.375,269756.40625,298495.5,279566.34375,239428.859375,274666.65625,246156.5625,242050.546875,205136.0,1.0,3
230399.296875,270506.09375,299439.4375,279891.15625,240087.515625,274901.4375,246470.015625,242473.796875,205137.0,1.0,3
231082.8125,271587.46875,300638.21875,280211.40625,241666.265625,275501.0,246962.296875,243103.21875,205138.0,1.0,3
231178.921875,271529.8125,300457.53125,280090.96875,242007.09375,275649.59375,246965.859375,243083.546875,205139.0,1.0,3
230551.1875,270400.5,299136.375,279692.65625,240628.4375,275136.03125,246462.859375,242437.40625,205140.0,1.0,3
230054.890625,269745.15625,298485.75,279564.71875,239422.328125,274665.9375,246147.796875,242053.671875,205141.0,1.0,3
230392.046875,270492.59375,299429.0,279894.09375,240076.703125,274901.4375,246464.5625,242482.734375,205142.0,1.0,3
231075.203125,271577.09375,300634.8125,280217.5,241660.71875,275503.3125,246966.84375,243123.25,205143.0,1.0,3
231175.875,271526.0625,300463.34375,280098.125,242013.796875,275654.59375,246968.734375,243088.734375,205144.0,1.0,3
230553.609375,270401.9375,299142.71875,279702.0625,240642.109375,275134.6875,246461.703125,242443.9375,205145.0,1.0,3
230060.609375,269747.03125,298488.59375,279574.5625,239431.453125,274666.125,246150.75,242062.875,205146.0,1.0,3
230388.296875,270483.5625,299426.21875,279898.5625,240071.609375,274897.6875,246464.03125,242481.03125,205147.0,1.0,3
231069.484375,271573.4375,300637.25,280222.03125,241655.265625,275504.84375,246968.546875,243112.609375,205148.0,1.0,3
231174.625,271535.96875,300471.46875,280102.34375,242016.296875,275657.28125,246972.578125,243096.6875,205149.0,1.0,3
230555.484375,270418.84375,299155.9375,279706.78125,240654.265625,275150.96875,246483.78125,242460.203125,205150.0,1.0,3
230059.28125,269757.75,298492.4375,279574.5625,239437.53125,274682.9375,246166.390625,242069.765625,205151.0,1.0,3
230385.34375,270485.90625,299414.59375,279891.6875,240065.25,274896.34375,246461.703125,242472.984375,205152.0,1.0,3
231070.375,271577.375,300627.9375,280217.3125,241649.28125,275503.0625,246971.5,243112.34375,205153.0,1.0,3
231180.703125,271546.78125,300475.21875,280102.0625,242024.34375,275669.96875,246985.796875,243104.734375,205154.0,1.0,3
230555.21875,270424.65625,299156.5625,279701.96875,240664.640625,275151.6875,246483.96875,242462.171875,205155.0,1.0,3
230054.265625,269756.15625,298481.46875,279563.84375,239436.90625,274672.90625,246160.125,242073.703125,205156.0,1.0,3
230382.75,270486.78125,299404.03125,279883.8125,240057.390625,274901.96875,246472.515625,242479.6875,205157.0,1.0,3
231059.296875,271570.65625,300616.03125,280202.8125,241639.53125,275495.46875,246967.203125,243105.984375,205158.0,1.0,3
231169.625,271543.84375,300471.65625,280090.875,242024.515625,275656.84375,246977.765625,243100.359375,205159.0,1.0,3
230559.859375,270436.8125,299163.09375,279698.375,240675.015625,275157.84375,246481.109375,242460.203125,205160.0,1.0,3
230054.265625,269754.625,298478.3125,279558.28125,239435.828125,274677.28125,246151.640625,242056.796875,205161.0,1.0,3
230367.1875,270464.15625,299385.53125,279871.9375,240034.859375,274886.59375,246440.875,242448.046875,205162.0,1.0,3
231051.875,271555.46875,300604.4375,280200.40625,241615.84375,275481.96875,246939.9375,243085.78125,205163.0,1.0,3
231176.859375,271539.5625,300472.28125,280092.125,242012.546875,275651.84375,246965.59375,243091.421875,205164.0,1.0,3
230562.546875,270426.53125,299166.65625,279698.65625,240673.40625,275157.84375,246476.625,242459.21875,205165.0,1.0,3
230050.875,269739.4375,298472.0625,279555.34375,239430.28125,274669.78125,246134.828125,242049.375,205166.0,1.0,3
230372.109375,270456.84375,299379.8125,279876.5625,240028.6875,274885.875,246438.71875,242453.140625,205167.0,1.0,3
231062.234375,271554.65625,300605.5,280208.09375,241616.828125,275490.1875,246952.28125,243093.109375,205168.0,1.0,3
231179.28125,271541.625,300479.0,280103.59375,242022.640625,275661.9375,246979.90625,243098.125,205169.0,1.0,3
230561.46875,270432.59375,299173.71875,279710.71875,240686.640625,275167.34375,246492.90625,242467.625,205170.0,1.0,3
230050.875,269746.3125,298477.6875,279570.8125,239439.140625,274683.0,246167.375,242073.609375,205171.0,1.0,3
230366.203125,270456.5625,299377.65625,279886.6875,240026.359375,274893.125,246454.640625,242465.921875,205172.0,1.0,3
231057.765625,271561.8125,300606.125,280216.0625,241614.40625,275497.96875,246964.4375,243106.171875,205173.0,1.0,3
231188.390625,271561.28125,300492.5625,280114.125,242035.96875,275672.65625,246992.234375,243117.96875,205174.0,1.0,3
230574.53125,270447.90625,299182.3125,279711.09375,240698.96875,275166.875,246491.109375,242468.703125,205175.0,1.0,3
230064.453125,269754.8125,298477.4375,279564.71875,239444.5,274678.0,246156.375,242061.71875,205176.0,1.0,3
230367.734375,270450.03125,299367.75,279876.84375,240022.34375,274883.375,246451.421875,242453.046875,205177.0,1.0,3
231048.828125,271544.90625,300595.5625,280204.0,241605.828125,275482.21875,246959.78125,243095.4375,205178.0,1.0,3
231185.4375,271554.125,300487.75,280099.75,242033.375,275657.46875,246978.734375,243105.8125,205179.0,1.0,3
230582.65625,270453.25,299185.53125,279702.3125,240707.203125,275167.6875,246488.34375,242471.640625,205180.0,1.0,3
230064.375,269749.0,298469.03125,279552.5625,239444.5,274676.40625,246149.3125,242061.171875,205181.0,1.0,3
230367.8125,270440.84375,299353.1875,279864.15625,240010.265625,274877.21875,246440.78125,242448.671875,205182.0,1.0,3
231061.609375,271548.75,300593.15625,280201.40625,241600.109375,275488.03125,246963.90625,243096.15625,205183.0,1.0,3
231199.578125,271565.65625,300500.1875,280109.3125,242041.328125,275678.21875,247001.546875,243122.96875,205184.0,1.0,3
230594.90625,270462.90625,299197.78125,279713.6875,240721.859375,275179.59375,246502.921875,242493.546875,205185.0,1.0,3
230081.53125,269761.0625,298477.875,279564.71875,239456.84375,274687.5,246165.234375,242074.234375,205186.0,1.0,3
230368.09375,270430.28125,299344.5,279867.28125,240003.484375,274868.90625,246438.359375,242438.75,205187.0,1.0,3
231044.890625,271522.65625,300573.03125,280199.25,241582.5,275461.84375,246952.28125,243082.75,205188.0,1.0,3
231199.65625,271554.21875,300490.15625,280106.71875,242036.59375,275653.71875,246988.84375,243104.296875,205189.0,1.0,3
230601.078125,270457.65625,299196.0,279711.875,240723.5625,275169.03125,246498.796875,242473.078125,205190.0,1.0,3
230069.90625,269736.46875,298464.75,279557.21875,239445.578125,274671.3125,246155.578125,242053.3125,205191.0,1.0,3
230362.1875,270415.53125,299334.5,279867.1875,239990.609375,274871.84375,246448.734375,242436.515625,205192.0,1.0,3
231041.953125,271513.8125,300569.65625,280200.78125,241573.734375,275460.21875,246944.140625,243075.859375,205193.0,1.0,3
231189.375,271545.46875,300491.875,280105.28125,242032.203125,275647.4375,246973.734375,243100.09375,205194.0,1.0,3
230594.546875,270458.8125,299195.625,279708.03125,240725.96875,275162.15625,246485.84375,242470.03125,205195.0,1.0,3
230067.234375,269742.46875,298458.75,279553.8125,239448.4375,274665.59375,246145.734375,242050.71875,205196.0,1.0,3
230352.796875,270415.34375,299325.09375,279863.4375,239988.09375,274863.25,246433.359375,242434.09375,205197.0,1.0,3
231043.28125,271531.78125,300572.3125,280202.65625,241576.5,275471.5,246953.625,243083.1875,205198.0,1.0,3
231197.421875,271570.9375,300500.34375,280110.09375,242042.765625,275657.625,246988.75,243110.015625,205199.0,1.0,3
230601.53125,270479.46875,299206.0,279714.3125,240743.859375,275172.25,246503.625,242485.5,205200.0,1.0,3
230070.09375,269749.09375,298461.875,279554.25,239457.46875,274676.40625,246157.53125,242064.484375,205201.0,1.0,3
230349.40625,270407.65625,299315.96875,279855.75,239977.1875,274857.1875,246426.75,242434.71875,205202.0,1.0,3
231038.90625,271520.40625,300564.0,280193.4375,241563.265625,275458.71875,246938.59375,243079.96875,205203.0,1.0,3
231199.84375,271569.875,300506.6875,280105.0,242045.625,275658.1875,246989.375,243108.140625,205204.0,1.0,3
230601.96875,270475.875,299213.78125,279707.40625,240748.6875,275176.625,246504.96875,242479.15625,205205.0,1.0,3
230075.375,269748.375,298466.0,279550.40625,239461.484375,274680.6875,246162.28125,242067.078125,205206.0,1.0,3
230351.8125,270402.84375,299309.8125,279852.71875,239974.953125,274860.03125,246439.078125,242447.953125,205207.0,1.0,3
231034.703125,271508.8125,300554.0,280187.53125,241555.40625,275454.96875,246942.4375,243075.671875,205208.0,1.0,3
231195.734375,271562.1875,300503.21875,280100.8125,242046.609375,275657.0,246987.328125,243105.0,205209.0,1.0,3
230601.625,270473.71875,299214.5,279706.71875,240757.625,275181.28125,246506.40625,242482.90625,205210.0,1.0,3
230066.25,269730.6875,298455.34375,279545.25,239460.15625,274677.28125,246156.015625,242051.4375,205211.0,1.0,3
230346.625,270385.59375,299298.1875,279849.03125,239968.15625,274855.65625,246435.234375,242424.53125,205212.0,1.0,3
231038.453125,271503.875,300554.4375,280194.40625,241556.65625,275468.90625,246965.953125,243085.328125,205213.0,1.0,3
231199.578125,271559.65625,300512.4375,280112.78125,242056.796875,275662.375,247007.265625,243132.8125,205214.0,1.0,3
230607.15625,270471.9375,299225.78125,279717.875,240770.765625,275183.34375,246518.46875,242504.71875,205215.0,1.0,3
230079.75,269736.9375,298462.9375,279555.875,239470.515625,274691.59375,246174.796875,242070.390625,205216.0,1.0,3
230347.171875,270377.09375,299291.21875,279852.09375,239961.015625,274857.96875,246436.75,242425.0625,205217.0,1.0,3
231028.890625,271487.96875,300541.3125,280193.71875,241540.921875,275443.96875,246936.8125,243069.25,205218.0,1.0,3
231198.59375,271563.34375,300512.78125,280119.21875,242052.78125,275663.625,247003.953125,243129.6875,205219.0,1.0,3
230610.921875,270480.53125,299227.46875,279718.5,240772.28125,275181.8125,246509.171875,242494.796875,205220.0,1.0,3
230067.765625,269727.71875,298449.71875,279546.65625,239455.6875,274672.1875,246151.546875,242050.890625,205221.0,1.0,3
230329.90625,270366.90625,299274.40625,279842.59375,239936.421875,274842.53125,246425.671875,242409.859375,205222.0,1.0,3
231018.34375,271488.3125,300533.15625,280185.125,241521.609375,275441.28125,246933.40625,243056.546875,205223.0,1.0,3
231196.4375,271571.21875,300513.5,280110.90625,242048.21875,275653.875,246990.359375,243113.5,205224.0,1.0,3
230612.25,270494.65625,299235.15625,279718.3125,240781.046875,275190.03125,246516.859375,242498.46875,205225.0,1.0,3
230071.96875,269743.0,298456.6875,279550.875,239466.59375,274688.65625,246158.515625,242058.5,205226.0,1.0,3
230334.5625,270376.0,299274.0625,279845.03125,239938.296875,274846.71875,246421.640625,242417.203125,205227.0,1.0,3
231021.828125,271495.5625,300532.90625,280183.40625,241518.828125,275441.375,246935.921875,243069.0625,205228.0,1.0,3
231205.03125,271581.9375,300521.1875,280108.21875,242052.0625,275659.4375,247000.828125,243132.8125,205229.0,1.0,3
230621.640625,270506.71875,299240.4375,279710.90625,240787.484375,275187.625,246515.25,242506.328125,205230.0,1.0,3
230076.0,269740.5,298447.3125,279530.84375,239459.4375,274670.0625,246140.015625,242041.515625,205231.0,1.0,3
230337.953125,270364.03125,299261.0,279825.875,239920.5,274830.625,246405.375,242397.890625,205232.0,1.0,3
231029.34375,271483.6875,300525.5625,280175.71875,241505.609375,275428.3125,246926.890625,243051.625,205233.0,1.0,3
231215.578125,271579.78125,300527.8125,280110.8125,242051.515625,275656.5625,247005.75,243121.640625,205234.0,1.0,3
230639.34375,270510.3125,299256.0,279722.0,240799.203125,275199.6875,246535.375,242510.984375,205235.0,1.0,3
230088.0625,269741.84375,298460.53125,279549.625,239469.359375,274687.21875,246174.4375,242068.59375,205236.0,1.0,3
230341.53125,270359.65625,299263.40625,279840.0,239917.734375,274834.75,246419.40625,242412.1875,205237.0,1.0,3
231023.4375,271476.53125,300527.625,280184.40625,241498.0,275428.40625,246930.46875,243062.09375,205238.0,1.0,3
231211.28125,271584.78125,300538.09375,280116.625,242053.671875,275659.96875,247006.71875,243128.609375,205239.0,1.0,3
230636.84375,270521.5625,299266.90625,279724.6875,240806.34375,275201.65625,246521.78125,242504.453125,205240.0,1.0,3
230091.015625,269752.125,298465.4375,279551.59375,239477.3125,274692.03125,246154.046875,242056.171875,205241.0,1.0,3
230337.15625,270356.875,299257.15625,279840.09375,239920.421875,274833.3125,246404.65625,242398.0625,205242.0,1.0,3
231020.578125,271478.59375,300522.4375,280186.09375,241502.921875,275433.21875,246926.265625,243052.078125,205243.0,1.0,3
231211.640625,271589.625,300533.96875,280119.75,242064.75,275662.75,247003.421875,243132.71875,205244.0,1.0,3
230632.640625,270518.09375,299261.1875,279725.03125,240816.09375,275192.90625,246520.890625,242518.578125,205245.0,1.0,3
230086.28125,269742.125,298452.3125,279543.96875,239474.28125,274678.09375,246146.453125,242050.890625,205246.0,1.0,3
230329.546875,270343.75,299243.28125,279834.28125,239905.390625,274831.34375,246407.078125,242395.109375,205247.0,1.0,3
231019.421875,271472.9375,300518.875,280187.90625,241488.53125,275437.4375,246935.921875,243053.953125,205248.0,1.0,3
231221.921875,271598.5625,300547.1875,280126.90625,242064.390625,275672.21875,247013.96875,243135.84375,205249.0,1.0,3
230655.34375,270536.9375,299279.40625,279734.25,240829.234375,275210.0625,246541.265625,242531.015625,205250.0,1.0,3
230100.3125,269752.5,298459.375,279550.875,239483.484375,274696.78125,246172.46875,242069.3125,205251.0,1.0,3
230336.171875,270344.375,299236.3125,279832.40625,239900.390625,274833.3125,246409.671875,242393.0625,205252.0,1.0,3
231021.296875,271470.53125,300509.90625,280182.625,241481.015625,275425.28125,246930.375,243049.75,205253.0,1.0,3
231222.8125,271597.03125,300542.71875,280119.84375,242066.1875,275660.21875,247011.28125,243134.515625,205254.0,1.0,3
230648.109375,270531.03125,299276.1875,279722.96875,240832.734375,275201.9375,246530.453125,242523.765625,205255.0,1.0,3
230086.90625,269738.375,298449.625,279538.625,239477.046875,274680.0625,246153.34375,242059.390625,205256.0,1.0,3
230324.1875,270326.46875,299225.15625,279826.34375,239886.171875,274816.84375,246399.921875,242402.171875,205257.0,1.0,3
231006.984375,271453.09375,300500.0,280176.625,241464.75,275412.3125,246913.390625,243052.4375,205258.0,1.0,3
231212.265625,271590.53125,300543.625,280115.5625,242062.609375,275654.96875,246995.8125,243122.96875,205259.0,1.0,3
230649.71875,270540.4375,299285.21875,279727.34375,240845.515625,275207.46875,246536.53125,242521.265625,205260.0,1.0,3
230083.953125,269738.1875,298449.53125,279540.84375,239488.9375,274685.6875,246171.390625,242064.3125,205261.0,1.0,3
230315.421875,270321.21875,299211.65625,279820.6875,239886.625,274820.15625,246402.0625,242386.625,205262.0,1.0,3
231002.703125,271454.0,300491.78125,280175.65625,241470.46875,275423.65625,246923.75,243045.8125,205263.0,1.0,3
231211.28125,271595.15625,300544.15625,280118.25,242075.578125,275662.1875,247006.09375,243134.0625,205264.0,1.0,3
230641.9375,270542.03125,299286.375,279729.21875,240860.71875,275214.625,246539.21875,242533.6875,205265.0,1.0,3
230078.59375,269743.71875,298444.96875,279536.5625,239495.640625,274692.75,246151.734375,242054.921875,205266.0,1.0,3
230303.71875,270317.375,299199.46875,279812.90625,239879.203125,274820.78125,246386.78125,242379.109375,205267.0,1.0,3
230992.421875,271452.46875,300481.9375,280166.53125,241458.578125,275419.5625,246912.484375,243033.75,205268.0,1.0,3
231200.28125,271604.375,300543.09375,280114.75,242074.859375,275672.84375,247013.4375,243134.0625,205269.0,1.0,3
230641.765625,270561.96875,299290.15625,279725.9375,240866.34375,275227.875,246548.96875,242532.359375,205270.0,1.0,3
230080.46875,269758.21875,298444.25,279536.21875,239496.625,274704.90625,246172.640625,242062.515625,205271.0,1.0,3
230304.25,270328.71875,299197.96875,279816.75,239875.265625,274837.15625,246414.9375,242389.21875,205272.0,1.0,3
230987.046875,271461.3125,300482.90625,280171.53125,241450.265625,275426.78125,246931.53125,243052.515625,205273.0,1.0,3
231206.09375,271620.46875,300555.6875,280121.5625,242071.28125,275672.9375,247020.671875,243147.390625,205274.0,1.0,3
230654.546875,270579.0625,299309.53125,279730.84375,240871.96875,275237.25,246556.46875,242531.015625,205275.0,1.0,3
230085.296875,269766.78125,298457.75,279539.5,239497.875,274715.5625,246176.671875,242055.640625,205276.0,1.0,3
230302.90625,270321.375,299196.625,279814.0,239859.984375,274827.75,246395.0,242370.53125,205277.0,1.0,3
230990.453125,271453.46875,300481.5625,280170.09375,241436.484375,275419.0,246914.90625,243034.28125,205278.0,1.0,3
231220.21875,271627.1875,300565.625,280127.1875,242075.84375,275677.40625,247015.578125,243143.09375,205279.0,1.0,3
230664.03125,270584.6875,299319.65625,279739.78125,240883.421875,275232.875,246545.65625,242545.140625,205280.0,1.0,3
230093.609375,269770.1875,298462.9375,279549.34375,239506.375,274709.3125,246169.703125,242080.84375,205281.0,1.0,3
230309.703125,270324.78125,299201.28125,279828.125,239860.515625,274827.5,246390.984375,242400.484375,205282.0,1.0,3
230996.703125,271454.78125,300490.96875,280185.3125,241432.5625,275412.9375,246901.578125,243048.953125,205283.0,1.0,3
231229.609375,271632.8125,300583.875,280141.9375,242083.796875,275675.0,247009.59375,243148.453125,205284.0,1.0,3
230676.359375,270594.78125,299341.71875,279753.375,240904.515625,275250.3125,246569.171875,242559.359375,205285.0,1.0,3
230108.71875,269779.125,298476.0,279555.78125,239521.75,274729.0625,246188.203125,242079.5,205286.0,1.0,3
230311.3125,270316.28125,299196.0,279822.125,239858.453125,274824.09375,246387.3125,242376.875,205287.0,1.0,3
230993.046875,271444.59375,300484.25,280179.3125,241429.78125,275402.46875,246906.328125,243045.546875,205288.0,1.0,3
231228.1875,271631.1875,300588.5,280143.09375,242087.546875,275673.46875,247023.0,243169.921875,205289.0,1.0,3
230689.140625,270605.53125,299351.75,279753.65625,240911.9375,275248.78125,246569.171875,242566.15625,205290.0,1.0,3
230108.0,269769.75,298474.5625,279549.875,239517.8125,274716.4375,246179.890625,242075.125,205291.0,1.0,3
230302.46875,270302.6875,299189.5625,279816.21875,239846.125,274825.53125,246397.953125,242372.765625,205292.0,1.0,3
230985.984375,271438.4375,300482.21875,280173.9375,241417.09375,275410.59375,246916.328125,243032.40625,205293.0,1.0,3
231233.453125,271637.71875,300597.4375,280141.21875,242090.765625,275686.34375,247038.828125,243163.828125,205294.0,1.0,3
230695.765625,270613.9375,299360.3125,279751.5,240926.421875,275256.75,246578.90625,242574.203125,205295.0,1.0,3
230110.328125,269770.71875,298470.8125,279543.4375,239524.96875,274711.53125,246171.84375,242079.328125,205296.0,1.0,3
230303.984375,270295.71875,299180.53125,279813.375,239846.5625,274817.03125,246396.4375,242386.703125,205297.0,1.0,3
230985.4375,271429.3125,300475.21875,280173.40625,241418.703125,275403.46875,246910.34375,243034.109375,205298.0,1.0,3
231225.046875,271630.40625,300592.875,280134.25,242094.703125,275676.15625,247023.890625,243153.375,205299.0,1.0,3
230685.125,270612.03125,299359.96875,279745.3125,240932.953125,275252.53125,246569.171875,242565.078125,205300.0,1.0,3
230095.484375,269763.9375,298464.5625,279533.875,239527.296875,274705.0,246161.5625,242068.59375,205301.0,1.0,3
230282.53125,270279.4375,299161.84375,279798.96875,239835.390625,274803.625,246374.703125,242359.625,205302.0,1.0,3
230966.75,271417.875,300461.375,280165.0,241404.9375,275394.5,246901.84375,243024.8125,205303.0,1.0,3
231216.5625,271629.84375,300594.6875,280138.09375,242092.828125,275674.28125,247025.5,243159.625,205304.0,1.0,3
230681.453125,270614.1875,299366.59375,279751.40625,240937.59375,275251.8125,246567.109375,242568.390625,205305.0,1.0,3
230102.546875,269775.8125,298473.125,279547.03125,239538.5625,274723.78125,246176.21875,242079.15625,205306.0,1.0,3
230290.921875,270289.90625,299160.40625,279809.34375,239838.875,274822.125,246391.34375,242372.578125,205307.0,1.0,3
230972.484375,271422.25,300450.46875,280167.15625,241402.96875,275402.375,246913.203125,243035.171875,205308.0,1.0,3
231218.34375,271631.28125,300581.28125,280132.0,242094.265625,275674.625,247026.03125,243162.140625,205309.0,1.0,3
230688.34375,270621.0,299359.34375,279748.09375,240948.953125,275255.5625,246579.546875,242574.015625,205310.0,1.0,3
230098.53125,269768.75,298457.03125,279535.03125,239535.515625,274714.5625,246172.46875,242075.84375,205311.0,1.0,3
230273.671875,270269.71875,299135.5625,279788.96875,239820.453125,274805.78125,246372.65625,242343.078125,205312.0,1.0,3
230957.8125,271407.15625,300431.6875,280148.71875,241384.09375,275390.84375,246893.890625,243006.65625,205313.0,1.0,3
231213.421875,271627.25,300577.4375,280121.71875,242090.859375,275674.34375,247022.015625,243147.828125,205314.0,1.0,3
230680.203125,270614.0,299358.625,279737.375,240951.28125,275265.84375,246578.90625,242568.828125,205315.0,1.0,3
230094.140625,269761.96875,298451.25,279525.375,239536.328125,274728.53125,246181.5,242073.25,205316.0,1.0,3
230268.9375,270258.34375,299127.875,279783.5,239810.0,274809.875,246374.890625,242353.8125,205317.0,1.0,3
230951.5625,271395.53125,300427.21875,280142.84375,241368.90625,275382.0,246885.21875,243011.125,205318.0,1.0,3
231212.265625,271622.53125,300583.3125,280115.125,242083.34375,275666.59375,247014.765625,243144.609375,205319.0,1.0,3
230690.9375,270619.1875,299367.9375,279733.625,240951.546875,275250.84375,246568.1875,242566.78125,205320.0,1.0,3
230101.921875,269762.3125,298457.40625,279525.375,239534.359375,274716.1875,246172.828125,242071.8125,205321.0,1.0,3
230270.359375,270251.28125,299124.75,279784.03125,239801.15625,274800.84375,246372.203125,242350.953125,205322.0,1.0,3
230951.015625,271386.59375,300426.3125,280147.03125,241363.0,275378.96875,246888.171875,243009.96875,205323.0,1.0,3
231214.234375,271625.375,300592.625,280128.09375,242092.109375,275669.8125,247029.96875,243162.9375,205324.0,1.0,3
230680.65625,270619.125,299375.34375,279742.1875,240963.703125,275252.8125,246572.203125,242576.34375,205325.0,1.0,3
230085.828125,269753.46875,298451.0625,279525.125,239535.703125,274703.5,246160.671875,242065.375,205326.0,1.0,3
230261.15625,270241.28125,299117.5,279782.34375,239793.1875,274783.0625,246360.21875,242337.0,205327.0,1.0,3
230951.734375,271389.875,300427.9375,280150.15625,241356.03125,275367.6875,246885.046875,243005.234375,205328.0,1.0,3
231215.9375,271634.25,300603.53125,280131.65625,242090.234375,275661.125,247025.046875,243159.359375,205329.0,1.0,3
230697.734375,270638.78125,299397.4375,279751.59375,240977.65625,275264.96875,246588.921875,242590.28125,205330.0,1.0,3
230102.71875,269770.46875,298469.84375,279534.3125,239550.90625,274724.5,246187.75,242086.921875,205331.0,1.0,3
230259.1875,270240.90625,299119.1875,279786.0,239793.453125,274790.9375,246376.40625,242351.75,205332.0,1.0,3
230944.765625,271388.90625,300427.5625,280155.25,241352.625,275378.96875,246907.21875,243021.234375,205333.0,1.0,3
231224.6875,271649.34375,300607.8125,280135.59375,242092.109375,275675.625,247039.53125,243174.5625,205334.0,1.0,3
230699.609375,270646.90625,299397.0625,279750.0625,240976.5,275270.96875,246585.265625,242590.5625,205335.0,1.0,3
230101.75,269771.1875,298462.0625,279531.71875,239543.296875,274725.125,246178.1875,242077.0,205336.0,1.0,3
230264.90625,270246.0,299106.6875,279780.1875,239778.171875,274790.125,246362.546875,242338.421875,205337.0,1.0,3
230952.8125,271395.25,300419.8125,280150.96875,241336.796875,275372.0,246884.15625,243013.0,205338.0,1.0,3
231222.1875,271649.0,300607.90625,280136.125,242085.765625,275668.1875,247020.859375,243167.328125,205339.0,1.0,3
230705.15625,270656.46875,299401.1875,279752.84375,240979.890625,275268.375,246574.625,242573.484375,205340.0,1.0,3
230107.734375,269776.53125,298463.125,279533.0,239544.375,274728.0625,246173.546875,242063.40625,205341.0,1.0,3
230266.875,270243.78125,299105.5,279786.09375,239771.828125,274796.46875,246361.125,242330.296875,205342.0,1.0,3
230947.265625,271382.1875,300413.1875,280152.125,241322.859375,275365.28125,246876.734375,242996.46875,205343.0,1.0,3
231224.6875,271645.78125,300610.40625,280139.0,242087.375,275668.71875,247020.671875,243152.75,205344.0,1.0,3
230714.984375,270662.03125,299414.5,279761.25,240994.734375,275275.6875,246582.578125,242585.546875,205345.0,1.0,3
230111.40625,269775.8125,298469.21875,279538.4375,239551.875,274722.96875,246165.140625,242070.5625,205346.0,1.0,3
230256.6875,270229.28125,299100.6875,279788.6875,239765.03125,274792.625,246362.546875,242336.8125,205347.0,1.0,3
230949.140625,271381.75,300417.125,280161.0625,241323.484375,275380.3125,246895.59375,243012.109375,205348.0,1.0,3
231232.921875,271649.15625,300621.5,280144.8125,242095.328125,275665.78125,247024.875,243166.875,205349.0,1.0,3
230721.25,270663.1875,299428.71875,279764.375,241011.1875,275273.90625,246588.75,242594.21875,205350.0,1.0,3
230126.234375,269783.78125,298481.71875,279544.25,239571.640625,274731.90625,246181.953125,242080.671875,205351.0,1.0,3
230274.03125,270234.46875,299103.09375,279792.96875,239775.578125,274799.0625,246371.3125,242338.609375,205352.0,1.0,3
230948.15625,271376.03125,300413.71875,280162.40625,241321.875,275369.65625,246880.84375,243000.9375,205353.0,1.0,3
231237.484375,271665.0,300632.6875,280154.28125,242103.46875,275671.5,247030.6875,243166.96875,205354.0,1.0,3
230737.15625,270694.5625,299445.625,279774.84375,241025.84375,275285.34375,246600.109375,242601.90625,205355.0,1.0,3
230129.8125,269797.90625,298483.96875,279543.8125,239573.609375,274734.78125,246183.46875,242080.671875,205356.0,1.0,3
230267.5,270237.4375,299094.53125,279783.78125,239760.46875,274787.0,246364.25,242328.6875,205357.0,1.0,3
230953.4375,271388.90625,300411.46875,280154.625,241308.546875,275364.21875,246889.25,242996.015625,205358.0,1.0,3
231256.25,271686.625,300643.125,280150.875,242106.59375,275681.34375,247035.875,243169.5625,205359.0,1.0,3
230750.921875,270709.5,299456.875,279772.59375,241037.46875,275296.78125,246607.25,242609.78125,205360.0,1.0,3
230143.5,269807.75,298490.65625,279542.1875,239581.296875,274749.8125,246194.109375,242089.78125,205361.0,1.0,3
230278.140625,270238.15625,299089.4375,279777.34375,239754.921875,274791.5625,246354.140625,242322.515625,205362.0,1.0,3
230958.796875,271383.625,300404.40625,280147.5625,241301.84375,275363.03125,246871.71875,242981.171875,205363.0,1.0,3
231254.921875,271682.25,300645.5625,280149.625,242106.234375,275682.3125,247039.8125,243170.8125,205364.0,1.0,3
230763.796875,270718.71875,299467.875,279777.5,241049.984375,275299.65625,246611.8125,242618.625,205365.0,1.0,3
230141.890625,269802.375,298488.25,279541.75,239584.15625,274742.125,246187.125,242088.453125,205366.0,1.0,3
230265.8125,270224.375,299082.625,279784.3125,239749.828125,274796.125,246369.875,242330.65625,205367.0,1.0,3
230953.796875,271375.03125,300402.90625,280161.0625,241297.640625,275362.78125,246882.453125,242997.71875,205368.0,1.0,3
231262.609375,271683.15625,300649.3125,280163.75,242112.765625,275675.875,247037.578125,243183.421875,205369.0,1.0,3
230766.75,270715.9375,299473.25,279788.875,241064.203125,275300.71875,246614.5,242628.5625,205370.0,1.0,3
230142.875,269794.875,298487.09375,279548.90625,239596.578125,274743.0,246188.5625,242092.921875,205371.0,1.0,3
230266.4375,270206.125,299069.84375,279781.4375,239749.828125,274779.75,246346.71875,242310.0,205372.0,1.0,3
230950.84375,271357.25,300390.21875,280155.4375,241295.59375,275353.75,246875.75,242982.78125,205373.0,1.0,3
231255.0,271673.5,300646.53125,280160.0,242115.984375,275680.25,247047.234375,243183.5,205374.0,1.0,3
230758.4375,270715.5,299474.3125,279784.3125,241070.546875,275303.84375,246622.359375,242630.078125,205375.0,1.0,3
230139.203125,269800.40625,298488.78125,279545.78125,239602.390625,274743.71875,246196.78125,242092.109375,205376.0,1.0,3
230254.984375,270204.96875,299064.9375,279778.40625,239747.5,274774.21875,246354.140625,242324.921875,205377.0,1.0,3
230933.046875,271351.4375,300380.375,280147.3125,241284.59375,275339.25,246865.90625,242987.875,205378.0,1.0,3
231242.9375,271673.75,300644.75,280152.9375,242114.375,275662.1875,247037.65625,243183.6875,205379.0,1.0,3
230762.109375,270724.78125,299482.8125,279782.15625,241080.921875,275298.3125,246622.8125,242627.125,205380.0,1.0,3
230149.484375,269807.46875,298494.96875,279542.375,239610.0,274750.59375,246200.8125,242085.140625,205381.0,1.0,3
230265.53125,270203.90625,299062.40625,279768.40625,239740.703125,274773.6875,246342.4375,242305.078125,205382.0,1.0,3
230941.0,271347.59375,300379.84375,280136.46875,241272.515625,275334.53125,246852.59375,242965.171875,205383.0,1.0,3
231262.15625,271681.96875,300656.1875,280145.96875,242115.8125,275671.0625,247028.546875,243165.71875,205384.0,1.0,3
230776.046875,270731.125,299496.75,279774.5625,241089.40625,275308.5,246615.390625,242623.1875,205385.0,1.0,3
230151.90625,269803.375,298493.96875,279527.4375,239606.953125,274737.03125,246177.75,242080.3125,205386.0,1.0,3
230261.78125,270195.3125,299050.625,279755.59375,239725.78125,274764.28125,246335.09375,242298.203125,205387.0,1.0,3
230939.84375,271342.3125,300371.34375,280136.40625,241260.71875,275333.90625,246858.125,242967.859375,205388.0,1.0,3
231261.796875,271681.4375,300659.84375,280157.40625,242116.15625,275674.90625,247047.40625,243182.609375,205389.0,1.0,3
230777.84375,270733.28125,299502.75,279786.53125,241096.484375,275314.0625,246638.375,242642.5,205390.0,1.0,3
230150.65625,269796.65625,298494.59375,279534.59375,239610.09375,274741.3125,246184.625,242089.609375,205391.0,1.0,3
230254.890625,270180.21875,299041.84375,279760.71875,239720.953125,274761.78125,246340.640625,242308.390625,205392.0,1.0,3
230929.46875,271325.59375,300363.125,280141.40625,241252.9375,275337.125,246868.765625,242974.828125,205393.0,1.0,3
231256.53125,271671.875,300657.1875,280161.0625,242115.453125,275674.625,247051.15625,243188.59375,205394.0,1.0,3
230774.890625,270724.6875,299498.625,279787.09375,241101.03125,275299.3125,246622.71875,242640.359375,205395.0,1.0,3
230153.953125,269791.90625,298488.59375,279541.84375,239617.78125,274737.71875,246185.171875,242092.828125,205396.0,1.0,3
230253.015625,270169.03125,299026.75,279761.0625,239717.28125,274758.90625,246334.65625,242300.609375,205397.0,1.0,3
230922.234375,271312.90625,300348.375,280139.875,241246.234375,275334.0,246867.25,242970.0,205398.0,1.0,3
231251.96875,271672.15625,300651.625,280161.59375,242117.234375,275680.53125,247062.6875,243193.078125,205399.0,1.0,3
230785.34375,270740.71875,299500.6875,279785.1875,241114.984375,275313.15625,246632.375,242642.234375,205400.0,1.0,3
230156.015625,269792.4375,298476.34375,279527.625,239621.703125,274733.625,246177.125,242085.9375,205401.0,1.0,3
230244.609375,270155.8125,299006.4375,279748.625,239706.46875,274749.96875,246321.875,242293.015625,205402.0,1.0,3
230920.625,271309.15625,300332.4375,280130.03125,241233.71875,275323.625,246853.84375,242970.890625,205403.0,1.0,3
231258.671875,271679.75,300644.9375,280149.53125,242112.765625,275671.125,247048.296875,243184.671875,205404.0,1.0,3
230783.03125,270744.09375,299500.59375,279779.40625,241118.828125,275316.65625,246638.375,242649.828125,205405.0,1.0,3
230142.609375,269787.4375,298469.65625,279519.9375,239617.15625,274742.1875,246188.921875,242081.296875,205406.0,1.0,3
230235.3125,270153.21875,298995.28125,279736.46875,239694.578125,274756.6875,246337.328125,242282.546875,205407.0,1.0,3
230908.28125,271302.0,300321.0,280116.1875,241216.734375,275323.875,246855.0,242959.265625,205408.0,1.0,3
231240.25,271668.65625,300641.15625,280142.65625,242101.859375,275672.40625,247040.609375,243179.921875,205409.0,1.0,3
230773.09375,270742.40625,299502.75,279776.4375,241117.046875,275319.25,246633.0,242640.625,205410.0,1.0,3
230143.234375,269791.46875,298472.875,279522.4375,239620.28125,274748.375,246189.71875,242082.71875,205411.0,1.0,3
230232.546875,270148.125,298992.9375,279740.6875,239692.34375,274755.25,246326.34375,242283.171875,205412.0,1.0,3
230902.296875,271294.40625,300321.53125,280124.3125,241214.765625,275320.5625,246853.03125,242950.59375,205413.0,1.0,3
231243.828125,271672.875,300652.53125,280155.71875,242110.984375,275670.96875,247045.890625,243178.765625,205414.0,1.0,3
230781.421875,270752.59375,299521.25,279792.71875,241131.796875,275322.1875,246642.84375,242653.140625,205415.0,1.0,3
230147.96875,269796.75,298485.21875,279537.53125,239628.421875,274749.90625,246194.734375,242093.546875,205416.0,1.0,3
230228.4375,270142.5625,298990.8125,279749.0,239683.84375,274749.8125,246326.078125,242281.203125,205417.0,1.0,3
230897.46875,271289.65625,300320.09375,280133.875,241204.75,275320.40625,246859.65625,242955.34375,205418.0,1.0,3
231246.15625,271680.8125,300660.3125,280166.6875,242110.53125,275678.65625,247055.546875,243189.859375,205419.0,1.0,3
230787.21875,270763.59375,299529.03125,279797.625,241139.390625,275327.625,246644.0,242657.609375,205420.0,1.0,3
230141.703125,269792.09375,298482.78125,279535.3125,239630.65625,274747.125,246188.03125,242092.734375,205421.0,1.0,3
230215.203125,270129.0625,298981.6875,279747.125,239672.578125,274745.5,246318.296875,242279.234375,205422.0,1.0,3
230893.4375,271286.4375,300314.5625,280133.34375,241189.546875,275317.1875,246850.703125,242957.75,205423.0,1.0,3
231238.46875,271673.40625,300655.46875,280159.625,242098.28125,275656.125,247037.125,243184.578125,205424.0,1.0,3
230788.828125,270764.125,299531.625,279794.78125,241142.875,275309.9375,246635.59375,242656.0,205425.0,1.0,3
230153.328125,269799.875,298487.34375,279538.15625,239639.59375,274739.4375,246190.890625,242102.9375,205426.0,1.0,3
230225.296875,270129.4375,298977.03125,279745.3125,239675.0,274732.53125,246312.21875,242279.515625,205427.0,1.0,3
230901.21875,271283.40625,300308.9375,280127.53125,241190.796875,275297.5,246836.046875,242948.90625,205428.0,1.0,3
231255.625,271684.21875,300665.9375,280161.15625,242113.03125,275662.03125,247047.046875,243192.4375,205429.0,1.0,3
230797.515625,270774.3125,299543.875,279793.25,241159.234375,275325.5,246651.0625,242666.28125,205430.0,1.0,3
230152.34375,269801.3125,298490.5625,279530.5625,239645.484375,274752.46875,246198.9375,242104.359375,205431.0,1.0,3
230223.15625,270129.15625,298976.5,279744.53125,239669.625,274749.96875,246328.84375,242293.640625,205432.0,1.0,3
230903.015625,271287.0625,300309.65625,280131.375,241180.34375,275314.75,246852.140625,242962.21875,205433.0,1.0,3
231260.375,271691.71875,300671.46875,280164.75,242109.28125,275674.34375,247058.140625,243201.390625,205434.0,1.0,3
230802.609375,270778.625,299551.03125,279795.65625,241160.5,275330.0625,246644.53125,242671.375,205435.0,1.0,3
230161.5625,269804.875,298492.09375,279532.8125,239645.40625,274752.3125,246188.390625,242103.015625,205436.0,1.0,3
230225.921875,270121.8125,298968.375,279742.28125,239661.40625,274742.125,246319.71875,242284.703125,205437.0,1.0,3
230891.390625,271270.25,300295.875,280126.28125,241169.875,275299.375,246844.984375,242949.890625,205438.0,1.0,3
231254.828125,271688.0625,300665.9375,280165.8125,242112.046875,275670.78125,247057.328125,243187.34375,205439.0,1.0,3
230804.21875,270785.21875,299553.09375,279799.875,241176.140625,275334.0,246658.9375,242671.296875,205440.0,1.0,3
230162.1875,269808.71875,298493.53125,279535.9375,239664.09375,274766.0625,246219.859375,242111.609375,205441.0,1.0,3
230212.515625,270110.90625,298952.4375,279736.03125,239663.546875,274741.5,246327.765625,242283.625,205442.0,1.0,3
230877.703125,271256.40625,300275.0625,280117.53125,241163.359375,275291.59375,246837.5625,242946.125,205443.0,1.0,3
231243.109375,271679.65625,300656.8125,280161.78125,242116.078125,275669.25,247059.65625,243199.328125,205444.0,1.0,3
230806.1875,270791.75,299552.625,279800.40625,241193.03125,275340.96875,246659.015625,242684.703125,205445.0,1.0,3
230159.140625,269811.40625,298482.4375,279529.0625,239672.9375,274766.78125,246199.375,242110.4375,205446.0,1.0,3
230207.953125,270111.0,298937.875,279727.53125,239663.546875,274745.6875,246317.84375,242273.96875,205447.0,1.0,3
230876.71875,271258.46875,300267.0,280111.53125,241159.515625,275299.84375,246836.140625,242942.90625,205448.0,1.0,3
231246.15625,271686.53125,300656.8125,280155.78125,242119.203125,275673.71875,247052.953125,243195.390625,205449.0,1.0,3
230808.421875,270796.5,299553.25,279792.625,241199.390625,275334.53125,246652.3125,242680.140625,205450.0,1.0,3
230164.15625,269813.65625,298478.59375,279522.71875,239672.046875,274753.75,246189.546875,242106.859375,205451.0,1.0,3
230210.28125,270106.71875,298928.5,279720.375,239648.796875,274728.0625,246301.84375,242269.046875,205452.0,1.0,3
230868.859375,271250.0625,300259.65625,280106.34375,241141.453125,275282.21875,246824.15625,242935.125,205453.0,1.0,3
231249.90625,271697.34375,300666.46875,280161.6875,242113.484375,275665.875,247056.796875,243206.21875,205454.0,1.0,3
230822.09375,270819.75,299576.25,279806.40625,241209.390625,275346.0625,246671.8125,242697.75,205455.0,1.0,3
230173.890625,269827.59375,298494.96875,279531.65625,239681.171875,274764.09375,246202.234375,242107.9375,205456.0,1.0,3
230211.625,270105.46875,298931.15625,279727.09375,239647.546875,274733.53125,246313.203125,242264.046875,205457.0,1.0,3
230865.640625,271242.53125,300259.65625,280114.59375,241135.375,275285.34375,246834.171875,242930.921875,205458.0,1.0,3
231243.109375,271687.0625,300667.09375,280166.25,242110.984375,275663.71875,247052.0625,243197.625,205459.0,1.0,3
230812.265625,270809.1875,299577.9375,279806.46875,241214.3125,275341.59375,246662.421875,242689.0,205460.0,1.0,3
230166.734375,269820.78125,298493.4375,279533.15625,239686.171875,274759.71875,246199.203125,242109.546875,205461.0,1.0,3
230195.53125,270089.65625,298915.09375,279724.3125,239637.890625,274723.875,246298.0,242252.515625,205462.0,1.0,3
230861.078125,271240.5,300244.46875,280113.78125,241124.90625,275282.03125,246821.03125,242915.734375,205463.0,1.0,3
231246.59375,271695.75,300666.65625,280170.28125,242110.890625,275660.84375,247042.9375,243190.484375,205464.0,1.0,3
230820.3125,270824.46875,299584.46875,279813.28125,241226.203125,275344.28125,246657.953125,242691.140625,205465.0,1.0,3
230168.34375,269828.9375,298494.6875,279536.75,239696.359375,274768.03125,246197.59375,242110.625,205466.0,1.0,3
230204.03125,270103.0625,298915.4375,279730.125,239639.5,274733.875,246302.203125,242266.8125,205467.0,1.0,3
230865.90625,271249.0625,300245.90625,280117.78125,241117.9375,275283.03125,246822.1875,242930.84375,205468.0,1.0,3
231246.515625,271706.84375,300676.65625,280175.375,242110.171875,275676.9375,247058.5,243201.296875,205469.0,1.0,3
230831.9375,270854.0625,299608.6875,279824.53125,241239.703125,275386.75,246698.359375,242704.46875,205470.0,1.0,3
230184.171875,269856.125,298508.375,279539.34375,239702.71875,274790.21875,246216.453125,242112.5,205471.0,1.0,3
230204.203125,270105.46875,298909.09375,279718.9375,239627.96875,274730.65625,246297.734375,242245.796875,205472.0,1.0,3
230858.03125,271246.65625,300238.65625,280106.53125,241103.890625,275282.5625,246823.0,242910.015625,205473.0,1.0,3
231255.546875,271725.78125,300682.21875,280173.6875,242109.71875,275681.34375,247073.78125,243201.65625,205474.0,1.0,3
230838.90625,270866.15625,299614.6875,279821.6875,241244.265625,275376.1875,246695.59375,242712.6875,205475.0,1.0,3
230183.90625,269861.65625,298511.6875,279538.09375,239701.546875,274792.625,246224.765625,242122.953125,205476.0,1.0,3
230208.3125,270113.96875,298912.21875,279723.4375,239618.84375,274747.9375,246313.203125,242256.53125,205477.0,1.0,3
230863.21875,271246.75,300237.125,280106.34375,241087.359375,275282.40625,246816.375,242904.46875,205478.0,1.0,3
231258.3125,271722.40625,300686.9375,280176.34375,242104.1875,275676.0625,247058.671875,243192.265625,205479.0,1.0,3
230839.96875,270864.875,299622.90625,279822.65625,241248.734375,275370.1875,246682.09375,242700.796875,205480.0,1.0,3
230184.71875,269851.5625,298514.90625,279538.875,239704.046875,274781.09375,246205.015625,242111.78125,205481.0,1.0,3
230209.390625,270096.78125,298906.59375,279722.4375,239613.125,274730.84375,246293.34375,242244.546875,205482.0,1.0,3
230867.25,271236.03125,300235.25,280110.8125,241083.78125,275279.71875,246817.8125,242907.765625,205483.0,1.0,3
231261.4375,271713.1875,300687.75,280176.8125,242103.921875,275669.71875,247055.90625,243202.453125,205484.0,1.0,3
230846.0625,270863.0,299629.25,279825.4375,241256.15625,275369.125,246676.640625,242709.921875,205485.0,1.0,3
230191.6875,269851.8125,298517.84375,279539.96875,239715.046875,274782.71875,246204.828125,242115.984375,205486.0,1.0,3
230206.34375,270086.34375,298902.125,279719.5,239612.859375,274725.84375,246286.546875,242245.71875,205487.0,1.0,3
230862.5,271229.9375,300231.59375,280111.0,241080.5625,275274.53125,246808.0625,242908.125,205488.0,1.0,3
231262.953125,271722.125,300694.625,280181.625,242110.4375,275679.53125,247064.75,243204.515625,205489.0,1.0,3
230858.390625,270882.40625,299644.28125,279832.59375,241274.671875,275388.0,246704.34375,242721.53125,205490.0,1.0,3
230199.203125,269865.0625,298528.125,279544.59375,239727.296875,274803.34375,246226.46875,242127.25,205491.0,1.0,3
230210.015625,270095.375,298899.6875,279721.71875,239610.625,274741.03125,246307.109375,242249.921875,205492.0,1.0,3
230859.375,271234.21875,300225.59375,280107.6875,241067.859375,275277.03125,246820.140625,242906.515625,205493.0,1.0,3
231261.796875,271731.78125,300698.46875,280177.4375,242104.984375,275680.53125,247070.109375,243205.859375,205494.0,1.0,3
230857.5,270893.3125,299653.9375,279825.4375,241277.34375,275391.65625,246704.0,242724.84375,205495.0,1.0,3
230196.78125,269875.25,298534.46875,279537.28125,239728.8125,274813.1875,246236.84375,242133.234375,205496.0,1.0,3
230201.15625,270096.96875,298899.34375,279713.21875,239603.375,274745.96875,246314.8125,242261.1875,205497.0,1.0,3
230849.09375,271230.28125,300222.46875,280097.84375,241057.765625,275273.1875,246820.3125,242915.375,205498.0,1.0,3
231260.640625,271736.53125,300704.375,280168.75,242108.109375,275683.9375,247070.734375,243201.296875,205499.0,1.0,3
230859.921875,270905.21875,299664.03125,279821.0625,241290.3125,275400.25,246705.515625,242727.890625,205500.0,1.0,3
230194.90625,269877.75,298535.8125,279533.78125,239736.59375,274820.4375,246234.703125,242134.046875,205501.0,1.0,3
230185.0625,270077.125,298880.84375,279703.84375,239592.5625,274747.75,246304.96875,242238.296875,205502.0,1.0,3
230834.703125,271212.5,300202.53125,280087.84375,241040.15625,275268.8125,246799.390625,242882.203125,205503.0,1.0,3
231253.484375,271728.21875,300697.40625,280169.125,242103.921875,275681.25,247057.6875,243194.6875,205504.0,1.0,3
230859.015625,270899.21875,299662.34375,279822.21875,241295.234375,275401.03125,246706.3125,242721.0,205505.0,1.0,3
230196.328125,269869.0,298533.40625,279533.25,239743.21875,274815.53125,246234.34375,242124.203125,205506.0,1.0,3
230185.421875,270063.0,298869.40625,279702.6875,239590.328125,274731.28125,246297.8125,242231.765625,205507.0,1.0,3
230832.015625,271196.6875,300195.84375,280095.1875,241039.609375,275273.28125,246819.59375,242892.65625,205508.0,1.0,3
231246.515625,271713.8125,300696.0625,280172.78125,242099.625,275673.5625,247058.671875,243196.375,205509.0,1.0,3
230858.390625,270892.15625,299668.34375,279827.84375,241301.671875,275385.75,246695.140625,242721.71875,205510.0,1.0,3
230197.765625,269859.96875,298533.9375,279537.375,239749.5625,274800.6875,246220.65625,242126.09375,205511.0,1.0,3
230187.21875,270053.6875,298863.3125,279700.28125,239583.0,274718.0625,246279.21875,242219.78125,205512.0,1.0,3
230833.0,271192.03125,300188.3125,280088.90625,241024.59375,275255.03125,246796.34375,242875.046875,205513.0,1.0,3
231258.671875,271727.3125,300702.9375,280179.03125,242104.1875,275677.5,247070.734375,243202.8125,205514.0,1.0,3
230874.578125,270919.875,299687.65625,279840.625,241318.296875,275409.96875,246724.921875,242751.21875,205515.0,1.0,3
230211.890625,269886.25,298545.03125,279540.3125,239757.421875,274817.46875,246232.109375,242142.359375,205516.0,1.0,3
230185.0625,270059.875,298860.71875,279696.40625,239577.546875,274728.6875,246280.03125,242214.78125,205517.0,1.0,3
230830.5,271198.28125,300185.375,280085.96875,241016.71875,275261.65625,246797.875,242874.421875,205518.0,1.0,3
231258.484375,271738.3125,300707.34375,280171.625,242101.40625,275680.15625,247070.921875,243202.28125,205519.0,1.0,3
230883.875,270933.46875,299693.1875,279829.8125,241323.390625,275401.40625,246712.3125,242742.109375,205520.0,1.0,3
230212.25,269887.125,298543.25,279530.84375,239754.921875,274809.0,246227.453125,242132.96875,205521.0,1.0,3
230191.859375,270064.0625,298856.15625,279690.34375,239566.359375,274720.9375,246279.84375,242220.765625,205522.0,1.0,3
230833.265625,271191.75,300176.96875,280079.34375,241000.1875,275247.09375,246788.03125,242876.21875,205523.0,1.0,3
231258.3125,271729.90625,300705.28125,280170.28125,242093.1875,275669.71875,247064.390625,243207.90625,205524.0,1.0,3
230883.421875,270927.84375,299695.34375,279830.8125,241328.671875,275399.25,246712.671875,242746.296875,205525.0,1.0,3
230217.4375,269881.9375,298540.28125,279529.78125,239767.53125,274805.59375,246223.96875,242129.671875,205526.0,1.0,3
230186.140625,270040.65625,298842.75,279687.46875,239570.84375,274715.90625,246274.578125,242216.390625,205527.0,1.0,3
230821.375,271167.25,300166.34375,280082.65625,241001.796875,275244.21875,246790.890625,242879.78125,205528.0,1.0,3
231254.5625,271721.59375,300704.8125,280180.28125,242104.8125,275671.59375,247069.578125,243217.203125,205529.0,1.0,3
230885.3125,270929.1875,299705.25,279842.59375,241351.28125,275411.40625,246726.4375,242759.453125,205530.0,1.0,3
230215.921875,269881.40625,298544.5,279536.375,239785.328125,274819.8125,246235.328125,242139.5,205531.0,1.0,3
230175.421875,270031.96875,298832.46875,279685.5,239572.0,274716.71875,246276.984375,242205.65625,205532.0,1.0,3
230814.9375,271160.03125,300156.3125,280077.84375,240997.328125,275238.84375,246781.859375,242863.15625,205533.0,1.0,3
231256.796875,271721.0625,300704.5625,280174.84375,242105.96875,275668.1875,247061.71875,243206.484375,205534.0,1.0,3
230888.96875,270934.71875,299708.5625,279838.40625,241358.53125,275416.15625,246723.3125,242758.46875,205535.0,1.0,3
230210.8125,269880.53125,298540.8125,279532.625,239787.015625,274819.53125,246232.734375,242140.75,205536.0,1.0,3
230165.578125,270027.6875,298822.4375,279682.125,239562.875,274715.8125,246270.734375,242212.28125,205537.0,1.0,3
230809.9375,271165.65625,300148.71875,280076.84375,240982.65625,275245.65625,246777.671875,242863.34375,205538.0,1.0,3
231254.109375,271733.84375,300706.625,280176.71875,242095.59375,275678.46875,247061.796875,243207.46875,205539.0,1.0,3
230891.828125,270952.59375,299716.625,279838.75,241358.078125,275418.9375,246720.09375,242749.609375,205540.0,1.0,3
230223.25,269900.375,298548.25,279530.5625,239790.6875,274825.53125,246234.34375,242138.96875,205541.0,1.0,3
230174.609375,270039.3125,298820.75,279678.71875,239554.921875,274718.6875,246272.25,242212.546875,205542.0,1.0,3
230811.546875,271169.3125,300144.5,280070.9375,240972.375,275244.84375,246784.640625,242864.59375,205543.0,1.0,3
231259.734375,271742.78125,300707.875,280171.34375,242099.4375,275674.625,247063.046875,243204.609375,205544.0,1.0,3
230898.8125,270960.5625,299724.21875,279838.125,241374.984375,275423.46875,246725.0,242762.671875,205545.0,1.0,3
230224.59375,269902.96875,298554.21875,279533.4375,239805.265625,274834.03125,246239.171875,242154.96875,205546.0,1.0,3
230172.828125,270032.875,298813.59375,279673.34375,239558.234375,274714.40625,246267.421875,242208.34375,205547.0,1.0,3
230808.5,271159.3125,300137.53125,280067.90625,240970.0625,275236.8125,246779.90625,242857.890625,205548.0,1.0,3
231258.84375,271739.46875,300712.34375,280173.125,242103.5625,275675.34375,247062.15625,243201.75,205549.0,1.0,3
230902.734375,270965.28125,299734.03125,279841.625,241389.28125,275423.3125,246725.546875,242764.625,205550.0,1.0,3
230227.453125,269898.5,298552.25,279533.0,239815.453125,274824.46875,246234.078125,242149.15625,205551.0,1.0,3
230169.609375,270015.6875,298802.6875,279676.5625,239553.578125,274706.71875,246268.671875,242207.453125,205552.0,1.0,3
230804.21875,271137.65625,300125.03125,280068.96875,240957.265625,275225.09375,246776.765625,242844.46875,205553.0,1.0,3
231252.859375,271719.71875,300708.21875,280175.90625,242097.75,275668.375,247067.078125,243198.703125,205554.0,1.0,3
230904.171875,270959.5625,299741.1875,279845.46875,241392.234375,275426.15625,246737.609375,242763.015625,205555.0,1.0,3
230230.046875,269896.0,298560.125,279535.5,239816.171875,274821.9375,246236.578125,242146.390625,205556.0,1.0,3
230173.265625,270015.25,298808.875,279678.28125,239549.734375,274699.71875,246258.65625,242206.640625,205557.0,1.0,3
230803.765625,271137.21875,300127.625,280067.5625,240948.515625,275220.25,246762.640625,242844.828125,205558.0,1.0,3
231260.8125,271729.375,300715.5625,280174.3125,242093.1875,275659.25,247053.9375,243192.09375,205559.0,1.0,3
230919.546875,270976.03125,299753.90625,279848.6875,241397.59375,275420.96875,246726.703125,242759.53125,205560.0,1.0,3
230241.21875,269906.4375,298566.9375,279535.9375,239819.921875,274829.5625,246230.5,242134.9375,205561.0,1.0,3
230174.34375,270012.21875,298799.21875,279673.1875,239536.421875,274701.4375,246247.65625,242187.515625,205562.0,1.0,3
230798.484375,271130.96875,300115.625,280068.25,240928.03125,275214.28125,246753.609375,242843.3125,205563.0,1.0,3
231261.34375,271739.46875,300715.8125,280181.46875,242083.796875,275667.5625,247059.125,243206.578125,205564.0,1.0,3
230927.953125,270993.90625,299760.25,279849.5,241399.484375,275432.6875,246732.78125,242766.6875,205565.0,1.0,3
230248.1875,269919.15625,298569.34375,279533.53125,239821.53125,274831.96875,246237.640625,242142.8125,205566.0,1.0,3
230171.921875,270009.875,298788.84375,279666.28125,239526.765625,274698.84375,246253.46875,242186.078125,205567.0,1.0,3
230799.65625,271125.6875,300102.59375,280055.9375,240917.3125,275210.96875,246751.921875,242826.0625,205568.0,1.0,3
231255.453125,271726.9375,300707.78125,280167.34375,242080.9375,275657.625,247051.609375,243189.859375,205569.0,1.0,3
230917.046875,270985.0625,299758.8125,279842.4375,241408.15625,275429.5625,246737.875,242765.34375,205570.0,1.0,3
230244.53125,269916.625,298565.5,279529.6875,239833.25,274835.71875,246248.546875,242145.21875,205571.0,1.0,3
230164.78125,269999.4375,298774.53125,279662.625,239530.515625,274695.1875,246259.640625,242189.296875,205572.0,1.0,3
230785.96875,271113.09375,300087.21875,280056.5625,240914.265625,275208.90625,246761.125,242833.828125,205573.0,1.0,3
231257.0625,271728.125,300705.53125,280178.78125,242089.703125,275664.34375,247061.359375,243201.5625,205574.0,1.0,3
230917.578125,270981.75,299758.09375,279852.96875,241423.703125,275425.28125,246733.3125,242769.734375,205575.0,1.0,3
230233.625,269898.9375,298553.875,279532.4375,239841.5625,274824.375,246229.78125,242136.28125,205576.0,1.0,3
230157.890625,269980.125,298761.9375,279664.0625,239528.8125,274688.8125,246246.3125,242180.625,205577.0,1.0,3
230781.59375,271097.0,300076.75,280057.96875,240907.5625,275195.40625,246748.78125,242833.46875,205578.0,1.0,3
231248.296875,271716.59375,300699.8125,280176.96875,242083.890625,275649.15625,247053.03125,243200.84375,205579.0,1.0,3
230919.453125,270985.6875,299765.4375,279854.21875,241430.59375,275429.46875,246735.90625,242777.328125,205580.0,1.0,3
230242.46875,269908.875,298566.21875,279539.15625,239854.171875,274839.84375,246243.09375,242154.609375,205581.0,1.0,3
230156.015625,269984.84375,298762.1875,279668.09375,239528.015625,274703.21875,246257.5,242182.765625,205582.0,1.0,3
230778.546875,271099.5,300076.375,280061.46875,240900.140625,275205.78125,246759.0625,242822.484375,205583.0,1.0,3
231256.796875,271729.0,300711.53125,280183.6875,242086.75,275659.0625,247064.390625,243197.90625,205584.0,1.0,3
230932.953125,271003.75,299782.3125,279860.46875,241444.265625,275440.65625,246744.40625,242777.328125,205585.0,1.0,3
230253.46875,269924.6875,298580.34375,279540.125,239864.53125,274847.0,246250.875,242151.21875,205586.0,1.0,3
230163.171875,269990.21875,298770.78125,279666.65625,239528.09375,274705.625,246263.484375,242186.796875,205587.0,1.0,3
230778.46875,271098.78125,300079.59375,280061.90625,240891.28125,275211.0625,246766.578125,242833.296875,205588.0,1.0,3
231256.25,271736.875,300720.90625,280186.71875,242084.953125,275673.1875,247077.796875,243204.34375,205589.0,1.0,3
230945.203125,271025.90625,299801.09375,279865.84375,241453.65625,275457.0,246763.1875,242791.453125,205590.0,1.0,3
230262.40625,269933.1875,298585.625,279536.5625,239865.875,274841.1875,246247.03125,242147.359375,205591.0,1.0,3
230175.234375,269993.625,298769.53125,279665.84375,239525.421875,274698.46875,246256.875,242178.5625,205592.0,1.0,3
230796.34375,271103.4375,300080.21875,280065.5,240889.859375,275203.71875,246761.03125,242830.96875,205593.0,1.0,3
231267.515625,271736.6875,300722.0,280189.5,242084.515625,275660.78125,247073.25,243205.046875,205594.0,1.0,3
230948.96875,271022.34375,299803.34375,279867.625,241456.34375,275444.21875,246761.84375,242790.109375,205595.0,1.0,3
230270.625,269936.40625,298586.59375,279542.03125,239871.78125,274843.6875,246251.5,242154.78125,205596.0,1.0,3
230168.078125,269978.78125,298753.875,279664.6875,239518.0,274695.09375,246249.8125,242175.53125,205597.0,1.0,3
230782.21875,271083.5,300060.03125,280061.46875,240873.40625,275196.375,246752.359375,242817.828125,205598.0,1.0,3
231274.859375,271739.1875,300718.875,280194.875,242082.640625,275664.0,247076.546875,243208.8125,205599.0,1.0,3
230963.625,271031.71875,299810.5,279876.3125,241471.359375,275457.0,246768.359375,242801.46875,205600.0,1.0,3
230269.734375,269933.0,298588.28125,279546.9375,239882.6875,274850.65625,246256.59375,242168.015625,205601.0,1.0,3
230163.609375,269969.46875,298745.21875,279661.375,239512.09375,274689.1875,246247.296875,242174.640625,205602.0,1.0,3
230778.734375,271078.03125,300053.6875,280055.5625,240863.921875,275193.625,246752.984375,242814.4375,205603.0,1.0,3
231265.546875,271733.375,300720.65625,280186.5625,242077.984375,275662.1875,247067.796875,243202.28125,205604.0,1.0,3
230964.078125,271042.09375,299823.375,279872.09375,241479.671875,275456.5625,246766.21875,242803.34375,205605.0,1.0,3
230278.859375,269945.4375,298598.5625,279539.34375,239893.953125,274851.46875,246247.75,242163.28125,205606.0,1.0,3
230161.640625,269968.5,298742.6875,279652.4375,239510.3125,274684.34375,246234.78125,242169.1875,205607.0,1.0,3
230776.046875,271076.4375,300049.46875,280052.0,240855.96875,275186.46875,246743.515625,242814.515625,205608.0,1.0,3
231275.03125,271745.375,300723.59375,280186.90625,242076.46875,275655.3125,247069.40625,243211.125,205609.0,1.0,3
230970.6875,271047.0,299827.46875,279868.96875,241482.0,275449.78125,246758.796875,242804.859375,205610.0,1.0,3
230285.296875,269952.65625,298602.5,279542.65625,239896.8125,274856.8125,246263.21875,242173.65625,205611.0,1.0,3
230172.015625,269977.15625,298743.6875,279657.09375,239507.453125,274693.75,246253.46875,242184.203125,205612.0,1.0,3
230771.484375,271067.5625,300038.75,280043.5,240836.578125,275177.25,246735.46875,242805.046875,205613.0,1.0,3
231268.765625,271740.0,300719.9375,280181.09375,242064.3125,275650.40625,247063.5,243195.21875,205614.0,1.0,3
230974.53125,271057.65625,299835.15625,279870.5,241484.765625,275455.84375,246770.78125,242803.25,205615.0,1.0,3
230290.578125,269955.71875,298603.21875,279539.78125,239899.234375,274858.53125,246263.3125,242163.90625,205616.0,1.0,3
230162.8125,269960.0,298728.9375,279649.125,239494.75,274693.65625,246246.671875,242168.015625,205617.0,1.0,3
230765.40625,271054.4375,300024.4375,280041.875,240824.765625,275177.875,246736.890625,242803.96875,205618.0,1.0,3
231270.296875,271733.21875,300715.65625,280185.75,242067.265625,275649.15625,247068.859375,243211.484375,205619.0,1.0,3
230975.421875,271057.65625,299837.75,279879.71875,241502.296875,275463.09375,246779.625,242829.8125,205620.0,1.0,3
230287.625,269953.90625,298603.40625,279543.8125,239912.8125,274866.03125,246269.390625,242182.859375,205621.0,1.0,3
230152.796875,269946.15625,298716.9375,279644.5625,239494.65625,274689.375,246249.265625,242172.9375,205622.0,1.0,3
230746.90625,271034.75,300009.15625,280036.875,240814.046875,275173.59375,246740.921875,242806.921875,205623.0,1.0,3
231246.15625,271717.5625,300704.65625,280179.65625,242056.078125,275647.90625,247070.46875,243208.359375,205624.0,1.0,3
230958.265625,271047.1875,299833.09375,279874.15625,241497.921875,275458.625,246783.65625,242829.1875,205625.0,1.0,3
230266.703125,269940.6875,298594.375,279538.875,239910.84375,274862.625,246273.859375,242180.53125,205626.0,1.0,3
230129.28125,269930.75,298696.5625,279634.90625,239476.421875,274677.28125,246241.046875,242166.671875,205627.0,1.0,3
230729.828125,271025.09375,299990.03125,280027.6875,240793.03125,275163.9375,246734.65625,242799.046875,205628.0,1.0,3
231235.0625,271715.78125,300697.59375,280172.5,242045.796875,275641.1875,247062.34375,243195.390625,205629.0,1.0,3
230958.171875,271057.28125,299839.28125,279869.78125,241500.421875,275461.03125,246780.4375,242816.84375,205630.0,1.0,3
230282.078125,269959.90625,298603.84375,279533.25,239915.046875,274863.71875,246268.21875,242173.734375,205631.0,1.0,3
230139.296875,269939.78125,298701.3125,279630.34375,239475.4375,274674.0,246236.578125,242158.625,205632.0,1.0,3
230738.765625,271033.40625,299997.0,280025.71875,240790.703125,275161.78125,246732.515625,242798.078125,205633.0,1.0,3
231243.375,271727.03125,300706.53125,280169.21875,242044.28125,275640.21875,247057.953125,243196.203125,205634.0,1.0,3
230970.0625,271072.65625,299851.25,279865.3125,241508.203125,275458.34375,246773.015625,242817.203125,205635.0,1.0,3
230286.375,269967.0625,298610.5625,279529.5,239922.5625,274862.53125,246260.625,242172.046875,205636.0,1.0,3
230137.421875,269939.53125,298698.09375,279627.125,239470.703125,274677.46875,246230.140625,242152.109375,205637.0,1.0,3
230735.640625,271029.125,299988.5,280022.5,240778.453125,275152.59375,246713.5625,242777.859375,205638.0,1.0,3
231249.90625,271730.0,300711.8125,280175.65625,242044.375,275637.15625,247056.703125,243193.609375,205639.0,1.0,3
230976.140625,271080.09375,299867.1875,279879.53125,241521.34375,275464.96875,246787.671875,242828.109375,205640.0,1.0,3
230283.859375,269966.875,298619.9375,279543.71875,239932.125,274871.3125,246281.28125,242190.46875,205641.0,1.0,3
230132.671875,269932.28125,298698.8125,279634.5625,239473.109375,274682.46875,246241.84375,242159.53125,205642.0,1.0,3
230724.90625,271015.28125,299990.1875,280030.8125,240778.28125,275162.15625,246732.6875,242792.4375,205643.0,1.0,3
231245.265625,271727.40625,300719.59375,280186.5625,242053.484375,275642.25,247074.234375,243211.484375,205644.0,1.0,3
230970.515625,271075.8125,299870.46875,279879.71875,241533.234375,275461.75,246788.484375,242834.640625,205645.0,1.0,3
230279.21875,269954.46875,298613.875,279537.625,239938.75,274859.6875,246265.8125,242177.765625,205646.0,1.0,3
230128.390625,269912.625,298682.25,279630.0,239469.0,274663.15625,246223.15625,242145.578125,205647.0,1.0,3
230727.765625,270998.90625,299970.53125,280026.5,240767.015625,275142.46875,246715.171875,242773.03125,205648.0,1.0,3
231248.296875,271711.125,300709.3125,280186.1875,242046.15625,275633.84375,247066.8125,243203.171875,205649.0,1.0,3
230976.5,271068.46875,299871.8125,279885.78125,241537.4375,275466.125,246787.5,242835.4375,205650.0,1.0,3
230293.703125,269963.9375,298621.1875,279547.75,239952.34375,274877.90625,246276.71875,242191.984375,205651.0,1.0,3
230134.375,269914.6875,298678.15625,279632.5,239467.65625,274672.1875,246221.109375,242149.328125,205652.0,1.0,3
230724.46875,270996.6875,299956.03125,280018.90625,240750.5625,275138.0,246704.171875,242762.578125,205653.0,1.0,3
231247.40625,271721.125,300701.15625,280179.65625,242036.0625,275632.78125,247060.375,243197.09375,205654.0,1.0,3
230980.171875,271085.8125,299872.0,279881.3125,241539.3125,275465.875,246787.671875,242832.3125,205655.0,1.0,3
230288.515625,269969.5625,298616.0,279534.5,239946.796875,274871.40625,246276.453125,242181.078125,205656.0,1.0,3
230129.375,269920.65625,298671.0,279620.15625,239455.953125,274674.0625,246231.921875,242141.90625,205657.0,1.0,3
230719.28125,271002.5,299951.65625,280010.15625,240738.40625,275139.09375,246710.34375,242760.4375,205658.0,1.0,3
231235.953125,271724.34375,300701.25,280170.5625,242028.09375,275637.15625,247068.953125,243192.984375,205659.0,1.0,3
230976.5,271098.40625,299880.3125,279873.28125,241541.984375,275469.25,246794.921875,242837.046875,205660.0,1.0,3
230290.484375,269985.65625,298625.75,279532.0,239954.84375,274875.25,246286.46875,242193.140625,205661.0,1.0,3
230122.3125,269923.78125,298669.9375,279618.375,239453.796875,274676.75,246243.640625,242151.296875,205662.0,1.0,3
230706.9375,270995.78125,299945.03125,280007.375,240728.75,275134.96875,246712.75,242765.53125,205663.0,1.0,3
231231.75,271724.0,300702.875,280171.625,242026.578125,275624.5625,247056.96875,243196.921875,205664.0,1.0,3
230972.75,271104.6875,299891.03125,279884.1875,241556.921875,275477.125,246798.234375,242842.859375,205665.0,1.0,3
230285.65625,269986.65625,298627.90625,279540.21875,239969.234375,274874.53125,246275.203125,242190.546875,205666.0,1.0,3
230115.15625,269910.65625,298661.875,279623.28125,239456.390625,274664.875,246222.0,242142.625,205667.0,1.0,3
230697.109375,270982.09375,299940.3125,280022.5,240728.921875,275136.125,246709.0,242773.484375,205668.0,1.0,3
231226.21875,271721.3125,300704.5625,280189.40625,242027.46875,275629.21875,247061.796875,243213.1875,205669.0,1.0,3
230978.28125,271112.1875,299900.78125,279899.1875,241565.234375,275486.25,246808.875,242859.578125,205670.0,1.0,3
230287.625,269987.625,298633.90625,279552.3125,239978.0,274885.4375,246284.578125,242192.609375,205671.0,1.0,3
230112.46875,269907.59375,298652.5,279626.9375,239450.578125,274658.4375,246215.296875,242138.78125,205672.0,1.0,3
230687.09375,270974.9375,299924.75,280017.5625,240708.359375,275125.125,246691.125,242749.609375,205673.0,1.0,3
231224.609375,271729.625,300704.375,280192.375,242019.34375,275636.0,247064.03125,243196.734375,205674.0,1.0,3
230983.46875,271129.1875,299908.84375,279904.21875,241564.609375,275492.5,246809.84375,242857.609375,205675.0,1.0,3
230298.890625,270007.21875,298639.25,279554.4375,239975.40625,274896.875,246294.234375,242201.453125,205676.0,1.0,3
230112.203125,269918.4375,298650.96875,279627.21875,239439.3125,274682.3125,246237.375,242137.4375,205677.0,1.0,3
230692.015625,270991.125,299924.9375,280020.34375,240698.890625,275141.75,246716.421875,242758.375,205678.0,1.0,3
231231.125,271745.8125,300706.4375,280189.9375,242012.984375,275639.59375,247071.90625,243196.640625,205679.0,1.0,3
230983.46875,271145.1875,299911.25,279895.71875,241566.3125,275497.59375,246819.78125,242849.84375,205680.0,1.0,3
230292.984375,270022.5,298641.03125,279545.40625,239981.84375,274903.3125,246300.40625,242197.703125,205681.0,1.0,3
230109.078125,269928.96875,298639.71875,279614.15625,239438.421875,274676.9375,246230.9375,242137.4375,205682.0,1.0,3
230678.0625,270985.3125,299904.71875,280001.375,240687.078125,275136.03125,246711.328125,242758.203125,205683.0,1.0,3
231221.125,271742.96875,300698.21875,280173.3125,242011.109375,275644.0625,247065.828125,243200.84375,205684.0,1.0,3
230985.625,271149.125,299917.34375,279886.84375,241584.453125,275501.90625,246810.75,242859.140625,205685.0,1.0,3
230297.28125,270024.5625,298645.34375,279538.875,240002.671875,274906.96875,246293.34375,242207.625,205686.0,1.0,3
230108.453125,269920.75,298639.4375,279609.59375,239447.90625,274681.3125,246221.28125,242134.40625,205687.0,1.0,3
230682.171875,270982.1875,299909.28125,280003.34375,240692.09375,275142.75,246699.875,242752.5625,205688.0,1.0,3
231222.1875,271742.6875,300709.65625,280181.46875,242023.984375,275654.59375,247073.328125,243206.296875,205689.0,1.0,3
230986.15625,271151.25,299930.375,279895.625,241601.71875,275507.875,246818.171875,242870.484375,205690.0,1.0,3
230302.46875,270022.75,298650.15625,279544.15625,240016.890625,274907.6875,246294.15625,242211.828125,205691.0,1.0,3
230108.0,269906.625,298634.875,279613.8125,239450.5,274680.6875,246224.0625,242136.09375,205692.0,1.0,3
230678.328125,270961.1875,299898.28125,280005.9375,240686.90625,275133.53125,246699.703125,242751.84375,205693.0,1.0,3
231225.859375,271732.0625,300705.53125,280188.15625,242023.1875,275643.6875,247078.078125,243218.375,205694.0,1.0,3
230992.859375,271157.59375,299942.90625,279913.9375,241615.21875,275520.03125,246846.328125,242897.765625,205695.0,1.0,3
230301.03125,270027.3125,298662.0625,279560.6875,240025.109375,274924.5,246321.953125,242226.9375,205696.0,1.0,3
230108.8125,269909.75,298637.125,279622.03125,239446.109375,274682.03125,246227.09375,242141.375,205697.0,1.0,3
230676.453125,270964.84375,299899.71875,280011.75,240675.90625,275125.3125,246696.65625,242755.6875,205698.0,1.0,3
231227.734375,271744.03125,300715.75,280194.40625,242017.734375,275642.25,247073.6875,243207.828125,205699.0,1.0,3
231011.8125,271179.15625,299955.875,279913.21875,241618.703125,275512.71875,246824.875,242867.453125,205700.0,1.0,3
230320.25,270045.125,298674.21875,279558.75,240032.265625,274919.40625,246305.859375,242209.421875,205701.0,1.0,3
230117.5625,269918.15625,298643.71875,279623.03125,239444.328125,274686.40625,246232.28125,242132.078125,205702.0,1.0,3
230681.28125,270968.78125,299900.625,280011.75,240665.796875,275133.28125,246700.5,242737.984375,205703.0,1.0,3
231231.84375,271755.125,300723.59375,280199.59375,242015.9375,275658.8125,247089.515625,243209.609375,205704.0,1.0,3
231009.40625,271187.75,299968.90625,279918.25,241623.703125,275518.25,246837.828125,242886.671875,205705.0,1.0,3
230318.90625,270051.90625,298684.6875,279560.625,240041.390625,274924.59375,246311.671875,242218.265625,205706.0,1.0,3
230109.515625,269915.9375,298640.15625,279615.0625,239442.1875,274686.59375,246225.21875,242128.234375,205707.0,1.0,3
230669.828125,270958.9375,299892.375,280001.46875,240656.5,275118.4375,246678.875,242734.765625,205708.0,1.0,3
231224.34375,271743.40625,300719.40625,280187.28125,242009.5,275636.28125,247060.8125,243201.03125,205709.0,1.0,3
231015.390625,271186.84375,299974.375,279907.4375,241633.8125,275513.78125,246821.46875,242875.765625,205710.0,1.0,3
230327.671875,270050.75,298686.03125,279552.21875,240053.1875,274923.59375,246303.453125,242219.15625,205711.0,1.0,3
230110.6875,269899.21875,298627.46875,279607.8125,239443.34375,274678.625,246214.046875,242126.453125,205712.0,1.0,3
230665.09375,270938.375,299874.0625,279993.53125,240647.03125,275117.34375,246680.21875,242727.4375,205713.0,1.0,3
231222.28125,271729.625,300708.40625,280186.46875,242005.390625,275639.75,247074.671875,243208.53125,205714.0,1.0,3
231019.0625,271182.8125,299976.25,279916.4375,241643.015625,275525.6875,246844.359375,242899.015625,205715.0,1.0,3
230326.875,270042.34375,298683.78125,279554.34375,240060.25,274930.5,246314.71875,242229.359375,205716.0,1.0,3
230109.515625,269888.75,298616.5625,279605.84375,239436.90625,274680.34375,246218.953125,242126.171875,205717.0,1.0,3
230660.265625,270922.46875,299859.75,279990.84375,240630.75,275107.34375,246672.796875,242725.109375,205718.0,1.0,3
231223.359375,271725.0625,300704.90625,280189.9375,241996.0,275629.5625,247062.421875,243206.21875,205719.0,1.0,3
231017.625,271183.71875,299980.90625,279921.46875,241644.09375,275521.125,246833.984375,242895.796875,205720.0,1.0,3
230325.890625,270044.75,298687.8125,279559.09375,240061.6875,274929.40625,246309.4375,242223.0,205721.0,1.0,3
230109.609375,269889.375,298614.40625,279609.4375,239433.59375,274675.875,246212.609375,242123.140625,205722.0,1.0,3
230653.5625,270921.40625,299854.21875,279992.34375,240625.578125,275108.875,246672.875,242723.78125,205723.0,1.0,3
231215.03125,271728.75,300703.5625,280188.59375,241996.0,275636.28125,247070.734375,243207.375,205724.0,1.0,3
231028.171875,271202.65625,299990.09375,279925.5625,241655.1875,275527.1875,246842.84375,242905.625,205725.0,1.0,3
230340.453125,270062.8125,298696.5625,279569.90625,240074.640625,274934.15625,246318.5625,242247.953125,205726.0,1.0,3
230107.109375,269886.25,298608.21875,279610.84375,239427.609375,274668.625,246203.5,242120.8125,205727.0,1.0,3
230651.328125,270915.40625,299849.75,279995.03125,240611.4375,275100.625,246662.859375,242709.921875,205728.0,1.0,3
231215.03125,271726.15625,300706.875,280186.09375,241983.03125,275622.15625,247057.0625,243192.796875,205729.0,1.0,3
231024.875,271198.46875,299994.3125,279917.625,241651.609375,275511.46875,246829.796875,242892.75,205730.0,1.0,3
230338.765625,270058.4375,298694.6875,279554.4375,240074.734375,274922.34375,246308.640625,242227.390625,205731.0,1.0,3
230104.609375,269881.59375,298601.78125,279597.71875,239426.984375,274670.40625,246214.21875,242118.9375,205732.0,1.0,3
230645.78125,270907.09375,299832.5625,279974.21875,240603.578125,275088.65625,246651.421875,242704.109375,205733.0,1.0,3
231215.125,271722.84375,300694.0,280170.46875,241983.390625,275612.03125,247043.5625,243184.484375,205734.0,1.0,3
231027.734375,271200.4375,299987.59375,279902.875,241660.28125,275508.875,246828.453125,242895.609375,205735.0,1.0,3
230333.9375,270048.0625,298682.875,279537.53125,240080.015625,274911.375,246300.5,242233.015625,205736.0,1.0,3
230091.734375,269854.6875,298577.9375,279576.34375,239420.453125,274650.03125,246189.015625,242108.5625,205737.0,1.0,3
230641.046875,270890.28125,299815.6875,279963.40625,240597.3125,275086.59375,246650.53125,242697.578125,205738.0,1.0,3
231213.875,271714.4375,300685.34375,280167.59375,241984.109375,275618.84375,247048.5625,243186.359375,205739.0,1.0,3
231027.015625,271199.625,299987.4375,279905.90625,241670.46875,275523.8125,246834.703125,242897.84375,205740.0,1.0,3
230329.734375,270048.5,298682.875,279543.09375,240089.9375,274930.40625,246314.171875,242237.125,205741.0,1.0,3
230086.984375,269852.625,298570.9375,279579.9375,239412.40625,274657.25,246197.6875,242118.671875,205742.0,1.0,3
230636.390625,270881.0625,299804.78125,279963.125,240578.1875,275086.40625,246649.984375,242696.328125,205743.0,1.0,3
231205.375,271705.6875,300679.34375,280166.625,241967.921875,275621.34375,247051.421875,243178.3125,205744.0,1.0,3
231023.96875,271201.78125,299993.78125,279911.53125,241664.390625,275533.375,246846.859375,242900.265625,205745.0,1.0,3
230343.234375,270063.90625,298696.03125,279554.71875,240091.90625,274945.6875,246333.3125,242253.84375,205746.0,1.0,3
230093.25,269860.125,298571.40625,279584.03125,239406.328125,274661.125,246203.046875,242114.375,205747.0,1.0,3
230631.84375,270886.0,299801.8125,279964.5625,240563.4375,275083.5625,246650.34375,242686.671875,205748.0,1.0,3
231203.859375,271719.25,300684.1875,280168.9375,241959.171875,275617.40625,247046.6875,243175.90625,205749.0,1.0,3
231024.515625,271218.75,300001.65625,279910.28125,241671.984375,275527.375,246831.9375,242894.09375,205750.0,1.0,3
230329.28125,270072.375,298694.78125,279547.1875,240098.515625,274939.96875,246315.34375,242234.0,205751.0,1.0,3
230084.9375,269865.5,298565.59375,279582.15625,239407.40625,274664.875,246200.546875,242109.71875,205752.0,1.0,3
230625.671875,270885.1875,299794.40625,279966.53125,240562.984375,275086.34375,246650.078125,242703.484375,205753.0,1.0,3
231202.25,271719.34375,300684.4375,280169.28125,241963.71875,275616.6875,247046.875,243192.265625,205754.0,1.0,3
231028.171875,271227.4375,300013.4375,279911.09375,241688.0,275539.25,246850.703125,242913.3125,205755.0,1.0,3
230334.921875,270076.84375,298704.78125,279543.53125,240116.046875,274951.59375,246326.609375,242249.921875,205756.0,1.0,3
230077.78125,269852.0,298557.4375,279568.65625,239405.25,274656.375,246190.53125,242105.25,205757.0,1.0,3
230617.53125,270869.53125,299781.78125,279950.15625,240544.484375,275074.53125,246639.078125,242674.875,205758.0,1.0,3
231197.609375,271712.8125,300681.125,280160.09375,241952.109375,275609.8125,247042.40625,243171.703125,205759.0,1.0,3
231028.53125,271225.28125,300016.125,279906.09375,241682.984375,275528.90625,246839.53125,242901.515625,205760.0,1.0,3
230344.21875,270076.40625,298708.46875,279539.6875,240110.859375,274938.4375,246314.171875,242235.796875,205761.0,1.0,3
230085.109375,269847.78125,298557.53125,279568.125,239397.828125,274656.1875,246192.046875,242100.609375,205762.0,1.0,3
230613.953125,270857.03125,299776.15625,279950.59375,240530.078125,275073.46875,246636.140625,242675.3125,205763.0,1.0,3
231196.796875,271706.5625,300681.65625,280160.90625,241939.40625,275606.78125,247036.046875,243171.4375,205764.0,1.0,3
231035.953125,271230.75,300028.03125,279910.28125,241682.8125,275531.03125,246846.515625,242907.421875,205765.0,1.0,3
230346.8125,270078.46875,298715.6875,279544.59375,240113.53125,274941.65625,246321.875,242246.515625,205766.0,1.0,3
230085.203125,269846.0,298555.65625,279570.4375,239392.203125,274653.6875,246193.5625,242102.75,205767.0,1.0,3
230608.59375,270851.21875,299768.65625,279952.5625,240519.984375,275065.9375,246640.6875,242679.609375,205768.0,1.0,3
231191.796875,271708.09375,300681.03125,280171.1875,241937.0,275610.0625,247058.140625,243195.125,205769.0,1.0,3
231040.875,271241.65625,300033.03125,279918.59375,241693.09375,275531.5625,246851.875,242918.859375,205770.0,1.0,3
230358.515625,270091.59375,298722.40625,279553.28125,240129.71875,274944.4375,246328.03125,242252.328125,205771.0,1.0,3
230082.515625,269839.75,298550.46875,279573.5,239396.671875,274649.5625,246191.421875,242098.546875,205772.0,1.0,3
230605.109375,270844.5,299762.9375,279956.40625,240520.421875,275065.9375,246642.65625,242675.21875,205773.0,1.0,3
231194.125,271709.53125,300682.84375,280176.34375,241944.328125,275611.3125,247061.078125,243189.765625,205774.0,1.0,3
231036.40625,271243.78125,300040.34375,279926.46875,241709.8125,275534.78125,246854.640625,242926.015625,205775.0,1.0,3
230348.78125,270092.78125,298722.84375,279553.0,240142.5,274943.71875,246328.578125,242258.5,205776.0,1.0,3
230074.65625,269837.5,298541.96875,279569.09375,239397.65625,274648.40625,246190.4375,242105.4375,205777.0,1.0,3
230592.859375,270830.1875,299748.1875,279946.75,240509.78125,275051.0,246627.015625,242676.296875,205778.0,1.0,3
231181.78125,271693.6875,300671.375,280164.75,241937.625,275593.625,247038.015625,243183.765625,205779.0,1.0,3
231042.390625,271249.53125,300045.90625,279925.9375,241722.421875,275537.46875,246863.234375,242943.09375,205780.0,1.0,3
230356.109375,270093.40625,298726.25,279552.9375,240156.8125,274950.96875,246330.71875,242268.953125,205781.0,1.0,3
230075.71875,269827.6875,298537.4375,279563.125,239403.203125,274654.59375,246184.453125,242095.59375,205782.0,1.0,3
230592.40625,270818.5,299737.4375,279940.78125,240505.671875,275041.28125,246611.375,242666.28125,205783.0,1.0,3
231190.71875,271690.5625,300666.5625,280160.625,241936.015625,275583.875,247026.578125,243178.40625,205784.0,1.0,3
231050.078125,271248.53125,300046.78125,279919.75,241725.71875,275531.5625,246852.3125,242922.53125,205785.0,1.0,3
230360.75,270093.3125,298725.8125,279547.375,240161.09375,274945.6875,246325.53125,242253.5,205786.0,1.0,3
230073.671875,269821.875,298529.03125,279563.90625,239396.84375,274648.6875,246187.3125,242094.703125,205787.0,1.0,3
230587.484375,270812.5,299726.53125,279945.25,240493.421875,275048.34375,246619.328125,242665.84375,205788.0,1.0,3
231180.171875,271683.9375,300661.09375,280166.4375,241925.375,275589.78125,247030.6875,243177.421875,205789.0,1.0,3
231041.40625,271243.78125,300046.15625,279925.46875,241721.34375,275530.25,246852.234375,242930.390625,205790.0,1.0,3
230352.53125,270090.8125,298723.21875,279549.625,240158.15625,274945.78125,246319.1875,242259.65625,205791.0,1.0,3
230072.5,269822.6875,298518.1875,279559.1875,239389.25,274642.875,246171.3125,242083.796875,205792.0,1.0,3
230593.03125,270815.34375,299721.8125,279947.5625,240488.0625,275048.0625,246622.8125,242660.65625,205793.0,1.0,3
231189.015625,271691.71875,300668.625,280175.09375,241930.375,275594.6875,247040.34375,243177.328125,205794.0,1.0,3
231049.453125,271257.125,300061.28125,279932.46875,241736.453125,275540.96875,246861.625,242933.078125,205795.0,1.0,3
230366.296875,270105.75,298741.0,279556.21875,240178.796875,274956.875,246335.375,242262.34375,205796.0,1.0,3
230081.171875,269824.8125,298524.375,279561.875,239397.125,274645.65625,246188.109375,242094.265625,205797.0,1.0,3
230591.421875,270809.09375,299715.09375,279940.5,240477.328125,275040.28125,246625.5,242658.953125,205798.0,1.0,3
231185.09375,271689.9375,300663.4375,280167.15625,241920.625,275588.625,247039.453125,243174.921875,205799.0,1.0,3
231055.8125,271264.28125,300065.21875,279928.625,241743.34375,275544.1875,246859.921875,242929.953125,205800.0,1.0,3
230376.84375,270110.125,298742.0625,279553.09375,240188.1875,274958.84375,246330.453125,242260.828125,205801.0,1.0,3
230085.109375,269819.1875,298516.59375,279559.0,239395.515625,274649.9375,246181.328125,242087.203125,205802.0,1.0,3
230594.015625,270803.46875,299705.71875,279938.34375,240469.203125,275042.4375,246619.421875,242654.03125,205803.0,1.0,3
231196.4375,271693.78125,300664.40625,280166.0625,241921.53125,275590.75,247034.53125,243179.921875,205804.0,1.0,3
231066.171875,271269.90625,300073.0,279927.90625,241753.890625,275541.40625,246860.28125,242945.328125,205805.0,1.0,3
230376.671875,270110.90625,298745.46875,279551.84375,240199.09375,274961.15625,246335.015625,242276.46875,205806.0,1.0,3
230074.734375,269807.65625,298504.15625,279546.9375,239393.359375,274638.21875,246162.546875,242080.125,205807.0,1.0,3
230576.40625,270781.46875,299685.40625,279921.71875,240458.5625,275023.46875,246593.125,242634.1875,205808.0,1.0,3
231184.90625,271680.46875,300648.6875,280157.59375,241914.640625,275579.0625,247030.859375,243170.546875,205809.0,1.0,3
231064.203125,271266.59375,300067.53125,279928.0625,241756.484375,275544.0,246870.828125,242944.34375,205810.0,1.0,3
230375.78125,270105.65625,298740.5625,279550.40625,240201.875,274958.125,246337.609375,242267.265625,205811.0,1.0,3
230074.734375,269799.25,298494.0625,279546.84375,239389.96875,274630.8125,246167.1875,242075.125,205812.0,1.0,3
230575.78125,270772.71875,299672.625,279923.96875,240450.328125,275020.34375,246599.484375,242628.734375,205813.0,1.0,3
231177.75,271669.1875,300640.28125,280157.9375,241908.65625,275572.78125,247023.265625,243160.890625,205814.0,1.0,3
231059.921875,271265.15625,300068.6875,279929.78125,241764.53125,275538.5625,246861.96875,242940.3125,205815.0,1.0,3
230373.265625,270107.875,298742.6875,279552.03125,240211.609375,274958.75,246336.703125,242271.46875,205816.0,1.0,3
230068.21875,269792.375,298484.125,279544.53125,239384.25,274625.25,246161.65625,242078.703125,205817.0,1.0,3
230565.9375,270759.125,299658.5,279919.65625,240434.515625,275006.9375,246585.96875,242629.0,205818.0,1.0,3
231170.609375,271662.5,300633.84375,280156.40625,241896.21875,275567.15625,247021.5625,243163.390625,205819.0,1.0,3
231068.140625,271273.5625,300072.53125,279928.15625,241763.71875,275538.8125,246860.28125,242936.921875,205820.0,1.0,3
230388.203125,270119.25,298747.34375,279551.59375,240217.15625,274961.96875,246341.09375,242271.734375,205821.0,1.0,3
230069.28125,269789.3125,298481.46875,279541.84375,239381.734375,274631.25,246169.25,242074.671875,205822.0,1.0,3
230564.421875,270753.65625,299654.46875,279917.625,240423.515625,275011.3125,246587.578125,242623.28125,205823.0,1.0,3
231181.515625,271668.3125,300638.125,280154.625,241889.25,275567.34375,247013.609375,243154.71875,205824.0,1.0,3
231077.53125,271282.25,300086.125,279929.15625,241770.421875,275541.40625,246859.5625,242943.984375,205825.0,1.0,3
230393.03125,270125.75,298758.4375,279551.3125,240228.421875,274965.4375,246338.671875,242281.828125,205826.0,1.0,3
230076.171875,269794.6875,298484.21875,279542.5625,239385.234375,274637.59375,246167.8125,242077.625,205827.0,1.0,3
230575.0625,270763.5,299657.34375,279921.46875,240421.28125,275022.40625,246596.265625,242627.390625,205828.0,1.0,3
231187.953125,271676.0,300647.875,280164.90625,241892.46875,275575.28125,247028.984375,243170.890625,205829.0,1.0,3
231087.1875,271298.5,300104.0,279942.125,241785.453125,275561.0,246883.171875,242955.875,205830.0,1.0,3
230402.59375,270139.53125,298769.625,279557.5625,240242.46875,274979.5625,246346.453125,242278.796875,205831.0,1.0,3
230075.375,269794.34375,298481.1875,279540.5,239384.328125,274627.21875,246160.578125,242071.28125,205832.0,1.0,3
230557.625,270743.5625,299642.3125,279913.6875,240406.796875,275000.0625,246583.921875,242624.078125,205833.0,1.0,3
231164.25,271657.21875,300635.09375,280156.875,241874.59375,275561.34375,247021.921875,243163.125,205834.0,1.0,3
231071.890625,271293.96875,300100.78125,279934.6875,241774.453125,275546.40625,246876.28125,242953.453125,205835.0,1.0,3
230389.359375,270133.28125,298766.03125,279552.375,240231.109375,274965.1875,246334.390625,242275.75,205836.0,1.0,3
230060.703125,269780.5625,298470.28125,279534.59375,239360.28125,274620.59375,246145.640625,242063.234375,205837.0,1.0,3
230546.28125,270731.125,299631.3125,279907.15625,240375.140625,274989.40625,246562.640625,242609.328125,205838.0,1.0,3
231160.671875,271655.78125,300631.0625,280156.15625,241853.75,275551.96875,247000.109375,243153.109375,205839.0,1.0,3
231077.53125,271300.84375,300109.1875,279945.34375,241774.0,275549.90625,246870.375,242962.21875,205840.0,1.0,3
230404.390625,270149.375,298780.34375,279565.71875,240239.953125,274982.78125,246357.625,242301.765625,205841.0,1.0,3
230073.40625,269791.1875,298475.28125,279542.71875,239365.5625,274640.8125,246164.953125,242073.515625,205842.0,1.0,3
230549.5,270729.09375,299623.28125,279909.21875,240368.34375,274994.78125,246564.609375,242608.703125,205843.0,1.0,3
231164.34375,271656.5,300627.84375,280155.25,241848.65625,275555.1875,247007.796875,243158.5625,205844.0,1.0,3
231087.1875,271311.375,300111.0,279940.3125,241779.375,275559.28125,246877.359375,242961.5,205845.0,1.0,3
230414.125,270158.84375,298782.3125,279559.28125,240254.625,274992.28125,246358.53125,242296.140625,205846.0,1.0,3
230072.15625,269787.71875,298466.6875,279533.96875,239369.140625,274637.0625,246161.65625,242076.015625,205847.0,1.0,3
230542.515625,270722.90625,299609.40625,279896.4375,240360.65625,274994.34375,246565.765625,242604.140625,205848.0,1.0,3
231165.421875,271662.125,300627.9375,280145.6875,241852.40625,275565.0,247014.765625,243148.015625,205849.0,1.0,3
231090.578125,271321.65625,300121.1875,279931.46875,241788.390625,275556.78125,246872.34375,242953.109375,205850.0,1.0,3
230412.796875,270160.8125,298785.09375,279543.0,240258.5625,274980.28125,246343.234375,242273.78125,205851.0,1.0,3
230067.234375,269781.28125,298461.78125,279518.3125,239367.796875,274635.09375,246159.234375,242052.859375,205852.0,1.0,3
230532.140625,270708.59375,299598.40625,279888.375,240351.984375,274982.71875,246563.984375,242590.828125,205853.0,1.0,3
231158.171875,271649.4375,300616.75,280142.90625,241843.390625,275545.875,247010.484375,243149.0,205854.0,1.0,3
231086.375,271313.96875,300121.09375,279936.75,241797.421875,275554.71875,246882.453125,242962.40625,205855.0,1.0,3
230409.84375,270152.6875,298783.03125,279548.28125,240273.3125,274980.84375,246347.34375,242285.046875,205856.0,1.0,3
230059.28125,269763.125,298444.4375,279514.65625,239367.703125,274622.125,246147.609375,242047.140625,205857.0,1.0,3
230528.125,270694.75,299582.3125,279885.78125,240347.609375,274979.5625,246557.1875,242586.984375,205858.0,1.0,3
231151.65625,271637.0,300612.03125,280144.09375,241841.859375,275549.625,247007.984375,243143.625,205859.0,1.0,3
231088.53125,271316.9375,300127.4375,279940.9375,241804.21875,275568.0625,246891.296875,242959.71875,205860.0,1.0,3
230415.109375,270158.9375,298792.84375,279554.0,240278.046875,274992.625,246353.515625,242285.671875,205861.0,1.0,3
230065.796875,269766.875,298451.78125,279525.21875,239365.640625,274627.3125,246145.828125,242055.09375,205862.0,1.0,3
230533.3125,270695.8125,299587.34375,279895.96875,240337.40625,274984.5,246561.65625,242593.59375,205863.0,1.0,3
231156.921875,271639.96875,300613.0,280146.3125,241827.296875,275549.28125,247005.203125,243149.53125,205864.0,1.0,3
231088.265625,271313.4375,300130.9375,279938.0,241794.296875,275558.84375,246880.484375,242971.78125,205865.0,1.0,3
230413.140625,270158.21875,298794.5625,279551.03125,240273.9375,274990.9375,246352.53125,242297.21875,205866.0,1.0,3
230064.375,269765.625,298441.65625,279517.25,239352.140625,274627.03125,246154.765625,242057.15625,205867.0,1.0,3
230526.515625,270688.125,299572.9375,279887.3125,240316.40625,274978.875,246564.609375,242585.8125,205868.0,1.0,3
231160.953125,271648.28125,300611.125,280144.71875,241820.140625,275546.40625,247006.28125,243144.4375,205869.0,1.0,3
