FZ,C3,CZ,C4,PZ,PO7,OZ,PO8,Counter,Validation,Label
222800.234375,243094.015625,239552.0625,236410.921875,217953.03125,237948.28125,199680.296875,227391.546875,495717.0,1.0,1
222852.171875,243280.59375,240097.625,236484.328125,218449.515625,238251.1875,200026.21875,227630.984375,495718.0,1.0,1
222806.140625,243250.109375,239991.046875,236437.484375,218361.890625,238213.90625,199992.0625,227573.5,495719.0,1.0,1
222751.140625,243072.1875,239425.734375,236366.40625,217848.6875,237919.9375,199655.71875,227331.828125,495720.0,1.0,1
222740.78125,242967.9375,239140.34375,236336.8125,217581.71875,237746.84375,199452.765625,227211.390625,495721.0,1.0,1
222803.1875,243105.546875,239558.046875,236409.765625,217956.875,237958.109375,199685.3125,227396.734375,495722.0,1.0,1
222844.40625,243272.546875,240091.8125,236474.765625,218443.703125,238253.421875,200020.9375,227623.46875,495723.0,1.0,1
222803.625,243239.65625,239990.328125,236437.03125,218360.1875,238215.421875,199986.875,227568.484375,495724.0,1.0,1
222744.4375,243052.796875,239415.171875,236353.96875,217840.015625,237910.28125,199639.890625,227313.5,495725.0,1.0,1
222738.359375,242955.515625,239128.453125,236327.59375,217574.578125,237732.625,199441.234375,227192.890625,495726.0,1.0,1
222800.328125,243088.46875,239547.046875,236404.3125,217950.0,237939.421875,199676.640625,227384.3125,495727.0,1.0,1
222845.5625,243269.875,240089.3125,236475.75,218443.609375,238243.140625,200021.03125,227622.3125,495728.0,1.0,1
222808.28125,243247.4375,239999.1875,236442.484375,218367.796875,238215.609375,199997.078125,227578.234375,495729.0,1.0,1
222736.484375,243049.84375,239413.65625,236343.953125,217832.609375,237901.703125,199639.359375,227316.8125,495730.0,1.0,1
222724.234375,242942.90625,239116.828125,236314.453125,217555.890625,237720.375,199431.578125,227187.515625,495731.0,1.0,1
222798.265625,243088.28125,239541.0625,236400.015625,217935.421875,237931.5625,199669.125,227376.171875,495732.0,1.0,1
222854.40625,243278.28125,240090.921875,236479.5,218440.03125,238237.6875,200018.171875,227616.765625,495733.0,1.0,1
222801.21875,243240.71875,239987.03125,236428.8125,218355.625,238197.71875,199981.78125,227559.8125,495734.0,1.0,1
222747.65625,243063.515625,239422.875,236354.421875,217841.8125,237899.1875,199642.125,227314.484375,495735.0,1.0,1
222745.609375,242965.625,239133.8125,236333.3125,217571.625,237723.421875,199441.859375,227195.21875,495736.0,1.0,1
222803.546875,243094.28125,239538.921875,236402.796875,217933.546875,237928.875,199667.609375,227376.625,495737.0,1.0,1
222854.40625,243281.40625,240086.625,236482.71875,218437.171875,238238.40625,200018.265625,227621.6875,495738.0,1.0,1
222808.28125,243252.4375,239992.5625,236439.625,218358.578125,238207.109375,199985.890625,227567.953125,495739.0,1.0,1
222745.0625,243065.3125,239419.734375,236353.796875,217838.328125,237907.59375,199639.796875,227316.265625,495740.0,1.0,1
222743.90625,242975.0,239133.71875,236335.90625,217570.015625,237737.90625,199441.859375,227197.796875,495741.0,1.0,1
222809.703125,243108.765625,239545.359375,236416.921875,217941.671875,237943.625,199673.328125,227386.1875,495742.0,1.0,1
222846.8125,243277.734375,240080.453125,236475.390625,218432.078125,238238.84375,200012.09375,227614.796875,495743.0,1.0,1
222820.171875,243264.0625,240007.140625,236450.890625,218371.546875,238219.625,199999.03125,227577.421875,495744.0,1.0,1
222757.765625,243068.4375,239432.4375,236368.640625,217847.796875,237916.53125,199649.640625,227325.828125,495745.0,1.0,1
222747.75,242961.328125,239133.1875,236338.59375,217569.5625,237738.0,199440.78125,227197.984375,495746.0,1.0,1
222803.546875,243085.96875,239535.078125,236410.203125,217930.765625,237934.421875,199661.890625,227376.703125,495747.0,1.0,1
222854.5,243273.359375,240082.6875,236483.4375,218431.890625,238233.484375,200004.9375,227613.28125,495748.0,1.0,1
222818.828125,243261.203125,240007.046875,236452.328125,218371.09375,238213.375,199991.265625,227576.171875,495749.0,1.0,1
222751.140625,243070.578125,239429.65625,236359.421875,217849.671875,237910.015625,199645.25,227321.640625,495750.0,1.0,1
222739.609375,242960.875,239123.984375,236333.765625,217569.5625,237728.515625,199434.171875,227192.171875,495751.0,1.0,1
222804.875,243086.859375,239530.875,236411.015625,217934.609375,237931.5625,199663.21875,227375.453125,495752.0,1.0,1
222848.953125,243269.609375,240076.96875,236482.625,218435.296875,238236.96875,200006.375,227611.21875,495753.0,1.0,1
222799.875,243245.015625,239989.96875,236441.328125,218365.28125,238211.5,199981.78125,227566.515625,495754.0,1.0,1
222736.390625,243063.15625,239420.8125,236359.78125,217848.34375,237915.203125,199642.125,227322.609375,495755.0,1.0,1
222732.109375,242961.5,239124.15625,236339.578125,217573.859375,237740.140625,199436.671875,227198.4375,495756.0,1.0,1
222790.21875,243083.8125,239523.1875,236409.3125,217930.765625,237936.5625,199655.265625,227372.953125,495757.0,1.0,1
222845.390625,243272.28125,240075.625,236485.578125,218431.625,238241.71875,199999.75,227611.21875,495758.0,1.0,1
222812.84375,243255.65625,240008.75,236461.4375,218374.40625,238222.125,199987.59375,227577.875,495759.0,1.0,1
222749.890625,243066.5625,239437.4375,236372.921875,217855.671875,237921.453125,199641.765625,227324.578125,495760.0,1.0,1
222742.203125,242963.109375,239133.375,236338.234375,217574.484375,237742.46875,199433.265625,227193.25,495761.0,1.0,1
222794.328125,243091.859375,239528.8125,236406.1875,217931.671875,237939.609375,199655.265625,227368.484375,495762.0,1.0,1
222844.3125,243276.75,240080.359375,236479.140625,218436.359375,238247.96875,200006.28125,227613.90625,495763.0,1.0,1
222812.390625,243265.484375,240011.34375,236448.828125,218379.421875,238229.1875,199994.125,227574.03125,495764.0,1.0,1
222750.875,243082.65625,239442.8125,236366.9375,217863.53125,237935.046875,199653.84375,227322.4375,495765.0,1.0,1
222735.859375,242965.0,239126.84375,236335.734375,217573.5,237749.4375,199436.9375,227187.34375,495766.0,1.0,1
222805.234375,243099.28125,239531.9375,236417.265625,217938.453125,237947.65625,199663.5,227374.5625,495767.0,1.0,1
222862.90625,243287.484375,240090.015625,236496.9375,218444.328125,238250.65625,200011.109375,227615.25,495768.0,1.0,1
222824.015625,243267.015625,240024.484375,236464.5625,218389.78125,238233.125,199998.765625,227578.40625,495769.0,1.0,1
222739.609375,243066.375,239438.0625,236351.921875,217857.453125,237925.21875,199647.84375,227317.078125,495770.0,1.0,1
222732.46875,242958.46875,239126.84375,236327.953125,217569.484375,237739.15625,199434.25,227189.21875,495771.0,1.0,1
222798.09375,243091.5,239525.953125,236404.484375,217927.546875,237935.40625,199655.71875,227370.71875,495772.0,1.0,1
222841.453125,243262.625,240073.484375,236473.515625,218427.875,238231.703125,199997.609375,227605.953125,495773.0,1.0,1
222802.28125,243245.46875,240012.859375,236444.984375,218380.9375,238219.359375,199987.859375,227570.90625,495774.0,1.0,1
222740.421875,243060.75,239445.578125,236365.15625,217867.734375,237924.5,199649.546875,227326.109375,495775.0,1.0,1
222739.53125,242959.8125,239136.046875,236343.6875,217583.15625,237747.375,199440.6875,227199.59375,495776.0,1.0,1
222797.546875,243080.859375,239524.078125,236412.0,217932.828125,237934.421875,199653.84375,227374.734375,495777.0,1.0,1
222850.03125,243269.609375,240077.78125,236485.40625,218440.65625,238241.265625,200003.59375,227617.390625,495778.0,1.0,1
222810.78125,243255.203125,240016.4375,236451.609375,218394.25,238227.9375,199997.34375,227583.5,495779.0,1.0,1
222737.5625,243063.96875,239440.296875,236358.984375,217874.359375,237923.78125,199650.53125,227330.484375,495780.0,1.0,1
222728.4375,242952.5625,239122.8125,236330.90625,217578.421875,237735.40625,199432.46875,227192.53125,495781.0,1.0,1
222790.21875,243081.484375,239513.265625,236405.109375,217927.375,237929.234375,199650.96875,227369.90625,495782.0,1.0,1
222841.453125,243269.78125,240068.5625,236477.984375,218438.609375,238236.34375,200002.34375,227614.34375,495783.0,1.0,1
222813.203125,243261.203125,240020.015625,236459.203125,218403.46875,238233.125,200007.265625,227590.03125,495784.0,1.0,1
222747.125,243073.265625,239448.265625,236374.8125,217885.078125,237936.390625,199666.359375,227338.171875,495785.0,1.0,1
222736.578125,242962.84375,239125.046875,236340.03125,217584.765625,237747.203125,199448.203125,227205.578125,495786.0,1.0,1
222788.4375,243071.65625,239500.390625,236402.609375,217918.796875,237926.1875,199650.96875,227369.90625,495787.0,1.0,1
222835.8125,243251.1875,240055.421875,236470.203125,218420.625,238231.78125,199996.796875,227608.546875,495788.0,1.0,1
222807.03125,243244.5625,240012.6875,236445.34375,218386.921875,238230.984375,200003.953125,227586.8125,495789.0,1.0,1
222742.203125,243062.171875,239446.46875,236366.578125,217873.90625,237932.90625,199662.6875,227339.96875,495790.0,1.0,1
222724.328125,242948.984375,239117.625,236332.25,217570.640625,237742.015625,199438.640625,227201.5625,495791.0,1.0,1
222777.25,243069.6875,239500.109375,236398.40625,217915.484375,237932.0,199653.125,227374.390625,495792.0,1.0,1
222822.671875,243252.078125,240053.71875,236470.109375,218421.796875,238234.109375,200001.453125,227612.65625,495793.0,1.0,1
222796.828125,243247.4375,240012.15625,236448.5625,218393.625,238235.09375,200008.6875,227589.9375,495794.0,1.0,1
222736.03125,243069.953125,239448.078125,236366.9375,217882.765625,237935.578125,199673.15625,227345.328125,495795.0,1.0,1
222719.140625,242948.359375,239114.6875,236330.015625,217573.859375,237739.421875,199448.921875,227204.78125,495796.0,1.0,1
222776.359375,243067.0,239492.515625,236396.625,217912.0,237930.390625,199659.015625,227375.640625,495797.0,1.0,1
222824.46875,243256.90625,240047.203125,236467.875,218419.375,238233.21875,200005.203125,227616.765625,495798.0,1.0,1
222792.546875,243248.234375,240005.359375,236444.09375,218389.15625,238228.5625,200009.5,227595.125,495799.0,1.0,1
222728.53125,243060.84375,239438.96875,236357.546875,217873.640625,237929.5,199666.171875,227341.03125,495800.0,1.0,1
222716.453125,242946.390625,239108.15625,236323.03125,217564.46875,237734.78125,199440.0625,227195.5625,495801.0,1.0,1
222775.734375,243064.328125,239485.1875,236391.875,217902.875,237919.75,199645.609375,227361.859375,495802.0,1.0,1
222828.75,243259.046875,240047.828125,236470.203125,218415.984375,238229.46875,199996.0,227607.46875,495803.0,1.0,1
222796.484375,243255.828125,240011.171875,236446.328125,218390.046875,238226.515625,200003.0625,227586.1875,495804.0,1.0,1
222731.484375,243067.546875,239447.359375,236360.59375,217881.328125,237925.5625,199661.265625,227335.40625,495805.0,1.0,1
222730.765625,242957.390625,239124.609375,236339.40625,217581.90625,237732.8125,199440.875,227203.4375,495806.0,1.0,1
222799.78125,243084.0,239509.328125,236421.921875,217925.5,237919.3125,199652.234375,227376.53125,495807.0,1.0,1
222832.6875,243256.546875,240055.421875,236477.796875,218425.109375,238212.46875,199992.78125,227608.890625,495808.0,1.0,1
222808.8125,243260.21875,240029.40625,236454.46875,218408.828125,238224.09375,200009.234375,227593.96875,495809.0,1.0,1
222745.421875,243074.25,239467.21875,236372.921875,217896.703125,237927.53125,199666.171875,227339.6875,495810.0,1.0,1
222736.3125,242960.609375,239135.78125,236344.140625,217588.78125,237729.859375,199437.734375,227200.75,495811.0,1.0,1
222802.28125,243086.3125,239517.375,236419.328125,217934.703125,237925.03125,199653.65625,227378.9375,495812.0,1.0,1
222848.78125,243268.796875,240074.109375,236489.328125,218441.015625,238228.390625,200002.875,227619.53125,495813.0,1.0,1
222803.546875,243255.203125,240031.640625,236451.15625,218405.4375,238223.03125,200005.921875,227591.1875,495814.0,1.0,1
222734.875,243073.09375,239467.296875,236363.0,217891.609375,237929.59375,199667.609375,227338.984375,495815.0,1.0,1
222722.890625,242958.5625,239131.40625,236329.03125,217582.796875,237736.203125,199438.28125,227196.640625,495816.0,1.0,1
222790.578125,243086.3125,239510.9375,236406.90625,217923.078125,237929.859375,199650.96875,227369.203125,495817.0,1.0,1
222837.609375,243272.828125,240069.640625,236484.0625,218432.796875,238239.390625,200004.40625,227611.671875,495818.0,1.0,1
222803.890625,243262.265625,240037.0,236456.703125,218411.421875,238243.5,200017.71875,227591.828125,495819.0,1.0,1
222744.796875,243084.984375,239479.109375,236371.3125,217907.171875,237952.5625,199683.609375,227348.8125,495820.0,1.0,1
222731.03125,242965.890625,239139.53125,236343.875,217590.21875,237750.875,199450.4375,227205.140625,495821.0,1.0,1
222784.234375,243074.609375,239499.9375,236402.4375,217908.859375,237920.5625,199643.28125,227360.96875,495822.0,1.0,1
222835.375,243262.453125,240059.171875,236473.0625,218418.671875,238228.921875,199990.28125,227601.828125,495823.0,1.0,1
222812.75,243270.40625,240038.875,236454.109375,218407.9375,238239.828125,200009.046875,227589.140625,495824.0,1.0,1
222752.84375,243090.34375,239482.859375,236374.71875,217904.21875,237953.640625,199678.0625,227346.578125,495825.0,1.0,1
222740.59375,242963.65625,239141.59375,236347.171875,217589.234375,237752.828125,199446.859375,227204.0625,495826.0,1.0,1
222798.71875,243083.90625,239508.25,236417.90625,217916.375,237928.15625,199646.5,227366.34375,495827.0,1.0,1
222842.078125,243272.734375,240067.21875,236479.328125,218425.453125,238236.609375,199998.5,227605.671875,495828.0,1.0,1
222811.5,243271.296875,240044.875,236453.03125,218415.265625,238245.375,200018.96875,227592.71875,495829.0,1.0,1
222754.09375,243095.96875,239488.765625,236376.859375,217911.09375,237955.25,199685.578125,227349.96875,495830.0,1.0,1
222737.296875,242969.28125,239135.953125,236340.296875,217584.3125,237744.875,199442.125,227195.5625,495831.0,1.0,1
222796.921875,243080.234375,239495.640625,236407.625,217907.796875,237919.21875,199639.796875,227361.59375,495832.0,1.0,1
222854.859375,243276.046875,240064.359375,236489.609375,218427.34375,238236.53125,199995.28125,227615.6875,495833.0,1.0,1
222823.484375,243276.9375,240046.921875,236466.53125,218420.625,238247.53125,200015.21875,227603.796875,495834.0,1.0,1
222738.625,243076.65625,239469.984375,236361.578125,217895.359375,237941.9375,199666.4375,227340.9375,495835.0,1.0,1
222725.484375,242955.78125,239119.953125,236330.015625,217572.421875,237737.546875,199428.625,227191.015625,495836.0,1.0,1
222787.984375,243071.484375,239480.71875,236402.4375,217896.078125,237911.359375,199624.875,227352.65625,495837.0,1.0,1
222841.359375,243262.8125,240048.890625,236481.734375,218413.65625,238221.421875,199979.453125,227600.765625,495838.0,1.0,1
222812.296875,243262.1875,240036.015625,236455.0,218408.203125,238234.5625,200001.90625,227589.140625,495839.0,1.0,1
222742.828125,243076.84375,239474.28125,236363.359375,217899.828125,237941.125,199666.890625,227343.09375,495840.0,1.0,1
222728.34375,242955.15625,239122.734375,236332.0625,217578.953125,237737.546875,199431.578125,227197.265625,495841.0,1.0,1
222791.375,243067.8125,239484.109375,236409.140625,217905.296875,237913.328125,199629.515625,227363.390625,495842.0,1.0,1
222858.078125,243272.46875,240064.625,236496.75,218436.359375,238237.0625,199997.421875,227620.703125,495843.0,1.0,1
222832.15625,243280.59375,240057.5625,236475.203125,218438.15625,238255.125,200027.828125,227615.328125,495844.0,1.0,1
222746.5,243079.875,239480.265625,236368.640625,217915.390625,237949.53125,199681.015625,227356.5,495845.0,1.0,1
222729.421875,242952.5625,239123.53125,236336.984375,217584.9375,237743.8125,199439.34375,227204.59375,495846.0,1.0,1
222787.53125,243065.046875,239476.0625,236405.46875,217897.875,237915.828125,199629.875,227360.34375,495847.0,1.0,1
222842.96875,243262.359375,240047.734375,236486.46875,218417.59375,238228.21875,199987.0625,227612.390625,495848.0,1.0,1
222812.03125,243265.84375,240041.296875,236461.4375,218417.328125,238239.65625,200010.75,227603.09375,495849.0,1.0,1
222748.90625,243084.625,239486.4375,236378.03125,217915.921875,237953.828125,199681.640625,227363.125,495850.0,1.0,1
222735.40625,242967.3125,239133.1875,236346.828125,217591.46875,237751.046875,199444.984375,227214.078125,495851.0,1.0,1
222795.40625,243079.796875,239487.15625,236417.1875,217908.78125,237928.609375,199640.515625,227376.890625,495852.0,1.0,1
222847.703125,243270.9375,240056.234375,236490.859375,218424.203125,238239.828125,199996.984375,227622.21875,495853.0,1.0,1
222819.09375,243277.734375,240050.5,236464.84375,218426.890625,238255.75,200024.875,227612.5625,495854.0,1.0,1
222759.640625,243103.75,239500.109375,236382.140625,217930.40625,237973.140625,199701.40625,227374.734375,495855.0,1.0,1
222746.140625,242982.34375,239142.21875,236346.28125,217601.21875,237764.546875,199463.40625,227224.09375,495856.0,1.0,1
222798.71875,243078.625,239484.828125,236408.421875,217905.46875,237924.40625,199643.015625,227370.0,495857.0,1.0,1
222853.78125,243266.296875,240055.25,236487.8125,218421.25,238229.734375,199992.25,227613.71875,495858.0,1.0,1
222828.21875,243273.71875,240058.546875,236469.3125,218429.578125,238248.859375,200022.8125,227612.109375,495859.0,1.0,1
222760.265625,243088.375,239499.671875,236379.71875,217924.0625,237952.125,199682.359375,227363.5625,495860.0,1.0,1
222742.125,242963.828125,239133.640625,236343.6875,217587.8125,237737.640625,199433.09375,227207.8125,495861.0,1.0,1
222805.234375,243082.296875,239483.84375,236411.90625,217900.375,237905.625,199623.96875,227366.25,495862.0,1.0,1
222861.125,243270.046875,240057.390625,236491.65625,218420.453125,238222.578125,199983.125,227618.015625,495863.0,1.0,1
222829.828125,243273.171875,240057.390625,236469.484375,218424.921875,238243.046875,200012.09375,227608.1875,495864.0,1.0,1
222763.03125,243092.125,239502.625,236378.46875,217922.09375,237953.828125,199685.046875,227364.90625,495865.0,1.0,1
222753.109375,242977.6875,239143.921875,236348.34375,217592.28125,237751.84375,199449.09375,227218.71875,495866.0,1.0,1
222809.796875,243087.390625,239488.578125,236415.03125,217902.96875,237920.296875,199638.453125,227377.515625,495867.0,1.0,1
222853.703125,243270.40625,240050.59375,236480.484375,218415.09375,238224.8125,199990.09375,227616.59375,495868.0,1.0,1
222821.78125,243276.390625,240053.640625,236457.421875,218425.015625,238243.328125,200019.875,227605.5,495869.0,1.0,1
222761.25,243102.59375,239508.25,236379.09375,217932.5625,237959.71875,199697.203125,227366.421875,495870.0,1.0,1
222747.484375,242976.96875,239144.71875,236349.765625,217594.953125,237749.078125,199453.203125,227215.421875,495871.0,1.0,1
222808.375,243082.390625,239491.53125,236419.234375,217899.484375,237914.125,199638.453125,227371.703125,495872.0,1.0,1
222859.59375,243273.265625,240061.859375,236492.546875,218420.546875,238226.0625,199993.671875,227621.765625,495873.0,1.0,1
222827.234375,243280.875,240068.390625,236469.21875,218440.390625,238249.484375,200031.3125,227622.046875,495874.0,1.0,1
222765.0,243101.25,239516.65625,236383.203125,217941.765625,237964.375,199701.484375,227377.421875,495875.0,1.0,1
222757.40625,242981.265625,239153.21875,236352.1875,217605.15625,237757.125,199459.640625,227225.34375,495876.0,1.0,1
222804.796875,243080.0625,239479.1875,236407.34375,217900.109375,237911.625,199632.109375,227366.609375,495877.0,1.0,1
222854.6875,243272.828125,240049.875,236483.796875,218424.125,238225.171875,199992.6875,227619.09375,495878.0,1.0,1
222825.796875,243286.953125,240064.71875,236467.25,218444.953125,238251.375,200033.375,227620.703125,495879.0,1.0,1
222748.828125,243096.515625,239504.40625,236375.703125,217937.03125,237957.671875,199697.015625,227368.484375,495880.0,1.0,1
222724.765625,242965.265625,239124.875,236334.578125,217589.5,237741.296875,199445.34375,227210.140625,495881.0,1.0,1
222783.953125,243071.828125,239458.1875,236405.03125,217889.828125,237906.078125,199628.796875,227364.453125,495882.0,1.0,1
222822.40625,243250.5625,240016.984375,236462.421875,218400.0625,238206.484375,199974.546875,227602.015625,495883.0,1.0,1
222803.453125,243269.0625,240043.796875,236454.90625,218432.515625,238242.703125,200022.109375,227610.859375,495884.0,1.0,1
222736.84375,243090.34375,239492.96875,236365.953125,217934.171875,237957.84375,199694.78125,227366.34375,495885.0,1.0,1
222723.4375,242964.640625,239118.53125,236331.4375,217588.34375,237744.15625,199447.75,227209.25,495886.0,1.0,1
222783.328125,243068.890625,239454.34375,236397.609375,217889.203125,237908.9375,199633.453125,227360.25,495887.0,1.0,1
222835.546875,243256.8125,240029.046875,236475.296875,218412.234375,238220.515625,199989.828125,227608.0,495888.0,1.0,1
222808.28125,243276.9375,240053.453125,236460.1875,218443.96875,238254.234375,200035.6875,227616.859375,495889.0,1.0,1
222748.5625,243105.265625,239510.671875,236381.6875,217957.765625,237981.53125,199721.703125,227383.953125,495890.0,1.0,1
222723.078125,242976.34375,239125.59375,236334.65625,217601.65625,237764.375,199466.0,227219.796875,495891.0,1.0,1
222773.765625,243067.453125,239450.671875,236396.53125,217889.734375,237918.421875,199638.109375,227365.0,495892.0,1.0,1
222824.46875,243249.484375,240023.234375,236476.640625,218407.21875,238222.484375,199990.09375,227610.0625,495893.0,1.0,1
222802.734375,243267.546875,240052.65625,236457.234375,218437.34375,238254.046875,200035.25,227616.859375,495894.0,1.0,1
222742.203125,243093.828125,239511.109375,236376.5,217944.8125,237972.328125,199713.5625,227380.546875,495895.0,1.0,1
222711.8125,242948.1875,239119.953125,236330.015625,217583.953125,237740.671875,199449.625,227213.0,495896.0,1.0,1
222768.84375,243048.671875,239445.578125,236395.90625,217875.15625,237897.046875,199621.734375,227360.171875,495897.0,1.0,1
222827.953125,243244.03125,240026.09375,236478.421875,218404.359375,238219.09375,199982.5,227614.703125,495898.0,1.0,1
222800.953125,243259.046875,240053.453125,236453.578125,218438.515625,238252.703125,200028.359375,227619.71875,495899.0,1.0,1
222729.78125,243079.96875,239505.5625,236363.625,217941.5,237966.15625,199703.546875,227378.40625,495900.0,1.0,1
222722.53125,242961.953125,239134.984375,236343.609375,217598.359375,237759.09375,199461.875,227226.6875,495901.0,1.0,1
222776.625,243066.296875,239456.84375,236397.15625,217888.75,237914.84375,199639.4375,227376.171875,495902.0,1.0,1
222827.765625,243256.453125,240032.625,236459.65625,218413.84375,238231.515625,199996.984375,227630.890625,495903.0,1.0,1
222795.40625,243262.890625,240058.28125,236441.328125,218442.453125,238264.515625,200036.859375,227633.484375,495904.0,1.0,1
222738.546875,243088.90625,239521.65625,236366.125,217956.4375,237989.671875,199722.953125,227400.578125,495905.0,1.0,1
222722.265625,242958.640625,239138.90625,236331.796875,217600.40625,237766.0625,199465.09375,227233.5625,495906.0,1.0,1
222775.109375,243054.21875,239452.734375,236388.578125,217883.75,237916.8125,199632.640625,227372.953125,495907.0,1.0,1
222826.515625,243239.828125,240023.421875,236467.078125,218407.046875,238230.53125,199989.65625,227622.390625,495908.0,1.0,1
222800.140625,243260.484375,240058.734375,236450.53125,218447.0,238268.890625,200046.25,227637.15625,495909.0,1.0,1
222732.640625,243081.3125,239513.171875,236365.59375,217950.078125,237984.671875,199719.1875,227396.828125,495910.0,1.0,1
222709.75,242947.015625,239122.015625,236323.75,217587.625,237759.8125,199458.125,227226.140625,495911.0,1.0,1
222765.453125,243046.359375,239439.59375,236387.40625,217873.8125,237912.96875,199631.578125,227368.921875,495912.0,1.0,1
222824.8125,243241.625,240021.625,236471.8125,218404.53125,238232.0625,199995.640625,227624.28125,495913.0,1.0,1
222792.453125,243257.09375,240054.890625,236447.40625,218445.84375,238268.984375,200048.65625,227631.609375,495914.0,1.0,1
222726.296875,243082.65625,239513.796875,236363.1875,217957.140625,237988.515625,199729.125,227393.6875,495915.0,1.0,1
222707.609375,242955.34375,239124.421875,236323.3125,217595.9375,237764.1875,199465.90625,227223.28125,495916.0,1.0,1
222763.75,243050.28125,239435.5625,236386.34375,217874.171875,237912.78125,199630.953125,227363.03125,495917.0,1.0,1
222819.90625,243235.359375,240012.59375,236468.953125,218400.6875,238230.359375,199991.890625,227616.3125,495918.0,1.0,1
222796.921875,243258.875,240054.890625,236448.828125,218449.234375,238275.421875,200048.390625,227629.46875,495919.0,1.0,1
222733.453125,243084.078125,239514.6875,236362.5625,217960.359375,237992.09375,199726.796875,227393.6875,495920.0,1.0,1
222733.71875,242965.625,239137.65625,236345.484375,217611.9375,237778.671875,199477.96875,227243.84375,495921.0,1.0,1
222779.484375,243051.984375,239436.28125,236398.59375,217877.484375,237916.1875,199632.46875,227375.1875,495922.0,1.0,1
222814.984375,243228.296875,239994.171875,236446.234375,218384.875,238216.046875,199972.484375,227602.546875,495923.0,1.0,1
222793.4375,243254.84375,240044.25,236436.40625,218439.140625,238264.78125,200034.359375,227620.515625,495924.0,1.0,1
222737.375,243089.0,239513.96875,236364.25,217958.84375,237990.5625,199722.140625,227387.4375,495925.0,1.0,1
222709.578125,242951.5,239115.484375,236319.46875,217590.125,237762.046875,199454.8125,227215.234375,495926.0,1.0,1
222756.0625,243041.796875,239420.71875,236379.09375,217864.078125,237907.78125,199614.859375,227354.890625,495927.0,1.0,1
222812.84375,243235.546875,240002.21875,236462.515625,218393.359375,238227.859375,199979.1875,227612.390625,495928.0,1.0,1
222789.140625,243257.71875,240051.578125,236444.71875,218445.484375,238275.0625,200042.125,227624.90625,495929.0,1.0,1
222719.40625,243079.703125,239509.59375,236356.75,217954.46875,237989.9375,199722.0625,227385.015625,495930.0,1.0,1
222697.6875,242938.34375,239105.921875,236314.09375,217583.609375,237754.71875,199453.390625,227217.03125,495931.0,1.0,1
222764.828125,243039.734375,239419.296875,236384.375,217864.078125,237907.6875,199624.875,227365.890625,495932.0,1.0,1
222820.96875,243233.75,240001.0625,236465.46875,218389.421875,238221.59375,199984.203125,227615.328125,495933.0,1.0,1
222796.296875,243255.296875,240053.8125,236445.078125,218440.75,238268.09375,200042.671875,227628.484375,495934.0,1.0,1
222737.5625,243087.125,239526.046875,236371.234375,217966.4375,237999.0625,199735.46875,227402.09375,495935.0,1.0,1
222715.296875,242952.03125,239125.59375,236327.421875,217598.71875,237766.15625,199466.890625,227227.9375,495936.0,1.0,1
222769.46875,243043.21875,239427.515625,236387.40625,217864.25,237908.046875,199623.265625,227360.96875,495937.0,1.0,1
222835.09375,243247.15625,240019.21875,236476.8125,218401.046875,238233.75,199992.953125,227621.5,495938.0,1.0,1
222803.453125,243264.953125,240070.53125,236454.28125,218456.125,238277.75,200053.3125,227634.015625,495939.0,1.0,1
222735.046875,243090.796875,239531.234375,236368.453125,217971.1875,237996.921875,199733.953125,227395.65625,495940.0,1.0,1
222704.390625,242947.203125,239119.328125,236322.40625,217591.65625,237752.65625,199456.609375,227215.234375,495941.0,1.0,1
222755.171875,243040.8125,239413.390625,236379.90625,217854.859375,237888.109375,199609.21875,227345.953125,495942.0,1.0,1
222819.28125,243243.671875,240002.21875,236462.6875,218388.09375,238208.90625,199976.5,227605.671875,495943.0,1.0,1
222804.703125,243260.21875,240066.859375,236462.25,218448.171875,238259.328125,200046.6875,227631.421875,495944.0,1.0,1
222724.953125,243069.328125,239518.09375,236355.84375,217946.421875,237969.46875,199716.6875,227375.90625,495945.0,1.0,1
222702.15625,242931.5625,239108.78125,236306.9375,217573.953125,237741.65625,199449.8125,227204.953125,495946.0,1.0,1
222760.53125,243031.515625,239409.90625,236377.9375,217845.125,237887.03125,199614.140625,227347.734375,495947.0,1.0,1
222802.734375,243216.765625,239984.078125,236448.203125,218368.859375,238196.203125,199965.234375,227589.859375,495948.0,1.0,1
222783.609375,243248.328125,240051.75,236437.296875,218440.21875,238253.15625,200036.765625,227611.484375,495949.0,1.0,1
222721.546875,243075.953125,239523.359375,236356.390625,217961.796875,237981.984375,199727.421875,227380.375,495950.0,1.0,1
222697.859375,242935.9375,239112.53125,236311.859375,217583.421875,237749.609375,199457.40625,227206.03125,495951.0,1.0,1
222753.296875,243026.859375,239405.171875,236372.03125,217845.828125,237889.359375,199612.0,227343.453125,495952.0,1.0,1
222807.5625,243216.578125,239987.203125,236451.515625,218375.390625,238205.140625,199970.875,227592.359375,495953.0,1.0,1
222783.609375,243240.90625,240053.546875,236435.25,218443.4375,238258.515625,200039.546875,227611.046875,495954.0,1.0,1
222719.40625,243068.34375,239523.0,236354.6875,217964.484375,237983.328125,199727.234375,227374.828125,495955.0,1.0,1
222692.140625,242927.078125,239107.0,236307.03125,217579.765625,237742.015625,199450.53125,227195.484375,495956.0,1.0,1
222756.953125,243028.03125,239404.890625,236374.984375,217848.15625,237892.84375,199610.828125,227339.875,495957.0,1.0,1
222816.59375,243225.796875,239987.65625,236455.890625,218380.125,238209.609375,199971.765625,227598.34375,495958.0,1.0,1
222788.875,243252.96875,240052.65625,236435.6875,218445.046875,238260.21875,200036.765625,227614.265625,495959.0,1.0,1
222725.21875,243088.640625,239525.5,236356.296875,217969.125,237992.171875,199729.921875,227382.875,495960.0,1.0,1
222703.40625,242947.5625,239110.484375,236314.546875,217585.296875,237754.0,199455.0,227204.6875,495961.0,1.0,1
222760.09375,243037.0625,239397.828125,236374.71875,217839.21875,237885.875,199604.125,227335.40625,495962.0,1.0,1
222813.640625,243230.4375,239981.21875,236450.4375,218364.578125,238199.0625,199963.09375,227587.625,495963.0,1.0,1
222790.484375,243260.390625,240058.015625,236442.9375,218439.40625,238259.421875,200039.984375,227617.390625,495964.0,1.0,1
222712.703125,243077.28125,239518.71875,236349.765625,217956.4375,237982.875,199726.53125,227378.765625,495965.0,1.0,1
222678.734375,242926.546875,239094.125,236294.515625,217566.796875,237740.671875,199448.296875,227196.28125,495966.0,1.0,1
222736.84375,243023.015625,239383.53125,236358.171875,217824.734375,237881.671875,199603.765625,227330.75,495967.0,1.0,1
222789.859375,243216.578125,239964.140625,236434.0,218350.53125,238194.5,199957.28125,227579.75,495968.0,1.0,1
222770.8125,243242.515625,240044.15625,236426.75,218433.234375,238255.84375,200038.109375,227609.078125,495969.0,1.0,1
222712.171875,243079.171875,239520.765625,236346.1875,217959.46875,237987.4375,199732.15625,227377.6875,495970.0,1.0,1
222684.09375,242930.296875,239096.359375,236294.609375,217566.171875,237743.8125,199451.875,227194.40625,495971.0,1.0,1
222741.671875,243015.953125,239377.09375,236358.0,217818.390625,237873.796875,199599.75,227323.59375,495972.0,1.0,1
222805.6875,243216.9375,239967.890625,236445.796875,218356.796875,238194.78125,199963.90625,227582.171875,495973.0,1.0,1
222782.265625,243248.765625,240049.609375,236433.546875,218434.125,238250.75,200036.765625,227607.015625,495974.0,1.0,1
222709.484375,243075.953125,239521.21875,236342.34375,217954.46875,237974.03125,199724.828125,227367.671875,495975.0,1.0,1
222687.3125,242934.328125,239106.546875,236303.71875,217572.875,237740.140625,199454.375,227192.96875,495976.0,1.0,1
222743.453125,243022.390625,239386.84375,236364.609375,217826.078125,237874.96875,199604.578125,227328.0625,495977.0,1.0,1
222796.75,243212.921875,239967.796875,236437.484375,218356.53125,238187.265625,199962.46875,227582.078125,495978.0,1.0,1
222780.46875,243249.484375,240058.109375,236433.453125,218446.65625,238253.609375,200045.984375,227614.0,495979.0,1.0,1
222730.765625,243095.625,239547.953125,236363.1875,217984.140625,237998.078125,199751.109375,227395.296875,495980.0,1.0,1
222705.734375,242952.390625,239123.359375,236312.3125,217591.828125,237755.875,199471.265625,227213.0,495981.0,1.0,1
222739.96875,243019.0,239381.390625,236355.84375,217822.859375,237868.078125,199598.046875,227322.265625,495982.0,1.0,1
222804.078125,243221.234375,239971.203125,236446.515625,218363.765625,238194.234375,199962.921875,227583.5,495983.0,1.0,1
222793.96875,243267.09375,240069.09375,236445.609375,218463.71875,238271.578125,200056.53125,227627.5,495984.0,1.0,1
222719.3125,243086.140625,239534.71875,236352.28125,217977.078125,237991.375,199736.453125,227390.03125,495985.0,1.0,1
222691.421875,242932.265625,239103.859375,236305.421875,217575.734375,237742.28125,199449.453125,227203.078125,495986.0,1.0,1
222752.671875,243021.046875,239384.609375,236373.375,217824.734375,237872.734375,199596.890625,227330.578125,495987.0,1.0,1
222806.765625,243210.78125,239969.59375,236449.1875,218359.203125,238187.4375,199953.796875,227582.34375,495988.0,1.0,1
222790.671875,243251.625,240065.25,236440.25,218456.578125,238259.59375,200043.921875,227619.8125,495989.0,1.0,1
222722.265625,243088.46875,239540.34375,236354.875,217980.390625,237983.421875,199735.46875,227387.703125,495990.0,1.0,1
222693.84375,242936.828125,239110.03125,236305.6875,217585.65625,237741.125,199455.0,227205.3125,495991.0,1.0,1
222756.875,243023.203125,239385.140625,236370.78125,217832.953125,237874.078125,199601.796875,227331.640625,495992.0,1.0,1
222815.703125,243216.5,239969.234375,236450.359375,218361.796875,238187.53125,199958.453125,227580.203125,495993.0,1.0,1
222791.828125,243247.4375,240063.46875,236438.546875,218449.953125,238252.890625,200042.125,227612.390625,495994.0,1.0,1
222728.171875,243079.53125,239545.265625,236359.96875,217983.515625,237987.34375,199740.734375,227386.625,495995.0,1.0,1
222704.828125,242938.078125,239118.078125,236314.1875,217593.078125,237747.5625,199463.84375,227205.765625,495996.0,1.0,1
222753.390625,243019.890625,239383.96875,236368.453125,217828.578125,237872.109375,199599.03125,227323.421875,495997.0,1.0,1
222806.3125,243213.1875,239968.609375,236446.953125,218359.390625,238188.96875,199960.328125,227578.859375,495998.0,1.0,1
222783.78125,243249.671875,240065.25,236434.890625,218459.34375,238261.03125,200051.875,227616.140625,495999.0,1.0,1
222717.265625,243080.421875,239541.515625,236350.046875,217986.296875,237993.25,199743.953125,227385.5625,496000.0,1.0,1
222694.203125,242932.890625,239107.890625,236310.078125,217586.90625,237746.84375,199461.34375,227202.71875,496001.0,1.0,1
222744.625,243011.3125,239369.046875,236359.96875,217816.421875,237864.59375,199592.953125,227320.03125,496002.0,1.0,1
222810.328125,243213.984375,239964.5,236444.1875,218357.875,238184.578125,199956.75,227578.40625,496003.0,1.0,1
222795.140625,243258.78125,240073.484375,236441.234375,218462.46875,238260.125,200051.34375,227618.375,496004.0,1.0,1
222736.21875,243098.75,239565.203125,236368.71875,218001.765625,238000.84375,199753.4375,227392.4375,496005.0,1.0,1
222701.796875,242943.171875,239122.1875,236311.5,217596.390625,237746.578125,199463.9375,227200.390625,496006.0,1.0,1
222748.015625,243016.765625,239373.25,236360.859375,217821.15625,237863.875,199591.4375,227316.265625,496007.0,1.0,1
222808.546875,243209.796875,239961.28125,236444.0,218354.65625,238185.203125,199952.71875,227574.75,496008.0,1.0,1
222793.796875,243252.796875,240074.375,236442.75,218464.4375,238267.734375,200052.234375,227620.25,496009.0,1.0,1
222726.65625,243088.109375,239557.25,236359.78125,217997.109375,238003.4375,199750.75,227389.140625,496010.0,1.0,1
222704.75,242945.0625,239122.109375,236314.28125,217599.15625,237759.8125,199467.6875,227206.921875,496011.0,1.0,1
222753.828125,243018.90625,239372.265625,236364.515625,217821.421875,237869.59375,199588.84375,227314.84375,496012.0,1.0,1
222810.609375,243214.96875,239959.75,236441.328125,218354.5625,238184.3125,199947.8125,227569.203125,496013.0,1.0,1
222793.96875,243259.140625,240074.109375,236437.03125,218465.328125,238262.28125,200047.140625,227614.796875,496014.0,1.0,1
222732.46875,243096.25,239563.234375,236360.671875,218004.4375,238001.75,199753.4375,227392.625,496015.0,1.0,1
222707.0625,242948.546875,239121.921875,236313.296875,217598.359375,237752.484375,199464.734375,227205.21875,496016.0,1.0,1
222761.34375,243031.0625,239376.109375,236370.0625,217822.953125,237867.453125,199592.234375,227319.484375,496017.0,1.0,1
222819.09375,243231.0625,239964.578125,236447.40625,218356.609375,238185.203125,199953.625,227575.109375,496018.0,1.0,1
222800.859375,243264.953125,240080.359375,236443.203125,218471.859375,238268.625,200057.953125,227626.15625,496019.0,1.0,1
222733.265625,243096.25,239565.46875,236360.671875,218006.765625,238003.0,199753.890625,227397.984375,496020.0,1.0,1
222712.875,242953.546875,239129.96875,236323.75,217604.4375,237759.546875,199466.53125,227214.078125,496021.0,1.0,1
222754.90625,243023.203125,239367.796875,236358.625,217816.953125,237857.359375,199584.375,227317.78125,496022.0,1.0,1
222825.359375,243226.6875,239967.796875,236453.21875,218360.90625,238188.96875,199958.265625,227581.984375,496023.0,1.0,1
222805.953125,243268.53125,240086.890625,236447.140625,218474.359375,238273.0,200058.21875,227623.203125,496024.0,1.0,1
222736.3125,243104.109375,239572.796875,236362.015625,218011.140625,238011.046875,199756.03125,227389.765625,496025.0,1.0,1
222710.28125,242954.625,239128.71875,236313.828125,217603.1875,237762.484375,199467.0625,227197.796875,496026.0,1.0,1
222758.75,243027.75,239372.078125,236366.765625,217817.21875,237870.046875,199589.375,227310.8125,496027.0,1.0,1
222819.09375,243222.9375,239961.546875,236451.78125,218351.96875,238185.03125,199950.21875,227572.953125,496028.0,1.0,1
222808.28125,243272.46875,240087.515625,236445.078125,218470.703125,238267.375,200054.65625,227622.484375,496029.0,1.0,1
222743.90625,243108.578125,239576.640625,236361.296875,218008.28125,238001.125,199752.984375,227396.46875,496030.0,1.0,1
222713.5,242956.5,239127.109375,236311.234375,217595.578125,237745.6875,199458.125,227201.921875,496031.0,1.0,1
222763.21875,243031.78125,239370.203125,236365.953125,217812.21875,237857.53125,199582.671875,227314.84375,496032.0,1.0,1
222825.0,243230.890625,239963.78125,236452.859375,218352.328125,238181.09375,199951.5625,227580.015625,496033.0,1.0,1
222805.234375,243273.71875,240085.734375,236447.21875,218470.25,238263.96875,200055.28125,227626.953125,496034.0,1.0,1
222730.765625,243104.734375,239568.515625,236359.34375,218003.453125,237993.875,199751.46875,227393.96875,496035.0,1.0,1
222703.046875,242957.03125,239122.90625,236308.90625,217594.15625,237744.25,199462.6875,227205.140625,496036.0,1.0,1
222756.0625,243031.953125,239367.796875,236367.5625,217812.9375,237860.21875,199585.359375,227322.53125,496037.0,1.0,1
222801.578125,243212.828125,239945.453125,236433.546875,218335.421875,238167.140625,199930.90625,227558.921875,496038.0,1.0,1
222793.078125,243267.453125,240081.53125,236434.4375,218466.046875,238266.75,200045.34375,227614.625,496039.0,1.0,1
222734.78125,243111.078125,239579.0625,236359.0625,218013.203125,238012.65625,199755.40625,227395.9375,496040.0,1.0,1
222706.359375,242959.71875,239129.078125,236312.125,217600.59375,237759.8125,199464.203125,227206.03125,496041.0,1.0,1
222752.484375,243024.09375,239362.25,236359.609375,217806.40625,237861.828125,199581.5,227316.171875,496042.0,1.0,1
222810.421875,243217.203125,239951.4375,236440.4375,218342.046875,238175.109375,199941.109375,227570.71875,496043.0,1.0,1
222795.5,243270.671875,240087.078125,236441.5,218476.78125,238270.59375,200055.984375,227625.4375,496044.0,1.0,1
222728.171875,243105.09375,239577.984375,236354.234375,218015.265625,238009.609375,199759.25,227395.125,496045.0,1.0,1
222705.015625,242954.4375,239130.421875,236305.78125,217598.625,237758.015625,199467.515625,227200.84375,496046.0,1.0,1
222757.9375,243032.578125,239368.859375,236367.390625,217812.578125,237873.359375,199591.078125,227318.6875,496047.0,1.0,1
222809.890625,243220.15625,239949.921875,236441.328125,218342.21875,238184.140625,199943.609375,227566.515625,496048.0,1.0,1
222790.9375,243257.71875,240082.421875,236435.0625,218470.25,238268.796875,200050.171875,227614.4375,496049.0,1.0,1
222729.15625,243100.4375,239578.171875,236354.421875,218014.8125,238006.921875,199754.78125,227389.140625,496050.0,1.0,1
222698.671875,242940.5,239119.515625,236302.109375,217591.65625,237745.953125,199454.734375,227190.65625,496051.0,1.0,1
222743.90625,243004.515625,239344.375,236351.65625,217791.03125,237849.125,199566.75,227296.0625,496052.0,1.0,1
222804.703125,243200.046875,239935.703125,236435.0625,218328.546875,238167.5,199931.71875,227559.8125,496053.0,1.0,1
222792.1875,243250.65625,240076.515625,236435.875,218461.125,238260.3125,200045.796875,227618.90625,496054.0,1.0,1
222735.953125,243099.46875,239583.71875,236367.390625,218016.515625,238010.234375,199761.21875,227406.65625,496055.0,1.0,1
222704.921875,242946.75,239124.875,236314.359375,217596.203125,237750.875,199461.875,227205.84375,496056.0,1.0,1
222758.65625,243025.4375,239354.65625,236365.15625,217802.65625,237854.484375,199579.265625,227310.015625,496057.0,1.0,1
222811.140625,243211.484375,239937.21875,236438.015625,218332.5625,238162.859375,199933.140625,227556.5,496058.0,1.0,1
222796.65625,243262.890625,240080.453125,236436.40625,218470.15625,238255.921875,200049.28125,227611.484375,496059.0,1.0,1
222737.734375,243106.609375,239584.609375,236356.5625,218020.625,238005.234375,199762.828125,227392.625,496060.0,1.0,1
222714.046875,242960.96875,239130.59375,236310.703125,217600.859375,237752.296875,199470.828125,227198.875,496061.0,1.0,1
222763.390625,243027.671875,239354.03125,236365.328125,217796.21875,237847.609375,199580.796875,227300.078125,496062.0,1.0,1
222818.5625,243216.9375,239939.375,236446.234375,218327.734375,238160.984375,199937.078125,227556.0625,496063.0,1.0,1
222800.765625,243267.71875,240082.6875,236433.546875,218466.046875,238260.390625,200053.484375,227612.921875,496064.0,1.0,1
222737.46875,243106.796875,239585.59375,236359.515625,218017.859375,238007.640625,199765.5,227392.984375,496065.0,1.0,1
222699.921875,242943.265625,239120.140625,236301.3125,217590.046875,237742.640625,199462.15625,227189.671875,496066.0,1.0,1
222744.0,243003.796875,239340.609375,236352.90625,217782.4375,237840.09375,199567.375,227291.6875,496067.0,1.0,1
222810.328125,243208.265625,239939.375,236443.828125,218325.0625,238167.421875,199936.71875,227558.734375,496068.0,1.0,1
222800.046875,243265.40625,240091.546875,236444.28125,218469.0,238267.28125,200060.90625,227621.140625,496069.0,1.0,1
222737.296875,243104.5625,239592.921875,236362.5625,218018.65625,238012.734375,199770.15625,227398.875,496070.0,1.0,1
222705.734375,242947.296875,239127.46875,236310.15625,217589.234375,237752.203125,199466.4375,227194.859375,496071.0,1.0,1
222749.0,243010.328125,239343.109375,236360.234375,217781.375,237847.0625,199570.328125,227293.5625,496072.0,1.0,1
222809.796875,243206.390625,239937.3125,236446.0625,218322.109375,238166.875,199936.1875,227555.796875,496073.0,1.0,1
222799.515625,243269.328125,240093.6875,236449.1875,218471.5,238265.5,200059.390625,227622.046875,496074.0,1.0,1
222741.671875,243117.4375,239605.4375,236376.234375,218030.640625,238018.46875,199776.59375,227410.5,496075.0,1.0,1
222701.265625,242944.703125,239132.921875,236314.71875,217597.1875,237752.203125,199468.5,227203.078125,496076.0,1.0,1
222747.03125,243009.34375,239343.65625,236362.640625,217781.640625,237839.65625,199568.625,227292.484375,496077.0,1.0,1
222806.765625,243203.171875,239932.9375,236445.34375,218316.5625,238155.703125,199927.0625,227549.796875,496078.0,1.0,1
222798.0,243263.34375,240091.09375,236445.609375,218466.9375,238262.28125,200052.953125,227613.8125,496079.0,1.0,1
222731.65625,243100.796875,239591.9375,236361.484375,218017.765625,238008.8125,199762.828125,227391.28125,496080.0,1.0,1
222702.59375,242945.0625,239126.390625,236312.484375,217591.46875,237753.640625,199462.234375,227192.625,496081.0,1.0,1
222753.65625,243016.21875,239343.65625,236363.984375,217786.640625,237857.171875,199574.09375,227298.03125,496082.0,1.0,1
222824.375,243221.5,239942.5,236452.328125,218330.953125,238181.453125,199944.046875,227562.578125,496083.0,1.0,1
222810.421875,243273.625,240100.296875,236452.328125,218481.703125,238278.90625,200066.1875,227619.890625,496084.0,1.0,1
222738.546875,243109.75,239603.734375,236365.421875,218029.828125,238020.078125,199775.78125,227396.734375,496085.0,1.0,1
222706.71875,242950.953125,239133.375,236312.40625,217599.25,237755.875,199471.0,227196.546875,496086.0,1.0,1
222755.171875,243014.078125,239340.171875,236363.359375,217785.484375,237843.765625,199570.515625,227294.28125,496087.0,1.0,1
222821.953125,243211.9375,239933.828125,236450.4375,218323.171875,238163.390625,199930.015625,227555.515625,496088.0,1.0,1
222810.421875,243271.125,240095.828125,236452.046875,218477.3125,238270.953125,200055.71875,227620.515625,496089.0,1.0,1
222742.125,243107.953125,239603.203125,236367.65625,218031.984375,238020.515625,199767.109375,227401.734375,496090.0,1.0,1
222716.71875,242956.140625,239140.34375,236318.484375,217606.3125,237763.921875,199466.625,227206.921875,496091.0,1.0,1
222764.921875,243017.125,239348.484375,236371.3125,217789.0625,237853.953125,199564.515625,227303.390625,496092.0,1.0,1
222828.484375,243213.015625,239942.40625,236455.1875,218326.390625,238170.015625,199926.796875,227561.875,496093.0,1.0,1
222828.65625,243284.796875,240123.734375,236470.375,218498.5,238287.671875,200067.96875,227642.0625,496094.0,1.0,1
222746.40625,243113.765625,239620.90625,236371.40625,218046.109375,238027.84375,199774.984375,227412.828125,496095.0,1.0,1
222707.0625,242949.609375,239141.234375,236313.921875,217604.875,237758.734375,199465.546875,227201.5625,496096.0,1.0,1
222746.046875,243001.46875,239333.375,236358.71875,217775.203125,237837.859375,199557.015625,227293.375,496097.0,1.0,1
222812.390625,243202.453125,239925.25,236444.0,218312.71875,238156.859375,199914.8125,227552.65625,496098.0,1.0,1
222803.453125,243269.0625,240101.5625,236451.609375,218480.796875,238270.234375,200051.34375,227625.4375,496099.0,1.0,1
222742.125,243119.9375,239621.703125,236376.234375,218042.53125,238023.203125,199774.453125,227412.734375,496100.0,1.0,1
222703.578125,242949.796875,239141.6875,236306.40625,217597.640625,237753.453125,199464.109375,227201.5625,496101.0,1.0,1
222755.34375,243001.03125,239341.0625,236360.59375,217773.859375,237842.0625,199560.3125,227295.890625,496102.0,1.0,1
222817.84375,243195.484375,239929.8125,236446.0625,218309.40625,238157.84375,199918.65625,227552.65625,496103.0,1.0,1
222805.59375,243259.671875,240100.9375,236448.828125,218473.828125,238268.171875,200052.234375,227622.046875,496104.0,1.0,1
222743.90625,243106.34375,239614.375,236369.625,218037.515625,238022.390625,199773.015625,227407.734375,496105.0,1.0,1
222724.328125,242955.15625,239149.46875,236323.9375,217608.640625,237762.765625,199476.71875,227214.25,496106.0,1.0,1
222761.96875,243001.46875,239340.609375,236366.9375,217774.21875,237836.4375,199562.46875,227299.015625,496107.0,1.0,1
222814.625,243189.578125,239926.40625,236443.296875,218305.75,238145.59375,199916.515625,227548.90625,496108.0,1.0,1
222810.0625,243261.46875,240108.625,236452.59375,218478.65625,238263.078125,200057.15625,227625.796875,496109.0,1.0,1
222743.90625,243103.03125,239622.25,236370.6875,218037.609375,238013.640625,199772.84375,227406.921875,496110.0,1.0,1
222712.796875,242945.0625,239146.328125,236319.015625,217600.859375,237750.15625,199462.5,227201.015625,496111.0,1.0,1
222760.53125,242999.859375,239340.703125,236365.6875,217772.4375,237835.265625,199551.5625,227289.453125,496112.0,1.0,1
222818.203125,243192.265625,239926.234375,236441.59375,218300.921875,238143.359375,199904.890625,227540.328125,496113.0,1.0,1
222814.09375,243264.328125,240111.125,236449.375,218476.328125,238264.0625,200046.515625,227615.421875,496114.0,1.0,1
222751.421875,243114.84375,239632.078125,236375.34375,218047.625,238020.703125,199770.6875,227404.953125,496115.0,1.0,1
222715.75,242952.65625,239153.578125,236320.453125,217612.390625,237754.71875,199465.90625,227204.59375,496116.0,1.0,1
222757.859375,243006.921875,239340.078125,236360.671875,217777.703125,237835.453125,199554.6875,227288.28125,496117.0,1.0,1
222812.84375,243197.359375,239924.4375,236440.4375,218307.890625,238146.9375,199907.578125,227538.0,496118.0,1.0,1
222811.40625,243271.84375,240113.0,236455.359375,218487.78125,238268.796875,200053.84375,227617.921875,496119.0,1.0,1
222740.78125,243114.03125,239626.09375,236369.265625,218049.0625,238021.59375,199773.015625,227400.484375,496120.0,1.0,1
222702.421875,242948.90625,239140.96875,236310.34375,217603.265625,237751.40625,199461.34375,227190.109375,496121.0,1.0,1
222752.671875,243005.40625,239330.875,236360.40625,217770.828125,237833.84375,199550.484375,227279.515625,496122.0,1.0,1
222821.421875,243202.546875,239927.125,236452.140625,218311.203125,238156.421875,199913.5625,227543.984375,496123.0,1.0,1
222801.75,243262.0,240106.109375,236448.203125,218481.703125,238269.96875,200051.15625,227616.59375,496124.0,1.0,1
222739.078125,243115.5625,239629.3125,236367.734375,218053.609375,238034.375,199778.921875,227406.84375,496125.0,1.0,1
222711.625,242967.9375,239152.234375,236315.265625,217616.5,237769.28125,199471.171875,227205.140625,496126.0,1.0,1
222759.015625,243021.3125,239337.03125,236364.078125,217783.703125,237848.859375,199559.875,227296.328125,496127.0,1.0,1
222820.890625,243208.53125,239926.234375,236454.90625,218319.6875,238162.40625,199916.6875,227554.1875,496128.0,1.0,1
222805.234375,243272.90625,240109.78125,236451.6875,218493.671875,238277.828125,200055.8125,227627.40625,496129.0,1.0,1
222742.75,243116.265625,239634.578125,236371.765625,218065.421875,238039.203125,199784.28125,227418.640625,496130.0,1.0,1
222712.609375,242953.734375,239153.578125,236318.125,217617.84375,237769.203125,199471.890625,227212.46875,496131.0,1.0,1
222759.90625,243011.9375,239340.703125,236369.34375,217777.609375,237847.515625,199557.90625,227304.109375,496132.0,1.0,1
222813.90625,243204.515625,239926.859375,236444.625,218308.25,238154.0,199912.3125,227557.3125,496133.0,1.0,1
222798.4375,243269.15625,240112.90625,236446.234375,218488.046875,238273.265625,200053.671875,227633.65625,496134.0,1.0,1
222732.109375,243111.265625,239638.78125,236372.75,218063.546875,238039.46875,199786.421875,227431.515625,496135.0,1.0,1
222695.71875,242942.015625,239150.171875,236305.421875,217616.765625,237767.671875,199473.0625,227222.125,496136.0,1.0,1
222740.421875,242992.796875,239324.78125,236349.859375,217770.203125,237837.953125,199549.328125,227302.859375,496137.0,1.0,1
222806.9375,243190.125,239918.625,236438.734375,218306.09375,238160.796875,199909.984375,227565.71875,496138.0,1.0,1
222797.28125,243257.4375,240111.296875,236446.15625,218488.40625,238284.53125,200056.265625,227643.671875,496139.0,1.0,1
222733.71875,243109.75,239638.96875,236369.078125,218064.515625,238048.234375,199788.21875,227434.015625,496140.0,1.0,1
222703.578125,242954.625,239155.90625,236315.265625,217622.578125,237782.609375,199477.890625,227228.109375,496141.0,1.0,1
222743.734375,242998.25,239327.65625,236358.71875,217770.640625,237851.984375,199550.65625,227309.921875,496142.0,1.0,1
222809.890625,243195.3125,239921.765625,236447.5,218308.34375,238171.265625,199913.03125,227570.28125,496143.0,1.0,1
222811.671875,243275.859375,240129.09375,236460.546875,218501.359375,238303.046875,200070.109375,227653.25,496144.0,1.0,1
222746.234375,243120.65625,239654.609375,236378.5625,218071.5,238059.140625,199794.03125,227437.953125,496145.0,1.0,1
222717.796875,242960.703125,239171.1875,236331.359375,217629.109375,237788.59375,199486.734375,227239.921875,496146.0,1.0,1
222760.71875,243013.625,239342.9375,236373.546875,217781.90625,237856.640625,199567.109375,227321.71875,496147.0,1.0,1
222793.53125,243181.71875,239904.6875,236422.8125,218290.09375,238142.03125,199899.96875,227552.65625,496148.0,1.0,1
222797.90625,243261.828125,240117.109375,236445.796875,218488.578125,238276.40625,200059.203125,227641.890625,496149.0,1.0,1
222734.15625,243109.5625,239644.59375,236366.046875,218062.828125,238032.5,199789.015625,227431.609375,496150.0,1.0,1
222694.640625,242940.3125,239145.265625,236303.640625,217609.53125,237756.59375,199474.046875,227219.984375,496151.0,1.0,1
222745.78125,242993.96875,239318.34375,236355.84375,217762.234375,237834.015625,199553.609375,227300.984375,496152.0,1.0,1
222813.546875,243194.765625,239911.921875,236446.234375,218304.671875,238156.953125,199914.28125,227561.15625,496153.0,1.0,1
222813.203125,243276.9375,240125.421875,236461.796875,218506.375,238290.078125,200073.515625,227652.53125,496154.0,1.0,1
222744.984375,243126.375,239653.0,236380.703125,218078.03125,238045.109375,199799.390625,227444.03125,496155.0,1.0,1
222705.28125,242955.25,239154.109375,236316.0625,217624.015625,237770.984375,199483.15625,227234.015625,496156.0,1.0,1
222755.890625,243004.875,239323.359375,236365.953125,217777.4375,237842.421875,199563.984375,227319.578125,496157.0,1.0,1
222817.40625,243199.421875,239911.484375,236444.71875,218308.515625,238154.359375,199913.296875,227570.1875,496158.0,1.0,1
222814.984375,243275.421875,240124.796875,236455.359375,218506.734375,238290.34375,200072.359375,227659.765625,496159.0,1.0,1
222741.046875,243115.828125,239648.171875,236366.765625,218071.40625,238041.984375,199792.5,227440.453125,496160.0,1.0,1
222700.90625,242947.734375,239146.515625,236300.328125,217613.46875,237764.546875,199473.0625,227223.734375,496161.0,1.0,1
222751.953125,243003.53125,239313.25,236350.3125,217761.25,237834.015625,199547.359375,227302.5,496162.0,1.0,1
222814.890625,243200.765625,239905.671875,236437.921875,218295.734375,238150.15625,199903.109375,227556.0625,496163.0,1.0,1
222813.015625,243270.3125,240120.421875,236452.953125,218497.515625,238282.65625,200063.40625,227645.28125,496164.0,1.0,1
222755.078125,243126.28125,239659.96875,236380.34375,218087.765625,238050.828125,199804.84375,227448.328125,496165.0,1.0,1
222710.46875,242950.6875,239151.421875,236309.0,217620.34375,237765.625,199474.21875,227220.953125,496166.0,1.0,1
222767.15625,243013.453125,239322.90625,236366.484375,217769.125,237842.78125,199557.453125,227308.484375,496167.0,1.0,1
222829.375,243208.09375,239912.546875,236451.96875,218302.875,238156.78125,199915.265625,227566.15625,496168.0,1.0,1
222810.15625,243269.875,240116.578125,236448.921875,218493.046875,238275.859375,200062.0625,227641.890625,496169.0,1.0,1
222744.171875,243119.3125,239651.75,236371.765625,218072.296875,238032.40625,199796.265625,227432.859375,496170.0,1.0,1
222716.453125,242964.375,239159.75,236314.015625,217620.625,237763.65625,199484.5,227222.84375,496171.0,1.0,1
222766.53125,243018.90625,239326.484375,236364.171875,217767.78125,237841.265625,199561.921875,227307.328125,496172.0,1.0,1
222822.140625,243202.28125,239910.671875,236444.453125,218299.75,238152.84375,199913.65625,227560.265625,496173.0,1.0,1
222818.203125,243275.5,240126.234375,236458.484375,218504.3125,238284.8125,200071.28125,227646.8125,496174.0,1.0,1
222754.1875,243129.859375,239663.8125,236380.265625,218087.59375,238050.828125,199809.046875,227441.890625,496175.0,1.0,1
222711.265625,242958.203125,239156.96875,236312.3125,217620.4375,237766.609375,199486.109375,227221.59375,496176.0,1.0,1
222759.546875,243008.71875,239315.046875,236362.015625,217753.828125,237830.078125,199555.578125,227298.296875,496177.0,1.0,1
222815.703125,243201.921875,239901.28125,236440.15625,218283.484375,238138.625,199905.703125,227546.84375,496178.0,1.0,1
222817.21875,243273.09375,240127.65625,236452.328125,218501.09375,238284.09375,200074.5,227639.65625,496179.0,1.0,1
222758.296875,243129.140625,239669.984375,236378.296875,218094.203125,238058.703125,199818.703125,227438.84375,496180.0,1.0,1
222718.78125,242959.984375,239166.890625,236316.515625,217630.28125,237774.203125,199492.71875,227219.265625,496181.0,1.0,1
222760.265625,243001.828125,239316.46875,236358.4375,217758.125,237827.9375,199551.203125,227288.90625,496182.0,1.0,1
222827.5,243203.796875,239912.109375,236452.5,218299.03125,238149.0,199914.28125,227552.75,496183.0,1.0,1
222821.15625,243283.640625,240134.640625,236456.609375,218508.25,238289.640625,200076.015625,227642.15625,496184.0,1.0,1
222752.40625,243134.59375,239673.921875,236375.78125,218090.71875,238057.171875,199810.03125,227436.4375,496185.0,1.0,1
222716.90625,242969.46875,239174.765625,236319.546875,217632.328125,237784.03125,199493.0,227225.515625,496186.0,1.0,1
222748.203125,243001.65625,239313.96875,236353.078125,217753.65625,237833.390625,199547.53125,227289.796875,496187.0,1.0,1
222810.515625,243190.390625,239902.71875,236437.03125,218286.703125,238144.34375,199901.40625,227547.03125,496188.0,1.0,1
222815.515625,243279.171875,240138.296875,236464.21875,218509.5,238290.890625,200072.796875,227652.171875,496189.0,1.0,1
222750.609375,243127.359375,239678.75,236383.03125,218096.265625,238059.671875,199813.078125,227445.46875,496190.0,1.0,1
222704.125,242946.671875,239160.1875,236308.734375,217620.53125,237767.671875,199480.03125,227213.359375,496191.0,1.0,1
222746.234375,242987.875,239300.5625,236348.515625,217745.515625,237821.328125,199537.515625,227277.375,496192.0,1.0,1
222821.6875,243190.75,239900.75,236442.484375,218285.265625,238138.8125,199898.1875,227539.78125,496193.0,1.0,1
222824.375,243272.109375,240135.359375,236461.0,218503.328125,238281.046875,200064.125,227635.453125,496194.0,1.0,1
222760.71875,243129.859375,239684.203125,236385.265625,218100.375,238059.046875,199812.0,227438.84375,496195.0,1.0,1
222720.75,242962.125,239178.78125,236322.140625,217637.78125,237781.984375,199489.5,227222.65625,496196.0,1.0,1
222766.703125,243003.796875,239320.765625,236365.0625,217761.078125,237841.53125,199548.15625,227291.5,496197.0,1.0,1
222828.03125,243193.96875,239908.703125,236449.015625,218291.4375,238151.5,199901.765625,227543.625,496198.0,1.0,1
222829.5625,243282.921875,240148.140625,236466.71875,218511.921875,238292.234375,200073.25,227642.328125,496199.0,1.0,1
222767.0625,243143.546875,239699.578125,236386.703125,218106.1875,238065.21875,199815.578125,227444.03125,496200.0,1.0,1
222716.28125,242960.34375,239182.28125,236318.390625,217630.984375,237771.703125,199479.40625,227215.421875,496201.0,1.0,1
222763.9375,243002.71875,239326.21875,236365.59375,217755.4375,237830.703125,199540.203125,227286.140625,496202.0,1.0,1
222826.96875,243203.265625,239912.90625,236449.1875,218287.6875,238144.53125,199895.765625,227541.9375,496203.0,1.0,1
222819.8125,243275.765625,240145.1875,236462.15625,218507.796875,238288.828125,200067.96875,227639.03125,496204.0,1.0,1
222756.609375,243127.09375,239691.09375,236385.4375,218100.546875,238056.015625,199810.65625,227435.71875,496205.0,1.0,1
222726.46875,242966.6875,239185.5,236333.140625,217638.765625,237779.828125,199490.9375,227225.703125,496206.0,1.0,1
222763.390625,243004.59375,239314.234375,236365.953125,217750.4375,237831.15625,199545.75,227291.234375,496207.0,1.0,1
222826.15625,243195.578125,239900.125,236448.03125,218280.265625,238144.078125,199900.25,227547.296875,496208.0,1.0,1
222825.984375,243285.25,240143.046875,236466.359375,218510.125,238294.46875,200075.5625,227647.875,496209.0,1.0,1
222766.078125,243152.21875,239703.609375,236391.53125,218115.390625,238075.953125,199831.21875,227452.875,496210.0,1.0,1
222725.125,242975.1875,239192.28125,236329.125,217646.359375,237789.046875,199505.421875,227234.375,496211.0,1.0,1
222754.71875,243002.015625,239316.390625,236360.859375,217753.75,237830.0,199550.84375,227294.546875,496212.0,1.0,1
222821.0625,243197.546875,239906.921875,236449.1875,218289.921875,238147.03125,199907.75,227552.75,496213.0,1.0,1
222813.015625,243274.515625,240139.828125,236452.140625,218507.984375,238288.203125,200074.859375,227645.46875,496214.0,1.0,1
222751.0625,243134.515625,239691.71875,236374.453125,218105.109375,238064.6875,199823.171875,227446.0,496215.0,1.0,1
222712.875,242962.484375,239175.296875,236310.96875,217632.421875,237782.15625,199493.625,227223.546875,496216.0,1.0,1
222751.859375,242999.953125,239300.734375,236349.765625,217743.546875,237831.78125,199542.890625,227287.5625,496217.0,1.0,1
222813.375,243191.015625,239883.046875,236435.953125,218272.9375,238139.78125,199892.640625,227540.59375,496218.0,1.0,1
222818.65625,243286.6875,240136.875,236461.34375,218512.28125,238296.515625,200079.59375,227651.984375,496219.0,1.0,1
222744.359375,243131.828125,239682.59375,236374.453125,218102.4375,238058.515625,199820.671875,227444.484375,496220.0,1.0,1
222710.015625,242962.21875,239173.78125,236312.75,217634.5625,237775.984375,199496.921875,227227.3125,496221.0,1.0,1
222753.109375,243003.625,239299.21875,236354.875,217742.125,237823.640625,199545.75,227287.390625,496222.0,1.0,1
222813.375,243190.65625,239882.421875,236441.5,218272.75,238133.796875,199897.03125,227545.515625,496223.0,1.0,1
222810.15625,243265.046875,240125.25,236452.953125,218501.546875,238283.109375,200072.625,227645.015625,496224.0,1.0,1
222748.375,243130.84375,239683.3125,236378.46875,218105.5625,238063.34375,199826.84375,227447.25,496225.0,1.0,1
222700.8125,242953.28125,239160.90625,236309.09375,217625.171875,237769.28125,199490.671875,227214.25,496226.0,1.0,1
222742.828125,242995.390625,239289.5625,236350.75,217736.484375,237817.75,199539.84375,227279.171875,496227.0,1.0,1
222815.4375,243194.5,239883.9375,236445.25,218272.484375,238135.859375,199897.375,227541.390625,496228.0,1.0,1
222822.5,243280.953125,240140.09375,236462.875,218507.796875,238290.34375,200075.65625,227641.890625,496229.0,1.0,1
222740.59375,243127.0,239682.78125,236367.109375,218096.796875,238053.0625,199806.546875,227428.65625,496230.0,1.0,1
222701.796875,242954.796875,239168.6875,236304.703125,217625.453125,237768.921875,199482.53125,227210.328125,496231.0,1.0,1
222750.078125,242995.390625,239294.484375,236350.578125,217733.984375,237819.171875,199536.171875,227274.609375,496232.0,1.0,1
222812.125,243184.84375,239876.25,236432.46875,218259.25,238126.734375,199884.5,227529.6875,496233.0,1.0,1
222816.859375,243281.40625,240135.984375,236453.390625,218502.890625,238285.078125,200071.453125,227641.625,496234.0,1.0,1
222748.203125,243136.296875,239693.234375,236375.609375,218109.578125,238062.8125,199823.078125,227444.484375,496235.0,1.0,1
222707.96875,242960.171875,239172.53125,236314.28125,217633.84375,237777.78125,199493.890625,227222.03125,496236.0,1.0,1
222751.78125,242997.890625,239292.25,236354.875,217738.453125,237824.625,199543.78125,227285.328125,496237.0,1.0,1
222809.984375,243187.96875,239873.75,236438.015625,218262.015625,238130.40625,199891.21875,227535.21875,496238.0,1.0,1
222812.84375,243282.125,240136.875,236461.171875,218503.6875,238288.375,200077.453125,227646.1875,496239.0,1.0,1
222750.34375,243142.203125,239698.953125,236381.25,218108.6875,238068.53125,199829.96875,227450.109375,496240.0,1.0,1
222706.625,242963.921875,239177.453125,236317.859375,217633.046875,237782.609375,199499.609375,227228.109375,496241.0,1.0,1
222736.9375,242988.59375,239281.15625,236351.65625,217728.4375,237814.34375,199535.640625,227277.375,496242.0,1.0,1
222807.75,243185.296875,239870.96875,236439.71875,218265.78125,238129.59375,199890.9375,227534.15625,496243.0,1.0,1
222815.25,243279.171875,240137.046875,236465.203125,218508.25,238285.34375,200074.3125,227640.640625,496244.0,1.0,1
222743.28125,243134.59375,239695.5625,236375.875,218107.96875,238059.765625,199819.234375,227436.875,496245.0,1.0,1
222709.75,242973.21875,239184.78125,236318.125,217637.515625,237779.5625,199495.40625,227215.328125,496246.0,1.0,1
222752.3125,242997.09375,239295.28125,236361.03125,217733.890625,237819.796875,199538.328125,227276.21875,496247.0,1.0,1
222816.421875,243190.921875,239880.71875,236446.328125,218263.984375,238134.25,199891.921875,227535.671875,496248.0,1.0,1
222808.90625,243276.390625,240138.578125,236455.8125,218506.546875,238289.015625,200076.46875,227642.328125,496249.0,1.0,1
222744.171875,243135.046875,239701.453125,236376.328125,218117.0,238073.984375,199834.703125,227449.390625,496250.0,1.0,1
222712.25,242969.28125,239184.0625,236321.421875,217644.046875,237789.84375,199505.515625,227230.890625,496251.0,1.0,1
222746.59375,242994.9375,239285.625,236356.203125,217731.296875,237816.578125,199534.296875,227274.25,496252.0,1.0,1
222803.546875,243177.421875,239864.09375,236434.171875,218253.625,238120.296875,199879.859375,227522.625,496253.0,1.0,1
222810.78125,243276.578125,240138.21875,236453.65625,218507.890625,238287.578125,200075.75,227641.078125,496254.0,1.0,1
222748.375,243136.296875,239707.09375,236381.25,218120.140625,238068.265625,199832.03125,227448.328125,496255.0,1.0,1
222702.421875,242954.4375,239176.28125,236310.609375,217635.109375,237775.453125,199493.984375,227214.171875,496256.0,1.0,1
222744.078125,242984.9375,239281.15625,236350.484375,217724.328125,237812.375,199530.359375,227267.625,496257.0,1.0,1
222822.40625,243190.03125,239875.171875,236447.671875,218260.140625,238130.671875,199888.078125,227532.453125,496258.0,1.0,1
222817.046875,243282.484375,240140.09375,236455.625,218506.109375,238286.59375,200072.984375,227638.9375,496259.0,1.0,1
222749.1875,243143.890625,239710.3125,236374.984375,218120.3125,238074.796875,199828.265625,227444.390625,496260.0,1.0,1
222704.125,242961.234375,239180.125,236303.90625,217636.078125,237781.265625,199489.234375,227210.953125,496261.0,1.0,1
222746.671875,242989.484375,239284.46875,236346.546875,217724.859375,237817.296875,199527.0625,227267.984375,496262.0,1.0,1
222818.109375,243184.578125,239871.953125,236446.0625,218256.125,238128.609375,199880.484375,227529.0625,496263.0,1.0,1
222812.484375,243278.1875,240137.40625,236454.28125,218506.46875,238283.5625,200066.265625,227639.109375,496264.0,1.0,1
222746.234375,243140.328125,239708.609375,236375.609375,218122.28125,238068.625,199824.421875,227444.125,496265.0,1.0,1
222704.03125,242964.640625,239183.53125,236306.5,217639.484375,237780.015625,199491.296875,227214.078125,496266.0,1.0,1
222744.890625,242994.234375,239280.796875,236347.453125,217721.109375,237811.484375,199525.625,227266.375,496267.0,1.0,1
222818.921875,243194.5,239866.6875,236439.265625,218256.75,238126.828125,199884.0625,227525.125,496268.0,1.0,1
222827.140625,243294.1875,240146.796875,236464.5625,218520.3125,238293.84375,200082.453125,227641.0,496269.0,1.0,1
222773.859375,243165.984375,239734.625,236399.125,218149.90625,238090.875,199853.9375,227458.609375,496270.0,1.0,1
222718.421875,242978.046875,239197.5625,236324.015625,217654.765625,237788.0625,199508.8125,227222.296875,496271.0,1.0,1
222744.0,242983.59375,239279.015625,236349.234375,217724.59375,237808.984375,199529.921875,227264.40625,496272.0,1.0,1
222821.6875,243188.0625,239870.703125,236444.1875,218262.015625,238125.84375,199886.109375,227528.96875,496273.0,1.0,1
222827.59375,243284.53125,240150.90625,236469.046875,218522.734375,238291.78125,200084.15625,227648.328125,496274.0,1.0,1
222749.09375,243133.890625,239713.4375,236374.984375,218128.71875,238068.078125,199834.625,227442.15625,496275.0,1.0,1
222713.59375,242965.703125,239190.859375,236318.296875,217649.578125,237782.25,199504.171875,227219.4375,496276.0,1.0,1
222756.0625,242992.265625,239284.828125,236361.125,217727.640625,237811.9375,199535.28125,227266.5625,496277.0,1.0,1
222812.84375,243179.484375,239861.046875,236436.671875,218249.859375,238114.75,199880.75,227517.96875,496278.0,1.0,1
222826.078125,243286.046875,240153.234375,236467.25,218519.78125,238289.1875,200087.015625,227643.9375,496279.0,1.0,1
222759.828125,243149.34375,239730.78125,236391.078125,218139.71875,238079.34375,199850.4375,227455.03125,496280.0,1.0,1
222714.140625,242969.734375,239195.5,236318.65625,217650.921875,237784.75,199508.90625,227221.59375,496281.0,1.0,1
222748.46875,242987.25,239278.03125,236351.015625,217721.640625,237806.5625,199528.75,227264.953125,496282.0,1.0,1
222816.6875,243177.25,239859.359375,236441.234375,218244.859375,238114.75,199875.203125,227522.984375,496283.0,1.0,1
222821.515625,243278.984375,240143.484375,236461.171875,218508.78125,238283.203125,200073.0625,227642.15625,496284.0,1.0,1
222756.875,243145.5,239726.765625,236386.0625,218132.65625,238070.9375,199841.0625,227456.734375,496285.0,1.0,1
222711.09375,242967.859375,239196.484375,236317.140625,217646.28125,237778.40625,199504.171875,227226.234375,496286.0,1.0,1
222749.359375,242989.765625,239282.140625,236355.84375,217717.53125,237803.078125,199529.390625,227273.078125,496287.0,1.0,1
222808.09375,243172.421875,239855.0625,236434.703125,218236.546875,238101.96875,199868.6875,227516.71875,496288.0,1.0,1
222818.921875,243281.3125,240149.65625,236459.390625,218511.828125,238280.875,200076.90625,227642.6875,496289.0,1.0,1
222759.640625,243148.1875,239738.203125,236389.203125,218139.359375,238075.6875,199845.96875,227457.53125,496290.0,1.0,1
222716.375,242970.53125,239203.828125,236319.28125,217645.921875,237781.53125,199505.25,227224.265625,496291.0,1.0,1
222758.65625,242993.515625,239285.0,236354.421875,217714.40625,237808.984375,199530.359375,227267.1875,496292.0,1.0,1
222826.15625,243186.90625,239866.328125,236445.4375,218245.484375,238123.78125,199884.15625,227525.125,496293.0,1.0,1
222835.453125,243289.90625,240159.9375,236471.8125,218518.703125,238298.484375,200089.78125,227648.6875,496294.0,1.0,1
222753.734375,243136.5625,239727.03125,236379.09375,218125.859375,238070.140625,199837.21875,227442.421875,496295.0,1.0,1
222712.078125,242960.25,239197.65625,236313.03125,217641.890625,237781.53125,199501.3125,227215.15625,496296.0,1.0,1
222747.296875,242985.734375,239277.484375,236347.09375,217710.46875,237807.375,199525.359375,227261.640625,496297.0,1.0,1
222811.5,243166.515625,239852.921875,236433.28125,218230.375,238109.484375,199869.578125,227514.75,496298.0,1.0,1
222823.125,243273.0,240151.265625,236463.9375,218507.71875,238281.40625,200073.515625,227640.90625,496299.0,1.0,1
222768.21875,243149.703125,239746.15625,236394.828125,218143.734375,238078.1875,199845.96875,227458.609375,496300.0,1.0,1
222723.609375,242972.6875,239211.328125,236324.734375,217652.890625,237782.703125,199505.59375,227225.78125,496301.0,1.0,1
222758.5625,242988.859375,239285.1875,236356.484375,217715.203125,237804.328125,199525.71875,227266.203125,496302.0,1.0,1
222819.546875,243174.390625,239858.640625,236437.921875,218235.375,238106.625,199866.625,227515.640625,496303.0,1.0,1
222828.03125,243283.1875,240157.796875,236466.171875,218514.15625,238279.984375,200071.28125,227638.046875,496304.0,1.0,1
222774.84375,243158.921875,239756.171875,236400.90625,218156.078125,238078.984375,199849.015625,227459.59375,496305.0,1.0,1
222727.640625,242975.453125,239216.609375,236328.84375,217663.265625,237782.34375,199507.03125,227228.109375,496306.0,1.0,1
222758.484375,242990.75,239286.515625,236362.203125,217722.90625,237800.484375,199525.0,227267.1875,496307.0,1.0,1
222825.359375,243181.625,239865.25,236447.578125,218246.90625,238109.03125,199874.140625,227518.78125,496308.0,1.0,1
222836.53125,243292.578125,240170.484375,236477.984375,218531.140625,238295.625,200089.515625,227652.890625,496309.0,1.0,1
222774.65625,243162.84375,239764.484375,236405.734375,218165.28125,238098.21875,199862.0625,227470.671875,496310.0,1.0,1
222727.359375,242982.96875,239225.71875,236332.25,217669.875,237802.984375,199520.171875,227235.890625,496311.0,1.0,1
222760.265625,242995.578125,239290.71875,236357.8125,217724.421875,237817.5625,199532.15625,227269.78125,496312.0,1.0,1
222821.78125,243177.515625,239860.421875,236443.296875,218240.921875,238116.984375,199870.296875,227513.59375,496313.0,1.0,1
222825.53125,243280.6875,240160.203125,236468.140625,218521.921875,238295.796875,200078.515625,227643.59375,496314.0,1.0,1
222771.625,243160.890625,239762.171875,236400.015625,218164.484375,238098.296875,199860.375,227468.171875,496315.0,1.0,1
222720.125,242975.359375,239216.34375,236325.09375,217662.015625,237793.609375,199513.375,227227.671875,496316.0,1.0,1
222743.90625,242976.703125,239270.703125,236344.671875,217705.734375,237794.953125,199515.078125,227255.109375,496317.0,1.0,1
222817.3125,243172.78125,239852.734375,236440.4375,218236.359375,238107.609375,199869.671875,227516.890625,496318.0,1.0,1
222826.609375,243282.75,240161.375,236468.140625,218525.0625,238293.5625,200086.828125,227647.796875,496319.0,1.0,1
222757.859375,243149.53125,239754.75,236390.546875,218161.4375,238090.25,199859.734375,227462.453125,496320.0,1.0,1
222708.671875,242961.59375,239209.8125,236315.703125,217661.5625,237789.765625,199514.625,227226.328125,496321.0,1.0,1
222747.125,242981.171875,239272.578125,236347.453125,217713.328125,237801.03125,199525.8125,227266.015625,496322.0,1.0,1
222811.5,243170.09375,239846.390625,236432.203125,218228.5,238098.84375,199867.078125,227515.375,496323.0,1.0,1
222816.59375,243276.75,240152.515625,236458.40625,218513.25,238280.0625,200077.265625,227641.4375,496324.0,1.0,1
222762.765625,243157.75,239757.078125,236394.828125,218163.046875,238089.71875,199860.453125,227468.703125,496325.0,1.0,1
222714.40625,242977.59375,239211.875,236320.359375,217666.21875,237793.96875,199518.03125,227236.875,496326.0,1.0,1
222743.546875,242990.828125,239269.359375,236348.34375,217711.90625,237804.15625,199524.46875,227267.265625,496327.0,1.0,1
222808.90625,243182.34375,239842.8125,236433.90625,218229.390625,238108.3125,199866.265625,227513.859375,496328.0,1.0,1
222819.015625,243288.109375,240153.5,236466.359375,218516.296875,238292.3125,200081.296875,227643.046875,496329.0,1.0,1
222750.609375,243148.71875,239748.40625,236384.546875,218155.71875,238090.796875,199857.78125,227464.234375,496330.0,1.0,1
222704.828125,242965.53125,239206.234375,236309.625,217660.765625,237792.984375,199514.453125,227227.046875,496331.0,1.0,1
222735.6875,242972.328125,239257.734375,236334.921875,217699.296875,237798.703125,199515.34375,227249.390625,496332.0,1.0,1
222821.78125,243178.046875,239847.640625,236438.375,218235.109375,238120.203125,199872.34375,227514.65625,496333.0,1.0,1
222827.046875,243281.859375,240156.625,236460.8125,218518.625,238295.171875,200077.71875,227638.046875,496334.0,1.0,1
222765.90625,243154.890625,239760.203125,236390.453125,218161.0,238093.03125,199853.03125,227462.1875,496335.0,1.0,1
222712.25,242966.78125,239208.734375,236314.09375,217654.40625,237787.796875,199501.046875,227218.28125,496336.0,1.0,1
222743.375,242977.15625,239260.140625,236342.34375,217694.640625,237792.078125,199504.171875,227246.984375,496337.0,1.0,1
222819.453125,243177.0625,239844.875,236439.71875,218223.3125,238102.953125,199856.171875,227509.125,496338.0,1.0,1
222831.609375,243288.109375,240163.0625,236471.28125,218518.171875,238290.703125,200075.65625,227646.265625,496339.0,1.0,1
222765.1875,243155.96875,239765.125,236398.140625,218164.390625,238093.390625,199856.25,227471.296875,496340.0,1.0,1
222715.921875,242969.109375,239216.15625,236323.484375,217661.65625,237790.5625,199506.9375,227232.5,496341.0,1.0,1
222745.96875,242976.703125,239263.640625,236347.0,217698.671875,237793.609375,199508.8125,227259.765625,496342.0,1.0,1
222814.8125,243164.453125,239840.75,236438.640625,218220.0,238101.4375,199855.1875,227516.71875,496343.0,1.0,1
222830.8125,243280.78125,240164.140625,236471.71875,218521.21875,238294.90625,200080.578125,227657.359375,496344.0,1.0,1
222769.390625,243155.703125,239771.203125,236399.125,218170.5625,238098.65625,199861.265625,227477.640625,496345.0,1.0,1
222728.796875,242977.6875,239233.59375,236336.265625,217679.984375,237808.53125,199522.3125,227246.703125,496346.0,1.0,1
222758.75,242986.359375,239277.40625,236363.984375,217715.03125,237810.5,199520.0,227272.1875,496347.0,1.0,1
222826.609375,243177.875,239853.546875,236445.34375,218237.609375,238116.546875,199868.234375,227533.96875,496348.0,1.0,1
222833.578125,243291.0625,240172.90625,236474.046875,218533.46875,238304.296875,200084.59375,227667.09375,496349.0,1.0,1
222765.1875,243160.265625,239775.9375,236395.71875,218175.921875,238105.453125,199859.5625,227480.859375,496350.0,1.0,1
222716.453125,242975.640625,239226.53125,236321.609375,217673.015625,237806.75,199513.296875,227240.265625,496351.0,1.0,1
222751.953125,242980.28125,239269.890625,236352.625,217706.265625,237810.859375,199511.5,227268.078125,496352.0,1.0,1
222814.53125,243163.390625,239836.109375,236437.484375,218220.453125,238107.25,199849.28125,227516.8125,496353.0,1.0,1
222824.640625,243279.96875,240158.421875,236468.328125,218520.3125,238291.15625,200071.90625,227651.90625,496354.0,1.0,1
222777.078125,243170.359375,239780.859375,236406.1875,218181.109375,238109.921875,199867.78125,227488.734375,496355.0,1.0,1
222727.71875,242972.59375,239228.40625,236328.40625,217673.015625,237808.359375,199519.8125,227245.015625,496356.0,1.0,1
222752.3125,242973.671875,239262.828125,236347.265625,217695.359375,237806.75,199512.84375,227261.015625,496357.0,1.0,1
222817.046875,243157.9375,239832.078125,236431.3125,218210.875,238102.5,199851.15625,227508.84375,496358.0,1.0,1
222825.984375,243270.9375,240155.203125,236456.96875,218513.078125,238291.421875,200075.84375,227648.328125,496359.0,1.0,1
222759.640625,243145.0625,239765.65625,236383.390625,218163.3125,238098.03125,199860.28125,227472.109375,496360.0,1.0,1
222709.125,242961.78125,239214.109375,236311.5,217660.5,237795.484375,199517.140625,227232.21875,496361.0,1.0,1
222740.515625,242971.875,239246.640625,236338.0625,217685.53125,237795.125,199510.78125,227252.25,496362.0,1.0,1
222805.6875,243159.0,239813.484375,236424.0625,218197.828125,238089.71875,199845.96875,227501.609375,496363.0,1.0,1
222816.765625,243266.46875,240141.515625,236456.875,218500.203125,238278.375,200067.34375,227636.875,496364.0,1.0,1
222758.75,243142.28125,239760.203125,236384.90625,218160.90625,238090.796875,199857.234375,227468.265625,496365.0,1.0,1
222716.015625,242965.625,239212.5,236315.96875,217663.09375,237794.3125,199513.203125,227235.53125,496366.0,1.0,1
222741.9375,242964.453125,239237.890625,236336.53125,217678.640625,237783.046875,199496.578125,227245.1875,496367.0,1.0,1
222804.609375,243142.109375,239802.765625,236418.875,218188.703125,238075.328125,199828.53125,227488.109375,496368.0,1.0,1
222826.421875,243270.3125,240144.203125,236456.515625,218505.203125,238277.125,200063.59375,227634.5625,496369.0,1.0,1
222769.46875,243156.5,239770.75,236392.328125,218170.375,238099.28125,199861.34375,227469.15625,496370.0,1.0,1
222719.59375,242969.28125,239218.84375,236318.84375,217668.0,237800.9375,199517.21875,227237.046875,496371.0,1.0,1
222751.59375,242968.65625,239246.015625,236343.6875,217687.140625,237794.859375,199507.203125,227256.8125,496372.0,1.0,1
222810.0625,243148.640625,239804.8125,236420.9375,218193.53125,238085.515625,199838.1875,227496.78125,496373.0,1.0,1
222826.15625,243269.875,240145.359375,236455.0,218510.03125,238285.15625,200070.828125,227643.59375,496374.0,1.0,1
222762.328125,243150.328125,239763.0625,236380.890625,218168.421875,238095.796875,199858.671875,227467.640625,496375.0,1.0,1
222712.703125,242962.046875,239211.328125,236308.734375,217662.453125,237795.578125,199510.703125,227225.34375,496376.0,1.0,1
222743.375,242964.375,239239.046875,236336.984375,217676.9375,237787.96875,199498.0,227240.984375,496377.0,1.0,1
222810.96875,243158.375,239807.765625,236425.765625,218193.53125,238088.46875,199835.6875,227493.296875,496378.0,1.0,1
222832.234375,243287.21875,240153.765625,236466.8125,218518.078125,238291.515625,200070.828125,227646.0,496379.0,1.0,1
222769.65625,243162.765625,239775.84375,236396.078125,218177.890625,238101.171875,199859.390625,227476.84375,496380.0,1.0,1
222712.25,242966.0625,239214.90625,236315.703125,217660.5,237791.09375,199503.453125,227229.09375,496381.0,1.0,1
222742.296875,242968.84375,239238.15625,236340.921875,217674.078125,237783.5,199492.375,227246.078125,496382.0,1.0,1
222820.171875,243168.578125,239818.21875,236438.46875,218197.828125,238089.1875,199840.609375,227502.953125,496383.0,1.0,1
222831.96875,243285.25,240157.4375,236458.9375,218511.640625,238285.796875,200070.296875,227643.40625,496384.0,1.0,1
222774.484375,243169.46875,239786.3125,236390.1875,218181.015625,238107.609375,199866.359375,227476.390625,496385.0,1.0,1
222720.484375,242980.90625,239226.796875,236312.84375,217669.25,237800.578125,199510.703125,227228.03125,496386.0,1.0,1
222751.953125,242978.765625,239251.65625,236344.046875,217685.4375,237793.875,199497.90625,227245.375,496387.0,1.0,1
222821.78125,243167.953125,239821.09375,236433.09375,218198.1875,238092.765625,199836.765625,227494.8125,496388.0,1.0,1
222832.6875,243287.03125,240163.15625,236461.984375,218513.53125,238286.859375,200066.890625,227635.8125,496389.0,1.0,1
222777.515625,243174.828125,239798.109375,236399.65625,218191.125,238113.234375,199870.5625,227476.9375,496390.0,1.0,1
222730.9375,242988.953125,239243.96875,236328.671875,217686.25,237810.234375,199523.125,227236.96875,496391.0,1.0,1
222759.90625,242984.84375,239259.078125,236352.0,217695.71875,237799.0625,199508.375,227251.265625,496392.0,1.0,1
222824.734375,243165.359375,239822.0625,236437.03125,218205.078125,238095.984375,199844.90625,227495.890625,496393.0,1.0,1
222834.03125,243278.453125,240162.796875,236464.296875,218519.421875,238295.984375,200074.234375,227638.3125,496394.0,1.0,1
222771.890625,243158.828125,239791.40625,236389.375,218188.984375,238115.640625,199872.703125,227472.46875,496395.0,1.0,1
222716.71875,242966.78125,239228.046875,236312.75,217675.0625,237804.6875,199520.984375,227227.671875,496396.0,1.0,1
222746.59375,242970.984375,239242.53125,236336.0,217682.046875,237790.5625,199500.765625,227240.8125,496397.0,1.0,1
222819.1875,243165.625,239813.9375,236431.046875,218199.34375,238090.796875,199838.1875,227494.546875,496398.0,1.0,1
222835.8125,243285.609375,240160.921875,236466.265625,218523.265625,238294.375,200074.3125,227641.171875,496399.0,1.0,1
222778.5,243169.203125,239796.40625,236400.375,218199.796875,238120.921875,199879.5,227479.890625,496400.0,1.0,1
222729.421875,242988.15625,239241.46875,236328.40625,217690.890625,237817.390625,199530.359375,227237.953125,496401.0,1.0,1
222763.671875,242995.125,239258.71875,236354.328125,217699.5625,237807.734375,199513.203125,227250.375,496402.0,1.0,1
222825.890625,243173.9375,239818.21875,236437.03125,218204.265625,238098.65625,199842.75,227494.359375,496403.0,1.0,1
222827.140625,243277.46875,240156.359375,236454.203125,218518.984375,238292.5,200072.171875,227637.15625,496404.0,1.0,1
222775.28125,243169.46875,239796.140625,236394.46875,218198.09375,238122.359375,199878.609375,227480.6875,496405.0,1.0,1
222727.359375,242986.1875,239236.8125,236321.703125,217684.71875,237815.515625,199527.6875,227236.34375,496406.0,1.0,1
222752.84375,242975.1875,239242.71875,236341.015625,217682.671875,237794.234375,199501.484375,227242.6875,496407.0,1.0,1
222823.484375,243166.703125,239810.890625,236434.078125,218198.71875,238094.734375,199840.515625,227495.96875,496408.0,1.0,1
222837.78125,243291.6875,240164.5,236470.921875,218526.125,238301.53125,200083.796875,227652.796875,496409.0,1.0,1
222763.578125,243164.546875,239787.109375,236380.703125,218190.671875,238113.0625,199879.40625,227479.078125,496410.0,1.0,1
222702.59375,242967.046875,239217.5,236293.53125,217671.671875,237799.140625,199519.734375,227227.125,496411.0,1.0,1
222739.875,242972.0625,239231.890625,236325.359375,217678.546875,237790.75,199501.671875,227244.296875,496412.0,1.0,1
222811.671875,243159.09375,239797.390625,236416.46875,218189.6875,238088.640625,199839.171875,227491.5,496413.0,1.0,1
222825.265625,243278.984375,240151.890625,236452.5,218516.390625,238292.9375,200079.5,227640.90625,496414.0,1.0,1
222759.46875,243162.046875,239785.5,236377.125,218188.265625,238111.171875,199877.53125,227475.765625,496415.0,1.0,1
222723.96875,242988.859375,239237.265625,236315.078125,217684.453125,237815.953125,199534.5625,227242.234375,496416.0,1.0,1
222756.515625,242986.359375,239241.8125,236341.8125,217677.75,237794.765625,199505.875,227250.734375,496417.0,1.0,1
222828.578125,243173.046875,239805.34375,236434.0,218185.578125,238085.703125,199838.375,227501.078125,496418.0,1.0,1
222840.828125,243288.640625,240160.75,236467.96875,218513.078125,238286.0625,200078.25,227649.578125,496419.0,1.0,1
222781.640625,243175.09375,239805.890625,236397.0625,218194.4375,238113.953125,199884.15625,227486.046875,496420.0,1.0,1
222729.953125,242993.421875,239247.1875,236320.453125,217684.546875,237811.21875,199533.234375,227239.109375,496421.0,1.0,1
222760.09375,242991.1875,239246.109375,236344.140625,217678.46875,237787.609375,199505.25,227239.5625,496422.0,1.0,1
222828.75,243173.21875,239804.8125,236436.234375,218186.65625,238082.484375,199837.390625,227488.5625,496423.0,1.0,1
222838.59375,243292.40625,240157.25,236461.890625,218515.3125,238285.34375,200074.3125,227636.078125,496424.0,1.0,1
222782.625,243185.203125,239805.34375,236400.828125,218202.125,238116.984375,199885.84375,227481.40625,496425.0,1.0,1
222733.171875,242992.265625,239244.5,236327.78125,217689.109375,237813.71875,199535.90625,227241.96875,496426.0,1.0,1
222751.59375,242978.578125,239231.53125,236342.265625,217672.46875,237785.375,199498.53125,227241.96875,496427.0,1.0,1
222823.921875,243166.34375,239792.296875,236434.796875,218184.859375,238084.984375,199837.84375,227494.90625,496428.0,1.0,1
222836.890625,243289.453125,240152.34375,236467.609375,218520.140625,238294.015625,200080.84375,227648.328125,496429.0,1.0,1
222774.03125,243172.6875,239792.203125,236394.5625,218196.84375,238111.890625,199882.1875,227481.5,496430.0,1.0,1
222735.140625,242994.671875,239243.25,236329.828125,217690.890625,237814.078125,199541.546875,227250.828125,496431.0,1.0,1
222757.859375,242984.65625,239234.9375,236352.1875,217675.78125,237782.96875,199506.3125,227254.484375,496432.0,1.0,1
222817.3125,243160.96875,239788.453125,236430.421875,218177.71875,238073.09375,199829.078125,227496.421875,496433.0,1.0,1
222835.90625,243286.765625,240154.3125,236462.328125,218513.890625,238282.03125,200076.015625,227647.96875,496434.0,1.0,1
222771.265625,243169.640625,239795.875,236389.921875,218190.234375,238103.84375,199880.390625,227482.125,496435.0,1.0,1
222722.71875,242983.59375,239235.65625,236317.234375,217674.796875,237800.40625,199526.25,227238.390625,496436.0,1.0,1
222752.84375,242980.46875,239232.15625,236342.078125,217665.859375,237776.34375,199494.328125,227243.84375,496437.0,1.0,1
222827.140625,243170.453125,239798.734375,236435.953125,218175.75,238074.515625,199828.984375,227489.625,496438.0,1.0,1
222845.921875,243296.515625,240169.859375,236476.453125,218519.96875,238291.328125,200077.984375,227642.96875,496439.0,1.0,1
222783.953125,243185.46875,239821.625,236405.921875,218210.609375,238122.625,199888.796875,227482.203125,496440.0,1.0,1
222723.25,242988.859375,239247.265625,236322.234375,217683.109375,237804.875,199523.296875,227221.671875,496441.0,1.0,1
222758.21875,242983.859375,239240.03125,236352.28125,217672.734375,237785.375,199493.796875,227230.890625,496442.0,1.0,1
222821.421875,243162.5,239793.109375,236431.75,218176.375,238071.296875,199822.640625,227477.921875,496443.0,1.0,1
222833.40625,243289.265625,240158.234375,236460.015625,218516.390625,238281.234375,200067.96875,227631.609375,496444.0,1.0,1
222776.625,243182.703125,239812.59375,236393.484375,218209.90625,238112.078125,199883.609375,227476.390625,496445.0,1.0,1
222725.9375,242996.375,239249.6875,236320.0,217694.640625,237810.0625,199533.40625,227232.671875,496446.0,1.0,1
222752.40625,242984.125,239233.0625,236341.640625,217671.484375,237781.890625,199491.828125,227233.75,496447.0,1.0,1
222813.46875,243161.78125,239780.671875,236423.53125,218167.875,238066.921875,199813.703125,227474.421875,496448.0,1.0,1
222832.859375,243294.28125,240154.9375,236461.34375,218512.984375,238282.03125,200068.15625,227634.46875,496449.0,1.0,1
222772.421875,243184.125,239809.546875,236391.53125,218204.4375,238114.9375,199884.859375,227481.765625,496450.0,1.0,1
222732.1875,243006.203125,239254.96875,236326.4375,217697.78125,237821.5,199540.203125,227244.65625,496451.0,1.0,1
222745.25,242982.96875,239221.515625,236332.421875,217659.328125,237777.78125,199484.671875,227225.515625,496452.0,1.0,1
222812.390625,243162.046875,239775.3125,236420.40625,218159.65625,238066.921875,199814.40625,227471.203125,496453.0,1.0,1
222837.421875,243298.21875,240157.25,236464.5625,218514.421875,238290.53125,200073.6875,227640.015625,496454.0,1.0,1
222782.796875,243193.34375,239819.65625,236403.765625,218213.5625,238128.96875,199892.46875,227489.1875,496455.0,1.0,1
222726.296875,242997.453125,239250.140625,236325.09375,217695.265625,237818.640625,199535.90625,227241.609375,496456.0,1.0,1
222746.671875,242975.640625,239221.875,236343.609375,217664.875,237779.828125,199490.3125,227234.8125,496457.0,1.0,1
222823.125,243159.8125,239781.5625,236438.1875,218173.15625,238076.578125,199824.875,227483.8125,496458.0,1.0,1
222823.65625,243279.890625,240143.671875,236449.640625,218509.5,238282.65625,200065.640625,227633.21875,496459.0,1.0,1
222766.53125,243176.078125,239808.390625,236385.171875,218211.0625,238126.375,199888.0,227486.140625,496460.0,1.0,1
222723.25,242989.3125,239249.859375,236318.84375,217702.6875,237831.875,199542.34375,227245.1875,496461.0,1.0,1
222741.578125,242967.859375,239217.234375,236329.390625,217665.671875,237783.765625,199489.6875,227233.390625,496462.0,1.0,1
222814.0,243147.921875,239774.953125,236422.453125,218166.8125,238070.9375,199816.640625,227479.171875,496463.0,1.0,1
222836.53125,243282.75,240156.8125,236462.609375,218519.34375,238291.6875,200071.015625,227641.890625,496464.0,1.0,1
222783.515625,243184.84375,239826.0,236399.390625,218226.171875,238137.28125,199896.671875,227495.265625,496465.0,1.0,1
222730.9375,242999.421875,239262.109375,236326.796875,217709.40625,237830.703125,199542.171875,227246.4375,496466.0,1.0,1
222752.21875,242979.65625,239229.296875,236344.140625,217673.546875,237788.953125,199491.203125,227234.640625,496467.0,1.0,1
222820.34375,243158.734375,239779.15625,236430.59375,218171.1875,238077.5625,199816.921875,227477.109375,496468.0,1.0,1
222836.0,243293.125,240159.484375,236464.921875,218522.46875,238290.625,200069.3125,227635.265625,496469.0,1.0,1
222781.71875,243194.40625,239829.21875,236404.671875,218228.859375,238135.140625,199896.671875,227490.171875,496470.0,1.0,1
222729.25,243000.046875,239259.703125,236331.53125,217709.84375,237830.0,199542.25,227245.375,496471.0,1.0,1
222742.203125,242974.03125,239215.0,236336.1875,217661.828125,237781.53125,199484.140625,227228.5625,496472.0,1.0,1
222807.203125,243154.265625,239762.25,236417.546875,218156.703125,238070.3125,199808.78125,227468.171875,496473.0,1.0,1
222833.9375,243289.625,240151.890625,236464.5625,218513.796875,238296.25,200069.9375,227636.078125,496474.0,1.0,1
222768.765625,243175.71875,239812.421875,236388.578125,218208.015625,238124.671875,199885.671875,227480.59375,496475.0,1.0,1
222718.0625,242989.21875,239247.1875,236319.28125,217692.671875,237821.5,199535.546875,227240.71875,496476.0,1.0,1
222742.921875,242976.703125,239214.375,236339.671875,217658.265625,237784.9375,199487.546875,227236.15625,496477.0,1.0,1
222805.59375,243151.5,239757.078125,236416.015625,218147.9375,238061.46875,199803.59375,227467.546875,496478.0,1.0,1
222829.5625,243282.5625,240146.34375,236456.515625,218506.109375,238283.109375,200058.3125,227629.015625,496479.0,1.0,1
222784.140625,243187.4375,239829.671875,236402.703125,218224.390625,238133.0,199889.78125,227486.140625,496480.0,1.0,1
222729.6875,242995.921875,239261.671875,236324.5625,217701.359375,237823.375,199532.609375,227236.875,496481.0,1.0,1
222753.5625,242985.203125,239224.5625,236343.25,217661.296875,237783.859375,199481.640625,227229.90625,496482.0,1.0,1
222816.0625,243155.34375,239767.171875,236425.671875,218151.609375,238065.484375,199801.71875,227466.296875,496483.0,1.0,1
222827.953125,243279.609375,240150.8125,236461.625,218507.984375,238287.3125,200059.5625,227629.1875,496484.0,1.0,1
222773.859375,243182.609375,239826.0,236402.34375,218220.8125,238134.875,199887.8125,227485.15625,496485.0,1.0,1
222723.875,243001.921875,239260.0625,236330.640625,217705.828125,237832.5,199538.0625,227244.03125,496486.0,1.0,1
222735.5,242971.78125,239208.828125,236335.203125,217652.09375,237780.8125,199476.546875,227226.765625,496487.0,1.0,1
222800.046875,243143.0,239753.671875,236414.765625,218142.578125,238061.203125,199793.484375,227465.3125,496488.0,1.0,1
222815.875,243268.078125,240142.421875,236454.109375,218500.734375,238280.34375,200051.96875,227628.296875,496489.0,1.0,1
222757.5,243166.78125,239816.703125,236387.5,218210.171875,238121.109375,199878.875,227477.734375,496490.0,1.0,1
222710.015625,242982.515625,239249.6875,236312.3125,217691.96875,237809.078125,199524.46875,227231.25,496491.0,1.0,1
222739.609375,242966.6875,239209.8125,236334.484375,217651.375,237765.890625,199472.609375,227223.90625,496492.0,1.0,1
222815.703125,243149.171875,239760.828125,236425.59375,218150.0,238056.109375,199799.84375,227469.25,496493.0,1.0,1
222844.75,243293.75,240161.1875,236474.140625,218521.484375,238290.265625,200069.21875,227644.296875,496494.0,1.0,1
222779.671875,243187.4375,239834.765625,236402.34375,218228.859375,238133.890625,199891.125,227493.734375,496495.0,1.0,1
222716.375,242989.671875,239255.40625,236312.3125,217697.421875,237819.890625,199526.4375,227241.171875,496496.0,1.0,1
222742.125,242968.484375,239209.984375,236334.75,217649.9375,237780.28125,199475.46875,227227.578125,496497.0,1.0,1
222812.75,243148.015625,239755.90625,236425.671875,218144.09375,238068.53125,199804.046875,227474.609375,496498.0,1.0,1
222826.875,243278.640625,240146.078125,236459.46875,218505.296875,238291.78125,200066.265625,227638.484375,496499.0,1.0,1
222779.484375,243187.890625,239835.65625,236398.59375,218231.265625,238150.34375,199908.203125,227502.859375,496500.0,1.0,1
222724.5,242996.734375,239264.078125,236321.78125,217708.59375,237841.703125,199549.40625,227252.078125,496501.0,1.0,1
222734.515625,242967.765625,239201.578125,236323.3125,217648.6875,237783.765625,199479.3125,227224.890625,496502.0,1.0,1
222800.140625,243142.109375,239746.875,236410.75,218144.28125,238069.78125,199804.84375,227466.03125,496503.0,1.0,1
222813.546875,243269.78125,240138.75,236447.578125,218504.234375,238288.203125,200063.140625,227630.359375,496504.0,1.0,1
222762.0625,243176.171875,239825.109375,236387.671875,218223.3125,238133.625,199898.1875,227486.328125,496505.0,1.0,1
222715.109375,242996.546875,239261.578125,236317.765625,217709.046875,237831.515625,199552.09375,227244.65625,496506.0,1.0,1
222734.96875,242963.921875,239202.296875,236331.078125,217647.703125,237770.53125,199483.0625,227217.921875,496507.0,1.0,1
222809.53125,243144.171875,239749.109375,236422.546875,218141.5,238052.703125,199802.875,227456.375,496508.0,1.0,1
222837.875,243285.25,240157.609375,236465.109375,218522.90625,238290.265625,200077.0,227636.25,496509.0,1.0,1
222783.515625,243185.296875,239846.296875,236407.34375,218248.171875,238138.453125,199910.875,227498.21875,496510.0,1.0,1
222728.265625,242991.453125,239272.671875,236324.734375,217722.0,237825.515625,199546.1875,227246.078125,496511.0,1.0,1
222739.703125,242957.296875,239205.25,236325.09375,217651.734375,237763.03125,199471.265625,227217.65625,496512.0,1.0,1
222811.671875,243142.015625,239750.1875,236415.65625,218145.703125,238047.25,199796.0,227464.421875,496513.0,1.0,1
222824.546875,243271.84375,240148.046875,236451.875,218514.15625,238276.3125,200062.515625,227632.328125,496514.0,1.0,1
222767.15625,243176.359375,239837.71875,236390.625,218240.65625,238135.234375,199903.1875,227495.53125,496515.0,1.0,1
222716.1875,242992.359375,239267.5625,236314.90625,217721.296875,237835.0,199551.828125,227247.515625,496516.0,1.0,1
222740.421875,242962.046875,239203.46875,236330.1875,217656.828125,237784.484375,199484.046875,227220.328125,496517.0,1.0,1
222803.359375,243131.921875,239736.421875,236411.375,218133.90625,238058.703125,199793.484375,227449.65625,496518.0,1.0,1
222831.96875,243283.8125,240151.0,236466.453125,218513.34375,238292.9375,200067.34375,227631.34375,496519.0,1.0,1
222784.3125,243200.765625,239856.84375,236413.96875,218254.609375,238158.109375,199914.375,227503.671875,496520.0,1.0,1
222727.90625,243007.8125,239283.296875,236328.40625,217730.234375,237847.609375,199552.359375,227249.484375,496521.0,1.0,1
222734.96875,242967.40625,239206.140625,236327.421875,217651.546875,237777.953125,199471.09375,227215.59375,496522.0,1.0,1
222798.984375,243141.296875,239740.703125,236408.328125,218134.171875,238049.671875,199785.0,227453.78125,496523.0,1.0,1
222824.734375,243286.046875,240153.046875,236459.390625,218514.328125,238283.46875,200057.421875,227634.46875,496524.0,1.0,1
222773.59375,243196.015625,239853.546875,236403.953125,218248.515625,238143.546875,199904.265625,227505.546875,496525.0,1.0,1
222714.40625,243000.484375,239271.328125,236318.125,217717.265625,237830.96875,199540.828125,227252.609375,496526.0,1.0,1
222734.515625,242971.15625,239203.1875,236331.359375,217651.109375,237775.90625,199473.765625,227230.171875,496527.0,1.0,1
222804.078125,243144.875,239741.0625,236418.4375,218136.40625,238057.625,199794.296875,227465.21875,496528.0,1.0,1
222824.90625,243280.421875,240149.75,236460.90625,218511.375,238291.421875,200063.953125,227635.359375,496529.0,1.0,1
222773.859375,243188.421875,239851.65625,236401.8125,218244.765625,238147.65625,199908.5625,227496.421875,496530.0,1.0,1
222721.546875,243002.359375,239277.671875,236320.359375,217720.125,237842.515625,199553.796875,227249.21875,496531.0,1.0,1
222749.53125,242977.59375,239211.78125,236341.71875,217656.46875,237789.21875,199487.625,227232.859375,496532.0,1.0,1
222824.109375,243152.484375,239753.046875,236436.859375,218146.953125,238068.53125,199808.78125,227475.40625,496533.0,1.0,1
222836.0,243284.359375,240156.625,236464.03125,218517.28125,238294.109375,200070.203125,227641.265625,496534.0,1.0,1
222779.9375,243192.265625,239859.53125,236397.78125,218253.265625,238153.015625,199911.234375,227505.0,496535.0,1.0,1
222727.640625,243004.421875,239286.96875,236324.640625,217731.578125,237846.984375,199555.21875,227258.328125,496536.0,1.0,1
222745.96875,242974.203125,239211.0625,236335.109375,217655.84375,237788.421875,199479.859375,227234.546875,496537.0,1.0,1
222809.265625,243145.78125,239741.15625,236417.1875,218134.796875,238064.5,199790.265625,227469.25,496538.0,1.0,1
222833.3125,243292.3125,240155.296875,236462.421875,218521.84375,238308.046875,200068.78125,227645.375,496539.0,1.0,1
222777.96875,243203.0,239857.296875,236398.859375,218260.234375,238171.34375,199918.03125,227508.578125,496540.0,1.0,1
222721.640625,243012.109375,239278.296875,236318.65625,217731.75,237857.796875,199558.265625,227258.15625,496541.0,1.0,1
222744.359375,242977.0625,239200.6875,236333.40625,217652.625,237790.921875,199481.109375,227230.34375,496542.0,1.0,1
222815.4375,243151.046875,239737.671875,236426.75,218134.96875,238065.671875,199796.796875,227472.734375,496543.0,1.0,1
222833.046875,243287.03125,240145.90625,236458.125,218508.96875,238292.9375,200061.4375,227643.046875,496544.0,1.0,1
222774.125,243189.578125,239845.21875,236388.578125,218239.84375,238147.921875,199900.0625,227500.625,496545.0,1.0,1
222719.5,242998.25,239268.546875,236313.203125,217713.875,237835.71875,199543.234375,227253.421875,496546.0,1.0,1
222739.796875,242965.171875,239190.859375,236325.984375,217637.515625,237777.328125,199472.078125,227229.984375,496547.0,1.0,1
222814.359375,243144.515625,239732.3125,236421.03125,218125.234375,238061.203125,199793.578125,227474.78125,496548.0,1.0,1
222834.5625,243291.421875,240149.125,236459.296875,218508.34375,238295.359375,200066.265625,227651.09375,496549.0,1.0,1
222773.328125,243192.53125,239851.03125,236393.21875,218245.125,238154.625,199909.71875,227512.421875,496550.0,1.0,1
222720.03125,243003.265625,239278.203125,236313.375,217725.578125,237853.59375,199556.65625,227266.203125,496551.0,1.0,1
222739.4375,242970.09375,239198.1875,236325.28125,217647.796875,237788.859375,199480.65625,227239.375,496552.0,1.0,1
222804.53125,243138.625,239729.171875,236410.203125,218126.125,238063.171875,199790.265625,227470.3125,496553.0,1.0,1
222830.1875,243280.953125,240155.015625,236457.859375,218517.28125,238306.265625,200068.0625,227652.265625,496554.0,1.0,1
222780.65625,243194.859375,239869.359375,236400.015625,218264.265625,238169.5625,199919.46875,227521.640625,496555.0,1.0,1
222724.953125,243004.6875,239292.875,236315.625,217736.75,237856.09375,199560.5,227267.265625,496556.0,1.0,1
222744.890625,242968.75,239205.96875,236325.359375,217651.109375,237786.71875,199480.921875,227236.421875,496557.0,1.0,1
222823.484375,243146.484375,239743.390625,236420.046875,218140.15625,238074.4375,199802.078125,227482.46875,496558.0,1.0,1
222842.515625,243279.53125,240156.546875,236462.0625,218520.765625,238306.796875,200075.21875,227655.5625,496559.0,1.0,1
222776.359375,243183.59375,239859.53125,236393.484375,218255.234375,238163.578125,199918.578125,227515.734375,496560.0,1.0,1
222723.875,242997.0,239284.015625,236315.265625,217727.1875,237853.0625,199560.59375,227263.421875,496561.0,1.0,1
222746.140625,242968.03125,239198.09375,236331.359375,217643.234375,237791.09375,199484.140625,227232.859375,496562.0,1.0,1
222802.5625,243129.140625,239717.203125,236408.0625,218115.75,238056.640625,199788.9375,227464.59375,496563.0,1.0,1
222822.3125,243268.625,240135.703125,236443.5625,218499.125,238289.71875,200060.109375,227640.09375,496564.0,1.0,1
222765.453125,243179.578125,239847.90625,236377.9375,218240.203125,238153.28125,199908.46875,227507.328125,496565.0,1.0,1
222725.40625,243004.25,239283.578125,236315.34375,217725.9375,237854.140625,199562.015625,227268.53125,496566.0,1.0,1
222743.546875,242968.296875,239195.59375,236322.859375,217641.09375,237786.625,199481.109375,227243.046875,496567.0,1.0,1
222798.09375,243128.78125,239714.6875,236397.875,218109.765625,238046.625,199777.84375,227466.65625,496568.0,1.0,1
222831.078125,243284.890625,240148.859375,236450.4375,218511.375,238294.015625,200064.578125,227646.53125,496569.0,1.0,1
222781.8125,243201.75,239871.515625,236400.46875,218268.90625,238172.78125,199927.515625,227525.484375,496570.0,1.0,1
222722.984375,243007.109375,239287.859375,236312.578125,217736.84375,237854.671875,199566.046875,227270.40625,496571.0,1.0,1
222735.953125,242965.796875,239187.546875,236315.171875,217637.15625,237772.953125,199474.9375,227229.28125,496572.0,1.0,1
222807.203125,243139.78125,239718.171875,236404.578125,218115.21875,238046.890625,199788.484375,227465.578125,496573.0,1.0,1
222840.734375,243290.4375,240154.84375,236459.46875,218516.75,238299.375,200077.453125,227660.21875,496574.0,1.0,1
222794.328125,243212.109375,239881.96875,236406.640625,218276.234375,238174.390625,199938.6875,227539.703125,496575.0,1.0,1
222735.953125,243018.375,239298.6875,236324.109375,217745.875,237861.109375,199575.25,227285.15625,496576.0,1.0,1
222754.359375,242978.3125,239199.53125,236332.515625,217648.25,237785.296875,199485.03125,227247.78125,496577.0,1.0,1
222816.953125,243144.171875,239717.640625,236410.03125,218115.75,238051.453125,199788.578125,227474.515625,496578.0,1.0,1
222847.703125,243300.8125,240154.484375,236464.390625,218517.8125,238301.890625,200079.0625,227666.46875,496579.0,1.0,1
222777.25,243198.796875,239864.09375,236389.203125,218258.453125,238162.671875,199924.296875,227527.625,496580.0,1.0,1
222716.546875,243000.484375,239282.046875,236303.90625,217725.484375,237847.421875,199558.984375,227270.671875,496581.0,1.0,1
222738.09375,242964.375,239184.328125,236318.390625,217630.0,237775.359375,199472.875,227237.140625,496582.0,1.0,1
222808.09375,243135.3125,239710.484375,236412.0,218105.375,238047.875,199782.40625,227473.53125,496583.0,1.0,1
222830.90625,243278.0,240141.703125,236459.921875,218501.28125,238293.65625,200063.953125,227652.4375,496584.0,1.0,1
222763.125,243181.265625,239858.015625,236383.65625,218248.515625,238157.046875,199917.859375,227519.765625,496585.0,1.0,1
222708.40625,242991.640625,239280.4375,236304.984375,217721.109375,237849.3125,199567.015625,227272.8125,496586.0,1.0,1
222732.109375,242959.09375,239179.40625,236322.59375,217620.96875,237775.09375,199479.578125,227239.28125,496587.0,1.0,1
222795.140625,243124.5,239693.140625,236396.625,218081.875,238032.140625,199774.0,227461.46875,496588.0,1.0,1
222827.328125,243278.71875,240133.65625,236452.140625,218484.296875,238275.515625,200059.75,227649.40625,496589.0,1.0,1
222773.859375,243189.5,239863.015625,236391.703125,218245.03125,238148.109375,199923.21875,227527.8125,496590.0,1.0,1
222718.15625,242990.828125,239284.375,236310.796875,217719.234375,237837.6875,199565.328125,227277.375,496591.0,1.0,1
222744.265625,242964.28125,239186.65625,236327.953125,217627.140625,237765.703125,199480.828125,227245.640625,496592.0,1.0,1
222804.96875,243130.578125,239700.390625,236406.1875,218090.265625,238031.0625,199779.90625,227470.140625,496593.0,1.0,1
222827.765625,243275.6875,240138.65625,236454.640625,218492.609375,238278.015625,200066.71875,227656.90625,496594.0,1.0,1
222771.890625,243196.015625,239871.15625,236393.21875,218258.359375,238151.671875,199932.703125,227533.078125,496595.0,1.0,1
222716.015625,243005.40625,239293.40625,236314.984375,217730.953125,237841.4375,199574.984375,227278.625,496596.0,1.0,1
222736.578125,242964.1875,239186.125,236323.390625,217624.90625,237767.40625,199480.203125,227236.875,496597.0,1.0,1
222804.96875,243134.421875,239705.484375,236408.6875,218091.703125,238036.4375,199780.703125,227469.0625,496598.0,1.0,1
222836.078125,243286.59375,240151.171875,236460.90625,218500.203125,238287.578125,200070.828125,227658.875,496599.0,1.0,1
222786.203125,243205.859375,239888.40625,236404.046875,218266.671875,238164.375,199937.171875,227536.296875,496600.0,1.0,1
222731.75,243021.765625,239311.375,236328.046875,217740.78125,237857.984375,199582.21875,227287.21875,496601.0,1.0,1
222736.125,242965.890625,239187.8125,236322.328125,217624.546875,237769.734375,199477.34375,227237.765625,496602.0,1.0,1
222803.625,243127.625,239702.265625,236402.609375,218091.078125,238037.421875,199779.1875,227466.828125,496603.0,1.0,1
222835.640625,243279.53125,240145.984375,236452.953125,218500.65625,238291.421875,200070.390625,227654.9375,496604.0,1.0,1
222784.234375,243198.171875,239884.5625,236395.375,218270.0625,238168.9375,199936.90625,227534.421875,496605.0,1.0,1
222732.8125,243013.359375,239305.5625,236320.890625,217744.53125,237861.203125,199580.34375,227283.015625,496606.0,1.0,1
222745.875,242971.609375,239186.921875,236325.90625,217634.390625,237780.90625,199483.78125,227240.1875,496607.0,1.0,1
222800.859375,243128.703125,239692.4375,236400.015625,218090.71875,238036.609375,199777.125,227461.46875,496608.0,1.0,1
222833.84375,243281.21875,240139.640625,236455.453125,218503.421875,238292.9375,200068.421875,227657.453125,496609.0,1.0,1
222784.3125,243202.546875,239880.09375,236400.015625,218274.890625,238168.40625,199932.4375,227538.4375,496610.0,1.0,1
222727.359375,243010.6875,239298.953125,236317.234375,217745.609375,237855.75,199572.828125,227284.265625,496611.0,1.0,1
222740.421875,242963.65625,239174.9375,236318.125,217626.875,237766.78125,199468.9375,227235.265625,496612.0,1.0,1
222808.375,243132.28125,239693.0625,236403.765625,218092.0625,238033.65625,199772.65625,227466.03125,496613.0,1.0,1
222843.5,243287.75,240148.765625,236458.3125,218507.890625,238293.5625,200069.046875,227660.21875,496614.0,1.0,1
222794.6875,243211.578125,239895.921875,236404.484375,218282.140625,238175.734375,199939.5,227541.75,496615.0,1.0,1
222732.90625,243019.0,239312.984375,236322.40625,217750.34375,237861.734375,199579.09375,227285.609375,496616.0,1.0,1
222752.671875,242981.0,239193.8125,236330.1875,217635.734375,237780.015625,199478.6875,227238.3125,496617.0,1.0,1
222825.71875,243143.546875,239710.578125,236417.625,218101.265625,238048.5,199782.5,227468.171875,496618.0,1.0,1
222855.3125,243290.703125,240158.421875,236468.953125,218510.578125,238300.09375,200076.203125,227662.8125,496619.0,1.0,1
222799.78125,243210.78125,239902.53125,236412.984375,218284.640625,238180.109375,199948.796875,227545.515625,496620.0,1.0,1
222730.140625,243013.546875,239312.8125,236319.734375,217748.46875,237859.765625,199582.671875,227283.90625,496621.0,1.0,1
222742.390625,242965.34375,239187.90625,236322.765625,217632.234375,237774.46875,199481.1875,227237.859375,496622.0,1.0,1
222814.53125,243133.25,239704.953125,236416.296875,218099.03125,238042.609375,199786.078125,227470.40625,496623.0,1.0,1
222836.890625,243280.15625,240145.015625,236451.515625,218501.8125,238286.953125,200072.359375,227650.5625,496624.0,1.0,1
222778.328125,243191.734375,239885.015625,236389.015625,218274.0,238164.015625,199941.8125,227531.828125,496625.0,1.0,1
222723.34375,242998.703125,239303.515625,236310.96875,217743.1875,237852.703125,199582.140625,227279.609375,496626.0,1.0,1
222741.3125,242956.5,239177.0,236319.1875,217619.984375,237764.28125,199473.140625,227231.421875,496627.0,1.0,1
222814.8125,243131.203125,239691.171875,236405.296875,218086.703125,238031.875,199774.453125,227460.390625,496628.0,1.0,1
222855.03125,243293.296875,240153.953125,236463.234375,218512.546875,238294.109375,200079.0625,227663.34375,496629.0,1.0,1
222801.390625,243214.625,239904.953125,236408.6875,218291.609375,238172.25,199952.375,227545.953125,496630.0,1.0,1
222735.234375,243016.046875,239317.8125,236321.515625,217755.4375,237857.078125,199587.859375,227288.015625,496631.0,1.0,1
222747.484375,242968.5625,239185.046875,236325.359375,217632.859375,237769.640625,199482.4375,227239.734375,496632.0,1.0,1
222813.28125,243131.640625,239693.40625,236410.203125,218094.203125,238031.6875,199777.3125,227466.03125,496633.0,1.0,1
222844.84375,243286.765625,240151.453125,236466.53125,218512.984375,238289.984375,200075.21875,227659.859375,496634.0,1.0,1
222793.890625,243213.28125,239900.484375,236410.5625,218289.734375,238170.984375,199947.453125,227543.09375,496635.0,1.0,1
222730.046875,243019.171875,239310.03125,236326.171875,217750.53125,237854.40625,199583.75,227282.828125,496636.0,1.0,1
222745.0625,242969.015625,239178.78125,236329.125,217624.90625,237765.796875,199479.5,227232.140625,496637.0,1.0,1
222819.71875,243138.078125,239692.609375,236416.5625,218090.8125,238033.21875,199782.140625,227462.265625,496638.0,1.0,1
222838.40625,243279.4375,240136.96875,236455.890625,218498.328125,238278.90625,200067.4375,227648.234375,496639.0,1.0,1
222787.625,243201.203125,239892.4375,236397.515625,218279.8125,238162.5,199942.4375,227531.5625,496640.0,1.0,1
222728.078125,243005.578125,239308.421875,236309.984375,217749.28125,237848.859375,199582.9375,227273.078125,496641.0,1.0,1
222746.40625,242958.5625,239179.59375,236320.453125,217624.546875,237758.640625,199476.1875,227225.78125,496642.0,1.0,1
222825.71875,243140.234375,239701.109375,236423.265625,218093.21875,238032.234375,199780.609375,227464.859375,496643.0,1.0,1
222847.171875,243282.75,240149.921875,236461.0,218503.421875,238280.421875,200066.453125,227647.96875,496644.0,1.0,1
222793.53125,243196.640625,239903.96875,236400.640625,218286.15625,238169.734375,199942.171875,227531.109375,496645.0,1.0,1
222742.125,243012.734375,239325.765625,236325.453125,217758.390625,237862.71875,199584.546875,227280.328125,496646.0,1.0,1
222761.34375,242972.5,239193.71875,236333.140625,217630.09375,237768.84375,199473.6875,227232.140625,496647.0,1.0,1
222828.390625,243137.8125,239700.296875,236419.234375,218084.8125,238028.75,199769.078125,227455.65625,496648.0,1.0,1
222849.046875,243287.484375,240149.203125,236461.171875,218497.15625,238278.8125,200060.640625,227648.59375,496649.0,1.0,1
222800.234375,243210.328125,239911.03125,236408.25,218287.6875,238174.5625,199945.578125,227542.015625,496650.0,1.0,1
222738.625,243012.46875,239324.4375,236325.453125,217754.734375,237860.921875,199584.8125,227284.171875,496651.0,1.0,1
222751.6875,242965.53125,239181.46875,236330.90625,217621.875,237766.15625,199473.59375,227233.65625,496652.0,1.0,1
222821.953125,243138.625,239692.609375,236416.46875,218082.21875,238031.15625,199773.46875,227460.84375,496653.0,1.0,1
222846.09375,243287.125,240149.921875,236463.234375,218502.34375,238286.953125,200071.71875,227654.859375,496654.0,1.0,1
222794.59375,243209.609375,239910.765625,236405.921875,218293.5,238175.109375,199955.5,227546.84375,496655.0,1.0,1
222731.296875,243012.5625,239323.53125,236317.40625,217758.03125,237859.5,199590.890625,227288.90625,496656.0,1.0,1
222752.484375,242962.671875,239186.296875,236326.890625,217622.9375,237769.640625,199481.109375,227238.390625,496657.0,1.0,1
222824.546875,243126.734375,239692.96875,236421.203125,218077.578125,238025.609375,199774.0,227460.84375,496658.0,1.0,1
222847.171875,243280.25,240147.78125,236461.984375,218497.34375,238283.90625,200068.6875,227651.71875,496659.0,1.0,1
222811.046875,243223.296875,239929.265625,236425.40625,218302.4375,238190.390625,199966.40625,227555.875,496660.0,1.0,1
222756.875,243034.828125,239350.0,236347.171875,217776.359375,237879.609375,199608.78125,227302.046875,496661.0,1.0,1
222754.1875,242968.484375,239186.125,236325.453125,217621.515625,237765.53125,199474.21875,227223.015625,496662.0,1.0,1
222821.6875,243135.671875,239688.859375,236411.46875,218078.5625,238025.96875,199769.984375,227449.3125,496663.0,1.0,1
222857.1875,243296.609375,240157.34375,236468.765625,218512.71875,238293.65625,200077.359375,227655.03125,496664.0,1.0,1
222801.578125,243217.484375,239921.140625,236409.578125,218305.296875,238184.484375,199958.359375,227545.15625,496665.0,1.0,1
222740.78125,243022.296875,239334.359375,236325.8125,217771.625,237870.671875,199597.421875,227290.4375,496666.0,1.0,1
222755.53125,242970.171875,239183.609375,236328.40625,217630.09375,237773.75,199484.234375,227232.3125,496667.0,1.0,1
222814.984375,243123.78125,239675.078125,236406.1875,218072.03125,238018.90625,199763.0,227443.3125,496668.0,1.0,1
222850.390625,243286.328125,240146.53125,236464.84375,218505.65625,238284.625,200067.96875,227646.1875,496669.0,1.0,1
222802.921875,243218.375,239920.953125,236416.921875,218309.140625,238185.921875,199959.609375,227545.859375,496670.0,1.0,1
222733.625,243017.828125,239326.9375,236321.25,217766.890625,237866.296875,199589.546875,227282.203125,496671.0,1.0,1
222751.78125,242970.984375,239179.5,236327.859375,217626.515625,237772.6875,199477.265625,227229.453125,496672.0,1.0,1
222809.359375,243127.890625,239671.328125,236401.625,218071.765625,238027.40625,199764.796875,227447.703125,496673.0,1.0,1
222843.234375,243290.96875,240140.53125,236459.03125,218504.765625,238293.484375,200071.453125,227652.890625,496674.0,1.0,1
222800.5,243233.578125,239920.421875,236417.546875,218309.40625,238192.890625,199966.84375,227557.671875,496675.0,1.0,1
222727.546875,243020.34375,239324.078125,236317.671875,217765.375,237869.25,199595.359375,227291.40625,496676.0,1.0,1
222744.265625,242965.265625,239171.453125,236320.359375,217619.359375,237767.671875,199474.390625,227231.515625,496677.0,1.0,1
222819.90625,243134.859375,239675.359375,236408.875,218071.671875,238029.640625,199765.0625,227458.78125,496678.0,1.0,1
222848.0625,243293.75,240145.90625,236465.109375,218501.984375,238293.03125,200070.03125,227662.453125,496679.0,1.0,1
222781.90625,243211.40625,239911.484375,236398.671875,218293.765625,238180.015625,199952.8125,227548.015625,496680.0,1.0,1
222724.6875,243019.703125,239329.265625,236317.9375,217762.59375,237866.734375,199593.75,227291.0625,496681.0,1.0,1
222739.078125,242966.78125,239170.65625,236321.609375,217612.296875,237757.484375,199468.671875,227228.296875,496682.0,1.0,1
222811.234375,243131.828125,239667.484375,236407.625,218063.1875,238014.796875,199760.328125,227450.109375,496683.0,1.0,1
222844.484375,243288.296875,240138.921875,236465.28125,218497.515625,238285.34375,200065.5625,227653.59375,496684.0,1.0,1
222795.3125,243221.6875,239916.484375,236403.953125,218303.15625,238185.828125,199956.296875,227546.40625,496685.0,1.0,1
222746.3125,243043.9375,239344.28125,236329.296875,217781.640625,237882.46875,199606.8125,227298.75,496686.0,1.0,1
222756.421875,242987.4375,239184.0625,236331.984375,217631.890625,237778.21875,199483.15625,227238.84375,496687.0,1.0,1
222810.515625,243134.421875,239667.578125,236405.734375,218069.265625,238022.484375,199758.625,227448.5,496688.0,1.0,1
222839.84375,243285.25,240136.515625,236458.765625,218499.578125,238283.734375,200059.828125,227648.140625,496689.0,1.0,1
222792.90625,243219.09375,239921.3125,236410.65625,218308.78125,238187.890625,199959.703125,227553.375,496690.0,1.0,1
222731.03125,243025.796875,239335.515625,236324.5625,217775.203125,237875.234375,199605.375,227300.53125,496691.0,1.0,1
222744.796875,242966.15625,239172.890625,236326.171875,217620.890625,237768.75,199479.765625,227235.71875,496692.0,1.0,1
222812.578125,243124.859375,239665.078125,236405.109375,218061.84375,238020.515625,199760.765625,227449.390625,496693.0,1.0,1
222850.484375,243291.234375,240143.84375,236461.796875,218501.1875,238291.515625,200072.53125,227655.921875,496694.0,1.0,1
222794.421875,243217.03125,239921.3125,236401.890625,218303.0625,238187.796875,199961.484375,227546.9375,496695.0,1.0,1
222744.53125,243029.09375,239349.46875,236335.734375,217778.234375,237881.046875,199606.984375,227298.65625,496696.0,1.0,1
222751.5,242960.4375,239179.6875,236327.421875,217616.6875,237762.765625,199472.515625,227228.03125,496697.0,1.0,1
222820.171875,243120.65625,239671.328125,236408.6875,218059.15625,238008.8125,199757.734375,227443.578125,496698.0,1.0,1
222850.84375,243283.1875,240142.5,236457.421875,218492.78125,238270.40625,200063.140625,227641.265625,496699.0,1.0,1
222805.953125,243222.21875,239932.125,236412.53125,218312.09375,238179.65625,199966.140625,227545.953125,496700.0,1.0,1
222747.03125,243027.125,239346.515625,236331.890625,217781.8125,237875.046875,199606.359375,227291.234375,496701.0,1.0,1
222750.609375,242961.59375,239171.640625,236319.015625,217618.03125,237763.5625,199471.09375,227220.0625,496702.0,1.0,1
222821.6875,243127.09375,239668.921875,236406.453125,218064.4375,238019.171875,199757.640625,227444.203125,496703.0,1.0,1
222859.328125,243295.625,240155.734375,236469.84375,218507.984375,238292.40625,200072.703125,227656.375,496704.0,1.0,1
222801.125,243221.6875,239937.578125,236411.375,218314.421875,238189.765625,199963.28125,227550.421875,496705.0,1.0,1
222746.859375,243033.03125,239360.734375,236339.75,217791.203125,237879.34375,199608.6875,227306.34375,496706.0,1.0,1
222748.90625,242969.109375,239180.3125,236329.921875,217620.96875,237757.125,199466.34375,227233.921875,496707.0,1.0,1
222818.296875,243123.875,239668.203125,236413.25,218064.609375,238012.390625,199750.046875,227452.53125,496708.0,1.0,1
222847.078125,243281.40625,240143.484375,236463.765625,218502.96875,238277.75,200055.09375,227651.1875,496709.0,1.0,1
222798.890625,243220.96875,239937.140625,236413.875,218322.109375,238191.28125,199957.375,227554.71875,496710.0,1.0,1
222744.359375,243027.671875,239355.1875,236334.65625,217791.390625,237881.484375,199603.953125,227302.859375,496711.0,1.0,1
222750.25,242956.671875,239173.328125,236327.78125,217618.203125,237762.40625,199465.28125,227229.71875,496712.0,1.0,1
222814.890625,243115.203125,239655.59375,236405.734375,218052.8125,238009.515625,199743.609375,227443.671875,496713.0,1.0,1
222849.9375,243283.46875,240136.515625,236461.703125,218495.375,238281.140625,200054.828125,227651.453125,496714.0,1.0,1
222811.234375,243235.1875,239944.734375,236425.140625,218329.796875,238203.53125,199971.671875,227565.890625,496715.0,1.0,1
222756.609375,243048.328125,239368.6875,236347.453125,217806.9375,237900.453125,199620.75,227318.59375,496716.0,1.0,1
222762.328125,242976.078125,239183.078125,236332.875,217631.796875,237776.34375,199478.15625,227238.9375,496717.0,1.0,1
222814.53125,243114.578125,239651.84375,236401.359375,218051.828125,238002.546875,199740.390625,227436.96875,496718.0,1.0,1
222846.359375,243276.75,240134.90625,236458.3125,218494.484375,238270.59375,200050.984375,227646.53125,496719.0,1.0,1
222791.375,243213.546875,239932.125,236399.21875,218318.078125,238183.6875,199954.953125,227551.140625,496720.0,1.0,1
222734.15625,243025.515625,239353.3125,236322.40625,217788.171875,237877.015625,199601.890625,227297.9375,496721.0,1.0,1
