FZ,C3,CZ,C4,PZ,PO7,OZ,PO8,Counter,Validation,Label
224239.6875,250361.71875,285191.09375,294261.28125,220301.84375,248652.0,208483.765625,236798.6875,26458.0,1.0,4
224207.765625,250104.953125,284352.65625,294155.78125,219501.390625,248229.359375,208077.140625,236444.625,26459.0,1.0,4
224235.921875,250102.796875,284370.09375,294184.09375,219465.4375,248230.796875,208083.21875,236454.46875,26460.0,1.0,4
224294.046875,250371.109375,285223.75,294313.65625,220247.484375,248659.953125,208496.71875,236821.296875,26461.0,1.0,4
224304.5,250546.4375,285754.1875,294366.9375,220784.375,248934.703125,208753.046875,237046.34375,26462.0,1.0,4
224239.953125,250365.75,285187.71875,294252.3125,220294.421875,248653.78125,208477.5,236792.875,26463.0,1.0,4
224195.515625,250094.578125,284340.84375,294142.1875,219487.703125,248226.59375,208069.453125,236437.296875,26464.0,1.0,4
224229.046875,250102.4375,284364.28125,294181.4375,219460.96875,248237.0625,208085.546875,236463.140625,26465.0,1.0,4
224287.34375,250367.796875,285211.21875,294304.0,220237.03125,248665.5,208492.875,236822.015625,26466.0,1.0,4
224295.109375,250541.875,285740.59375,294356.21875,220776.78125,248938.453125,208750.8125,237042.765625,26467.0,1.0,4
224247.375,250378.625,285194.78125,294257.875,220310.421875,248672.5625,208490.203125,236807.265625,26468.0,1.0,4
224201.6875,250103.609375,284351.65625,294147.8125,219506.125,248246.796875,208084.734375,236454.5625,26469.0,1.0,4
224241.734375,250110.9375,284369.90625,294191.71875,219471.875,248247.609375,208097.796875,236472.34375,26470.0,1.0,4
224296.546875,250378.359375,285210.6875,294311.0625,220239.609375,248662.28125,208499.578125,236825.140625,26471.0,1.0,4
224293.6875,250538.484375,285738.8125,294348.4375,220769.796875,248927.90625,208748.578125,237033.203125,26472.0,1.0,4
224235.484375,250367.625,285196.125,294245.34375,220304.96875,248658.34375,208489.03125,236791.53125,26473.0,1.0,4
224201.78125,250104.953125,284352.46875,294136.625,219501.390625,248230.796875,208082.5,236438.109375,26474.0,1.0,4
224233.421875,250104.671875,284352.03125,294174.8125,219447.65625,248218.1875,208079.90625,236445.796875,26475.0,1.0,4
224287.96875,250356.890625,285191.46875,294303.65625,220213.953125,248638.140625,208482.515625,236806.109375,26476.0,1.0,4
224291.359375,250526.671875,285729.25,294342.34375,220761.390625,248918.0625,208744.203125,237029.359375,26477.0,1.0,4
224238.4375,250365.203125,285194.59375,294242.5,220307.5625,248654.046875,208490.46875,236798.6875,26478.0,1.0,4
224195.703125,250100.125,284344.875,294125.1875,219501.203125,248227.671875,208080.09375,236440.078125,26479.0,1.0,4
224230.203125,250100.75,284339.78125,294164.0,219448.8125,248219.796875,208078.84375,236447.578125,26480.0,1.0,4
224295.828125,250370.21875,285188.34375,294303.8125,220227.640625,248650.5625,208493.140625,236818.359375,26481.0,1.0,4
224286.53125,250531.59375,285726.03125,294343.96875,220773.640625,248926.5625,208752.15625,237038.296875,26482.0,1.0,4
224218.5,250361.8125,285185.5625,294230.78125,220313.203125,248662.625,208494.21875,236798.5,26483.0,1.0,4
224181.5625,250090.46875,284334.0625,294118.46875,219502.8125,248235.71875,208085.0,236444.28125,26484.0,1.0,4
224217.0625,250087.25,284320.28125,294153.71875,219437.1875,248219.078125,208074.1875,236448.75,26485.0,1.0,4
224279.5625,250354.484375,285162.59375,294289.96875,220205.46875,248643.140625,208478.578125,236805.5625,26486.0,1.0,4
224287.34375,250537.3125,285723.0,294344.6875,220770.25,248933.453125,208752.515625,237038.5625,26487.0,1.0,4
224236.015625,250378.171875,285200.3125,294246.34375,220328.84375,248684.71875,208507.1875,236815.21875,26488.0,1.0,4
224191.5,250106.90625,284339.59375,294122.59375,219511.9375,248250.46875,208089.75,236449.28125,26489.0,1.0,4
224219.03125,250094.390625,284309.09375,294147.1875,219431.640625,248218.09375,208069.8125,236439.09375,26490.0,1.0,4
224288.59375,250363.953125,285156.25,294289.59375,220203.671875,248642.15625,208478.125,236802.171875,26491.0,1.0,4
224289.578125,250539.203125,285716.90625,294340.40625,220768.90625,248928.53125,208749.03125,237031.671875,26492.0,1.0,4
224231.90625,250379.875,285200.84375,294229.53125,220337.15625,248682.21875,208511.828125,236812.546875,26493.0,1.0,4
224192.390625,250111.65625,284345.84375,294116.25,219526.6875,248254.046875,208098.0625,236452.765625,26494.0,1.0,4
224218.5,250090.375,284305.4375,294140.3125,219435.40625,248218.453125,208069.890625,236436.765625,26495.0,1.0,4
224283.046875,250355.28125,285144.71875,294275.75,220194.015625,248638.140625,208474.28125,236793.046875,26496.0,1.0,4
224294.84375,250539.640625,285719.9375,294329.9375,220771.40625,248936.578125,208756.453125,237033.203125,26497.0,1.0,4
224247.546875,250388.359375,285213.28125,294233.71875,220343.953125,248689.90625,208516.578125,236815.765625,26498.0,1.0,4
224199.09375,250113.625,284347.09375,294111.25,219521.5,248251.1875,208093.953125,236445.4375,26499.0,1.0,4
224232.359375,250106.015625,284306.78125,294147.0,219433.796875,248222.484375,208076.953125,236437.921875,26500.0,1.0,4
224296.453125,250375.140625,285144.0,294282.53125,220195.1875,248640.640625,208480.984375,236797.34375,26501.0,1.0,4
224299.5,250552.703125,285719.15625,294334.21875,220774.0,248938.09375,208761.453125,237034.09375,26502.0,1.0,4
224236.640625,250388.015625,285205.40625,294227.5625,220343.15625,248689.546875,208519.25,236807.359375,26503.0,1.0,4
224194.09375,250118.171875,284343.15625,294107.3125,219526.421875,248258.421875,208105.296875,236443.921875,26504.0,1.0,4
224220.46875,250097.875,284288.375,294131.4375,219425.203125,248220.609375,208078.75,236427.90625,26505.0,1.0,4
224276.15625,250355.46875,285111.34375,294257.875,220177.484375,248629.46875,208471.328125,236777.5,26506.0,1.0,4
224292.171875,250544.203125,285698.40625,294323.59375,220766.046875,248931.21875,208756.625,237021.84375,26507.0,1.0,4
224232.71875,250383.625,285198.15625,294214.3125,220344.84375,248686.140625,208514.875,236801.640625,26508.0,1.0,4
224187.828125,250109.59375,284334.84375,294098.8125,219528.390625,248256.453125,208099.75,236440.609375,26509.0,1.0,4
224215.09375,250086.171875,284274.25,294123.75,219420.203125,248216.84375,208067.75,236423.359375,26510.0,1.0,4
224287.609375,250356.359375,285106.0,294265.5625,220177.921875,248634.921875,208469.640625,236782.5,26511.0,1.0,4
224298.25,250541.34375,285693.65625,294323.84375,220770.25,248939.96875,208754.65625,237026.765625,26512.0,1.0,4
224234.765625,250381.390625,285194.78125,294210.40625,220352.625,248695.4375,208519.609375,236808.96875,26513.0,1.0,4
224203.921875,250123.984375,284341.5625,294100.0625,219543.140625,248268.96875,208114.421875,236456.4375,26514.0,1.0,4
224227.703125,250094.390625,284269.59375,294120.625,219426.90625,248219.359375,208075.4375,236427.015625,26515.0,1.0,4
224293.78125,250356.09375,285099.375,294257.5,220180.25,248630.171875,208469.1875,236781.78125,26516.0,1.0,4
224300.84375,250541.515625,285689.0,294307.84375,220768.90625,248929.421875,208750.28125,237020.5,26517.0,1.0,4
224239.953125,250388.09375,285202.5625,294204.40625,220362.640625,248697.953125,208520.421875,236809.0625,26518.0,1.0,4
224195.703125,250113.4375,284336.09375,294088.34375,219547.15625,248267.453125,208104.234375,236446.953125,26519.0,1.0,4
224215.640625,250079.203125,284249.21875,294102.5625,219419.125,248213.265625,208058.546875,236414.5,26520.0,1.0,4
224283.578125,250347.15625,285076.3125,294241.78125,220170.6875,248626.59375,208457.828125,236771.59375,26521.0,1.0,4
224305.046875,250545.546875,285688.03125,294315.90625,220779.453125,248939.703125,208756.0,237026.046875,26522.0,1.0,4
224248.453125,250395.78125,285210.59375,294217.1875,220379.625,248703.484375,208525.328125,236813.4375,26523.0,1.0,4
224203.203125,250122.5625,284340.40625,294092.09375,219558.0625,248265.75,208106.1875,236446.15625,26524.0,1.0,4
224226.453125,250084.109375,284249.75,294107.125,219421.71875,248208.0,208057.296875,236412.171875,26525.0,1.0,4
224285.734375,250337.765625,285064.40625,294237.3125,220161.75,248612.296875,208445.578125,236761.125,26526.0,1.0,4
224314.34375,250552.0625,285689.0,294315.1875,220785.53125,248945.25,208759.578125,237031.671875,26527.0,1.0,4
224255.6875,250401.953125,285213.28125,294211.75,220388.484375,248714.84375,208534.546875,236824.4375,26528.0,1.0,4
224202.3125,250122.375,284339.78125,294087.28125,219559.9375,248272.546875,208109.40625,236453.125,26529.0,1.0,4
224227.171875,250092.15625,284245.90625,294107.84375,219421.546875,248215.59375,208062.390625,236420.765625,26530.0,1.0,4
224286.0,250349.203125,285057.875,294234.90625,220155.390625,248621.421875,208451.390625,236763.90625,26531.0,1.0,4
224292.796875,250539.640625,285670.78125,294298.09375,220763.359375,248931.75,208746.796875,237016.65625,26532.0,1.0,4
224229.671875,250385.59375,285200.40625,294190.1875,220372.828125,248700.0,208520.953125,236809.234375,26533.0,1.0,4
224197.03125,250121.9375,284337.53125,294081.03125,219558.875,248266.65625,208107.265625,236447.40625,26534.0,1.0,4
224234.40625,250101.546875,284244.65625,294110.625,219422.890625,248218.1875,208066.40625,236420.9375,26535.0,1.0,4
224293.5,250355.640625,285056.375,294240.4375,220159.953125,248620.34375,208455.421875,236769.984375,26536.0,1.0,4
224315.953125,250561.453125,285683.84375,294315.53125,220784.1875,248947.03125,208760.828125,237032.296875,26537.0,1.0,4
224256.84375,250417.15625,285223.46875,294213.875,220402.25,248727.09375,208545.984375,236834.625,26538.0,1.0,4
224199.0,250129.359375,284337.0,294073.15625,219564.421875,248277.921875,208115.671875,236456.96875,26539.0,1.0,4
224224.390625,250087.25,284223.8125,294093.625,219404.203125,248210.40625,208054.421875,236410.03125,26540.0,1.0,4
224289.84375,250345.984375,285033.5625,294226.40625,220136.171875,248617.84375,208443.265625,236756.578125,26541.0,1.0,4
224303.25,250547.59375,285661.5625,294290.875,220765.15625,248941.578125,208749.125,237021.03125,26542.0,1.0,4
224253.28125,250415.015625,285221.0625,294204.40625,220401.796875,248726.109375,208548.046875,236835.25,26543.0,1.0,4
224201.15625,250126.40625,284341.46875,294075.03125,219568.265625,248277.734375,208117.015625,236457.78125,26544.0,1.0,4
224224.125,250088.671875,284219.96875,294083.15625,219404.46875,248209.421875,208055.140625,236410.5625,26545.0,1.0,4
224279.65625,250340.71875,285019.96875,294212.8125,220129.640625,248609.875,208440.484375,236755.140625,26546.0,1.0,4
224290.640625,250541.078125,285649.84375,294278.6875,220760.953125,248939.34375,208752.421875,237026.140625,26547.0,1.0,4
224233.96875,250401.234375,285203.71875,294182.84375,220396.53125,248726.828125,208543.484375,236833.828125,26548.0,1.0,4
224187.03125,250124.890625,284328.6875,294063.40625,219573.4375,248288.90625,208121.03125,236466.8125,26549.0,1.0,4
224215.359375,250089.5625,284207.53125,294084.59375,219412.328125,248223.828125,208066.3125,236430.0625,26550.0,1.0,4
224281.171875,250347.59375,285011.5,294220.3125,220136.625,248619.71875,208452.296875,236771.328125,26551.0,1.0,4
224301.203125,250553.046875,285656.5625,294287.90625,220773.015625,248950.25,208768.515625,237037.40625,26552.0,1.0,4
224244.6875,250409.5625,285221.5,294192.25,220413.328125,248737.5625,208561.71875,236847.5,26553.0,1.0,4
224195.875,250132.84375,284344.15625,294069.9375,219586.234375,248292.578125,208132.125,236477.0,26554.0,1.0,4
224219.84375,250089.921875,284208.34375,294080.3125,219409.921875,248212.921875,208064.625,236425.953125,26555.0,1.0,4
224276.15625,250336.0625,284999.34375,294202.625,220124.734375,248603.0,208441.828125,236760.15625,26556.0,1.0,4
224300.578125,250548.140625,285653.6875,294280.75,220772.75,248941.84375,208758.953125,237033.734375,26557.0,1.0,4
224252.921875,250418.578125,285227.84375,294193.0625,220426.125,248735.671875,208557.96875,236848.65625,26558.0,1.0,4
224202.671875,250139.375,284348.0,294066.09375,219595.96875,248288.640625,208130.421875,236474.21875,26559.0,1.0,4
224223.859375,250094.03125,284206.375,294072.09375,219414.65625,248214.25,208060.859375,236423.796875,26560.0,1.0,4
224288.5,250352.25,285004.4375,294205.125,220138.671875,248614.265625,208447.1875,236765.78125,26561.0,1.0,4
224306.109375,250563.15625,285654.875,294278.625,220781.421875,248946.046875,208760.921875,237032.125,26562.0,1.0,4
224248.265625,250426.09375,285226.0625,294184.46875,220430.765625,248736.296875,208555.46875,236841.6875,26563.0,1.0,4
224205.4375,250147.5,284346.03125,294061.875,219602.140625,248297.40625,208129.34375,236469.125,26564.0,1.0,4
224237.265625,250101.640625,284198.0625,294077.28125,219412.609375,248213.09375,208058.1875,236416.734375,26565.0,1.0,4
224304.140625,250359.484375,284994.40625,294213.25,220127.40625,248604.078125,208441.921875,236757.828125,26566.0,1.0,4
224313.890625,250561.8125,285648.96875,294278.6875,220772.03125,248939.703125,208757.34375,237026.671875,26567.0,1.0,4
224248.625,250421.0,285227.0625,294174.28125,220430.234375,248738.265625,208555.734375,236841.59375,26568.0,1.0,4
224197.75,250137.21875,284343.78125,294050.96875,219600.171875,248297.21875,208129.078125,236468.6875,26569.0,1.0,4
224221.984375,250092.15625,284186.71875,294067.875,219407.0625,248215.15625,208056.578125,236414.59375,26570.0,1.0,4
224290.734375,250350.1875,284984.21875,294199.75,220130.09375,248619.09375,208447.90625,236765.609375,26571.0,1.0,4
224316.84375,250564.9375,285653.4375,294283.875,220790.8125,248970.1875,208776.5625,237049.921875,26572.0,1.0,4
224265.078125,250438.796875,285245.65625,294195.90625,220459.296875,248779.3125,208585.421875,236875.125,26573.0,1.0,4
224205.796875,250154.125,284356.125,294064.75,219624.5,248329.234375,208155.8125,236496.75,26574.0,1.0,4
224225.375,250094.390625,284185.90625,294072.25,219418.40625,248230.53125,208071.859375,236432.828125,26575.0,1.0,4
224286.0,250339.28125,284969.8125,294200.28125,220126.25,248622.3125,208450.5,236770.34375,26576.0,1.0,4
224308.96875,250555.640625,285638.40625,294275.125,220784.1875,248965.1875,208777.1875,237051.609375,26577.0,1.0,4
224252.65625,250427.890625,285232.40625,294181.59375,220454.640625,248769.390625,208584.796875,236873.78125,26578.0,1.0,4
224197.65625,250144.734375,284344.34375,294051.875,219618.234375,248320.65625,208153.21875,236492.546875,26579.0,1.0,4
224219.125,250087.59375,284165.15625,294062.59375,219400.984375,248222.21875,208065.6875,236423.4375,26580.0,1.0,4
224280.90625,250333.375,284943.53125,294189.375,220103.09375,248609.25,208439.6875,236759.609375,26581.0,1.0,4
224307.546875,250549.921875,285624.5625,294272.625,220771.234375,248955.625,208765.21875,237044.640625,26582.0,1.0,4
224243.265625,250416.625,285225.625,294169.1875,220445.078125,248755.796875,208568.875,236861.8125,26583.0,1.0,4
224191.046875,250136.234375,284340.3125,294037.9375,219611.078125,248309.46875,208136.5,236483.796875,26584.0,1.0,4
224222.078125,250083.40625,284160.78125,294056.96875,219391.328125,248208.09375,208050.140625,236418.96875,26585.0,1.0,4
224288.140625,250326.3125,284937.71875,294184.46875,220090.578125,248594.328125,208422.25,236752.734375,26586.0,1.0,4
224303.15625,250540.453125,285617.75,294261.09375,220760.140625,248939.53125,208749.75,237036.953125,26587.0,1.0,4
224246.21875,250419.03125,285232.9375,294175.625,220450.265625,248745.875,208562.171875,236863.765625,26588.0,1.0,4
224204.8125,250146.703125,284356.75,294057.25,219628.78125,248312.328125,208139.71875,236493.1875,26589.0,1.0,4
224236.109375,250096.359375,284169.90625,294067.96875,219405.890625,248213.984375,208051.203125,236425.3125,26590.0,1.0,4
224300.484375,250347.234375,284943.53125,294196.28125,220101.75,248599.59375,208425.640625,236760.953125,26591.0,1.0,4
224308.625,250554.21875,285618.46875,294263.21875,220764.875,248938.546875,208747.421875,237040.96875,26592.0,1.0,4
224251.84375,250429.9375,285235.53125,294170.96875,220458.75,248749.359375,208560.46875,236868.234375,26593.0,1.0,4
224202.21875,250155.734375,284352.46875,294043.90625,219634.59375,248311.625,208137.046875,236495.6875,26594.0,1.0,4
224230.125,250100.03125,284159.4375,294056.78125,219407.0625,248209.15625,208047.71875,236428.71875,26595.0,1.0,4
224291.625,250340.4375,284931.125,294186.15625,220103.8125,248597.359375,208428.0625,236763.640625,26596.0,1.0,4
224305.484375,250553.5,285613.375,294256.0,220774.359375,248944.078125,208757.171875,237045.625,26597.0,1.0,4
224249.078125,250434.671875,285235.71875,294168.09375,220472.796875,248760.71875,208578.171875,236877.890625,26598.0,1.0,4
224196.953125,250150.71875,284343.34375,294040.34375,219637.28125,248313.859375,208149.109375,236498.71875,26599.0,1.0,4
224215.359375,250080.890625,284130.03125,294045.0,219392.3125,248195.84375,208041.90625,236419.15625,26600.0,1.0,4
224275.53125,250322.921875,284896.40625,294166.84375,220078.0625,248574.484375,208411.96875,236744.5,26601.0,1.0,4
224293.859375,250540.71875,285590.40625,294243.5625,220757.109375,248930.3125,208746.96875,237031.671875,26602.0,1.0,4
224236.90625,250420.109375,285223.84375,294154.25,220465.015625,248750.25,208569.0625,236868.953125,26603.0,1.0,4
224199.265625,250146.25,284349.15625,294042.5625,219642.640625,248312.515625,208148.578125,236501.765625,26604.0,1.0,4
224210.71875,250068.5625,284122.34375,294033.625,219379.34375,248191.8125,208035.828125,236409.578125,26605.0,1.0,4
224267.21875,250307.28125,284874.875,294151.75,220054.0,248562.859375,208394.796875,236731.71875,26606.0,1.0,4
224301.46875,250538.390625,285583.5,294241.5,220751.921875,248927.640625,208741.875,237032.21875,26607.0,1.0,4
224250.859375,250425.5625,285225.09375,294157.03125,220472.609375,248758.5625,208573.171875,236872.890625,26608.0,1.0,4
224198.734375,250145.8125,284335.46875,294027.28125,219640.140625,248313.140625,208144.015625,236492.828125,26609.0,1.0,4
224214.921875,250072.9375,284109.375,294027.5625,219380.234375,248189.140625,208033.78125,236404.484375,26610.0,1.0,4
224277.859375,250319.96875,284873.09375,294156.9375,220065.1875,248569.375,208402.671875,236734.578125,26611.0,1.0,4
224309.25,250555.109375,285593.875,294252.875,220771.859375,248940.59375,208755.640625,237044.28125,26612.0,1.0,4
224241.921875,250433.78125,285230.09375,294151.5625,220482.796875,248759.015625,208576.125,236877.625,26613.0,1.0,4
224192.390625,250155.90625,284340.65625,294020.84375,219648.640625,248313.859375,208142.671875,236500.328125,26614.0,1.0,4
224221.984375,250091.71875,284116.53125,294030.3125,219392.390625,248198.609375,208039.234375,236422.015625,26615.0,1.0,4
224282.6875,250323.71875,284866.8125,294155.5,220065.0,248568.046875,208396.859375,236741.46875,26616.0,1.0,4
224297.796875,250537.40625,285572.6875,294228.46875,220755.140625,248925.75,208732.578125,237030.96875,26617.0,1.0,4
224252.015625,250435.484375,285236.09375,294150.40625,220489.953125,248764.5625,208572.71875,236884.0625,26618.0,1.0,4
224204.8125,250157.703125,284354.34375,294030.96875,219662.859375,248324.234375,208146.78125,236511.234375,26619.0,1.0,4
224227.703125,250089.921875,284120.0,294031.03125,219394.09375,248199.953125,208033.328125,236421.390625,26620.0,1.0,4
224292.4375,250328.546875,284874.6875,294155.125,220068.671875,248576.359375,208402.671875,236751.390625,26621.0,1.0,4
224308.625,250543.484375,285579.84375,294228.53125,220760.140625,248928.703125,208739.375,237043.125,26622.0,1.0,4
224263.28125,250443.625,285251.625,294147.1875,220504.796875,248773.671875,208584.96875,236899.984375,26623.0,1.0,4
224218.671875,250170.484375,284373.125,294025.40625,219680.375,248338.984375,208164.40625,236532.078125,26624.0,1.0,4
224233.0625,250083.9375,284117.875,294020.125,219393.375,248200.578125,208038.0625,236433.640625,26625.0,1.0,4
224281.703125,250305.9375,284848.21875,294135.375,220044.984375,248557.3125,208383.625,236744.328125,26626.0,1.0,4
224304.59375,250532.765625,285570.375,294217.0,220748.796875,248924.6875,208737.234375,237049.734375,26627.0,1.0,4
224267.578125,250441.65625,285258.34375,294151.28125,220511.953125,248783.6875,208601.0625,236919.921875,26628.0,1.0,4
224210.625,250158.765625,284365.96875,294017.09375,219678.40625,248336.203125,208168.875,236539.671875,26629.0,1.0,4
224218.046875,250075.265625,284102.125,294005.5625,219383.546875,248195.21875,208039.40625,236432.65625,26630.0,1.0,4
224280.546875,250312.1875,284841.15625,294129.40625,220048.109375,248557.765625,208395.421875,236749.421875,26631.0,1.0,4
224305.484375,250538.65625,285568.3125,294220.75,220762.640625,248932.90625,208750.640625,237056.71875,26632.0,1.0,4
224260.78125,250439.234375,285253.59375,294147.71875,220520.0,248789.328125,208602.5,236919.734375,26633.0,1.0,4
224203.921875,250155.1875,284362.40625,294007.875,219684.21875,248341.21875,208166.984375,236539.84375,26634.0,1.0,4
224224.125,250077.40625,284102.9375,294009.21875,219391.765625,248206.125,208044.765625,236439.796875,26635.0,1.0,4
224274.828125,250299.9375,284829.625,294123.9375,220040.0625,248567.328125,208392.03125,236749.15625,26636.0,1.0,4
224293.78125,250530.796875,285556.5,294200.375,220752.0,248937.921875,208742.859375,237050.28125,26637.0,1.0,4
224245.3125,250431.375,285244.84375,294123.40625,220514.359375,248789.953125,208594.359375,236914.109375,26638.0,1.0,4
224192.296875,250150.28125,284355.40625,293997.15625,219687.53125,248346.578125,208165.46875,236543.515625,26639.0,1.0,4
224210.625,250068.375,284084.78125,293996.4375,219387.125,248206.65625,208034.21875,236440.703125,26640.0,1.0,4
224276.15625,250307.71875,284821.5,294126.25,220046.140625,248571.890625,208390.328125,236757.28125,26641.0,1.0,4
224292.078125,250530.875,285546.9375,294200.46875,220751.03125,248931.84375,208731.234375,237047.0625,26642.0,1.0,4
224250.5,250440.21875,285251.71875,294128.3125,220530.546875,248793.53125,208593.90625,236914.734375,26643.0,1.0,4
224200.4375,250165.46875,284369.90625,294001.53125,219708.1875,248352.65625,208170.390625,236542.984375,26644.0,1.0,4
224216.96875,250081.4375,284089.34375,293995.90625,219397.3125,248201.921875,208032.34375,236432.03125,26645.0,1.0,4
224285.546875,250318.625,284819.4375,294128.75,220046.140625,248564.109375,208383.796875,236749.59375,26646.0,1.0,4
224305.21875,250545.90625,285552.21875,294210.46875,220762.296875,248934.34375,208738.296875,237054.921875,26647.0,1.0,4
224245.046875,250442.8125,285243.84375,294126.4375,220529.46875,248784.3125,208590.875,236911.34375,26648.0,1.0,4
224193.28125,250168.78125,284361.40625,294002.0625,219709.4375,248344.4375,208171.1875,236540.390625,26649.0,1.0,4
224206.875,250074.546875,284071.28125,293991.34375,219390.703125,248194.765625,208033.78125,236429.078125,26650.0,1.0,4
224276.25,250310.765625,284796.90625,294115.0,220033.53125,248559.375,208384.515625,236746.296875,26651.0,1.0,4
224295.5625,250535.0,285531.5625,294194.46875,220744.234375,248928.078125,208733.03125,237049.5625,26652.0,1.0,4
224242.90625,250435.125,285240.5625,294110.4375,220525.546875,248785.296875,208593.1875,236916.609375,26653.0,1.0,4
224194.171875,250158.140625,284357.84375,293987.0625,219700.5,248341.75,208165.734375,236539.84375,26654.0,1.0,4
224206.515625,250061.859375,284057.34375,293976.9375,219373.984375,248185.828125,208020.453125,236421.828125,26655.0,1.0,4
224276.96875,250296.1875,284779.5625,294107.21875,220018.609375,248546.3125,208371.203125,236737.265625,26656.0,1.0,4
224316.75,250554.3125,285541.21875,294207.875,220757.28125,248935.140625,208742.953125,237059.75,26657.0,1.0,4
224259.53125,250463.734375,285256.8125,294123.5,220545.390625,248796.65625,208609.203125,236930.109375,26658.0,1.0,4
224196.59375,250171.734375,284361.6875,293983.65625,219707.5625,248345.234375,208172.0,236541.640625,26659.0,1.0,4
224213.046875,250075.703125,284057.0625,293975.6875,219373.171875,248186.265625,208028.140625,236423.703125,26660.0,1.0,4
224281.96875,250304.0625,284771.78125,294101.21875,220008.671875,248542.46875,208375.578125,236738.515625,26661.0,1.0,4
224316.21875,250552.875,285530.59375,294196.4375,220746.828125,248931.921875,208746.890625,237060.921875,26662.0,1.0,4
224254.609375,250449.78125,285242.96875,294108.65625,220531.265625,248787.4375,208604.8125,236921.0,26663.0,1.0,4
224210.71875,250178.078125,284364.625,293986.15625,219711.75,248351.5,208183.078125,236549.6875,26664.0,1.0,4
224219.390625,250075.890625,284047.9375,293973.1875,219367.546875,248182.15625,208026.0,236420.21875,26665.0,1.0,4
224279.375,250299.046875,284751.03125,294094.34375,219996.15625,248533.796875,208365.125,236720.546875,26666.0,1.0,4
224314.34375,250548.40625,285518.0625,294190.1875,220742.984375,248928.0,208742.859375,237047.234375,26667.0,1.0,4
224259.359375,250456.859375,285253.5,294114.46875,220545.828125,248798.359375,208615.375,236922.0625,26668.0,1.0,4
224200.53125,250170.84375,284365.6875,293976.0625,219716.9375,248350.0625,208183.171875,236541.375,26669.0,1.0,4
224225.46875,250075.4375,284053.21875,293974.1875,219377.109375,248188.859375,208038.0625,236423.078125,26670.0,1.0,4
224284.390625,250300.484375,284752.375,294096.9375,219996.421875,248531.828125,208372.71875,236724.390625,26671.0,1.0,4
224300.484375,250529.546875,285502.78125,294171.6875,220728.21875,248908.234375,208727.484375,237029.078125,26672.0,1.0,4
224257.828125,250445.5,285252.8125,294103.8125,220548.96875,248787.984375,208609.640625,236915.0,26673.0,1.0,4
224201.234375,250168.609375,284368.375,293971.59375,219727.765625,248345.59375,208182.453125,236540.828125,26674.0,1.0,4
224218.40625,250073.109375,284045.34375,293962.90625,219381.3125,248178.3125,208030.375,236418.53125,26675.0,1.0,4
224281.53125,250294.671875,284744.34375,294091.84375,220002.953125,248528.4375,208366.375,236720.90625,26676.0,1.0,4
224305.484375,250541.78125,285510.75,294178.9375,220750.3125,248925.84375,208740.53125,237046.34375,26677.0,1.0,4
224248.359375,250457.921875,285255.3125,294099.53125,220568.28125,248804.15625,208623.140625,236931.09375,26678.0,1.0,4
224191.578125,250174.6875,284368.28125,293967.5625,219741.265625,248361.515625,208193.8125,236553.34375,26679.0,1.0,4
224201.78125,250067.84375,284025.59375,293948.4375,219373.359375,248181.890625,208025.546875,236411.8125,26680.0,1.0,4
224280.359375,250299.3125,284724.65625,294088.875,219994.734375,248532.546875,208367.359375,236716.96875,26681.0,1.0,4
224316.484375,250554.84375,285501.34375,294180.34375,220749.140625,248928.96875,208746.96875,237046.4375,26682.0,1.0,4
224268.734375,250475.453125,285261.375,294108.8125,220580.25,248815.25,208632.4375,236934.140625,26683.0,1.0,4
224197.65625,250176.296875,284362.84375,293961.5,219746.8125,248360.96875,208191.84375,236542.796875,26684.0,1.0,4
224203.03125,250056.84375,284010.5625,293938.875,219369.328125,248173.9375,208016.078125,236398.046875,26685.0,1.0,4
224267.9375,250276.34375,284700.25,294064.03125,219978.640625,248517.96875,208346.34375,236695.78125,26686.0,1.0,4
224303.96875,250529.625,285480.34375,294162.5625,220730.8125,248913.78125,208726.140625,237022.640625,26687.0,1.0,4
224260.609375,250462.3125,285254.59375,294099.625,220574.0,248815.703125,208630.125,236927.078125,26688.0,1.0,4
224208.125,250189.875,284379.1875,293970.25,219761.375,248382.515625,208211.78125,236562.734375,26689.0,1.0,4
224220.28125,250078.125,284024.15625,293951.125,219382.46875,248192.984375,208036.546875,236420.046875,26690.0,1.0,4
224279.734375,250294.3125,284702.78125,294071.46875,219980.6875,248525.65625,208364.140625,236713.5625,26691.0,1.0,4
224313.265625,250539.28125,285481.6875,294166.75,220730.28125,248917.171875,208738.84375,237040.703125,26692.0,1.0,4
224266.59375,250463.015625,285258.34375,294096.75,220571.859375,248810.78125,208629.9375,236936.640625,26693.0,1.0,4
224212.234375,250184.703125,284377.5,293963.8125,219753.953125,248371.078125,208199.453125,236559.96875,26694.0,1.0,4
224224.3125,250076.0625,284017.0,293946.8125,219370.578125,248185.375,208024.296875,236413.421875,26695.0,1.0,4
224292.4375,250297.890625,284695.6875,294069.9375,219974.53125,248524.3125,208354.296875,236710.34375,26696.0,1.0,4
224317.921875,250542.859375,285472.65625,294152.1875,220726.96875,248923.4375,208730.703125,237031.953125,26697.0,1.0,4
224267.046875,250476.703125,285256.375,294082.28125,220580.171875,248827.3125,208634.40625,236935.203125,26698.0,1.0,4
224209.109375,250200.34375,284374.90625,293951.03125,219763.4375,248388.15625,208209.1875,236560.859375,26699.0,1.0,4
224210.09375,250079.203125,283999.03125,293925.375,219364.140625,248191.015625,208023.9375,236404.21875,26700.0,1.0,4
224270.625,250284.65625,284668.4375,294049.1875,219955.125,248519.671875,208349.03125,236694.96875,26701.0,1.0,4
224302.890625,250526.234375,285454.6875,294148.6875,220713.109375,248916.453125,208728.46875,237025.59375,26702.0,1.0,4
224248.796875,250450.59375,285237.78125,294076.1875,220566.40625,248807.921875,208621.984375,236925.90625,26703.0,1.0,4
224199.359375,250176.734375,284358.8125,293946.28125,219752.4375,248367.5,208197.125,236555.59375,26704.0,1.0,4
224221.625,250068.921875,283994.125,293935.65625,219366.375,248183.765625,208026.71875,236415.9375,26705.0,1.0,4
224284.125,250280.71875,284662.625,294053.46875,219960.046875,248513.5,208348.578125,236709.09375,26706.0,1.0,4
224317.734375,250543.9375,285459.3125,294153.8125,220728.140625,248917.0,208734.09375,237047.5,26707.0,1.0,4
224263.28125,250476.96875,285255.46875,294081.5625,220588.921875,248819.1875,208631.109375,236946.65625,26708.0,1.0,4
224193.375,250184.96875,284363.65625,293935.375,219764.5,248372.5,208197.75,236562.65625,26709.0,1.0,4
224207.59375,250070.703125,283983.65625,293917.3125,219365.65625,248181.53125,208020.625,236412.71875,26710.0,1.0,4
224272.046875,250283.21875,284646.25,294041.15625,219949.40625,248510.8125,208340.890625,236697.46875,26711.0,1.0,4
224303.15625,250530.609375,285440.1875,294138.5,220713.203125,248915.390625,208720.328125,237023.359375,26712.0,1.0,4
224272.3125,250484.84375,285264.6875,294085.3125,220600.375,248837.953125,208642.8125,236942.1875,26713.0,1.0,4
224219.203125,250214.109375,284392.78125,293958.4375,219792.84375,248401.5625,208223.3125,236577.484375,26714.0,1.0,4
224218.9375,250079.015625,283991.25,293921.53125,219372.546875,248186.546875,208022.0625,236412.625,26715.0,1.0,4
224267.671875,250271.6875,284631.0625,294027.28125,219935.359375,248494.28125,208325.59375,236685.5,26716.0,1.0,4
224304.59375,250529.625,285434.28125,294133.6875,220711.6875,248906.265625,208718.8125,237030.875,26717.0,1.0,4
224261.40625,250477.765625,285260.40625,294073.5,220605.5625,248830.453125,208643.359375,236955.0625,26718.0,1.0,4
224192.65625,250188.71875,284369.8125,293929.375,219783.640625,248385.375,208209.109375,236568.90625,26719.0,1.0,4
224197.9375,250061.140625,283968.03125,293900.6875,219365.3125,248180.453125,208016.703125,236408.515625,26720.0,1.0,4
224269.015625,250276.15625,284628.28125,294027.1875,219944.84375,248510.8125,208339.09375,236699.703125,26721.0,1.0,4
224306.828125,250540.09375,285435.71875,294131.53125,220723.390625,248922.984375,208730.796875,237040.34375,26722.0,1.0,4
224254.609375,250477.6875,285258.15625,294065.65625,220609.765625,248834.390625,208643.4375,236948.890625,26723.0,1.0,4
224201.6875,250201.6875,284385.28125,293934.46875,219800.453125,248388.78125,208221.171875,236573.5625,26724.0,1.0,4
224209.28125,250073.921875,283977.6875,293909.625,219375.3125,248180.90625,208027.78125,236409.859375,26725.0,1.0,4
224264.625,250272.859375,284614.96875,294024.0625,219936.703125,248498.484375,208337.140625,236689.421875,26726.0,1.0,4
224305.40625,250532.125,285423.84375,294132.53125,220713.828125,248912.96875,208730.796875,237032.125,26727.0,1.0,4
224262.21875,250478.3125,285261.65625,294072.0,220614.765625,248834.65625,208656.046875,236956.125,26728.0,1.0,4
224206.78125,250205.703125,284391.0,293943.6875,219807.421875,248399.421875,208234.5,236587.0625,26729.0,1.0,4
224205.890625,250070.078125,283966.15625,293902.84375,219366.203125,248177.78125,208024.03125,236410.390625,26730.0,1.0,4
224264.984375,250271.421875,284599.84375,294015.75,219926.421875,248488.375,208328.453125,236684.6875,26731.0,1.0,4
224298.96875,250527.65625,285407.46875,294120.0,220705.421875,248898.84375,208717.734375,237023.28125,26732.0,1.0,4
224253.453125,250470.796875,285248.40625,294054.5625,220611.109375,248829.28125,208646.484375,236946.65625,26733.0,1.0,4
224206.875,250207.671875,284388.3125,293929.375,219818.15625,248409.15625,208240.390625,236586.34375,26734.0,1.0,4
224207.9375,250071.5,283963.8125,293894.15625,219380.234375,248190.296875,208035.46875,236414.953125,26735.0,1.0,4
224266.59375,250269.640625,284591.28125,294005.125,219928.21875,248499.734375,208334.359375,236683.4375,26736.0,1.0,4
224288.953125,250517.828125,285392.8125,294098.71875,220696.125,248895.453125,208714.25,237012.90625,26737.0,1.0,4
224245.40625,250469.375,285245.46875,294041.40625,220612.4375,248823.921875,208643.890625,236941.28125,26738.0,1.0,4
224197.125,250199.890625,284377.59375,293918.84375,219811.09375,248390.5625,208223.40625,236572.65625,26739.0,1.0,4
224192.203125,250053.8125,283933.59375,293876.375,219353.5,248158.90625,208005.875,236386.25,26740.0,1.0,4
224262.3125,250259.171875,284568.21875,293994.5625,219909.796875,248473.359375,208317.828125,236665.734375,26741.0,1.0,4
224305.9375,250520.515625,285392.09375,294109.53125,220699.890625,248892.3125,208717.015625,237012.28125,26742.0,1.0,4
224255.328125,250465.53125,285247.0625,294043.75,220618.703125,248824.1875,208648.890625,236943.171875,26743.0,1.0,4
224209.109375,250207.3125,284392.96875,293926.4375,219831.921875,248406.75,208244.328125,236589.828125,26744.0,1.0,4
224207.3125,250065.421875,283951.03125,293890.9375,219373.265625,248175.8125,208030.015625,236407.53125,26745.0,1.0,4
224250.859375,250244.421875,284553.625,293983.65625,219896.03125,248464.78125,208308.796875,236656.265625,26746.0,1.0,4
224286.265625,250503.515625,285371.1875,294084.34375,220679.046875,248879.265625,208701.203125,236999.21875,26747.0,1.0,4
224248.71875,250467.9375,285242.4375,294035.25,220609.5,248823.828125,208643.359375,236939.40625,26748.0,1.0,4
224200.171875,250204.640625,284384.03125,293911.59375,219818.15625,248402.28125,208234.5,236580.703125,26749.0,1.0,4
224204.90625,250065.078125,283937.4375,293878.875,219356.546875,248170.0,208015.984375,236397.6875,26750.0,1.0,4
224270.265625,250258.453125,284554.09375,293993.5,219891.734375,248475.328125,208311.390625,236661.359375,26751.0,1.0,4
224313.359375,250522.203125,285382.15625,294101.9375,220686.734375,248898.9375,208713.359375,237011.03125,26752.0,1.0,4
224262.75,250479.203125,285252.8125,294044.0,220622.375,248840.90625,208652.5625,236948.890625,26753.0,1.0,4
224201.15625,250203.828125,284383.75,293907.5625,219821.015625,248408.0,208234.9375,236582.140625,26754.0,1.0,4
224212.328125,250067.125,283937.25,293879.6875,219359.9375,248177.0625,208025.546875,236406.359375,26755.0,1.0,4
224269.640625,250249.96875,284540.75,293990.09375,219887.0,248467.640625,208313.796875,236666.625,26756.0,1.0,4
224305.21875,250511.484375,285366.34375,294095.59375,220678.421875,248883.015625,208710.5,237013.171875,26757.0,1.0,4
224268.203125,250479.65625,285255.03125,294046.0625,220629.078125,248836.53125,208660.515625,236957.46875,26758.0,1.0,4
224217.0625,250211.078125,284394.125,293916.34375,219836.390625,248408.359375,208245.671875,236585.0,26759.0,1.0,4
224209.546875,250058.71875,283923.3125,293869.40625,219352.96875,248160.34375,208013.484375,236387.40625,26760.0,1.0,4
224272.859375,250259.0,284530.125,293981.0625,219882.53125,248463.25,208309.6875,236655.71875,26761.0,1.0,4
224306.921875,250519.96875,285358.75,294085.3125,220675.828125,248884.625,208707.640625,237002.4375,26762.0,1.0,4
224268.296875,250489.84375,285259.15625,294035.5,220635.421875,248842.25,208660.078125,236953.796875,26763.0,1.0,4
224215.359375,250222.15625,284399.5,293906.3125,219839.96875,248411.40625,208242.625,236587.421875,26764.0,1.0,4
224225.296875,250083.046875,283938.34375,293877.875,219363.078125,248172.140625,208018.84375,236401.453125,26765.0,1.0,4
224280.8125,250261.765625,284528.875,293984.375,219878.234375,248457.171875,208298.234375,236652.859375,26766.0,1.0,4
224325.875,250525.609375,285367.3125,294097.28125,220677.078125,248879.0,208702.359375,237004.140625,26767.0,1.0,4
224285.1875,250493.59375,285264.0625,294044.1875,220637.296875,248831.875,208654.53125,236953.71875,26768.0,1.0,4
224229.21875,250231.71875,284406.90625,293916.78125,219855.703125,248413.984375,208250.671875,236595.1875,26769.0,1.0,4
224220.46875,250073.828125,283924.375,293874.59375,219368.25,248168.390625,208022.421875,236399.578125,26770.0,1.0,4
224277.765625,250255.328125,284511.34375,293986.34375,219876.171875,248454.21875,208302.796875,236653.9375,26771.0,1.0,4
224321.21875,250526.765625,285351.0625,294097.28125,220677.53125,248881.671875,208710.40625,237011.734375,26772.0,1.0,4
224282.421875,250502.8125,285262.0,294047.3125,220651.875,248846.90625,208672.59375,236967.484375,26773.0,1.0,4
224227.171875,250233.953125,284402.09375,293917.3125,219861.515625,248424.8125,208259.078125,236600.015625,26774.0,1.0,4
224216.96875,250071.234375,283910.8125,293864.46875,219361.28125,248168.03125,208017.328125,236393.765625,26775.0,1.0,4
224277.0625,250256.84375,284494.71875,293969.875,219864.546875,248449.046875,208292.609375,236641.421875,26776.0,1.0,4
224325.96875,250530.078125,285346.125,294088.8125,220673.59375,248881.671875,208705.84375,237002.53125,26777.0,1.0,4
224274.640625,250494.140625,285259.78125,294025.59375,220649.015625,248840.28125,208665.703125,236952.734375,26778.0,1.0,4
224209.90625,250214.296875,284391.71875,293883.875,219852.484375,248400.671875,208243.34375,236576.953125,26779.0,1.0,4
224212.0625,250062.484375,283903.375,293845.78125,219357.890625,248156.328125,208012.578125,236381.953125,26780.0,1.0,4
224283.9375,250260.421875,284494.0,293968.71875,219867.6875,248448.5,208300.46875,236640.4375,26781.0,1.0,4
224336.421875,250540.359375,285351.6875,294094.34375,220683.96875,248883.734375,208715.765625,237008.609375,26782.0,1.0,4
224299.5,250518.8125,285282.75,294044.71875,220674.40625,248853.421875,208681.265625,236973.75,26783.0,1.0,4
224228.234375,250235.390625,284413.34375,293899.15625,219878.859375,248419.453125,208259.171875,236599.484375,26784.0,1.0,4
224219.390625,250074.1875,283909.71875,293853.84375,219371.921875,248163.65625,208021.96875,236396.984375,26785.0,1.0,4
224287.609375,250263.640625,284489.71875,293970.4375,219873.046875,248455.203125,208306.90625,236653.84375,26786.0,1.0,4
224322.828125,250524.4375,285328.53125,294076.46875,220671.453125,248880.96875,208710.046875,237004.3125,26787.0,1.0,4
224281.265625,250505.84375,285265.125,294030.875,220670.828125,248856.109375,208685.640625,236973.109375,26788.0,1.0,4
224216.890625,250231.453125,284404.0625,293892.28125,219881.546875,248425.4375,208269.90625,236605.828125,26789.0,1.0,4
224211.875,250069.625,283895.25,293845.875,219364.046875,248161.421875,208021.265625,236398.140625,26790.0,1.0,4
224265.703125,250242.625,284458.9375,293946.71875,219850.609375,248436.796875,208291.359375,236644.28125,26791.0,1.0,4
224312.109375,250517.375,285311.625,294067.0,220662.328125,248869.96875,208704.859375,237005.484375,26792.0,1.0,4
224270.34375,250494.046875,285251.1875,294020.03125,220662.78125,248844.125,208674.90625,236967.75,26793.0,1.0,4
224206.15625,250219.203125,284394.03125,293881.03125,219876.890625,248414.34375,208259.078125,236599.84375,26794.0,1.0,4
224205.359375,250054.25,283883.8125,293834.53125,219357.796875,248147.828125,208010.53125,236387.140625,26795.0,1.0,4
224281.171875,250242.0,284456.625,293953.25,219852.75,248432.140625,208290.640625,236641.78125,26796.0,1.0,4
224327.484375,250522.5625,285313.5,294068.40625,220670.375,248870.421875,208707.1875,237003.0625,26797.0,1.0,4
224275.53125,250498.78125,285258.6875,294015.5625,220673.78125,248847.96875,208679.109375,236967.3125,26798.0,1.0,4
224220.28125,250235.296875,284408.625,293882.09375,219895.046875,248427.84375,208269.453125,236604.046875,26799.0,1.0,4
224229.5,250078.296875,283899.0,293846.875,219377.015625,248170.171875,208025.546875,236398.9375,26800.0,1.0,4
224283.9375,250254.078125,284454.40625,293951.65625,219857.21875,248444.390625,208295.921875,236645.34375,26801.0,1.0,4
224312.1875,250514.078125,285295.71875,294054.75,220657.5,248862.1875,208697.984375,236995.46875,26802.0,1.0,4
224277.59375,250511.03125,285263.34375,294018.4375,220686.65625,248860.21875,208691.546875,236979.28125,26803.0,1.0,4
224221.09375,250245.40625,284416.75,293888.15625,219913.8125,248446.53125,208289.484375,236621.65625,26804.0,1.0,4
224209.375,250070.34375,283878.875,293830.59375,219369.0625,248164.1875,208023.765625,236395.09375,26805.0,1.0,4
224277.765625,250246.75,284430.625,293945.84375,219842.296875,248435.0,208288.578125,236638.828125,26806.0,1.0,4
224316.3125,250511.296875,285281.0625,294055.28125,220652.046875,248867.46875,208694.40625,236994.484375,26807.0,1.0,4
224279.46875,250501.375,285249.84375,294007.15625,220677.625,248861.03125,208682.875,236973.109375,26808.0,1.0,4
224230.203125,250248.53125,284409.15625,293878.59375,219912.296875,248448.40625,208284.5625,236616.65625,26809.0,1.0,4
224220.546875,250081.515625,283873.78125,293828.09375,219374.25,248173.84375,208026.265625,236394.203125,26810.0,1.0,4
224275.09375,250242.09375,284411.84375,293931.09375,219835.59375,248433.296875,208281.96875,236624.25,26811.0,1.0,4
224327.578125,250520.15625,285279.96875,294052.9375,220660.1875,248874.703125,208705.21875,236996.359375,26812.0,1.0,4
224283.3125,250505.84375,285253.96875,294007.53125,220688.625,248863.53125,208691.90625,236971.59375,26813.0,1.0,4
224219.125,250234.40625,284404.875,293869.5,219908.453125,248438.9375,208276.96875,236605.5625,26814.0,1.0,4
224216.4375,250062.203125,283868.5,293821.65625,219364.234375,248163.828125,208016.15625,236389.734375,26815.0,1.0,4
224276.25,250226.890625,284404.15625,293928.03125,219823.515625,248426.515625,208272.3125,236626.671875,26816.0,1.0,4
224323.375,250513.53125,285273.53125,294049.8125,220648.65625,248864.421875,208695.921875,236995.109375,26817.0,1.0,4
224287.421875,250513.09375,285263.78125,294013.59375,220696.3125,248868.8125,208697.984375,236986.4375,26818.0,1.0,4
224227.171875,250242.09375,284419.0625,293873.0625,219923.46875,248446.71875,208287.78125,236621.921875,26819.0,1.0,4
224229.84375,250078.296875,283880.65625,293825.6875,219381.125,248170.53125,208027.703125,236403.5,26820.0,1.0,4
224285.90625,250242.625,284401.03125,293924.46875,219826.5625,248420.703125,208272.40625,236627.015625,26821.0,1.0,4
224324.0,250508.34375,285257.96875,294037.75,220639.359375,248854.140625,208680.90625,236983.046875,26822.0,1.0,4
224297.171875,250516.671875,285266.75,294010.125,220702.296875,248870.6875,208696.109375,236984.734375,26823.0,1.0,4
224233.515625,250255.234375,284424.25,293870.65625,219934.109375,248448.5,208288.234375,236621.5625,26824.0,1.0,4
224228.234375,250088.40625,283878.15625,293821.5625,219386.671875,248171.703125,208027.609375,236400.546875,26825.0,1.0,4
224287.78125,250252.015625,284401.71875,293929.21875,219832.90625,248433.75,208278.578125,236630.421875,26826.0,1.0,4
224345.8125,250541.078125,285279.625,294066.09375,220665.90625,248888.828125,208704.0625,237004.5,26827.0,1.0,4
224300.296875,250535.0,285279.1875,294023.25,220723.578125,248897.328125,208706.921875,236996.8125,26828.0,1.0,4
224229.21875,250263.828125,284430.78125,293876.0,219950.46875,248473.71875,208297.34375,236629.96875,26829.0,1.0,4
224215.359375,250080.984375,283864.3125,293814.78125,219382.46875,248176.703125,208020.8125,236395.90625,26830.0,1.0,4
224274.640625,250247.546875,284385.46875,293921.53125,219826.828125,248435.8125,208273.46875,236635.515625,26831.0,1.0,4
224314.609375,250519.96875,285249.84375,294033.0,220644.71875,248869.78125,208688.40625,237000.125,26832.0,1.0,4
224280.453125,250518.453125,285260.84375,293998.5,220708.5625,248882.3125,208696.015625,236998.0625,26833.0,1.0,4
224215.28125,250245.21875,284414.78125,293857.3125,219936.96875,248464.953125,208286.34375,236638.015625,26834.0,1.0,4
224216.96875,250071.78125,283858.3125,293811.375,219377.375,248183.234375,208020.625,236413.609375,26835.0,1.0,4
224276.15625,250234.3125,284370.0,293914.625,219811.0,248427.3125,208265.875,236637.390625,26836.0,1.0,4
224318.625,250508.703125,285239.65625,294027.375,220634.890625,248865.9375,208688.953125,237007.0,26837.0,1.0,4
224280.0,250507.71875,285256.65625,293986.15625,220707.65625,248884.453125,208701.015625,237009.6875,26838.0,1.0,4
224225.203125,250248.0,284426.21875,293855.90625,219951.71875,248474.78125,208303.421875,236660.453125,26839.0,1.0,4
224220.109375,250071.328125,283857.15625,293805.1875,219380.0625,248186.09375,208029.3125,236428.625,26840.0,1.0,4
224271.15625,250226.8125,284351.9375,293899.625,219800.265625,248425.609375,208264.265625,236641.78125,26841.0,1.0,4
224318.359375,250503.96875,285222.21875,294018.96875,220626.390625,248866.21875,208685.28125,237009.328125,26842.0,1.0,4
224292.875,250525.6875,285265.6875,293997.15625,220724.109375,248901.796875,208717.296875,237027.125,26843.0,1.0,4
224233.875,250270.796875,284440.625,293866.09375,219973.625,248492.21875,208318.625,236673.78125,26844.0,1.0,4
224219.65625,250080.625,283855.625,293803.15625,219390.96875,248185.921875,208033.78125,236429.25,26845.0,1.0,4
224274.28125,250232.078125,284346.65625,293899.875,219806.703125,248426.953125,208267.21875,236644.453125,26846.0,1.0,4
224315.765625,250510.5,285217.5625,294011.375,220633.453125,248870.0625,208686.453125,237015.3125,26847.0,1.0,4
224278.671875,250513.796875,285253.5,293981.59375,220723.21875,248893.75,208708.4375,237025.328125,26848.0,1.0,4
224219.203125,250253.09375,284426.78125,293844.1875,219967.640625,248478.984375,208308.078125,236666.8125,26849.0,1.0,4
224214.296875,250068.921875,283839.90625,293783.9375,219380.328125,248178.5,208019.921875,236419.515625,26850.0,1.0,4
224272.3125,250219.75,284329.40625,293883.0625,219792.84375,248418.015625,208253.359375,236635.15625,26851.0,1.0,4
224317.296875,250497.984375,285204.34375,294000.71875,220617.546875,248856.015625,208670.625,237001.546875,26852.0,1.0,4
224290.109375,250516.484375,285259.59375,293978.46875,220724.921875,248891.6875,208701.015625,237018.53125,26853.0,1.0,4
224239.5,250268.734375,284448.40625,293856.6875,219987.671875,248494.453125,208314.328125,236676.203125,26854.0,1.0,4
224228.0625,250083.21875,283856.09375,293796.8125,219397.765625,248190.203125,208027.25,236431.3125,26855.0,1.0,4
224285.546875,250228.953125,284334.59375,293896.03125,219798.578125,248418.28125,208250.765625,236635.34375,26856.0,1.0,4
224340.0,250511.75,285215.78125,294017.46875,220628.09375,248860.578125,208672.5,237003.34375,26857.0,1.0,4
224305.75,250532.9375,285274.78125,293986.59375,220735.921875,248897.953125,208704.59375,237023.625,26858.0,1.0,4
224241.734375,250272.046875,284453.78125,293853.40625,219990.078125,248493.46875,208307.1875,236676.734375,26859.0,1.0,4
224225.203125,250079.28125,283851.0,293785.53125,219390.078125,248186.71875,208014.546875,236427.28125,26860.0,1.0,4
224280.90625,250230.03125,284323.84375,293883.25,219786.59375,248418.640625,208246.65625,236638.109375,26861.0,1.0,4
224334.8125,250511.5625,285208.4375,294011.28125,220620.765625,248867.828125,208674.90625,237012.640625,26862.0,1.0,4
224302.8125,250528.28125,285272.90625,293981.78125,220736.984375,248905.734375,208706.109375,237027.828125,26863.0,1.0,4
224233.78125,250264.984375,284446.96875,293842.84375,219988.65625,248491.15625,208305.21875,236669.140625,26864.0,1.0,4
224218.9375,250071.6875,283838.03125,293770.6875,219380.59375,248174.921875,208009.640625,236409.859375,26865.0,1.0,4
224278.578125,250216.703125,284306.34375,293871.1875,219769.609375,248398.796875,208231.1875,236616.203125,26866.0,1.0,4
224332.21875,250499.40625,285194.15625,294004.3125,220610.296875,248851.109375,208661.046875,236997.34375,26867.0,1.0,4
224297.625,250527.125,285265.125,293977.84375,220737.796875,248894.828125,208698.875,237021.484375,26868.0,1.0,4
224239.78125,250275.09375,284452.59375,293849.5625,220006.078125,248499.203125,208313.4375,236680.390625,26869.0,1.0,4
224240.578125,250088.671875,283849.03125,293795.09375,219410.28125,248199.421875,208028.859375,236439.09375,26870.0,1.0,4
224278.671875,250214.921875,284287.28125,293875.5625,219775.0625,248403.703125,208232.796875,236621.75,26871.0,1.0,4
224323.640625,250502.09375,285169.1875,293997.34375,220607.171875,248846.984375,208659.625,236997.171875,26872.0,1.0,4
224299.3125,250543.21875,285263.625,293975.78125,220751.375,248911.546875,208713.8125,237035.171875,26873.0,1.0,4
224232.171875,250277.953125,284448.59375,293835.875,220013.234375,248507.6875,208321.046875,236684.421875,26874.0,1.0,4
224217.515625,250077.671875,283827.03125,293765.40625,219397.3125,248190.921875,208022.515625,236428.625,26875.0,1.0,4
224275.09375,250221.890625,284274.96875,293861.15625,219769.15625,248408.890625,208236.546875,236622.46875,26876.0,1.0,4
224325.0625,250499.953125,285157.75,293984.8125,220600.546875,248853.15625,208661.6875,236992.609375,26877.0,1.0,4
224305.40625,250536.78125,285261.03125,293968.375,220752.0,248912.796875,208719.078125,237033.46875,26878.0,1.0,4
224243.796875,250277.765625,284449.5625,293833.1875,220014.578125,248503.84375,208326.84375,236682.984375,26879.0,1.0,4
224226.28125,250076.609375,283824.0,293764.53125,219394.265625,248178.5,208020.546875,236416.109375,26880.0,1.0,4
224274.828125,250207.859375,284261.625,293852.6875,219756.1875,248388.328125,208221.53125,236600.921875,26881.0,1.0,4
224326.046875,250491.71875,285156.5,293980.78125,220597.78125,248846.8125,208655.25,236985.09375,26882.0,1.0,4
224307.28125,250539.109375,285271.5625,293971.59375,220760.046875,248917.265625,208719.078125,237032.125,26883.0,1.0,4
224246.921875,250287.515625,284467.1875,293839.1875,220032.28125,248520.03125,208333.734375,236689.875,26884.0,1.0,4
224212.234375,250068.203125,283819.59375,293750.46875,219391.5,248181.625,208015.53125,236414.328125,26885.0,1.0,4
224257.828125,250197.484375,284247.40625,293834.09375,219746.625,248389.671875,208221.34375,236602.4375,26886.0,1.0,4
224310.140625,250481.625,285134.96875,293958.8125,220582.578125,248840.375,208650.6875,236979.90625,26887.0,1.0,4
224285.734375,250520.421875,285249.3125,293943.0625,220747.53125,248903.578125,208712.46875,237024.890625,26888.0,1.0,4
224216.796875,250262.296875,284437.6875,293803.5,220013.0625,248493.5625,208320.6875,236674.234375,26889.0,1.0,4
224205.078125,250063.1875,283801.90625,293737.625,219382.203125,248166.78125,208011.953125,236406.1875,26890.0,1.0,4
224263.015625,250197.21875,284233.8125,293833.625,219737.234375,248375.8125,208218.046875,236595.28125,26891.0,1.0,4
224323.09375,250486.890625,285131.03125,293968.90625,220579.453125,248831.4375,208652.65625,236977.3125,26892.0,1.0,4
224294.84375,250526.234375,285252.625,293951.125,220747.09375,248901.078125,208714.15625,237020.140625,26893.0,1.0,4
224224.21875,250266.5,284444.375,293813.53125,220016.90625,248499.640625,208319.703125,236667.609375,26894.0,1.0,4
224205.078125,250059.796875,283800.1875,293741.625,219382.65625,248170.09375,208007.046875,236398.9375,26895.0,1.0,4
224253.71875,250190.234375,284218.34375,293828.09375,219730.890625,248373.40625,208210.0,236587.140625,26896.0,1.0,4
224297.078125,250468.390625,285100.0,293945.21875,220560.40625,248819.90625,208633.703125,236961.40625,26897.0,1.0,4
224282.6875,250520.515625,285243.59375,293938.0625,220745.921875,248907.34375,208709.25,237018.71875,26898.0,1.0,4
224227.171875,250282.859375,284463.15625,293816.375,220039.53125,248523.0625,208338.65625,236690.5,26899.0,1.0,4
224196.953125,250065.421875,283806.0,293731.25,219388.375,248181.796875,208016.34375,236409.859375,26900.0,1.0,4
224256.5,250198.375,284222.03125,293818.0625,219730.0,248386.28125,208219.46875,236594.03125,26901.0,1.0,4
224318.1875,250493.15625,285120.75,293955.6875,220575.609375,248842.34375,208652.5625,236979.90625,26902.0,1.0,4
224292.171875,250538.5625,285256.09375,293944.21875,220755.859375,248913.515625,208716.125,237026.21875,26903.0,1.0,4
224218.140625,250276.78125,284454.3125,293800.0,220036.03125,248513.59375,208329.4375,236679.140625,26904.0,1.0,4
224200.609375,250065.703125,283800.125,293726.0,219394.265625,248179.390625,208015.265625,236408.515625,26905.0,1.0,4
224262.84375,250196.859375,284209.96875,293825.3125,219732.40625,248380.734375,208214.109375,236592.78125,26906.0,1.0,4
224307.1875,250468.03125,285092.21875,293944.125,220558.890625,248822.3125,208637.8125,236963.28125,26907.0,1.0,4
224293.421875,250527.390625,285249.3125,293940.90625,220758.890625,248912.609375,208722.296875,237028.1875,26908.0,1.0,4
224229.9375,250281.078125,284462.0,293808.0625,220052.484375,248523.78125,208345.71875,236695.328125,26909.0,1.0,4
224204.453125,250061.859375,283791.53125,293725.0,219393.46875,248180.1875,208018.390625,236415.84375,26910.0,1.0,4
224263.203125,250193.015625,284191.34375,293817.53125,219724.546875,248377.15625,208214.375,236595.734375,26911.0,1.0,4
224312.1875,250477.765625,285084.625,293941.90625,220563.71875,248824.015625,208643.53125,236972.484375,26912.0,1.0,4
224292.25,250536.515625,285249.84375,293936.71875,220771.3125,248916.28125,208728.015625,237038.828125,26913.0,1.0,4
224225.828125,250285.375,284462.0,293800.0,220059.109375,248524.859375,208346.515625,236694.96875,26914.0,1.0,4
224207.046875,250076.609375,283796.09375,293720.875,219403.921875,248185.828125,208025.734375,236416.921875,26915.0,1.0,4
224261.5,250203.65625,284187.0625,293803.5,219721.328125,248375.8125,208213.75,236587.953125,26916.0,1.0,4
224314.875,250486.09375,285082.9375,293933.21875,220559.515625,248826.34375,208644.0625,236965.34375,26917.0,1.0,4
224298.421875,250546.609375,285254.40625,293929.03125,220772.84375,248919.3125,208730.25,237034.09375,26918.0,1.0,4
224229.671875,250297.53125,284468.4375,293790.375,220062.953125,248528.4375,208343.921875,236693.0,26919.0,1.0,4
224208.921875,250083.21875,283795.375,293710.0625,219402.234375,248183.953125,208015.796875,236411.109375,26920.0,1.0,4
224270.4375,250206.25,284183.9375,293806.71875,219719.359375,248377.25,208203.734375,236584.203125,26921.0,1.0,4
224323.09375,250483.234375,285077.375,293942.0,220554.328125,248831.078125,208632.171875,236963.1875,26922.0,1.0,4
224306.109375,250546.34375,285254.40625,293935.75,220772.03125,248935.0625,208723.28125,237031.40625,26923.0,1.0,4
224245.046875,250306.109375,284477.71875,293801.71875,220074.921875,248551.59375,208353.3125,236702.125,26924.0,1.0,4
224219.125,250082.0625,283791.25,293715.34375,219401.515625,248199.6875,208019.109375,236413.34375,26925.0,1.0,4
224266.15625,250194.078125,284159.34375,293794.75,219699.15625,248377.15625,208198.109375,236576.859375,26926.0,1.0,4
224322.46875,250479.109375,285054.75,293929.125,220539.671875,248830.453125,208632.265625,236957.5625,26927.0,1.0,4
224302.625,250539.640625,285240.09375,293926.25,220766.484375,248927.28125,208722.65625,237030.34375,26928.0,1.0,4
224242.546875,250302.09375,284466.90625,293795.0,220071.890625,248541.484375,208349.203125,236697.03125,26929.0,1.0,4
224215.015625,250077.046875,283777.21875,293709.71875,219396.515625,248182.515625,208011.515625,236405.921875,26930.0,1.0,4
224266.5,250190.515625,284145.84375,293793.5,219692.625,248358.65625,208185.59375,236570.34375,26931.0,1.0,4
224320.234375,250475.265625,285041.875,293923.5625,220524.828125,248806.125,208610.8125,236946.03125,26932.0,1.0,4
224307.015625,250541.515625,285244.125,293925.09375,220758.796875,248914.84375,208711.5625,237026.671875,26933.0,1.0,4
224243.890625,250294.046875,284473.875,293795.8125,220067.421875,248531.65625,208339.375,236695.78125,26934.0,1.0,4
224224.578125,250079.203125,283788.84375,293717.84375,219400.984375,248182.875,208009.71875,236412.171875,26935.0,1.0,4
224282.59375,250200.171875,284156.21875,293806.625,219696.5625,248359.625,208190.234375,236577.484375,26936.0,1.0,4
224337.5,250487.15625,285053.96875,293934.46875,220535.546875,248814.984375,208623.0625,236960.328125,26937.0,1.0,4
224310.234375,250543.046875,285247.53125,293922.875,220769.890625,248918.34375,208717.734375,237030.78125,26938.0,1.0,4
224247.546875,250294.484375,284479.6875,293791.34375,220081.640625,248539.15625,208348.671875,236698.28125,26939.0,1.0,4
224223.6875,250066.59375,283781.875,293710.96875,219400.078125,248182.703125,208010.171875,236405.375,26940.0,1.0,4
224276.609375,250185.40625,284139.21875,293802.6875,219690.921875,248357.671875,208187.203125,236573.203125,26941.0,1.0,4
224322.46875,250464.0,285025.78125,293920.1875,220524.46875,248803.0,208615.8125,236948.171875,26942.0,1.0,4
224300.296875,250524.359375,285228.9375,293913.21875,220769.53125,248909.84375,208717.109375,237025.953125,26943.0,1.0,4
224240.671875,250288.5,284469.40625,293780.71875,220085.921875,248534.78125,208353.3125,236700.328125,26944.0,1.0,4
224220.28125,250069.890625,283777.40625,293704.0,219406.171875,248185.375,208020.984375,236412.265625,26945.0,1.0,4
224268.65625,250172.1875,284118.21875,293784.5625,219677.25,248348.90625,208182.015625,236562.46875,26946.0,1.0,4
224319.53125,250455.0625,285014.4375,293910.34375,220512.484375,248797.015625,208610.71875,236940.484375,26947.0,1.0,4
224297.984375,250522.46875,285230.71875,293901.21875,220765.421875,248909.65625,208711.921875,237019.78125,26948.0,1.0,4
224238.875,250288.40625,284477.46875,293776.0625,220093.4375,248540.140625,208349.375,236702.125,26949.0,1.0,4
224215.359375,250062.921875,283775.34375,293692.625,219409.203125,248182.0625,208009.71875,236412.0,26950.0,1.0,4
224262.03125,250167.796875,284104.46875,293768.375,219671.875,248335.046875,208167.34375,236558.453125,26951.0,1.0,4
224319.34375,250458.546875,285005.125,293898.28125,220514.1875,248788.515625,208601.953125,236940.84375,26952.0,1.0,4
224306.5625,250536.6875,285242.78125,293903.1875,220789.921875,248920.484375,208726.40625,237038.921875,26953.0,1.0,4
224245.859375,250300.65625,284490.15625,293778.75,220117.84375,248549.171875,208365.03125,236716.421875,26954.0,1.0,4
224227.4375,250081.515625,283784.5625,293699.875,219426.015625,248193.515625,208021.890625,236420.9375,26955.0,1.0,4
224266.5,250175.84375,284101.9375,293774.625,219671.078125,248345.59375,208171.46875,236560.5,26956.0,1.0,4
224319.25,250460.515625,284996.75,293901.59375,220504.703125,248797.09375,208602.84375,236941.015625,26957.0,1.0,4
224299.140625,250535.625,285231.25,293896.21875,220776.140625,248924.953125,208720.875,237032.9375,26958.0,1.0,4
224235.65625,250299.140625,284477.90625,293763.625,220102.203125,248556.5,208356.625,236708.03125,26959.0,1.0,4
224216.171875,250081.96875,283773.1875,293684.3125,219416.453125,248198.15625,208021.171875,236418.53125,26960.0,1.0,4
224269.546875,250182.734375,284097.46875,293769.96875,219669.828125,248351.5,208179.515625,236565.875,26961.0,1.0,4
224325.78125,250466.859375,284994.59375,293895.40625,220505.515625,248800.046875,208609.828125,236944.953125,26962.0,1.0,4
224307.640625,250539.203125,285235.625,293894.0625,220783.5625,248924.859375,208725.15625,237035.4375,26963.0,1.0,4
224254.34375,250314.34375,284500.53125,293777.125,220129.640625,248562.234375,208375.75,236722.15625,26964.0,1.0,4
224228.234375,250092.703125,283782.59375,293691.125,219430.296875,248195.390625,208029.390625,236419.78125,26965.0,1.0,4
224270.625,250183.796875,284083.25,293761.75,219663.828125,248338.078125,208171.46875,236553.34375,26966.0,1.0,4
224328.5625,250465.796875,284977.96875,293890.5,220495.328125,248787.09375,208601.0625,236931.09375,26967.0,1.0,4
224311.75,250543.671875,285231.6875,293896.03125,220783.65625,248924.140625,208728.5625,237034.359375,26968.0,1.0,4
224245.140625,250309.421875,284490.15625,293770.34375,220123.65625,248559.640625,208375.578125,236720.09375,26969.0,1.0,4
224216.53125,250085.71875,283767.5625,293680.9375,219419.578125,248188.5,208026.4375,236417.09375,26970.0,1.0,4
224270.703125,250182.1875,284074.6875,293762.03125,219656.234375,248338.4375,208175.3125,236561.046875,26971.0,1.0,4
224316.671875,250455.953125,284959.53125,293880.84375,220483.25,248783.78125,208601.15625,236933.59375,26972.0,1.0,4
224300.484375,250540.265625,285220.875,293888.875,220782.140625,248927.90625,208734.546875,237038.734375,26973.0,1.0,4
224242.015625,250313.890625,284489.53125,293770.78125,220133.578125,248568.9375,208383.890625,236724.03125,26974.0,1.0,4
224214.203125,250076.875,283759.25,293677.15625,219420.46875,248195.125,208026.09375,236413.421875,26975.0,1.0,4
224264.71875,250168.421875,284055.28125,293748.6875,219651.59375,248337.8125,208168.59375,236546.640625,26976.0,1.0,4
224315.328125,250444.421875,284944.78125,293879.3125,220482.359375,248782.890625,208594.53125,236922.78125,26977.0,1.0,4
224299.140625,250536.15625,285215.5,293881.09375,220786.421875,248924.140625,208728.203125,237030.515625,26978.0,1.0,4
224238.609375,250308.171875,284488.1875,293757.375,220136.171875,248560.984375,208378.890625,236717.140625,26979.0,1.0,4
224217.875,250082.421875,283764.0,293673.25,219435.046875,248195.84375,208033.15625,236422.734375,26980.0,1.0,4
224265.25,250170.21875,284050.28125,293749.15625,219658.46875,248328.15625,208166.8125,236552.8125,26981.0,1.0,4
224322.921875,250457.203125,284950.4375,293883.25,220495.5,248780.65625,208595.34375,236934.21875,26982.0,1.0,4
224309.953125,250551.53125,285233.40625,293892.65625,220809.859375,248934.34375,208735.171875,237049.296875,26983.0,1.0,4
224243.265625,250318.453125,284502.5,293762.65625,220157.0,248574.828125,208377.546875,236732.515625,26984.0,1.0,4
224216.625,250085.546875,283765.96875,293673.6875,219439.515625,248202.1875,208021.703125,236426.578125,26985.0,1.0,4
224268.390625,250177.09375,284046.25,293751.65625,219652.5625,248334.421875,208156.984375,236551.921875,26986.0,1.0,4
224314.15625,250450.5,284929.875,293868.78125,220475.734375,248774.75,208578.078125,236916.703125,26987.0,1.0,4
224300.125,250545.09375,285219.53125,293877.0,220797.421875,248926.109375,208722.5625,237033.015625,26988.0,1.0,4
224236.46875,250316.65625,284494.4375,293746.375,220152.796875,248564.640625,208376.65625,236721.171875,26989.0,1.0,4
224208.390625,250079.015625,283750.5,293654.8125,219429.671875,248187.25,208018.21875,236409.578125,26990.0,1.0,4
224261.59375,250174.421875,284027.375,293735.71875,219642.921875,248324.765625,208156.359375,236542.171875,26991.0,1.0,4
224322.203125,250462.75,284925.65625,293868.0625,220479.046875,248775.734375,208589.53125,236925.90625,26992.0,1.0,4
224305.84375,250549.5625,285217.5625,293874.125,220800.109375,248927.90625,208728.828125,237038.390625,26993.0,1.0,4
224249.703125,250332.84375,284510.71875,293757.46875,220175.0625,248585.65625,208395.96875,236739.765625,26994.0,1.0,4
224224.125,250095.375,283764.71875,293667.59375,219452.65625,248204.59375,208038.875,236431.3125,26995.0,1.0,4
224272.3125,250179.953125,284023.0,293740.03125,219648.71875,248330.671875,208166.546875,236549.953125,26996.0,1.0,4
224326.140625,250458.8125,284912.25,293871.375,220477.890625,248781.28125,208593.28125,236924.921875,26997.0,1.0,4
224313.09375,250559.21875,285218.65625,293880.3125,220816.46875,248944.71875,208745.0,237045.890625,26998.0,1.0,4
224253.546875,250336.421875,284505.96875,293758.25,220183.734375,248595.046875,208405.703125,236740.125,26999.0,1.0,4
224216.265625,250089.921875,283745.9375,293656.6875,219445.234375,248209.609375,208036.015625,236420.765625,27000.0,1.0,4
224259.53125,250165.203125,283998.0625,293723.40625,219632.71875,248328.34375,208158.671875,236534.578125,27001.0,1.0,4
224322.828125,250454.34375,284902.78125,293864.65625,220471.53125,248784.765625,208599.28125,236922.78125,27002.0,1.0,4
224301.734375,250543.578125,285209.15625,293870.28125,220805.65625,248938.453125,208742.234375,237039.546875,27003.0,1.0,4
224237.984375,250318.890625,284498.375,293737.0625,220176.765625,248582.53125,208398.640625,236729.03125,27004.0,1.0,4
224217.78125,250082.953125,283749.5,293648.375,219449.96875,248200.84375,208038.609375,236416.921875,27005.0,1.0,4
224261.671875,250154.65625,283991.53125,293713.90625,219623.6875,248309.921875,208149.109375,236523.125,27006.0,1.0,4
224329.984375,250444.515625,284895.25,293855.28125,220459.734375,248766.25,208587.46875,236909.28125,27007.0,1.0,4
224315.234375,250543.75,285213.46875,293867.59375,220806.28125,248928.53125,208742.140625,237036.328125,27008.0,1.0,4
224255.15625,250324.703125,284510.53125,293746.28125,220186.421875,248580.734375,208405.265625,236738.421875,27009.0,1.0,4
224225.203125,250086.34375,283751.125,293652.125,219449.53125,248194.9375,208034.40625,236419.515625,27010.0,1.0,4
224277.328125,250168.0625,283995.03125,293728.84375,219628.515625,248316.0,208152.0625,236534.75,27011.0,1.0,4
224348.84375,250470.359375,284907.96875,293872.34375,220473.6875,248785.203125,208598.734375,236929.75,27012.0,1.0,4
224317.46875,250555.375,285220.25,293862.78125,220812.0,248940.59375,208743.671875,237043.296875,27013.0,1.0,4
224248.265625,250328.1875,284511.96875,293729.75,220187.3125,248589.234375,208401.5,236738.328125,27014.0,1.0,4
224222.34375,250090.546875,283749.78125,293637.28125,219453.015625,248207.28125,208034.140625,236421.390625,27015.0,1.0,4
224275.0,250165.390625,283985.09375,293711.875,219622.53125,248319.9375,208146.15625,236526.265625,27016.0,1.0,4
224335.0,250450.328125,284880.875,293853.125,220450.171875,248767.234375,208575.046875,236903.015625,27017.0,1.0,4
224320.6875,250561.1875,285218.8125,293867.59375,220817.71875,248945.25,208746.34375,237045.71875,27018.0,1.0,4
224254.53125,250345.546875,284522.875,293737.34375,220202.0625,248604.609375,208412.140625,236745.484375,27019.0,1.0,4
224231.28125,250106.46875,283761.3125,293647.03125,219464.375,248219.625,208046.734375,236427.640625,27020.0,1.0,4
224275.265625,250175.21875,283979.5625,293710.78125,219623.328125,248323.421875,208153.84375,236530.1875,27021.0,1.0,4
224328.46875,250455.59375,284864.59375,293839.90625,220444.453125,248764.109375,208576.03125,236903.828125,27022.0,1.0,4
224324.171875,250568.25,285213.09375,293862.78125,220819.234375,248950.875,208746.796875,237046.15625,27023.0,1.0,4
224268.5625,250351.265625,284526.0,293742.4375,220213.515625,248614.703125,208419.203125,236749.6875,27024.0,1.0,4
224241.921875,250113.0,283757.46875,293647.9375,219470.0,248221.5,208049.6875,236429.96875,27025.0,1.0,4
224286.265625,250180.578125,283968.28125,293709.625,219617.609375,248317.515625,208148.125,236527.78125,27026.0,1.0,4
224336.6875,250447.640625,284848.15625,293834.78125,220433.8125,248757.578125,208567.53125,236898.1875,27027.0,1.0,4
224322.203125,250556.1875,285197.46875,293855.09375,220809.234375,248939.96875,208739.203125,237043.390625,27028.0,1.0,4
224258.109375,250343.3125,284513.65625,293733.5,220208.234375,248606.21875,208413.125,236756.578125,27029.0,1.0,4
224243.796875,250116.125,283757.65625,293658.84375,219480.90625,248235.0,208057.46875,236451.78125,27030.0,1.0,4
224282.875,250172.359375,283956.125,293714.09375,219613.765625,248321.453125,208144.734375,236540.46875,27031.0,1.0,4
224329.265625,250447.640625,284836.15625,293832.1875,220425.21875,248753.828125,208557.875,236906.515625,27032.0,1.0,4
224323.734375,250568.25,285203.28125,293857.15625,220818.171875,248947.390625,208739.28125,237056.4375,27033.0,1.0,4
224258.734375,250349.828125,284522.53125,293731.1875,220217.359375,248608.546875,208409.828125,236757.5625,27034.0,1.0,4
224230.921875,250105.125,283745.21875,293635.0625,219468.03125,248215.78125,208034.21875,236434.53125,27035.0,1.0,4
224274.203125,250166.375,283938.34375,293694.34375,219598.65625,248297.5,208127.03125,236524.734375,27036.0,1.0,4
224332.21875,250446.21875,284824.53125,293825.9375,220419.953125,248742.828125,208556.0,236894.53125,27037.0,1.0,4
224321.9375,250559.578125,285193.0625,293845.34375,220815.84375,248937.828125,208739.90625,237048.390625,27038.0,1.0,4
224267.84375,250354.84375,284523.9375,293730.28125,220228.625,248612.46875,208424.3125,236768.546875,27039.0,1.0,4
224228.59375,250097.609375,283730.8125,293623.625,219461.59375,248208.171875,208036.28125,236432.296875,27040.0,1.0,4
224268.828125,250151.890625,283915.1875,293680.75,219584.4375,248291.421875,208122.5625,236521.609375,27041.0,1.0,4
224335.171875,250442.453125,284810.0625,293823.96875,220411.640625,248741.9375,208553.859375,236907.84375,27042.0,1.0,4
224324.0,250561.1875,285188.6875,293844.1875,220813.15625,248935.953125,208737.40625,237064.40625,27043.0,1.0,4
224261.234375,250350.015625,284519.46875,293722.15625,220225.125,248601.65625,208414.921875,236778.390625,27044.0,1.0,4
224231.109375,250102.265625,283735.03125,293628.4375,219466.96875,248203.53125,208033.0625,236450.4375,27045.0,1.0,4
224275.453125,250159.03125,283920.28125,293686.90625,219588.828125,248286.671875,208119.609375,236540.296875,27046.0,1.0,4
224340.09375,250443.796875,284816.03125,293823.25,220412.0,248735.671875,208551.984375,236919.828125,27047.0,1.0,4
224335.703125,250566.90625,285205.78125,293851.15625,220820.84375,248935.953125,208741.703125,237075.390625,27048.0,1.0,4
224274.375,250357.96875,284544.96875,293730.0,220242.484375,248612.5625,208424.484375,236789.5625,27049.0,1.0,4
224229.84375,250094.75,283740.125,293615.125,219467.859375,248201.734375,208028.140625,236440.609375,27050.0,1.0,4
224268.03125,250142.234375,283908.03125,293669.75,219573.796875,248281.484375,208112.28125,236525.015625,27051.0,1.0,4
224323.453125,250413.40625,284791.0,293797.96875,220388.296875,248726.5625,208539.8125,236903.734375,27052.0,1.0,4
224329.1875,250545.90625,285192.4375,293834.34375,220810.296875,248941.9375,208740.625,237072.71875,27053.0,1.0,4
224273.84375,250347.421875,284539.5,293717.21875,220239.609375,248625.34375,208434.9375,236796.359375,27054.0,1.0,4
224232.53125,250092.421875,283739.3125,293611.28125,219472.953125,248219.359375,208052.015625,236462.78125,27055.0,1.0,4
224259.890625,250132.390625,283890.3125,293655.625,219565.3125,248289.8125,208124.703125,236533.328125,27056.0,1.0,4
224318.8125,250417.6875,284773.9375,293793.59375,220385.796875,248738.265625,208558.421875,236914.828125,27057.0,1.0,4
224317.5625,250551.890625,285179.65625,293826.125,220813.15625,248945.15625,208759.40625,237084.703125,27058.0,1.0,4
224253.09375,250348.9375,284526.625,293703.1875,220238.453125,248615.6875,208438.25,236797.4375,27059.0,1.0,4
224212.0625,250089.03125,283720.28125,293593.84375,219460.96875,248200.671875,208041.015625,236454.46875,27060.0,1.0,4
224264.453125,250142.046875,283882.0,293659.375,219562.71875,248274.34375,208118.890625,236534.578125,27061.0,1.0,4
224331.859375,250428.78125,284778.59375,293802.53125,220387.859375,248725.3125,208550.546875,236917.6875,27062.0,1.0,4
224325.515625,250561.640625,285191.09375,293828.96875,220818.171875,248939.96875,208749.5625,237079.59375,27063.0,1.0,4
224254.96875,250353.234375,284536.1875,293695.3125,220248.203125,248618.375,208434.3125,236790.640625,27064.0,1.0,4
224224.578125,250100.296875,283734.40625,293592.59375,219482.421875,248218.453125,208051.484375,236458.578125,27065.0,1.0,4
224271.15625,250152.234375,283881.5625,293649.09375,219575.59375,248290.703125,208130.328125,236533.59375,27066.0,1.0,4
224321.765625,250426.0,284752.84375,293776.3125,220378.109375,248724.234375,208548.84375,236901.5,27067.0,1.0,4
224312.8125,250557.078125,285166.4375,293804.75,220811.015625,248933.265625,208747.6875,237072.453125,27068.0,1.0,4
224253.8125,250361.09375,284528.15625,293690.65625,220255.796875,248625.171875,208444.25,236802.96875,27069.0,1.0,4
224223.6875,250105.484375,283728.21875,293591.53125,219490.828125,248229.8125,208064.171875,236471.546875,27070.0,1.0,4
224259.359375,250138.828125,283856.4375,293640.96875,219560.296875,248282.109375,208124.34375,236531.359375,27071.0,1.0,4
224317.5625,250421.53125,284733.25,293775.96875,220370.421875,248723.34375,208549.03125,236905.078125,27072.0,1.0,4
224310.3125,250553.953125,285157.3125,293804.125,220811.734375,248942.296875,208753.5,237074.6875,27073.0,1.0,4
224255.15625,250353.140625,284526.375,293693.1875,220260.1875,248633.390625,208451.484375,236802.265625,27074.0,1.0,4
224220.90625,250096.09375,283720.0,293593.40625,219487.4375,248223.015625,208061.9375,236468.140625,27075.0,1.0,4
224253.453125,250128.734375,283839.625,293632.90625,219547.34375,248265.484375,208110.046875,236521.171875,27076.0,1.0,4
224315.234375,250408.65625,284721.1875,293765.875,220354.0625,248706.0,208531.421875,236889.25,27077.0,1.0,4
224324.4375,250560.296875,285171.25,293812.8125,220820.40625,248946.671875,208755.734375,237078.53125,27078.0,1.0,4
224267.84375,250362.796875,284548.09375,293698.0,220277.796875,248636.609375,208458.90625,236809.40625,27079.0,1.0,4
224224.21875,250095.921875,283726.1875,293578.5625,219492.890625,248220.34375,208055.6875,236457.5,27080.0,1.0,4
224253.09375,250123.984375,283833.71875,293622.46875,219543.5,248258.421875,208099.578125,236505.609375,27081.0,1.0,4
224315.953125,250403.828125,284712.875,293761.9375,220352.890625,248704.828125,208525.953125,236885.046875,27082.0,1.0,4
224316.578125,250549.125,285157.125,293795.46875,220813.15625,248937.296875,208746.53125,237068.875,27083.0,1.0,4
224253.625,250351.796875,284533.34375,293675.125,220264.296875,248628.84375,208446.5625,236798.328125,27084.0,1.0,4
224228.59375,250106.46875,283729.75,293580.0625,219492.890625,248229.359375,208067.03125,236469.84375,27085.0,1.0,4
224259.890625,250132.03125,283831.75,293626.03125,219541.703125,248276.125,208115.765625,236521.078125,27086.0,1.0,4
224312.640625,250406.515625,284702.9375,293755.5,220342.609375,248709.75,208528.546875,236888.359375,27087.0,1.0,4
224311.03125,250551.71875,285153.5625,293789.46875,220807.4375,248941.40625,208744.203125,237069.765625,27088.0,1.0,4
224245.765625,250357.96875,284536.375,293671.71875,220271.53125,248635.90625,208448.796875,236803.421875,27089.0,1.0,4
224211.34375,250103.15625,283723.5,293568.09375,219495.75,248225.875,208060.234375,236468.234375,27090.0,1.0,4
224259.796875,250138.65625,283831.125,293622.0,219550.109375,248274.421875,208117.453125,236525.453125,27091.0,1.0,4
224321.3125,250412.6875,284701.15625,293757.0,220348.96875,248709.75,208536.328125,236893.546875,27092.0,1.0,4
224312.90625,250550.375,285153.09375,293788.03125,220812.53125,248937.296875,208750.015625,237074.765625,27093.0,1.0,4
224267.671875,250368.25,284551.9375,293687.71875,220287.984375,248642.25,208465.609375,236821.03125,27094.0,1.0,4
224228.59375,250107.0,283729.3125,293575.15625,219498.171875,248224.890625,208063.90625,236471.71875,27095.0,1.0,4
224250.234375,250116.21875,283808.53125,293607.25,219521.234375,248247.6875,208093.046875,236506.40625,27096.0,1.0,4
224315.140625,250395.78125,284685.96875,293745.21875,220325.453125,248690.078125,208514.78125,236881.921875,27097.0,1.0,4
224324.265625,250559.140625,285162.9375,293791.15625,220813.34375,248940.59375,208750.640625,237077.640625,27098.0,1.0,4
224277.6875,250376.75,284570.34375,293691.9375,220299.078125,248657.265625,208470.625,236823.984375,27099.0,1.0,4
224228.59375,250098.953125,283735.5625,293570.34375,219496.46875,248232.3125,208056.65625,236463.765625,27100.0,1.0,4
224268.828125,250128.015625,283822.28125,293616.5625,219531.875,248273.265625,208101.28125,236511.953125,27101.0,1.0,4
224329.359375,250406.0625,284687.5625,293750.5625,220330.8125,248706.625,208518.0,236882.09375,27102.0,1.0,4
224321.140625,250550.28125,285151.59375,293785.8125,220816.296875,248946.046875,208746.4375,237074.0625,27103.0,1.0,4
224254.4375,250351.625,284543.09375,293663.65625,220292.8125,248644.9375,208455.0625,236807.984375,27104.0,1.0,4
224220.546875,250100.75,283720.4375,293556.90625,219507.8125,248233.203125,208061.40625,236465.28125,27105.0,1.0,4
224268.734375,250134.09375,283805.84375,293615.3125,219537.40625,248273.53125,208105.21875,236512.40625,27106.0,1.0,4
224338.296875,250418.234375,284684.0,293755.03125,220340.203125,248716.015625,208528.734375,236886.75,27107.0,1.0,4
224337.671875,250568.34375,285165.0,293793.40625,220832.65625,248956.421875,208763.6875,237082.015625,27108.0,1.0,4
224267.3125,250370.484375,284559.53125,293670.90625,220311.234375,248653.78125,208469.09375,236813.4375,27109.0,1.0,4
224226.625,250105.125,283726.71875,293558.78125,219517.828125,248233.390625,208065.328125,236463.9375,27110.0,1.0,4
224265.4375,250127.03125,283796.4375,293607.4375,219529.375,248260.296875,208095.015625,236501.578125,27111.0,1.0,4
224328.015625,250398.375,284663.59375,293744.3125,220324.109375,248694.546875,208512.1875,236875.21875,27112.0,1.0,4
224330.96875,250556.453125,285151.21875,293784.0,220820.9375,248943.8125,208743.84375,237072.53125,27113.0,1.0,4
224267.9375,250370.65625,284565.0,293674.21875,220313.828125,248656.546875,208467.125,236816.75,27114.0,1.0,4
224222.25,250104.59375,283726.1875,293552.4375,219515.515625,248238.390625,208063.8125,236460.375,27115.0,1.0,4
224264.1875,250130.609375,283789.46875,293596.34375,219523.5625,248264.6875,208098.59375,236499.34375,27116.0,1.0,4
224334.015625,250408.484375,284660.3125,293738.40625,220319.1875,248704.203125,208519.515625,236874.59375,27117.0,1.0,4
224334.28125,250561.640625,285151.78125,293778.46875,220823.09375,248956.875,208756.8125,237074.765625,27118.0,1.0,4
224270.53125,250372.8125,284562.65625,293662.96875,220316.328125,248665.046875,208476.15625,236818.796875,27119.0,1.0,4
224230.46875,250109.59375,283726.96875,293554.5,219517.921875,248244.125,208069.625,236466.984375,27120.0,1.0,4
224258.1875,250116.21875,283773.125,293592.21875,219510.140625,248254.046875,208088.140625,236496.3125,27121.0,1.0,4
224322.46875,250396.328125,284639.46875,293730.1875,220305.515625,248686.328125,208508.796875,236870.296875,27122.0,1.0,4
224327.75,250560.109375,285145.96875,293774.625,220822.640625,248947.65625,208755.640625,237079.0625,27123.0,1.0,4
224270.984375,250384.15625,284576.0625,293669.21875,220334.390625,248669.875,208484.390625,236834.53125,27124.0,1.0,4
224230.75,250117.640625,283735.84375,293555.84375,219536.34375,248248.40625,208081.515625,236481.375,27125.0,1.0,4
224265.96875,250129.078125,283773.5625,293594.75,219524.1875,248256.90625,208096.71875,236502.921875,27126.0,1.0,4
224328.203125,250403.5625,284634.625,293726.53125,220314.546875,248690.34375,208510.140625,236873.703125,27127.0,1.0,4
224340.984375,250577.375,285156.5,293782.03125,220842.125,248965.546875,208766.28125,237089.96875,27128.0,1.0,4
224281.265625,250398.203125,284590.65625,293670.28125,220355.75,248691.515625,208498.25,236842.5,27129.0,1.0,4
224234.140625,250129.359375,283747.1875,293551.03125,219551.546875,248264.953125,208090.375,236484.5,27130.0,1.0,4
224268.109375,250139.015625,283776.25,293587.3125,219529.453125,248270.046875,208104.5,236505.609375,27131.0,1.0,4
224326.59375,250408.75,284626.0625,293720.625,220307.296875,248695.265625,208509.15625,236868.421875,27132.0,1.0,4
224325.15625,250568.4375,285139.0625,293767.28125,220829.703125,248959.828125,208752.96875,237077.09375,27133.0,1.0,4
224261.859375,250388.359375,284573.75,293652.0625,220348.25,248677.109375,208483.765625,236835.4375,27134.0,1.0,4
224223.234375,250117.28125,283729.65625,293541.53125,219547.515625,248250.46875,208079.28125,236486.03125,27135.0,1.0,4
224261.59375,250123.28125,283753.8125,293582.21875,219518.375,248249.296875,208088.765625,236504.171875,27136.0,1.0,4
224327.75,250401.515625,284614.78125,293718.03125,220299.609375,248679.171875,208503.15625,236869.3125,27137.0,1.0,4
224329.71875,250565.65625,285139.0625,293761.3125,220830.234375,248949.09375,208755.921875,237084.15625,27138.0,1.0,4
224268.734375,250386.21875,284578.9375,293648.65625,220350.578125,248674.53125,208483.9375,236836.234375,27139.0,1.0,4
224223.234375,250119.25,283735.21875,293537.53125,219551.625,248255.46875,208081.15625,236486.03125,27140.0,1.0,4
224267.40625,250131.234375,283756.40625,293587.9375,219522.84375,248262.53125,208093.765625,236508.640625,27141.0,1.0,4
224334.546875,250402.5,284605.9375,293725.53125,220299.96875,248686.5,208499.671875,236867.34375,27142.0,1.0,4
224334.28125,250566.546875,285137.0,293772.84375,220835.609375,248952.9375,208755.640625,237079.875,27143.0,1.0,4
224277.765625,250401.78125,284595.21875,293671.09375,220372.5625,248688.375,208500.03125,236844.734375,27144.0,1.0,4
224229.84375,250122.5625,283736.71875,293540.75,219555.03125,248256.640625,208079.1875,236479.328125,27145.0,1.0,4
224276.609375,250130.6875,283751.03125,293586.875,219517.5625,248258.6875,208088.046875,236500.515625,27146.0,1.0,4
224338.390625,250402.5,284599.6875,293715.96875,220291.46875,248680.78125,208495.390625,236860.375,27147.0,1.0,4
224340.09375,250571.375,285133.71875,293754.78125,220830.234375,248952.9375,208750.90625,237075.84375,27148.0,1.0,4
224281.34375,250401.953125,284593.25,293649.8125,220368.453125,248689.71875,208497.265625,236847.671875,27149.0,1.0,4
224231.640625,250123.1875,283735.125,293526.875,219550.203125,248250.734375,208076.6875,236479.328125,27150.0,1.0,4
224271.6875,250131.5,283743.59375,293568.90625,219505.5,248247.25,208079.734375,236488.984375,27151.0,1.0,4
224332.84375,250397.03125,284591.28125,293704.0,220278.78125,248669.515625,208488.046875,236848.9375,27152.0,1.0,4
224335.171875,250562.4375,285129.9375,293751.5625,220825.5,248941.046875,208747.875,237068.515625,27153.0,1.0,4
224279.921875,250398.109375,284593.59375,293650.4375,220372.203125,248678.28125,208494.21875,236838.921875,27154.0,1.0,4
224234.328125,250127.46875,283740.46875,293529.28125,219563.609375,248248.765625,208083.03125,236481.921875,27155.0,1.0,4
224268.390625,250121.75,283731.53125,293563.625,219506.390625,248234.28125,208078.484375,236486.65625,27156.0,1.0,4
224334.546875,250396.859375,284581.53125,293704.8125,220282.796875,248660.84375,208491.1875,236852.421875,27157.0,1.0,4
224348.671875,250581.21875,285140.15625,293768.09375,220848.921875,248952.3125,208766.46875,237089.34375,27158.0,1.0,4
224281.265625,250402.40625,284600.03125,293653.65625,220390.984375,248680.421875,208505.390625,236852.15625,27159.0,1.0,4
224240.9375,250140.0,283751.03125,293538.40625,219586.5,248258.875,208100.828125,236497.03125,27160.0,1.0,4
224276.609375,250137.3125,283736.1875,293574.53125,219525.078125,248248.953125,208098.59375,236503.640625,27161.0,1.0,4
224333.5625,250399.28125,284571.0625,293703.625,220284.046875,248663.4375,208496.359375,236858.59375,27162.0,1.0,4
224337.671875,250573.34375,285128.0625,293750.03125,220841.140625,248944.71875,208759.765625,237083.984375,27163.0,1.0,4
224278.84375,250409.015625,284601.5625,293637.90625,220394.296875,248687.390625,208508.171875,236850.984375,27164.0,1.0,4
224243.703125,250146.78125,283753.8125,293529.1875,219590.796875,248263.078125,208105.296875,236499.265625,27165.0,1.0,4
224271.0625,250131.953125,283722.875,293558.25,219512.828125,248236.34375,208089.125,236492.640625,27166.0,1.0,4
224341.15625,250401.234375,284567.9375,293697.1875,220282.359375,248659.140625,208495.828125,236853.671875,27167.0,1.0,4
224342.953125,250568.96875,285130.21875,293747.25,220845.34375,248938.1875,208761.1875,237079.421875,27168.0,1.0,4
224268.734375,250390.59375,284597.25,293628.09375,220389.109375,248665.3125,208495.296875,236836.765625,27169.0,1.0,4
224225.5625,250124.890625,283740.46875,293514.4375,219578.265625,248239.640625,208082.765625,236477.796875,27170.0,1.0,4
224260.34375,250119.96875,283707.125,293546.90625,219499.59375,248220.609375,208068.28125,236477.53125,27171.0,1.0,4
224333.203125,250393.734375,284552.28125,293693.53125,220268.234375,248650.390625,208480.0,236846.34375,27172.0,1.0,4
224341.609375,250571.828125,285123.4375,293748.78125,220842.484375,248945.875,208755.296875,237083.359375,27173.0,1.0,4
224271.25,250399.625,284600.125,293631.75,220399.75,248683.46875,208496.546875,236848.484375,27174.0,1.0,4
224227.171875,250127.5625,283734.40625,293514.53125,219583.1875,248251.625,208077.578125,236482.890625,27175.0,1.0,4
224260.25,250119.703125,283694.0625,293544.9375,219502.453125,248233.203125,208067.390625,236480.21875,27176.0,1.0,4
224325.515625,250386.3125,284531.1875,293677.09375,220262.421875,248651.71875,208473.65625,236837.578125,27177.0,1.0,4
224333.109375,250571.375,285112.0625,293736.53125,220841.328125,248946.234375,208751.796875,237075.390625,27178.0,1.0,4
224269.453125,250411.171875,284605.84375,293624.25,220414.40625,248695.0,208508.265625,236854.109375,27179.0,1.0,4
224228.234375,250136.234375,283744.5,293509.875,219597.046875,248260.125,208092.15625,236491.578125,27180.0,1.0,4
224267.578125,250126.046875,283697.375,293545.375,219503.703125,248229.8125,208071.234375,236484.234375,27181.0,1.0,4
224342.0625,250399.71875,284535.3125,293686.65625,220266.4375,248654.578125,208477.765625,236844.28125,27182.0,1.0,4
224354.21875,250585.328125,285121.625,293744.75,220853.3125,248957.5,208761.1875,237084.515625,27183.0,1.0,4
224287.78125,250427.609375,284620.15625,293634.53125,220430.140625,248710.640625,208521.484375,236862.515625,27184.0,1.0,4
224231.1875,250152.953125,283743.15625,293502.75,219599.546875,248263.078125,208095.28125,236489.25,27185.0,1.0,4
224258.90625,250134.265625,283679.0625,293526.53125,219489.578125,248226.328125,208066.046875,236470.65625,27186.0,1.0,4
224322.46875,250389.96875,284507.78125,293663.125,220244.171875,248645.015625,208469.71875,236826.9375,27187.0,1.0,4
224334.1875,250572.359375,285095.96875,293725.0,220832.390625,248945.78125,208756.71875,237070.5625,27188.0,1.0,4
224275.0,250413.125,284600.65625,293614.9375,220413.78125,248703.21875,208516.84375,236851.96875,27189.0,1.0,4
224233.421875,250135.609375,283731.0,293496.21875,219591.0625,248267.90625,208095.46875,236487.640625,27190.0,1.0,4
224260.421875,250116.296875,283658.21875,293523.375,219475.28125,248223.203125,208063.28125,236468.421875,27191.0,1.0,4
224318.453125,250377.71875,284482.90625,293654.625,220224.328125,248636.171875,208462.484375,236822.5625,27192.0,1.0,4
224330.515625,250565.03125,285081.75,293715.96875,220824.0625,248941.5,208755.5625,237070.84375,27193.0,1.0,4
224277.859375,250416.0,284602.1875,293618.15625,220426.125,248708.40625,208528.015625,236862.96875,27194.0,1.0,4
224234.140625,250143.390625,283737.15625,293500.6875,219610.640625,248274.78125,208110.3125,236500.59375,27195.0,1.0,4
224263.640625,250115.234375,283656.25,293526.96875,219484.65625,248224.984375,208065.25,236469.484375,27196.0,1.0,4
224320.15625,250373.4375,284471.1875,293650.4375,220225.84375,248629.375,208456.578125,236816.203125,27197.0,1.0,4
224336.953125,250568.25,285081.6875,293714.09375,220834.625,248947.75,208755.734375,237070.921875,27198.0,1.0,4
224278.84375,250415.28125,284603.0625,293613.5,220435.421875,248713.328125,208527.5625,236858.234375,27199.0,1.0,4
224231.90625,250142.3125,283733.9375,293493.53125,219613.40625,248277.46875,208108.4375,236493.0,27200.0,1.0,4
224266.234375,250119.96875,283652.9375,293520.53125,219484.75,248228.65625,208069.1875,236469.125,27201.0,1.0,4
224330.96875,250383.265625,284471.46875,293652.84375,220226.734375,248637.0625,208462.296875,236820.046875,27202.0,1.0,4
224337.765625,250569.59375,285078.0,293709.28125,220833.546875,248950.25,208756.1875,237068.6875,27203.0,1.0,4
224274.109375,250415.1875,284601.28125,293602.0625,220435.953125,248715.109375,208525.0625,236852.421875,27204.0,1.0,4
224236.28125,250148.9375,283734.3125,293487.71875,219614.65625,248277.203125,208106.734375,236486.75,27205.0,1.0,4
224264.8125,250119.078125,283640.78125,293506.5,219477.6875,248223.46875,208062.125,236455.0,27206.0,1.0,4
224319.4375,250370.484375,284451.71875,293628.0,220209.3125,248625.4375,208449.78125,236795.828125,27207.0,1.0,4
224337.40625,250574.421875,285076.5,293699.25,220830.59375,248945.0625,208756.625,237058.234375,27208.0,1.0,4
224280.90625,250430.65625,284613.34375,293605.09375,220445.515625,248718.515625,208536.328125,236854.203125,27209.0,1.0,4
224243.625,250161.625,283741.375,293489.78125,219622.703125,248285.78125,208115.9375,236487.640625,27210.0,1.0,4
224272.234375,250129.359375,283636.78125,293508.09375,219474.296875,248221.140625,208063.1875,236449.1875,27211.0,1.0,4
224332.671875,250380.140625,284444.65625,293638.09375,220204.84375,248621.234375,208447.1875,236793.40625,27212.0,1.0,4
224343.390625,250576.203125,285068.71875,293703.90625,220823.171875,248940.421875,208748.046875,237056.625,27213.0,1.0,4
224294.3125,250442.8125,284626.15625,293616.46875,220461.609375,248733.796875,208544.734375,236873.34375,27214.0,1.0,4
224246.65625,250163.6875,283751.46875,293492.8125,219638.796875,248293.375,208123.453125,236503.640625,27215.0,1.0,4
224263.28125,250120.140625,283628.28125,293500.78125,219471.875,248218.90625,208058.453125,236451.609375,27216.0,1.0,4
224328.015625,250375.140625,284434.71875,293634.53125,220201.171875,248620.078125,208446.296875,236794.21875,27217.0,1.0,4
224343.84375,250577.640625,285066.46875,293698.0,220825.953125,248941.5,208753.5,237055.90625,27218.0,1.0,4
224287.15625,250435.21875,284617.65625,293603.59375,220451.328125,248718.328125,208538.03125,236858.40625,27219.0,1.0,4
224242.1875,250157.875,283744.59375,293480.75,219628.78125,248278.890625,208114.515625,236493.53125,27220.0,1.0,4
224272.9375,250126.671875,283628.4375,293499.34375,219471.875,248215.0625,208057.734375,236454.90625,27221.0,1.0,4
224341.25,250387.65625,284435.875,293635.78125,220205.640625,248621.328125,208452.109375,236805.484375,27222.0,1.0,4
224346.53125,250580.328125,285059.9375,293696.03125,220823.71875,248941.578125,208749.03125,237060.640625,27223.0,1.0,4
224292.171875,250444.875,284622.9375,293604.3125,220463.21875,248728.078125,208540.984375,236871.640625,27224.0,1.0,4
224237.453125,250159.21875,283740.65625,293474.40625,219632.0,248283.09375,208113.34375,236494.796875,27225.0,1.0,4
224260.515625,250111.46875,283607.875,293487.0,219458.46875,248210.59375,208047.8125,236446.78125,27226.0,1.0,4
224322.65625,250364.046875,284409.78125,293618.15625,220184.453125,248610.78125,208433.421875,236794.21875,27227.0,1.0,4
224347.234375,250575.9375,285057.4375,293693.96875,220824.609375,248945.25,208750.109375,237063.421875,27228.0,1.0,4
224298.6875,250448.0,284628.125,293606.09375,220473.140625,248736.84375,208548.3125,236875.484375,27229.0,1.0,4
224246.921875,250162.609375,283744.0625,293476.90625,219640.40625,248287.03125,208117.375,236496.125,27230.0,1.0,4
224278.671875,250123.359375,283614.78125,293499.6875,219469.828125,248216.40625,208059.25,236454.5625,27231.0,1.0,4
224337.140625,250367.625,284406.65625,293624.875,220183.296875,248608.71875,208436.375,236793.3125,27232.0,1.0,4
224351.171875,250575.140625,285056.0,293693.4375,220822.734375,248938.71875,208749.125,237060.46875,27233.0,1.0,4
224291.453125,250441.921875,284628.8125,293594.75,220475.296875,248735.3125,208549.65625,236875.578125,27234.0,1.0,4
224233.609375,250157.34375,283739.40625,293460.4375,219642.921875,248287.296875,208117.453125,236496.125,27235.0,1.0,4
224263.640625,250107.625,283594.375,293484.40625,219459.8125,248209.34375,208047.640625,236446.859375,27236.0,1.0,4
224329.1875,250362.703125,284390.125,293615.3125,220180.875,248610.15625,208433.328125,236790.1875,27237.0,1.0,4
224341.34375,250571.203125,285042.5,293678.78125,220825.671875,248941.765625,208746.96875,237055.015625,27238.0,1.0,4
224283.859375,250438.34375,284623.625,293584.46875,220484.140625,248739.4375,208547.78125,236869.3125,27239.0,1.0,4
224233.515625,250155.28125,283740.3125,293459.5625,219652.84375,248295.96875,208117.8125,236493.53125,27240.0,1.0,4
224252.734375,250099.671875,283578.75,293469.5625,219452.5625,248205.21875,208038.328125,236431.3125,27241.0,1.0,4
224316.578125,250351.078125,284370.34375,293604.75,220166.578125,248600.046875,208423.59375,236774.546875,27242.0,1.0,4
224341.78125,250562.078125,285034.90625,293679.6875,220817.359375,248938.09375,208743.578125,237048.84375,27243.0,1.0,4
224284.5625,250432.890625,284621.75,293583.90625,220482.625,248733.625,208545.625,236863.6875,27244.0,1.0,4
224240.578125,250164.671875,283747.8125,293463.3125,219666.515625,248303.84375,208131.234375,236504.171875,27245.0,1.0,4
224269.28125,250116.5625,283584.71875,293476.28125,219463.390625,248218.640625,208054.96875,236442.125,27246.0,1.0,4
224325.421875,250353.859375,284360.25,293597.96875,220156.296875,248597.28125,208422.875,236766.9375,27247.0,1.0,4
224345.90625,250567.453125,285028.9375,293674.5625,220816.109375,248939.703125,208746.34375,237046.4375,27248.0,1.0,4
224297.890625,250446.484375,284634.1875,293587.6875,220494.6875,248750.34375,208561.1875,236874.765625,27249.0,1.0,4
224241.65625,250164.484375,283749.6875,293456.34375,219661.59375,248306.703125,208132.484375,236498.359375,27250.0,1.0,4
224264.546875,250107.09375,283573.28125,293469.125,219449.265625,248214.078125,208048.53125,236434.0,27251.0,1.0,4
224327.390625,250355.546875,284354.25,293595.71875,220152.890625,248604.25,208426.453125,236769.8125,27252.0,1.0,4
224342.953125,250571.921875,285024.90625,293663.59375,220817.90625,248948.28125,208752.421875,237050.0,27253.0,1.0,4
224293.15625,250454.96875,284635.25,293580.96875,220505.875,248763.578125,208570.484375,236883.984375,27254.0,1.0,4
224243.265625,250176.46875,283756.46875,293460.0,219678.234375,248320.65625,208146.421875,236514.375,27255.0,1.0,4
224257.484375,250108.34375,283564.71875,293460.4375,219449.078125,248213.8125,208048.53125,236437.921875,27256.0,1.0,4
224316.484375,250345.625,284335.75,293584.46875,220140.546875,248593.703125,208416.34375,236766.59375,27257.0,1.0,4
224335.625,250556.265625,285013.0,293660.625,220804.671875,248935.765625,208738.75,237042.234375,27258.0,1.0,4
224282.875,250442.09375,284628.65625,293569.25,220498.53125,248752.671875,208557.609375,236873.34375,27259.0,1.0,4
224237.1875,250172.53125,283753.25,293445.6875,219677.96875,248313.671875,208136.6875,236505.078125,27260.0,1.0,4
224258.375,250110.40625,283561.65625,293453.21875,219450.59375,248208.0,208039.59375,236430.78125,27261.0,1.0,4
224330.96875,250368.421875,284341.28125,293587.75,220150.828125,248595.3125,208414.5625,236767.65625,27262.0,1.0,4
224352.515625,250587.125,285027.65625,293661.96875,220825.5,248948.640625,208750.28125,237058.859375,27263.0,1.0,4
224304.859375,250469.1875,284652.53125,293582.5625,220524.015625,248776.53125,208575.046875,236895.328125,27264.0,1.0,4
224251.3125,250188.265625,283764.34375,293450.96875,219690.84375,248329.328125,208148.65625,236522.421875,27265.0,1.0,4
224258.734375,250114.15625,283553.96875,293445.15625,219445.765625,248210.140625,208048.609375,236442.84375,27266.0,1.0,4
224313.0,250340.984375,284313.21875,293566.40625,220125.359375,248588.328125,208410.984375,236770.4375,27267.0,1.0,4
224341.515625,250566.203125,285009.875,293650.4375,220806.546875,248949.1875,208750.28125,237067.890625,27268.0,1.0,4
224288.5,250447.375,284639.71875,293563.90625,220509.359375,248769.03125,208572.546875,236905.796875,27269.0,1.0,4
224233.96875,250161.0,283752.375,293432.28125,219677.515625,248321.546875,208136.859375,236527.0625,27270.0,1.0,4
224261.859375,250104.5,283554.34375,293445.25,219444.96875,248221.40625,208044.6875,236459.5625,27271.0,1.0,4
224323.015625,250347.6875,284319.125,293572.375,220131.171875,248603.71875,208414.109375,236786.34375,27272.0,1.0,4
224335.53125,250562.984375,285005.6875,293642.9375,220803.15625,248952.21875,208741.96875,237064.3125,27273.0,1.0,4
224280.984375,250450.0625,284642.6875,293556.84375,220518.5625,248778.5,208573.171875,236909.734375,27274.0,1.0,4
224234.40625,250167.796875,283758.09375,293433.09375,219691.1875,248336.65625,208144.90625,236537.609375,27275.0,1.0,4
224251.671875,250095.375,283535.28125,293433.8125,219438.890625,248217.296875,208034.3125,236452.046875,27276.0,1.0,4
224313.890625,250338.125,284294.09375,293563.34375,220124.109375,248593.4375,208405.0,236785.0,27277.0,1.0,4
224329.8125,250557.078125,284988.59375,293638.375,220807.4375,248948.828125,208744.734375,237076.296875,27278.0,1.0,4
224271.25,250435.484375,284625.875,293542.25,220517.046875,248773.140625,208570.75,236914.46875,27279.0,1.0,4
224223.59375,250155.8125,283742.53125,293415.03125,219687.078125,248328.609375,208142.140625,236541.453125,27280.0,1.0,4
224246.03125,250089.296875,283522.59375,293418.875,219433.25,248210.5,208037.890625,236460.90625,27281.0,1.0,4
224300.390625,250321.125,284273.0625,293534.9375,220103.09375,248577.78125,208394.890625,236781.515625,27282.0,1.0,4
224322.5625,250541.78125,284977.0625,293617.96875,220793.140625,248933.796875,208732.9375,237073.078125,27283.0,1.0,4
224274.640625,250433.78125,284632.59375,293541.28125,220522.5,248769.921875,208569.859375,236921.265625,27284.0,1.0,4
224236.203125,250166.8125,283760.40625,293426.90625,219705.5,248338.703125,208156.359375,236555.859375,27285.0,1.0,4
224249.515625,250094.390625,283522.6875,293421.46875,219437.015625,248212.109375,208040.5625,236457.5,27286.0,1.0,4
224306.5625,250331.40625,284268.15625,293541.53125,220106.484375,248585.109375,208398.90625,236774.8125,27287.0,1.0,4
224336.25,250561.640625,284981.4375,293628.4375,220804.21875,248953.203125,208743.671875,237071.28125,27288.0,1.0,4
224278.9375,250448.984375,284634.09375,293536.0,220533.9375,248783.59375,208577.015625,236913.65625,27289.0,1.0,4
224214.65625,250153.765625,283734.75,293394.1875,219693.78125,248322.96875,208135.96875,236523.578125,27290.0,1.0,4
224240.484375,250082.421875,283500.5,293401.15625,219430.03125,248203.171875,208030.203125,236439.71875,27291.0,1.0,4
224309.515625,250322.46875,284249.90625,293531.0,220097.8125,248571.796875,208389.703125,236759.703125,27292.0,1.0,4
224338.390625,250553.234375,284972.25,293620.125,220799.125,248932.375,208738.84375,237060.28125,27293.0,1.0,4
224283.9375,250441.734375,284636.34375,293535.71875,220533.859375,248768.3125,208579.515625,236911.875,27294.0,1.0,4
224224.75,250152.328125,283741.5625,293400.90625,219692.265625,248314.921875,208143.484375,236534.578125,27295.0,1.0,4
224241.109375,250074.546875,283491.125,293397.3125,219410.71875,248183.046875,208025.375,236442.046875,27296.0,1.0,4
224310.046875,250313.796875,284235.78125,293530.0,220078.5,248559.375,208387.734375,236767.484375,27297.0,1.0,4
224329.09375,250541.515625,284949.71875,293607.15625,220772.578125,248924.78125,208730.703125,237062.078125,27298.0,1.0,4
224273.484375,250440.671875,284619.34375,293516.9375,220515.796875,248769.921875,208572.8125,236913.03125,27299.0,1.0,4
224224.21875,250168.25,283741.5625,293394.90625,219696.921875,248339.34375,208155.453125,236545.65625,27300.0,1.0,4
224233.875,250081.15625,283476.09375,293383.28125,219401.6875,248196.109375,208022.875,236436.40625,27301.0,1.0,4
224290.640625,250308.171875,284209.25,293502.90625,220056.421875,248557.484375,208372.625,236745.3125,27302.0,1.0,4
224312.640625,250535.984375,284933.15625,293587.5,220766.21875,248926.390625,208725.875,237048.21875,27303.0,1.0,4
224267.125,250441.296875,284619.4375,293518.21875,220530.09375,248778.6875,208583.71875,236913.484375,27304.0,1.0,4
224217.59375,250166.015625,283732.6875,293389.625,219704.34375,248333.34375,208156.703125,236539.671875,27305.0,1.0,4
224228.953125,250077.5,283459.375,293379.28125,219401.78125,248190.828125,208024.125,236430.859375,27306.0,1.0,4
224292.703125,250306.921875,284189.03125,293508.09375,220050.4375,248551.140625,208372.984375,236743.703125,27307.0,1.0,4
224321.9375,250541.703125,284923.15625,293598.03125,220767.390625,248926.109375,208725.78125,237051.265625,27308.0,1.0,4
224283.3125,250451.21875,284627.65625,293533.6875,220546.546875,248791.296875,208595.78125,236928.765625,27309.0,1.0,4
224227.171875,250170.296875,283741.8125,293403.40625,219719.625,248344.4375,208165.65625,236555.765625,27310.0,1.0,4
224230.5625,250074.1875,283456.625,293382.9375,219408.671875,248186.0,208024.203125,236441.5,27311.0,1.0,4
224300.484375,250316.21875,284192.4375,293515.34375,220064.375,248553.734375,208380.671875,236761.40625,27312.0,1.0,4
224322.296875,250547.515625,284925.65625,293598.5,220779.90625,248927.28125,208735.4375,237068.15625,27313.0,1.0,4
224273.5625,250458.1875,284625.53125,293517.59375,220555.40625,248784.140625,208596.5,236934.84375,27314.0,1.0,4
224227.171875,250187.5625,283745.40625,293391.4375,219733.578125,248347.65625,208173.421875,236561.046875,27315.0,1.0,4
224245.765625,250096.8125,283461.25,293382.40625,219421.359375,248199.953125,208036.8125,236445.171875,27316.0,1.0,4
224317.203125,250331.328125,284194.9375,293517.59375,220078.0625,248569.828125,208395.0625,236763.1875,27317.0,1.0,4
224329.1875,250546.078125,284924.3125,293592.59375,220786.25,248933.71875,208737.140625,237061.09375,27318.0,1.0,4
224278.84375,250452.296875,284630.78125,293515.0,220564.609375,248793.34375,208596.328125,236928.234375,27319.0,1.0,4
224221.625,250173.078125,283741.5625,293382.5,219736.796875,248344.34375,208165.03125,236550.84375,27320.0,1.0,4
224224.75,250071.5,283438.8125,293366.3125,219406.875,248183.40625,208015.171875,236426.921875,27321.0,1.0,4
224297.53125,250300.84375,284164.53125,293506.03125,220054.09375,248549.0,208367.4375,236743.78125,27322.0,1.0,4
224331.59375,250543.84375,284921.0,293596.34375,220787.40625,248935.953125,208735.890625,237065.203125,27323.0,1.0,4
224274.109375,250445.40625,284630.875,293509.625,220565.328125,248789.765625,208593.640625,236926.984375,27324.0,1.0,4
224223.5,250168.6875,283748.0,293382.21875,219740.546875,248345.421875,208171.015625,236553.078125,27325.0,1.0,4
224235.921875,250071.953125,283442.65625,293370.40625,219408.40625,248184.03125,208022.953125,236431.84375,27326.0,1.0,4
224303.4375,250305.84375,284163.65625,293498.09375,220051.0625,248545.59375,208371.28125,236746.65625,27327.0,1.0,4
224331.78125,250551.71875,284917.53125,293589.0,220785.09375,248932.734375,208736.421875,237061.546875,27328.0,1.0,4
224284.484375,250458.8125,284637.5,293517.125,220579.453125,248802.109375,208603.296875,236932.4375,27329.0,1.0,4
224237.359375,250187.46875,283753.53125,293390.71875,219758.34375,248363.125,208180.046875,236559.4375,27330.0,1.0,4
224244.953125,250090.8125,283442.03125,293374.71875,219419.3125,248197.8125,208026.625,236433.453125,27331.0,1.0,4
224310.3125,250320.0625,284156.21875,293502.1875,220048.90625,248551.046875,208365.75,236737.625,27332.0,1.0,4
224338.484375,250555.921875,284915.65625,293594.1875,220783.65625,248935.6875,208731.859375,237053.671875,27333.0,1.0,4
224290.640625,250468.5625,284647.78125,293515.15625,220587.765625,248805.234375,208605.53125,236932.609375,27334.0,1.0,4
224237.453125,250188.265625,283761.9375,293384.0,219761.5625,248361.953125,208174.859375,236555.5,27335.0,1.0,4
224256.671875,250097.34375,283449.8125,293376.75,219419.484375,248200.84375,208023.9375,236436.671875,27336.0,1.0,4
224313.984375,250316.65625,284152.71875,293493.09375,220041.21875,248548.109375,208361.0,236736.28125,27337.0,1.0,4
224331.328125,250542.59375,284904.28125,293577.21875,220766.21875,248920.84375,208715.765625,237045.625,27338.0,1.0,4
224283.40625,250457.484375,284645.71875,293506.84375,220578.46875,248792.890625,208595.34375,236928.328125,27339.0,1.0,4
224233.34375,250181.203125,283762.375,293379.0,219757.359375,248350.609375,208171.28125,236555.234375,27340.0,1.0,4
224249.078125,250083.3125,283439.1875,293371.84375,219410.1875,248183.328125,208017.140625,236427.015625,27341.0,1.0,4
224313.453125,250306.375,284139.9375,293497.375,220034.15625,248533.34375,208359.21875,236730.828125,27342.0,1.0,4
224350.109375,250559.84375,284915.375,293598.03125,220785.796875,248932.734375,208739.109375,237063.59375,27343.0,1.0,4
224280.359375,250462.75,284647.0625,293505.96875,220589.109375,248799.609375,208607.859375,236933.328125,27344.0,1.0,4
224228.421875,250183.265625,283763.1875,293374.96875,219767.71875,248361.15625,208184.421875,236558.984375,27345.0,1.0,4
224246.65625,250083.046875,283434.15625,293363.0,219413.859375,248191.015625,208028.234375,236431.125,27346.0,1.0,4
224312.46875,250308.078125,284130.84375,293488.4375,220029.328125,248534.328125,208361.265625,236730.734375,27347.0,1.0,4
224334.546875,250545.640625,284893.5625,293574.09375,220768.734375,248918.6875,208725.96875,237047.59375,27348.0,1.0,4
224292.96875,250465.171875,284653.59375,293509.4375,220595.546875,248806.484375,208611.703125,236937.265625,27349.0,1.0,4
224242.359375,250188.265625,283773.1875,293380.34375,219775.953125,248363.828125,208185.59375,236564.703125,27350.0,1.0,4
224255.953125,250087.328125,283436.0625,293364.34375,219415.375,248189.40625,208025.546875,236438.375,27351.0,1.0,4
224320.15625,250312.546875,284131.375,293489.40625,220031.390625,248539.25,208361.453125,236741.109375,27352.0,1.0,4
224342.59375,250551.984375,284898.65625,293579.0,220771.40625,248923.96875,208726.140625,237059.390625,27353.0,1.0,4
224298.25,250476.875,284666.375,293514.71875,220608.234375,248810.328125,208616.078125,236954.78125,27354.0,1.0,4
224246.484375,250199.890625,283783.40625,293381.40625,219790.609375,248368.9375,208187.203125,236578.5625,27355.0,1.0,4
224265.875,250098.328125,283439.0,293367.46875,219423.78125,248189.84375,208024.921875,236444.984375,27356.0,1.0,4
224321.046875,250302.453125,284117.15625,293480.75,220021.015625,248519.671875,208344.640625,236732.25,27357.0,1.0,4
224345.71875,250542.953125,284889.625,293571.75,220766.140625,248908.5,208711.484375,237054.296875,27358.0,1.0,4
224306.734375,250484.84375,284670.3125,293513.5625,220616.5625,248811.859375,208614.46875,236961.40625,27359.0,1.0,4
224266.328125,250222.609375,283800.90625,293391.6875,219810.734375,248387.890625,208202.484375,236598.5,27360.0,1.0,4
224266.5,250102.078125,283435.5,293362.28125,219425.203125,248198.25,208024.828125,236448.65625,27361.0,1.0,4
224321.40625,250303.421875,284104.625,293474.9375,220013.0625,248519.84375,208339.640625,236728.671875,27362.0,1.0,4
224355.5625,250555.375,284890.96875,293576.84375,220770.96875,248921.46875,208721.046875,237058.859375,27363.0,1.0,4
224303.515625,250483.046875,284664.59375,293502.46875,220616.5625,248812.296875,208615.375,236953.0,27364.0,1.0,4
224248.453125,250201.328125,283779.46875,293372.75,219797.5,248368.484375,208188.71875,236577.84375,27365.0,1.0,4
224255.59375,250082.765625,283410.125,293347.78125,219404.46875,248170.890625,208007.21875,236427.734375,27366.0,1.0,4
224330.25,250311.75,284097.75,293477.15625,220010.828125,248513.953125,208341.328125,236726.53125,27367.0,1.0,4
224359.125,250556.890625,284881.03125,293576.40625,220762.5625,248907.078125,208714.609375,237047.5,27368.0,1.0,4
224303.515625,250481.4375,284663.59375,293500.21875,220608.953125,248800.59375,208609.375,236941.015625,27369.0,1.0,4
224251.390625,250205.53125,283784.28125,293368.625,219792.40625,248361.953125,208185.671875,236568.375,27370.0,1.0,4
224253.09375,250079.90625,283403.15625,293335.8125,219393.109375,248160.96875,208001.046875,236410.484375,27371.0,1.0,4
224326.5,250300.296875,284080.9375,293466.09375,219992.5,248499.734375,208332.9375,236707.671875,27372.0,1.0,4
224355.640625,250551.984375,284869.15625,293562.90625,220752.09375,248902.421875,208712.203125,237037.21875,27373.0,1.0,4
224302.53125,250485.015625,284661.0,293495.0625,220616.109375,248808.359375,208614.5625,236942.265625,27374.0,1.0,4
224244.25,250205.4375,283776.34375,293354.59375,219802.953125,248370.265625,208191.578125,236566.40625,27375.0,1.0,4
224264.890625,250097.609375,283402.96875,293343.0625,219411.53125,248182.34375,208016.515625,236423.890625,27376.0,1.0,4
224320.328125,250297.34375,284058.59375,293455.4375,219985.609375,248502.953125,208327.75,236702.921875,27377.0,1.0,4
224351.265625,250548.140625,284851.0,293549.6875,220746.109375,248904.484375,208706.828125,237030.515625,27378.0,1.0,4
224303.609375,250488.328125,284657.34375,293486.1875,220620.046875,248814.796875,208619.125,236941.734375,27379.0,1.0,4
224250.6875,250215.546875,283783.65625,293359.25,219812.078125,248378.40625,208198.375,236571.859375,27380.0,1.0,4
224261.234375,250095.296875,283394.5625,293333.40625,219403.390625,248174.46875,208012.3125,236415.84375,27381.0,1.0,4
224327.84375,250305.484375,284055.0,293458.65625,219990.34375,248502.140625,208334.1875,236707.84375,27382.0,1.0,4
224360.390625,250556.453125,284850.09375,293558.53125,220757.015625,248903.765625,208717.015625,237038.109375,27383.0,1.0,4
224324.0,250506.03125,284675.3125,293506.40625,220646.859375,248826.78125,208640.3125,236957.296875,27384.0,1.0,4
224259.09375,250220.015625,283790.8125,293362.5625,219828.078125,248384.125,208212.671875,236578.390625,27385.0,1.0,4
224257.75,250087.515625,283385.875,293322.75,219402.59375,248168.5625,208012.859375,236411.1875,27386.0,1.0,4
224317.46875,250293.765625,284037.75,293439.625,219975.15625,248487.484375,208321.84375,236688.890625,27387.0,1.0,4
224357.515625,250554.03125,284847.15625,293543.78125,220754.59375,248902.6875,208712.90625,237030.34375,27388.0,1.0,4
224316.84375,250502.625,284675.6875,293484.6875,220648.921875,248825.703125,208633.703125,236949.875,27389.0,1.0,4
224270.34375,250230.390625,283805.84375,293362.0,219842.03125,248391.90625,208213.125,236584.203125,27390.0,1.0,4
224273.03125,250100.03125,283394.28125,293329.1875,219413.765625,248176.4375,208011.78125,236413.78125,27391.0,1.0,4
224326.859375,250300.5625,284035.34375,293444.53125,219979.171875,248489.546875,208320.6875,236689.96875,27392.0,1.0,4
224361.09375,250557.53125,284837.59375,293548.0625,220751.921875,248898.125,208707.90625,237028.453125,27393.0,1.0,4
224322.03125,250503.4375,284670.21875,293488.34375,220648.5625,248825.078125,208630.390625,236949.421875,27394.0,1.0,4
224264.359375,250225.90625,283793.6875,293353.25,219836.65625,248387.890625,208207.84375,236576.15625,27395.0,1.0,4
224259.796875,250090.734375,283373.5625,293316.9375,219399.09375,248169.828125,208000.6875,236406.1875,27396.0,1.0,4
224316.671875,250288.40625,284013.15625,293429.6875,219957.625,248481.21875,208302.890625,236680.046875,27397.0,1.0,4
224353.953125,250551.71875,284825.875,293532.78125,220742.265625,248896.078125,208701.28125,237025.78125,27398.0,1.0,4
224307.28125,250492.078125,284659.03125,293464.125,220639.796875,248814.796875,208619.484375,236941.734375,27399.0,1.0,4
224261.40625,250225.015625,283796.8125,293340.90625,219843.359375,248392.796875,208209.546875,236580.0,27400.0,1.0,4
224260.78125,250091.09375,283371.75,293304.25,219402.40625,248172.59375,208004.546875,236405.5625,27401.0,1.0,4
224314.875,250285.1875,283999.75,293416.71875,219955.75,248479.34375,208305.578125,236673.609375,27402.0,1.0,4
224352.25,250543.046875,284809.96875,293521.6875,220736.890625,248892.234375,208695.921875,237015.3125,27403.0,1.0,4
224316.390625,250507.546875,284668.34375,293474.5,220660.8125,248836.078125,208637.8125,236952.828125,27404.0,1.0,4
224257.65625,250235.921875,283798.15625,293343.78125,219853.203125,248399.78125,208218.40625,236579.71875,27405.0,1.0,4
224254.890625,250096.265625,283364.96875,293303.71875,219400.703125,248176.078125,208005.25,236396.625,27406.0,1.0,4
224320.78125,250295.109375,283999.21875,293426.84375,219955.296875,248490.96875,208311.65625,236673.328125,27407.0,1.0,4
224351.625,250543.3125,284806.9375,293518.28125,220730.453125,248896.609375,208699.671875,237007.984375,27408.0,1.0,4
224311.65625,250496.734375,284664.0625,293462.40625,220653.578125,248834.296875,208638.25,236942.8125,27409.0,1.0,4
224254.4375,250218.046875,283789.03125,293329.46875,219845.953125,248395.3125,208214.640625,236570.703125,27410.0,1.0,4
224262.578125,250082.953125,283354.34375,293301.03125,219396.953125,248168.125,208006.0625,236396.890625,27411.0,1.0,4
224320.859375,250276.78125,283975.25,293411.0,219942.15625,248476.21875,208307.0,236672.265625,27412.0,1.0,4
224356.1875,250539.46875,284789.84375,293513.375,220722.59375,248891.96875,208700.578125,237012.1875,27413.0,1.0,4
224313.890625,250499.765625,284654.84375,293459.28125,220652.234375,248829.734375,208638.25,236945.578125,27414.0,1.0,4
224251.578125,250218.671875,283781.4375,293324.90625,219847.390625,248386.28125,208213.03125,236571.140625,27415.0,1.0,4
224245.671875,250070.34375,283330.8125,293279.21875,219381.75,248148.359375,207991.03125,236383.296875,27416.0,1.0,4
224310.578125,250269.0,283953.90625,293403.40625,219921.328125,248456.109375,208286.078125,236654.5625,27417.0,1.0,4
224357.25,250540.359375,284788.0625,293518.125,220718.390625,248880.609375,208690.015625,237004.953125,27418.0,1.0,4
224313.453125,250494.140625,284659.03125,293457.21875,220653.921875,248824.1875,208633.78125,236941.90625,27419.0,1.0,4
224246.296875,250213.125,283782.6875,293313.28125,219844.890625,248383.140625,208208.5625,236565.421875,27420.0,1.0,4
224254.265625,250083.578125,283338.9375,293289.78125,219388.015625,248158.734375,207998.90625,236390.09375,27421.0,1.0,4
224327.125,250286.890625,283961.125,293417.0,219932.953125,248469.6875,208303.25,236664.84375,27422.0,1.0,4
224359.3125,250546.890625,284782.53125,293514.90625,220719.109375,248883.375,208696.1875,237004.765625,27423.0,1.0,4
224321.578125,250515.59375,284669.3125,293462.59375,220670.015625,248836.53125,208646.03125,236950.765625,27424.0,1.0,4
224255.328125,250232.53125,283792.96875,293319.1875,219862.859375,248394.40625,208218.21875,236570.78125,27425.0,1.0,4
224245.046875,250076.78125,283324.90625,293271.625,219379.96875,248147.375,207987.28125,236370.421875,27426.0,1.0,4
224313.265625,250270.171875,283939.78125,293394.90625,219915.6875,248453.953125,208286.625,236642.9375,27427.0,1.0,4
224356.984375,250537.859375,284773.65625,293504.4375,220712.40625,248876.3125,208689.125,236996.265625,27428.0,1.0,4
224325.609375,250506.65625,284671.90625,293461.4375,220671.359375,248835.71875,208643.0,236950.671875,27429.0,1.0,4
224263.640625,250234.140625,283803.59375,293320.875,219873.046875,248402.375,208221.4375,236581.96875,27430.0,1.0,4
224272.671875,250094.65625,283346.625,293288.6875,219401.25,248168.65625,208005.609375,236399.296875,27431.0,1.0,4
224339.28125,250283.671875,283951.75,293407.96875,219928.125,248467.71875,208299.3125,236663.046875,27432.0,1.0,4
224358.6875,250530.25,284766.96875,293499.0625,220708.203125,248871.21875,208686.0,236994.9375,27433.0,1.0,4
224330.25,250512.46875,284676.5625,293458.46875,220679.140625,248843.40625,208653.71875,236954.703125,27434.0,1.0,4
224275.71875,250244.0625,283816.65625,293327.84375,219887.4375,248416.40625,208241.28125,236586.96875,27435.0,1.0,4
224263.5625,250087.515625,283335.09375,293277.96875,219395.796875,248169.109375,208005.609375,236388.21875,27436.0,1.0,4
224317.46875,250268.375,283920.28125,293386.5,219905.234375,248456.90625,208285.71875,236641.78125,27437.0,1.0,4
224358.6875,250535.625,284755.34375,293501.3125,220708.109375,248883.203125,208693.234375,236996.359375,27438.0,1.0,4
224313.625,250501.640625,284657.15625,293449.0,220675.921875,248844.046875,208651.40625,236950.765625,27439.0,1.0,4
224256.140625,250222.515625,283792.0625,293313.03125,219880.921875,248412.921875,208231.09375,236582.40625,27440.0,1.0,4
224243.96875,250058.640625,283298.1875,293264.03125,219377.109375,248151.84375,207984.328125,236374.265625,27441.0,1.0,4
224309.78125,250254.875,283893.1875,293379.90625,219892.890625,248444.84375,208273.5625,236638.640625,27442.0,1.0,4
224355.734375,250526.234375,284738.53125,293491.75,220698.359375,248877.125,208683.40625,236998.0625,27443.0,1.0,4
224330.34375,250520.421875,284676.21875,293457.6875,220692.109375,248858.875,208665.4375,236974.375,27444.0,1.0,4
224252.296875,250230.921875,283799.125,293306.84375,219882.4375,248412.5625,208230.375,236585.71875,27445.0,1.0,4
224249.515625,250075.359375,283310.4375,293260.4375,219383.28125,248156.5,207991.125,236383.484375,27446.0,1.0,4
224314.875,250260.96875,283897.65625,293374.15625,219892.71875,248448.328125,208275.4375,236642.578125,27447.0,1.0,4
224369.859375,250539.640625,284749.4375,293493.53125,220704.71875,248882.578125,208689.484375,237002.984375,27448.0,1.0,4
224327.21875,250513.359375,284669.40625,293441.6875,220685.3125,248843.40625,208650.765625,236957.296875,27449.0,1.0,4
224266.78125,250241.921875,283810.65625,293309.09375,219900.765625,248415.25,208236.8125,236590.8125,27450.0,1.0,4
224263.90625,250085.8125,283314.90625,293263.46875,219397.765625,248161.234375,207994.890625,236382.765625,27451.0,1.0,4
224332.75,250278.65625,283899.4375,293380.34375,219903.09375,248448.6875,208279.109375,236637.390625,27452.0,1.0,4
224379.875,250549.921875,284750.5,293495.0625,220711.953125,248884.546875,208693.6875,236998.328125,27453.0,1.0,4
224335.34375,250524.984375,284683.0,293447.21875,220699.96875,248854.859375,208661.953125,236958.8125,27454.0,1.0,4
224272.234375,250258.28125,283827.125,293310.875,219913.640625,248427.046875,208247.8125,236591.34375,27455.0,1.0,4
224268.296875,250096.8125,283320.4375,293262.59375,219401.515625,248166.609375,208000.875,236384.90625,27456.0,1.0,4
224324.171875,250269.90625,283879.5,293365.84375,219884.484375,248440.71875,208266.953125,236627.109375,27457.0,1.0,4
224360.390625,250532.046875,284720.46875,293476.4375,220684.953125,248865.5,208672.3125,236980.53125,27458.0,1.0,4
224322.921875,250516.484375,284667.625,293439.96875,220690.671875,248850.828125,208655.328125,236953.796875,27459.0,1.0,4
224265.078125,250248.890625,283816.03125,293302.375,219910.78125,248430.4375,208250.3125,236591.53125,27460.0,1.0,4
224254.53125,250076.78125,283296.40625,293251.15625,219386.765625,248161.59375,207998.734375,236378.03125,27461.0,1.0,4
224309.421875,250250.234375,283854.90625,293354.9375,219869.734375,248437.328125,208266.953125,236620.234375,27462.0,1.0,4
224356.625,250534.640625,284716.8125,293475.03125,220693.453125,248880.875,208688.5,236992.34375,27463.0,1.0,4
224314.078125,250513.53125,284662.8125,293434.59375,220699.25,248857.890625,208663.828125,236962.484375,27464.0,1.0,4
224264.1875,250255.59375,283820.59375,293311.125,219927.40625,248446.09375,208261.859375,236608.78125,27465.0,1.0,4
224254.265625,250086.34375,283299.34375,293256.6875,219402.234375,248174.46875,208008.734375,236395.640625,27466.0,1.0,4
224304.859375,250254.96875,283845.4375,293355.40625,219872.6875,248439.734375,208266.6875,236629.34375,27467.0,1.0,4
224346.34375,250526.765625,284698.03125,293466.0,220683.171875,248873.71875,208676.25,236985.90625,27468.0,1.0,4
224305.671875,250515.765625,284660.46875,293421.1875,220703.8125,248864.421875,208661.859375,236964.53125,27469.0,1.0,4
224253.546875,250256.671875,283817.625,293297.28125,219934.203125,248451.1875,208258.359375,236612.09375,27470.0,1.0,4
224253.8125,250099.765625,283296.40625,293255.09375,219409.203125,248186.0,208012.140625,236401.890625,27471.0,1.0,4
224306.734375,250267.125,283837.3125,293347.78125,219874.203125,248446.890625,208272.578125,236634.890625,27472.0,1.0,4
224355.109375,250541.078125,284695.875,293465.71875,220691.125,248884.71875,208688.859375,237000.65625,27473.0,1.0,4
224313.0,250529.625,284661.0,293419.40625,220715.796875,248874.265625,208672.234375,236978.296875,27474.0,1.0,4
224248.984375,250254.703125,283809.78125,293284.0625,219937.328125,248450.375,208262.75,236614.5,27475.0,1.0,4
224260.0625,250099.40625,283295.9375,293251.5,219416.0,248186.1875,208020.546875,236412.265625,27476.0,1.0,4
224304.953125,250250.5,283823.625,293338.40625,219864.375,248432.234375,208264.625,236634.625,27477.0,1.0,4
224345.8125,250520.78125,284680.40625,293448.125,220678.421875,248865.5,208678.671875,236997.078125,27478.0,1.0,4
224322.203125,250529.359375,284673.71875,293421.28125,220729.203125,248876.046875,208687.34375,236993.40625,27479.0,1.0,4
224270.53125,250263.46875,283835.59375,293295.125,219960.75,248459.859375,208285.1875,236636.671875,27480.0,1.0,4
224277.234375,250106.5625,283311.59375,293257.9375,219431.640625,248197.0,208037.625,236431.046875,27481.0,1.0,4
224326.046875,250270.890625,283839.8125,293352.90625,219880.828125,248451.09375,208285.453125,236655.546875,27482.0,1.0,4
224352.515625,250524.171875,284679.53125,293447.46875,220676.28125,248872.5625,208683.765625,236999.40625,27483.0,1.0,4
224315.765625,250514.96875,284664.6875,293407.78125,220717.40625,248876.671875,208684.484375,236986.890625,27484.0,1.0,4
224254.4375,250255.15625,283826.21875,293279.5,219954.140625,248465.484375,208286.53125,236634.265625,27485.0,1.0,4
224250.953125,250081.078125,283281.90625,293235.6875,219408.125,248188.859375,208026.171875,236417.359375,27486.0,1.0,4
224309.515625,250241.734375,283803.5,293333.84375,219852.578125,248439.203125,208274.375,236648.390625,27487.0,1.0,4
