FZ,C3,CZ,C4,PZ,PO7,OZ,PO8,Counter,Validation,Label
-647890.1875,-25391.314453125,-21446.5,6399.84130859375,-750000.125,21312.388671875,-750000.125,-750000.125,966039.0,1.0,2
-656832.9375,13823.8388671875,22978.3984375,13274.2548828125,-750000.125,9001.2265625,-750000.125,-750000.125,966040.0,1.0,2
-650657.625,-15698.9716796875,-5364.7763671875,8582.98046875,-750000.125,18451.544921875,-750000.125,-750000.125,966041.0,1.0,2
-637925.4375,-52336.25390625,-50375.46875,-998.4077758789062,-750000.125,25750.73046875,-750000.125,-750000.125,966042.0,1.0,2
-636584.625,-55376.359375,-55576.0078125,-2084.970703125,-750000.125,25837.544921875,-750000.125,-750000.125,966043.0,1.0,2
-647776.5625,-25771.205078125,-21916.69140625,6296.48681640625,-750000.125,21405.73046875,-750000.125,-750000.125,966044.0,1.0,2
-656827.4375,13860.6748046875,22902.58203125,13188.9599609375,-750000.125,9054.9599609375,-750000.125,-750000.125,966045.0,1.0,2
-650752.625,-15261.4140625,-4925.609375,8580.3876953125,-750000.125,18386.099609375,-750000.125,-750000.125,966046.0,1.0,2
-638001.4375,-52161.73046875,-50159.10546875,-1013.517578125,-750000.125,25750.640625,-750000.125,-750000.125,966047.0,1.0,2
-636527.8125,-55447.88671875,-55665.859375,-2183.05029296875,-750000.125,25824.044921875,-750000.125,-750000.125,966048.0,1.0,2
-647666.9375,-26147.787109375,-22360.865234375,6159.6044921875,-750000.125,21525.0,-750000.125,-750000.125,966049.0,1.0,2
-656825.4375,13882.7587890625,22848.22265625,13161.6015625,-750000.125,9140.34375,-750000.125,-750000.125,966050.0,1.0,2
-650846.5,-14810.802734375,-4455.59716796875,8658.708984375,-750000.125,18354.44921875,-750000.125,-750000.125,966051.0,1.0,2
-638073.6875,-51988.4609375,-49944.171875,-952.4525756835938,-750000.125,25768.970703125,-750000.125,-750000.125,966052.0,1.0,2
-636471.5,-55515.65625,-55749.90234375,-2222.568115234375,-750000.125,25827.888671875,-750000.125,-750000.125,966053.0,1.0,2
-647553.875,-26499.15625,-22783.849609375,6082.625,-750000.125,21677.4375,-750000.125,-750000.125,966054.0,1.0,2
-656812.9375,13931.306640625,22798.78125,13169.291015625,-750000.125,9259.880859375,-750000.125,-750000.125,966055.0,1.0,2
-650935.0625,-14361.6220703125,-3974.945068359375,8713.9619140625,-750000.125,18306.4375,-750000.125,-750000.125,966056.0,1.0,2
-638150.625,-51805.71484375,-49703.48828125,-933.1406860351562,-750000.125,25770.66796875,-750000.125,-750000.125,966057.0,1.0,2
-636417.5,-55581.7265625,-55821.33984375,-2310.90234375,-750000.125,25819.126953125,-750000.125,-750000.125,966058.0,1.0,2
-647434.75,-26915.435546875,-23233.388671875,5922.85498046875,-750000.125,21774.265625,-750000.125,-750000.125,966059.0,1.0,2
-656797.0,13846.1015625,22700.96875,13054.58203125,-750000.125,9256.4833984375,-750000.125,-750000.125,966060.0,1.0,2
-651024.5625,-13982.6259765625,-3540.60595703125,8682.7587890625,-750000.125,18160.435546875,-750000.125,-750000.125,966061.0,1.0,2
-638235.0625,-51606.87109375,-49461.37109375,-955.939453125,-750000.125,25752.787109375,-750000.125,-750000.125,966062.0,1.0,2
-636360.4375,-55642.078125,-55897.42578125,-2441.4365234375,-750000.125,25796.328125,-750000.125,-750000.125,966063.0,1.0,2
-647314.0625,-27305.697265625,-23704.830078125,5740.46484375,-750000.125,21858.93359375,-750000.125,-750000.125,966064.0,1.0,2
-656777.3125,13841.720703125,22588.853515625,12983.771484375,-750000.125,9273.6494140625,-750000.125,-750000.125,966065.0,1.0,2
-651104.9375,-13518.24609375,-3103.852783203125,8734.2578125,-750000.125,18059.2265625,-750000.125,-750000.125,966066.0,1.0,2
-638308.375,-51416.703125,-49231.953125,-886.2020263671875,-750000.125,25763.873046875,-750000.125,-750000.125,966067.0,1.0,2
-636304.5,-55700.90625,-55973.77734375,-2526.28369140625,-750000.125,25801.87109375,-750000.125,-750000.125,966068.0,1.0,2
-647190.125,-27761.583984375,-24223.033203125,5552.26318359375,-750000.125,21909.44921875,-750000.125,-750000.125,966069.0,1.0,2
-656748.4375,13634.8330078125,22372.845703125,12940.9453125,-750000.125,9190.2333984375,-750000.125,-750000.125,966070.0,1.0,2
-651185.5625,-13258.9658203125,-2835.274169921875,8748.2939453125,-750000.125,17835.619140625,-750000.125,-750000.125,966071.0,1.0,2
-638385.8125,-51257.46875,-49043.0390625,-881.3740234375,-750000.125,25690.380859375,-750000.125,-750000.125,966072.0,1.0,2
-636252.375,-55758.21875,-56049.328125,-2557.84423828125,-750000.125,25740.806640625,-750000.125,-750000.125,966073.0,1.0,2
-647076.6875,-28118.228515625,-24648.701171875,5511.40380859375,-750000.125,21991.525390625,-750000.125,-750000.125,966074.0,1.0,2
-656726.75,13595.3154296875,22266.630859375,12882.0263671875,-750000.125,9245.0400390625,-750000.125,-750000.125,966075.0,1.0,2
-651263.875,-12850.287109375,-2425.164306640625,8778.6923828125,-750000.125,17752.830078125,-750000.125,-750000.125,966076.0,1.0,2
-638460.875,-51063.27734375,-48814.6015625,-846.237060546875,-750000.125,25691.6328125,-750000.125,-750000.125,966077.0,1.0,2
-636199.6875,-55809.44921875,-56118.796875,-2619.53515625,-750000.125,25737.23046875,-750000.125,-750000.125,966078.0,1.0,2
-646958.75,-28503.83984375,-25094.39453125,5386.4130859375,-750000.125,22101.2265625,-750000.125,-750000.125,966079.0,1.0,2
-656708.6875,13509.7529296875,22137.794921875,12803.1689453125,-750000.125,9287.865234375,-750000.125,-750000.125,966080.0,1.0,2
-651347.75,-12488.009765625,-2027.03515625,8763.76171875,-750000.125,17637.13671875,-750000.125,-750000.125,966081.0,1.0,2
-638535.375,-50869.80078125,-48580.265625,-879.4071044921875,-750000.125,25665.8828125,-750000.125,-750000.125,966082.0,1.0,2
-636140.0,-55855.22265625,-56183.8828125,-2796.8291015625,-750000.125,25704.060546875,-750000.125,-750000.125,966083.0,1.0,2
-646832.5,-28965.26953125,-25627.080078125,5102.724609375,-750000.125,22074.2265625,-750000.125,-750000.125,966084.0,1.0,2
-656676.5625,13230.9814453125,21855.626953125,12724.22265625,-750000.125,9106.01171875,-750000.125,-750000.125,966085.0,1.0,2
-651426.25,-12258.0546875,-1814.1571044921875,8775.6533203125,-750000.125,17333.2421875,-750000.125,-750000.125,966086.0,1.0,2
-638615.375,-50704.3984375,-48392.06640625,-858.2175903320312,-750000.125,25564.31640625,-750000.125,-750000.125,966087.0,1.0,2
-636084.8125,-55908.0625,-56254.9609375,-2833.0390625,-750000.125,25627.52734375,-750000.125,-750000.125,966088.0,1.0,2
-646708.25,-29335.146484375,-26075.814453125,5071.25341796875,-750000.125,22147.71875,-750000.125,-750000.125,966089.0,1.0,2
-656641.8125,13153.197265625,21708.193359375,12638.1240234375,-750000.125,9155.54296875,-750000.125,-750000.125,966090.0,1.0,2
-651499.375,-11877.44921875,-1439.2735595703125,8761.4375,-750000.125,17224.076171875,-750000.125,-750000.125,966091.0,1.0,2
-638688.25,-50521.11328125,-48172.5703125,-875.5625610351562,-750000.125,25546.615234375,-750000.125,-750000.125,966092.0,1.0,2
-636030.625,-55963.94140625,-56327.65234375,-2945.244873046875,-750000.125,25611.166015625,-750000.125,-750000.125,966093.0,1.0,2
-646583.8125,-29722.27734375,-26526.783203125,4894.76416015625,-750000.125,22229.16796875,-750000.125,-750000.125,966094.0,1.0,2
-656610.3125,13033.2138671875,21543.595703125,12507.58984375,-750000.125,9164.9306640625,-750000.125,-750000.125,966095.0,1.0,2
-651573.125,-11522.50390625,-1064.5689697265625,8709.9384765625,-750000.125,17078.701171875,-750000.125,-750000.125,966096.0,1.0,2
-638758.875,-50328.7109375,-47936.1796875,-919.6401977539062,-750000.125,25513.98046875,-750000.125,-750000.125,966097.0,1.0,2
-635971.25,-56007.484375,-56381.921875,-3083.736328125,-750000.125,25583.00390625,-750000.125,-750000.125,966098.0,1.0,2
-646463.875,-30104.58203125,-26959.06640625,4696.7275390625,-750000.125,22294.79296875,-750000.125,-750000.125,966099.0,1.0,2
-656576.5625,12904.646484375,21379.265625,12371.333984375,-750000.125,9167.8818359375,-750000.125,-750000.125,966100.0,1.0,2
-651636.0,-11158.259765625,-691.115966796875,8666.21875,-750000.125,16931.357421875,-750000.125,-750000.125,966101.0,1.0,2
-638826.3125,-50129.69140625,-47692.9921875,-950.1279907226562,-750000.125,25487.0703125,-750000.125,-750000.125,966102.0,1.0,2
-635912.0,-56056.92578125,-56440.21484375,-3229.55908203125,-750000.125,25566.91015625,-750000.125,-750000.125,966103.0,1.0,2
-646333.0,-30460.69140625,-27389.29296875,4503.787109375,-750000.125,22386.345703125,-750000.125,-750000.125,966104.0,1.0,2
-656534.875,12845.1015625,21227.36328125,12273.1650390625,-750000.125,9235.5625,-750000.125,-750000.125,966105.0,1.0,2
-651706.5625,-10738.494140625,-284.22479248046875,8645.744140625,-750000.125,16837.837890625,-750000.125,-750000.125,966106.0,1.0,2
-638898.8125,-49921.4609375,-47445.9609375,-979.8110961914062,-750000.125,25470.796875,-750000.125,-750000.125,966107.0,1.0,2
-635853.1875,-56104.3125,-56505.390625,-3370.375,-750000.125,25542.0546875,-750000.125,-750000.125,966108.0,1.0,2
-646204.4375,-30917.29296875,-27910.71484375,4229.21826171875,-750000.125,22373.650390625,-750000.125,-750000.125,966109.0,1.0,2
-656492.875,12501.4208984375,20909.611328125,12167.0380859375,-750000.125,9060.1455078125,-750000.125,-750000.125,966110.0,1.0,2
-651773.5,-10563.5244140625,-112.20576477050781,8623.83984375,-750000.125,16509.53515625,-750000.125,-750000.125,966111.0,1.0,2
-638972.8125,-49761.15625,-47270.09765625,-994.1162109375,-750000.125,25348.041015625,-750000.125,-750000.125,966112.0,1.0,2
-635793.8125,-56151.0703125,-56571.015625,-3447.3544921875,-750000.125,25452.201171875,-750000.125,-750000.125,966113.0,1.0,2
-646068.625,-31301.919921875,-28363.650390625,4164.041015625,-750000.125,22414.15234375,-750000.125,-750000.125,966114.0,1.0,2
-656448.75,12345.583984375,20706.298828125,12028.189453125,-750000.125,9068.103515625,-750000.125,-750000.125,966115.0,1.0,2
-651843.75,-10217.162109375,248.99844360351562,8546.681640625,-750000.125,16350.212890625,-750000.125,-750000.125,966116.0,1.0,2
-639043.0,-49565.890625,-47028.609375,-1069.843994140625,-750000.125,25300.65625,-750000.125,-750000.125,966117.0,1.0,2
-635731.5625,-56192.9140625,-56624.125,-3647.089599609375,-750000.125,25411.7890625,-750000.125,-750000.125,966118.0,1.0,2
-645942.3125,-31754.587890625,-28875.68359375,3828.406982421875,-750000.125,22382.412109375,-750000.125,-750000.125,966119.0,1.0,2
-656409.0,11984.3798828125,20372.54296875,11883.7080078125,-750000.125,8888.931640625,-750000.125,-750000.125,966120.0,1.0,2
-651914.0625,-10047.3779296875,416.9941711425781,8495.3623046875,-750000.125,16014.310546875,-750000.125,-750000.125,966121.0,1.0,2
-639118.5625,-49391.45703125,-46837.90234375,-1113.6533203125,-750000.125,25164.578125,-750000.125,-750000.125,966122.0,1.0,2
-635671.8125,-56234.578125,-56683.9375,-3785.67041015625,-750000.125,25310.580078125,-750000.125,-750000.125,966123.0,1.0,2
-645808.1875,-32198.76171875,-29388.87890625,3641.814697265625,-750000.125,22344.056640625,-750000.125,-750000.125,966124.0,1.0,2
-656358.625,11629.970703125,20029.041015625,11737.169921875,-750000.125,8745.1650390625,-750000.125,-750000.125,966125.0,1.0,2
-651977.4375,-9869.546875,584.9004516601562,8416.8623046875,-750000.125,15705.3203125,-750000.125,-750000.125,966126.0,1.0,2
-639197.8125,-49213.8046875,-46644.60546875,-1185.6259765625,-750000.125,25036.1015625,-750000.125,-750000.125,966127.0,1.0,2
-635611.125,-56275.2578125,-56744.01953125,-3958.136474609375,-750000.125,25211.0703125,-750000.125,-750000.125,966128.0,1.0,2
-645664.3125,-32684.33203125,-29935.603515625,3393.978515625,-750000.125,22306.1484375,-750000.125,-750000.125,966129.0,1.0,2
-656309.1875,11195.900390625,19656.21484375,11529.1201171875,-750000.125,8579.3154296875,-750000.125,-750000.125,966130.0,1.0,2
-652050.1875,-9691.359375,776.4102172851562,8327.4560546875,-750000.125,15374.7822265625,-750000.125,-750000.125,966131.0,1.0,2
-639273.25,-49048.3125,-46448.71484375,-1237.750244140625,-750000.125,24910.931640625,-750000.125,-750000.125,966132.0,1.0,2
-635552.75,-56316.7421875,-56797.3046875,-4075.706787109375,-750000.125,25123.18359375,-750000.125,-750000.125,966133.0,1.0,2
-645540.0625,-33034.89453125,-30355.90625,3309.131103515625,-750000.125,22368.732421875,-750000.125,-750000.125,966134.0,1.0,2
-656259.5625,11041.6728515625,19441.90625,11399.30078125,-750000.125,8699.03125,-750000.125,-750000.125,966135.0,1.0,2
-652104.6875,-9360.642578125,1100.0634765625,8259.3271484375,-750000.125,15321.1376953125,-750000.125,-750000.125,966136.0,1.0,2
-639340.1875,-48856.625,-46217.95703125,-1311.1534423828125,-750000.125,24890.994140625,-750000.125,-750000.125,966137.0,1.0,2
-635497.125,-56364.484375,-56853.2734375,-4253.26904296875,-750000.125,25098.328125,-750000.125,-750000.125,966138.0,1.0,2
-645411.3125,-33390.46875,-30774.59765625,3068.984130859375,-750000.125,22439.72265625,-750000.125,-750000.125,966139.0,1.0,2
-656210.5,10860.4453125,19211.861328125,11244.537109375,-750000.125,8762.8681640625,-750000.125,-750000.125,966140.0,1.0,2
-652168.875,-9046.2880859375,1419.3358154296875,8181.275390625,-750000.125,15213.40234375,-750000.125,-750000.125,966141.0,1.0,2
-639417.1875,-48659.03515625,-45979.328125,-1379.281494140625,-750000.125,24854.24609375,-750000.125,-750000.125,966142.0,1.0,2
-635442.75,-56404.80859375,-56903.1640625,-4430.0263671875,-750000.125,25064.80078125,-750000.125,-750000.125,966143.0,1.0,2
-645278.5625,-33836.96484375,-31272.23828125,2748.28125,-750000.125,22444.28125,-750000.125,-750000.125,966144.0,1.0,2
-656153.1875,10425.2119140625,18840.5546875,11077.8828125,-750000.125,8662.9111328125,-750000.125,-750000.125,966145.0,1.0,2
-652231.1875,-8921.654296875,1580.447265625,8110.912109375,-750000.125,14917.3759765625,-750000.125,-750000.125,966146.0,1.0,2
-639495.625,-48483.4375,-45783.16796875,-1447.7672119140625,-750000.125,24719.779296875,-750000.125,-750000.125,966147.0,1.0,2
-635383.125,-56429.57421875,-56947.15234375,-4593.90966796875,-750000.125,24965.6484375,-750000.125,-750000.125,966148.0,1.0,2
-645144.0,-34262.0078125,-31767.10546875,2516.627685546875,-750000.125,22402.796875,-750000.125,-750000.125,966149.0,1.0,2
-656097.875,10009.7373046875,18448.7734375,10891.8271484375,-750000.125,8533.2705078125,-750000.125,-750000.125,966150.0,1.0,2
-652285.375,-8804.2626953125,1686.930908203125,7995.5771484375,-750000.125,14612.587890625,-750000.125,-750000.125,966151.0,1.0,2
-639563.1875,-48325.546875,-45620.71875,-1551.658203125,-750000.125,24579.142578125,-750000.125,-750000.125,966152.0,1.0,2
-635330.8125,-56455.0546875,-56991.67578125,-4766.46484375,-750000.125,24863.09765625,-750000.125,-750000.125,966153.0,1.0,2
-645020.0625,-34568.8515625,-32158.796875,2390.206298828125,-750000.125,22434.537109375,-750000.125,-750000.125,966154.0,1.0,2
-656042.875,9813.220703125,18204.603515625,10718.734375,-750000.125,8645.4765625,-750000.125,-750000.125,966155.0,1.0,2
-652339.0625,-8514.763671875,1966.4171142578125,7900.1796875,-750000.125,14566.7216796875,-750000.125,-750000.125,966156.0,1.0,2
-639634.625,-48131.98046875,-45402.5625,-1616.2994384765625,-750000.125,24566.267578125,-750000.125,-750000.125,966157.0,1.0,2
-635280.5,-56492.875,-57046.66015625,-4927.0400390625,-750000.125,24840.03125,-750000.125,-750000.125,966158.0,1.0,2
-644896.6875,-34933.90234375,-32585.447265625,2154.3505859375,-750000.125,22513.21484375,-750000.125,-750000.125,966159.0,1.0,2
-655987.4375,9578.7060546875,17922.791015625,10546.537109375,-750000.125,8737.6552734375,-750000.125,-750000.125,966160.0,1.0,2
-652392.4375,-8205.68359375,2228.290283203125,7835.53857421875,-750000.125,14497.07421875,-750000.125,-750000.125,966161.0,1.0,2
-639709.0,-47933.67578125,-45181.1015625,-1648.4859619140625,-750000.125,24546.330078125,-750000.125,-750000.125,966162.0,1.0,2
-635232.0625,-56524.5234375,-57096.1015625,-5058.46826171875,-750000.125,24817.412109375,-750000.125,-750000.125,966163.0,1.0,2
-644768.9375,-35336.94921875,-33053.8515625,1872.2716064453125,-750000.125,22536.19140625,-750000.125,-750000.125,966164.0,1.0,2
-655926.5625,9162.0703125,17534.5859375,10402.234375,-750000.125,8685.7099609375,-750000.125,-750000.125,966165.0,1.0,2
-652449.6875,-8052.3505859375,2379.924560546875,7814.17041015625,-750000.125,14250.9365234375,-750000.125,-750000.125,966166.0,1.0,2
-639791.4375,-47751.015625,-44984.67578125,-1638.561767578125,-750000.125,24442.349609375,-750000.125,-750000.125,966167.0,1.0,2
-635183.9375,-56543.8359375,-57134.19140625,-5146.17626953125,-750000.125,24748.388671875,-750000.125,-750000.125,966168.0,1.0,2
-644646.25,-35622.9609375,-33429.5390625,1817.7333984375,-750000.125,22600.1171875,-750000.125,-750000.125,966169.0,1.0,2
-655870.5,9018.6611328125,17312.142578125,10319.443359375,-750000.125,8845.1220703125,-750000.125,-750000.125,966170.0,1.0,2
-652502.8125,-7726.37255859375,2719.134521484375,7778.31787109375,-750000.125,14229.0322265625,-750000.125,-750000.125,966171.0,1.0,2
-639856.1875,-47573.9921875,-44752.30859375,-1685.58984375,-750000.125,24434.48046875,-750000.125,-750000.125,966172.0,1.0,2
-635126.5625,-56600.609375,-57189.17578125,-5285.025390625,-750000.125,24732.564453125,-750000.125,-750000.125,966173.0,1.0,2
-644509.625,-35972.36328125,-33827.30859375,1616.92529296875,-750000.125,22688.005859375,-750000.125,-750000.125,966174.0,1.0,2
-655808.0,8816.3330078125,17065.021484375,10186.4951171875,-750000.125,8978.6962890625,-750000.125,-750000.125,966175.0,1.0,2
-652552.625,-7388.5927734375,3077.745849609375,7741.482421875,-750000.125,14181.556640625,-750000.125,-750000.125,966176.0,1.0,2
-639927.5,-47358.1640625,-44478.72265625,-1711.1602783203125,-750000.125,24420.443359375,-750000.125,-750000.125,966177.0,1.0,2
-635068.3125,-56636.10546875,-57226.546875,-5388.91650390625,-750000.125,24714.861328125,-750000.125,-750000.125,966178.0,1.0,2
-644373.75,-36321.23046875,-34213.546875,1450.091796875,-750000.125,22762.48046875,-750000.125,-750000.125,966179.0,1.0,2
-655739.5,8572.4306640625,16803.685546875,10047.646484375,-750000.125,9069.623046875,-750000.125,-750000.125,966180.0,1.0,2
-652601.0625,-7059.0390625,3394.87255859375,7700.5341796875,-750000.125,14087.3212890625,-750000.125,-750000.125,966181.0,1.0,2
-639993.75,-47144.92578125,-44237.14453125,-1719.117431640625,-750000.125,24396.3046875,-750000.125,-750000.125,966182.0,1.0,2
-635010.75,-56668.6484375,-57277.95703125,-5487.26416015625,-750000.125,24698.3203125,-750000.125,-750000.125,966183.0,1.0,2
-644239.8125,-36638.17578125,-34611.58984375,1288.4439697265625,-750000.125,22835.2578125,-750000.125,-750000.125,966184.0,1.0,2
-655676.0,8399.517578125,16535.28515625,9948.046875,-750000.125,9165.8251953125,-750000.125,-750000.125,966185.0,1.0,2
-652656.5625,-6672.353515625,3745.07958984375,7703.841796875,-750000.125,13993.17578125,-750000.125,-750000.125,966186.0,1.0,2
-640070.1875,-46905.046875,-43967.671875,-1699.26904296875,-750000.125,24375.740234375,-750000.125,-750000.125,966187.0,1.0,2
-634951.0625,-56692.69921875,-57322.48046875,-5563.0810546875,-750000.125,24686.33984375,-750000.125,-750000.125,966188.0,1.0,2
-644101.875,-36922.58203125,-34988.26171875,1156.1217041015625,-750000.125,22909.287109375,-750000.125,-750000.125,966189.0,1.0,2
-655609.0,8262.904296875,16288.7001953125,9878.130859375,-750000.125,9287.3291015625,-750000.125,-750000.125,966190.0,1.0,2
-652701.375,-6323.5771484375,4087.32958984375,7697.8515625,-750000.125,13928.892578125,-750000.125,-750000.125,966191.0,1.0,2
-640134.4375,-46703.703125,-43712.05859375,-1713.3953857421875,-750000.125,24350.884765625,-750000.125,-750000.125,966192.0,1.0,2
-634896.0625,-56733.19921875,-57362.35546875,-5674.6611328125,-750000.125,24668.90625,-750000.125,-750000.125,966193.0,1.0,2
-643972.3125,-37302.29296875,-35406.59375,892.9075317382812,-750000.125,22922.876953125,-750000.125,-750000.125,966194.0,1.0,2
-655539.5,7838.0419921875,15913.6376953125,9737.76171875,-750000.125,9212.5849609375,-750000.125,-750000.125,966195.0,1.0,2
-652752.0,-6185.9794921875,4271.68701171875,7684.8876953125,-750000.125,13655.486328125,-750000.125,-750000.125,966196.0,1.0,2
-640207.875,-46529.80859375,-43494.62109375,-1703.6500244140625,-750000.125,24230.455078125,-750000.125,-750000.125,966197.0,1.0,2
-634839.375,-56764.8515625,-57395.6171875,-5748.51123046875,-750000.125,24595.50390625,-750000.125,-750000.125,966198.0,1.0,2
-643830.5,-37635.78125,-35786.93359375,841.5879516601562,-750000.125,22948.1796875,-750000.125,-750000.125,966199.0,1.0,2
-655470.5,7590.384765625,15623.0654296875,9632.529296875,-750000.125,9288.1337890625,-750000.125,-750000.125,966200.0,1.0,2
-652803.5,-5857.9453125,4599.9892578125,7629.99169921875,-750000.125,13538.18359375,-750000.125,-750000.125,966201.0,1.0,2
-640283.25,-46297.88671875,-43215.66796875,-1735.8365478515625,-750000.125,24187.359375,-750000.125,-750000.125,966202.0,1.0,2
-634785.0,-56783.8046875,-57421.1875,-5876.810546875,-750000.125,24568.501953125,-750000.125,-750000.125,966203.0,1.0,2
-643691.125,-37962.11328125,-36173.6171875,642.2997436523438,-750000.125,23002.44921875,-750000.125,-750000.125,966204.0,1.0,2
-655390.4375,7335.4853515625,15309.873046875,9486.8857421875,-750000.125,9369.3154296875,-750000.125,-750000.125,966205.0,1.0,2
-652845.25,-5497.9033203125,4924.35791015625,7604.689453125,-750000.125,13426.6044921875,-750000.125,-750000.125,966206.0,1.0,2
-640357.125,-46053.53515625,-42947.71484375,-1718.759765625,-750000.125,24163.48828125,-750000.125,-750000.125,966207.0,1.0,2
-634736.3125,-56803.7421875,-57461.0625,-5952.00146484375,-750000.125,24564.03125,-750000.125,-750000.125,966208.0,1.0,2
-643559.0625,-38261.1796875,-36558.42578125,434.42852783203125,-750000.125,23025.248046875,-750000.125,-750000.125,966209.0,1.0,2
-655317.75,7035.34619140625,14963.509765625,9396.31640625,-750000.125,9350.361328125,-750000.125,-750000.125,966210.0,1.0,2
-652888.9375,-5315.96044921875,5111.3076171875,7625.25341796875,-750000.125,13230.2666015625,-750000.125,-750000.125,966211.0,1.0,2
-640423.75,-45874.27734375,-42741.54296875,-1679.152587890625,-750000.125,24076.138671875,-750000.125,-750000.125,966212.0,1.0,2
-634682.625,-56826.62890625,-57496.19921875,-5993.486328125,-750000.125,24513.248046875,-750000.125,-750000.125,966213.0,1.0,2
-643429.125,-38576.4296875,-36928.75,401.5267639160156,-750000.125,23080.94921875,-750000.125,-750000.125,966214.0,1.0,2
-655245.0625,6767.7509765625,14653.6259765625,9319.873046875,-750000.125,9491.5341796875,-750000.125,-750000.125,966215.0,1.0,2
-652936.125,-4982.91943359375,5408.49658203125,7600.39794921875,-750000.125,13168.5751953125,-750000.125,-750000.125,966216.0,1.0,2
-640500.375,-45635.203125,-42476.54296875,-1675.5762939453125,-750000.125,24056.55859375,-750000.125,-750000.125,966217.0,1.0,2
-634636.5,-56841.11328125,-57526.77734375,-6080.39013671875,-750000.125,24501.984375,-750000.125,-750000.125,966218.0,1.0,2
-643298.25,-38850.375,-37279.76171875,251.4124298095703,-750000.125,23143.802734375,-750000.125,-750000.125,966219.0,1.0,2
-655172.3125,6603.0634765625,14371.904296875,9228.8564453125,-750000.125,9609.8203125,-750000.125,-750000.125,966220.0,1.0,2
-652979.625,-4588.45556640625,5766.2138671875,7613.80908203125,-750000.125,13109.298828125,-750000.125,-750000.125,966221.0,1.0,2
-640573.6875,-45395.234375,-42177.65625,-1658.49951171875,-750000.125,24035.45703125,-750000.125,-750000.125,966222.0,1.0,2
-634590.5625,-56859.80078125,-57543.67578125,-6137.6103515625,-750000.125,24487.142578125,-750000.125,-750000.125,966223.0,1.0,2
-643174.4375,-39161.95703125,-37636.94140625,64.3730239868164,-750000.125,23159.89453125,-750000.125,-750000.125,966224.0,1.0,2
-655097.8125,6211.28173828125,14007.0341796875,9146.9599609375,-750000.125,9590.59765625,-750000.125,-750000.125,966225.0,1.0,2
-653021.375,-4453.451171875,5965.59130859375,7667.36376953125,-750000.125,12895.4375,-750000.125,-750000.125,966226.0,1.0,2
-640658.8125,-45214.18359375,-41936.61328125,-1562.9234619140625,-750000.125,23948.64453125,-750000.125,-750000.125,966227.0,1.0,2
-634556.5625,-56887.515625,-57557.7109375,-6144.8525390625,-750000.125,24447.53515625,-750000.125,-750000.125,966228.0,1.0,2
-643039.5,-39503.84765625,-38005.56640625,55.52173614501953,-750000.125,23226.861328125,-750000.125,-750000.125,966229.0,1.0,2
-654998.125,5828.70947265625,13650.4794921875,9115.7568359375,-750000.125,9796.5908203125,-750000.125,-750000.125,966230.0,1.0,2
-653047.625,-4217.3271484375,6230.59375,7709.921875,-750000.125,12898.65625,-750000.125,-750000.125,966231.0,1.0,2
-640724.3125,-45007.65234375,-41693.875,-1483.3511962890625,-750000.125,23961.697265625,-750000.125,-750000.125,966232.0,1.0,2
-634512.125,-56908.171875,-57588.734375,-6145.92529296875,-750000.125,24457.458984375,-750000.125,-750000.125,966233.0,1.0,2
-642921.125,-39755.88671875,-38311.60546875,-9.477140426635742,-750000.125,23300.533203125,-750000.125,-750000.125,966234.0,1.0,2
-654941.25,5717.8447265625,13429.197265625,9076.6865234375,-750000.125,9907.1875,-750000.125,-750000.125,966235.0,1.0,2
-653103.1875,-3761.9775390625,6632.29931640625,7751.048828125,-750000.125,12811.2158203125,-750000.125,-750000.125,966236.0,1.0,2
-640807.625,-44729.95703125,-41379.4296875,-1424.521484375,-750000.125,23938.98828125,-750000.125,-750000.125,966237.0,1.0,2
-634474.5,-56925.515625,-57621.19140625,-6182.4033203125,-750000.125,24460.677734375,-750000.125,-750000.125,966238.0,1.0,2
-642797.9375,-40064.69921875,-38695.07421875,-182.47964477539062,-750000.125,23341.302734375,-750000.125,-750000.125,966239.0,1.0,2
-654865.4375,5368.173828125,13022.3955078125,8988.44140625,-750000.125,9919.615234375,-750000.125,-750000.125,966240.0,1.0,2
-653159.875,-3549.99365234375,6822.5576171875,7783.59326171875,-750000.125,12612.1064453125,-750000.125,-750000.125,966241.0,1.0,2
-640903.3125,-44507.95703125,-41135.34765625,-1354.0687255859375,-750000.125,23850.564453125,-750000.125,-750000.125,966242.0,1.0,2
-634433.75,-56931.953125,-57644.2578125,-6219.50732421875,-750000.125,24417.671875,-750000.125,-750000.125,966243.0,1.0,2
-642667.75,-40327.375,-39040.80859375,-215.5602264404297,-750000.125,23390.833984375,-750000.125,-750000.125,966244.0,1.0,2
-654792.75,5183.01220703125,12728.3359375,8969.666015625,-750000.125,10115.595703125,-750000.125,-750000.125,966245.0,1.0,2
-653214.5,-3128.618408203125,7236.24365234375,7848.32373046875,-750000.125,12625.875,-750000.125,-750000.125,966246.0,1.0,2
-640988.3125,-44247.15625,-40791.578125,-1278.430419921875,-750000.125,23864.154296875,-750000.125,-750000.125,966247.0,1.0,2
-634399.9375,-56964.85546875,-57663.66015625,-6218.970703125,-750000.125,24428.3125,-750000.125,-750000.125,966248.0,1.0,2
-642547.9375,-40625.63671875,-39364.28515625,-280.5591125488281,-750000.125,23478.98828125,-750000.125,-750000.125,966249.0,1.0,2
-654722.0625,4921.94384765625,12445.7197265625,8940.51953125,-750000.125,10308.53515625,-750000.125,-750000.125,966250.0,1.0,2
-653268.375,-2785.832275390625,7605.85205078125,7915.28955078125,-750000.125,12610.0498046875,-750000.125,-750000.125,966251.0,1.0,2
-641078.9375,-43999.41015625,-40486.1640625,-1182.4073486328125,-750000.125,23870.76953125,-750000.125,-750000.125,966252.0,1.0,2
-634371.3125,-56994.44921875,-57696.47265625,-6212.4443359375,-750000.125,24443.064453125,-750000.125,-750000.125,966253.0,1.0,2
-642428.875,-40904.3203125,-39695.5390625,-339.6571350097656,-750000.125,23562.673828125,-750000.125,-750000.125,966254.0,1.0,2
-654651.4375,4699.05224609375,12135.03125,8908.6015625,-750000.125,10479.66015625,-750000.125,-750000.125,966255.0,1.0,2
-653325.625,-2403.6171875,7944.615234375,7979.751953125,-750000.125,12579.2939453125,-750000.125,-750000.125,966256.0,1.0,2
-641174.5625,-43727.2578125,-40176.63671875,-1083.6126708984375,-750000.125,23872.46875,-750000.125,-750000.125,966257.0,1.0,2
-634343.25,-57001.15234375,-57717.75,-6199.6591796875,-750000.125,24455.22265625,-750000.125,-750000.125,966258.0,1.0,2
-642315.25,-41186.84765625,-40045.03125,-467.06207275390625,-750000.125,23607.109375,-750000.125,-750000.125,966259.0,1.0,2
-654586.0625,4379.42236328125,11749.4189453125,8860.142578125,-750000.125,10509.6123046875,-750000.125,-750000.125,966260.0,1.0,2
-653379.4375,-2123.05810546875,8188.6962890625,8090.080078125,-750000.125,12417.0205078125,-750000.125,-750000.125,966261.0,1.0,2
-641265.6875,-43495.69140625,-39909.3984375,-930.0114135742188,-750000.125,23810.689453125,-750000.125,-750000.125,966262.0,1.0,2
-634318.75,-57020.5546875,-57740.28125,-6133.408203125,-750000.125,24434.033203125,-750000.125,-750000.125,966263.0,1.0,2
-642201.0625,-41466.8671875,-40387.81640625,-463.7540283203125,-750000.125,23636.61328125,-750000.125,-750000.125,966264.0,1.0,2
-654509.8125,4058.182861328125,11376.3232421875,8908.958984375,-750000.125,10597.9462890625,-750000.125,-750000.125,966265.0,1.0,2
-653430.125,-1882.1063232421875,8463.2646484375,8230.6279296875,-750000.125,12292.2080078125,-750000.125,-750000.125,966266.0,1.0,2
-641358.75,-43277.80859375,-39612.30078125,-780.3441162109375,-750000.125,23746.2265625,-750000.125,-750000.125,966267.0,1.0,2
-634290.875,-57041.7421875,-57746.26953125,-6071.53857421875,-750000.125,24410.876953125,-750000.125,-750000.125,966268.0,1.0,2
-642080.625,-41743.76171875,-40686.97265625,-404.2089538574219,-750000.125,23690.705078125,-750000.125,-750000.125,966269.0,1.0,2
-654430.0625,3803.28369140625,11095.3173828125,8957.775390625,-750000.125,10787.8466796875,-750000.125,-750000.125,966270.0,1.0,2
-653476.6875,-1504.9876708984375,8859.248046875,8349.7177734375,-750000.125,12277.27734375,-750000.125,-750000.125,966271.0,1.0,2
-641449.25,-42991.97265625,-39267.3671875,-610.1132202148438,-750000.125,23766.25390625,-750000.125,-750000.125,966272.0,1.0,2
-634262.0625,-57056.05078125,-57764.0625,-6008.9541015625,-750000.125,24449.76953125,-750000.125,-750000.125,966273.0,1.0,2
-641960.4375,-41990.703125,-40983.0859375,-416.18951416015625,-750000.125,23788.60546875,-750000.125,-750000.125,966274.0,1.0,2
-654353.4375,3639.93701171875,10815.5625,8957.23828125,-750000.125,10978.5517578125,-750000.125,-750000.125,966275.0,1.0,2
-653520.0625,-1062.0655517578125,9231.8076171875,8429.3798828125,-750000.125,12264.4921875,-750000.125,-750000.125,966276.0,1.0,2
-641536.375,-42695.6796875,-38934.1484375,-510.69268798828125,-750000.125,23777.96484375,-750000.125,-750000.125,966277.0,1.0,2
-634240.625,-57056.31640625,-57775.7734375,-5973.81689453125,-750000.125,24473.10546875,-750000.125,-750000.125,966278.0,1.0,2
-641849.125,-42219.23046875,-41278.66796875,-447.034912109375,-750000.125,23863.70703125,-750000.125,-750000.125,966279.0,1.0,2
-654273.0625,3452.361083984375,10518.1953125,8958.9375,-750000.125,11132.689453125,-750000.125,-750000.125,966280.0,1.0,2
-653569.25,-653.6544189453125,9601.68359375,8532.197265625,-750000.125,12215.8544921875,-750000.125,-750000.125,966281.0,1.0,2
-641621.25,-42408.4140625,-38591.44921875,-396.9670104980469,-750000.125,23763.5703125,-750000.125,-750000.125,966282.0,1.0,2
-634211.4375,-57062.84375,-57786.59375,-5945.65380859375,-750000.125,24492.328125,-750000.125,-750000.125,966283.0,1.0,2
-641730.5,-42443.19140625,-41561.37109375,-482.2612609863281,-750000.125,23927.990234375,-750000.125,-750000.125,966284.0,1.0,2
-654193.9375,3260.493896484375,10229.857421875,8964.48046875,-750000.125,11292.638671875,-750000.125,-750000.125,966285.0,1.0,2
-653614.125,-290.4832763671875,9953.6796875,8627.2373046875,-750000.125,12189.8369140625,-750000.125,-750000.125,966286.0,1.0,2
-641718.875,-42134.0234375,-38245.8046875,-256.06158447265625,-750000.125,23772.064453125,-750000.125,-750000.125,966287.0,1.0,2
-634196.25,-57068.921875,-57782.48046875,-5904.07958984375,-750000.125,24525.5859375,-750000.125,-750000.125,966288.0,1.0,2
-641621.1875,-42675.203125,-41828.25,-512.2125854492188,-750000.125,24013.017578125,-750000.125,-750000.125,966289.0,1.0,2
-654118.125,3064.692626953125,9953.947265625,8967.7880859375,-750000.125,11481.1083984375,-750000.125,-750000.125,966290.0,1.0,2
-653659.5625,144.03465270996094,10358.513671875,8763.6728515625,-750000.125,12195.380859375,-750000.125,-750000.125,966291.0,1.0,2
-641806.9375,-41829.234375,-37881.73828125,-72.95610046386719,-750000.125,23808.810546875,-750000.125,-750000.125,966292.0,1.0,2
-634174.1875,-57075.2734375,-57791.8671875,-5779.35693359375,-750000.125,24571.18359375,-750000.125,-750000.125,966293.0,1.0,2
-641513.875,-42911.953125,-42112.8359375,-455.4391784667969,-750000.125,24113.95703125,-750000.125,-750000.125,966294.0,1.0,2
-654036.8125,2882.749267578125,9662.3017578125,9054.6025390625,-750000.125,11693.5390625,-750000.125,-750000.125,966295.0,1.0,2
-653702.0,597.5068359375,10772.5576171875,8964.2119140625,-750000.125,12205.4833984375,-750000.125,-750000.125,966296.0,1.0,2
-641898.25,-41513.359375,-37490.40234375,156.37281799316406,-750000.125,23832.951171875,-750000.125,-750000.125,966297.0,1.0,2
-634160.6875,-57080.63671875,-57786.50390625,-5655.259765625,-750000.125,24625.185546875,-750000.125,-750000.125,966298.0,1.0,2
-641407.125,-43156.21484375,-42384.453125,-477.6120910644531,-750000.125,24177.615234375,-750000.125,-750000.125,966299.0,1.0,2
-653966.375,2582.1630859375,9332.390625,9066.494140625,-750000.125,11738.9580078125,-750000.125,-750000.125,966300.0,1.0,2
-653757.8125,865.5490112304688,11030.4970703125,9065.2421875,-750000.125,12030.4248046875,-750000.125,-750000.125,966301.0,1.0,2
-642003.4375,-41264.453125,-37190.98046875,286.6387939453125,-750000.125,23754.8984375,-750000.125,-750000.125,966302.0,1.0,2
-634152.25,-57081.171875,-57786.7734375,-5602.8671875,-750000.125,24610.880859375,-750000.125,-750000.125,966303.0,1.0,2
-641305.75,-43401.09765625,-42672.5234375,-493.34771728515625,-750000.125,24188.076171875,-750000.125,-750000.125,966304.0,1.0,2
-653893.8125,2231.330078125,8950.6220703125,9069.265625,-750000.125,11779.99609375,-750000.125,-750000.125,966305.0,1.0,2
-653806.25,1096.666015625,11258.3056640625,9159.8349609375,-750000.125,11863.0546875,-750000.125,-750000.125,966306.0,1.0,2
-642093.4375,-41017.15234375,-36902.46484375,417.351806640625,-750000.125,23673.001953125,-750000.125,-750000.125,966307.0,1.0,2
-634139.6875,-57079.47265625,-57783.375,-5548.150390625,-750000.125,24593.0,-750000.125,-750000.125,966308.0,1.0,2
-641196.375,-43614.06640625,-42937.79296875,-433.0874328613281,-750000.125,24229.0234375,-750000.125,-750000.125,966309.0,1.0,2
-653803.6875,2061.546142578125,8660.318359375,9129.8837890625,-750000.125,11962.296875,-750000.125,-750000.125,966310.0,1.0,2
-653835.375,1543.5220947265625,11660.7265625,9304.4951171875,-750000.125,11865.7373046875,-750000.125,-750000.125,966311.0,1.0,2
-642165.5625,-40677.76171875,-36505.765625,625.2230224609375,-750000.125,23709.48046875,-750000.125,-750000.125,966312.0,1.0,2
-634094.0625,-57062.30859375,-57772.9140625,-5411.71533203125,-750000.125,24656.12109375,-750000.125,-750000.125,966313.0,1.0,2
-641053.25,-43795.65234375,-43175.703125,-358.879638671875,-750000.125,24335.41796875,-750000.125,-750000.125,966314.0,1.0,2
-653688.5,1971.15576171875,8424.4619140625,9199.53125,-750000.125,12180.7177734375,-750000.125,-750000.125,966315.0,1.0,2
-653848.0,2094.26904296875,12134.0478515625,9457.91796875,-750000.125,11873.783203125,-750000.125,-750000.125,966316.0,1.0,2
-642230.75,-40303.4140625,-36055.15234375,794.91748046875,-750000.125,23734.15625,-750000.125,-750000.125,966317.0,1.0,2
-634049.8125,-57047.734375,-57751.7265625,-5329.1923828125,-750000.125,24712.89453125,-750000.125,-750000.125,966318.0,1.0,2
-640912.6875,-44021.31640625,-43435.7890625,-352.44232177734375,-750000.125,24433.85546875,-750000.125,-750000.125,966319.0,1.0,2
-653578.0625,1786.083251953125,8123.697265625,9209.1875,-750000.125,12367.578125,-750000.125,-750000.125,966320.0,1.0,2
-653878.4375,2608.359375,12559.53515625,9565.5634765625,-750000.125,11846.3359375,-750000.125,-750000.125,966321.0,1.0,2
-642319.9375,-39922.453125,-35628.7734375,959.1580810546875,-750000.125,23752.751953125,-750000.125,-750000.125,966322.0,1.0,2
-634034.0625,-57041.20703125,-57752.70703125,-5248.1005859375,-750000.125,24770.025390625,-750000.125,-750000.125,966323.0,1.0,2
-640802.1875,-44261.28515625,-43736.734375,-431.9251403808594,-750000.125,24495.546875,-750000.125,-750000.125,966324.0,1.0,2
-653498.1875,1472.6224365234375,7729.2333984375,9210.439453125,-750000.125,12427.5703125,-750000.125,-750000.125,966325.0,1.0,2
-653931.875,2882.749267578125,12798.251953125,9708.16796875,-750000.125,11685.7607421875,-750000.125,-750000.125,966326.0,1.0,2
-642425.4375,-39638.49609375,-35323.984375,1126.1702880859375,-750000.125,23670.3203125,-750000.125,-750000.125,966327.0,1.0,2
-634030.25,-57024.30859375,-57755.30078125,-5157.44189453125,-750000.125,24762.42578125,-750000.125,-750000.125,966328.0,1.0,2
-640701.25,-44459.05078125,-44004.953125,-329.9117736816406,-750000.125,24543.111328125,-750000.125,-750000.125,966329.0,1.0,2
-653418.75,1300.513916015625,7408.35205078125,9262.4736328125,-750000.125,12633.921875,-750000.125,-750000.125,966330.0,1.0,2
-653979.5,3379.7626953125,13178.947265625,9809.197265625,-750000.125,11690.767578125,-750000.125,-750000.125,966331.0,1.0,2
-642522.8125,-39274.96875,-34910.38671875,1262.9630126953125,-750000.125,23687.216796875,-750000.125,-750000.125,966332.0,1.0,2
-634019.25,-57014.65234375,-57740.7265625,-5101.02587890625,-750000.125,24807.486328125,-750000.125,-750000.125,966333.0,1.0,2
-640587.1875,-44658.69921875,-44256.45703125,-344.57452392578125,-750000.125,24621.162109375,-750000.125,-750000.125,966334.0,1.0,2
-653334.875,1153.886474609375,7123.9482421875,9290.1005859375,-750000.125,12820.693359375,-750000.125,-750000.125,966335.0,1.0,2
-654026.5625,3868.81884765625,13621.51171875,9966.2861328125,-750000.125,11685.134765625,-750000.125,-750000.125,966336.0,1.0,2
-642616.0625,-38906.34375,-34454.6796875,1469.3143310546875,-750000.125,23711.89453125,-750000.125,-750000.125,966337.0,1.0,2
-633998.5,-57002.94140625,-57720.25390625,-4965.57421875,-750000.125,24873.291015625,-750000.125,-750000.125,966338.0,1.0,2
-640474.1875,-44873.0078125,-44501.51953125,-304.34136962890625,-750000.125,24708.15625,-750000.125,-750000.125,966339.0,1.0,2
-653243.0625,906.407958984375,6795.46728515625,9313.3466796875,-750000.125,12945.9521484375,-750000.125,-750000.125,966340.0,1.0,2
-654065.0625,4277.498046875,13945.1650390625,10052.5634765625,-750000.125,11564.078125,-750000.125,-750000.125,966341.0,1.0,2
-642709.6875,-38543.88671875,-34064.05859375,1597.3450927734375,-750000.125,23664.865234375,-750000.125,-750000.125,966342.0,1.0,2
-633987.6875,-56976.56640625,-57703.265625,-4894.76416015625,-750000.125,24899.666015625,-750000.125,-750000.125,966343.0,1.0,2
-640360.6875,-45086.95703125,-44778.94921875,-303.4472961425781,-750000.125,24747.94140625,-750000.125,-750000.125,966344.0,1.0,2
-653157.6875,618.9645385742188,6398.05322265625,9286.79296875,-750000.125,13004.3349609375,-750000.125,-750000.125,966345.0,1.0,2
-654116.4375,4604.10205078125,14206.2333984375,10089.6669921875,-750000.125,11389.1982421875,-750000.125,-750000.125,966346.0,1.0,2
-642804.625,-38233.01953125,-33715.10546875,1665.741455078125,-750000.125,23581.986328125,-750000.125,-750000.125,966347.0,1.0,2
-633970.5,-56955.64453125,-57686.63671875,-4889.3994140625,-750000.125,24912.271484375,-750000.125,-750000.125,966348.0,1.0,2
-640259.0625,-45322.8125,-45056.91796875,-474.03582763671875,-750000.125,24733.189453125,-750000.125,-750000.125,966349.0,1.0,2
-653090.4375,111.93753814697266,5905.3310546875,9160.9072265625,-750000.125,12855.9189453125,-750000.125,-750000.125,966350.0,1.0,2
-654173.375,4633.5166015625,14263.095703125,10089.578125,-750000.125,11002.78125,-750000.125,-750000.125,966351.0,1.0,2
-642909.5,-38036.76953125,-33492.9296875,1738.3399658203125,-750000.125,23374.650390625,-750000.125,-750000.125,966352.0,1.0,2
-633971.5,-56940.98046875,-57672.6875,-4881.71044921875,-750000.125,24863.009765625,-750000.125,-750000.125,966353.0,1.0,2
-640163.0,-45541.59375,-45326.56640625,-473.5887756347656,-750000.125,24716.73828125,-750000.125,-750000.125,966354.0,1.0,2
-653008.9375,-261.1578063964844,5469.740234375,9108.2470703125,-750000.125,12935.9384765625,-750000.125,-750000.125,966355.0,1.0,2
-654226.5625,4871.51806640625,14509.859375,10095.6572265625,-750000.125,10880.3828125,-750000.125,-750000.125,966356.0,1.0,2
-643012.9375,-37748.07421875,-33132.26171875,1816.6605224609375,-750000.125,23321.54296875,-750000.125,-750000.125,966357.0,1.0,2
-633966.5,-56927.21484375,-57646.046875,-4861.5048828125,-750000.125,24879.638671875,-750000.125,-750000.125,966358.0,1.0,2
-640060.9375,-45766.359375,-45575.74609375,-543.683837890625,-750000.125,24750.35546875,-750000.125,-750000.125,966359.0,1.0,2
-652929.6875,-633.8060913085938,5070.89599609375,8993.1796875,-750000.125,13008.1796875,-750000.125,-750000.125,966360.0,1.0,2
-654265.5625,5086.720703125,14710.48828125,10026.0986328125,-750000.125,10741.98046875,-750000.125,-750000.125,966361.0,1.0,2
-643098.6875,-37458.30859375,-32811.6484375,1791.984130859375,-750000.125,23238.126953125,-750000.125,-750000.125,966362.0,1.0,2
-633952.875,-56885.99609375,-57613.5,-4933.8349609375,-750000.125,24874.630859375,-750000.125,-750000.125,966363.0,1.0,2
-639955.625,-45944.7265625,-45807.04296875,-695.9439697265625,-750000.125,24762.60546875,-750000.125,-750000.125,966364.0,1.0,2
-652835.1875,-929.4749755859375,4681.88623046875,8837.1650390625,-750000.125,13073.1787109375,-750000.125,-750000.125,966365.0,1.0,2
-654295.75,5405.90380859375,14942.857421875,9999.634765625,-750000.125,10637.1064453125,-750000.125,-750000.125,966366.0,1.0,2
-643175.6875,-37120.52734375,-32458.490234375,1863.8673095703125,-750000.125,23209.962890625,-750000.125,-750000.125,966367.0,1.0,2
-633928.75,-56847.375,-57587.39453125,-4892.08203125,-750000.125,24899.21875,-750000.125,-750000.125,966368.0,1.0,2
-639832.1875,-46125.15234375,-46046.02734375,-735.2830200195312,-750000.125,24805.876953125,-750000.125,-750000.125,966369.0,1.0,2
-652724.1875,-1219.153564453125,4286.9755859375,8781.6435546875,-750000.125,13217.1240234375,-750000.125,-750000.125,966370.0,1.0,2
-654309.6875,5722.13623046875,15192.0341796875,10036.4697265625,-750000.125,10588.46875,-750000.125,-750000.125,966371.0,1.0,2
-643248.875,-36782.8359375,-32077.4375,1955.95654296875,-750000.125,23175.98828125,-750000.125,-750000.125,966372.0,1.0,2
-633904.875,-56797.75390625,-57537.1484375,-4878.4921875,-750000.125,24918.619140625,-750000.125,-750000.125,966373.0,1.0,2
-639711.9375,-46291.44921875,-46257.5625,-810.9213256835938,-750000.125,24851.20703125,-750000.125,-750000.125,966374.0,1.0,2
-652621.0,-1477.539794921875,3937.751708984375,8721.1142578125,-750000.125,13402.1962890625,-750000.125,-750000.125,966375.0,1.0,2
-654335.4375,6059.37939453125,15501.9189453125,10092.9755859375,-750000.125,10602.505859375,-750000.125,-750000.125,966376.0,1.0,2
-643333.1875,-36434.77734375,-31671.26171875,2052.158447265625,-750000.125,23177.955078125,-750000.125,-750000.125,966377.0,1.0,2
-633899.6875,-56768.96484375,-57504.3359375,-4850.77587890625,-750000.125,24953.3984375,-750000.125,-750000.125,966378.0,1.0,2
-639605.8125,-46477.50390625,-46483.046875,-862.4197387695312,-750000.125,24911.109375,-750000.125,-750000.125,966379.0,1.0,2
-652519.9375,-1744.3302001953125,3576.1005859375,8666.666015625,-750000.125,13609.083984375,-750000.125,-750000.125,966380.0,1.0,2
-654364.25,6429.5244140625,15789.541015625,10145.2783203125,-750000.125,10641.4873046875,-750000.125,-750000.125,966381.0,1.0,2
-643423.5,-36074.01953125,-31267.3203125,2177.507080078125,-750000.125,23210.947265625,-750000.125,-750000.125,966382.0,1.0,2
-633890.5,-56737.40234375,-57468.6640625,-4770.6669921875,-750000.125,24986.568359375,-750000.125,-750000.125,966383.0,1.0,2
-639498.125,-46667.94140625,-46710.58984375,-852.3167724609375,-750000.125,24973.42578125,-750000.125,-750000.125,966384.0,1.0,2
-652429.75,-2014.1605224609375,3211.498779296875,8671.76171875,-750000.125,13819.01171875,-750000.125,-750000.125,966385.0,1.0,2
-654398.25,6835.521484375,16107.740234375,10248.0966796875,-750000.125,10655.7919921875,-750000.125,-750000.125,966386.0,1.0,2
-643510.0625,-35684.91796875,-30831.013671875,2307.951904296875,-750000.125,23204.509765625,-750000.125,-750000.125,966387.0,1.0,2
-633881.625,-56698.8671875,-57425.56640625,-4714.966796875,-750000.125,25019.470703125,-750000.125,-750000.125,966388.0,1.0,2
-639387.4375,-46834.68359375,-46916.671875,-871.8074951171875,-750000.125,25024.56640625,-750000.125,-750000.125,966389.0,1.0,2
-652318.6875,-2240.181396484375,2869.69580078125,8652.4501953125,-750000.125,13983.251953125,-750000.125,-750000.125,966390.0,1.0,2
-654408.3125,7230.43212890625,16414.763671875,10313.453125,-750000.125,10611.625,-750000.125,-750000.125,966391.0,1.0,2
-643571.0625,-35301.2734375,-30413.037109375,2409.786376953125,-750000.125,23162.845703125,-750000.125,-750000.125,966392.0,1.0,2
-633849.1875,-56638.33984375,-57374.33984375,-4696.90625,-750000.125,25046.115234375,-750000.125,-750000.125,966393.0,1.0,2
-639248.9375,-47002.6796875,-47146.984375,-1016.2891845703125,-750000.125,25045.935546875,-750000.125,-750000.125,966394.0,1.0,2
-652180.6875,-2582.87841796875,2415.4189453125,8553.119140625,-750000.125,13995.322265625,-750000.125,-750000.125,966395.0,1.0,2
-654400.875,7484.1689453125,16600.73046875,10378.3623046875,-750000.125,10401.2509765625,-750000.125,-750000.125,966396.0,1.0,2
-643623.0625,-34960.453125,-30040.74609375,2521.545166015625,-750000.125,23027.751953125,-750000.125,-750000.125,966397.0,1.0,2
-633800.625,-56588.8984375,-57321.23046875,-4638.970703125,-750000.125,25018.21875,-750000.125,-750000.125,966398.0,1.0,2
-639098.125,-47163.97265625,-47346.71875,-953.2572631835938,-750000.125,25045.845703125,-750000.125,-750000.125,966399.0,1.0,2
-652035.4375,-2815.604736328125,2069.68212890625,8573.056640625,-750000.125,14131.0419921875,-750000.125,-750000.125,966400.0,1.0,2
-654384.375,7873.26806640625,16890.41015625,10428.6982421875,-750000.125,10351.71875,-750000.125,-750000.125,966401.0,1.0,2
-643670.4375,-34570.28125,-29622.41015625,2640.277587890625,-750000.125,23004.416015625,-750000.125,-750000.125,966402.0,1.0,2
-633757.875,-56538.11328125,-57276.4375,-4575.5810546875,-750000.125,25052.462890625,-750000.125,-750000.125,966403.0,1.0,2
-638954.25,-47339.38671875,-47569.1640625,-974.983154296875,-750000.125,25095.466796875,-750000.125,-750000.125,966404.0,1.0,2
-651904.0625,-3123.0751953125,1669.4072265625,8526.654296875,-750000.125,14300.0205078125,-750000.125,-750000.125,966405.0,1.0,2
-654391.9375,8219.8994140625,17146.560546875,10458.2919921875,-750000.125,10306.3896484375,-750000.125,-750000.125,966406.0,1.0,2
-643748.25,-34185.1171875,-29207.740234375,2700.00146484375,-750000.125,22947.46484375,-750000.125,-750000.125,966407.0,1.0,2
-633747.375,-56481.07421875,-57225.7421875,-4600.43603515625,-750000.125,25068.109375,-750000.125,-750000.125,966408.0,1.0,2
-638834.5,-47515.51953125,-47799.1171875,-1087.9935302734375,-750000.125,25128.099609375,-750000.125,-750000.125,966409.0,1.0,2
-651787.375,-3467.202880859375,1222.7298583984375,8409.083984375,-750000.125,14470.4306640625,-750000.125,-750000.125,966410.0,1.0,2
-654422.0,8567.06640625,17403.248046875,10467.76953125,-750000.125,10285.5576171875,-750000.125,-750000.125,966411.0,1.0,2
-643849.0,-33786.62890625,-28772.150390625,2792.001220703125,-750000.125,22932.533203125,-750000.125,-750000.125,966412.0,1.0,2
-633759.25,-56435.83203125,-57171.83203125,-4563.06396484375,-750000.125,25100.83203125,-750000.125,-750000.125,966413.0,1.0,2
-638743.0,-47691.11328125,-48008.5078125,-1132.0711669921875,-750000.125,25177.990234375,-750000.125,-750000.125,966414.0,1.0,2
-651698.875,-3747.67236328125,855.2672119140625,8357.8544921875,-750000.125,14658.990234375,-750000.125,-750000.125,966415.0,1.0,2
-654459.0,8909.2265625,17664.048828125,10514.88671875,-750000.125,10304.333984375,-750000.125,-750000.125,966416.0,1.0,2
-643946.8125,-33394.7578125,-28355.06640625,2903.760009765625,-750000.125,22940.580078125,-750000.125,-750000.125,966417.0,1.0,2
-633768.625,-56387.015625,-57126.6796875,-4492.0751953125,-750000.125,25135.87890625,-750000.125,-750000.125,966418.0,1.0,2
-638646.9375,-47857.234375,-48224.25,-1134.4852294921875,-750000.125,25229.130859375,-750000.125,-750000.125,966419.0,1.0,2
-651598.25,-4011.601806640625,463.66461181640625,8366.6162109375,-750000.125,14865.8779296875,-750000.125,-750000.125,966420.0,1.0,2
-654482.625,9263.994140625,17944.427734375,10642.0234375,-750000.125,10335.357421875,-750000.125,-750000.125,966421.0,1.0,2
-644037.625,-33008.609375,-27909.640625,3051.63916015625,-750000.125,22931.19140625,-750000.125,-750000.125,966422.0,1.0,2
-633771.5625,-56330.69140625,-57064.72265625,-4410.0888671875,-750000.125,25172.447265625,-750000.125,-750000.125,966423.0,1.0,2
-638536.5,-48017.98828125,-48420.85546875,-1136.4521484375,-750000.125,25272.314453125,-750000.125,-750000.125,966424.0,1.0,2
-651486.3125,-4307.98583984375,92.89385223388672,8332.9990234375,-750000.125,15007.8564453125,-750000.125,-750000.125,966425.0,1.0,2
-654497.75,9592.564453125,18206.30078125,10694.05859375,-750000.125,10286.2734375,-750000.125,-750000.125,966426.0,1.0,2
-644118.375,-32620.2265625,-27453.755859375,3183.78271484375,-750000.125,22901.419921875,-750000.125,-750000.125,966427.0,1.0,2
-633769.5,-56287.41796875,-56995.07421875,-4328.1025390625,-750000.125,25208.65625,-750000.125,-750000.125,966428.0,1.0,2
-638429.4375,-48192.33203125,-48609.859375,-1132.8758544921875,-750000.125,25321.30859375,-750000.125,-750000.125,966429.0,1.0,2
-651375.1875,-4615.3671875,-288.6951599121094,8332.373046875,-750000.125,15188.4580078125,-750000.125,-750000.125,966430.0,1.0,2
-654519.5625,9946.9736328125,18473.62890625,10789.634765625,-750000.125,10290.3857421875,-750000.125,-750000.125,966431.0,1.0,2
-644207.625,-32210.294921875,-27001.892578125,3329.247802734375,-750000.125,22888.90234375,-750000.125,-750000.125,966432.0,1.0,2
-633776.75,-56226.80078125,-56926.85546875,-4238.9638671875,-750000.125,25244.150390625,-750000.125,-750000.125,966433.0,1.0,2
-638331.9375,-48349.953125,-48799.046875,-1125.6339111328125,-750000.125,25368.337890625,-750000.125,-750000.125,966434.0,1.0,2
-651275.3125,-4911.48291015625,-665.0985107421875,8327.9921875,-750000.125,15390.96484375,-750000.125,-750000.125,966435.0,1.0,2
-654551.125,10264.4580078125,18723.341796875,10873.7666015625,-750000.125,10316.939453125,-750000.125,-750000.125,966436.0,1.0,2
-644308.4375,-31821.822265625,-26570.32421875,3444.582763671875,-750000.125,22871.826171875,-750000.125,-750000.125,966437.0,1.0,2
-633799.125,-56168.5078125,-56867.04296875,-4191.48876953125,-750000.125,25268.6484375,-750000.125,-750000.125,966438.0,1.0,2
-638250.625,-48526.17578125,-49020.23828125,-1243.651123046875,-750000.125,25381.48046875,-750000.125,-750000.125,966439.0,1.0,2
-651188.25,-5382.8369140625,-1185.8941650390625,8243.234375,-750000.125,15426.8173828125,-750000.125,-750000.125,966440.0,1.0,2
-654591.6875,10344.0302734375,18796.298828125,10988.0283203125,-750000.125,10148.318359375,-750000.125,-750000.125,966441.0,1.0,2
-644422.625,-31558.607421875,-26260.349609375,3632.15869140625,-750000.125,22745.314453125,-750000.125,-750000.125,966442.0,1.0,2
-633832.8125,-56129.34765625,-56806.24609375,-4057.4677734375,-750000.125,25244.060546875,-750000.125,-750000.125,966443.0,1.0,2
-638168.4375,-48726.984375,-49235.53125,-1179.0098876953125,-750000.125,25361.36328125,-750000.125,-750000.125,966444.0,1.0,2
-651098.1875,-5900.5927734375,-1682.8182373046875,8277.923828125,-750000.125,15492.7099609375,-750000.125,-750000.125,966445.0,1.0,2
-654638.5625,10403.306640625,18920.126953125,11087.896484375,-750000.125,9991.498046875,-750000.125,-750000.125,966446.0,1.0,2
-644545.5,-31282.69921875,-25888.865234375,3788.531494140625,-750000.125,22606.64453125,-750000.125,-750000.125,966447.0,1.0,2
-633868.9375,-56089.37890625,-56731.5,-3959.656494140625,-750000.125,25215.8984375,-750000.125,-750000.125,966448.0,1.0,2
-638084.5,-48926.71875,-49440.80859375,-1094.8779296875,-750000.125,25357.876953125,-750000.125,-750000.125,966449.0,1.0,2
-651000.9375,-6316.603515625,-2142.28076171875,8328.9755859375,-750000.125,15698.435546875,-750000.125,-750000.125,966450.0,1.0,2
-654682.4375,10705.32421875,19161.34765625,11191.787109375,-750000.125,10014.296875,-750000.125,-750000.125,966451.0,1.0,2
-644667.6875,-30868.029296875,-25413.755859375,3968.328857421875,-750000.125,22592.96484375,-750000.125,-750000.125,966452.0,1.0,2
-633911.25,-56031.71484375,-56655.1484375,-3849.9541015625,-750000.125,25261.49609375,-750000.125,-750000.125,966453.0,1.0,2
-638013.9375,-49119.125,-49655.56640625,-1157.1051025390625,-750000.125,25395.517578125,-750000.125,-750000.125,966454.0,1.0,2
-650918.25,-6802.44091796875,-2653.3310546875,8278.103515625,-750000.125,15793.3857421875,-750000.125,-750000.125,966455.0,1.0,2
-654737.5,10804.296875,19262.5546875,11292.90625,-750000.125,9894.1337890625,-750000.125,-750000.125,966456.0,1.0,2
-644799.25,-30564.849609375,-25082.4140625,4108.96630859375,-750000.125,22474.6796875,-750000.125,-750000.125,966457.0,1.0,2
-633957.75,-55976.19140625,-56603.47265625,-3754.556884765625,-750000.125,25236.55078125,-750000.125,-750000.125,966458.0,1.0,2
-637942.875,-49278.1796875,-49867.7265625,-1057.4163818359375,-750000.125,25390.8671875,-750000.125,-750000.125,966459.0,1.0,2
-650840.6875,-7101.23876953125,-3075.24267578125,8357.943359375,-750000.125,15999.2001953125,-750000.125,-750000.125,966460.0,1.0,2
-654790.375,11131.080078125,19503.060546875,11434.3486328125,-750000.125,9964.5869140625,-750000.125,-750000.125,966461.0,1.0,2
-644922.3125,-30158.31640625,-24608.2890625,4323.18505859375,-750000.125,22496.31640625,-750000.125,-750000.125,966462.0,1.0,2
-634006.1875,-55930.4140625,-56525.95703125,-3606.94580078125,-750000.125,25292.51953125,-750000.125,-750000.125,966463.0,1.0,2
-637876.4375,-49453.7734375,-50051.28125,-990.5399780273438,-750000.125,25459.7109375,-750000.125,-750000.125,966464.0,1.0,2
-650755.6875,-7428.55810546875,-3445.208740234375,8390.30859375,-750000.125,16256.7822265625,-750000.125,-750000.125,966465.0,1.0,2
-654840.8125,11471.630859375,19816.341796875,11573.9130859375,-750000.125,10054.9775390625,-750000.125,-750000.125,966466.0,1.0,2
-645052.3125,-29723.619140625,-24050.298828125,4523.814453125,-750000.125,22533.509765625,-750000.125,-750000.125,966467.0,1.0,2
-634055.1875,-55878.91796875,-56429.57421875,-3452.897705078125,-750000.125,25355.91015625,-750000.125,-750000.125,966468.0,1.0,2
-637806.1875,-49631.06640625,-50226.78515625,-911.5935668945312,-750000.125,25524.263671875,-750000.125,-750000.125,966469.0,1.0,2
-650678.6875,-7755.2509765625,-3813.029052734375,8459.3310546875,-750000.125,16483.875,-750000.125,-750000.125,966470.0,1.0,2
-654895.5,11833.55078125,20107.2734375,11752.369140625,-750000.125,10112.1083984375,-750000.125,-750000.125,966471.0,1.0,2
-645180.625,-29261.20703125,-23524.228515625,4762.3525390625,-750000.125,22542.00390625,-750000.125,-750000.125,966472.0,1.0,2
-634107.375,-55803.90625,-56339.54296875,-3284.8125,-750000.125,25422.33984375,-750000.125,-750000.125,966473.0,1.0,2
-637740.375,-49780.19921875,-50407.38671875,-853.836669921875,-750000.125,25593.1953125,-750000.125,-750000.125,966474.0,1.0,2
-650588.75,-8053.42333984375,-4215.71826171875,8513.6904296875,-750000.125,16696.6640625,-750000.125,-750000.125,966475.0,1.0,2
-654943.625,12251.8857421875,20396.50390625,11938.3359375,-750000.125,10145.994140625,-750000.125,-750000.125,966476.0,1.0,2
-645305.6875,-28754.0,-22962.037109375,5020.64892578125,-750000.125,22550.408203125,-750000.125,-750000.125,966477.0,1.0,2
-634158.4375,-55734.2578125,-56243.96484375,-3070.3251953125,-750000.125,25491.00390625,-750000.125,-750000.125,966478.0,1.0,2
-637673.8125,-49944.26171875,-50588.52734375,-718.9215698242188,-750000.125,25660.51953125,-750000.125,-750000.125,966479.0,1.0,2
-650506.0,-8350.701171875,-4584.52197265625,8632.7802734375,-750000.125,16889.60546875,-750000.125,-750000.125,966480.0,1.0,2
-654991.625,12610.318359375,20682.337890625,12166.859375,-750000.125,10158.2421875,-750000.125,-750000.125,966481.0,1.0,2
-645431.75,-28287.384765625,-22421.83984375,5308.4501953125,-750000.125,22532.97265625,-750000.125,-750000.125,966482.0,1.0,2
-634210.9375,-55660.046875,-56151.0703125,-2851.6357421875,-750000.125,25564.40625,-750000.125,-750000.125,966483.0,1.0,2
-637598.8125,-50094.1953125,-50770.55859375,-607.5204467773438,-750000.125,25729.80859375,-750000.125,-750000.125,966484.0,1.0,2
-650403.0,-8648.60546875,-4984.08154296875,8705.46875,-750000.125,17060.73046875,-750000.125,-750000.125,966485.0,1.0,2
-655020.3125,12932.18359375,20924.2734375,12292.2080078125,-750000.125,10101.916015625,-750000.125,-750000.125,966486.0,1.0,2
-645536.75,-27846.609375,-21907.03515625,5447.2099609375,-750000.125,22446.517578125,-750000.125,-750000.125,966487.0,1.0,2
-634242.375,-55590.04296875,-56048.43359375,-2783.418212890625,-750000.125,25591.228515625,-750000.125,-750000.125,966488.0,1.0,2
-637507.4375,-50279.08984375,-50967.87890625,-710.4278564453125,-750000.125,25727.216796875,-750000.125,-750000.125,966489.0,1.0,2
-650287.9375,-9228.2314453125,-5562.3662109375,8595.140625,-750000.125,16976.240234375,-750000.125,-750000.125,966490.0,1.0,2
-655035.4375,12879.1650390625,20873.669921875,12256.892578125,-750000.125,9724.2607421875,-750000.125,-750000.125,966491.0,1.0,2
-645629.625,-27621.03515625,-21669.5703125,5459.90576171875,-750000.125,22135.6484375,-750000.125,-750000.125,966492.0,1.0,2
-634261.5625,-55531.75,-55979.3203125,-2823.383056640625,-750000.125,25516.841796875,-750000.125,-750000.125,966493.0,1.0,2
-637405.8125,-50445.1171875,-51163.94921875,-771.0458374023438,-750000.125,25667.671875,-750000.125,-750000.125,966494.0,1.0,2
-650164.25,-9674.3720703125,-6058.8427734375,8479.7158203125,-750000.125,17007.7109375,-750000.125,-750000.125,966495.0,1.0,2
-655044.25,12949.796875,20926.240234375,12144.240234375,-750000.125,9545.2685546875,-750000.125,-750000.125,966496.0,1.0,2
-645719.1875,-27336.54296875,-21353.962890625,5376.220703125,-750000.125,21950.93359375,-750000.125,-750000.125,966497.0,1.0,2
-634283.0,-55473.8125,-55909.4921875,-2963.215576171875,-750000.125,25486.353515625,-750000.125,-750000.125,966498.0,1.0,2
-637304.75,-50616.95703125,-51366.81640625,-999.6594848632812,-750000.125,25631.73046875,-750000.125,-750000.125,966499.0,1.0,2
-650037.3125,-10207.5947265625,-6619.4248046875,8216.76953125,-750000.125,16989.650390625,-750000.125,-750000.125,966500.0,1.0,2
-655044.0,12912.15625,20902.994140625,11945.130859375,-750000.125,9275.884765625,-750000.125,-750000.125,966501.0,1.0,2
-645795.9375,-27094.33984375,-21097.9921875,5225.033203125,-750000.125,21710.072265625,-750000.125,-750000.125,966502.0,1.0,2
-634297.125,-55405.6875,-55836.5390625,-3129.60205078125,-750000.125,25431.63671875,-750000.125,-750000.125,966503.0,1.0,2
-637205.0625,-50781.2890625,-51561.98828125,-1213.7891845703125,-750000.125,25587.7421875,-750000.125,-750000.125,966504.0,1.0,2
-649908.9375,-10753.15625,-7185.01318359375,7990.3017578125,-750000.125,17017.189453125,-750000.125,-750000.125,966505.0,1.0,2
-655044.875,12902.3212890625,20911.3984375,11802.4365234375,-750000.125,9090.5439453125,-750000.125,-750000.125,966506.0,1.0,2
-645885.8125,-26823.16796875,-20775.58984375,5137.86181640625,-750000.125,21518.919921875,-750000.125,-750000.125,966507.0,1.0,2
-634329.9375,-55331.74609375,-55737.20703125,-3253.162353515625,-750000.125,25389.080078125,-750000.125,-750000.125,966508.0,1.0,2
-637108.25,-50941.953125,-51742.50390625,-1470.9237060546875,-750000.125,25535.349609375,-750000.125,-750000.125,966509.0,1.0,2
-649780.875,-11357.1005859375,-7802.279296875,7762.76123046875,-750000.125,16995.015625,-750000.125,-750000.125,966510.0,1.0,2
-655049.125,12762.4892578125,20813.3203125,11759.521484375,-750000.125,8860.142578125,-750000.125,-750000.125,966511.0,1.0,2
-645980.0,-26639.615234375,-20572.009765625,5147.96484375,-750000.125,21276.537109375,-750000.125,-750000.125,966512.0,1.0,2
-634367.75,-55263.52734375,-55660.49609375,-3300.81640625,-750000.125,25311.921875,-750000.125,-750000.125,966513.0,1.0,2
-637029.3125,-51095.46484375,-51922.92578125,-1540.75048828125,-750000.125,25482.2421875,-750000.125,-750000.125,966514.0,1.0,2
-649667.0,-11837.841796875,-8330.763671875,7669.95654296875,-750000.125,17154.25,-750000.125,-750000.125,966515.0,1.0,2
-655064.9375,12839.111328125,20877.3359375,11687.7275390625,-750000.125,8875.4306640625,-750000.125,-750000.125,966516.0,1.0,2
-646087.5625,-26286.904296875,-20182.10546875,5126.1494140625,-750000.125,21198.306640625,-750000.125,-750000.125,966517.0,1.0,2
-634418.4375,-55163.75,-55550.97265625,-3370.28564453125,-750000.125,25297.794921875,-750000.125,-750000.125,966518.0,1.0,2
-636954.3125,-51231.8984375,-52089.04296875,-1666.456787109375,-750000.125,25478.396484375,-750000.125,-750000.125,966519.0,1.0,2
-649565.875,-12213.1728515625,-8785.666015625,7551.4033203125,-750000.125,17374.99609375,-750000.125,-750000.125,966520.0,1.0,2
-655093.5625,13093.5634765625,21069.560546875,11716.78515625,-750000.125,9001.583984375,-750000.125,-750000.125,966521.0,1.0,2
-646206.1875,-25839.421875,-19643.607421875,5260.79638671875,-750000.125,21249.357421875,-750000.125,-750000.125,966522.0,1.0,2
-634480.875,-55082.390625,-55417.66796875,-3263.623046875,-750000.125,25354.2109375,-750000.125,-750000.125,966523.0,1.0,2
-636893.5625,-51369.67578125,-52219.04296875,-1617.8193359375,-750000.125,25542.501953125,-750000.125,-750000.125,966524.0,1.0,2
-649482.4375,-12494.0888671875,-9123.8935546875,7634.81982421875,-750000.125,17741.384765625,-750000.125,-750000.125,966525.0,1.0,2
-655141.9375,13534.5185546875,21391.693359375,11964.7998046875,-750000.125,9323.6279296875,-750000.125,-750000.125,966526.0,1.0,2
-646338.4375,-25257.3828125,-18980.833984375,5570.14453125,-750000.125,21417.083984375,-750000.125,-750000.125,966527.0,1.0,2
-634553.1875,-54964.55078125,-55270.234375,-3032.684814453125,-750000.125,25450.0546875,-750000.125,-750000.125,966528.0,1.0,2
-636841.1875,-51487.69140625,-52357.265625,-1498.818603515625,-750000.125,25627.080078125,-750000.125,-750000.125,966529.0,1.0,2
-649399.3125,-12743.53515625,-9477.1396484375,7740.94580078125,-750000.125,18060.03125,-750000.125,-750000.125,966530.0,1.0,2
-655196.4375,14006.408203125,21703.544921875,12232.3955078125,-750000.125,9551.6162109375,-750000.125,-750000.125,966531.0,1.0,2
-646474.375,-24646.732421875,-18306.2578125,5933.13671875,-750000.125,21537.78515625,-750000.125,-750000.125,966532.0,1.0,2
-634630.25,-54857.53125,-55120.4765625,-2723.96240234375,-750000.125,25556.359375,-750000.125,-750000.125,966533.0,1.0,2
-636791.6875,-51619.56640625,-52498.9765625,-1285.135986328125,-750000.125,25725.697265625,-750000.125,-750000.125,966534.0,1.0,2
-649315.5,-12998.7021484375,-9829.4931640625,7944.525390625,-750000.125,18380.734375,-750000.125,-750000.125,966535.0,1.0,2
-655249.625,14520.677734375,22057.685546875,12599.142578125,-750000.125,9755.28515625,-750000.125,-750000.125,966536.0,1.0,2
-646620.0625,-23978.7734375,-17553.80859375,6379.63525390625,-750000.125,21635.05859375,-750000.125,-750000.125,966537.0,1.0,2
-634714.5625,-54724.671875,-54953.46484375,-2337.27734375,-750000.125,25681.798828125,-750000.125,-750000.125,966538.0,1.0,2
-636745.875,-51741.69921875,-52639.87890625,-1003.0569458007812,-750000.125,25841.658203125,-750000.125,-750000.125,966539.0,1.0,2
-649236.0625,-13183.685546875,-10145.546875,8205.7724609375,-750000.125,18667.015625,-750000.125,-750000.125,966540.0,1.0,2
-655300.875,15105.3994140625,22416.56640625,12997.4501953125,-750000.125,9911.0322265625,-750000.125,-750000.125,966541.0,1.0,2
-646755.5625,-23259.763671875,-16784.91015625,6883.53271484375,-750000.125,21731.439453125,-750000.125,-750000.125,966542.0,1.0,2
-634797.875,-54593.6015625,-54776.26171875,-1868.4271240234375,-750000.125,25828.15625,-750000.125,-750000.125,966543.0,1.0,2
-636699.1875,-51856.85546875,-52762.1015625,-614.1365356445312,-750000.125,25982.7421875,-750000.125,-750000.125,966544.0,1.0,2
-649157.25,-13329.8662109375,-10393.3828125,8584.4111328125,-750000.125,19015.970703125,-750000.125,-750000.125,966545.0,1.0,2
-655361.875,15746.447265625,22856.984375,13498.755859375,-750000.125,10165.6630859375,-750000.125,-750000.125,966546.0,1.0,2
-646897.875,-22517.685546875,-15935.900390625,7408.798828125,-750000.125,21843.82421875,-750000.125,-750000.125,966547.0,1.0,2
-634879.25,-54446.4375,-54579.4765625,-1421.4815673828125,-750000.125,25968.705078125,-750000.125,-750000.125,966548.0,1.0,2
-636650.75,-51958.59765625,-52871.625,-286.7281799316406,-750000.125,26103.26171875,-750000.125,-750000.125,966549.0,1.0,2
-649078.5,-13488.7421875,-10644.6162109375,8851.291015625,-750000.125,19226.79296875,-750000.125,-750000.125,966550.0,1.0,2
-655402.0,16245.427734375,23175.451171875,13814.630859375,-750000.125,10185.154296875,-750000.125,-750000.125,966551.0,1.0,2
-647014.5625,-21865.908203125,-15219.5712890625,7801.02734375,-750000.125,21837.4765625,-750000.125,-750000.125,966552.0,1.0,2
-634941.0,-54316.70703125,-54407.45703125,-1084.8643798828125,-750000.125,26078.048828125,-750000.125,-750000.125,966553.0,1.0,2
-636589.3125,-52069.1953125,-52995.00390625,-44.61408233642578,-750000.125,26202.50390625,-750000.125,-750000.125,966554.0,1.0,2
-648977.375,-13707.431640625,-10974.796875,9079.189453125,-750000.125,19435.826171875,-750000.125,-750000.125,966555.0,1.0,2
-655424.375,16723.486328125,23455.20703125,14151.8740234375,-750000.125,10235.3115234375,-750000.125,-750000.125,966556.0,1.0,2
-647129.4375,-21211.44921875,-14526.578125,8203.1796875,-750000.125,21835.2421875,-750000.125,-750000.125,966557.0,1.0,2
-635007.625,-54166.7734375,-54226.49609375,-719.6367797851562,-750000.125,26189.451171875,-750000.125,-750000.125,966558.0,1.0,2
-636522.125,-52172.19140625,-53120.62109375,225.66322326660156,-750000.125,26304.16015625,-750000.125,-750000.125,966559.0,1.0,2
-648872.0625,-13907.345703125,-11290.6708984375,9329.08203125,-750000.125,19638.421875,-750000.125,-750000.125,966560.0,1.0,2
-655448.875,17222.19921875,23742.560546875,14497.2529296875,-750000.125,10269.822265625,-750000.125,-750000.125,966561.0,1.0,2
-647239.5,-20529.095703125,-13798.1796875,8595.6767578125,-750000.125,21804.306640625,-750000.125,-750000.125,966562.0,1.0,2
-635069.625,-54023.6328125,-54041.69140625,-393.3013000488281,-750000.125,26289.228515625,-750000.125,-750000.125,966563.0,1.0,2
-636461.5625,-52279.5703125,-53238.28125,461.1612243652344,-750000.125,26397.6796875,-750000.125,-750000.125,966564.0,1.0,2
-648777.9375,-14122.1005859375,-11585.177734375,9536.3271484375,-750000.125,19810.26171875,-750000.125,-750000.125,966565.0,1.0,2
-655470.75,17624.26171875,23978.505859375,14758.947265625,-750000.125,10284.9326171875,-750000.125,-750000.125,966566.0,1.0,2
-647340.25,-19919.16015625,-13166.787109375,8920.2236328125,-750000.125,21771.583984375,-750000.125,-750000.125,966567.0,1.0,2
-635128.9375,-53879.5078125,-53870.92578125,-95.21843719482422,-750000.125,26380.24609375,-750000.125,-750000.125,966568.0,1.0,2
-636404.8125,-52383.28125,-53361.39453125,672.6981201171875,-750000.125,26483.8671875,-750000.125,-750000.125,966569.0,1.0,2
-648676.875,-14368.5068359375,-11916.5205078125,9709.8662109375,-750000.125,19987.01953125,-750000.125,-750000.125,966570.0,1.0,2
-655486.5,17977.509765625,24177.34765625,14972.00390625,-750000.125,10296.197265625,-750000.125,-750000.125,966571.0,1.0,2
-647444.4375,-19365.552734375,-12548.8955078125,9151.6982421875,-750000.125,21707.2109375,-750000.125,-750000.125,966572.0,1.0,2
-635191.8125,-53743.69921875,-53683.4375,85.02603912353516,-750000.125,26438.091796875,-750000.125,-750000.125,966573.0,1.0,2
-636346.4375,-52486.3671875,-53464.03515625,766.93310546875,-750000.125,26535.8125,-750000.125,-750000.125,966574.0,1.0,2
-648577.5,-14676.06640625,-12255.73046875,9774.060546875,-750000.125,20126.31640625,-750000.125,-750000.125,966575.0,1.0,2
-655507.6875,18220.875,24335.955078125,15104.1474609375,-750000.125,10282.16015625,-750000.125,-750000.125,966576.0,1.0,2
-647554.3125,-18835.7265625,-11968.0185546875,9361.447265625,-750000.125,21635.953125,-750000.125,-750000.125,966577.0,1.0,2
-635260.3125,-53596.0,-53498.6328125,276.0887756347656,-750000.125,26496.564453125,-750000.125,-750000.125,966578.0,1.0,2
-636287.6875,-52586.05859375,-53576.41796875,869.3934936523438,-750000.125,26588.205078125,-750000.125,-750000.125,966579.0,1.0,2
-648476.625,-15004.369140625,-12642.326171875,9841.1162109375,-750000.125,20291.00390625,-750000.125,-750000.125,966580.0,1.0,2
-655524.5625,18458.072265625,24461.482421875,15237.810546875,-750000.125,10301.2939453125,-750000.125,-750000.125,966581.0,1.0,2
-647656.5,-18323.87109375,-11416.466796875,9549.2021484375,-750000.125,21578.28515625,-750000.125,-750000.125,966582.0,1.0,2
-635326.3125,-53452.14453125,-53318.2109375,436.3954772949219,-750000.125,26547.435546875,-750000.125,-750000.125,966583.0,1.0,2
-636231.0625,-52692.8984375,-53694.2578125,934.8394165039062,-750000.125,26631.568359375,-750000.125,-750000.125,966584.0,1.0,2
-648383.375,-15314.1640625,-13019.0869140625,9887.8759765625,-750000.125,20440.58203125,-750000.125,-750000.125,966585.0,1.0,2
-655544.0,18723.7890625,24592.8203125,15387.388671875,-750000.125,10329.099609375,-750000.125,-750000.125,966586.0,1.0,2
-647763.3125,-17795.38671875,-10851.7724609375,9746.880859375,-750000.125,21523.12109375,-750000.125,-750000.125,966587.0,1.0,2
-635393.875,-53308.19921875,-53131.26171875,586.5098266601562,-750000.125,26592.9453125,-750000.125,-750000.125,966588.0,1.0,2
-636178.25,-52798.9375,-53807.35546875,995.6361694335938,-750000.125,26672.427734375,-750000.125,-750000.125,966589.0,1.0,2
-648283.875,-15663.0302734375,-13413.908203125,9914.4296875,-750000.125,20585.33203125,-750000.125,-750000.125,966590.0,1.0,2
-655559.625,18938.9921875,24701.62890625,15483.2333984375,-750000.125,10327.490234375,-750000.125,-750000.125,966591.0,1.0,2
-647871.625,-17275.216796875,-10293.2470703125,9902.1806640625,-750000.125,21438.990234375,-750000.125,-750000.125,966592.0,1.0,2
-635467.375,-53161.48046875,-52944.04296875,712.5736694335938,-750000.125,26632.8203125,-750000.125,-750000.125,966593.0,1.0,2
-636117.875,-52907.56640625,-53926.1796875,1029.163818359375,-750000.125,26703.541015625,-750000.125,-750000.125,966594.0,1.0,2
-648174.625,-16056.2421875,-13841.630859375,9900.03515625,-750000.125,20718.369140625,-750000.125,-750000.125,966595.0,1.0,2
-655576.6875,19062.640625,24765.197265625,15508.625,-750000.125,10306.0322265625,-750000.125,-750000.125,966596.0,1.0,2
-647986.0625,-16824.0703125,-9788.8125,9971.650390625,-750000.125,21325.62109375,-750000.125,-750000.125,966597.0,1.0,2
-635545.4375,-53007.07421875,-52758.79296875,755.13134765625,-750000.125,26647.21484375,-750000.125,-750000.125,966598.0,1.0,2
-636061.625,-53015.390625,-54052.8671875,974.0890502929688,-750000.125,26711.765625,-750000.125,-750000.125,966599.0,1.0,2
-648072.4375,-16488.16796875,-14322.1943359375,9797.6640625,-750000.125,20819.66796875,-750000.125,-750000.125,966600.0,1.0,2
-655599.0625,19208.017578125,24794.43359375,15484.6630859375,-750000.125,10241.5693359375,-750000.125,-750000.125,966601.0,1.0,2
-648096.3125,-16326.51953125,-9286.345703125,10015.4599609375,-750000.125,21187.578125,-750000.125,-750000.125,966602.0,1.0,2
-635614.6875,-52850.79296875,-52563.4375,768.8106689453125,-750000.125,26647.751953125,-750000.125,-750000.125,966603.0,1.0,2
-636003.1875,-53112.12890625,-54159.62109375,893.0863647460938,-750000.125,26708.1015625,-750000.125,-750000.125,966604.0,1.0,2
-647968.25,-16900.958984375,-14774.6826171875,9684.20703125,-750000.125,20923.826171875,-750000.125,-750000.125,966605.0,1.0,2
-655615.25,19277.30859375,24821.076171875,15453.37109375,-750000.125,10206.9697265625,-750000.125,-750000.125,966606.0,1.0,2
-648209.625,-15890.5712890625,-8779.765625,10046.3046875,-750000.125,21062.318359375,-750000.125,-750000.125,966607.0,1.0,2
-635694.125,-52695.9375,-52355.03125,767.380126953125,-750000.125,26644.978515625,-750000.125,-750000.125,966608.0,1.0,2
-635944.625,-53225.765625,-54274.15234375,808.6861572265625,-750000.125,26696.56640625,-750000.125,-750000.125,966609.0,1.0,2
-647856.25,-17366.591796875,-15277.5078125,9576.11328125,-750000.125,21021.7265625,-750000.125,-750000.125,966610.0,1.0,2
-655628.3125,19342.126953125,24821.880859375,15460.166015625,-750000.125,10167.541015625,-750000.125,-750000.125,966611.0,1.0,2
-648319.6875,-15433.9697265625,-8308.76953125,10144.384765625,-750000.125,20943.048828125,-750000.125,-750000.125,966612.0,1.0,2
-635769.5,-52541.4453125,-52174.33984375,861.0786743164062,-750000.125,26665.36328125,-750000.125,-750000.125,966613.0,1.0,2
-635884.875,-53337.61328125,-54405.578125,769.3471069335938,-750000.125,26708.63671875,-750000.125,-750000.125,966614.0,1.0,2
-647754.5625,-17778.48828125,-15730.1748046875,9502.7998046875,-750000.125,21122.7578125,-750000.125,-750000.125,966615.0,1.0,2
-655647.6875,19407.662109375,24836.0078125,15456.142578125,-750000.125,10117.5625,-750000.125,-750000.125,966616.0,1.0,2
-648427.375,-15018.40625,-7834.91259765625,10179.07421875,-750000.125,20786.765625,-750000.125,-750000.125,966617.0,1.0,2
-635840.625,-52389.54296875,-51979.51953125,843.7337036132812,-750000.125,26642.744140625,-750000.125,-750000.125,966618.0,1.0,2
-635830.0,-53429.25390625,-54505.1796875,673.5922241210938,-750000.125,26689.861328125,-750000.125,-750000.125,966619.0,1.0,2
-647648.875,-18235.26953125,-16204.3896484375,9340.0791015625,-750000.125,21191.689453125,-750000.125,-750000.125,966620.0,1.0,2
-655656.25,19423.3984375,24792.01953125,15326.8603515625,-750000.125,10027.619140625,-750000.125,-750000.125,966621.0,1.0,2
-648534.1875,-14604.7197265625,-7403.88134765625,10114.5224609375,-750000.125,20611.439453125,-750000.125,-750000.125,966622.0,1.0,2
-635919.5625,-52224.765625,-51771.203125,769.2576904296875,-750000.125,26615.654296875,-750000.125,-750000.125,966623.0,1.0,2
-635776.0625,-53525.45703125,-54607.90625,484.85406494140625,-750000.125,26657.853515625,-750000.125,-750000.125,966624.0,1.0,2
-647543.5,-18693.033203125,-16713.3828125,9145.4404296875,-750000.125,21261.337890625,-750000.125,-750000.125,966625.0,1.0,2
-655662.6875,19420.626953125,24750.4453125,15273.484375,-750000.125,9974.064453125,-750000.125,-750000.125,966626.0,1.0,2
-648633.25,-14199.3486328125,-6964.53564453125,10150.1064453125,-750000.125,20467.76171875,-750000.125,-750000.125,966627.0,1.0,2
-635992.875,-52066.78125,-51574.1484375,789.8212890625,-750000.125,26605.818359375,-750000.125,-750000.125,966628.0,1.0,2
-635720.375,-53620.67578125,-54710.90234375,408.4111022949219,-750000.125,26645.158203125,-750000.125,-750000.125,966629.0,1.0,2
-647433.875,-19149.9921875,-17199.490234375,9024.115234375,-750000.125,21351.103515625,-750000.125,-750000.125,966630.0,1.0,2
-655666.9375,19419.732421875,24702.791015625,15235.93359375,-750000.125,9933.5625,-750000.125,-750000.125,966631.0,1.0,2
-648734.3125,-13792.994140625,-6547.18408203125,10197.40234375,-750000.125,20339.462890625,-750000.125,-750000.125,966632.0,1.0,2
-636068.625,-51909.78125,-51392.1171875,824.8688354492188,-750000.125,26603.046875,-750000.125,-750000.125,966633.0,1.0,2
-635665.125,-53711.78125,-54821.76953125,370.1448974609375,-750000.125,26632.8203125,-750000.125,-750000.125,966634.0,1.0,2
-647328.5625,-19575.837890625,-17662.439453125,8936.7646484375,-750000.125,21420.125,-750000.125,-750000.125,966635.0,1.0,2
-655668.4375,19377.80078125,24639.3125,15192.8388671875,-750000.125,9865.255859375,-750000.125,-750000.125,966636.0,1.0,2
-648827.75,-13476.4931640625,-6191.07568359375,10189.087890625,-750000.125,20164.939453125,-750000.125,-750000.125,966637.0,1.0,2
-636136.9375,-51760.921875,-51217.05859375,790.1788940429688,-750000.125,26563.3515625,-750000.125,-750000.125,966638.0,1.0,2
-635615.4375,-53789.56640625,-54917.078125,246.0480194091797,-750000.125,26595.26953125,-750000.125,-750000.125,966639.0,1.0,2
-647238.875,-20001.056640625,-18117.966796875,8774.669921875,-750000.125,21460.0,-750000.125,-750000.125,966640.0,1.0,2
-655676.5625,19312.98046875,24549.63671875,15104.5048828125,-750000.125,9774.41796875,-750000.125,-750000.125,966641.0,1.0,2
-648922.9375,-13157.66796875,-5846.23291015625,10170.4013671875,-750000.125,19989.5234375,-750000.125,-750000.125,966642.0,1.0,2
-636212.375,-51625.55859375,-51031.1796875,749.588134765625,-750000.125,26523.744140625,-750000.125,-750000.125,966643.0,1.0,2
-635573.125,-53881.921875,-55003.265625,20.921234130859375,-750000.125,26540.8203125,-750000.125,-750000.125,966644.0,1.0,2
-647135.6875,-20582.470703125,-18692.048828125,8569.927734375,-750000.125,21385.79296875,-750000.125,-750000.125,966645.0,1.0,2
-655672.0625,18979.939453125,24317.1796875,15034.9462890625,-750000.125,9505.9287109375,-750000.125,-750000.125,966646.0,1.0,2
-649017.875,-13041.70703125,-5683.95947265625,10153.146484375,-750000.125,19640.30078125,-750000.125,-750000.125,966647.0,1.0,2
-636292.75,-51509.77734375,-50885.1796875,726.2529296875,-750000.125,26401.5234375,-750000.125,-750000.125,966648.0,1.0,2
-635526.3125,-53970.61328125,-55099.64453125,16.98732566833496,-750000.125,26453.111328125,-750000.125,-750000.125,966649.0,1.0,2
-647033.75,-21045.6875,-19168.23046875,8443.7744140625,-750000.125,21447.3046875,-750000.125,-750000.125,966650.0,1.0,2
-655674.0,18862.90625,24214.09375,14878.751953125,-750000.125,9455.50390625,-750000.125,-750000.125,966651.0,1.0,2
-649113.375,-12753.1015625,-5330.623046875,10047.466796875,-750000.125,19470.068359375,-750000.125,-750000.125,966652.0,1.0,2
-636370.125,-51366.27734375,-50689.37890625,606.1793212890625,-750000.125,26349.400390625,-750000.125,-750000.125,966653.0,1.0,2
-635479.875,-54058.234375,-55181.72265625,-195.9801025390625,-750000.125,26400.630859375,-750000.125,-750000.125,966654.0,1.0,2
-646930.75,-21554.771484375,-19669.53515625,8184.2255859375,-750000.125,21509.173828125,-750000.125,-750000.125,966655.0,1.0,2
-655676.8125,18686.23828125,24084.720703125,14696.2724609375,-750000.125,9410.7109375,-750000.125,-750000.125,966656.0,1.0,2
-649221.9375,-12468.1611328125,-4991.94921875,9956.00390625,-750000.125,19311.283203125,-750000.125,-750000.125,966657.0,1.0,2
-636458.0,-51220.54296875,-50502.78515625,521.24267578125,-750000.125,26313.279296875,-750000.125,-750000.125,966658.0,1.0,2
-635433.9375,-54145.94140625,-55275.8671875,-373.4529724121094,-750000.125,26359.4140625,-750000.125,-750000.125,966659.0,1.0,2
-646827.4375,-22043.470703125,-20174.595703125,7961.333984375,-750000.125,21584.455078125,-750000.125,-750000.125,966660.0,1.0,2
-655674.125,18550.25,23958.03125,14566.095703125,-750000.125,9397.8359375,-750000.125,-750000.125,966661.0,1.0,2
-649313.125,-12159.796875,-4650.146484375,9909.3330078125,-750000.125,19180.390625,-750000.125,-750000.125,966662.0,1.0,2
-636543.125,-51067.48046875,-50308.7734375,465.7209777832031,-750000.125,26283.23828125,-750000.125,-750000.125,966663.0,1.0,2
-635389.875,-54223.81640625,-55359.55078125,-533.3126220703125,-750000.125,26321.68359375,-750000.125,-750000.125,966664.0,1.0,2
-646720.6875,-22503.73828125,-20676.34765625,7777.96044921875,-750000.125,21654.4609375,-750000.125,-750000.125,966665.0,1.0,2
-655673.1875,18430.892578125,23823.02734375,14484.9150390625,-750000.125,9387.3759765625,-750000.125,-750000.125,966666.0,1.0,2
-649415.125,-11851.07421875,-4327.83447265625,9901.197265625,-750000.125,19044.22265625,-750000.125,-750000.125,966667.0,1.0,2
-636628.125,-50914.953125,-50128.34765625,449.1806640625,-750000.125,26251.5,-750000.125,-750000.125,966668.0,1.0,2
-635344.6875,-54312.328125,-55463.62109375,-644.7137451171875,-750000.125,26288.9609375,-750000.125,-750000.125,966669.0,1.0,2
-646617.75,-22984.8359375,-21185.96875,7609.60693359375,-750000.125,21726.611328125,-750000.125,-750000.125,966670.0,1.0,2
-655674.3125,18281.314453125,23682.388671875,14364.4833984375,-750000.125,9353.2216796875,-750000.125,-750000.125,966671.0,1.0,2
-649514.625,-11568.90625,-3988.35595703125,9827.0791015625,-750000.125,18871.400390625,-750000.125,-750000.125,966672.0,1.0,2
-636713.0625,-50764.66015625,-49921.015625,342.69696044921875,-750000.125,26187.3046875,-750000.125,-750000.125,966673.0,1.0,2
-635299.3125,-54393.15234375,-55537.3828125,-848.1146240234375,-750000.125,26225.482421875,-750000.125,-750000.125,966674.0,1.0,2
-646512.6875,-23495.88671875,-21691.1171875,7354.97607421875,-750000.125,21762.732421875,-750000.125,-750000.125,966675.0,1.0,2
-655674.3125,18054.935546875,23512.60546875,14184.1494140625,-750000.125,9281.607421875,-750000.125,-750000.125,966676.0,1.0,2
-649618.5,-11309.357421875,-3675.431640625,9736.95703125,-750000.125,18678.548828125,-750000.125,-750000.125,966677.0,1.0,2
-636800.0625,-50614.0078125,-49731.203125,262.58831787109375,-750000.125,26134.017578125,-750000.125,-750000.125,966678.0,1.0,2
-635252.875,-54479.33984375,-55629.3828125,-1089.06640625,-750000.125,26162.181640625,-750000.125,-750000.125,966679.0,1.0,2
-646408.5625,-24054.14453125,-22269.40234375,7080.31787109375,-750000.125,21715.97265625,-750000.125,-750000.125,966680.0,1.0,2
-655675.125,17715.814453125,23239.9140625,14081.8681640625,-750000.125,9081.9609375,-750000.125,-750000.125,966681.0,1.0,2
-649717.4375,-11172.3857421875,-3516.734130859375,9701.373046875,-750000.125,18366.072265625,-750000.125,-750000.125,966682.0,1.0,2
-636886.5,-50483.3828125,-49578.31640625,224.143310546875,-750000.125,26015.017578125,-750000.125,-750000.125,966683.0,1.0,2
-635208.875,-54559.0,-55724.15234375,-1161.7542724609375,-750000.125,26075.814453125,-750000.125,-750000.125,966684.0,1.0,2
-646301.0625,-24521.294921875,-22783.3125,6943.6142578125,-750000.125,21816.466796875,-750000.125,-750000.125,966685.0,1.0,2
-655670.1875,17580.36328125,23083.630859375,13926.8359375,-750000.125,9142.310546875,-750000.125,-750000.125,966686.0,1.0,2
-649819.75,-10846.1396484375,-3176.898193359375,9624.3037109375,-750000.125,18273.177734375,-750000.125,-750000.125,966687.0,1.0,2
-636975.9375,-50319.32421875,-49381.44140625,144.03465270996094,-750000.125,25991.146484375,-750000.125,-750000.125,966688.0,1.0,2
-635163.0,-54636.60546875,-55817.58203125,-1337.8861083984375,-750000.125,26044.07421875,-750000.125,-750000.125,966689.0,1.0,2
-646195.875,-24962.4296875,-23268.525390625,6719.203125,-750000.125,21914.009765625,-750000.125,-750000.125,966690.0,1.0,2
-655669.125,17459.6640625,22961.76953125,13793.3515625,-750000.125,9182.0078125,-750000.125,-750000.125,966691.0,1.0,2
-649921.25,-10496.111328125,-2766.8779296875,9578.0810546875,-750000.125,18167.767578125,-750000.125,-750000.125,966692.0,1.0,2
-637070.875,-50150.43359375,-49152.11328125,91.55274963378906,-750000.125,25972.548828125,-750000.125,-750000.125,966693.0,1.0,2
-635118.125,-54718.59375,-55893.1328125,-1487.5533447265625,-750000.125,26016.716796875,-750000.125,-750000.125,966694.0,1.0,2
-646086.5625,-25439.326171875,-23759.994140625,6517.6796875,-750000.125,22022.1015625,-750000.125,-750000.125,966695.0,1.0,2
-655665.375,17338.0703125,22814.515625,13669.6123046875,-750000.125,9238.0654296875,-750000.125,-750000.125,966696.0,1.0,2
-650025.5,-10113.8076171875,-2357.57275390625,9535.6123046875,-750000.125,18069.8671875,-750000.125,-750000.125,966697.0,1.0,2
-637162.875,-49974.8359375,-48916.2578125,29.8619327545166,-750000.125,25948.23046875,-750000.125,-750000.125,966698.0,1.0,2
-635077.625,-54806.2109375,-55973.77734375,-1633.1973876953125,-750000.125,25985.06640625,-750000.125,-750000.125,966699.0,1.0,2
-645980.625,-25926.50390625,-24253.431640625,6319.375,-750000.125,22106.76953125,-750000.125,-750000.125,966700.0,1.0,2
-655657.6875,17167.5703125,22664.669921875,13561.9658203125,-750000.125,9255.5,-750000.125,-750000.125,966701.0,1.0,2
-650129.1875,-9779.693359375,-1975.53662109375,9528.3701171875,-750000.125,17938.080078125,-750000.125,-750000.125,966702.0,1.0,2
-637262.5,-49790.92578125,-48694.08203125,34.33228302001953,-750000.125,25931.154296875,-750000.125,-750000.125,966703.0,1.0,2
-635038.0625,-54882.20703125,-56060.32421875,-1807.7197265625,-750000.125,25961.28515625,-750000.125,-750000.125,966704.0,1.0,2
-645869.875,-26459.99609375,-24802.837890625,6052.31640625,-750000.125,22093.896484375,-750000.125,-750000.125,966705.0,1.0,2
-655646.0625,16792.0625,22373.470703125,13430.8955078125,-750000.125,9077.4013671875,-750000.125,-750000.125,966706.0,1.0,2
-650223.125,-9658.7255859375,-1807.63037109375,9449.06640625,-750000.125,17619.791015625,-750000.125,-750000.125,966707.0,1.0,2
-637354.9375,-49652.703125,-48518.84375,-48.45858383178711,-750000.125,25803.390625,-750000.125,-750000.125,966708.0,1.0,2
-634999.4375,-54946.1328125,-56127.55859375,-1922.1607666015625,-750000.125,25862.7578125,-750000.125,-750000.125,966709.0,1.0,2
-645766.8125,-26920.80078125,-25290.1953125,5912.3046875,-750000.125,22162.203125,-750000.125,-750000.125,966710.0,1.0,2
-655635.875,16608.95703125,22192.69140625,13266.2080078125,-750000.125,9111.64453125,-750000.125,-750000.125,966711.0,1.0,2
-650318.3125,-9345.6220703125,-1461.535888671875,9367.2587890625,-750000.125,17501.23828125,-750000.125,-750000.125,966712.0,1.0,2
-637447.375,-49482.921875,-48301.13671875,-132.59056091308594,-750000.125,25770.7578125,-750000.125,-750000.125,966713.0,1.0,2
-634962.3125,-55005.3203125,-56187.81640625,-2098.11376953125,-750000.125,25827.083984375,-750000.125,-750000.125,966714.0,1.0,2
-645665.75,-27317.767578125,-25726.322265625,5695.31396484375,-750000.125,22244.189453125,-750000.125,-750000.125,966715.0,1.0,2
-655627.5625,16458.57421875,22027.287109375,13131.4716796875,-750000.125,9178.5205078125,-750000.125,-750000.125,966716.0,1.0,2
-650412.375,-9023.578125,-1128.0478515625,9314.1513671875,-750000.125,17414.244140625,-750000.125,-750000.125,966717.0,1.0,2
-637542.9375,-49299.546875,-48085.3984375,-180.06565856933594,-750000.125,25753.681640625,-750000.125,-750000.125,966718.0,1.0,2
-634928.3125,-55065.9375,-56260.7734375,-2239.376708984375,-750000.125,25804.28515625,-750000.125,-750000.125,966719.0,1.0,2
-645565.0,-27743.701171875,-26190.255859375,5500.40673828125,-750000.125,22343.072265625,-750000.125,-750000.125,966720.0,1.0,2
-655612.1875,16308.548828125,21856.69921875,13018.193359375,-750000.125,9250.1357421875,-750000.125,-750000.125,966721.0,1.0,2
-650504.25,-8664.966796875,-751.5551147460938,9295.912109375,-750000.125,17330.73828125,-750000.125,-750000.125,966722.0,1.0,2
-637637.125,-49116.796875,-47842.03515625,-200.80807495117188,-750000.125,25739.107421875,-750000.125,-750000.125,966723.0,1.0,2
-634892.6875,-55133.44140625,-56319.3359375,-2355.427001953125,-750000.125,25786.046875,-750000.125,-750000.125,966724.0,1.0,2
-645459.5625,-28168.02734375,-26623.34375,5324.90087890625,-750000.125,22441.0625,-750000.125,-750000.125,966725.0,1.0,2
-655594.9375,16124.8173828125,21709.892578125,12909.1162109375,-750000.125,9315.3134765625,-750000.125,-750000.125,966726.0,1.0,2
-650596.375,-8352.6689453125,-343.8592529296875,9284.37890625,-750000.125,17244.908203125,-750000.125,-750000.125,966727.0,1.0,2
-637733.9375,-48954.43359375,-47598.22265625,-194.3707733154297,-750000.125,25736.783203125,-750000.125,-750000.125,966728.0,1.0,2
-634863.0625,-55212.4765625,-56378.96875,-2438.754150390625,-750000.125,25780.32421875,-750000.125,-750000.125,966729.0,1.0,2
-645360.8125,-28589.134765625,-27033.54296875,5187.9296875,-750000.125,22542.62890625,-750000.125,-750000.125,966730.0,1.0,2
-655585.0,15962.275390625,21568.62890625,12828.3818359375,-750000.125,9379.865234375,-750000.125,-750000.125,966731.0,1.0,2
-650690.3125,-8028.83642578125,43.80942153930664,9268.4638671875,-750000.125,17144.50390625,-750000.125,-750000.125,966732.0,1.0,2
-637828.875,-48769.71875,-47361.203125,-231.47467041015625,-750000.125,25713.537109375,-750000.125,-750000.125,966733.0,1.0,2
-634827.1875,-55271.12890625,-56439.85546875,-2552.211669921875,-750000.125,25752.33984375,-750000.125,-750000.125,966734.0,1.0,2
-645253.25,-29018.9140625,-27509.0078125,5025.83447265625,-750000.125,22624.705078125,-750000.125,-750000.125,966735.0,1.0,2
-655568.8125,15797.140625,21366.5703125,12744.5185546875,-750000.125,9429.3076171875,-750000.125,-750000.125,966736.0,1.0,2
-650789.0625,-7671.923828125,405.5500793457031,9257.2880859375,-750000.125,17020.048828125,-750000.125,-750000.125,966737.0,1.0,2
-637934.125,-48565.3359375,-47118.28515625,-237.19671630859375,-750000.125,25686.89453125,-750000.125,-750000.125,966738.0,1.0,2
-634796.8125,-55332.55078125,-56509.86328125,-2659.23193359375,-750000.125,25728.37890625,-750000.125,-750000.125,966739.0,1.0,2
-645153.75,-29414.181640625,-27950.5,4865.4384765625,-750000.125,22697.392578125,-750000.125,-750000.125,966740.0,1.0,2
-655557.5625,15655.0732421875,21185.341796875,12650.9091796875,-750000.125,9467.5732421875,-750000.125,-750000.125,966741.0,1.0,2
-650883.8125,-7314.6533203125,764.3402709960938,9257.8251953125,-750000.125,16912.76171875,-750000.125,-750000.125,966742.0,1.0,2
-638027.8125,-48384.46484375,-46887.43359375,-223.96449279785156,-750000.125,25669.013671875,-750000.125,-750000.125,966743.0,1.0,2
-634760.1875,-55398.7109375,-56578.2578125,-2737.37353515625,-750000.125,25710.140625,-750000.125,-750000.125,966744.0,1.0,2
-645052.25,-29807.3046875,-28372.76953125,4731.685546875,-750000.125,22784.744140625,-750000.125,-750000.125,966745.0,1.0,2
-655543.375,15480.55078125,21023.3359375,12594.4931640625,-750000.125,9535.076171875,-750000.125,-750000.125,966746.0,1.0,2
-650975.0,-6985.90380859375,1165.33056640625,9297.431640625,-750000.125,16824.875,-750000.125,-750000.125,966747.0,1.0,2
-638124.625,-48208.421875,-46633.25,-181.76438903808594,-750000.125,25661.0546875,-750000.125,-750000.125,966748.0,1.0,2
-634728.9375,-55470.50390625,-56630.73828125,-2787.35205078125,-750000.125,25701.19921875,-750000.125,-750000.125,966749.0,1.0,2
-644949.3125,-30213.48046875,-28781.26953125,4633.42724609375,-750000.125,22877.7265625,-750000.125,-750000.125,966750.0,1.0,2
-655524.1875,15320.244140625,20853.015625,12556.2275390625,-750000.125,9609.283203125,-750000.125,-750000.125,966751.0,1.0,2
-651067.125,-6652.416015625,1536.816650390625,9330.244140625,-750000.125,16720.537109375,-750000.125,-750000.125,966752.0,1.0,2
-638225.75,-48006.8125,-46385.50390625,-143.67701721191406,-750000.125,25646.03515625,-750000.125,-750000.125,966753.0,1.0,2
-634696.9375,-55518.6953125,-56688.85546875,-2897.68017578125,-750000.125,25690.203125,-750000.125,-750000.125,966754.0,1.0,2
-644844.625,-30684.833984375,-29285.16796875,4389.435546875,-750000.125,22884.701171875,-750000.125,-750000.125,966755.0,1.0,2
-655503.375,14964.8515625,20539.376953125,12488.814453125,-750000.125,9481.9677734375,-750000.125,-750000.125,966756.0,1.0,2
-651156.0625,-6454.46875,1745.4925537109375,9341.95703125,-750000.125,16425.8515625,-750000.125,-750000.125,966757.0,1.0,2
-638322.6875,-47833.80859375,-46186.84375,-126.15325164794922,-750000.125,25537.31640625,-750000.125,-750000.125,966758.0,1.0,2
-634666.1875,-55570.375,-56749.3828125,-2940.7744140625,-750000.125,25616.708984375,-750000.125,-750000.125,966759.0,1.0,2
-644743.1875,-31050.150390625,-29704.93359375,4362.5244140625,-750000.125,22947.912109375,-750000.125,-750000.125,966760.0,1.0,2
-655482.3125,14826.44921875,20347.8671875,12396.5458984375,-750000.125,9557.1591796875,-750000.125,-750000.125,966761.0,1.0,2
-651240.5625,-6100.0595703125,2096.325439453125,9311.46875,-750000.125,16332.8671875,-750000.125,-750000.125,966762.0,1.0,2
-638414.875,-47630.23046875,-45945.7109375,-161.7372283935547,-750000.125,25514.25,-750000.125,-750000.125,966763.0,1.0,2
-634632.6875,-55613.46875,-56802.58203125,-3046.45361328125,-750000.125,25591.765625,-750000.125,-750000.125,966764.0,1.0,2
-644635.8125,-31426.64453125,-30128.455078125,4201.05517578125,-750000.125,23018.36328125,-750000.125,-750000.125,966765.0,1.0,2
-655455.3125,14625.9990234375,20140.978515625,12306.2451171875,-750000.125,9606.8701171875,-750000.125,-750000.125,966766.0,1.0,2
-651331.8125,-5747.6171875,2497.047607421875,9340.5263671875,-750000.125,16227.6357421875,-750000.125,-750000.125,966767.0,1.0,2
-638519.4375,-47435.5,-45667.4765625,-111.04347229003906,-750000.125,25505.3984375,-750000.125,-750000.125,966768.0,1.0,2
-634603.0625,-55679.80859375,-56849.4296875,-3091.246337890625,-750000.125,25585.685546875,-750000.125,-750000.125,966769.0,1.0,2
-644528.3125,-31831.298828125,-30535.8828125,4101.54541015625,-750000.125,23110.005859375,-750000.125,-750000.125,966770.0,1.0,2
-655427.3125,14431.2705078125,19944.552734375,12261.9892578125,-750000.125,9697.4384765625,-750000.125,-750000.125,966771.0,1.0,2
-651418.3125,-5397.41015625,2871.2158203125,9377.9873046875,-750000.125,16138.67578125,-750000.125,-750000.125,966772.0,1.0,2
-638618.4375,-47234.15625,-45411.7734375,-63.568363189697266,-750000.125,25495.02734375,-750000.125,-750000.125,966773.0,1.0,2
-634575.625,-55733.18359375,-56902.625,-3134.340576171875,-750000.125,25579.515625,-750000.125,-750000.125,966774.0,1.0,2
-644423.375,-32217.1796875,-30956.36328125,4001.230712890625,-750000.125,23204.509765625,-750000.125,-750000.125,966775.0,1.0,2
-655398.75,14247.44921875,19729.70703125,12218.984375,-750000.125,9794.7138671875,-750000.125,-750000.125,966776.0,1.0,2
-651501.625,-5060.9716796875,3226.96630859375,9405.9716796875,-750000.125,16045.6923828125,-750000.125,-750000.125,966777.0,1.0,2
-638711.4375,-47029.4140625,-45166.88671875,-46.223411560058594,-750000.125,25471.78125,-750000.125,-750000.125,966778.0,1.0,2
-634542.125,-55774.9375,-56954.39453125,-3209.17431640625,-750000.125,25561.3671875,-750000.125,-750000.125,966779.0,1.0,2
-644320.1875,-32568.37109375,-31358.248046875,3871.322265625,-750000.125,23271.564453125,-750000.125,-750000.125,966780.0,1.0,2
-655371.6875,14080.4375,19514.50390625,12149.6044921875,-750000.125,9850.6826171875,-750000.125,-750000.125,966781.0,1.0,2
-651587.0,-4709.60205078125,3569.6630859375,9416.7900390625,-750000.125,15931.4296875,-750000.125,-750000.125,966782.0,1.0,2
-638816.625,-46807.86328125,-44906.80078125,-8.672477722167969,-750000.125,25454.435546875,-750000.125,-750000.125,966783.0,1.0,2
-634521.25,-55812.66796875,-56998.203125,-3282.3984375,-750000.125,25557.076171875,-750000.125,-750000.125,966784.0,1.0,2
-644223.1875,-32901.76953125,-31736.52734375,3740.7880859375,-750000.125,23360.345703125,-750000.125,-750000.125,966785.0,1.0,2
-655342.625,13904.7529296875,19317.18359375,12072.625,-750000.125,9956.6298828125,-750000.125,-750000.125,966786.0,1.0,2
-651664.1875,-4359.126953125,3958.047119140625,9436.728515625,-750000.125,15876.5341796875,-750000.125,-750000.125,966787.0,1.0,2
-638906.6875,-46609.37890625,-44627.5859375,16.36147689819336,-750000.125,25451.84375,-750000.125,-750000.125,966788.0,1.0,2
-634496.4375,-55863.44921875,-57029.49609375,-3352.5830078125,-750000.125,25546.97265625,-750000.125,-750000.125,966789.0,1.0,2
-644130.375,-33330.20703125,-32151.376953125,3538.638916015625,-750000.125,23357.6640625,-750000.125,-750000.125,966790.0,1.0,2
-655315.0625,13484.271484375,18990.7578125,12037.48828125,-750000.125,9840.2216796875,-750000.125,-750000.125,966791.0,1.0,2
-651745.0625,-4241.9140625,4116.2080078125,9493.501953125,-750000.125,15592.041015625,-750000.125,-750000.125,966792.0,1.0,2
-639008.25,-46462.75390625,-44440.72265625,85.11544799804688,-750000.125,25342.3203125,-750000.125,-750000.125,966793.0,1.0,2
-634475.5,-55908.8671875,-57072.58984375,-3343.91064453125,-750000.125,25478.486328125,-750000.125,-750000.125,966794.0,1.0,2
-644033.1875,-33671.7421875,-32529.03125,3575.6533203125,-750000.125,23404.958984375,-750000.125,-750000.125,966795.0,1.0,2
-655285.125,13300.0927734375,18774.83984375,12004.228515625,-750000.125,9927.3935546875,-750000.125,-750000.125,966796.0,1.0,2
-651821.0625,-3918.171630859375,4450.4111328125,9524.8837890625,-750000.125,15511.306640625,-750000.125,-750000.125,966797.0,1.0,2
-639102.1875,-46254.79296875,-44183.3203125,130.087158203125,-750000.125,25327.92578125,-750000.125,-750000.125,966798.0,1.0,2
-634450.4375,-55949.90625,-57112.5546875,-3389.329345703125,-750000.125,25469.9921875,-750000.125,-750000.125,966799.0,1.0,2
-643938.3125,-33999.77734375,-32892.55859375,3479.7197265625,-750000.125,23484.888671875,-750000.125,-750000.125,966800.0,1.0,2
-655257.25,13124.5869140625,18584.76171875,11986.705078125,-750000.125,10039.95703125,-750000.125,-750000.125,966801.0,1.0,2
-651903.75,-3598.809814453125,4826.99365234375,9583.2666015625,-750000.125,15443.5361328125,-750000.125,-750000.125,966802.0,1.0,2
-639206.8125,-46044.5078125,-43906.78515625,195.80128479003906,-750000.125,25320.7734375,-750000.125,-750000.125,966803.0,1.0,2
-634429.0625,-55999.078125,-57158.0625,-3434.748046875,-750000.125,25475.177734375,-750000.125,-750000.125,966804.0,1.0,2
-643836.375,-34359.55078125,-33275.40234375,3369.65966796875,-750000.125,23580.46484375,-750000.125,-750000.125,966805.0,1.0,2
-655221.9375,12900.4443359375,18355.521484375,11903.556640625,-750000.125,10150.8212890625,-750000.125,-750000.125,966806.0,1.0,2
-651986.625,-3256.11279296875,5209.38720703125,9580.583984375,-750000.125,15355.9169921875,-750000.125,-750000.125,966807.0,1.0,2
-639309.75,-45820.09375,-43611.1171875,210.3746337890625,-750000.125,25305.931640625,-750000.125,-750000.125,966808.0,1.0,2
-634400.375,-56037.79296875,-57187.4765625,-3511.01220703125,-750000.125,25467.04296875,-750000.125,-750000.125,966809.0,1.0,2
-643728.8125,-34708.23828125,-33649.75,3235.012939453125,-750000.125,23654.94140625,-750000.125,-750000.125,966810.0,1.0,2
-655185.375,12737.90234375,18132.09375,11838.2890625,-750000.125,10242.1064453125,-750000.125,-750000.125,966811.0,1.0,2
-652063.625,-2812.8330078125,5613.41748046875,9629.1318359375,-750000.125,15279.384765625,-750000.125,-750000.125,966812.0,1.0,2
-639404.875,-45576.19140625,-43315.26953125,267.4162902832031,-750000.125,25305.3046875,-750000.125,-750000.125,966813.0,1.0,2
-634374.25,-56080.9765625,-57228.60546875,-3531.039306640625,-750000.125,25470.796875,-750000.125,-750000.125,966814.0,1.0,2
-643621.9375,-35028.4921875,-34007.19921875,3162.414306640625,-750000.125,23731.921875,-750000.125,-750000.125,966815.0,1.0,2
-655139.5625,12555.51171875,17909.6484375,11811.3779296875,-750000.125,10335.7158203125,-750000.125,-750000.125,966816.0,1.0,2
-652136.5,-2450.82421875,5982.4892578125,9687.5146484375,-750000.125,15190.7822265625,-750000.125,-750000.125,966817.0,1.0,2
-639503.3125,-45339.44140625,-43019.2421875,345.8262023925781,-750000.125,25293.59375,-750000.125,-750000.125,966818.0,1.0,2
-634344.9375,-56119.15234375,-57263.7421875,-3545.165771484375,-750000.125,25471.513671875,-750000.125,-750000.125,966819.0,1.0,2
-643513.125,-35363.0546875,-34377.609375,3089.1005859375,-750000.125,23810.2421875,-750000.125,-750000.125,966820.0,1.0,2
-655096.3125,12372.1376953125,17681.21484375,11789.47265625,-750000.125,10432.2744140625,-750000.125,-750000.125,966821.0,1.0,2
-652207.0625,-2080.053466796875,6359.07177734375,9743.0361328125,-750000.125,15089.037109375,-750000.125,-750000.125,966822.0,1.0,2
-639597.1875,-45087.40625,-42722.41015625,400.1856384277344,-750000.125,25267.12890625,-750000.125,-750000.125,966823.0,1.0,2
-634312.3125,-56143.47265625,-57295.75,-3608.823486328125,-750000.125,25460.3359375,-750000.125,-750000.125,966824.0,1.0,2
-643399.5625,-35767.44140625,-34819.01171875,2863.52685546875,-750000.125,23797.544921875,-750000.125,-750000.125,966825.0,1.0,2
-655051.1875,11939.6767578125,17298.8203125,11706.2353515625,-750000.125,10274.29296875,-750000.125,-750000.125,966826.0,1.0,2
-652287.9375,-1928.9556884765625,6551.56494140625,9753.765625,-750000.125,14728.7275390625,-750000.125,-750000.125,966827.0,1.0,2
-639705.625,-44894.8203125,-42479.40234375,440.8658142089844,-750000.125,25123.00390625,-750000.125,-750000.125,966828.0,1.0,2
-634285.125,-56172.08203125,-57322.21484375,-3662.288818359375,-750000.125,25387.470703125,-750000.125,-750000.125,966829.0,1.0,2
-643282.1875,-36102.00390625,-35202.390625,2844.30419921875,-750000.125,23836.70703125,-750000.125,-750000.125,966830.0,1.0,2
-654999.125,11738.33203125,17027.828125,11647.3154296875,-750000.125,10403.6650390625,-750000.125,-750000.125,966831.0,1.0,2
-652363.4375,-1480.043212890625,6962.12158203125,9802.134765625,-750000.125,14683.5771484375,-750000.125,-750000.125,966832.0,1.0,2
-639806.4375,-44624.45703125,-42152.44140625,513.1961059570312,-750000.125,25131.318359375,-750000.125,-750000.125,966833.0,1.0,2
-634257.0625,-56201.40625,-57350.64453125,-3678.8291015625,-750000.125,25390.419921875,-750000.125,-750000.125,966834.0,1.0,2
-643172.3125,-36485.46875,-35617.86328125,2684.0869140625,-750000.125,23870.14453125,-750000.125,-750000.125,966835.0,1.0,2
-654952.125,11354.865234375,16665.37109375,11629.5234375,-750000.125,10393.2041015625,-750000.125,-750000.125,966836.0,1.0,2
-652438.5,-1268.9532470703125,7197.3515625,9882.6005859375,-750000.125,14474.3642578125,-750000.125,-750000.125,966837.0,1.0,2
-639910.8125,-44408.984375,-41889.40625,614.2259521484375,-750000.125,25037.888671875,-750000.125,-750000.125,966838.0,1.0,2
-634235.875,-56233.68359375,-57379.078125,-3660.94775390625,-750000.125,25335.703125,-750000.125,-750000.125,966839.0,1.0,2
-643065.625,-36806.08203125,-35976.83203125,2717.97216796875,-750000.125,23929.421875,-750000.125,-750000.125,966840.0,1.0,2
-654909.8125,11148.24609375,16422.005859375,11620.494140625,-750000.125,10547.5205078125,-750000.125,-750000.125,966841.0,1.0,2
-652523.8125,-887.5430908203125,7633.92578125,9963.513671875,-750000.125,14435.6513671875,-750000.125,-750000.125,966842.0,1.0,2
-640023.1875,-44158.734375,-41541.61328125,727.4152221679688,-750000.125,25050.2265625,-750000.125,-750000.125,966843.0,1.0,2
-634219.0625,-56274.8984375,-57398.4765625,-3661.75244140625,-750000.125,25355.462890625,-750000.125,-750000.125,966844.0,1.0,2
-642967.0625,-37131.078125,-36307.19140625,2649.93359375,-750000.125,24032.23828125,-750000.125,-750000.125,966845.0,1.0,2
-654871.4375,10956.0205078125,16198.0419921875,11595.7275390625,-750000.125,10727.943359375,-750000.125,-750000.125,966846.0,1.0,2
-652599.1875,-501.2155456542969,8023.82958984375,10015.7275390625,-750000.125,14416.16015625,-750000.125,-750000.125,966847.0,1.0,2
-640131.125,-43887.1171875,-41216.171875,785.3509521484375,-750000.125,25052.10546875,-750000.125,-750000.125,966848.0,1.0,2
-634202.25,-56289.20703125,-57417.609375,-3698.4091796875,-750000.125,25361.095703125,-750000.125,-750000.125,966849.0,1.0,2
-642865.8125,-37424.51171875,-36653.734375,2546.7578125,-750000.125,24113.8671875,-750000.125,-750000.125,966850.0,1.0,2
-654823.8125,10780.9619140625,15939.119140625,11542.083984375,-750000.125,10870.458984375,-750000.125,-750000.125,966851.0,1.0,2
-652675.4375,-75.90652465820312,8408.7265625,10075.8095703125,-750000.125,14384.4208984375,-750000.125,-750000.125,966852.0,1.0,2
-640235.0625,-43623.453125,-40894.84375,867.1583251953125,-750000.125,25065.60546875,-750000.125,-750000.125,966853.0,1.0,2
-634187.0625,-56312.453125,-57436.56640625,-3701.359619140625,-750000.125,25370.125,-750000.125,-750000.125,966854.0,1.0,2
-642768.1875,-37772.39453125,-37027.6328125,2395.92822265625,-750000.125,24135.59375,-750000.125,-750000.125,966855.0,1.0,2
-654778.5,10381.4921875,15574.427734375,11523.0400390625,-750000.125,10836.39453125,-750000.125,-750000.125,966856.0,1.0,2
-652749.125,121.68289947509766,8629.6513671875,10176.4814453125,-750000.125,14149.19140625,-750000.125,-750000.125,966857.0,1.0,2
-640344.0,-43406.10546875,-40630.46484375,1010.3883056640625,-750000.125,24974.767578125,-750000.125,-750000.125,966858.0,1.0,2
-634175.5,-56335.6953125,-57455.87890625,-3667.11669921875,-750000.125,25336.5078125,-750000.125,-750000.125,966859.0,1.0,2
-642670.625,-38102.6640625,-37386.15625,2358.37744140625,-750000.125,24139.4375,-750000.125,-750000.125,966860.0,1.0,2
-654730.375,9997.130859375,15233.6083984375,11509.4501953125,-750000.125,10820.6591796875,-750000.125,-750000.125,966861.0,1.0,2
-652816.875,278.1451110839844,8865.23828125,10230.0361328125,-750000.125,13931.9326171875,-750000.125,-750000.125,966862.0,1.0,2
-640444.1875,-43225.59375,-40366.0,1082.539794921875,-750000.125,24877.76171875,-750000.125,-750000.125,966863.0,1.0,2
-634157.1875,-56365.73828125,-57464.1015625,-3665.686279296875,-750000.125,25286.798828125,-750000.125,-750000.125,966864.0,1.0,2
-642570.375,-38408.5234375,-37702.12109375,2381.891357421875,-750000.125,24188.701171875,-750000.125,-750000.125,966865.0,1.0,2
-654680.8125,9750.814453125,14968.6064453125,11473.0615234375,-750000.125,10974.70703125,-750000.125,-750000.125,966866.0,1.0,2
-652887.125,598.9373779296875,9193.7197265625,10248.0966796875,-750000.125,13892.146484375,-750000.125,-750000.125,966867.0,1.0,2
-640550.0,-42969.53125,-40061.5703125,1113.474609375,-750000.125,24867.92578125,-750000.125,-750000.125,966868.0,1.0,2
-634149.0,-56377.62890625,-57478.9453125,-3722.10205078125,-750000.125,25290.10546875,-750000.125,-750000.125,966869.0,1.0,2
-642470.375,-38700.16796875,-38041.8671875,2260.655517578125,-750000.125,24257.0078125,-750000.125,-750000.125,966870.0,1.0,2
-654623.0,9515.763671875,14664.443359375,11394.5625,-750000.125,11108.0126953125,-750000.125,-750000.125,966871.0,1.0,2
-652953.5625,1011.3717651367188,9553.76171875,10290.564453125,-750000.125,13836.8037109375,-750000.125,-750000.125,966872.0,1.0,2
-640647.25,-42691.1171875,-39731.03125,1178.473388671875,-750000.125,24863.27734375,-750000.125,-750000.125,966873.0,1.0,2
-634127.4375,-56399.80078125,-57498.8828125,-3740.609375,-750000.125,25294.3984375,-750000.125,-750000.125,966874.0,1.0,2
-642371.1875,-39027.84765625,-38397.2578125,2093.375,-750000.125,24263.177734375,-750000.125,-750000.125,966875.0,1.0,2
-654575.875,9109.9453125,14292.689453125,11344.4052734375,-750000.125,11048.646484375,-750000.125,-750000.125,966876.0,1.0,2
-653019.5625,1154.691162109375,9728.10546875,10343.2255859375,-750000.125,13581.814453125,-750000.125,-750000.125,966877.0,1.0,2
-640755.25,-42488.7890625,-39480.42578125,1277.625732421875,-750000.125,24753.126953125,-750000.125,-750000.125,966878.0,1.0,2
-634117.6875,-56418.66796875,-57511.04296875,-3735.334228515625,-750000.125,25249.515625,-750000.125,-750000.125,966879.0,1.0,2
-642266.3125,-39325.66015625,-38733.25,2110.451904296875,-750000.125,24310.919921875,-750000.125,-750000.125,966880.0,1.0,2
-654511.9375,8843.5126953125,13992.2822265625,11308.1953125,-750000.125,11199.833984375,-750000.125,-750000.125,966881.0,1.0,2
-653089.5,1511.8720703125,10130.794921875,10393.9189453125,-750000.125,13524.9521484375,-750000.125,-750000.125,966882.0,1.0,2
-640862.375,-42218.87109375,-39109.02734375,1357.8238525390625,-750000.125,24746.33203125,-750000.125,-750000.125,966883.0,1.0,2
-634103.0,-56446.11328125,-57515.15234375,-3742.129150390625,-750000.125,25264.892578125,-750000.125,-750000.125,966884.0,1.0,2
-642165.5,-39626.42578125,-39040.72265625,2038.8367919921875,-750000.125,24387.36328125,-750000.125,-750000.125,966885.0,1.0,2
-654459.375,8589.5966796875,13715.8359375,11270.4658203125,-750000.125,11353.255859375,-750000.125,-750000.125,966886.0,1.0,2
-653160.1875,1904.1004638671875,10509.34375,10451.9443359375,-750000.125,13475.15234375,-750000.125,-750000.125,966887.0,1.0,2
-640971.375,-41932.23046875,-38757.30078125,1443.1180419921875,-750000.125,24742.041015625,-750000.125,-750000.125,966888.0,1.0,2
-634087.9375,-56463.99609375,-57526.0625,-3741.50341796875,-750000.125,25277.052734375,-750000.125,-750000.125,966889.0,1.0,2
-642061.125,-39903.41015625,-39355.1640625,1982.599853515625,-750000.125,24468.3671875,-750000.125,-750000.125,966890.0,1.0,2
-654405.9375,8397.3720703125,13445.826171875,11236.490234375,-750000.125,11527.95703125,-750000.125,-750000.125,966891.0,1.0,2
-653236.1875,2330.214111328125,10913.7314453125,10510.1484375,-750000.125,13458.25390625,-750000.125,-750000.125,966892.0,1.0,2
-641084.0,-41628.3359375,-38382.5078125,1513.123779296875,-750000.125,24753.84375,-750000.125,-750000.125,966893.0,1.0,2
-634080.125,-56480.71484375,-57536.07421875,-3761.88818359375,-750000.125,25295.380859375,-750000.125,-750000.125,966894.0,1.0,2
-641961.6875,-40227.95703125,-39705.91015625,1796.990966796875,-750000.125,24481.0625,-750000.125,-750000.125,966895.0,1.0,2
-654344.375,7945.419921875,13029.81640625,11179.091796875,-750000.125,11483.34375,-750000.125,-750000.125,966896.0,1.0,2
-653301.375,2473.8017578125,11087.9853515625,10562.98828125,-750000.125,13191.8212890625,-750000.125,-750000.125,966897.0,1.0,2
-641191.625,-41414.296875,-38117.05859375,1612.276123046875,-750000.125,24627.15234375,-750000.125,-750000.125,966898.0,1.0,2
-634067.3125,-56491.890625,-57542.15625,-3755.450927734375,-750000.125,25245.849609375,-750000.125,-750000.125,966899.0,1.0,2
-641862.375,-40510.21484375,-40022.9453125,1816.03466796875,-750000.125,24515.21484375,-750000.125,-750000.125,966900.0,1.0,2
-654287.0625,7668.5263671875,12722.0771484375,11138.7685546875,-750000.125,11622.37109375,-750000.125,-750000.125,966901.0,1.0,2
-653367.375,2815.2470703125,11464.478515625,10605.8134765625,-750000.125,13128.431640625,-750000.125,-750000.125,966902.0,1.0,2
-641302.3125,-41143.3046875,-37746.82421875,1688.09326171875,-750000.125,24616.693359375,-750000.125,-750000.125,966903.0,1.0,2
-634059.375,-56519.96484375,-57543.5859375,-3765.643310546875,-750000.125,25261.138671875,-750000.125,-750000.125,966904.0,1.0,2
-641758.75,-40806.8671875,-40327.64453125,1737.714111328125,-750000.125,24582.71875,-750000.125,-750000.125,966905.0,1.0,2
-654228.0625,7388.32470703125,12418.8984375,11088.701171875,-750000.125,11776.1513671875,-750000.125,-750000.125,966906.0,1.0,2
-653445.5625,3162.414306640625,11817.2783203125,10627.62890625,-750000.125,13066.7412109375,-750000.125,-750000.125,966907.0,1.0,2
-641421.5,-40843.5234375,-37383.3828125,1720.9949951171875,-750000.125,24587.009765625,-750000.125,-750000.125,966908.0,1.0,2
-634052.9375,-56520.0546875,-57545.1953125,-3832.698486328125,-750000.125,25261.048828125,-750000.125,-750000.125,966909.0,1.0,2
-641657.25,-41131.59375,-40696.0,1505.97119140625,-750000.125,24589.06640625,-750000.125,-750000.125,966910.0,1.0,2
-654165.75,6913.39501953125,11947.5439453125,10970.9521484375,-750000.125,11739.4052734375,-750000.125,-750000.125,966911.0,1.0,2
-653511.75,3346.861083984375,11984.3798828125,10659.994140625,-750000.125,12818.63671875,-750000.125,-750000.125,966912.0,1.0,2
-641526.75,-40615.984375,-37129.82421875,1824.7071533203125,-750000.125,24484.81640625,-750000.125,-750000.125,966913.0,1.0,2
-634046.75,-56531.765625,-57560.3046875,-3799.1708984375,-750000.125,25224.212890625,-750000.125,-750000.125,966914.0,1.0,2
-641561.6875,-41379.51953125,-40995.06640625,1564.1751708984375,-750000.125,24628.583984375,-750000.125,-750000.125,966915.0,1.0,2
-654103.1875,6685.49658203125,11644.72265625,10991.7841796875,-750000.125,11932.5244140625,-750000.125,-750000.125,966916.0,1.0,2
-653572.9375,3717.1845703125,12339.59375,10760.48828125,-750000.125,12828.203125,-750000.125,-750000.125,966917.0,1.0,2
-641633.6875,-40320.8515625,-36753.78125,1938.4327392578125,-750000.125,24493.1328125,-750000.125,-750000.125,966918.0,1.0,2
-634040.4375,-56549.46875,-57559.58984375,-3774.315673828125,-750000.125,25246.20703125,-750000.125,-750000.125,966919.0,1.0,2
-641464.625,-41649.70703125,-41277.23828125,1515.627197265625,-750000.125,24697.962890625,-750000.125,-750000.125,966920.0,1.0,2
-654046.5625,6387.9501953125,11349.322265625,10944.5771484375,-750000.125,12081.029296875,-750000.125,-750000.125,966921.0,1.0,2
-653638.4375,4031.092529296875,12694.8076171875,10799.4697265625,-750000.125,12771.2509765625,-750000.125,-750000.125,966922.0,1.0,2
-641747.375,-40041.0078125,-36369.59765625,2015.0545654296875,-750000.125,24477.486328125,-750000.125,-750000.125,966923.0,1.0,2
-634040.0625,-56562.61328125,-57542.9609375,-3775.65673828125,-750000.125,25260.78125,-750000.125,-750000.125,966924.0,1.0,2
-641366.875,-41928.4765625,-41562.35546875,1456.2608642578125,-750000.125,24770.29296875,-750000.125,-750000.125,966925.0,1.0,2
-653979.1875,6113.470703125,11036.30859375,10902.4658203125,-750000.125,12263.8662109375,-750000.125,-750000.125,966926.0,1.0,2
-653704.6875,4416.4365234375,13064.6845703125,10857.4052734375,-750000.125,12741.03125,-750000.125,-750000.125,966927.0,1.0,2
-641859.625,-39719.23046875,-35986.22265625,2094.26904296875,-750000.125,24472.748046875,-750000.125,-750000.125,966928.0,1.0,2
-634040.0,-56555.63671875,-57536.7890625,-3789.87255859375,-750000.125,25285.099609375,-750000.125,-750000.125,966929.0,1.0,2
-641277.0625,-42196.609375,-41870.98828125,1284.420654296875,-750000.125,24792.01953125,-750000.125,-750000.125,966930.0,1.0,2
-653916.6875,5715.16259765625,10614.0390625,10826.380859375,-750000.125,12255.8193359375,-750000.125,-750000.125,966931.0,1.0,2
-653769.5,4595.787109375,13222.3095703125,10875.107421875,-750000.125,12517.6923828125,-750000.125,-750000.125,966932.0,1.0,2
-641972.25,-39479.9765625,-35727.8359375,2158.910400390625,-750000.125,24363.939453125,-750000.125,-750000.125,966933.0,1.0,2
-634041.875,-56553.13671875,-57543.765625,-3792.5546875,-750000.125,25248.44140625,-750000.125,-750000.125,966934.0,1.0,2
-641184.0625,-42430.40625,-42167.8203125,1290.232177734375,-750000.125,24820.18359375,-750000.125,-750000.125,966935.0,1.0,2
-653852.8125,5462.67724609375,10272.951171875,10804.2080078125,-750000.125,12428.6435546875,-750000.125,-750000.125,966936.0,1.0,2
-653831.5,4977.46533203125,13560.625,10952.8916015625,-750000.125,12507.6787109375,-750000.125,-750000.125,966937.0,1.0,2
-642090.25,-39165.80078125,-35335.33984375,2276.838134765625,-750000.125,24372.25390625,-750000.125,-750000.125,966938.0,1.0,2
-634047.125,-56563.59375,-57534.82421875,-3759.116455078125,-750000.125,25275.7109375,-750000.125,-750000.125,966939.0,1.0,2
-641089.8125,-42710.609375,-42456.42578125,1242.1312255859375,-750000.125,24889.5625,-750000.125,-750000.125,966940.0,1.0,2
-653785.6875,5118.19189453125,9938.3017578125,10761.29296875,-750000.125,12594.1357421875,-750000.125,-750000.125,966941.0,1.0,2
-653896.9375,5306.4833984375,13926.2099609375,11016.9072265625,-750000.125,12455.4658203125,-750000.125,-750000.125,966942.0,1.0,2
-642203.5625,-38867.359375,-34930.32421875,2381.265625,-750000.125,24358.216796875,-750000.125,-750000.125,966943.0,1.0,2
-634050.6875,-56576.37890625,-57515.87109375,-3733.367431640625,-750000.125,25299.8515625,-750000.125,-750000.125,966944.0,1.0,2
-640997.375,-42975.87890625,-42727.1484375,1197.964111328125,-750000.125,24954.29296875,-750000.125,-750000.125,966945.0,1.0,2
-653720.3125,4802.94287109375,9596.587890625,10734.91796875,-750000.125,12755.1572265625,-750000.125,-750000.125,966946.0,1.0,2
-653966.125,5659.99853515625,14259.3408203125,11087.001953125,-750000.125,12403.5205078125,-750000.125,-750000.125,966947.0,1.0,2
-642318.875,-38529.04296875,-34545.60546875,2477.10986328125,-750000.125,24339.53125,-750000.125,-750000.125,966948.0,1.0,2
-634056.25,-56565.29296875,-57512.91796875,-3706.72412109375,-750000.125,25316.123046875,-750000.125,-750000.125,966949.0,1.0,2
-640902.6875,-43229.52734375,-43036.85546875,1152.992431640625,-750000.125,25005.703125,-750000.125,-750000.125,966950.0,1.0,2
-653647.9375,4492.25390625,9203.8232421875,10706.6650390625,-750000.125,12891.6826171875,-750000.125,-750000.125,966951.0,1.0,2
-654028.25,6044.18017578125,14570.923828125,11169.5244140625,-750000.125,12325.736328125,-750000.125,-750000.125,966952.0,1.0,2
-642442.5625,-38190.37109375,-34146.40234375,2614.61767578125,-750000.125,24312.3515625,-750000.125,-750000.125,966953.0,1.0,2
-634064.125,-56565.65234375,-57499.1484375,-3674.090576171875,-750000.125,25339.1015625,-750000.125,-750000.125,966954.0,1.0,2
-640802.1875,-43479.59765625,-43324.12109375,1103.4609375,-750000.125,25064.7109375,-750000.125,-750000.125,966955.0,1.0,2
-653573.6875,4204.72119140625,8856.3876953125,10698.529296875,-750000.125,13064.2373046875,-750000.125,-750000.125,966956.0,1.0,2
-654090.0625,6421.9248046875,14941.3369140625,11291.029296875,-750000.125,12297.3935546875,-750000.125,-750000.125,966957.0,1.0,2
-642557.4375,-37854.0234375,-33717.96484375,2779.75244140625,-750000.125,24313.9609375,-750000.125,-750000.125,966958.0,1.0,2
-634067.3125,-56567.70703125,-57480.64453125,-3587.99169921875,-750000.125,25376.47265625,-750000.125,-750000.125,966959.0,1.0,2
-640710.75,-43726.2734375,-43578.39453125,1112.401611328125,-750000.125,25134.44921875,-750000.125,-750000.125,966960.0,1.0,2
-653509.6875,3910.661376953125,8555.2646484375,10702.9990234375,-750000.125,13215.8720703125,-750000.125,-750000.125,966961.0,1.0,2
-654154.6875,6731.7197265625,15288.7724609375,11367.740234375,-750000.125,12233.0205078125,-750000.125,-750000.125,966962.0,1.0,2
-642672.9375,-37557.28125,-33312.59375,2860.576416015625,-750000.125,24281.7734375,-750000.125,-750000.125,966963.0,1.0,2
-634076.9375,-56570.66015625,-57458.37890625,-3579.140380859375,-750000.125,25390.419921875,-750000.125,-750000.125,966964.0,1.0,2
-640621.6875,-43998.96484375,-43863.15625,968.7246704101562,-750000.125,25130.873046875,-750000.125,-750000.125,966965.0,1.0,2
-653444.6875,3441.185302734375,8103.04443359375,10654.2724609375,-750000.125,13143.630859375,-750000.125,-750000.125,966966.0,1.0,2
-654219.875,6881.119140625,15429.2314453125,11440.3388671875,-750000.125,11931.451171875,-750000.125,-750000.125,966967.0,1.0,2
-642791.5625,-37290.04296875,-33028.37109375,3007.740234375,-750000.125,24128.9765625,-750000.125,-750000.125,966968.0,1.0,2
-634083.875,-56554.20703125,-57449.9765625,-3512.62158203125,-750000.125,25356.087890625,-750000.125,-750000.125,966969.0,1.0,2
-640527.8125,-44225.07421875,-44144.875,1053.3037109375,-750000.125,25158.767578125,-750000.125,-750000.125,966970.0,1.0,2
-653365.5625,3171.8916015625,7725.03125,10650.875,-750000.125,13332.279296875,-750000.125,-750000.125,966971.0,1.0,2
-654273.75,7309.19970703125,15756.818359375,11503.5498046875,-750000.125,11915.537109375,-750000.125,-750000.125,966972.0,1.0,2
-642900.0625,-36930.5390625,-32611.375,3105.19384765625,-750000.125,24123.703125,-750000.125,-750000.125,966973.0,1.0,2
-634090.3125,-56546.0703125,-57428.875,-3497.243408203125,-750000.125,25386.755859375,-750000.125,-750000.125,966974.0,1.0,2
-640437.5625,-44458.24609375,-44406.75,981.5098266601562,-750000.125,25215.80859375,-750000.125,-750000.125,966975.0,1.0,2
-653294.6875,2882.0341796875,7365.16845703125,10612.4296875,-750000.125,13471.6650390625,-750000.125,-750000.125,966976.0,1.0,2
-654335.375,7663.43017578125,16075.7333984375,11564.7041015625,-750000.125,11851.87890625,-750000.125,-750000.125,966977.0,1.0,2
-643016.875,-36582.38671875,-32189.91015625,3209.53173828125,-750000.125,24096.791015625,-750000.125,-750000.125,966978.0,1.0,2
-634097.375,-56529.7109375,-57400.35546875,-3469.795654296875,-750000.125,25411.341796875,-750000.125,-750000.125,966979.0,1.0,2
-640340.125,-44681.5859375,-44660.21875,931.5313720703125,-750000.125,25265.072265625,-750000.125,-750000.125,966980.0,1.0,2
-653219.125,2566.9638671875,7017.73291015625,10568.3525390625,-750000.125,13617.041015625,-750000.125,-750000.125,966981.0,1.0,2
-654390.6875,7964.28466796875,16403.41015625,11613.966796875,-750000.125,11784.8232421875,-750000.125,-750000.125,966982.0,1.0,2
-643126.9375,-36250.6875,-31759.23828125,3270.32861328125,-750000.125,24050.568359375,-750000.125,-750000.125,966983.0,1.0,2
-634104.1875,-56517.4609375,-57364.59375,-3475.696533203125,-750000.125,25418.583984375,-750000.125,-750000.125,966984.0,1.0,2
-640244.625,-44927.27734375,-44921.5546875,857.5023803710938,-750000.125,25295.11328125,-750000.125,-750000.125,966985.0,1.0,2
-653133.3125,2193.689697265625,6604.046875,10505.5888671875,-750000.125,13724.955078125,-750000.125,-750000.125,966986.0,1.0,2
