FZ,C3,CZ,C4,PZ,PO7,OZ,PO8,Counter,Validation,Label
224956.1875,248779.9375,250606.78125,259103.9375,219310.59375,246236.3125,205553.71875,233559.203125,143421.0,1.0,4
225011.0,248908.6875,251059.453125,259190.21875,219699.59375,246441.9375,205796.359375,233757.234375,143422.0,1.0,4
225043.984375,249094.640625,251741.0,259272.015625,220325.625,246763.625,206172.953125,234038.0625,143423.0,1.0,4
225012.96875,249086.15625,251712.9375,259237.15625,220331.703125,246767.65625,206177.0625,234022.15625,143424.0,1.0,4
224959.046875,248892.046875,251027.0,259141.578125,219721.140625,246457.3125,205811.125,233732.109375,143425.0,1.0,4
224938.125,248766.171875,250595.796875,259096.421875,219306.125,246240.421875,205569.359375,233554.375,143426.0,1.0,4
224987.65625,248894.203125,251044.34375,259171.625,219687.078125,246439.890625,205805.9375,233751.875,143427.0,1.0,4
225023.96875,249082.125,251734.828125,259257.8125,220319.28125,246763.8125,206183.5,234041.8125,143428.0,1.0,4
224985.78125,249065.859375,251701.75,259221.15625,220322.5,246760.5,206182.0625,234020.984375,143429.0,1.0,4
224936.078125,248881.765625,251017.703125,259123.703125,219715.609375,246452.484375,205816.296875,233732.921875,143430.0,1.0,4
224935.09375,248771.703125,250594.265625,259094.546875,219309.609375,246246.40625,205578.125,233563.046875,143431.0,1.0,4
224979.171875,248886.953125,251032.09375,259169.5625,219681.09375,246430.3125,205804.6875,233752.40625,143432.0,1.0,4
225008.40625,249068.09375,251717.125,259247.34375,220308.734375,246749.6875,206176.96875,234032.875,143433.0,1.0,4
224978.1875,249058.4375,251697.015625,259216.671875,220322.59375,246751.015625,206180.8125,234013.484375,143434.0,1.0,4
224938.40625,248879.796875,251027.171875,259131.65625,219725.4375,246451.15625,205828.109375,233735.15625,143435.0,1.0,4
224938.484375,248764.46875,250598.734375,259102.0625,219310.140625,246237.46875,205584.203125,233560.359375,143436.0,1.0,4
224982.5625,248880.34375,251024.671875,259173.5,219670.0,246418.703125,205799.9375,233741.046875,143437.0,1.0,4
225022.4375,249076.40625,251722.765625,259257.359375,220306.671875,246747.71875,206179.5625,234034.3125,143438.0,1.0,4
224986.5,249066.9375,251706.3125,259219.890625,220324.90625,246749.328125,206181.53125,234018.578125,143439.0,1.0,4
224932.40625,248880.421875,251022.703125,259121.109375,219721.234375,246437.921875,205811.5625,233721.109375,143440.0,1.0,4
224931.15625,248766.515625,250591.046875,259090.4375,219309.15625,246230.5,205567.3125,233544.265625,143441.0,1.0,4
224972.828125,248880.875,251016.09375,259160.265625,219666.78125,246413.515625,205785.640625,233728.171875,143442.0,1.0,4
225017.25,249081.5,251718.03125,259252.890625,220305.78125,246741.90625,206168.65625,234022.0625,143443.0,1.0,4
225007.59375,249097.15625,251732.421875,259246.09375,220350.21875,246770.0625,206192.890625,234025.28125,143444.0,1.0,4
224950.203125,248908.046875,251049.265625,259142.5625,219741.4375,246455.4375,205823.015625,233729.96875,143445.0,1.0,4
224927.5,248772.328125,250592.390625,259087.84375,219306.65625,246227.984375,205561.5,233536.21875,143446.0,1.0,4
224976.484375,248887.671875,251014.578125,259162.5,219665.09375,246415.5625,205786.078125,233725.5,143447.0,1.0,4
225022.53125,249086.328125,251717.21875,259254.671875,220307.828125,246750.21875,206173.84375,234027.0625,143448.0,1.0,4
224990.875,249079.890625,251718.921875,259226.25,220338.671875,246762.28125,206187.15625,234023.3125,143449.0,1.0,4
224942.875,248892.859375,251046.671875,259132.640625,219737.859375,246453.296875,205822.734375,233735.953125,143450.0,1.0,4
224935.1875,248765.265625,250595.34375,259091.421875,219304.78125,246228.703125,205562.921875,233543.828125,143451.0,1.0,4
224985.78125,248883.109375,251015.375,259167.234375,219659.1875,246412.890625,205779.46875,233724.6875,143452.0,1.0,4
225011.09375,249063.625,251705.328125,259246.265625,220288.171875,246732.6875,206149.609375,234006.421875,143453.0,1.0,4
224987.3125,249065.40625,251720.171875,259223.75,220333.046875,246752.625,206175.890625,234006.859375,143454.0,1.0,4
224945.015625,248888.03125,251055.078125,259139.796875,219744.390625,246456.25,205822.203125,233728.453125,143455.0,1.0,4
224936.4375,248764.203125,250600.53125,259100.546875,219310.765625,246230.9375,205562.75,233543.734375,143456.0,1.0,4
224980.0625,248879.171875,251011.359375,259167.859375,219657.578125,246407.25,205775.890625,233723.984375,143457.0,1.0,4
225015.828125,249066.125,251709.625,259255.125,220297.546875,246738.234375,206155.6875,234020.453125,143458.0,1.0,4
225000.8125,249077.21875,251735.015625,259243.046875,220353.796875,246766.9375,206188.765625,234033.421875,143459.0,1.0,4
224945.375,248886.859375,251056.234375,259135.234375,219751.28125,246454.453125,205822.390625,233739.171875,143460.0,1.0,4
224933.578125,248764.015625,250595.078125,259090.53125,219309.421875,246230.21875,205561.765625,233546.6875,143461.0,1.0,4
224988.296875,248882.03125,251010.109375,259177.4375,219658.734375,246412.34375,205779.5625,233730.5,143462.0,1.0,4
225026.203125,249074.359375,251712.65625,259259.5,220297.546875,246743.421875,206164.1875,234022.859375,143463.0,1.0,4
224997.3125,249079.453125,251737.78125,259234.921875,220350.484375,246773.1875,206196.109375,234027.15625,143464.0,1.0,4
224949.578125,248901.171875,251071.34375,259145.78125,219758.703125,246474.578125,205837.3125,233746.78125,143465.0,1.0,4
224935.8125,248771.265625,250601.25,259094.109375,219310.59375,246242.828125,205568.203125,233551.953125,143466.0,1.0,4
224980.0625,248877.203125,250998.5625,259167.140625,219643.359375,246409.046875,205769.71875,233722.28125,143467.0,1.0,4
225023.15625,249072.75,251703.984375,259256.734375,220284.40625,246741.359375,206156.046875,234020.8125,143468.0,1.0,4
225000.53125,249084.8125,251738.953125,259241.71875,220350.65625,246773.828125,206194.765625,234035.109375,143469.0,1.0,4
224941.796875,248892.40625,251064.28125,259133.625,219755.203125,246464.46875,205827.203125,233740.703125,143470.0,1.0,4
224943.3125,248774.75,250603.65625,259099.734375,219318.28125,246243.28125,205571.15625,233556.15625,143471.0,1.0,4
224987.65625,248880.15625,250995.703125,259172.609375,219646.40625,246409.046875,205771.234375,233724.6875,143472.0,1.0,4
225029.5,249071.578125,251700.765625,259257.09375,220288.796875,246736.71875,206152.828125,234017.328125,143473.0,1.0,4
225000.359375,249075.875,251732.15625,259228.03125,220350.921875,246761.921875,206184.03125,234019.921875,143474.0,1.0,4
224942.875,248889.640625,251062.21875,259128.078125,219756.46875,246456.609375,205823.28125,233732.734375,143475.0,1.0,4
224926.328125,248759.90625,250585.6875,259084.265625,219303.34375,246224.140625,205554.609375,233539.984375,143476.0,1.0,4
224973.265625,248866.5625,250974.703125,259158.75,219630.84375,246393.484375,205755.0625,233713.96875,143477.0,1.0,4
225014.484375,249058.34375,251677.890625,259247.796875,220273.046875,246723.390625,206139.859375,234013.484375,143478.0,1.0,4
225002.6875,249076.140625,251735.90625,259242.515625,220355.671875,246765.953125,206190.46875,234036.546875,143479.0,1.0,4
224941.625,248884.265625,251065.359375,259133.0,219760.9375,246455.171875,205828.90625,233745.96875,143480.0,1.0,4
224941.171875,248758.203125,250590.609375,259087.484375,219308.53125,246225.046875,205561.046875,233545.703125,143481.0,1.0,4
225002.0625,248871.484375,250984.265625,259167.421875,219634.78125,246396.34375,205761.9375,233713.96875,143482.0,1.0,4
225054.71875,249069.609375,251695.671875,259260.40625,220279.21875,246728.765625,206145.328125,234014.015625,143483.0,1.0,4
225049.984375,249091.34375,251756.375,259248.59375,220363.984375,246771.671875,206194.3125,234037.53125,143484.0,1.0,4
225012.875,248913.953125,251099.0625,259152.3125,219777.828125,246471.984375,205840.984375,233753.03125,143485.0,1.0,4
225019.671875,248791.296875,250622.609375,259112.515625,219322.65625,246241.046875,205572.484375,233557.953125,143486.0,1.0,4
225091.109375,248912.875,251016.0,259197.015625,219648.1875,246414.671875,205775.0,233734.796875,143487.0,1.0,4
225137.6875,249107.875,251725.890625,259285.875,220289.328125,246747.71875,206155.609375,234029.296875,143488.0,1.0,4
225121.6875,249126.921875,251787.9375,259270.0625,220374.625,246786.6875,206201.640625,234047.1875,143489.0,1.0,4
225069.203125,248941.40625,251124.90625,259169.921875,219787.390625,246482.796875,205842.671875,233764.203125,143490.0,1.0,4
225061.875,248808.90625,250634.859375,259120.921875,219324.171875,246249.453125,205565.34375,233562.328125,143491.0,1.0,4
225114.53125,248919.40625,251013.40625,259203.625,219643.546875,246413.421875,205760.25,233733.0,143492.0,1.0,4
225151.1875,249106.265625,251719.28125,259287.671875,220281.640625,246739.125,206139.78125,234028.140625,143493.0,1.0,4
225140.015625,249131.390625,251796.703125,259278.109375,220379.265625,246793.578125,206200.578125,234061.3125,143494.0,1.0,4
225094.421875,248952.046875,251143.765625,259185.75,219802.0625,246499.703125,205852.515625,233784.78125,143495.0,1.0,4
225079.75,248811.40625,250648.0,259135.046875,219332.765625,246257.765625,205570.875,233577.625,143496.0,1.0,4
225130.09375,248917.796875,251020.5625,259206.3125,219643.1875,246414.140625,205761.046875,233741.40625,143497.0,1.0,4
225171.84375,249113.0625,251733.5,259299.109375,220293.34375,246747.984375,206149.078125,234040.75,143498.0,1.0,4
225146.359375,249132.5625,251808.328125,259288.109375,220396.171875,246801.8125,206209.0625,234072.390625,143499.0,1.0,4
225084.40625,248953.46875,251149.3125,259184.140625,219813.953125,246503.71875,205855.46875,233793.71875,143500.0,1.0,4
225065.890625,248815.875,250647.734375,259131.03125,219341.078125,246260.71875,205574.28125,233590.3125,143501.0,1.0,4
225109.25,248919.859375,251011.078125,259200.5,219642.5625,246410.921875,205761.5,233754.734375,143502.0,1.0,4
225146.09375,249106.71875,251725.09375,259291.78125,220289.328125,246742.53125,206149.703125,234051.03125,143503.0,1.0,4
225112.5625,249121.375,251803.046875,259269.78125,220391.15625,246790.890625,206205.578125,234071.6875,143504.0,1.0,4
225043.359375,248929.0625,251141.53125,259159.90625,219804.03125,246490.84375,205847.953125,233783.4375,143505.0,1.0,4
225029.6875,248794.234375,250638.53125,259116.453125,219325.78125,246255.078125,205568.921875,233579.578125,143506.0,1.0,4
225079.21875,248894.203125,250995.796875,259195.671875,219623.609375,246401.078125,205750.40625,233738.734375,143507.0,1.0,4
225108.984375,249081.140625,251699.15625,259273.8125,220264.296875,246725.359375,206129.9375,234031.984375,143508.0,1.0,4
225083.234375,249105.375,251785.625,259256.109375,220374.890625,246786.6875,206193.25,234061.3125,143509.0,1.0,4
225028.078125,248928.4375,251137.328125,259161.515625,219801.515625,246498.71875,205847.6875,233783.078125,143510.0,1.0,4
225010.375,248787.796875,250628.515625,259106.796875,219322.65625,246255.890625,205564.0,233573.5,143511.0,1.0,4
225058.921875,248892.765625,250983.640625,259184.21875,219619.484375,246407.078125,205748.984375,233734.265625,143512.0,1.0,4
225096.203125,249088.03125,251694.78125,259279.0,220265.546875,246734.75,206135.671875,234033.140625,143513.0,1.0,4
225060.796875,249104.296875,251780.96875,259253.0625,220376.859375,246789.46875,206195.125,234057.46875,143514.0,1.0,4
225009.921875,248931.296875,251137.59375,259158.125,219812.34375,246505.78125,205853.765625,233783.078125,143515.0,1.0,4
224989.453125,248787.984375,250617.25,259101.796875,219321.234375,246255.265625,205558.90625,233564.203125,143516.0,1.0,4
225038.359375,248891.25,250965.9375,259175.109375,219610.546875,246403.140625,205737.09375,233722.71875,143517.0,1.0,4
225076.796875,249082.3125,251678.78125,259265.859375,220259.28125,246733.40625,206125.296875,234026.890625,143518.0,1.0,4
225049.53125,249103.765625,251778.015625,259247.25,220379.453125,246790.71875,206194.671875,234064.34375,143519.0,1.0,4
224992.671875,248925.3125,251135.546875,259149.09375,219810.109375,246498.984375,205851.984375,233789.953125,143520.0,1.0,4
224980.78125,248787.171875,250621.1875,259102.328125,219321.40625,246250.96875,205562.828125,233577.96875,143521.0,1.0,4
225025.390625,248880.875,250956.8125,259169.03125,219600.171875,246391.6875,205729.21875,233725.59375,143522.0,1.0,4
225057.9375,249074.53125,251666.96875,259252.53125,220245.421875,246721.78125,206114.828125,234023.21875,143523.0,1.0,4
225029.421875,249094.015625,251771.765625,259233.3125,220371.046875,246776.140625,206187.609375,234052.640625,143524.0,1.0,4
224992.21875,248928.96875,251145.375,259152.03125,219818.78125,246495.765625,205855.640625,233790.859375,143525.0,1.0,4
224980.0625,248789.59375,250628.875,259107.15625,219327.9375,246244.4375,205566.234375,233577.171875,143526.0,1.0,4
225015.5625,248876.5,250954.84375,259163.65625,219594.359375,246377.296875,205728.140625,233717.453125,143527.0,1.0,4
225061.953125,249074.078125,251675.640625,259256.203125,220247.84375,246717.40625,206124.046875,234020.8125,143528.0,1.0,4
225040.328125,249100.015625,251790.984375,259245.921875,220382.484375,246782.84375,206200.390625,234057.90625,143529.0,1.0,4
224991.234375,248932.546875,251156.28125,259152.21875,219826.640625,246502.46875,205862.96875,233787.453125,143530.0,1.0,4
224971.84375,248785.203125,250622.4375,259094.109375,219325.25,246243.71875,205561.765625,233565.28125,143531.0,1.0,4
225013.859375,248872.734375,250945.640625,259158.296875,219589.625,246379.984375,205725.015625,233710.828125,143532.0,1.0,4
225051.953125,249064.0625,251656.421875,259247.25,220233.890625,246708.109375,206108.9375,234011.421875,143533.0,1.0,4
225034.25,249100.640625,251779.984375,259245.828125,220377.75,246782.21875,206197.09375,234063.1875,143534.0,1.0,4
224981.9375,248922.1875,251145.90625,259152.484375,219818.78125,246501.125,205863.0625,233795.5,143535.0,1.0,4
224963.078125,248778.953125,250616.796875,259091.0625,219321.046875,246249.625,205572.40625,233580.84375,143536.0,1.0,4
225004.65625,248867.734375,250936.078125,259157.84375,219584.359375,246383.65625,205738.4375,233724.421875,143537.0,1.0,4
225043.984375,249061.75,251651.328125,259248.859375,220234.15625,246719.734375,206130.390625,234027.328125,143538.0,1.0,4
225022.359375,249099.828125,251782.84375,259239.203125,220384.640625,246795.546875,206221.578125,234082.140625,143539.0,1.0,4
224959.40625,248917.796875,251140.375,259141.9375,219821.1875,246499.34375,205878.0,233805.15625,143540.0,1.0,4
224941.53125,248770.09375,250602.140625,259084.453125,219317.921875,246242.921875,205579.015625,233582.265625,143541.0,1.0,4
224984.4375,248855.296875,250913.546875,259148.46875,219577.375,246377.84375,205738.875,233722.453125,143542.0,1.0,4
225026.734375,249052.171875,251626.65625,259235.640625,220230.234375,246716.15625,206127.078125,234022.6875,143543.0,1.0,4
225012.078125,249090.0,251766.125,259235.8125,220387.40625,246797.609375,206218.09375,234075.171875,143544.0,1.0,4
224961.640625,248918.96875,251139.5625,259137.109375,219833.53125,246515.703125,205882.90625,233805.78125,143545.0,1.0,4
224947.15625,248774.84375,250599.359375,259082.484375,219325.4375,246256.6875,205580.09375,233581.828125,143546.0,1.0,4
224986.234375,248859.234375,250906.5625,259143.640625,219575.765625,246384.0,205734.671875,233716.734375,143547.0,1.0,4
225026.375,249058.609375,251627.375,259236.171875,220229.78125,246719.1875,206126.71875,234023.21875,143548.0,1.0,4
225004.921875,249092.765625,251767.46875,259228.75,220388.5625,246796.625,206215.953125,234075.34375,143549.0,1.0,4
224950.734375,248916.734375,251139.203125,259134.328125,219837.203125,246513.46875,205883.171875,233804.4375,143550.0,1.0,4
224931.78125,248763.578125,250590.25,259075.140625,219316.046875,246246.9375,205574.1875,233570.640625,143551.0,1.0,4
224979.96875,248850.5625,250897.359375,259141.484375,219563.34375,246374.171875,205729.84375,233705.65625,143552.0,1.0,4
225034.328125,249058.53125,251630.9375,259243.140625,220226.5625,246715.078125,206130.125,234017.953125,143553.0,1.0,4
225020.5625,249101.078125,251784.8125,259244.9375,220395.28125,246797.328125,206222.125,234072.03125,143554.0,1.0,4
224966.390625,248924.0625,251158.96875,259147.75,219844.265625,246513.640625,205885.59375,233801.578125,143555.0,1.0,4
224953.15625,248777.25,250611.796875,259091.59375,219333.03125,246250.796875,205577.234375,233575.390625,143556.0,1.0,4
224999.203125,248867.28125,250911.390625,259156.515625,219581.671875,246377.5625,205730.828125,233711.1875,143557.0,1.0,4
225036.75,249062.546875,251626.46875,259241.453125,220230.046875,246708.28125,206116.4375,234007.84375,143558.0,1.0,4
225027.453125,249113.15625,251792.234375,259254.3125,220410.828125,246802.4375,206223.375,234074.0,143559.0,1.0,4
224979.53125,248949.265625,251178.546875,259164.203125,219873.234375,246531.078125,205901.421875,233811.5,143560.0,1.0,4
224954.3125,248794.859375,250621.546875,259096.875,219349.84375,246260.71875,205587.875,233578.0625,143561.0,1.0,4
224996.515625,248873.546875,250911.3125,259159.8125,219582.03125,246376.859375,205726.890625,233706.625,143562.0,1.0,4
225044.796875,249075.25,251636.390625,259254.3125,220234.703125,246712.578125,206118.140625,234014.546875,143563.0,1.0,4
225028.703125,249116.46875,251799.203125,259251.28125,220416.28125,246800.734375,206221.046875,234076.0625,143564.0,1.0,4
224977.46875,248941.5,251178.453125,259154.984375,219874.390625,246529.375,205891.859375,233809.71875,143565.0,1.0,4
224958.703125,248789.765625,250619.9375,259093.65625,219352.25,246266.609375,205584.5625,233581.109375,143566.0,1.0,4
224998.578125,248872.296875,250901.734375,259156.15625,219580.0625,246385.078125,205728.0625,233709.671875,143567.0,1.0,4
225035.859375,249062.375,251617.171875,259243.953125,220224.421875,246716.421875,206113.3125,234010.171875,143568.0,1.0,4
225023.34375,249109.21875,251794.015625,259245.46875,220414.765625,246815.484375,206230.171875,234085.265625,143569.0,1.0,4
224968.0,248938.359375,251174.703125,259146.765625,219872.59375,246541.546875,205904.09375,233821.515625,143570.0,1.0,4
224942.515625,248785.65625,250605.265625,259078.28125,219342.421875,246271.359375,205590.90625,233587.90625,143571.0,1.0,4
224986.328125,248864.421875,250881.71875,259138.625,219566.46875,246385.078125,205730.203125,233711.375,143572.0,1.0,4
225029.59375,249056.109375,251601.796875,259232.5,220216.453125,246717.9375,206120.46875,234014.1875,143573.0,1.0,4
225021.015625,249104.75,251781.78125,259237.421875,220407.515625,246814.953125,206233.296875,234084.109375,143574.0,1.0,4
224973.71875,248940.78125,251173.359375,259146.234375,219871.171875,246542.078125,205906.875,233821.96875,143575.0,1.0,4
224948.5,248785.828125,250603.125,259084.53125,219339.28125,246271.078125,205591.265625,233586.828125,143576.0,1.0,4
224987.84375,248857.09375,250867.40625,259140.421875,219553.859375,246383.203125,205727.078125,233706.546875,143577.0,1.0,4
225030.578125,249055.9375,251588.203125,259236.34375,220206.796875,246719.546875,206117.6875,234011.78125,143578.0,1.0,4
225016.0,249107.15625,251773.90625,259231.703125,220406.0,246818.703125,206233.390625,234080.53125,143579.0,1.0,4
224965.484375,248942.03125,251169.421875,259138.53125,219875.28125,246549.859375,205911.078125,233821.25,143580.0,1.0,4
224945.546875,248785.921875,250600.4375,259076.84375,219339.203125,246275.375,205589.390625,233587.28125,143581.0,1.0,4
224980.59375,248851.546875,250860.875,259132.09375,219545.1875,246376.40625,205713.75,233703.140625,143582.0,1.0,4
225024.671875,249044.484375,251580.96875,259228.296875,220194.015625,246707.390625,206102.671875,234004.09375,143583.0,1.0,4
225018.515625,249104.578125,251781.0625,259237.78125,220404.03125,246818.53125,206229.8125,234083.65625,143584.0,1.0,4
224971.484375,248946.859375,251185.15625,259152.671875,219878.859375,246552.1875,205912.953125,233833.5,143585.0,1.0,4
224946.453125,248785.03125,250609.375,259084.984375,219336.609375,246270.375,205585.359375,233585.84375,143586.0,1.0,4
224984.4375,248851.1875,250863.75,259138.359375,219538.125,246373.90625,205711.96875,233699.65625,143587.0,1.0,4
225029.859375,249047.703125,251586.859375,259228.484375,220188.296875,246712.390625,206102.140625,234002.296875,143588.0,1.0,4
225016.359375,249102.6875,251787.5,259230.8125,220396.796875,246817.546875,206219.796875,234079.015625,143589.0,1.0,4
224966.390625,248940.78125,251188.109375,259140.859375,219870.453125,246546.28125,205899.453125,233821.96875,143590.0,1.0,4
224953.59375,248796.109375,250615.734375,259088.734375,219339.734375,246278.5,205587.515625,233589.515625,143591.0,1.0,4
224995.171875,248866.75,250866.96875,259150.25,219542.953125,246379.53125,205715.0,233702.609375,143592.0,1.0,4
225035.3125,249057.453125,251581.765625,259239.75,220186.0625,246705.875,206096.859375,234000.515625,143593.0,1.0,4
225018.515625,249112.34375,251783.03125,259234.5625,220401.71875,246811.90625,206220.875,234077.5,143594.0,1.0,4
224961.015625,248944.71875,251182.921875,259135.3125,219878.859375,246547.703125,205906.875,233821.25,143595.0,1.0,4
224935.890625,248776.359375,250597.578125,259073.53125,219331.0625,246268.671875,205581.609375,233577.171875,143596.0,1.0,4
224987.9375,248852.0,250851.859375,259143.8125,219535.984375,246375.515625,205710.0,233696.265625,143597.0,1.0,4
225030.484375,249045.921875,251571.9375,259235.90625,220183.46875,246707.84375,206096.0625,233994.609375,143598.0,1.0,4
225015.921875,249098.21875,251779.8125,259232.765625,220398.84375,246816.640625,206220.421875,234072.484375,143599.0,1.0,4
224966.203125,248939.25,251188.375,259139.875,219879.65625,246552.890625,205909.375,233818.03125,143600.0,1.0,4
224945.828125,248785.296875,250606.34375,259080.78125,219334.734375,246271.078125,205583.3125,233574.578125,143601.0,1.0,4
224979.265625,248845.015625,250840.59375,259132.375,219516.3125,246353.875,205693.546875,233679.71875,143602.0,1.0,4
225022.796875,249036.890625,251563.265625,259225.984375,220164.609375,246682.890625,206080.328125,233985.3125,143603.0,1.0,4
225016.984375,249098.140625,251788.03125,259236.796875,220395.90625,246799.390625,206215.953125,234073.640625,143604.0,1.0,4
224974.875,248943.109375,251205.359375,259150.703125,219885.65625,246540.015625,205907.140625,233821.515625,143605.0,1.0,4
224952.796875,248785.125,250617.15625,259084.71875,219335.890625,246257.5,205576.6875,233571.625,143606.0,1.0,4
224981.859375,248844.046875,250842.109375,259125.21875,219513.0,246344.578125,205689.171875,233672.921875,143607.0,1.0,4
225034.953125,249045.734375,251569.703125,259235.1875,220174.53125,246686.203125,206088.71875,233989.34375,143608.0,1.0,4
225020.03125,249103.859375,251792.6875,259241.09375,220408.6875,246799.125,206218.453125,234079.109375,143609.0,1.0,4
224955.390625,248934.078125,251197.046875,259136.390625,219887.359375,246532.59375,205899.265625,233817.40625,143610.0,1.0,4
224935.8125,248774.84375,250606.703125,259072.203125,219336.34375,246254.8125,205574.015625,233568.5,143611.0,1.0,4
224982.75,248842.703125,250838.984375,259135.765625,219518.8125,246351.734375,205690.0625,233675.875,143612.0,1.0,4
225032.90625,249040.109375,251563.265625,259240.1875,220170.765625,246692.015625,206084.4375,233984.421875,143613.0,1.0,4
225016.0,249101.0,251789.828125,259233.578125,220405.28125,246807.4375,206220.0625,234071.953125,143614.0,1.0,4
224964.15625,248941.765625,251208.046875,259140.953125,219898.0,246546.453125,205911.96875,233821.96875,143615.0,1.0,4
224931.6875,248769.109375,250603.296875,259066.828125,219335.0,246255.078125,205572.125,233564.5625,143616.0,1.0,4
224972.828125,248830.0,250822.265625,259122.71875,219505.40625,246340.640625,205677.09375,233661.84375,143617.0,1.0,4
225015.5625,249020.265625,251540.203125,259215.875,220151.640625,246671.625,206065.125,233965.90625,143618.0,1.0,4
225007.59375,249090.4375,251784.1875,259229.109375,220401.53125,246800.46875,206213.53125,234066.671875,143619.0,1.0,4
224950.734375,248929.25,251198.21875,259129.859375,219888.0625,246534.921875,205901.328125,233810.34375,143620.0,1.0,4
224935.984375,248780.375,250610.09375,259075.140625,219339.46875,246262.953125,205581.4375,233574.125,143621.0,1.0,4
224972.46875,248836.34375,250825.390625,259130.140625,219507.8125,246348.953125,205686.84375,233672.84375,143622.0,1.0,4
225017.703125,249030.453125,251541.09375,259218.375,220150.484375,246677.078125,206068.15625,233968.78125,143623.0,1.0,4
225001.25,249089.1875,251780.4375,259220.34375,220395.28125,246796.890625,206209.6875,234059.515625,143624.0,1.0,4
224943.9375,248930.859375,251203.3125,259121.640625,219893.609375,246537.15625,205904.734375,233810.078125,143625.0,1.0,4
224919.0,248765.453125,250597.3125,259052.171875,219331.515625,246250.96875,205570.171875,233555.984375,143626.0,1.0,4
224959.59375,248825.53125,250807.5,259108.9375,219494.046875,246333.3125,205675.84375,233655.671875,143627.0,1.0,4
225011.09375,249026.25,251532.0625,259208.90625,220139.75,246663.84375,206065.921875,233961.4375,143628.0,1.0,4
225005.09375,249096.171875,251788.5625,259219.453125,220398.3125,246796.4375,206216.125,234062.203125,143629.0,1.0,4
224946.984375,248936.671875,251211.53125,259122.71875,219898.53125,246541.453125,205909.46875,233809.984375,143630.0,1.0,4
224927.671875,248780.375,250612.59375,259065.40625,219344.296875,246261.96875,205581.15625,233564.65625,143631.0,1.0,4
224968.625,248839.5625,250815.90625,259124.046875,219500.484375,246337.96875,205679.328125,233657.375,143632.0,1.0,4
225015.375,249031.796875,251534.390625,259221.234375,220146.546875,246669.21875,206068.703125,233960.90625,143633.0,1.0,4
225008.5,249096.875,251793.484375,259230.890625,220409.21875,246804.390625,206224.890625,234063.90625,143634.0,1.0,4
224956.28125,248938.359375,251223.421875,259133.984375,219913.109375,246553.078125,205921.890625,233815.53125,143635.0,1.0,4
224928.125,248771.34375,250610.28125,259062.8125,219343.21875,246258.03125,205573.390625,233558.65625,143636.0,1.0,4
224972.203125,248836.265625,250811.96875,259120.921875,219499.328125,246340.734375,205672.53125,233660.3125,143637.0,1.0,4
225029.421875,249043.0625,251539.921875,259228.484375,220153.96875,246681.734375,206071.03125,233971.546875,143638.0,1.0,4
225023.421875,249116.28125,251804.84375,259241.265625,220421.828125,246818.078125,206230.4375,234075.609375,143639.0,1.0,4
224968.796875,248959.46875,251238.359375,259148.640625,219928.484375,246564.609375,205931.109375,233831.890625,143640.0,1.0,4
224941.796875,248792.453125,250622.4375,259078.28125,219356.71875,246269.296875,205586.34375,233572.609375,143641.0,1.0,4
224982.390625,248846.453125,250811.265625,259133.53125,219496.015625,246336.796875,205675.21875,233656.03125,143642.0,1.0,4
225022.171875,249036.796875,251526.875,259218.640625,220134.65625,246662.515625,206057.796875,233954.640625,143643.0,1.0,4
225010.1875,249104.75,251797.421875,259230.453125,220403.671875,246798.59375,206213.0,234058.1875,143644.0,1.0,4
224958.703125,248949.0,251239.078125,259143.90625,219918.828125,246555.9375,205918.5,233818.296875,143645.0,1.0,4
224941.171875,248791.109375,250630.390625,259086.953125,219355.46875,246270.28125,205584.109375,233567.6875,143646.0,1.0,4
224983.109375,248848.515625,250818.0625,259134.609375,219495.390625,246341.625,205675.3125,233659.34375,143647.0,1.0,4
225025.390625,249039.390625,251533.84375,259220.078125,220135.09375,246666.796875,206060.203125,233958.765625,143648.0,1.0,4
225020.03125,249112.96875,251810.65625,259237.328125,220416.734375,246809.578125,206222.203125,234068.8125,143649.0,1.0,4
224974.609375,248966.34375,251257.9375,259155.53125,219940.546875,246571.40625,205936.828125,233833.046875,143650.0,1.0,4
224939.734375,248791.921875,250630.5625,259079.265625,219361.640625,246269.65625,205590.375,233567.78125,143651.0,1.0,4
224971.296875,248837.953125,250803.125,259124.140625,219490.125,246327.765625,205669.046875,233644.671875,143652.0,1.0,4
225010.546875,249028.9375,251517.75,259214.265625,220131.96875,246652.578125,206053.40625,233946.421875,143653.0,1.0,4
225005.984375,249105.640625,251802.96875,259229.203125,220420.21875,246799.921875,206224.171875,234062.203125,143654.0,1.0,4
224954.140625,248951.78125,251249.359375,259138.453125,219939.203125,246558.53125,205933.609375,233823.046875,143655.0,1.0,4
224926.234375,248781.640625,250626.640625,259066.203125,219361.1875,246265.359375,205587.421875,233561.078125,143656.0,1.0,4
224967.453125,248832.140625,250799.640625,259119.21875,219486.8125,246328.578125,205664.3125,233639.484375,143657.0,1.0,4
225017.078125,249030.546875,251520.890625,259215.609375,220130.984375,246657.40625,206052.609375,233942.84375,143658.0,1.0,4
225018.59375,249118.15625,251819.140625,259237.15625,220425.765625,246811.109375,206232.671875,234066.40625,143659.0,1.0,4
224965.671875,248967.953125,251267.5,259149.890625,219949.40625,246568.984375,205944.609375,233832.78125,143660.0,1.0,4
224928.921875,248790.84375,250631.734375,259073.09375,219362.265625,246263.84375,205591.171875,233567.875,143661.0,1.0,4
224967.90625,248835.8125,250793.296875,259120.390625,219481.984375,246321.953125,205667.265625,233642.703125,143662.0,1.0,4
225017.53125,249032.328125,251509.796875,259216.671875,220126.875,246650.96875,206051.625,233944.984375,143663.0,1.0,4
225003.046875,249102.0625,251797.859375,259225.4375,220413.609375,246795.09375,206213.0,234055.59375,143664.0,1.0,4
224951.0,248953.109375,251254.0,259135.5,219943.328125,246554.234375,205927.4375,233822.421875,143665.0,1.0,4
224927.9375,248787.359375,250630.84375,259069.25,219366.015625,246265.625,205588.5,233567.515625,143666.0,1.0,4
224965.765625,248832.234375,250790.875,259117.796875,219483.6875,246330.09375,205666.640625,233646.90625,143667.0,1.0,4
225009.390625,249022.5,251503.546875,259213.109375,220121.0625,246652.5,206044.296875,233948.65625,143668.0,1.0,4
225001.078125,249102.96875,251806.984375,259232.140625,220422.71875,246804.046875,206223.109375,234078.5625,143669.0,1.0,4
224940.015625,248941.5,251255.34375,259135.234375,219943.234375,246553.609375,205930.03125,233838.78125,143670.0,1.0,4
224915.59375,248773.40625,250626.09375,259057.890625,219358.953125,246257.3125,205578.84375,233575.296875,143671.0,1.0,4
224953.234375,248823.296875,250779.25,259104.734375,219467.765625,246316.0625,205649.375,233650.484375,143672.0,1.0,4
225001.078125,249016.6875,251495.671875,259204.25,220109.078125,246645.875,206039.109375,233958.484375,143673.0,1.0,4
224989.359375,249095.90625,251800.734375,259214.359375,220409.3125,246796.984375,206215.859375,234079.90625,143674.0,1.0,4
224941.078125,248950.171875,251267.0625,259129.59375,219949.046875,246569.171875,205938.34375,233853.96875,143675.0,1.0,4
224924.90625,248785.203125,250643.0,259066.203125,219373.078125,246283.78125,205596.984375,233596.390625,143676.0,1.0,4
224974.078125,248836.4375,250796.859375,259121.640625,219480.1875,246342.15625,205669.671875,233667.734375,143677.0,1.0,4
225022.078125,249029.375,251509.703125,259214.796875,220114.265625,246665.90625,206051.09375,233960.453125,143678.0,1.0,4
225005.984375,249097.328125,251809.9375,259223.5625,220411.546875,246810.390625,206218.8125,234074.09375,143679.0,1.0,4
224954.765625,248947.296875,251273.859375,259131.65625,219946.625,246574.0,205936.5625,233843.96875,143680.0,1.0,4
224928.65625,248777.25,250640.671875,259051.453125,219360.203125,246277.4375,205589.484375,233578.953125,143681.0,1.0,4
224967.71875,248822.140625,250783.28125,259105.28125,219460.96875,246329.015625,205657.96875,233650.65625,143682.0,1.0,4
225013.5,249016.140625,251491.640625,259202.734375,220095.84375,246652.234375,206038.484375,233953.125,143683.0,1.0,4
225002.859375,249101.171875,251807.078125,259220.609375,220410.828125,246816.28125,206224.625,234085.890625,143684.0,1.0,4
224945.46875,248950.171875,251272.875,259129.953125,219952.53125,246581.421875,205942.015625,233857.90625,143685.0,1.0,4
224912.296875,248770.28125,250629.046875,259048.59375,219356.8125,246278.953125,205583.84375,233585.21875,143686.0,1.0,4
224952.265625,248811.9375,250765.75,259096.34375,219451.140625,246331.53125,205650.71875,233652.1875,143687.0,1.0,4
225008.40625,249018.65625,251485.65625,259201.21875,220096.5625,246663.9375,206041.609375,233957.859375,143688.0,1.0,4
225002.234375,249099.125,251808.421875,259218.203125,220415.125,246820.578125,206223.734375,234083.84375,143689.0,1.0,4
224959.5,248953.734375,251286.90625,259135.765625,219965.21875,246591.078125,205950.5,233859.96875,143690.0,1.0,4
224938.84375,248791.828125,250654.625,259065.671875,219382.734375,246295.40625,205608.796875,233603.28125,143691.0,1.0,4
224967.375,248823.5625,250773.625,259101.875,219462.484375,246330.890625,205663.15625,233663.0,143692.0,1.0,4
225004.203125,249007.296875,251471.265625,259190.21875,220087.265625,246644.265625,206033.390625,233952.5,143693.0,1.0,4
224991.234375,249084.0,251795.71875,259204.25,220407.796875,246801.359375,206217.203125,234080.359375,143694.0,1.0,4
224950.5625,248954.453125,251284.9375,259127.625,219970.6875,246583.03125,205952.65625,233864.171875,143695.0,1.0,4
224927.21875,248791.734375,250644.515625,259059.0625,219380.953125,246287.796875,205602.359375,233599.796875,143696.0,1.0,4
224961.46875,248825.265625,250761.640625,259103.046875,219457.3125,246325.53125,205652.0625,233655.84375,143697.0,1.0,4
224998.84375,249006.484375,251460.625,259193.703125,220077.15625,246633.1875,206015.0625,233940.703125,143698.0,1.0,4
224996.875,249099.296875,251801.4375,259209.96875,220408.78125,246801.984375,206211.65625,234077.5,143699.0,1.0,4
224950.296875,248962.0625,251289.953125,259123.703125,219968.265625,246583.828125,205948.625,233859.421875,143700.0,1.0,4
224919.265625,248785.921875,250639.59375,259046.984375,219369.0625,246276.53125,205591.4375,233585.21875,143701.0,1.0,4
224952.796875,248817.671875,250752.078125,259091.0625,219443.359375,246315.875,205643.921875,233639.671875,143702.0,1.0,4
225005.90625,249012.84375,251465.71875,259191.640625,220080.46875,246641.140625,206027.84375,233939.890625,143703.0,1.0,4
225012.15625,249114.5,251821.828125,259225.171875,220426.203125,246822.09375,206234.28125,234085.0,143704.0,1.0,4
224951.546875,248965.0,251301.390625,259132.09375,219975.0625,246587.40625,205956.046875,233854.953125,143705.0,1.0,4
224915.515625,248784.21875,250645.234375,259050.46875,219369.953125,246279.125,205593.234375,233580.65625,143706.0,1.0,4
224949.671875,248816.140625,250752.875,259091.421875,219438.078125,246315.25,205640.625,233636.359375,143707.0,1.0,4
225002.140625,249008.09375,251459.28125,259192.09375,220067.78125,246638.375,206020.421875,233936.9375,143708.0,1.0,4
225004.921875,249106.53125,251813.78125,259223.390625,220415.484375,246817.984375,206232.046875,234087.859375,143709.0,1.0,4
224949.484375,248964.375,251302.734375,259132.640625,219975.515625,246593.484375,205964.890625,233866.484375,143710.0,1.0,4
224923.640625,248792.71875,250654.796875,259059.40625,219377.28125,246290.578125,205609.6875,233599.609375,143711.0,1.0,4
224960.9375,248825.796875,250753.859375,259100.8125,219437.015625,246316.953125,205651.078125,233647.4375,143712.0,1.0,4
225006.4375,249018.828125,251454.453125,259195.84375,220061.421875,246638.734375,206022.65625,233936.9375,143713.0,1.0,4
225000.1875,249108.59375,251807.609375,259219.8125,220406.0,246812.0,206222.03125,234079.015625,143714.0,1.0,4
224955.390625,248979.3125,251312.5625,259136.921875,219981.234375,246590.71875,205964.984375,233864.53125,143715.0,1.0,4
224919.71875,248796.921875,250652.203125,259052.796875,219374.25,246281.28125,205603.15625,233588.609375,143716.0,1.0,4
224955.296875,248824.453125,250741.53125,259098.03125,219430.296875,246314.359375,205641.25,233637.078125,143717.0,1.0,4
225005.90625,249017.21875,251444.171875,259196.5625,220058.484375,246636.671875,206016.3125,233934.171875,143718.0,1.0,4
225007.25,249115.5625,251811.28125,259220.609375,220412.265625,246816.015625,206221.765625,234080.171875,143719.0,1.0,4
224960.125,248985.125,251321.234375,259142.03125,219992.859375,246602.421875,205964.359375,233866.046875,143720.0,1.0,4
224930.171875,248812.296875,250667.3125,259058.703125,219390.34375,246297.375,205604.59375,233594.421875,143721.0,1.0,4
224961.28125,248831.796875,250746.984375,259096.0625,219432.1875,246314.71875,205631.953125,233635.109375,143722.0,1.0,4
225013.0625,249027.328125,251453.203125,259197.453125,220062.046875,246638.90625,206013.625,233939.984375,143723.0,1.0,4
225004.375,249117.09375,251815.03125,259219.0,220414.5,246814.40625,206217.46875,234081.875,143724.0,1.0,4
224950.203125,248974.390625,251316.140625,259133.265625,219990.171875,246596.96875,205958.90625,233865.6875,143725.0,1.0,4
224921.234375,248800.9375,250659.453125,259058.15625,219387.125,246293.265625,205603.96875,233595.5,143726.0,1.0,4
224951.625,248820.796875,250734.546875,259095.265625,219424.5,246311.859375,205629.890625,233632.421875,143727.0,1.0,4
224994.546875,249001.65625,251427.71875,259183.0625,220041.40625,246621.65625,205996.8125,233922.1875,143728.0,1.0,4
224998.484375,249104.21875,251809.671875,259214.625,220410.734375,246813.15625,206218.015625,234079.640625,143729.0,1.0,4
224958.703125,248980.921875,251332.59375,259143.640625,220008.859375,246612.796875,205979.296875,233880.625,143730.0,1.0,4
224924.546875,248803.359375,250666.421875,259058.96875,219399.90625,246298.984375,205614.421875,233603.546875,143731.0,1.0,4
224951.8125,248822.046875,250731.0625,259091.421875,219428.34375,246310.953125,205628.546875,233632.0625,143732.0,1.0,4
225005.90625,249015.078125,251439.171875,259202.828125,220058.125,246630.140625,206006.03125,233933.1875,143733.0,1.0,4
225000.453125,249109.21875,251814.3125,259218.109375,220420.75,246806.984375,206215.859375,234082.140625,143734.0,1.0,4
224947.4375,248970.546875,251327.3125,259127.453125,220005.8125,246594.203125,205962.84375,233871.046875,143735.0,1.0,4
224916.9375,248791.375,250666.875,259053.421875,219399.015625,246288.25,205602.796875,233597.46875,143736.0,1.0,4
224958.15625,248819.28125,250736.421875,259099.375,219430.9375,246308.09375,205631.234375,233637.515625,143737.0,1.0,4
224997.5,248997.015625,251421.015625,259186.1875,220040.15625,246616.90625,205995.5625,233920.21875,143738.0,1.0,4
224990.703125,249095.546875,251799.203125,259208.1875,220409.21875,246805.828125,206213.890625,234072.75,143739.0,1.0,4
224939.921875,248960.984375,251316.40625,259118.25,219998.484375,246593.578125,205965.4375,233866.140625,143740.0,1.0,4
224917.203125,248786.1875,250657.125,259049.9375,219391.40625,246292.453125,205608.15625,233596.578125,143741.0,1.0,4
224951.625,248805.140625,250713.984375,259087.390625,219412.421875,246304.515625,205624.34375,233627.6875,143742.0,1.0,4
225008.9375,249003.453125,251416.8125,259192.1875,220036.65625,246626.75,206002.53125,233923.265625,143743.0,1.0,4
225020.46875,249117.71875,251820.484375,259230.0,220423.4375,246826.75,206236.515625,234089.734375,143744.0,1.0,4
224963.4375,248981.90625,251342.15625,259138.984375,220014.765625,246613.328125,205983.671875,233877.21875,143745.0,1.0,4
224927.046875,248797.546875,250673.3125,259058.15625,219402.3125,246297.734375,205613.34375,233595.328125,143746.0,1.0,4
224954.21875,248814.625,250721.578125,259090.171875,219420.015625,246305.234375,205630.25,233621.875,143747.0,1.0,4
225003.75,249000.40625,251414.3125,259193.4375,220040.953125,246624.25,206004.765625,233916.109375,143748.0,1.0,4
224998.65625,249093.9375,251803.046875,259214.359375,220416.734375,246809.84375,206222.84375,234068.375,143749.0,1.0,4
224950.5625,248966.53125,251334.921875,259132.375,220015.296875,246604.125,205976.15625,233865.328125,143750.0,1.0,4
224923.734375,248789.859375,250667.140625,259057.453125,219400.171875,246291.296875,205610.125,233589.78125,143751.0,1.0,4
224952.703125,248805.234375,250706.390625,259089.09375,219409.5625,246293.96875,205624.4375,233617.9375,143752.0,1.0,4
225003.75,248993.890625,251397.6875,259188.25,220026.46875,246610.203125,205995.203125,233911.546875,143753.0,1.0,4
225004.375,249102.609375,251802.15625,259216.140625,220415.390625,246812.359375,206226.5,234075.25,143754.0,1.0,4
224948.859375,248971.984375,251332.765625,259131.109375,220013.234375,246601.984375,205981.078125,233870.96875,143755.0,1.0,4
224916.671875,248788.15625,250659.265625,259047.25,219394.546875,246286.546875,205610.84375,233587.546875,143756.0,1.0,4
224946.625,248799.25,250696.640625,259083.546875,219402.140625,246287.984375,205618.984375,233611.765625,143757.0,1.0,4
224994.28125,248982.703125,251386.421875,259176.890625,220017.078125,246601.984375,205987.25,233904.671875,143758.0,1.0,4
225002.0625,249096.609375,251801.265625,259204.4375,220415.21875,246810.296875,206223.90625,234073.296875,143759.0,1.0,4
224955.484375,248972.78125,251343.671875,259123.875,220024.859375,246608.328125,205984.125,233871.40625,143760.0,1.0,4
224927.40625,248794.59375,250672.859375,259048.140625,219412.515625,246298.265625,205616.5625,233594.421875,143761.0,1.0,4
224961.375,248805.234375,250705.3125,259085.25,219415.828125,246299.78125,205621.9375,233618.484375,143762.0,1.0,4
225001.703125,248985.75,251385.796875,259174.125,220015.203125,246601.984375,205980.640625,233898.59375,143763.0,1.0,4
225008.671875,249098.140625,251803.046875,259213.640625,220410.390625,246805.65625,206217.65625,234067.921875,143764.0,1.0,4
224960.75,248974.3125,251350.5625,259135.9375,220025.75,246613.15625,205984.390625,233874.265625,143765.0,1.0,4
224922.75,248788.25,250670.265625,259053.15625,219405.984375,246291.5625,205609.328125,233587.453125,143766.0,1.0,4
224947.34375,248790.390625,250683.953125,259071.65625,219389.890625,246276.8125,205601.015625,233596.9375,143767.0,1.0,4
224996.609375,248971.171875,251368.890625,259167.953125,219998.9375,246587.578125,205966.78125,233886.875,143768.0,1.0,4
225002.421875,249082.75,251793.21875,259206.75,220403.046875,246794.5625,206206.390625,234062.65625,143769.0,1.0,4
224958.78125,248963.390625,251350.390625,259132.640625,220024.59375,246602.609375,205976.515625,233872.21875,143770.0,1.0,4
224933.65625,248789.765625,250680.546875,259061.203125,219413.140625,246291.5625,205612.453125,233596.125,143771.0,1.0,4
224966.75,248799.6875,250700.75,259092.84375,219403.65625,246287.984375,205613.53125,233618.125,143772.0,1.0,4
225007.875,248977.703125,251375.953125,259177.34375,220000.0,246589.546875,205969.1875,233899.9375,143773.0,1.0,4
225015.296875,249101.703125,251807.796875,259217.84375,220414.9375,246799.21875,206214.34375,234076.15625,143774.0,1.0,4
224964.421875,248975.921875,251360.671875,259133.796875,220038.984375,246600.8125,205979.375,233876.421875,143775.0,1.0,4
224938.84375,248800.40625,250687.875,259063.34375,219425.65625,246293.96875,205614.0625,233597.734375,143776.0,1.0,4
224966.203125,248810.59375,250697.453125,259089.90625,219405.890625,246285.5625,205607.625,233610.515625,143777.0,1.0,4
225017.4375,248997.640625,251384.359375,259187.890625,220016.1875,246601.4375,205979.296875,233907.078125,143778.0,1.0,4
225013.140625,249103.40625,251808.328125,259214.625,220419.765625,246800.90625,206217.734375,234076.78125,143779.0,1.0,4
224972.46875,248984.671875,251374.703125,259146.140625,220053.03125,246612.265625,205997.703125,233892.59375,143780.0,1.0,4
224940.453125,248796.921875,250693.953125,259067.1875,219430.296875,246298.625,205627.46875,233611.0625,143781.0,1.0,4
224959.40625,248790.9375,250686.8125,259085.703125,219395.703125,246281.546875,205612.453125,233616.78125,143782.0,1.0,4
225006.890625,248974.75,251365.671875,259180.296875,220000.28125,246589.28125,205976.609375,233904.40625,143783.0,1.0,4
225014.390625,249098.140625,251807.875,259218.375,220418.703125,246802.4375,206223.734375,234083.65625,143784.0,1.0,4
224972.90625,248983.15625,251380.515625,259148.109375,220057.140625,246619.859375,206005.40625,233898.046875,143785.0,1.0,4
224937.78125,248795.140625,250695.484375,259065.578125,219430.03125,246297.640625,205627.296875,233609.171875,143786.0,1.0,4
224961.28125,248792.0,250686.984375,259080.78125,219395.796875,246276.09375,205609.59375,233613.65625,143787.0,1.0,4
225011.453125,248978.234375,251368.625,259178.140625,219996.703125,246587.40625,205971.875,233901.0,143788.0,1.0,4
225026.734375,249107.078125,251822.1875,259228.296875,220428.625,246813.25,206232.40625,234092.15625,143789.0,1.0,4
224979.609375,248989.5,251395.359375,259152.84375,220069.5625,246629.34375,206014.078125,233908.953125,143790.0,1.0,4
224923.015625,248784.859375,250687.515625,259048.328125,219420.5625,246291.734375,205618.53125,233600.5,143791.0,1.0,4
224944.125,248781.984375,250667.859375,259068.890625,219374.96875,246265.359375,205591.625,233593.078125,143792.0,1.0,4
224999.828125,248974.578125,251353.6875,259172.421875,219981.046875,246580.25,205959.984375,233886.96875,143793.0,1.0,4
225004.46875,249094.015625,251803.046875,259215.34375,220412.34375,246799.84375,206216.578125,234075.609375,143794.0,1.0,4
224961.203125,248983.96875,251381.765625,259146.859375,220063.484375,246625.21875,206005.578125,233898.765625,143795.0,1.0,4
224928.5625,248798.53125,250692.703125,259064.59375,219435.40625,246303.453125,205623.453125,233605.6875,143796.0,1.0,4
224943.140625,248782.34375,250663.296875,259075.59375,219379.4375,246266.25,205591.09375,233595.328125,143797.0,1.0,4
224993.125,248967.515625,251338.046875,259160.796875,219976.9375,246568.1875,205952.65625,233880.890625,143798.0,1.0,4
225011.359375,249101.53125,251801.171875,259211.9375,220415.84375,246798.859375,206217.109375,234073.640625,143799.0,1.0,4
224977.828125,248994.78125,251394.546875,259153.015625,220067.953125,246629.96875,206007.71875,233897.0625,143800.0,1.0,4
224934.828125,248799.515625,250697.53125,259061.296875,219430.484375,246301.578125,205622.734375,233600.59375,143801.0,1.0,4
224961.28125,248794.953125,250671.78125,259082.390625,219384.96875,246279.046875,205600.203125,233601.765625,143802.0,1.0,4
225021.375,248989.328125,251355.921875,259188.0625,219994.546875,246596.078125,205971.15625,233902.609375,143803.0,1.0,4
225024.953125,249108.328125,251810.65625,259227.40625,220426.125,246814.046875,206224.09375,234086.515625,143804.0,1.0,4
224970.046875,248988.875,251389.71875,259143.71875,220070.1875,246628.53125,206004.953125,233899.390625,143805.0,1.0,4
224930.984375,248801.390625,250697.71875,259058.15625,219436.828125,246306.9375,205626.9375,233608.828125,143806.0,1.0,4
224961.46875,248794.234375,250667.5,259085.15625,219380.59375,246282.078125,205602.4375,233607.75,143807.0,1.0,4
225016.90625,248982.359375,251340.90625,259182.796875,219975.515625,246583.921875,205962.03125,233893.671875,143808.0,1.0,4
225017.703125,249103.5,251800.375,259215.78125,220412.703125,246801.53125,206217.828125,234077.21875,143809.0,1.0,4
224971.484375,248988.515625,251390.078125,259140.328125,220068.484375,246624.328125,206007.1875,233897.515625,143810.0,1.0,4
224936.609375,248801.921875,250698.515625,259053.328125,219435.671875,246303.984375,205629.625,233604.625,143811.0,1.0,4
224967.09375,248801.65625,250663.46875,259081.140625,219373.0,246275.015625,205597.96875,233598.0,143812.0,1.0,4
225020.65625,248982.703125,251333.484375,259182.171875,219964.59375,246580.171875,205956.046875,233882.578125,143813.0,1.0,4
225034.875,249119.0625,251811.8125,259235.640625,220418.96875,246811.640625,206230.25,234082.765625,143814.0,1.0,4
224980.515625,249005.234375,251403.671875,259145.421875,220078.5,246637.921875,206021.84375,233903.6875,143815.0,1.0,4
224929.1875,248805.59375,250699.6875,259050.5625,219435.046875,246308.8125,205632.578125,233604.625,143816.0,1.0,4
224941.703125,248787.359375,250644.515625,259066.390625,219355.65625,246263.390625,205585.28125,233583.875,143817.0,1.0,4
224988.109375,248967.0625,251309.890625,259163.65625,219943.671875,246561.921875,205939.234375,233867.03125,143818.0,1.0,4
224997.40625,249088.65625,251784.359375,259208.09375,220394.734375,246785.71875,206205.671875,234062.65625,143819.0,1.0,4
224953.6875,248986.203125,251390.0,259131.75,220064.640625,246617.53125,206002.984375,233889.734375,143820.0,1.0,4
224920.78125,248795.765625,250696.375,259045.203125,219426.90625,246294.328125,205618.71875,233593.171875,143821.0,1.0,4
224944.484375,248778.953125,250641.203125,259062.1875,219347.0625,246249.09375,205573.203125,233576.359375,143822.0,1.0,4
225003.75,248969.484375,251315.0625,259166.96875,219941.53125,246557.28125,205933.6875,233863.1875,143823.0,1.0,4
225016.71875,249103.140625,251799.828125,259212.484375,220398.40625,246793.484375,206204.78125,234059.078125,143824.0,1.0,4
224969.328125,248997.28125,251409.65625,259139.15625,220072.0625,246628.359375,206007.90625,233886.703125,143825.0,1.0,4
224930.171875,248811.40625,250710.859375,259048.5,219439.421875,246306.3125,205628.640625,233594.6875,143826.0,1.0,4
224944.65625,248792.984375,250644.25,259061.015625,219356.09375,246256.59375,205582.59375,233577.96875,143827.0,1.0,4
224980.953125,248961.609375,251295.40625,259144.890625,219932.59375,246544.484375,205930.46875,233855.859375,143828.0,1.0,4
224994.1875,249091.15625,251782.046875,259192.546875,220391.78125,246778.5625,206204.78125,234060.234375,143829.0,1.0,4
224959.5,248995.40625,251404.390625,259130.765625,220075.640625,246617.625,206008.078125,233898.859375,143830.0,1.0,4
224925.703125,248809.4375,250711.390625,259043.140625,219441.75,246295.046875,205628.734375,233608.015625,143831.0,1.0,4
224954.9375,248796.75,250654.078125,259072.203125,219358.59375,246250.15625,205586.078125,233591.125,143832.0,1.0,4
225005.71875,248974.484375,251315.78125,259172.328125,219938.765625,246541.453125,205936.109375,233871.5,143833.0,1.0,4
225010.015625,249095.984375,251797.6875,259214.71875,220393.21875,246768.71875,206202.09375,234063.015625,143834.0,1.0,4
224969.421875,248993.53125,251418.78125,259141.84375,220078.234375,246610.203125,206009.15625,233893.671875,143835.0,1.0,4
224929.546875,248800.046875,250716.21875,259051.90625,219437.015625,246285.390625,205625.421875,233594.15625,143836.0,1.0,4
224946.09375,248777.78125,250639.78125,259058.515625,219337.5,246234.078125,205570.96875,233563.140625,143837.0,1.0,4
225000.453125,248957.234375,251297.8125,259158.125,219918.828125,246535.640625,205923.953125,233841.09375,143838.0,1.0,4
225012.078125,249092.234375,251791.34375,259202.28125,220387.765625,246777.671875,206201.828125,234039.40625,143839.0,1.0,4
224966.46875,248995.140625,251420.65625,259129.59375,220085.03125,246625.671875,206020.328125,233879.71875,143840.0,1.0,4
224931.515625,248811.859375,250724.09375,259041.53125,219453.1875,246300.5,205640.34375,233583.609375,143841.0,1.0,4
224952.796875,248790.390625,250641.125,259053.59375,219348.765625,246238.0,205576.78125,233549.71875,143842.0,1.0,4
225007.25,248967.78125,251298.265625,259156.953125,219929.203125,246533.578125,205924.03125,233832.609375,143843.0,1.0,4
225017.171875,249096.4375,251798.3125,259208.546875,220401.265625,246773.640625,206205.046875,234046.109375,143844.0,1.0,4
224968.359375,248989.859375,251423.703125,259133.4375,220087.0,246608.0625,206012.375,233887.5,143845.0,1.0,4
224935.359375,248804.875,250727.484375,259051.1875,219452.390625,246292.453125,205634.625,233604.4375,143846.0,1.0,4
224960.125,248782.96875,250643.71875,259069.34375,219346.34375,246239.171875,205576.328125,233581.109375,143847.0,1.0,4
225005.28125,248950.25,251288.34375,259160.359375,219911.9375,246526.34375,205915.359375,233853.96875,143848.0,1.0,4
225023.34375,249091.703125,251798.671875,259213.546875,220390.625,246776.328125,206205.484375,234067.125,143849.0,1.0,4
224975.6875,248987.09375,251433.984375,259144.265625,220086.015625,246620.3125,206019.796875,233903.15625,143850.0,1.0,4
224931.515625,248790.03125,250727.125,259045.375,219443.09375,246292.625,205633.015625,233602.46875,143851.0,1.0,4
224953.515625,248767.859375,250631.734375,259056.734375,219331.59375,246233.71875,205571.5,233570.28125,143852.0,1.0,4
225008.671875,248951.421875,251285.46875,259155.53125,219907.921875,246527.59375,205916.34375,233847.984375,143853.0,1.0,4
225031.390625,249096.4375,251804.578125,259213.375,220395.28125,246778.5625,206206.03125,234064.625,143854.0,1.0,4
224987.9375,248996.5625,251445.875,259144.265625,220097.734375,246624.78125,206020.234375,233904.21875,143855.0,1.0,4
224946.0,248806.125,250738.390625,259047.96875,219456.59375,246297.734375,205631.40625,233602.65625,143856.0,1.0,4
224964.15625,248782.34375,250639.953125,259063.171875,219342.5,246239.171875,205567.484375,233569.578125,143857.0,1.0,4
225013.859375,248957.40625,251283.59375,259161.515625,219910.15625,246531.078125,205909.28125,233844.9375,143858.0,1.0,4
225024.671875,249099.75,251794.5625,259213.734375,220393.390625,246777.84375,206196.546875,234058.265625,143859.0,1.0,4
224974.4375,248996.484375,251438.265625,259142.5625,220103.1875,246627.546875,206018.1875,233905.921875,143860.0,1.0,4
224939.296875,248806.578125,250739.921875,259059.140625,219466.515625,246305.953125,205636.421875,233615.796875,143861.0,1.0,4
224958.515625,248782.34375,250638.609375,259073.09375,219349.125,246250.25,205575.703125,233587.8125,143862.0,1.0,4
224999.46875,248949.359375,251275.109375,259157.84375,219910.59375,246536.4375,205918.140625,233862.109375,143863.0,1.0,4
225012.515625,249086.78125,251792.140625,259210.328125,220397.6875,246788.125,206210.234375,234080.265625,143864.0,1.0,4
224968.796875,248990.75,251444.625,259139.96875,220111.578125,246636.40625,206031.859375,233929.703125,143865.0,1.0,4
224921.40625,248793.078125,250732.40625,259033.390625,219466.15625,246307.390625,205642.40625,233625.8125,143866.0,1.0,4
224941.703125,248765.0,250618.765625,259046.53125,219334.453125,246242.296875,205571.6875,233585.84375,143867.0,1.0,4
224998.84375,248944.890625,251267.140625,259153.203125,219903.71875,246535.8125,205919.5625,233867.75,143868.0,1.0,4
225009.65625,249082.390625,251788.75,259207.65625,220394.203125,246786.875,206213.625,234081.875,143869.0,1.0,4
224963.53125,248979.765625,251440.0625,259138.625,220109.796875,246637.828125,206039.640625,233928.8125,143870.0,1.0,4
224933.578125,248793.796875,250741.796875,259059.765625,219474.375,246317.9375,205660.90625,233638.140625,143871.0,1.0,4
224951.09375,248769.921875,250621.71875,259066.828125,219334.90625,246243.09375,205580.984375,233591.46875,143872.0,1.0,4
225002.140625,248941.5,251260.703125,259162.859375,219895.046875,246530.359375,205921.359375,233863.28125,143873.0,1.0,4
225018.953125,249082.390625,251791.34375,259218.640625,220396.796875,246786.515625,206217.5625,234083.03125,143874.0,1.0,4
224973.265625,248993.796875,251454.546875,259143.1875,220120.703125,246641.40625,206045.0,233930.328125,143875.0,1.0,4
224937.59375,248809.34375,250751.171875,259050.734375,219479.203125,246317.125,205662.796875,233633.046875,143876.0,1.0,4
224961.46875,248784.859375,250629.671875,259065.765625,219341.96875,246245.96875,205585.0,233591.46875,143877.0,1.0,4
225007.515625,248954.546875,251257.578125,259154.0,219897.453125,246528.578125,205921.53125,233859.78125,143878.0,1.0,4
225014.578125,249093.75,251784.1875,259200.9375,220393.75,246783.03125,206216.484375,234075.078125,143879.0,1.0,4
224971.65625,249006.40625,251461.078125,259137.640625,220131.34375,246646.421875,206058.15625,233933.8125,143880.0,1.0,4
224937.15625,248822.9375,250764.765625,259062.453125,219504.0625,246334.921875,205687.015625,233650.65625,143881.0,1.0,4
224942.6875,248778.59375,250619.484375,259056.015625,219349.21875,246252.578125,205591.171875,233594.25,143882.0,1.0,4
224985.96875,248941.046875,251243.359375,259142.03125,219898.53125,246528.9375,205918.046875,233856.203125,143883.0,1.0,4
225002.5,249087.765625,251783.03125,259202.90625,220407.609375,246788.484375,206216.671875,234080.53125,143884.0,1.0,4
224962.265625,249001.75,251465.71875,259144.171875,220148.875,246654.90625,206058.78125,233941.765625,143885.0,1.0,4
224927.765625,248820.609375,250764.140625,259053.515625,219512.375,246334.5625,205677.71875,233646.28125,143886.0,1.0,4
224956.8125,248797.1875,250632.453125,259072.375,219365.9375,246264.015625,205598.328125,233601.84375,143887.0,1.0,4
225002.328125,248962.0625,251255.53125,259160.796875,219909.796875,246541.1875,205928.234375,233862.734375,143888.0,1.0,4
225008.40625,249101.171875,251791.34375,259204.4375,220408.15625,246791.875,206221.5,234079.1875,143889.0,1.0,4
224966.390625,249013.640625,251476.0,259142.46875,220148.25,246660.8125,206063.875,233942.21875,143890.0,1.0,4
224925.25,248812.296875,250760.296875,259054.234375,219497.890625,246329.5625,205669.859375,233641.359375,143891.0,1.0,4
224939.734375,248762.234375,250603.75,259050.828125,219324.171875,246232.734375,205570.34375,233577.796875,143892.0,1.0,4
224991.59375,248931.21875,251230.046875,259139.96875,219871.625,246511.5,205902.84375,233842.796875,143893.0,1.0,4
225007.78125,249076.859375,251776.765625,259195.578125,220381.859375,246774.0,206205.21875,234062.65625,143894.0,1.0,4
224965.765625,248991.828125,251467.0625,259134.15625,220130.453125,246643.28125,206050.453125,233925.859375,143895.0,1.0,4
224924.8125,248800.234375,250755.65625,259044.578125,219487.25,246316.765625,205664.046875,233628.3125,143896.0,1.0,4
224941.34375,248764.90625,250603.125,259051.71875,219323.46875,246234.875,205574.90625,233577.0,143897.0,1.0,4
225008.140625,248954.015625,251237.546875,259159.1875,219881.265625,246527.953125,205916.703125,233857.46875,143898.0,1.0,4
225008.859375,249086.875,251771.046875,259197.28125,220378.640625,246775.25,206201.296875,234066.859375,143899.0,1.0,4
224969.328125,249005.953125,251471.265625,259139.96875,220135.640625,246649.359375,206050.8125,233936.140625,143900.0,1.0,4
224932.234375,248816.765625,250769.0625,259053.421875,219498.875,246326.34375,205670.5625,233641.09375,143901.0,1.0,4
224943.3125,248772.328125,250603.03125,259051.1875,219320.25,246235.328125,205566.5,233571.71875,143902.0,1.0,4
224996.421875,248941.578125,251222.53125,259147.84375,219864.109375,246513.734375,205896.328125,233831.984375,143903.0,1.0,4
225017.796875,249096.96875,251777.84375,259204.875,220385.078125,246780.703125,206208.359375,234063.28125,143904.0,1.0,4
224981.578125,249021.78125,251485.203125,259149.0,220150.03125,246665.453125,206069.328125,233939.09375,143905.0,1.0,4
224924.90625,248812.125,250761.375,259038.671875,219492.890625,246329.109375,205671.46875,233627.78125,143906.0,1.0,4
224940.015625,248765.8125,250593.90625,259044.921875,219312.46875,246233.0,205569.0,233569.65625,143907.0,1.0,4
224988.203125,248925.3125,251208.671875,259138.359375,219850.25,246503.28125,205890.953125,233827.6875,143908.0,1.0,4
224999.28125,249069.796875,251762.8125,259188.515625,220368.09375,246759.78125,206193.78125,234049.953125,143909.0,1.0,4
224959.40625,248991.109375,251473.59375,259130.046875,220133.40625,246639.078125,206052.34375,233923.265625,143910.0,1.0,4
224921.6875,248798.4375,250767.71875,259043.046875,219491.8125,246315.34375,205667.0,233627.78125,143911.0,1.0,4
224941.171875,248757.21875,250594.453125,259042.96875,219306.46875,246224.5,205558.625,233564.921875,143912.0,1.0,4
224992.9375,248923.515625,251204.46875,259139.609375,219840.859375,246497.203125,205878.078125,233823.484375,143913.0,1.0,4
225010.375,249079.265625,251772.125,259198.34375,220370.234375,246770.25,206192.4375,234059.796875,143914.0,1.0,4
224960.84375,248994.0625,251482.171875,259133.0,220137.328125,246646.953125,206049.75,233931.578125,143915.0,1.0,4
224910.328125,248796.46875,250763.875,259032.6875,219487.078125,246318.375,205660.28125,233628.140625,143916.0,1.0,4
224932.5,248752.21875,250585.0625,259040.28125,219300.84375,246227.359375,205555.328125,233562.421875,143917.0,1.0,4
224985.609375,248921.828125,251196.609375,259130.140625,219836.84375,246500.0625,205878.4375,233824.828125,143918.0,1.0,4
225002.234375,249070.0625,251765.0625,259186.640625,220364.078125,246766.046875,206191.984375,234057.375,143919.0,1.0,4
224961.640625,248993.890625,251486.734375,259126.109375,220143.328125,246649.28125,206051.890625,233929.53125,143920.0,1.0,4
224921.859375,248803.890625,250774.609375,259035.984375,219501.921875,246321.515625,205663.6875,233626.171875,143921.0,1.0,4
224939.5625,248755.796875,250587.828125,259040.546875,219305.21875,246220.390625,205553.0,233555.359375,143922.0,1.0,4
224998.125,248927.640625,251200.265625,259135.671875,219838.265625,246495.671875,205877.640625,233818.65625,143923.0,1.0,4
225022.078125,249082.21875,251776.40625,259199.328125,220373.453125,246768.015625,206191.1875,234056.484375,143924.0,1.0,4
224970.40625,248995.671875,251490.578125,259128.078125,220144.21875,246643.375,206043.3125,233925.046875,143925.0,1.0,4
224936.078125,248810.328125,250784.96875,259041.078125,219509.078125,246327.234375,205665.390625,233633.9375,143926.0,1.0,4
224952.796875,248764.5625,250595.703125,259043.234375,219310.5,246228.703125,205556.671875,233566.984375,143927.0,1.0,4
225000.625,248929.515625,251195.265625,259137.375,219834.15625,246491.109375,205872.8125,233822.765625,143928.0,1.0,4
225014.84375,249088.03125,251770.234375,259199.609375,220371.21875,246768.1875,206194.21875,234064.890625,143929.0,1.0,4
224965.046875,249010.0625,251497.1875,259129.421875,220154.953125,246656.15625,206062.171875,233944.28125,143930.0,1.0,4
224922.3125,248820.078125,250785.15625,259039.125,219513.984375,246329.921875,205674.859375,233643.953125,143931.0,1.0,4
224929.546875,248760.71875,250577.90625,259033.84375,219299.953125,246222.453125,205550.578125,233565.8125,143932.0,1.0,4
224986.953125,248932.46875,251184.09375,259133.625,219829.59375,246498.171875,205877.015625,233831.71875,143933.0,1.0,4
225011.984375,249094.828125,251766.484375,259199.609375,220370.953125,246775.25,206200.578125,234070.875,143934.0,1.0,4
224969.15625,249015.078125,251499.421875,259137.546875,220156.109375,246663.578125,206066.546875,233949.1875,143935.0,1.0,4
224930.625,248820.25,250790.078125,259045.640625,219515.59375,246340.375,205683.265625,233651.5625,143936.0,1.0,4
224946.453125,248769.296875,250586.671875,259044.390625,219303.4375,246236.03125,205562.828125,233574.578125,143937.0,1.0,4
224990.796875,248924.78125,251175.328125,259124.5,219818.515625,246494.875,205870.75,233819.90625,143938.0,1.0,4
225020.203125,249089.1875,251769.078125,259190.75,220370.78125,246776.6875,206198.96875,234066.046875,143939.0,1.0,4
224987.65625,249026.15625,251522.21875,259138.1875,220174.890625,246672.609375,206077.28125,233953.84375,143940.0,1.0,4
224942.6875,248831.875,250808.125,259044.390625,219526.15625,246338.046875,205685.140625,233643.515625,143941.0,1.0,4
224945.1875,248766.25,250584.53125,259034.109375,219296.015625,246215.03125,205549.421875,233548.65625,143942.0,1.0,4
224998.125,248933.09375,251177.203125,259126.734375,219815.734375,246483.34375,205866.640625,233803.375,143943.0,1.0,4
225020.03125,249090.890625,251764.703125,259188.15625,220364.609375,246767.109375,206193.421875,234047.625,143944.0,1.0,4
224984.984375,249027.59375,251518.296875,259138.1875,220171.671875,246673.78125,206078.09375,233943.296875,143945.0,1.0,4
224939.734375,248832.78125,250803.65625,259044.21875,219528.03125,246347.703125,205692.390625,233646.640625,143946.0,1.0,4
224954.046875,248773.40625,250583.1875,259040.640625,219301.109375,246231.828125,205561.5,233567.6875,143947.0,1.0,4
224996.0625,248920.390625,251161.734375,259127.625,219805.453125,246487.546875,205862.34375,233815.078125,143948.0,1.0,4
225011.265625,249078.203125,251750.578125,259182.890625,220354.6875,246769.703125,206185.375,234057.640625,143949.0,1.0,4
224974.703125,249012.390625,251514.09375,259129.78125,220168.8125,246672.875,206070.84375,233950.265625,143950.0,1.0,4
224930.359375,248813.8125,250800.890625,259035.8125,219520.609375,246340.90625,205680.3125,233642.265625,143951.0,1.0,4
224945.28125,248752.046875,250574.0625,259034.015625,219289.3125,246219.3125,205544.5,233554.1875,143952.0,1.0,4
225004.921875,248919.953125,251167.640625,259135.234375,219805.1875,246484.046875,205859.21875,233811.328125,143953.0,1.0,4
225023.875,249078.109375,251763.796875,259197.015625,220357.0,246767.734375,206189.125,234058.0,143954.0,1.0,4
224969.6875,249001.390625,251514.265625,259126.296875,220164.328125,246664.03125,206064.046875,233943.921875,143955.0,1.0,4
224923.828125,248811.234375,250800.4375,259031.78125,219524.09375,246342.4375,205680.671875,233648.25,143956.0,1.0,4
224939.296875,248761.34375,250569.6875,259031.25,219291.359375,246231.390625,205550.578125,233566.4375,143957.0,1.0,4
224982.296875,248914.671875,251141.703125,259116.09375,219789.546875,246481.8125,205851.890625,233807.21875,143958.0,1.0,4
225009.75,249081.234375,251747.625,259189.59375,220352.53125,246772.921875,206189.40625,234060.6875,143959.0,1.0,4
224972.546875,249017.484375,251524.28125,259141.40625,220177.75,246680.65625,206084.078125,233960.546875,143960.0,1.0,4
224924.8125,248821.328125,250811.0,259041.078125,219532.234375,246351.375,205692.65625,233654.328125,143961.0,1.0,4
224936.171875,248762.046875,250570.21875,259026.875,219287.96875,246225.390625,205548.171875,233555.890625,143962.0,1.0,4
224995.796875,248926.46875,251153.328125,259127.625,219795.703125,246487.8125,205859.9375,233808.203125,143963.0,1.0,4
225017.96875,249083.921875,251756.46875,259199.328125,220354.59375,246772.84375,206193.421875,234057.375,143964.0,1.0,4
224978.8125,249015.171875,251532.59375,259139.34375,220178.90625,246678.78125,206082.46875,233952.6875,143965.0,1.0,4
224931.6875,248820.4375,250820.203125,259041.171875,219537.765625,246350.296875,205691.3125,233648.25,143966.0,1.0,4
224941.078125,248758.03125,250576.390625,259031.078125,219293.6875,246222.265625,205549.0625,233554.546875,143967.0,1.0,4
224998.296875,248918.96875,251155.203125,259126.734375,219797.765625,246481.640625,205857.15625,233805.609375,143968.0,1.0,4
225017.609375,249078.640625,251758.171875,259189.328125,220357.453125,246768.1875,206190.921875,234053.625,143969.0,1.0,4
224975.5,249010.96875,251532.6875,259131.296875,220183.921875,246677.34375,206082.921875,233952.234375,143970.0,1.0,4
224940.546875,248824.015625,250824.9375,259043.859375,219545.734375,246356.734375,205701.234375,233655.578125,143971.0,1.0,4
224952.53125,248759.375,250574.875,259031.78125,219291.09375,246227.546875,205553.625,233552.765625,143972.0,1.0,4
225006.625,248917.4375,251145.640625,259122.53125,219788.109375,246477.4375,205855.109375,233792.375,143973.0,1.0,4
225018.234375,249067.828125,251740.46875,259178.328125,220344.484375,246753.796875,206179.46875,234032.875,143974.0,1.0,4
224984.4375,249013.90625,251533.671875,259133.984375,220190.53125,246677.34375,206086.578125,233939.890625,143975.0,1.0,4
224944.5625,248828.921875,250827.625,259046.359375,219553.6875,246358.078125,205704.640625,233643.0625,143976.0,1.0,4
224952.703125,248767.859375,250569.234375,259035.09375,219297.265625,246225.75,205556.484375,233546.953125,143977.0,1.0,4
225001.703125,248915.03125,251132.953125,259129.0625,219790.171875,246474.75,205853.578125,233789.875,143978.0,1.0,4
225023.875,249075.6875,251747.4375,259198.265625,220362.546875,246762.90625,206190.203125,234047.0,143979.0,1.0,4
224984.09375,249014.625,251544.84375,259146.140625,220209.390625,246681.90625,206094.625,233958.765625,143980.0,1.0,4
224934.015625,248815.25,250829.765625,259049.84375,219566.203125,246353.078125,205706.953125,233655.671875,143981.0,1.0,4
224941.984375,248743.640625,250560.5625,259037.78125,219298.703125,246215.734375,205552.1875,233550.078125,143982.0,1.0,4
224997.859375,248901.796875,251125.265625,259125.84375,219786.953125,246463.671875,205851.171875,233792.90625,143983.0,1.0,4
225027.984375,249072.296875,251752.265625,259199.15625,220363.71875,246760.859375,206195.203125,234054.515625,143984.0,1.0,4
224991.234375,249015.078125,251555.125,259143.28125,220210.109375,246683.078125,206096.140625,233959.5625,143985.0,1.0,4
224952.796875,248827.046875,250850.59375,259054.046875,219573.359375,246362.640625,205712.6875,233662.375,143986.0,1.0,4
224949.3125,248750.78125,250567.453125,259030.265625,219288.859375,246215.203125,205542.984375,233542.65625,143987.0,1.0,4
225000.09375,248911.1875,251128.5625,259119.765625,219775.140625,246467.25,205840.0,233785.046875,143988.0,1.0,4
225038.359375,249096.25,251766.84375,259205.0625,220366.65625,246777.390625,206199.6875,234061.046875,143989.0,1.0,4
224998.578125,249039.484375,251572.734375,259155.34375,220221.28125,246702.65625,206108.484375,233971.8125,143990.0,1.0,4
224938.765625,248834.03125,250847.296875,259045.109375,219568.078125,246367.90625,205708.75,233656.03125,143991.0,1.0,4
224937.421875,248750.609375,250558.953125,259023.5625,219282.15625,246220.296875,205542.53125,233540.875,143992.0,1.0,4
224991.515625,248899.734375,251112.03125,259113.59375,219761.28125,246468.140625,205835.171875,233783.25,143993.0,1.0,4
225018.6875,249066.9375,251736.984375,259188.0625,220337.515625,246760.671875,206180.546875,234046.921875,143994.0,1.0,4
224984.4375,249023.5625,251558.25,259146.5,220206.796875,246691.921875,206101.328125,233968.0625,143995.0,1.0,4
224931.78125,248820.4375,250841.84375,259040.546875,219559.59375,246358.171875,205707.046875,233656.203125,143996.0,1.0,4
224938.046875,248742.734375,250551.796875,259030.265625,219273.484375,246205.015625,205535.203125,233541.140625,143997.0,1.0,4
224984.4375,248885.875,251096.921875,259111.53125,219745.46875,246438.984375,205818.265625,233773.859375,143998.0,1.0,4
225020.03125,249065.671875,251736.4375,259192.265625,220332.59375,246741.453125,206172.59375,234043.515625,143999.0,1.0,4
224987.65625,249019.71875,251560.3125,259147.390625,220204.65625,246673.5,206094.0,233963.671875,144000.0,1.0,4
224945.640625,248825.703125,250852.65625,259048.765625,219569.25,246348.6875,205708.484375,233664.515625,144001.0,1.0,4
224951.90625,248752.84375,250564.5,259033.9375,219281.796875,246204.5625,205540.21875,233546.59375,144002.0,1.0,4
225009.296875,248911.8125,251115.78125,259127.09375,219758.875,246453.296875,205828.640625,233783.078125,144003.0,1.0,4
225039.15625,249086.328125,251748.421875,259196.921875,220345.109375,246759.609375,206178.40625,234046.296875,144004.0,1.0,4
225011.09375,249052.359375,251585.96875,259156.78125,220231.03125,246707.84375,206110.90625,233977.53125,144005.0,1.0,4
224948.765625,248851.109375,250864.640625,259042.78125,219582.5625,246377.21875,205719.125,233665.234375,144006.0,1.0,4
224959.328125,248774.484375,250572.359375,259035.265625,219292.34375,246233.171875,205551.125,233553.03125,144007.0,1.0,4
225010.015625,248919.953125,251111.765625,259122.890625,219761.46875,246472.609375,205836.328125,233788.0,144008.0,1.0,4
225033.53125,249084.359375,251738.328125,259192.546875,220339.75,246763.984375,206180.546875,234045.9375,144009.0,1.0,4
225003.75,249041.1875,251576.3125,259152.75,220225.765625,246705.6875,206111.609375,233976.1875,144010.0,1.0,4
224953.59375,248841.625,250864.8125,259054.3125,219589.453125,246380.609375,205727.609375,233673.90625,144011.0,1.0,4
224954.671875,248753.375,250557.796875,259033.390625,219284.84375,246223.34375,205549.6875,233547.40625,144012.0,1.0,4
225006.53125,248901.265625,251099.234375,259115.109375,219751.71875,246458.484375,205834.625,233778.609375,144013.0,1.0,4
225042.203125,249083.46875,251742.703125,259194.78125,220344.484375,246761.921875,206190.46875,234047.625,144014.0,1.0,4
224998.484375,249028.21875,251574.53125,259140.6875,220221.375,246695.40625,206111.171875,233966.984375,144015.0,1.0,4
224949.578125,248837.953125,250864.90625,259037.0625,219586.59375,246374.171875,205729.9375,233667.46875,144016.0,1.0,4
224952.53125,248757.3125,250555.640625,259022.671875,219284.125,246222.265625,205553.453125,233546.328125,144017.0,1.0,4
224994.015625,248896.609375,251079.03125,259100.8125,219739.46875,246457.046875,205830.078125,233771.984375,144018.0,1.0,4
225012.875,249063.359375,251709.4375,259167.5,220326.875,246758.265625,206179.390625,234035.203125,144019.0,1.0,4
224981.5,249025.09375,251560.484375,259125.75,220223.4375,246701.9375,206112.421875,233965.640625,144020.0,1.0,4
224944.75,248838.5,250864.8125,259041.625,219595.625,246384.28125,205737.453125,233675.515625,144021.0,1.0,4
224946.0,248749.09375,250547.515625,259020.34375,219277.859375,246218.875,205550.671875,233543.46875,144022.0,1.0,4
224989.90625,248884.546875,251068.578125,259097.234375,219720.703125,246437.375,205812.375,233758.484375,144023.0,1.0,4
225024.328125,249066.21875,251717.671875,259177.78125,220318.390625,246742.078125,206167.21875,234031.1875,144024.0,1.0,4
224984.890625,249020.796875,251567.828125,259131.75,220216.375,246683.078125,206100.34375,233959.46875,144025.0,1.0,4
224939.921875,248828.296875,250865.359375,259037.421875,219589.359375,246363.53125,205723.59375,233661.84375,144026.0,1.0,4
224956.8125,248754.71875,250558.421875,259030.171875,219286.625,246214.84375,205551.03125,233543.015625,144027.0,1.0,4
225014.578125,248903.765625,251090.65625,259124.234375,219743.40625,246448.921875,205830.875,233772.96875,144028.0,1.0,4
225032.359375,249065.953125,251724.109375,259186.453125,220326.875,246740.65625,206176.078125,234033.328125,144029.0,1.0,4
224994.546875,249027.59375,251581.234375,259135.859375,220230.859375,246692.734375,206117.78125,233970.5625,144030.0,1.0,4
224957.265625,248849.671875,250886.625,259051.90625,219611.0,246385.609375,205748.984375,233687.140625,144031.0,1.0,4
224949.125,248751.765625,250549.03125,259019.890625,219282.328125,246210.640625,205548.078125,233544.53125,144032.0,1.0,4
224995.171875,248891.515625,251066.703125,259100.890625,219729.109375,246434.34375,205816.75,233766.09375,144033.0,1.0,4
225034.328125,249073.28125,251722.9375,259190.21875,220337.0625,246751.109375,206185.015625,234048.796875,144034.0,1.0,4
224995.4375,249030.984375,251585.703125,259151.140625,220245.609375,246702.5625,206126.28125,233984.328125,144035.0,1.0,4
224942.953125,248839.125,250877.875,259044.578125,219610.375,246379.984375,205742.8125,233680.609375,144036.0,1.0,4
224952.34375,248763.125,250553.859375,259030.0,219292.625,246219.5,205559.53125,233553.03125,144037.0,1.0,4
225000.453125,248895.53125,251066.96875,259111.171875,219730.71875,246437.203125,205825.15625,233765.90625,144038.0,1.0,4
225015.5625,249055.9375,251703.984375,259164.375,220312.390625,246725.265625,206165.171875,234022.6875,144039.0,1.0,4
224980.953125,249019.359375,251577.75,259127.453125,220226.921875,246681.375,206110.265625,233965.46875,144040.0,1.0,4
224932.140625,248825.265625,250873.3125,259030.4375,219595.34375,246364.15625,205730.46875,233669.890625,144041.0,1.0,4
224941.53125,248741.671875,250538.65625,259016.140625,219269.8125,246202.953125,205540.03125,233538.28125,144042.0,1.0,4
225000.0,248891.875,251059.1875,259110.375,219723.015625,246436.75,205817.015625,233768.953125,144043.0,1.0,4
225020.296875,249055.671875,251704.703125,259176.984375,220314.8125,246734.578125,206166.875,234033.140625,144044.0,1.0,4
224989.8125,249026.96875,251591.0625,259138.984375,220242.296875,246700.78125,206121.625,233980.21875,144045.0,1.0,4
224945.734375,248838.859375,250895.21875,259046.984375,219617.25,246383.5625,205744.78125,233681.953125,144046.0,1.0,4
224946.171875,248746.40625,250551.359375,259021.765625,219278.9375,246205.640625,205543.875,233538.546875,144047.0,1.0,4
224997.859375,248893.296875,251062.578125,259106.890625,219716.40625,246424.0625,205807.984375,233756.609375,144048.0,1.0,4
225024.953125,249071.046875,251715.875,259178.6875,220316.0625,246729.390625,206164.09375,234027.0625,144049.0,1.0,4
224992.3125,249041.09375,251601.265625,259141.3125,220247.3125,246693.09375,206122.078125,233976.1875,144050.0,1.0,4
224948.40625,248848.328125,250897.984375,259044.75,219616.09375,246373.90625,205742.546875,233675.25,144051.0,1.0,4
224968.4375,248771.4375,250561.375,259035.453125,219286.890625,246215.390625,205555.0625,233543.734375,144052.0,1.0,4
225019.765625,248907.78125,251064.109375,259122.359375,219722.3125,246436.75,205816.484375,233759.5625,144053.0,1.0,4
225044.171875,249084.546875,251719.09375,259193.25,220324.640625,246741.453125,206174.640625,234030.203125,144054.0,1.0,4
225007.328125,249052.625,251612.53125,259157.21875,220257.3125,246704.890625,206130.5625,233978.875,144055.0,1.0,4
224948.765625,248853.78125,250903.0,259046.1875,219621.359375,246378.640625,205739.40625,233674.984375,144056.0,1.0,4
224949.21875,248757.765625,250551.09375,259018.828125,219278.9375,246208.40625,205538.6875,233536.84375,144057.0,1.0,4
224994.734375,248889.8125,251047.65625,259102.59375,219706.84375,246428.265625,205800.921875,233753.578125,144058.0,1.0,4
225025.21875,249073.90625,251711.859375,259181.984375,220320.625,246742.625,206167.765625,234035.203125,144059.0,1.0,4
224985.609375,249037.15625,251601.0,259132.546875,220251.5,246699.171875,206117.34375,233975.21875,144060.0,1.0,4
224940.453125,248847.4375,250901.65625,259039.75,219629.328125,246383.015625,205739.859375,233677.3125,144061.0,1.0,4
224943.765625,248749.265625,250539.828125,259017.296875,219278.578125,246201.609375,205531.09375,233530.953125,144062.0,1.0,4
224995.625,248893.125,251040.59375,259102.59375,219707.46875,246424.59375,205797.265625,233754.375,144063.0,1.0,4
225027.8125,249077.03125,251709.078125,259185.828125,220319.640625,246743.875,206166.515625,234038.6875,144064.0,1.0,4
224991.328125,249043.859375,251611.453125,259149.09375,220260.890625,246711.234375,206126.546875,233992.015625,144065.0,1.0,4
224952.4375,248859.6875,250924.8125,259061.734375,219648.28125,246404.921875,205757.390625,233705.734375,144066.0,1.0,4
224944.65625,248760.984375,250550.8125,259022.046875,219289.9375,246220.84375,205548.34375,233553.296875,144067.0,1.0,4
224992.140625,248893.921875,251035.9375,259101.078125,219704.96875,246429.15625,205801.109375,233760.453125,144068.0,1.0,4
225030.21875,249074.984375,251708.1875,259187.53125,220320.53125,246749.234375,206171.0625,234046.203125,144069.0,1.0,4
225002.140625,249048.78125,251625.84375,259153.640625,220273.6875,246729.828125,206143.078125,234007.84375,144070.0,1.0,4
224948.140625,248850.296875,250924.09375,259054.9375,219642.640625,246404.921875,205757.03125,233702.15625,144071.0,1.0,4
224941.625,248742.46875,250549.5625,259020.875,219280.71875,246219.3125,205542.09375,233547.484375,144072.0,1.0,4
224990.078125,248876.3125,251033.078125,259096.703125,219694.40625,246431.390625,205795.296875,233754.90625,144073.0,1.0,4
225018.78125,249056.65625,251698.171875,259172.328125,220303.8125,246742.171875,206161.859375,234034.046875,144074.0,1.0,4
224989.359375,249034.75,251616.1875,259137.46875,220264.46875,246725.09375,206139.234375,233999.265625,144075.0,1.0,4
224942.609375,248849.84375,250924.8125,259045.28125,219649.171875,246419.40625,205769.453125,233711.546875,144076.0,1.0,4
224943.578125,248753.734375,250549.390625,259022.046875,219288.140625,246236.84375,205556.390625,233563.3125,144077.0,1.0,4
224992.046875,248883.921875,251028.25,259098.578125,219695.484375,246444.359375,205803.875,233767.96875,144078.0,1.0,4
225018.515625,249059.953125,251693.890625,259176.890625,220305.78125,246755.578125,206166.328125,234040.296875,144079.0,1.0,4
224974.78125,249026.703125,251609.84375,259127.8125,220259.375,246724.375,206135.671875,233995.328125,144080.0,1.0,4
224922.84375,248833.75,250917.203125,259029.109375,219633.609375,246409.84375,205758.90625,233700.1875,144081.0,1.0,4
224927.765625,248734.6875,250538.75,259009.4375,219265.34375,246222.171875,205547.359375,233548.375,144082.0,1.0,4
224978.1875,248867.109375,251012.6875,259090.078125,219670.984375,246424.234375,205794.484375,233753.296875,144083.0,1.0,4
225012.609375,249050.5625,251687.625,259170.640625,220288.34375,246740.03125,206159.8125,234035.203125,144084.0,1.0,4
224982.03125,249030.28125,251619.5,259134.875,220257.3125,246722.953125,206135.9375,233997.828125,144085.0,1.0,4
224930.796875,248837.328125,250923.46875,259029.1875,219636.5625,246405.28125,205759.890625,233695.359375,144086.0,1.0,4
224930.53125,248730.40625,250535.171875,259002.453125,219261.0625,246215.46875,205537.53125,233537.203125,144087.0,1.0,4
224982.484375,248861.921875,251012.25,259089.09375,219668.84375,246422.71875,205783.21875,233745.171875,144088.0,1.0,4
225010.46875,249045.734375,251686.28125,259165.0,220285.921875,246733.765625,206147.109375,234023.484375,144089.0,1.0,4
224980.515625,249034.125,251627.8125,259138.625,220265.1875,246724.203125,206130.125,233993.0,144090.0,1.0,4
224932.328125,248848.421875,250938.578125,259044.921875,219655.15625,246417.359375,205761.9375,233702.515625,144091.0,1.0,4
224933.125,248749.0,250545.28125,259020.78125,219279.65625,246228.265625,205542.890625,233549.28125,144092.0,1.0,4
224977.65625,248871.046875,251004.296875,259089.453125,219672.6875,246427.1875,205781.078125,233748.65625,144093.0,1.0,4
225013.59375,249054.140625,251677.796875,259167.140625,220288.34375,246744.578125,206150.78125,234026.703125,144094.0,1.0,4
224977.828125,249027.765625,251613.875,259125.3125,220259.375,246723.03125,206130.390625,233988.171875,144095.0,1.0,4
224927.765625,248829.5625,250920.96875,259027.3125,219641.125,246401.078125,205752.375,233691.875,144096.0,1.0,4
224928.5625,248727.984375,250527.84375,259004.515625,219262.390625,246206.890625,205532.703125,233533.8125,144097.0,1.0,4
224981.3125,248860.125,250995.34375,259091.515625,219659.546875,246408.140625,205775.984375,233736.5,144098.0,1.0,4
225014.9375,249049.234375,251675.109375,259163.03125,220283.15625,246729.65625,206146.03125,234017.046875,144099.0,1.0,4
224982.296875,249030.546875,251623.078125,259129.6875,220265.640625,246715.96875,206127.171875,233979.40625,144100.0,1.0,4
224935.09375,248845.375,250939.109375,259039.125,219655.875,246406.359375,205757.828125,233690.09375,144101.0,1.0,4
224934.640625,248743.546875,250537.765625,259011.671875,219271.96875,246213.78125,205534.140625,233533.09375,144102.0,1.0,4
224981.40625,248868.359375,250989.453125,259086.140625,219656.5,246409.671875,205771.421875,233731.125,144103.0,1.0,4
225012.515625,249049.234375,251663.21875,259163.03125,220272.078125,246723.125,206138.171875,234009.625,144104.0,1.0,4
224987.84375,249037.875,251624.5,259139.34375,220267.78125,246723.578125,206135.75,233992.640625,144105.0,1.0,4
224940.28125,248855.125,250941.34375,259044.578125,219659.0,246415.390625,205769.1875,233704.21875,144106.0,1.0,4
224926.15625,248739.96875,250523.546875,259000.5,219260.875,246207.703125,205533.421875,233534.078125,144107.0,1.0,4
224974.4375,248864.609375,250976.484375,259077.203125,219647.390625,246403.671875,205767.046875,233729.609375,144108.0,1.0,4
225006.171875,249044.3125,251660.0,259161.15625,220269.65625,246716.6875,206136.109375,234010.703125,144109.0,1.0,4
224984.09375,249034.65625,251631.03125,259136.21875,220272.34375,246718.5625,206135.671875,233991.390625,144110.0,1.0,4
224940.90625,248849.765625,250953.15625,259042.875,219669.015625,246413.328125,205773.921875,233702.78125,144111.0,1.0,4
224940.015625,248745.953125,250542.59375,259016.234375,219274.921875,246211.0,205544.0625,233535.328125,144112.0,1.0,4
224986.234375,248866.65625,250984.265625,259088.734375,219648.453125,246401.0,205771.328125,233723.625,144113.0,1.0,4
225017.703125,249049.5,251666.625,259168.484375,220270.46875,246720.53125,206142.90625,234006.6875,144114.0,1.0,4
224990.171875,249042.078125,251642.296875,259144.625,220281.015625,246728.765625,206147.90625,233990.765625,144115.0,1.0,4
224945.375,248865.5,250968.34375,259055.75,219681.0,246427.90625,205785.015625,233706.1875,144116.0,1.0,4
224932.59375,248747.296875,250540.265625,259012.390625,219269.375,246214.484375,205540.390625,233529.34375,144117.0,1.0,4
224984.09375,248872.203125,250987.578125,259090.171875,219646.9375,246406.890625,205771.421875,233727.109375,144118.0,1.0,4
225018.859375,249055.84375,251675.203125,259171.53125,220272.96875,246728.21875,206144.0625,234015.53125,144119.0,1.0,4
224982.296875,249039.484375,251643.109375,259134.875,220273.765625,246725.359375,206136.109375,233991.9375,144120.0,1.0,4
224936.34375,248860.671875,250961.375,259040.015625,219671.4375,246418.34375,205769.546875,233704.84375,144121.0,1.0,4
224938.3125,248750.34375,250536.78125,259008.453125,219266.953125,246211.1875,205530.5625,233532.015625,144122.0,1.0,4
225004.296875,248877.828125,250987.65625,259102.5,219651.9375,246414.140625,205772.3125,233737.921875,144123.0,1.0,4
225036.921875,249062.546875,251675.828125,259183.328125,220279.046875,246734.578125,206147.46875,234021.96875,144124.0,1.0,4
224994.28125,249043.15625,251649.625,259140.421875,220283.78125,246728.484375,206141.65625,233997.46875,144125.0,1.0,4
224948.953125,248859.78125,250974.875,259047.796875,219683.59375,246420.65625,205774.90625,233713.875,144126.0,1.0,4
224934.90625,248735.40625,250534.28125,258997.359375,219263.375,246195.171875,205518.671875,233526.75,144127.0,1.0,4
224983.375,248858.515625,250967.28125,259077.734375,219632.90625,246384.546875,205747.015625,233715.65625,144128.0,1.0,4
225023.0625,249053.34375,251665.90625,259172.328125,220272.34375,246718.03125,206132.625,234009.8125,144129.0,1.0,4
224981.046875,249035.453125,251644.265625,259137.734375,220282.4375,246719.28125,206130.390625,233989.0625,144130.0,1.0,4
224924.8125,248846.1875,250962.1875,259035.0,219675.71875,246408.765625,205764.71875,233700.90625,144131.0,1.0,4
224922.75,248731.390625,250530.703125,259000.671875,219262.390625,246201.703125,205525.015625,233527.546875,144132.0,1.0,4
224972.46875,248847.265625,250957.984375,259081.765625,219626.546875,246388.828125,205748.53125,233716.015625,144133.0,1.0,4
225012.078125,249039.9375,251653.75,259170.640625,220264.5625,246717.3125,206130.21875,234011.421875,144134.0,1.0,4
224981.140625,249035.015625,251647.3125,259141.125,220290.40625,246727.6875,206143.265625,234001.046875,144135.0,1.0,4
224932.765625,248851.90625,250974.421875,259043.671875,219692.53125,246427.09375,205786.890625,233715.9375,144136.0,1.0,4
224923.46875,248727.90625,250528.109375,259000.5,219265.265625,246204.484375,205533.421875,233527.109375,144137.0,1.0,4
224979.96875,248855.21875,250959.140625,259078.015625,219628.78125,246391.96875,205759.890625,233719.5,144138.0,1.0,4
225016.984375,249048.25,251655.359375,259164.28125,220260.53125,246715.078125,206141.203125,234013.65625,144139.0,1.0,4
224989.453125,249046.1875,251656.515625,259143.015625,220291.109375,246722.953125,206151.765625,234003.640625,144140.0,1.0,4
224931.875,248854.40625,250976.9375,259030.53125,219687.96875,246411.09375,205781.609375,233707.265625,144141.0,1.0,4
224928.65625,248734.15625,250533.203125,259001.03125,219264.453125,246196.609375,205532.25,233528.4375,144142.0,1.0,4
224981.5,248855.21875,250952.875,259082.84375,219619.125,246376.140625,205748.796875,233713.15625,144143.0,1.0,4
225020.65625,249048.328125,251648.015625,259167.78125,220256.421875,246702.5625,206128.328125,234005.515625,144144.0,1.0,4
224979.609375,249040.28125,251645.703125,259132.8125,220286.828125,246716.421875,206141.75,233997.828125,144145.0,1.0,4
224925.53125,248855.296875,250971.390625,259030.625,219689.234375,246416.109375,205785.71875,233712.984375,144146.0,1.0,4
224918.28125,248730.765625,250520.515625,258992.171875,219259.984375,246201.4375,205533.15625,233525.84375,144147.0,1.0,4
224971.921875,248850.75,250942.421875,259075.953125,219614.03125,246386.234375,205750.234375,233711.90625,144148.0,1.0,4
225013.953125,249044.40625,251646.234375,259168.125,220256.0625,246715.796875,206137.0,234012.765625,144149.0,1.0,4
224969.25,249028.84375,251643.8125,259123.609375,220283.96875,246718.203125,206145.046875,233998.546875,144150.0,1.0,4
224914.53125,248837.609375,250967.453125,259020.34375,219683.140625,246410.296875,205778.03125,233707.265625,144151.0,1.0,4
224913.640625,248719.765625,250515.140625,258986.375,219251.671875,246190.265625,205520.640625,233518.875,144152.0,1.0,4
224967.546875,248842.25,250928.65625,259069.96875,219599.28125,246372.390625,205734.234375,233700.28125,144153.0,1.0,4
225005.90625,249033.046875,251632.28125,259163.65625,220240.421875,246702.734375,206119.125,234000.78125,144154.0,1.0,4
224976.484375,249034.75,251652.578125,259137.28125,220286.203125,246720.171875,206142.453125,234000.0625,144155.0,1.0,4
224918.546875,248847.34375,250976.484375,259031.703125,219686.09375,246412.53125,205776.15625,233707.609375,144156.0,1.0,4
224913.453125,248728.890625,250522.65625,258993.515625,219253.90625,246193.65625,205518.75,233520.671875,144157.0,1.0,4
224962.546875,248841.265625,250929.015625,259069.96875,219596.59375,246368.453125,205724.65625,233695.28125,144158.0,1.0,4
225002.328125,249037.15625,251633.625,259160.078125,220235.140625,246699.25,206106.421875,233987.8125,144159.0,1.0,4
224977.375,249040.640625,251664.03125,259133.703125,220292.015625,246728.484375,206138.34375,233993.625,144160.0,1.0,4
224929.109375,248857.890625,250998.84375,259035.359375,219706.390625,246430.046875,205783.84375,233714.859375,144161.0,1.0,4
224930.71875,248742.390625,250539.828125,258999.78125,219272.953125,246209.484375,205531.359375,233532.109375,144162.0,1.0,4
224982.203125,248852.0,250937.953125,259074.4375,219606.890625,246380.515625,205739.6875,233705.375,144163.0,1.0,4
225002.859375,249024.640625,251622.1875,259146.40625,220227.375,246689.59375,206106.25,233982.453125,144164.0,1.0,4
224975.59375,249030.359375,251652.671875,259119.671875,220286.90625,246715.796875,206140.40625,233990.5,144165.0,1.0,4
224925.4375,248850.296875,250990.703125,259025.703125,219698.96875,246418.421875,205785.453125,233711.375,144166.0,1.0,4
224918.28125,248728.25,250526.234375,258988.609375,219255.6875,246191.421875,205524.65625,233519.859375,144167.0,1.0,4
224963.171875,248833.125,250916.765625,259065.40625,219582.921875,246357.625,205726.625,233690.265625,144168.0,1.0,4
225003.3125,249028.3125,251619.5,259155.34375,220223.078125,246688.53125,206110.453125,233986.921875,144169.0,1.0,4
224974.4375,249038.140625,251660.625,259126.296875,220291.734375,246726.4375,206148.265625,233999.703125,144170.0,1.0,4
224923.296875,248858.34375,251000.359375,259028.921875,219708.359375,246432.546875,205795.03125,233721.109375,144171.0,1.0,4
224916.765625,248732.8125,250527.84375,258987.96875,219262.84375,246202.78125,205531.28125,233527.453125,144172.0,1.0,4
224966.828125,248840.1875,250917.390625,259063.078125,219590.796875,246368.265625,205734.234375,233697.875,144173.0,1.0,4
225006.890625,249030.359375,251622.09375,259153.015625,220232.640625,246694.96875,206115.015625,233991.296875,144174.0,1.0,4
224970.859375,249026.875,251657.046875,259121.375,220292.90625,246717.5,206143.984375,233993.265625,144175.0,1.0,4
224914.171875,248838.671875,250989.71875,259016.140625,219703.625,246415.65625,205789.296875,233708.515625,144176.0,1.0,4
224912.109375,248717.625,250514.515625,258980.375,219256.859375,246193.5625,205527.078125,233518.34375,144177.0,1.0,4
224960.390625,248825.265625,250900.9375,259056.546875,219579.703125,246361.46875,205726.265625,233689.109375,144178.0,1.0,4
225006.796875,249028.3125,251614.765625,259153.203125,220228.265625,246696.9375,206114.921875,233990.40625,144179.0,1.0,4
224986.328125,249045.46875,251675.203125,259140.59375,220312.84375,246739.40625,206164.1875,234011.953125,144180.0,1.0,4
224917.203125,248847.171875,251000.171875,259030.171875,219716.046875,246428.53125,205796.90625,233714.5,144181.0,1.0,4
224906.484375,248716.546875,250513.09375,258986.09375,219254.625,246194.90625,205523.046875,233510.734375,144182.0,1.0,4
224957.4375,248826.15625,250892.4375,259057.09375,219572.546875,246357.8125,205722.15625,233678.46875,144183.0,1.0,4
224998.03125,249019.28125,251601.796875,259147.125,220216.375,246688.078125,206107.328125,233975.03125,144184.0,1.0,4
224986.234375,249051.375,251673.140625,259138.984375,220312.84375,246742.625,206167.3125,234007.671875,144185.0,1.0,4
224930.796875,248865.40625,251007.78125,259034.640625,219725.34375,246438.8125,205809.859375,233720.84375,144186.0,1.0,4
224919.09375,248732.546875,250519.4375,258985.828125,219262.484375,246199.46875,205534.578125,233520.21875,144187.0,1.0,4
224966.109375,248833.84375,250893.15625,259057.984375,219572.8125,246358.96875,205722.25,233681.515625,144188.0,1.0,4
225002.953125,249024.109375,251598.671875,259142.65625,220214.140625,246686.921875,206104.375,233972.625,144189.0,1.0,4
224983.46875,249043.421875,251671.09375,259131.65625,220311.234375,246734.390625,206156.765625,233997.03125,144190.0,1.0,4
224933.03125,248866.21875,251018.78125,259036.34375,219734.015625,246437.921875,205809.78125,233718.171875,144191.0,1.0,4
224921.0625,248732.8125,250526.328125,258987.078125,219265.96875,246197.6875,205533.859375,233517.625,144192.0,1.0,4
224961.015625,248830.8125,250889.046875,259052.625,219567.90625,246350.03125,205716.875,233678.828125,144193.0,1.0,4
224998.578125,249026.078125,251596.4375,259142.375,220212.34375,246674.046875,206098.5625,233977.0,144194.0,1.0,4
224978.640625,249050.390625,251669.84375,259129.0625,220309.171875,246721.609375,206153.1875,234000.515625,144195.0,1.0,4
224925.25,248871.125,251014.390625,259032.046875,219730.796875,246430.765625,205806.734375,233721.75,144196.0,1.0,4
224916.234375,248740.234375,250517.828125,258985.5625,219262.484375,246193.65625,205531.984375,233518.15625,144197.0,1.0,4
224966.109375,248844.046875,250880.90625,259058.421875,219566.65625,246350.921875,205720.09375,233681.59375,144198.0,1.0,4
224997.046875,249030.546875,251583.828125,259138.0,220203.9375,246675.734375,206098.109375,233973.0625,144199.0,1.0,4
224969.609375,249046.09375,251658.03125,259116.984375,220300.0625,246720.71875,206149.796875,233994.96875,144200.0,1.0,4
224927.578125,248875.875,251016.453125,259031.078125,219732.5,246435.6875,205808.34375,233725.3125,144201.0,1.0,4
224915.15625,248740.59375,250516.671875,258983.78125,219261.59375,246195.453125,205528.59375,233524.515625,144202.0,1.0,4
224953.59375,248830.53125,250864.28125,259043.765625,219549.21875,246338.234375,205705.53125,233675.078125,144203.0,1.0,4
224996.34375,249023.484375,251578.1875,259136.578125,220193.21875,246672.171875,206093.546875,233972.96875,144204.0,1.0,4
224978.8125,249049.40625,251666.265625,259125.65625,220304.53125,246727.953125,206157.5625,234005.875,144205.0,1.0,4
224926.59375,248870.421875,251018.0625,259031.34375,219733.84375,246439.171875,205811.921875,233728.265625,144206.0,1.0,4
224914.796875,248739.4375,250516.9375,258986.546875,219260.4375,246204.390625,205533.0625,233524.6875,144207.0,1.0,4
224957.53125,248831.515625,250865.53125,259055.203125,219549.484375,246350.921875,205710.625,233679.09375,144208.0,1.0,4
225007.515625,249032.78125,251583.734375,259150.25,220199.5625,246682.625,206100.703125,233982.453125,144209.0,1.0,4
224988.921875,249056.203125,251673.328125,259131.921875,220310.0625,246735.375,206160.875,234011.875,144210.0,1.0,4
224938.765625,248877.390625,251028.515625,259036.25,219737.15625,246443.46875,205814.96875,233736.046875,144211.0,1.0,4
224924.359375,248735.765625,250518.453125,258985.46875,219253.546875,246197.234375,205527.34375,233526.5625,144212.0,1.0,4
224962.71875,248826.875,250861.15625,259048.0625,219538.484375,246338.9375,205700.703125,233676.953125,144213.0,1.0,4
225005.359375,249023.390625,251575.0625,259144.4375,220190.265625,246672.171875,206091.859375,233975.921875,144214.0,1.0,4
224987.578125,249054.234375,251676.546875,259129.0625,220313.640625,246733.59375,206162.671875,234012.765625,144215.0,1.0,4
224937.5,248877.5625,251035.21875,259028.65625,219746.53125,246448.46875,205820.59375,233736.3125,144216.0,1.0,4
224924.984375,248738.890625,250523.1875,258985.296875,219264.1875,246206.0,205535.65625,233529.15625,144217.0,1.0,4
224961.015625,248826.609375,250855.15625,259048.234375,219538.21875,246342.703125,205703.03125,233675.421875,144218.0,1.0,4
225005.015625,249025.453125,251570.0625,259142.109375,220189.734375,246682.0,206095.875,233981.109375,144219.0,1.0,4
224986.328125,249057.8125,251680.296875,259136.65625,220319.015625,246749.6875,206172.40625,234022.0625,144220.0,1.0,4
224933.390625,248879.265625,251038.890625,259035.90625,219753.0625,246456.421875,205829.171875,233743.640625,144221.0,1.0,4
224916.5,248734.96875,250514.703125,258977.78125,219259.265625,246201.703125,205531.09375,233522.90625,144222.0,1.0,4
224968.625,248831.515625,250854.71875,259053.6875,219539.375,246344.75,205704.09375,233676.234375,144223.0,1.0,4
225000.453125,249017.75,251560.765625,259135.9375,220179.625,246668.765625,206081.578125,233966.453125,144224.0,1.0,4
224981.3125,249044.21875,251673.765625,259129.234375,220314.265625,246739.3125,206160.609375,234010.53125,144225.0,1.0,4
224926.328125,248862.375,251034.953125,259030.4375,219749.21875,246451.234375,205819.25,233737.203125,144226.0,1.0,4
224906.75,248714.21875,250505.484375,258970.984375,219250.6875,246197.234375,205522.59375,233515.84375,144227.0,1.0,4
224958.421875,248814.53125,250839.0625,259042.78125,219523.734375,246340.734375,205692.03125,233665.859375,144228.0,1.0,4
225003.21875,249013.109375,251558.25,259134.875,220171.9375,246673.859375,206080.234375,233966.625,144229.0,1.0,4
224981.859375,249039.03125,251674.578125,259124.234375,220307.296875,246733.671875,206155.78125,234009.71875,144230.0,1.0,4
224935.1875,248870.859375,251042.109375,259033.65625,219749.046875,246449.09375,205819.609375,233743.296875,144231.0,1.0,4
224924.90625,248733.71875,250518.984375,258985.109375,219257.84375,246198.75,205528.234375,233529.703125,144232.0,1.0,4
224977.46875,248831.4375,250849.796875,259059.6875,219532.9375,246339.390625,205700.4375,233677.3125,144233.0,1.0,4
225023.609375,249030.90625,251572.296875,259158.125,220189.546875,246678.875,206095.15625,233982.8125,144234.0,1.0,4
224986.046875,249048.609375,251681.8125,259124.6875,220319.015625,246735.375,206167.578125,234017.046875,144235.0,1.0,4
224941.53125,248879.0,251056.0625,259038.765625,219769.15625,246457.140625,205837.3125,233754.46875,144236.0,1.0,4
224924.09375,248730.5,250521.84375,258984.3125,219266.421875,246204.03125,205540.75,233534.96875,144237.0,1.0,4
224963.53125,248816.59375,250833.34375,259046.359375,219520.15625,246334.390625,205694.265625,233668.640625,144238.0,1.0,4
225005.640625,249013.734375,251551.1875,259139.96875,220173.984375,246673.78125,206088.640625,233975.125,144239.0,1.0,4
224983.375,249042.078125,251680.75,259133.078125,220321.515625,246744.3125,206175.8125,234026.078125,144240.0,1.0,4
224931.515625,248867.734375,251051.046875,259038.140625,219763.609375,246460.0,205836.421875,233754.640625,144241.0,1.0,4
224916.9375,248721.640625,250512.015625,258979.03125,219256.234375,246199.375,205531.8125,233527.546875,144242.0,1.0,4
224955.65625,248806.9375,250816.359375,259036.4375,219508.359375,246322.671875,205685.328125,233660.140625,144243.0,1.0,4
224997.5,249003.453125,251532.859375,259134.875,220163.171875,246657.5,206075.3125,233962.78125,144244.0,1.0,4
224972.46875,249034.921875,251664.65625,259120.5625,220311.859375,246726.078125,206157.65625,234007.75,144245.0,1.0,4
224918.28125,248860.40625,251036.484375,259018.640625,219755.484375,246439.890625,205820.953125,233736.046875,144246.0,1.0,4
224905.859375,248716.71875,250500.390625,258971.796875,219249.171875,246181.40625,205522.15625,233515.484375,144247.0,1.0,4
224953.0625,248805.421875,250808.75,259041.625,219502.28125,246309.890625,205679.78125,233657.453125,144248.0,1.0,4
224993.921875,248998.171875,251526.703125,259132.8125,220152.984375,246643.828125,206070.046875,233962.6875,144249.0,1.0,4
224980.875,249041.265625,251679.140625,259133.359375,220321.25,246732.421875,206168.75,234023.671875,144250.0,1.0,4
224936.875,248878.015625,251059.8125,259044.296875,219778.1875,246460.984375,205840.796875,233760.015625,144251.0,1.0,4
224905.859375,248720.03125,250500.65625,258968.9375,219253.453125,246193.921875,205527.703125,233517.890625,144252.0,1.0,4
224946.53125,248802.109375,250796.953125,259027.3125,219493.96875,246315.25,205676.375,233644.671875,144253.0,1.0,4
224990.875,248994.6875,251514.71875,259122.09375,220145.109375,246645.15625,206064.671875,233945.265625,144254.0,1.0,4
224975.765625,249033.5,251669.125,259122.0,220313.109375,246730.015625,206160.703125,234005.15625,144255.0,1.0,4
224934.640625,248875.6875,251059.453125,259041.890625,219777.109375,246465.09375,205839.8125,233751.78125,144256.0,1.0,4
224915.875,248727.8125,250510.5,258979.484375,219260.078125,246201.4375,205531.28125,233524.953125,144257.0,1.0,4
224952.4375,248806.578125,250800.265625,259037.59375,219493.96875,246317.21875,205672.984375,233655.046875,144258.0,1.0,4
224998.125,249013.28125,251523.65625,259134.25,220149.3125,246657.765625,206068.4375,233967.515625,144259.0,1.0,4
224975.5,249047.96875,251676.546875,259124.046875,220316.78125,246741.09375,206166.953125,234024.03125,144260.0,1.0,4
224930.53125,248881.40625,251063.65625,259037.0625,219779.4375,246464.65625,205843.296875,233762.25,144261.0,1.0,4
224917.5625,248737.5625,250517.5625,258983.328125,219268.75,246206.359375,205540.03125,233536.140625,144262.0,1.0,4
224954.40625,248812.03125,250800.625,259036.96875,219497.359375,246320.96875,205677.984375,233659.875,144263.0,1.0,4
225005.09375,249015.796875,251525.625,259135.234375,220153.15625,246659.375,206071.375,233968.0625,144264.0,1.0,4
224989.1875,249059.515625,251693.078125,259136.65625,220333.578125,246752.09375,206177.953125,234035.109375,144265.0,1.0,4
224920.078125,248874.796875,251062.5,259024.359375,219778.28125,246462.859375,205837.578125,233758.125,144266.0,1.0,4
224902.640625,248723.421875,250509.515625,258968.9375,219261.328125,246198.578125,205532.171875,233532.734375,144267.0,1.0,4
224947.34375,248802.734375,250797.3125,259035.90625,219493.34375,246318.109375,205676.375,233664.25,144268.0,1.0,4
224994.546875,248999.703125,251519.71875,259129.6875,220146.71875,246659.921875,206072.71875,233971.640625,144269.0,1.0,4
224977.65625,249041.453125,251687.265625,259125.484375,220327.765625,246749.59375,206179.296875,234038.15625,144270.0,1.0,4
224916.765625,248867.546875,251067.140625,259025.53125,219782.84375,246470.734375,205845.09375,233770.203125,144271.0,1.0,4
224897.359375,248717.96875,250503.171875,258963.5625,219256.140625,246203.40625,205528.140625,233536.765625,144272.0,1.0,4
224940.90625,248791.109375,250779.796875,259021.5,219481.890625,246320.609375,205669.234375,233663.359375,144273.0,1.0,4
224983.1875,248983.78125,251501.484375,259116.453125,220132.859375,246656.25,206061.1875,233967.4375,144274.0,1.0,4
224969.515625,249033.140625,251682.078125,259117.609375,220321.25,246752.90625,206173.3125,234036.1875,144275.0,1.0,4
224916.5,248866.390625,251072.328125,259024.28125,219785.515625,246479.046875,205852.328125,233779.234375,144276.0,1.0,4
224906.21875,248726.375,250515.0625,258973.5,219267.578125,246220.21875,205550.5,233558.390625,144277.0,1.0,4
224961.203125,248814.890625,250798.75,259049.671875,219497.359375,246339.75,205695.78125,233689.5625,144278.0,1.0,4
225003.578125,249012.578125,251519.8125,259136.125,220151.734375,246668.5,206080.953125,233987.8125,144279.0,1.0,4
224971.484375,249046.546875,251692.1875,259121.1875,220336.71875,246754.234375,206180.8125,234045.390625,144280.0,1.0,4
224926.6875,248883.203125,251092.984375,259034.734375,219811.359375,246488.703125,205865.203125,233788.34375,144281.0,1.0,4
224912.296875,248736.75,250528.46875,258974.125,219283.046875,246218.609375,205551.921875,233553.921875,144282.0,1.0,4
224955.65625,248814.171875,250796.859375,259037.78125,219496.015625,246326.703125,205686.03125,233673.734375,144283.0,1.0,4
225000.09375,249010.609375,251519.09375,259136.390625,220146.09375,246661.96875,206076.203125,233976.90625,144284.0,1.0,4
224982.828125,249058.796875,251708.90625,259129.421875,220346.640625,246765.140625,206193.953125,234051.75,144285.0,1.0,4
224935.453125,248896.25,251108.359375,259041.171875,219819.5,246500.765625,205874.859375,233792.90625,144286.0,1.0,4
224906.578125,248732.546875,250525.15625,258970.625,219273.578125,246215.828125,205545.84375,233543.90625,144287.0,1.0,4
224942.15625,248799.25,250779.34375,259025.703125,219473.671875,246315.96875,205668.515625,233658.625,144288.0,1.0,4
224984.09375,248988.96875,251496.296875,259114.3125,220119.453125,246645.15625,206054.125,233959.65625,144289.0,1.0,4
224977.296875,249044.765625,251697.734375,259118.953125,220329.109375,246750.390625,206179.03125,234038.953125,144290.0,1.0,4
224923.921875,248876.5,251094.5,259026.25,219799.640625,246478.78125,205855.1875,233776.28125,144291.0,1.0,4
224906.65625,248727.09375,250527.21875,258970.625,219269.28125,246207.421875,205538.96875,233540.328125,144292.0,1.0,4
224956.375,248805.140625,250791.328125,259038.9375,219485.203125,246320.4375,205673.703125,233661.921875,144293.0,1.0,4
224995.796875,248996.484375,251505.5,259127.1875,220131.703125,246650.171875,206058.59375,233958.484375,144294.0,1.0,4
224977.828125,249048.421875,251705.515625,259122.796875,220339.484375,246751.375,206179.5625,234030.375,144295.0,1.0,4
224930.4375,248886.78125,251114.96875,259034.921875,219822.359375,246489.953125,205869.59375,233779.328125,144296.0,1.0,4
224911.3125,248731.203125,250535.53125,258973.671875,219283.671875,246214.578125,205548.171875,233541.9375,144297.0,1.0,4
224951.09375,248800.671875,250779.96875,259029.46875,219477.421875,246315.25,205667.171875,233652.625,144298.0,1.0,4
224996.96875,249001.65625,251501.65625,259128.4375,220127.671875,246649.1875,206057.25,233958.140625,144299.0,1.0,4
224977.921875,249050.21875,251705.515625,259124.953125,220338.671875,246753.96875,206177.0625,234034.671875,144300.0,1.0,4
224929.734375,248889.546875,251112.828125,259033.21875,219818.0625,246487.625,205858.953125,233778.421875,144301.0,1.0,4
224911.9375,248735.953125,250535.625,258974.390625,219281.625,246218.15625,205542.453125,233543.203125,144302.0,1.0,4
224960.125,248814.625,250786.859375,259040.640625,219483.765625,246323.203125,205673.515625,233664.96875,144303.0,1.0,4
224997.140625,249006.3125,251502.375,259122.09375,220127.234375,246649.09375,206056.546875,233964.484375,144304.0,1.0,4
224988.828125,249066.578125,251720.703125,259131.03125,220355.21875,246764.171875,206189.40625,234051.296875,144305.0,1.0,4
224942.421875,248908.40625,251134.640625,259045.375,219843.28125,246501.75,205881.578125,233800.515625,144306.0,1.0,4
224919.171875,248747.484375,250545.0,258978.671875,219292.34375,246217.703125,205551.84375,233554.109375,144307.0,1.0,4
224949.390625,248803.09375,250771.03125,259025.53125,219468.390625,246302.015625,205657.515625,233649.140625,144308.0,1.0,4
224990.078125,248997.8125,251485.84375,259115.203125,220116.328125,246635.328125,206044.5625,233946.421875,144309.0,1.0,4
224977.921875,249049.765625,251703.71875,259118.6875,220345.109375,246748.078125,206176.796875,234022.59375,144310.0,1.0,4
224934.109375,248890.703125,251121.0625,259028.5625,219835.765625,246488.4375,205869.5,233772.96875,144311.0,1.0,4
224908.984375,248728.96875,250526.5,258960.703125,219277.421875,246202.59375,205533.328125,233518.875,144312.0,1.0,4
224952.34375,248792.09375,250756.546875,259017.921875,219457.578125,246296.390625,205646.25,233623.484375,144313.0,1.0,4
224999.734375,248987.359375,251479.484375,259118.25,220112.390625,246635.234375,206038.390625,233933.8125,144314.0,1.0,4
224982.5625,249043.0625,251704.078125,259119.40625,220347.796875,246752.625,206174.46875,234025.375,144315.0,1.0,4
224928.125,248882.125,251117.921875,259022.578125,219836.65625,246489.5,205867.4375,233775.65625,144316.0,1.0,4
224912.03125,248729.6875,250530.609375,258964.28125,219291.90625,246215.734375,205547.546875,233538.546875,144317.0,1.0,4
224946.265625,248790.84375,250748.671875,259020.078125,219463.203125,246299.515625,205654.03125,233637.515625,144318.0,1.0,4
224987.390625,248985.03125,251465.90625,259117.609375,220107.5625,246630.40625,206039.546875,233938.203125,144319.0,1.0,4
224975.953125,249049.671875,251702.921875,259120.125,220348.328125,246756.03125,206179.921875,234031.1875,144320.0,1.0,4
224930.0,248893.921875,251124.8125,259025.171875,219841.390625,246500.6875,205876.46875,233781.015625,144321.0,1.0,4
224912.734375,248735.5,250533.65625,258966.25,219288.953125,246223.609375,205550.671875,233539.171875,144322.0,1.0,4
224952.96875,248793.96875,250750.734375,259020.15625,219453.28125,246301.03125,205648.390625,233636.8125,144323.0,1.0,4
225003.75,248995.140625,251474.484375,259117.4375,220100.59375,246630.140625,206036.953125,233942.3125,144324.0,1.0,4
224995.703125,249058.609375,251717.84375,259126.828125,220349.59375,246757.09375,206183.046875,234041.546875,144325.0,1.0,4
224949.125,248903.234375,251146.453125,259040.640625,219852.390625,246506.5,205881.390625,233799.890625,144326.0,1.0,4
224927.9375,248744.96875,250548.671875,258977.875,219297.359375,246226.65625,205553.984375,233553.75,144327.0,1.0,4
224972.375,248807.296875,250764.5,259038.765625,219464.546875,246313.734375,205658.765625,233653.078125,144328.0,1.0,4
225015.828125,249006.484375,251487.625,259130.046875,220115.703125,246649.640625,206048.578125,233957.15625,144329.0,1.0,4
224991.59375,249059.0625,251723.65625,259123.875,220354.59375,246763.09375,206182.875,234041.546875,144330.0,1.0,4
224944.75,248904.84375,251152.34375,259036.171875,219859.71875,246511.046875,205883.8125,233795.59375,144331.0,1.0,4
224929.734375,248746.234375,250550.109375,258976.0,219300.9375,246225.21875,205548.53125,233540.515625,144332.0,1.0,4
224962.984375,248800.5,250746.890625,259022.671875,219450.421875,246294.875,205641.515625,233625.71875,144333.0,1.0,4
225008.40625,249001.390625,251463.484375,259117.4375,220098.359375,246628.625,206029.0,233926.578125,144334.0,1.0,4
224996.78125,249067.921875,251714.890625,259122.53125,220357.28125,246762.203125,206178.84375,234027.328125,144335.0,1.0,4
224939.296875,248910.296875,251140.28125,259027.046875,219858.828125,246507.390625,205877.28125,233781.28125,144336.0,1.0,4
224915.59375,248750.703125,250535.625,258963.84375,219295.5625,246226.03125,205548.265625,233537.828125,144337.0,1.0,4
224947.15625,248798.265625,250727.671875,259012.296875,219441.03125,246300.5,205643.296875,233635.109375,144338.0,1.0,4
225000.1875,248995.40625,251451.421875,259113.859375,220094.15625,246637.921875,206036.609375,233950.625,144339.0,1.0,4
224990.4375,249061.03125,251712.296875,259124.765625,220358.34375,246771.40625,206193.25,234057.90625,144340.0,1.0,4
224931.78125,248898.21875,251136.875,259026.328125,219858.75,246509.265625,205887.203125,233807.65625,144341.0,1.0,4
224903.53125,248729.859375,250523.734375,258955.875,219289.578125,246217.078125,205549.25,233553.921875,144342.0,1.0,4
224946.265625,248788.609375,250721.140625,259009.34375,219434.6875,246291.5625,205641.515625,233646.46875,144343.0,1.0,4
224992.9375,248985.75,251435.5,259100.890625,220074.921875,246613.609375,206023.109375,233944.71875,144344.0,1.0,4
224991.6875,249063.890625,251708.28125,259119.3125,220352.0,246754.59375,206186.09375,234054.96875,144345.0,1.0,4
224958.25,248920.03125,251160.484375,259048.328125,219876.890625,246520.796875,205901.6875,233823.125,144346.0,1.0,4
224928.390625,248750.4375,250543.484375,258968.125,219303.796875,246228.96875,205555.859375,233555.71875,144347.0,1.0,4
224963.96875,248799.6875,250727.390625,259014.359375,219440.3125,246296.65625,205637.484375,233633.234375,144348.0,1.0,4
225007.515625,248988.609375,251439.34375,259105.453125,220080.03125,246619.59375,206018.453125,233928.546875,144349.0,1.0,4
225000.1875,249057.625,251708.109375,259116.546875,220351.734375,246753.34375,206179.46875,234034.046875,144350.0,1.0,4
224946.890625,248902.59375,251149.84375,259024.8125,219864.203125,246505.78125,205887.828125,233792.46875,144351.0,1.0,4
224917.484375,248734.0625,250530.515625,258955.609375,219290.734375,246215.828125,205545.578125,233534.25,144352.0,1.0,4
224954.671875,248786.28125,250708.71875,259006.390625,219427.359375,246285.296875,205634.8125,233625.265625,144353.0,1.0,4
225003.3125,248984.9375,251427.90625,259104.390625,220074.921875,246619.234375,206024.796875,233933.71875,144354.0,1.0,4
224993.828125,249059.875,251705.78125,259115.734375,220356.65625,246764.96875,206189.84375,234044.40625,144355.0,1.0,4
224940.90625,248906.71875,251149.21875,259026.6875,219873.578125,246517.3125,205897.3125,233802.125,144356.0,1.0,4
224920.78125,248747.65625,250540.0,258968.21875,219308.0,246228.4375,205558.984375,233551.953125,144357.0,1.0,4
224944.84375,248787.09375,250704.6875,259001.203125,219428.78125,246284.40625,205627.03125,233622.046875,144358.0,1.0,4
224992.140625,248986.46875,251425.484375,259099.375,220073.59375,246618.078125,206017.46875,233925.671875,144359.0,1.0,4
224986.6875,249059.15625,251711.234375,259117.4375,220359.6875,246763.359375,206185.46875,234040.5625,144360.0,1.0,4
224928.5625,248902.0625,251149.484375,259017.21875,219872.515625,246510.515625,205883.984375,233796.484375,144361.0,1.0,4
224904.609375,248735.5,250527.296875,258950.15625,219295.75,246217.0,205544.140625,233540.515625,144362.0,1.0,4
224938.578125,248781.1875,250692.34375,258993.078125,219414.921875,246276.8125,205618.796875,233618.484375,144363.0,1.0,4
224992.578125,248986.828125,251413.859375,259093.921875,220062.40625,246611.453125,206010.046875,233929.703125,144364.0,1.0,4
224990.703125,249063.890625,251706.578125,259116.984375,220357.640625,246764.34375,206185.109375,234050.140625,144365.0,1.0,4
224938.21875,248910.46875,251157.0,259028.921875,219881.8125,246524.015625,205896.765625,233810.609375,144366.0,1.0,4
224929.109375,248758.828125,250547.6875,258973.84375,219314.25,246241.046875,205563.734375,233560.265625,144367.0,1.0,4
224965.9375,248806.484375,250713.546875,259017.21875,219431.90625,246292.546875,205640.890625,233633.765625,144368.0,1.0,4
225013.59375,249000.765625,251429.515625,259112.515625,220074.484375,246622.09375,206025.515625,233937.84375,144369.0,1.0,4
224994.640625,249064.421875,251709.625,259117.53125,220354.421875,246757.546875,206183.3125,234040.296875,144370.0,1.0,4
224935.71875,248907.34375,251156.8125,259023.734375,219874.390625,246511.59375,205890.0625,233800.953125,144371.0,1.0,4
224918.8125,248749.53125,250542.421875,258963.5625,219303.796875,246227.71875,205554.78125,233550.96875,144372.0,1.0,4
224959.328125,248793.171875,250702.8125,259016.765625,219419.3125,246288.609375,205627.46875,233627.859375,144373.0,1.0,4
225011.71875,248995.140625,251420.296875,259117.34375,220065.90625,246622.359375,206016.3125,233936.40625,144374.0,1.0,4
225000.1875,249075.15625,251718.828125,259123.703125,220365.328125,246774.71875,206192.53125,234057.203125,144375.0,1.0,4
224942.515625,248911.8125,251168.0,259030.171875,219887.53125,246525.890625,205900.96875,233815.0,144376.0,1.0,4
224917.390625,248738.625,250540.53125,258961.59375,219305.3125,246224.953125,205554.609375,233553.125,144377.0,1.0,4
224961.015625,248786.015625,250698.609375,259016.140625,219421.984375,246282.703125,205629.171875,233630.90625,144378.0,1.0,4
225007.25,248980.5625,251412.078125,259106.796875,220060.796875,246607.171875,206011.5625,233930.6875,144379.0,1.0,4
224996.78125,249060.046875,251717.21875,259119.671875,220360.140625,246759.96875,206189.3125,234052.1875,144380.0,1.0,4
224941.265625,248908.5,251175.765625,259028.03125,219892.625,246520.4375,205903.5625,233816.6875,144381.0,1.0,4
224924.359375,248744.53125,250550.453125,258967.328125,219315.140625,246232.015625,205564.53125,233559.5625,144382.0,1.0,4
224958.96875,248788.078125,250693.25,259012.203125,219412.78125,246282.53125,205627.65625,233622.328125,144383.0,1.0,4
225011.359375,248987.890625,251412.515625,259116.8125,220054.1875,246614.765625,206013.796875,233929.4375,144384.0,1.0,4
225001.4375,249068.09375,251723.21875,259127.453125,220361.921875,246768.8125,206193.421875,234053.359375,144385.0,1.0,4
224951.625,248924.328125,251193.03125,259033.578125,219903.984375,246536.265625,205916.890625,233825.453125,144386.0,1.0,4
224921.40625,248744.34375,250552.25,258960.625,219308.890625,246229.59375,205559.4375,233557.5,144387.0,1.0,4
224964.859375,248790.03125,250697.0,259012.03125,219412.15625,246283.78125,205629.171875,233632.609375,144388.0,1.0,4
225007.0625,248976.1875,251403.84375,259106.0,220045.25,246604.9375,206005.84375,233930.328125,144389.0,1.0,4
225006.171875,249062.640625,251727.59375,259126.109375,220365.859375,246770.6875,206195.203125,234063.28125,144390.0,1.0,4
224961.46875,248924.59375,251201.96875,259044.578125,219915.15625,246543.953125,205924.03125,233836.8125,144391.0,1.0,4
224940.640625,248760.984375,250570.3125,258981.265625,219335.625,246249.0,205579.375,233576.640625,144392.0,1.0,4
224971.578125,248790.75,250698.15625,259024.453125,219425.46875,246285.484375,205634.1875,233636.09375,144393.0,1.0,4
225018.421875,248981.015625,251406.359375,259117.609375,220057.765625,246604.21875,206009.78125,233930.953125,144394.0,1.0,4
225012.421875,249071.140625,251729.734375,259133.890625,220373.015625,246760.5,206193.78125,234057.5625,144395.0,1.0,4
224962.625,248927.640625,251205.09375,259048.140625,219916.859375,246527.0625,205912.859375,233827.953125,144396.0,1.0,4
224938.484375,248756.234375,250568.703125,258976.171875,219327.046875,246228.890625,205560.59375,233561.171875,144397.0,1.0,4
224965.765625,248788.25,250687.4375,259005.140625,219409.734375,246272.6875,205616.03125,233614.625,144398.0,1.0,4
225015.828125,248988.703125,251402.234375,259105.1875,220049.0,246603.5,206003.4375,233917.8125,144399.0,1.0,4
225009.03125,249074.796875,251731.890625,259123.96875,220370.78125,246767.203125,206195.203125,234047.0,144400.0,1.0,4
224950.015625,248921.375,251206.890625,259029.28125,219913.546875,246529.921875,205916.078125,233816.875,144401.0,1.0,4
224925.703125,248748.375,250569.328125,258958.734375,219326.234375,246230.859375,205565.78125,233554.375,144402.0,1.0,4
224962.890625,248786.1875,250687.4375,259003.71875,219407.78125,246271.53125,205619.96875,233610.515625,144403.0,1.0,4
225011.71875,248983.96875,251396.703125,259106.171875,220043.015625,246595.984375,206004.765625,233911.546875,144404.0,1.0,4
225005.90625,249078.828125,251736.359375,259125.84375,220376.140625,246763.53125,206204.953125,234052.640625,144405.0,1.0,4
224961.015625,248935.953125,251224.59375,259046.1875,219934.296875,246539.84375,205936.28125,233836.453125,144406.0,1.0,4
224925.609375,248746.578125,250567.890625,258963.203125,219326.765625,246224.953125,205567.578125,233557.765625,144407.0,1.0,4
224961.46875,248780.203125,250677.953125,259000.21875,219397.84375,246257.859375,205615.765625,233612.046875,144408.0,1.0,4
225019.578125,248980.46875,251391.78125,259104.734375,220034.703125,246585.703125,206000.03125,233918.078125,144409.0,1.0,4
225020.03125,249075.421875,251737.25,259132.546875,220372.203125,246756.828125,206196.46875,234057.828125,144410.0,1.0,4
224971.921875,248938.28125,251228.515625,259045.375,219932.953125,246534.5625,205931.8125,233836.265625,144411.0,1.0,4
224947.078125,248772.328125,250587.5625,258974.203125,219339.5625,246238.71875,205581.4375,233570.28125,144412.0,1.0,4
224985.78125,248807.03125,250702.453125,259022.9375,219415.109375,246281.453125,205632.390625,233628.140625,144413.0,1.0,4
225025.125,248989.6875,251400.28125,259118.15625,220040.421875,246596.53125,206003.703125,233916.921875,144414.0,1.0,4
225012.515625,249075.25,251739.390625,259125.484375,220374.359375,246762.015625,206194.046875,234048.609375,144415.0,1.0,4
224965.3125,248939.171875,251237.640625,259045.375,219942.875,246546.28125,205936.90625,233837.53125,144416.0,1.0,4
224929.28125,248754.984375,250580.765625,258964.109375,219332.671875,246235.859375,205569.984375,233557.953125,144417.0,1.0,4
224959.859375,248783.953125,250677.59375,258998.96875,219390.96875,246260.171875,205608.078125,233602.828125,144418.0,1.0,4
225013.765625,248984.9375,251386.78125,259102.15625,220024.234375,246588.484375,205992.609375,233907.34375,144419.0,1.0,4
225010.1875,249077.484375,251739.578125,259124.59375,220369.796875,246763.0,206196.90625,234052.375,144420.0,1.0,4
224968.625,248948.46875,251246.578125,259049.84375,219943.953125,246549.234375,205944.515625,233842.4375,144421.0,1.0,4
224942.0625,248775.90625,250595.25,258975.8125,219343.9375,246239.34375,205583.3125,233569.578125,144422.0,1.0,4
224964.421875,248792.1875,250673.578125,259006.3125,219388.28125,246249.09375,205606.734375,233603.015625,144423.0,1.0,4
225016.359375,248988.25,251378.28125,259106.265625,220022.71875,246575.515625,205990.828125,233903.5,144424.0,1.0,4
