FZ,C3,CZ,C4,PZ,PO7,OZ,PO8,Counter,Validation,Label
-655845.375,-7487.47705078125,4954.93505859375,8716.7333984375,-750000.125,12351.306640625,-750000.125,-750000.125,972039.0,1.0,4
-656054.75,-7947.9228515625,7769.2880859375,9005.697265625,-750000.125,12057.068359375,-750000.125,-750000.125,972040.0,1.0,4
-644385.8125,-45472.66015625,-39337.10546875,893.4439697265625,-750000.125,24071.935546875,-750000.125,-750000.125,972041.0,1.0,4
-636133.5625,-60064.59375,-59515.1875,-4886.71728515625,-750000.125,24992.291015625,-750000.125,-750000.125,972042.0,1.0,4
-643038.4375,-48147.984375,-45825.99609375,-268.3997497558594,-750000.125,24663.18359375,-750000.125,-750000.125,972043.0,1.0,4
-655778.75,-7638.03857421875,4726.85791015625,8752.0498046875,-750000.125,12492.837890625,-750000.125,-750000.125,972044.0,1.0,4
-656097.875,-7595.123046875,8148.82080078125,9134.890625,-750000.125,12025.775390625,-750000.125,-750000.125,972045.0,1.0,4
-644477.5625,-45228.3984375,-38998.51953125,1055.538818359375,-750000.125,24077.568359375,-750000.125,-750000.125,972046.0,1.0,4
-636128.0,-60059.9453125,-59498.46875,-4791.58837890625,-750000.125,25030.916015625,-750000.125,-750000.125,972047.0,1.0,4
-642948.5625,-48305.7890625,-46019.203125,-234.6039276123047,-750000.125,24727.9140625,-750000.125,-750000.125,972048.0,1.0,4
-655713.125,-7758.0224609375,4526.5859375,8795.412109375,-750000.125,12628.2890625,-750000.125,-750000.125,972049.0,1.0,4
-656136.0,-7277.01318359375,8503.140625,9211.6904296875,-750000.125,11976.4228515625,-750000.125,-750000.125,972050.0,1.0,4
-644561.6875,-45000.3203125,-38681.21484375,1119.911865234375,-750000.125,24046.90234375,-750000.125,-750000.125,972051.0,1.0,4
-636125.0625,-60050.37890625,-59476.7421875,-4792.75048828125,-750000.125,25045.66796875,-750000.125,-750000.125,972052.0,1.0,4
-642864.4375,-48466.2734375,-46210.53515625,-289.5892028808594,-750000.125,24764.03515625,-750000.125,-750000.125,972053.0,1.0,4
-655644.75,-7965.1787109375,4256.21923828125,8735.419921875,-750000.125,12703.6591796875,-750000.125,-750000.125,972054.0,1.0,4
-656179.125,-6986.17236328125,8804.62109375,9211.244140625,-750000.125,11852.7734375,-750000.125,-750000.125,972055.0,1.0,4
-644651.3125,-44749.4453125,-38363.375,1154.5123291015625,-750000.125,23992.990234375,-750000.125,-750000.125,972056.0,1.0,4
-636125.125,-60016.76171875,-59439.37109375,-4820.109375,-750000.125,25050.583984375,-750000.125,-750000.125,972057.0,1.0,4
-642784.6875,-48632.2109375,-46423.6796875,-472.6053161621094,-750000.125,24752.412109375,-750000.125,-750000.125,972058.0,1.0,4
-655574.375,-8339.7939453125,3804.982421875,8610.16015625,-750000.125,12592.34765625,-750000.125,-750000.125,972059.0,1.0,4
-656215.6875,-6902.4873046875,8875.5205078125,9236.9931640625,-750000.125,11549.0576171875,-750000.125,-750000.125,972060.0,1.0,4
-644725.5625,-44593.87890625,-38179.10546875,1234.7998046875,-750000.125,23839.56640625,-750000.125,-750000.125,972061.0,1.0,4
-636111.375,-60008.08984375,-59433.91796875,-4792.482421875,-750000.125,24994.97265625,-750000.125,-750000.125,972062.0,1.0,4
-642695.125,-48798.2421875,-46638.79296875,-499.7850341796875,-750000.125,24696.890625,-750000.125,-750000.125,972063.0,1.0,4
-655515.5625,-8667.6494140625,3437.966796875,8581.103515625,-750000.125,12497.666015625,-750000.125,-750000.125,972064.0,1.0,4
-656254.3125,-6886.4833984375,8958.1328125,9246.291015625,-750000.125,11276.1875,-750000.125,-750000.125,972065.0,1.0,4
-644802.0625,-44457.890625,-37982.0546875,1279.9503173828125,-750000.125,23680.869140625,-750000.125,-750000.125,972066.0,1.0,4
-636108.125,-60001.5625,-59407.2734375,-4818.6787109375,-750000.125,24934.35546875,-750000.125,-750000.125,972067.0,1.0,4
-642616.4375,-48947.28125,-46812.2421875,-485.1222839355469,-750000.125,24685.08984375,-750000.125,-750000.125,972068.0,1.0,4
-655449.9375,-8847.267578125,3186.55419921875,8577.1689453125,-750000.125,12645.0078125,-750000.125,-750000.125,972069.0,1.0,4
-656291.4375,-6621.212890625,9250.404296875,9271.6826171875,-750000.125,11286.916015625,-750000.125,-750000.125,972070.0,1.0,4
-644880.5625,-44250.375,-37691.8359375,1337.349609375,-750000.125,23688.291015625,-750000.125,-750000.125,972071.0,1.0,4
-636101.625,-59985.73828125,-59381.2578125,-4813.8505859375,-750000.125,24954.740234375,-750000.125,-750000.125,972072.0,1.0,4
-642537.0625,-49084.07421875,-46977.46875,-533.5808715820312,-750000.125,24734.708984375,-750000.125,-750000.125,972073.0,1.0,4
-655389.9375,-9009.18359375,2962.58984375,8537.47265625,-750000.125,12802.275390625,-750000.125,-750000.125,972074.0,1.0,4
-656325.1875,-6341.01123046875,9563.328125,9295.0185546875,-750000.125,11288.4365234375,-750000.125,-750000.125,972075.0,1.0,4
-644957.3125,-44031.77734375,-37375.3359375,1353.9793701171875,-750000.125,23673.986328125,-750000.125,-750000.125,972076.0,1.0,4
-636104.5,-59978.5859375,-59349.875,-4840.6728515625,-750000.125,24961.892578125,-750000.125,-750000.125,972077.0,1.0,4
-642463.1875,-49235.08203125,-47139.1171875,-607.252197265625,-750000.125,24762.158203125,-750000.125,-750000.125,972078.0,1.0,4
-655328.0625,-9227.873046875,2712.697265625,8456.0234375,-750000.125,12887.2119140625,-750000.125,-750000.125,972079.0,1.0,4
-656363.8125,-6135.6435546875,9806.42578125,9253.0859375,-750000.125,11190.982421875,-750000.125,-750000.125,972080.0,1.0,4
-645039.25,-43818.36328125,-37101.39453125,1325.9949951171875,-750000.125,23608.44921875,-750000.125,-750000.125,972081.0,1.0,4
-636105.4375,-59949.88671875,-59317.59765625,-4925.4306640625,-750000.125,24949.375,-750000.125,-750000.125,972082.0,1.0,4
-642381.75,-49378.58203125,-47326.06640625,-750.1245727539062,-750000.125,24769.130859375,-750000.125,-750000.125,972083.0,1.0,4
-655254.5,-9485.7236328125,2362.93701171875,8314.6708984375,-750000.125,12958.0224609375,-750000.125,-750000.125,972084.0,1.0,4
-656401.125,-5890.7578125,10033.7880859375,9215.087890625,-750000.125,11096.3896484375,-750000.125,-750000.125,972085.0,1.0,4
-645124.0625,-43585.9921875,-36808.140625,1360.4166259765625,-750000.125,23568.931640625,-750000.125,-750000.125,972086.0,1.0,4
-636102.25,-59919.75390625,-59285.234375,-4941.255859375,-750000.125,24952.236328125,-750000.125,-750000.125,972087.0,1.0,4
-642299.25,-49512.78125,-47504.07421875,-824.6900024414062,-750000.125,24796.400390625,-750000.125,-750000.125,972088.0,1.0,4
-655187.0625,-9687.8720703125,2092.3916015625,8240.91015625,-750000.125,13065.8466796875,-750000.125,-750000.125,972089.0,1.0,4
-656436.0625,-5684.40673828125,10297.2705078125,9212.1376953125,-750000.125,11044.5341796875,-750000.125,-750000.125,972090.0,1.0,4
-645207.375,-43385.8125,-36510.32421875,1390.189208984375,-750000.125,23538.533203125,-750000.125,-750000.125,972091.0,1.0,4
-636107.1875,-59908.3125,-59250.8125,-4966.28955078125,-750000.125,24959.658203125,-750000.125,-750000.125,972092.0,1.0,4
-642227.625,-49675.4140625,-47688.34375,-992.9539184570312,-750000.125,24789.78515625,-750000.125,-750000.125,972093.0,1.0,4
-655122.75,-10050.5966796875,1685.67919921875,8136.125,-750000.125,13010.3251953125,-750000.125,-750000.125,972094.0,1.0,4
-656465.5,-5677.52197265625,10332.228515625,9250.76171875,-750000.125,10817.171875,-750000.125,-750000.125,972095.0,1.0,4
-645280.875,-43253.84765625,-36337.41015625,1467.436767578125,-750000.125,23396.109375,-750000.125,-750000.125,972096.0,1.0,4
-636103.0625,-59896.0625,-59230.25,-4955.29248046875,-750000.125,24909.322265625,-750000.125,-750000.125,972097.0,1.0,4
-642143.75,-49816.85546875,-47860.80859375,-951.0220947265625,-750000.125,24782.095703125,-750000.125,-750000.125,972098.0,1.0,4
-655053.375,-10242.1953125,1421.8392333984375,8148.462890625,-750000.125,13165.0888671875,-750000.125,-750000.125,972099.0,1.0,4
-656499.9375,-5394.72802734375,10642.380859375,9268.5537109375,-750000.125,10820.30078125,-750000.125,-750000.125,972100.0,1.0,4
-645364.375,-43012.08984375,-35995.16015625,1505.613525390625,-750000.125,23384.931640625,-750000.125,-750000.125,972101.0,1.0,4
-636107.25,-59871.921875,-59182.59375,-4973.173828125,-750000.125,24925.146484375,-750000.125,-750000.125,972102.0,1.0,4
-642064.25,-49971.3515625,-48029.25,-1030.951904296875,-750000.125,24822.865234375,-750000.125,-750000.125,972103.0,1.0,4
-654981.0,-10507.64453125,1123.6669921875,8053.8701171875,-750000.125,13302.775390625,-750000.125,-750000.125,972104.0,1.0,4
-656538.6875,-5167.81298828125,10910.9599609375,9223.224609375,-750000.125,10760.041015625,-750000.125,-750000.125,972105.0,1.0,4
-645452.0625,-42771.5859375,-35679.19921875,1462.8770751953125,-750000.125,23328.337890625,-750000.125,-750000.125,972106.0,1.0,4
-636115.5,-59840.8984375,-59144.59765625,-5057.48486328125,-750000.125,24917.546875,-750000.125,-750000.125,972107.0,1.0,4
-641984.4375,-50120.83984375,-48222.37109375,-1246.5120849609375,-750000.125,24801.138671875,-750000.125,-750000.125,972108.0,1.0,4
-654908.75,-10860.1767578125,691.4735717773438,7873.53662109375,-750000.125,13219.0908203125,-750000.125,-750000.125,972109.0,1.0,4
-656571.0,-5104.5126953125,10956.4677734375,9195.5078125,-750000.125,10500.58203125,-750000.125,-750000.125,972110.0,1.0,4
-645533.9375,-42600.99609375,-35480.625,1497.119873046875,-750000.125,23179.921875,-750000.125,-750000.125,972111.0,1.0,4
-636116.75,-59807.19140625,-59110.17578125,-5074.47216796875,-750000.125,24860.05859375,-750000.125,-750000.125,972112.0,1.0,4
-641901.8125,-50251.640625,-48396.8046875,-1245.9757080078125,-750000.125,24777.71484375,-750000.125,-750000.125,972113.0,1.0,4
-654830.0625,-11120.619140625,356.6444396972656,7836.52197265625,-750000.125,13344.796875,-750000.125,-750000.125,972114.0,1.0,4
-656607.5,-4924.0,11191.6982421875,9163.4111328125,-750000.125,10457.666015625,-750000.125,-750000.125,972115.0,1.0,4
-645621.3125,-42395.09375,-35175.56640625,1500.78564453125,-750000.125,23141.298828125,-750000.125,-750000.125,972116.0,1.0,4
-636122.75,-59794.8515625,-59074.234375,-5123.9140625,-750000.125,24860.595703125,-750000.125,-750000.125,972117.0,1.0,4
-641825.625,-50397.8203125,-48560.77734375,-1351.297119140625,-750000.125,24794.880859375,-750000.125,-750000.125,972118.0,1.0,4
-654767.9375,-11338.3251953125,76.08534240722656,7755.876953125,-750000.125,13469.2509765625,-750000.125,-750000.125,972119.0,1.0,4
-656639.5,-4704.3271484375,11432.3818359375,9166.00390625,-750000.125,10441.841796875,-750000.125,-750000.125,972120.0,1.0,4
-645701.1875,-42170.5,-34873.28125,1540.303466796875,-750000.125,23118.677734375,-750000.125,-750000.125,972121.0,1.0,4
-636129.625,-59775.36328125,-59040.2578125,-5137.41455078125,-750000.125,24868.462890625,-750000.125,-750000.125,972122.0,1.0,4
-641747.3125,-50566.0859375,-48756.3984375,-1500.1597900390625,-750000.125,24798.904296875,-750000.125,-750000.125,972123.0,1.0,4
-654696.8125,-11740.65625,-365.2275085449219,7614.703125,-750000.125,13449.849609375,-750000.125,-750000.125,972124.0,1.0,4
-656676.75,-4669.45849609375,11481.9130859375,9162.5166015625,-750000.125,10211.88671875,-750000.125,-750000.125,972125.0,1.0,4
-645787.625,-42000.00390625,-34666.57421875,1573.74169921875,-750000.125,22961.412109375,-750000.125,-750000.125,972126.0,1.0,4
-636133.875,-59747.9140625,-59009.859375,-5156.63720703125,-750000.125,24808.11328125,-750000.125,-750000.125,972127.0,1.0,4
-641667.75,-50697.69140625,-48927.79296875,-1504.4512939453125,-750000.125,24768.953125,-750000.125,-750000.125,972128.0,1.0,4
-654621.9375,-11992.4267578125,-701.9342041015625,7589.7587890625,-750000.125,13569.2080078125,-750000.125,-750000.125,972129.0,1.0,4
-656707.25,-4496.4560546875,11654.46875,9117.634765625,-750000.125,10187.7470703125,-750000.125,-750000.125,972130.0,1.0,4
-645866.5625,-41793.83203125,-34404.87890625,1554.16162109375,-750000.125,22920.8203125,-750000.125,-750000.125,972131.0,1.0,4
-636136.6875,-59716.35546875,-58974.72265625,-5223.96044921875,-750000.125,24796.490234375,-750000.125,-750000.125,972132.0,1.0,4
-641592.5625,-50820.26953125,-49089.9765625,-1628.369384765625,-750000.125,24775.837890625,-750000.125,-750000.125,972133.0,1.0,4
-654553.3125,-12222.470703125,-1024.7828369140625,7486.04638671875,-750000.125,13696.61328125,-750000.125,-750000.125,972134.0,1.0,4
-656741.75,-4286.349609375,11879.5947265625,9124.2509765625,-750000.125,10178.8056640625,-750000.125,-750000.125,972135.0,1.0,4
-645953.125,-41570.40234375,-34097.765625,1598.2392578125,-750000.125,22899.54296875,-750000.125,-750000.125,972136.0,1.0,4
-636148.9375,-59697.66796875,-58939.31640625,-5233.4375,-750000.125,24806.056640625,-750000.125,-750000.125,972137.0,1.0,4
-641517.875,-50969.3125,-49265.21484375,-1763.7315673828125,-750000.125,24776.642578125,-750000.125,-750000.125,972138.0,1.0,4
-654488.4375,-12580.3671875,-1406.1036376953125,7344.873046875,-750000.125,13653.6982421875,-750000.125,-750000.125,972139.0,1.0,4
-656775.4375,-4290.46240234375,11948.4384765625,9117.634765625,-750000.125,9941.251953125,-750000.125,-750000.125,972140.0,1.0,4
-646031.25,-41429.765625,-33886.5859375,1643.657958984375,-750000.125,22744.421875,-750000.125,-750000.125,972141.0,1.0,4
-636153.375,-59671.73828125,-58891.12890625,-5250.0673828125,-750000.125,24754.021484375,-750000.125,-750000.125,972142.0,1.0,4
-641441.0,-51102.52734375,-49413.98828125,-1775.2650146484375,-750000.125,24755.720703125,-750000.125,-750000.125,972143.0,1.0,4
-654411.375,-12817.7421875,-1713.3953857421875,7336.6474609375,-750000.125,13808.2822265625,-750000.125,-750000.125,972144.0,1.0,4
-656806.5,-4057.378173828125,12198.6884765625,9119.154296875,-750000.125,9958.41796875,-750000.125,-750000.125,972145.0,1.0,4
-646120.625,-41185.953125,-33554.9765625,1684.248779296875,-750000.125,22736.10546875,-750000.125,-750000.125,972146.0,1.0,4
-636166.375,-59643.30859375,-58845.796875,-5260.4384765625,-750000.125,24772.529296875,-750000.125,-750000.125,972147.0,1.0,4
-641365.4375,-51244.86328125,-49580.46484375,-1850.456298828125,-750000.125,24793.71875,-750000.125,-750000.125,972148.0,1.0,4
-654337.6875,-13058.068359375,-2023.1905517578125,7256.98583984375,-750000.125,13961.5263671875,-750000.125,-750000.125,972149.0,1.0,4
-656838.125,-3788.26318359375,12451.4423828125,9119.7802734375,-750000.125,9942.771484375,-750000.125,-750000.125,972150.0,1.0,4
-646200.0625,-40929.265625,-33231.76953125,1705.974609375,-750000.125,22709.91015625,-750000.125,-750000.125,972151.0,1.0,4
-636174.6875,-59615.32421875,-58811.64453125,-5279.39306640625,-750000.125,24782.54296875,-750000.125,-750000.125,972152.0,1.0,4
-641290.0625,-51377.8125,-49751.5,-1984.5667724609375,-750000.125,24791.751953125,-750000.125,-750000.125,972153.0,1.0,4
-654264.3125,-13417.841796875,-2456.456787109375,7112.4150390625,-750000.125,13934.078125,-750000.125,-750000.125,972154.0,1.0,4
-656871.5,-3778.16015625,12468.072265625,9094.478515625,-750000.125,9714.60546875,-750000.125,-750000.125,972155.0,1.0,4
-646289.8125,-40762.34375,-33031.3203125,1710.08740234375,-750000.125,22539.41015625,-750000.125,-750000.125,972156.0,1.0,4
-636186.625,-59570.7109375,-58762.203125,-5323.0234375,-750000.125,24715.30859375,-750000.125,-750000.125,972157.0,1.0,4
-641208.0,-51503.25,-49919.671875,-2027.92919921875,-750000.125,24750.35546875,-750000.125,-750000.125,972158.0,1.0,4
-654179.0,-13671.84765625,-2825.797119140625,7081.30126953125,-750000.125,14059.4267578125,-750000.125,-750000.125,972159.0,1.0,4
-656896.6875,-3565.729248046875,12679.7880859375,9105.921875,-750000.125,9717.9130859375,-750000.125,-750000.125,972160.0,1.0,4
-646368.25,-40542.84765625,-32716.787109375,1776.606201171875,-750000.125,22532.080078125,-750000.125,-750000.125,972161.0,1.0,4
-636198.8125,-59558.37109375,-58723.84765625,-5304.4267578125,-750000.125,24734.3515625,-750000.125,-750000.125,972162.0,1.0,4
-641141.75,-51634.58984375,-50063.44140625,-2063.334228515625,-750000.125,24786.029296875,-750000.125,-750000.125,972163.0,1.0,4
-654108.875,-13903.1435546875,-3100.365966796875,7045.806640625,-750000.125,14215.978515625,-750000.125,-750000.125,972164.0,1.0,4
-656926.0,-3400.505126953125,12898.208984375,9126.486328125,-750000.125,9728.1953125,-750000.125,-750000.125,972165.0,1.0,4
-646453.25,-40324.6953125,-32409.94140625,1819.7003173828125,-750000.125,22508.296875,-750000.125,-750000.125,972166.0,1.0,4
-636215.6875,-59522.87890625,-58670.828125,-5307.1982421875,-750000.125,24744.544921875,-750000.125,-750000.125,972167.0,1.0,4
-641066.125,-51780.6796875,-50233.04296875,-2190.560546875,-750000.125,24789.6953125,-750000.125,-750000.125,972168.0,1.0,4
-654025.1875,-14353.576171875,-3590.942138671875,6886.3046875,-750000.125,14217.498046875,-750000.125,-750000.125,972169.0,1.0,4
-656953.3125,-3406.584716796875,12906.61328125,9118.439453125,-750000.125,9503.3359375,-750000.125,-750000.125,972170.0,1.0,4
-646540.0,-40151.69140625,-32200.55078125,1870.1258544921875,-750000.125,22341.642578125,-750000.125,-750000.125,972171.0,1.0,4
-636232.0625,-59476.921875,-58619.59765625,-5314.4404296875,-750000.125,24696.265625,-750000.125,-750000.125,972172.0,1.0,4
-640992.8125,-51888.32421875,-50376.0078125,-2203.5244140625,-750000.125,24763.140625,-750000.125,-750000.125,972173.0,1.0,4
-653954.5,-14532.0322265625,-3865.689697265625,6876.82763671875,-750000.125,14333.3701171875,-750000.125,-750000.125,972174.0,1.0,4
-656983.0,-3170.2822265625,13126.1962890625,9087.951171875,-750000.125,9493.501953125,-750000.125,-750000.125,972175.0,1.0,4
-646621.0625,-39904.83984375,-31890.21875,1875.5797119140625,-750000.125,22315.625,-750000.125,-750000.125,972176.0,1.0,4
-636245.3125,-59435.6171875,-58569.9765625,-5355.56787109375,-750000.125,24705.5625,-750000.125,-750000.125,972177.0,1.0,4
-640923.6875,-51995.34375,-50513.515625,-2304.19677734375,-750000.125,24782.810546875,-750000.125,-750000.125,972178.0,1.0,4
-653882.1875,-14753.224609375,-4173.24951171875,6777.138671875,-750000.125,14467.48046875,-750000.125,-750000.125,972179.0,1.0,4
-657013.5625,-2932.012451171875,13350.8759765625,9079.1005859375,-750000.125,9483.48828125,-750000.125,-750000.125,972180.0,1.0,4
-646707.0,-39641.0,-31557.267578125,1898.9149169921875,-750000.125,22291.126953125,-750000.125,-750000.125,972181.0,1.0,4
-636262.125,-59387.60546875,-58513.828125,-5363.6142578125,-750000.125,24716.380859375,-750000.125,-750000.125,972182.0,1.0,4
-640852.4375,-52107.73046875,-50661.21484375,-2369.106201171875,-750000.125,24802.212890625,-750000.125,-750000.125,972183.0,1.0,4
-653801.0,-14970.6630859375,-4493.95263671875,6716.07373046875,-750000.125,14602.3056640625,-750000.125,-750000.125,972184.0,1.0,4
-657030.375,-2703.22021484375,13567.2412109375,9122.9091796875,-750000.125,9498.0615234375,-750000.125,-750000.125,972185.0,1.0,4
-646781.8125,-39404.609375,-31226.37109375,1996.3685302734375,-750000.125,22286.8359375,-750000.125,-750000.125,972186.0,1.0,4
-636273.8125,-59365.4296875,-58464.03125,-5312.8310546875,-750000.125,24739.806640625,-750000.125,-750000.125,972187.0,1.0,4
-640774.8125,-52251.05078125,-50819.28515625,-2434.552001953125,-750000.125,24819.466796875,-750000.125,-750000.125,972188.0,1.0,4
-653723.75,-15350.8212890625,-4907.72802734375,6624.87841796875,-750000.125,14627.787109375,-750000.125,-750000.125,972189.0,1.0,4
-657066.3125,-2714.4853515625,13630.630859375,9167.61328125,-750000.125,9314.330078125,-750000.125,-750000.125,972190.0,1.0,4
-646868.625,-39244.8359375,-30998.919921875,2057.433349609375,-750000.125,22129.48046875,-750000.125,-750000.125,972191.0,1.0,4
-636296.1875,-59323.23046875,-58405.9140625,-5295.30712890625,-750000.125,24692.2421875,-750000.125,-750000.125,972192.0,1.0,4
-640712.6875,-52367.45703125,-50955.0078125,-2422.392822265625,-750000.125,24793.091796875,-750000.125,-750000.125,972193.0,1.0,4
-653644.1875,-15613.4091796875,-5244.4345703125,6649.46533203125,-750000.125,14761.8076171875,-750000.125,-750000.125,972194.0,1.0,4
-657087.5,-2507.59765625,13840.46875,9197.921875,-750000.125,9312.0947265625,-750000.125,-750000.125,972195.0,1.0,4
-646950.0625,-38999.50390625,-30666.505859375,2144.158203125,-750000.125,22107.306640625,-750000.125,-750000.125,972196.0,1.0,4
-636305.625,-59301.23828125,-58363.89453125,-5272.15087890625,-750000.125,24715.3984375,-750000.125,-750000.125,972197.0,1.0,4
-640629.375,-52494.59375,-51103.95703125,-2469.68896484375,-750000.125,24824.1171875,-750000.125,-750000.125,972198.0,1.0,4
-653569.5,-15807.244140625,-5503.08935546875,6592.33447265625,-750000.125,14897.0810546875,-750000.125,-750000.125,972199.0,1.0,4
-657120.875,-2257.258056640625,14081.689453125,9194.0771484375,-750000.125,9299.935546875,-750000.125,-750000.125,972200.0,1.0,4
-647029.375,-38742.81640625,-30340.4375,2174.377685546875,-750000.125,22079.322265625,-750000.125,-750000.125,972201.0,1.0,4
-636317.6875,-59257.515625,-58313.19921875,-5281.00244140625,-750000.125,24732.02734375,-750000.125,-750000.125,972202.0,1.0,4
-640559.1875,-52593.2109375,-51232.8828125,-2534.9560546875,-750000.125,24847.630859375,-750000.125,-750000.125,972203.0,1.0,4
-653495.0625,-16015.025390625,-5798.93701171875,6518.75244140625,-750000.125,15038.9697265625,-750000.125,-750000.125,972204.0,1.0,4
-657146.75,-2029.4490966796875,14274.62890625,9195.59765625,-750000.125,9313.7939453125,-750000.125,-750000.125,972205.0,1.0,4
-647117.8125,-38471.64453125,-30018.037109375,2227.664306640625,-750000.125,22074.31640625,-750000.125,-750000.125,972206.0,1.0,4
-636342.5,-59210.30859375,-58264.65234375,-5256.8623046875,-750000.125,24753.6640625,-750000.125,-750000.125,972207.0,1.0,4
-640490.6875,-52702.19921875,-51387.109375,-2567.500244140625,-750000.125,24873.73828125,-750000.125,-750000.125,972208.0,1.0,4
-653418.5,-16199.830078125,-6116.689453125,6497.294921875,-750000.125,15191.6767578125,-750000.125,-750000.125,972209.0,1.0,4
-657172.5,-1757.294189453125,14518.263671875,9282.322265625,-750000.125,9339.095703125,-750000.125,-750000.125,972210.0,1.0,4
-647205.4375,-38196.36328125,-29649.232421875,2336.2939453125,-750000.125,22056.076171875,-750000.125,-750000.125,972211.0,1.0,4
-636368.875,-59164.265625,-58195.36328125,-5196.60205078125,-750000.125,24778.072265625,-750000.125,-750000.125,972212.0,1.0,4
-640426.5,-52813.33203125,-51513.26171875,-2571.613037109375,-750000.125,24904.494140625,-750000.125,-750000.125,972213.0,1.0,4
-653341.0,-16451.779296875,-6416.38134765625,6466.62841796875,-750000.125,15322.658203125,-750000.125,-750000.125,972214.0,1.0,4
-657201.125,-1579.284912109375,14733.734375,9305.2998046875,-750000.125,9308.4287109375,-750000.125,-750000.125,972215.0,1.0,4
-647283.5,-37955.58984375,-29303.31640625,2399.0576171875,-750000.125,22009.673828125,-750000.125,-750000.125,972216.0,1.0,4
-636384.5,-59124.03125,-58125.53515625,-5174.0712890625,-750000.125,24789.068359375,-750000.125,-750000.125,972217.0,1.0,4
-640356.75,-52936.62109375,-51649.609375,-2663.076416015625,-750000.125,24907.98046875,-750000.125,-750000.125,972218.0,1.0,4
-653259.375,-16816.380859375,-6842.673828125,6355.22705078125,-750000.125,15324.8935546875,-750000.125,-750000.125,972219.0,1.0,4
-657224.375,-1575.082763671875,14760.556640625,9360.28515625,-750000.125,9125.501953125,-750000.125,-750000.125,972220.0,1.0,4
-647367.25,-37794.296875,-29086.505859375,2502.5908203125,-750000.125,21862.0625,-750000.125,-750000.125,972221.0,1.0,4
-636411.25,-59083.171875,-58068.58203125,-5119.98046875,-750000.125,24759.029296875,-750000.125,-750000.125,972222.0,1.0,4
-640295.1875,-53041.140625,-51770.30859375,-2621.85986328125,-750000.125,24894.123046875,-750000.125,-750000.125,972223.0,1.0,4
-653183.1875,-17052.056640625,-7137.89599609375,6401.62939453125,-750000.125,15481.1767578125,-750000.125,-750000.125,972224.0,1.0,4
-657245.8125,-1367.390380859375,14972.00390625,9381.921875,-750000.125,9165.9140625,-750000.125,-750000.125,972225.0,1.0,4
-647450.125,-37523.6640625,-28726.373046875,2553.821044921875,-750000.125,21853.5703125,-750000.125,-750000.125,972226.0,1.0,4
-636443.9375,-59029.26171875,-57989.01171875,-5095.66162109375,-750000.125,24780.21875,-750000.125,-750000.125,972227.0,1.0,4
-640232.375,-53145.8359375,-51891.54296875,-2656.370849609375,-750000.125,24915.669921875,-750000.125,-750000.125,972228.0,1.0,4
-653109.6875,-17291.578125,-7439.28662109375,6350.48876953125,-750000.125,15598.2998046875,-750000.125,-750000.125,972229.0,1.0,4
-657267.8125,-1159.8768310546875,15149.029296875,9412.4091796875,-750000.125,9151.7880859375,-750000.125,-750000.125,972230.0,1.0,4
-647528.1875,-37275.91796875,-28401.55859375,2646.983154296875,-750000.125,21832.6484375,-750000.125,-750000.125,972231.0,1.0,4
-636461.5,-58994.21484375,-57935.9921875,-5041.48095703125,-750000.125,24805.341796875,-750000.125,-750000.125,972232.0,1.0,4
-640160.875,-53263.2265625,-52031.9140625,-2664.953857421875,-750000.125,24946.515625,-750000.125,-750000.125,972233.0,1.0,4
-653020.9375,-17539.146484375,-7772.59619140625,6340.1171875,-750000.125,15764.6865234375,-750000.125,-750000.125,972234.0,1.0,4
-657286.875,-982.4933471679688,15353.6826171875,9484.0244140625,-750000.125,9182.455078125,-750000.125,-750000.125,972235.0,1.0,4
-647615.375,-37013.23828125,-28042.947265625,2746.403564453125,-750000.125,21809.3125,-750000.125,-750000.125,972236.0,1.0,4
-636493.125,-58939.40625,-57858.296875,-4981.8466796875,-750000.125,24831.359375,-750000.125,-750000.125,972237.0,1.0,4
-640091.25,-53373.46484375,-52159.05078125,-2674.073486328125,-750000.125,24972.263671875,-750000.125,-750000.125,972238.0,1.0,4
-652936.0625,-17811.748046875,-8094.01416015625,6301.9404296875,-750000.125,15898.259765625,-750000.125,-750000.125,972239.0,1.0,4
-657307.5,-817.8950805664062,15546.3544921875,9501.2802734375,-750000.125,9158.5830078125,-750000.125,-750000.125,972240.0,1.0,4
-647692.875,-36761.73828125,-27688.984375,2807.73681640625,-750000.125,21760.05078125,-750000.125,-750000.125,972241.0,1.0,4
-636510.5,-58898.01171875,-57786.4140625,-4959.49462890625,-750000.125,24843.787109375,-750000.125,-750000.125,972242.0,1.0,4
-640023.125,-53478.51953125,-52273.9375,-2713.6806640625,-750000.125,24987.732421875,-750000.125,-750000.125,972243.0,1.0,4
-652860.0,-18005.404296875,-8367.509765625,6274.49267578125,-750000.125,16012.701171875,-750000.125,-750000.125,972244.0,1.0,4
-657326.9375,-571.22119140625,15771.7490234375,9580.2265625,-750000.125,9156.080078125,-750000.125,-750000.125,972245.0,1.0,4
-647768.4375,-36483.14453125,-27322.7734375,2933.353759765625,-750000.125,21738.234375,-750000.125,-750000.125,972246.0,1.0,4
-636529.875,-58853.0390625,-57720.34375,-4875.2734375,-750000.125,24876.240234375,-750000.125,-750000.125,972247.0,1.0,4
-639952.75,-53582.140625,-52398.5703125,-2689.7197265625,-750000.125,25022.869140625,-750000.125,-750000.125,972248.0,1.0,4
-652769.6875,-18247.697265625,-8689.5537109375,6281.10888671875,-750000.125,16165.9443359375,-750000.125,-750000.125,972249.0,1.0,4
-657346.625,-360.6677551269531,15978.279296875,9653.361328125,-750000.125,9156.080078125,-750000.125,-750000.125,972250.0,1.0,4
-647855.125,-36195.34375,-26955.66796875,3033.400146484375,-750000.125,21697.734375,-750000.125,-750000.125,972251.0,1.0,4
-636559.0,-58789.5625,-57642.37890625,-4819.21533203125,-750000.125,24898.861328125,-750000.125,-750000.125,972252.0,1.0,4
-639884.8125,-53683.52734375,-52527.40625,-2701.163818359375,-750000.125,25046.560546875,-750000.125,-750000.125,972253.0,1.0,4
-652688.6875,-18485.162109375,-9014.369140625,6247.84912109375,-750000.125,16276.0048828125,-750000.125,-750000.125,972254.0,1.0,4
-657370.9375,-107.64600372314453,16165.2294921875,9687.783203125,-750000.125,9110.482421875,-750000.125,-750000.125,972255.0,1.0,4
-647941.9375,-35881.34765625,-26578.37109375,3145.427001953125,-750000.125,21645.69921875,-750000.125,-750000.125,972256.0,1.0,4
-636584.5,-58727.9609375,-57568.08203125,-4755.9150390625,-750000.125,24931.404296875,-750000.125,-750000.125,972257.0,1.0,4
-639809.4375,-53778.56640625,-52652.84375,-2713.948974609375,-750000.125,25077.67578125,-750000.125,-750000.125,972258.0,1.0,4
-652601.875,-18676.58203125,-9308.0712890625,6225.94482421875,-750000.125,16409.66796875,-750000.125,-750000.125,972259.0,1.0,4
-657387.125,181.76438903808594,16399.029296875,9755.8212890625,-750000.125,9104.5810546875,-750000.125,-750000.125,972260.0,1.0,4
-648015.4375,-35554.1171875,-26183.28125,3261.387939453125,-750000.125,21617.357421875,-750000.125,-750000.125,972261.0,1.0,4
-636602.9375,-58664.30078125,-57491.4609375,-4676.25341796875,-750000.125,24966.630859375,-750000.125,-750000.125,972262.0,1.0,4
-639738.1875,-53870.92578125,-52775.0625,-2699.82275390625,-750000.125,25115.8515625,-750000.125,-750000.125,972263.0,1.0,4
-652512.6875,-18855.75390625,-9605.0810546875,6225.49755859375,-750000.125,16553.166015625,-750000.125,-750000.125,972264.0,1.0,4
-657408.3125,464.73748779296875,16631.84375,9804.9951171875,-750000.125,9093.8525390625,-750000.125,-750000.125,972265.0,1.0,4
-648106.375,-35228.85546875,-25773.708984375,3294.468505859375,-750000.125,21550.658203125,-750000.125,-750000.125,972266.0,1.0,4
-636637.6875,-58590.2734375,-57397.8515625,-4686.53515625,-750000.125,24976.287109375,-750000.125,-750000.125,972267.0,1.0,4
-639667.875,-53972.3125,-52906.4921875,-2821.05859375,-750000.125,25108.966796875,-750000.125,-750000.125,972268.0,1.0,4
-652420.5625,-19203.814453125,-10051.7587890625,6063.40283203125,-750000.125,16520.443359375,-750000.125,-750000.125,972269.0,1.0,4
-657424.125,470.9959716796875,16631.30859375,9813.1318359375,-750000.125,8868.189453125,-750000.125,-750000.125,972270.0,1.0,4
-648186.75,-35042.9765625,-25538.74609375,3371.3583984375,-750000.125,21370.32421875,-750000.125,-750000.125,972271.0,1.0,4
-636663.75,-58537.7890625,-57327.21875,-4638.70263671875,-750000.125,24931.673828125,-750000.125,-750000.125,972272.0,1.0,4
-639597.1875,-54074.1484375,-53029.42578125,-2790.302490234375,-750000.125,25075.619140625,-750000.125,-750000.125,972273.0,1.0,4
-652329.1875,-19477.490234375,-10404.201171875,6108.73193359375,-750000.125,16644.8984375,-750000.125,-750000.125,972274.0,1.0,4
-657436.875,646.59130859375,16791.615234375,9850.3251953125,-750000.125,8870.87109375,-750000.125,-750000.125,972275.0,1.0,4
-648266.4375,-34758.21484375,-25170.92578125,3462.5537109375,-750000.125,21332.86328125,-750000.125,-750000.125,972276.0,1.0,4
-636692.0625,-58480.66015625,-57245.859375,-4581.83984375,-750000.125,24955.9921875,-750000.125,-750000.125,972277.0,1.0,4
-639530.625,-54169.8125,-53141.6328125,-2796.382080078125,-750000.125,25098.23828125,-750000.125,-750000.125,972278.0,1.0,4
-652248.0,-19707.35546875,-10704.3408203125,6089.15185546875,-750000.125,16775.87890625,-750000.125,-750000.125,972279.0,1.0,4
-657453.4375,834.70361328125,16963.455078125,9901.64453125,-750000.125,8882.4052734375,-750000.125,-750000.125,972280.0,1.0,4
-648336.875,-34485.8828125,-24817.322265625,3571.451416015625,-750000.125,21305.7734375,-750000.125,-750000.125,972281.0,1.0,4
-636712.4375,-58422.90234375,-57166.734375,-4512.54931640625,-750000.125,24986.30078125,-750000.125,-750000.125,972282.0,1.0,4
-639467.5,-54265.30078125,-53251.3359375,-2802.104248046875,-750000.125,25132.212890625,-750000.125,-750000.125,972283.0,1.0,4
-652169.5,-19923.720703125,-10981.501953125,6059.55810546875,-750000.125,16920.181640625,-750000.125,-750000.125,972284.0,1.0,4
-657471.4375,1039.2667236328125,17130.646484375,9918.2744140625,-750000.125,8903.68359375,-750000.125,-750000.125,972285.0,1.0,4
-648414.9375,-34198.52734375,-24469.70703125,3615.35009765625,-750000.125,21280.560546875,-750000.125,-750000.125,972286.0,1.0,4
-636747.9375,-58355.578125,-57083.140625,-4491.89599609375,-750000.125,25006.775390625,-750000.125,-750000.125,972287.0,1.0,4
-639405.5625,-54347.46484375,-53361.484375,-2832.770751953125,-750000.125,25147.6796875,-750000.125,-750000.125,972288.0,1.0,4
-652081.6875,-20173.076171875,-11332.06640625,6009.84814453125,-750000.125,17040.166015625,-750000.125,-750000.125,972289.0,1.0,4
-657483.8125,1237.4820556640625,17275.75390625,9961.8154296875,-750000.125,8893.9384765625,-750000.125,-750000.125,972290.0,1.0,4
-648497.0,-33894.54296875,-24099.830078125,3713.787109375,-750000.125,21234.42578125,-750000.125,-750000.125,972291.0,1.0,4
-636781.5,-58289.77734375,-57000.97265625,-4430.8310546875,-750000.125,25030.916015625,-750000.125,-750000.125,972292.0,1.0,4
-639347.25,-54429.2734375,-53466.984375,-2836.168212890625,-750000.125,25168.6015625,-750000.125,-750000.125,972293.0,1.0,4
-652000.125,-20378.98046875,-11620.9404296875,5988.65869140625,-750000.125,17154.337890625,-750000.125,-750000.125,972294.0,1.0,4
-657499.5625,1403.33203125,17444.107421875,10004.73046875,-750000.125,8881.8681640625,-750000.125,-750000.125,972295.0,1.0,4
-648571.5625,-33635.62109375,-23735.85546875,3800.69091796875,-750000.125,21188.29296875,-750000.125,-750000.125,972296.0,1.0,4
-636813.9375,-58229.15625,-56904.68359375,-4367.7099609375,-750000.125,25053.982421875,-750000.125,-750000.125,972297.0,1.0,4
-639292.0,-54522.79296875,-53563.90234375,-2837.062255859375,-750000.125,25192.5625,-750000.125,-750000.125,972298.0,1.0,4
-651918.8125,-20614.92578125,-11925.908203125,5981.59521484375,-750000.125,17289.43359375,-750000.125,-750000.125,972299.0,1.0,4
-657513.0625,1588.672607421875,17602.71484375,10080.1005859375,-750000.125,8905.1142578125,-750000.125,-750000.125,972300.0,1.0,4
-648652.9375,-33351.57421875,-23368.75,3935.6953125,-750000.125,21167.193359375,-750000.125,-750000.125,972301.0,1.0,4
-636854.5,-58166.57421875,-56814.47265625,-4269.541015625,-750000.125,25097.5234375,-750000.125,-750000.125,972302.0,1.0,4
-639235.8125,-54604.5078125,-53661.71484375,-2810.8662109375,-750000.125,25233.154296875,-750000.125,-750000.125,972303.0,1.0,4
-651847.25,-20801.697265625,-12183.2216796875,5993.7548828125,-750000.125,17438.921875,-750000.125,-750000.125,972304.0,1.0,4
-657533.25,1815.22998046875,17807.724609375,10167.6298828125,-750000.125,8942.84375,-750000.125,-750000.125,972305.0,1.0,4
-648726.5,-33043.390625,-22980.365234375,4040.837890625,-750000.125,21146.80859375,-750000.125,-750000.125,972306.0,1.0,4
-636880.25,-58097.28125,-56727.03125,-4193.27685546875,-750000.125,25125.6875,-750000.125,-750000.125,972307.0,1.0,4
-639177.0625,-54684.9765625,-53763.01171875,-2785.74267578125,-750000.125,25258.3671875,-750000.125,-750000.125,972308.0,1.0,4
-651768.3125,-20983.283203125,-12460.47265625,6003.142578125,-750000.125,17548.892578125,-750000.125,-750000.125,972309.0,1.0,4
-657543.125,2054.840576171875,17978.759765625,10247.2919921875,-750000.125,8938.1943359375,-750000.125,-750000.125,972310.0,1.0,4
-648800.875,-32742.892578125,-22591.267578125,4163.146484375,-750000.125,21108.09375,-750000.125,-750000.125,972311.0,1.0,4
-636916.9375,-58035.50390625,-56625.82421875,-4105.658203125,-750000.125,25155.458984375,-750000.125,-750000.125,972312.0,1.0,4
-639112.5,-54777.69140625,-53859.03515625,-2765.2685546875,-750000.125,25280.80859375,-750000.125,-750000.125,972313.0,1.0,4
-651678.3125,-21244.796875,-12762.578125,5995.18505859375,-750000.125,17654.5703125,-750000.125,-750000.125,972314.0,1.0,4
-657559.5625,2205.9384765625,18113.765625,10276.5283203125,-750000.125,8903.4150390625,-750000.125,-750000.125,972315.0,1.0,4
-648881.75,-32451.962890625,-22234.7109375,4259.25927734375,-750000.125,21046.134765625,-750000.125,-750000.125,972316.0,1.0,4
-636952.875,-57967.8203125,-56540.70703125,-4039.586181640625,-750000.125,25186.3046875,-750000.125,-750000.125,972317.0,1.0,4
-639055.25,-54860.3046875,-53967.3046875,-2773.8515625,-750000.125,25312.904296875,-750000.125,-750000.125,972318.0,1.0,4
-651593.375,-21484.498046875,-13087.0361328125,5951.64404296875,-750000.125,17788.0546875,-750000.125,-750000.125,972319.0,1.0,4
-657577.375,2407.014892578125,18281.134765625,10286.18359375,-750000.125,8891.345703125,-750000.125,-750000.125,972320.0,1.0,4
-648968.5625,-32124.822265625,-21818.1640625,4306.1083984375,-750000.125,20987.841796875,-750000.125,-750000.125,972321.0,1.0,4
-636991.25,-57885.65625,-56427.25,-4019.4697265625,-750000.125,25199.447265625,-750000.125,-750000.125,972322.0,1.0,4
-638992.875,-54945.77734375,-54065.83203125,-2813.011962890625,-750000.125,25318.537109375,-750000.125,-750000.125,972323.0,1.0,4
-651508.75,-21725.44921875,-13407.8291015625,5902.2021484375,-750000.125,17892.83984375,-750000.125,-750000.125,972324.0,1.0,4
-657588.4375,2551.5859375,18423.560546875,10318.638671875,-750000.125,8871.9443359375,-750000.125,-750000.125,972325.0,1.0,4
-649047.9375,-31837.55859375,-21433.892578125,4368.60400390625,-750000.125,20907.107421875,-750000.125,-750000.125,972326.0,1.0,4
-637029.375,-57805.1015625,-56315.3125,-3989.518310546875,-750000.125,25206.15234375,-750000.125,-750000.125,972327.0,1.0,4
-638931.0,-55037.5078125,-54174.8203125,-2902.955322265625,-750000.125,25313.978515625,-750000.125,-750000.125,972328.0,1.0,4
-651416.3125,-22101.763671875,-13868.8115234375,5757.0048828125,-750000.125,17865.572265625,-750000.125,-750000.125,972329.0,1.0,4
-657601.3125,2481.31201171875,18352.302734375,10345.013671875,-750000.125,8643.6884765625,-750000.125,-750000.125,972330.0,1.0,4
-649135.4375,-31683.0625,-21227.810546875,4410.98291015625,-750000.125,20667.765625,-750000.125,-750000.125,972331.0,1.0,4
-637074.125,-57729.73046875,-56219.2890625,-3978.78955078125,-750000.125,25132.482421875,-750000.125,-750000.125,972332.0,1.0,4
-638872.6875,-55119.31640625,-54269.94921875,-2911.001953125,-750000.125,25248.173828125,-750000.125,-750000.125,972333.0,1.0,4
-651332.4375,-22392.3359375,-14227.064453125,5765.94580078125,-750000.125,17934.056640625,-750000.125,-750000.125,972334.0,1.0,4
-657620.6875,2625.3466796875,18466.921875,10338.666015625,-750000.125,8604.974609375,-750000.125,-750000.125,972335.0,1.0,4
-649223.8125,-31361.466796875,-20832.005859375,4513.6220703125,-750000.125,20614.03125,-750000.125,-750000.125,972336.0,1.0,4
-637124.0625,-57653.01953125,-56107.88671875,-3902.793701171875,-750000.125,25166.1875,-750000.125,-750000.125,972337.0,1.0,4
-638814.75,-55217.125,-54379.7421875,-2921.10498046875,-750000.125,25279.64453125,-750000.125,-750000.125,972338.0,1.0,4
-651239.9375,-22681.388671875,-14584.87109375,5723.38818359375,-750000.125,18093.916015625,-750000.125,-750000.125,972339.0,1.0,4
-657633.9375,2795.13037109375,18588.78515625,10349.6630859375,-750000.125,8632.69140625,-750000.125,-750000.125,972340.0,1.0,4
-649312.125,-31037.544921875,-20438.16796875,4570.66357421875,-750000.125,20568.880859375,-750000.125,-750000.125,972341.0,1.0,4
-637166.1875,-57573.984375,-56005.78515625,-3874.272705078125,-750000.125,25188.181640625,-750000.125,-750000.125,972342.0,1.0,4
-638754.5625,-55301.078125,-54486.58203125,-2962.142822265625,-750000.125,25296.275390625,-750000.125,-750000.125,972343.0,1.0,4
-651153.375,-22946.302734375,-14924.1708984375,5647.4814453125,-750000.125,18214.974609375,-750000.125,-750000.125,972344.0,1.0,4
-657648.875,2932.19140625,18701.974609375,10324.0927734375,-750000.125,8624.3759765625,-750000.125,-750000.125,972345.0,1.0,4
-649392.4375,-30729.716796875,-20050.140625,4586.04150390625,-750000.125,20501.021484375,-750000.125,-750000.125,972346.0,1.0,4
-637206.75,-57484.3984375,-55884.90625,-3881.5146484375,-750000.125,25191.66796875,-750000.125,-750000.125,972347.0,1.0,4
-638694.0,-55377.43359375,-54575.2734375,-3025.800537109375,-750000.125,25292.251953125,-750000.125,-750000.125,972348.0,1.0,4
-651062.875,-23179.564453125,-15259.89453125,5586.86328125,-750000.125,18321.994140625,-750000.125,-750000.125,972349.0,1.0,4
-657655.125,3067.464111328125,18804.970703125,10364.3251953125,-750000.125,8638.591796875,-750000.125,-750000.125,972350.0,1.0,4
-649468.125,-30444.060546875,-19675.97265625,4631.90771484375,-750000.125,20424.935546875,-750000.125,-750000.125,972351.0,1.0,4
-637248.875,-57398.56640625,-55767.78515625,-3877.9384765625,-750000.125,25194.26171875,-750000.125,-750000.125,972352.0,1.0,4
-638632.9375,-55462.37109375,-54676.03515625,-3143.28125,-750000.125,25280.986328125,-750000.125,-750000.125,972353.0,1.0,4
-650969.4375,-23593.966796875,-15734.9140625,5384.625,-750000.125,18281.58203125,-750000.125,-750000.125,972354.0,1.0,4
-657666.0625,2933.711181640625,18693.48046875,10328.9208984375,-750000.125,8392.0966796875,-750000.125,-750000.125,972355.0,1.0,4
-649554.75,-30304.228515625,-19491.080078125,4672.7666015625,-750000.125,20194.4453125,-750000.125,-750000.125,972356.0,1.0,4
-637297.625,-57332.13671875,-55677.484375,-3849.417724609375,-750000.125,25128.369140625,-750000.125,-750000.125,972357.0,1.0,4
-638578.375,-55552.9375,-54778.046875,-3136.57568359375,-750000.125,25224.75,-750000.125,-750000.125,972358.0,1.0,4
-650881.3125,-23891.69140625,-16101.83984375,5420.11962890625,-750000.125,18388.244140625,-750000.125,-750000.125,972359.0,1.0,4
-657672.75,3009.975341796875,18748.46484375,10314.7939453125,-750000.125,8414.1806640625,-750000.125,-750000.125,972360.0,1.0,4
-649631.3125,-30040.298828125,-19152.673828125,4704.05908203125,-750000.125,20140.53125,-750000.125,-750000.125,972361.0,1.0,4
-637339.125,-57255.515625,-55571.1796875,-3837.43701171875,-750000.125,25136.236328125,-750000.125,-750000.125,972362.0,1.0,4
-638518.5625,-55634.30078125,-54871.74609375,-3190.75634765625,-750000.125,25226.08984375,-750000.125,-750000.125,972363.0,1.0,4
-650788.9375,-24202.11328125,-16465.81640625,5332.50048828125,-750000.125,18497.857421875,-750000.125,-750000.125,972364.0,1.0,4
-657674.375,3091.961669921875,18797.013671875,10291.1015625,-750000.125,8406.1337890625,-750000.125,-750000.125,972365.0,1.0,4
-649706.9375,-29744.00390625,-18809.171875,4736.78173828125,-750000.125,20064.08984375,-750000.125,-750000.125,972366.0,1.0,4
-637382.4375,-57164.23046875,-55458.078125,-3827.06591796875,-750000.125,25138.47265625,-750000.125,-750000.125,972367.0,1.0,4
-638460.625,-55710.20703125,-54967.50390625,-3254.056640625,-750000.125,25224.927734375,-750000.125,-750000.125,972368.0,1.0,4
-650696.75,-24490.091796875,-16826.841796875,5229.95068359375,-750000.125,18588.60546875,-750000.125,-750000.125,972369.0,1.0,4
-657682.3125,3155.619384765625,18845.29296875,10233.6123046875,-750000.125,8361.876953125,-750000.125,-750000.125,972370.0,1.0,4
-649787.6875,-29469.078125,-18454.048828125,4745.0966796875,-750000.125,19961.181640625,-750000.125,-750000.125,972371.0,1.0,4
-637428.0625,-57067.58203125,-55329.2421875,-3843.06982421875,-750000.125,25140.349609375,-750000.125,-750000.125,972372.0,1.0,4
-638394.9375,-55785.0390625,-55058.0703125,-3355.354736328125,-750000.125,25223.587890625,-750000.125,-750000.125,972373.0,1.0,4
-650593.6875,-24751.4296875,-17199.7578125,5119.3544921875,-750000.125,18717.798828125,-750000.125,-750000.125,972374.0,1.0,4
-657682.5625,3277.92822265625,18930.23046875,10227.9794921875,-750000.125,8404.345703125,-750000.125,-750000.125,972375.0,1.0,4
-649865.375,-29163.39453125,-18056.27734375,4748.13671875,-750000.125,19894.037109375,-750000.125,-750000.125,972376.0,1.0,4
-637474.625,-56968.69921875,-55194.41796875,-3880.62060546875,-750000.125,25136.146484375,-750000.125,-750000.125,972377.0,1.0,4
-638339.375,-55857.1015625,-55140.50390625,-3452.5400390625,-750000.125,25214.021484375,-750000.125,-750000.125,972378.0,1.0,4
-650501.25,-25044.86328125,-17564.537109375,4994.72119140625,-750000.125,18795.94140625,-750000.125,-750000.125,972379.0,1.0,4
-657686.0625,3353.29833984375,18970.462890625,10179.96875,-750000.125,8371.98046875,-750000.125,-750000.125,972380.0,1.0,4
-649943.5,-28874.521484375,-17704.37109375,4794.7177734375,-750000.125,19825.908203125,-750000.125,-750000.125,972381.0,1.0,4
-637520.25,-56880.453125,-55074.87890625,-3837.1689453125,-750000.125,25149.826171875,-750000.125,-750000.125,972382.0,1.0,4
-638279.8125,-55943.0234375,-55239.38671875,-3522.27734375,-750000.125,25213.751953125,-750000.125,-750000.125,972383.0,1.0,4
-650405.5,-25461.41015625,-18035.35546875,4829.58642578125,-750000.125,18798.443359375,-750000.125,-750000.125,972384.0,1.0,4
-657686.25,3206.581298828125,18848.869140625,10190.8759765625,-750000.125,8177.251953125,-750000.125,-750000.125,972385.0,1.0,4
-650017.125,-28721.3671875,-17503.65234375,4853.36865234375,-750000.125,19588.443359375,-750000.125,-750000.125,972386.0,1.0,4
-637561.0,-56801.86328125,-54973.76171875,-3799.88623046875,-750000.125,25078.033203125,-750000.125,-750000.125,972387.0,1.0,4
-638220.8125,-56021.25390625,-55328.97265625,-3513.42626953125,-750000.125,25153.759765625,-750000.125,-750000.125,972388.0,1.0,4
-650308.0625,-25772.634765625,-18413.3671875,4863.73974609375,-750000.125,18888.65625,-750000.125,-750000.125,972389.0,1.0,4
-657687.875,3264.2490234375,18866.83984375,10150.1064453125,-750000.125,8174.6591796875,-750000.125,-750000.125,972390.0,1.0,4
-650100.25,-28428.201171875,-17162.296875,4858.73291015625,-750000.125,19508.423828125,-750000.125,-750000.125,972391.0,1.0,4
-637615.375,-56698.51171875,-54847.33984375,-3813.118408203125,-750000.125,25076.6015625,-750000.125,-750000.125,972392.0,1.0,4
-638158.0625,-56096.53515625,-55426.875,-3606.14111328125,-750000.125,25142.31640625,-750000.125,-750000.125,972393.0,1.0,4
-650207.8125,-26040.498046875,-18790.21875,4756.2724609375,-750000.125,18995.048828125,-750000.125,-750000.125,972394.0,1.0,4
-657690.4375,3349.453857421875,18914.314453125,10149.123046875,-750000.125,8201.3916015625,-750000.125,-750000.125,972395.0,1.0,4
-650174.75,-28142.994140625,-16802.25390625,4919.4404296875,-750000.125,19457.283203125,-750000.125,-750000.125,972396.0,1.0,4
-637660.1875,-56612.14453125,-54726.8203125,-3771.27587890625,-750000.125,25089.029296875,-750000.125,-750000.125,972397.0,1.0,4
-638101.5,-56171.3671875,-55511.54296875,-3634.0361328125,-750000.125,25148.484375,-750000.125,-750000.125,972398.0,1.0,4
-650122.75,-26297.455078125,-19111.7265625,4702.181640625,-750000.125,19107.703125,-750000.125,-750000.125,972399.0,1.0,4
-657697.1875,3451.82470703125,18990.22265625,10160.4775390625,-750000.125,8226.3359375,-750000.125,-750000.125,972400.0,1.0,4
-650250.1875,-27847.32421875,-16407.43359375,4963.51806640625,-750000.125,19387.724609375,-750000.125,-750000.125,972401.0,1.0,4
-637709.1875,-56527.65234375,-54595.03125,-3761.619873046875,-750000.125,25091.890625,-750000.125,-750000.125,972402.0,1.0,4
-638045.9375,-56257.5546875,-55600.0546875,-3730.953369140625,-750000.125,25141.51171875,-750000.125,-750000.125,972403.0,1.0,4
-650028.625,-26695.673828125,-19551.876953125,4502.53564453125,-750000.125,19089.8203125,-750000.125,-750000.125,972404.0,1.0,4
-657698.9375,3268.80859375,18854.681640625,10121.5859375,-750000.125,8012.02783203125,-750000.125,-750000.125,972405.0,1.0,4
-650328.4375,-27720.814453125,-16231.9267578125,4999.90673828125,-750000.125,19145.07421875,-750000.125,-750000.125,972406.0,1.0,4
-637755.375,-56439.5,-54485.41796875,-3735.155517578125,-750000.125,25020.54296875,-750000.125,-750000.125,972407.0,1.0,4
-637982.625,-56331.671875,-55685.26171875,-3756.70263671875,-750000.125,25078.12109375,-750000.125,-750000.125,972408.0,1.0,4
-649930.5625,-26989.642578125,-19917.55078125,4518.36083984375,-750000.125,19201.04296875,-750000.125,-750000.125,972409.0,1.0,4
-657699.375,3331.572265625,18891.78515625,10094.8525390625,-750000.125,8076.490234375,-750000.125,-750000.125,972410.0,1.0,4
-650404.875,-27431.671875,-15864.9111328125,5013.138671875,-750000.125,19112.3515625,-750000.125,-750000.125,972411.0,1.0,4
-637805.0,-56357.33203125,-54366.0625,-3740.07275390625,-750000.125,25032.525390625,-750000.125,-750000.125,972412.0,1.0,4
-637932.0625,-56409.7265625,-55771.5390625,-3815.9794921875,-750000.125,25080.53515625,-750000.125,-750000.125,972413.0,1.0,4
-649838.375,-27298.275390625,-20285.013671875,4423.14208984375,-750000.125,19314.76953125,-750000.125,-750000.125,972414.0,1.0,4
-657696.8125,3361.07666015625,18883.291015625,10044.6953125,-750000.125,8094.7294921875,-750000.125,-750000.125,972415.0,1.0,4
-650477.125,-27151.291015625,-15543.4931640625,5014.47998046875,-750000.125,19038.6796875,-750000.125,-750000.125,972416.0,1.0,4
-637853.3125,-56249.6875,-54236.8671875,-3751.69580078125,-750000.125,25029.306640625,-750000.125,-750000.125,972417.0,1.0,4
-637874.8125,-56469.5390625,-55851.828125,-3901.0947265625,-750000.125,25070.521484375,-750000.125,-750000.125,972418.0,1.0,4
-649743.25,-27550.939453125,-20635.220703125,4317.37353515625,-750000.125,19418.392578125,-750000.125,-750000.125,972419.0,1.0,4
-657693.125,3422.1416015625,18907.69921875,10037.2744140625,-750000.125,8135.0517578125,-750000.125,-750000.125,972420.0,1.0,4
-650549.9375,-26857.232421875,-15178.5341796875,5074.5615234375,-750000.125,18990.400390625,-750000.125,-750000.125,972421.0,1.0,4
-637905.5,-56154.6484375,-54105.70703125,-3706.634765625,-750000.125,25045.935546875,-750000.125,-750000.125,972422.0,1.0,4
-637823.75,-56540.70703125,-55931.84375,-3927.648681640625,-750000.125,25080.08984375,-750000.125,-750000.125,972423.0,1.0,4
-649645.8125,-27856.533203125,-21014.484375,4254.341796875,-750000.125,19549.283203125,-750000.125,-750000.125,972424.0,1.0,4
-657687.3125,3490.80615234375,18929.068359375,10044.0693359375,-750000.125,8180.91748046875,-750000.125,-750000.125,972425.0,1.0,4
-650625.0625,-26546.54296875,-14794.2626953125,5140.81201171875,-750000.125,18938.0078125,-750000.125,-750000.125,972426.0,1.0,4
-637960.5625,-56051.11328125,-53963.4609375,-3659.874755859375,-750000.125,25059.615234375,-750000.125,-750000.125,972427.0,1.0,4
-637770.6875,-56613.57421875,-56013.65234375,-3957.5107421875,-750000.125,25086.705078125,-750000.125,-750000.125,972428.0,1.0,4
-649552.625,-28114.830078125,-21346.900390625,4195.06494140625,-750000.125,19660.05859375,-750000.125,-750000.125,972429.0,1.0,4
-657688.9375,3557.146240234375,18962.23828125,10046.9306640625,-750000.125,8216.2333984375,-750000.125,-750000.125,972430.0,1.0,4
-650698.125,-26260.619140625,-14439.49609375,5208.22509765625,-750000.125,18888.4765625,-750000.125,-750000.125,972431.0,1.0,4
-638012.0,-55950.44140625,-53825.7734375,-3602.56494140625,-750000.125,25081.33984375,-750000.125,-750000.125,972432.0,1.0,4
-637720.25,-56674.99609375,-56083.390625,-3983.617431640625,-750000.125,25103.15625,-750000.125,-750000.125,972433.0,1.0,4
-649462.25,-28361.771484375,-21660.271484375,4139.3642578125,-750000.125,19792.91796875,-750000.125,-750000.125,972434.0,1.0,4
-657683.5,3661.93115234375,19016.955078125,10068.1201171875,-750000.125,8286.41796875,-750000.125,-750000.125,972435.0,1.0,4
-650768.5625,-25941.97265625,-14043.6015625,5278.8564453125,-750000.125,18862.369140625,-750000.125,-750000.125,972436.0,1.0,4
-638063.0,-55855.3125,-53690.32421875,-3547.847900390625,-750000.125,25105.837890625,-750000.125,-750000.125,972437.0,1.0,4
-637672.75,-56738.65234375,-56153.93359375,-3979.68359375,-750000.125,25117.728515625,-750000.125,-750000.125,972438.0,1.0,4
-649373.125,-28630.439453125,-21986.96484375,4106.8203125,-750000.125,19906.28515625,-750000.125,-750000.125,972439.0,1.0,4
-657676.3125,3709.585205078125,19010.0703125,10061.3251953125,-750000.125,8313.3291015625,-750000.125,-750000.125,972440.0,1.0,4
-650834.0,-25653.27734375,-13722.8095703125,5306.30419921875,-750000.125,18791.828125,-750000.125,-750000.125,972441.0,1.0,4
-638113.125,-55749.3671875,-53561.93359375,-3531.665283203125,-750000.125,25109.146484375,-750000.125,-750000.125,972442.0,1.0,4
-637625.5625,-56796.3203125,-56231.08984375,-4060.32861328125,-750000.125,25113.4375,-750000.125,-750000.125,972443.0,1.0,4
-649286.3125,-28962.140625,-22407.267578125,3920.49609375,-750000.125,19892.96484375,-750000.125,-750000.125,972444.0,1.0,4
-657676.5,3567.875,18875.87109375,10073.3955078125,-750000.125,8124.3232421875,-750000.125,-750000.125,972445.0,1.0,4
-650910.0,-25497.3515625,-13510.9150390625,5390.25732421875,-750000.125,18551.322265625,-750000.125,-750000.125,972446.0,1.0,4
-638170.5,-55658.88671875,-53440.69921875,-3460.765380859375,-750000.125,25042.716796875,-750000.125,-750000.125,972447.0,1.0,4
-637571.75,-56858.90625,-56300.73828125,-4031.271484375,-750000.125,25056.0390625,-750000.125,-750000.125,972448.0,1.0,4
-649184.375,-29232.865234375,-22745.046875,3996.6708984375,-750000.125,19977.005859375,-750000.125,-750000.125,972449.0,1.0,4
-657666.75,3605.15771484375,18882.75390625,10088.5048828125,-750000.125,8172.51318359375,-750000.125,-750000.125,972450.0,1.0,4
-650982.9375,-25205.34765625,-13142.46875,5463.5712890625,-750000.125,18502.953125,-750000.125,-750000.125,972451.0,1.0,4
-638223.0625,-55550.2578125,-53293.4453125,-3400.23681640625,-750000.125,25062.4765625,-750000.125,-750000.125,972452.0,1.0,4
-637515.0625,-56929.26953125,-56379.5078125,-4062.116943359375,-750000.125,25069.896484375,-750000.125,-750000.125,972453.0,1.0,4
-649083.625,-29515.748046875,-23101.333984375,3929.079345703125,-750000.125,20120.236328125,-750000.125,-750000.125,972454.0,1.0,4
-657658.0,3685.087646484375,18905.642578125,10084.4814453125,-750000.125,8253.8740234375,-750000.125,-750000.125,972455.0,1.0,4
-651056.375,-24865.78125,-12733.9677734375,5509.07958984375,-750000.125,18467.81640625,-750000.125,-750000.125,972456.0,1.0,4
-638283.3125,-55439.125,-53138.0546875,-3369.48095703125,-750000.125,25080.08984375,-750000.125,-750000.125,972457.0,1.0,4
-637469.1875,-56999.27734375,-56456.6640625,-4091.174072265625,-750000.125,25078.92578125,-750000.125,-750000.125,972458.0,1.0,4
-648984.0,-29803.013671875,-23466.650390625,3867.1201171875,-750000.125,20239.595703125,-750000.125,-750000.125,972459.0,1.0,4
-657651.9375,3744.721923828125,18917.802734375,10107.2802734375,-750000.125,8300.6337890625,-750000.125,-750000.125,972460.0,1.0,4
-651138.0,-24524.9609375,-12315.5439453125,5602.0625,-750000.125,18408.09375,-750000.125,-750000.125,972461.0,1.0,4
-638349.5625,-55321.91015625,-52974.08203125,-3286.064208984375,-750000.125,25102.888671875,-750000.125,-750000.125,972462.0,1.0,4
-637414.625,-57064.72265625,-56530.24609375,-4084.91552734375,-750000.125,25092.6953125,-750000.125,-750000.125,972463.0,1.0,4
-648884.9375,-30101.720703125,-23823.474609375,3830.910400390625,-750000.125,20358.86328125,-750000.125,-750000.125,972464.0,1.0,4
-657645.5,3773.68994140625,18900.3671875,10099.94921875,-750000.125,8335.234375,-750000.125,-750000.125,972465.0,1.0,4
-651218.3125,-24201.30859375,-11941.375,5639.97119140625,-750000.125,18327.537109375,-750000.125,-750000.125,972466.0,1.0,4
-638412.3125,-55197.8125,-52817.62109375,-3258.973876953125,-750000.125,25106.732421875,-750000.125,-750000.125,972467.0,1.0,4
-637361.0,-57126.0546875,-56609.10546875,-4138.5595703125,-750000.125,25089.029296875,-750000.125,-750000.125,972468.0,1.0,4
-648785.0,-30372.802734375,-24195.318359375,3749.28173828125,-750000.125,20469.19140625,-750000.125,-750000.125,972469.0,1.0,4
-657642.0625,3832.519775390625,18895.361328125,10106.8330078125,-750000.125,8392.0078125,-750000.125,-750000.125,972470.0,1.0,4
-651296.25,-23881.23046875,-11550.2197265625,5708.99365234375,-750000.125,18274.607421875,-750000.125,-750000.125,972471.0,1.0,4
-638469.75,-55084.265625,-52660.4453125,-3205.77685546875,-750000.125,25118.4453125,-750000.125,-750000.125,972472.0,1.0,4
-637309.6875,-57194.71875,-56685.81640625,-4188.1806640625,-750000.125,25091.0859375,-750000.125,-750000.125,972473.0,1.0,4
-648685.3125,-30734.72265625,-24623.845703125,3574.58056640625,-750000.125,20473.751953125,-750000.125,-750000.125,972474.0,1.0,4
-657632.8125,3645.480224609375,18725.130859375,10111.7509765625,-750000.125,8219.541015625,-750000.125,-750000.125,972475.0,1.0,4
-651370.75,-23725.39453125,-11338.50390625,5790.71142578125,-750000.125,18023.46484375,-750000.125,-750000.125,972476.0,1.0,4
-638531.0,-54983.1484375,-52528.2109375,-3134.072265625,-750000.125,25045.845703125,-750000.125,-750000.125,972477.0,1.0,4
-637262.9375,-57255.78515625,-56752.6015625,-4163.4150390625,-750000.125,25032.525390625,-750000.125,-750000.125,972478.0,1.0,4
-648587.8125,-31015.28125,-24977.361328125,3649.056640625,-750000.125,20558.0625,-750000.125,-750000.125,972479.0,1.0,4
-657621.1875,3658.4443359375,18691.9609375,10114.791015625,-750000.125,8278.5498046875,-750000.125,-750000.125,972480.0,1.0,4
-651438.75,-23443.494140625,-10993.83984375,5818.427734375,-750000.125,17968.03125,-750000.125,-750000.125,972481.0,1.0,4
-638589.25,-54871.2109375,-52374.7890625,-3110.647705078125,-750000.125,25050.40625,-750000.125,-750000.125,972482.0,1.0,4
-637214.8125,-57314.703125,-56817.33203125,-4211.06884765625,-750000.125,25030.2890625,-750000.125,-750000.125,972483.0,1.0,4
-648493.6875,-31324.18359375,-25333.826171875,3560.722412109375,-750000.125,20663.47265625,-750000.125,-750000.125,972484.0,1.0,4
-657607.3125,3630.54931640625,18629.912109375,10077.150390625,-750000.125,8316.5478515625,-750000.125,-750000.125,972485.0,1.0,4
-651509.9375,-23129.05078125,-10643.365234375,5849.18359375,-750000.125,17886.224609375,-750000.125,-750000.125,972486.0,1.0,4
-638650.25,-54754.17578125,-52228.51953125,-3090.441650390625,-750000.125,25053.4453125,-750000.125,-750000.125,972487.0,1.0,4
-637172.4375,-57365.84375,-56883.046875,-4262.65673828125,-750000.125,25028.6796875,-750000.125,-750000.125,972488.0,1.0,4
-648406.6875,-31565.224609375,-25639.865234375,3468.364990234375,-750000.125,20734.373046875,-750000.125,-750000.125,972489.0,1.0,4
-657597.375,3641.010009765625,18602.28515625,10017.60546875,-750000.125,8305.193359375,-750000.125,-750000.125,972490.0,1.0,4
-651576.875,-22861.544921875,-10315.6884765625,5840.33251953125,-750000.125,17781.171875,-750000.125,-750000.125,972491.0,1.0,4
-638708.375,-54631.421875,-52064.1015625,-3102.064697265625,-750000.125,25041.197265625,-750000.125,-750000.125,972492.0,1.0,4
-637127.5,-57413.05078125,-56935.4375,-4346.69921875,-750000.125,25017.68359375,-750000.125,-750000.125,972493.0,1.0,4
-648310.125,-31824.416015625,-25992.486328125,3358.126220703125,-750000.125,20824.943359375,-750000.125,-750000.125,972494.0,1.0,4
-657581.5625,3641.099365234375,18542.11328125,10003.2109375,-750000.125,8364.828125,-750000.125,-750000.125,972495.0,1.0,4
-651642.8125,-22580.001953125,-9970.755859375,5893.7978515625,-750000.125,17730.8359375,-750000.125,-750000.125,972496.0,1.0,4
-638766.75,-54527.7109375,-51918.8125,-3059.775146484375,-750000.125,25053.35546875,-750000.125,-750000.125,972497.0,1.0,4
-637084.3125,-57466.0703125,-56994.8046875,-4370.39208984375,-750000.125,25022.15234375,-750000.125,-750000.125,972498.0,1.0,4
-648225.125,-32057.41015625,-26285.5625,3303.945556640625,-750000.125,20916.583984375,-750000.125,-750000.125,972499.0,1.0,4
-657574.9375,3669.53076171875,18529.775390625,10003.12109375,-750000.125,8412.9287109375,-750000.125,-750000.125,972500.0,1.0,4
-651706.5625,-22297.296875,-9629.04296875,5945.65380859375,-750000.125,17677.01171875,-750000.125,-750000.125,972501.0,1.0,4
-638815.3125,-54418.8125,-51770.6640625,-3011.406005859375,-750000.125,25060.240234375,-750000.125,-750000.125,972502.0,1.0,4
-637044.3125,-57512.3828125,-57044.6953125,-4384.60791015625,-750000.125,25027.25,-750000.125,-750000.125,972503.0,1.0,4
-648140.375,-32292.55078125,-26582.841796875,3258.169189453125,-750000.125,21013.14453125,-750000.125,-750000.125,972504.0,1.0,4
-657561.875,3709.40625,18512.876953125,10021.5390625,-750000.125,8458.794921875,-750000.125,-750000.125,972505.0,1.0,4
-651774.3125,-21981.33203125,-9254.248046875,6031.3056640625,-750000.125,17620.328125,-750000.125,-750000.125,972506.0,1.0,4
-638885.8125,-54287.203125,-51590.69140625,-2928.525634765625,-750000.125,25079.015625,-750000.125,-750000.125,972507.0,1.0,4
-637000.25,-57561.01953125,-57097.625,-4376.9189453125,-750000.125,25037.888671875,-750000.125,-750000.125,972508.0,1.0,4
-648046.5,-32543.873046875,-26891.474609375,3226.697998046875,-750000.125,21116.23046875,-750000.125,-750000.125,972509.0,1.0,4
-657545.5,3715.754150390625,18480.958984375,10040.671875,-750000.125,8522.0048828125,-750000.125,-750000.125,972510.0,1.0,4
-651834.9375,-21683.96484375,-8897.693359375,6109.71533203125,-750000.125,17571.779296875,-750000.125,-750000.125,972511.0,1.0,4
-638945.5625,-54164.0,-51424.9296875,-2849.668701171875,-750000.125,25097.970703125,-750000.125,-750000.125,972512.0,1.0,4
-636964.3125,-57608.40625,-57147.51171875,-4369.05078125,-750000.125,25052.55078125,-750000.125,-750000.125,972513.0,1.0,4
-647955.5625,-32807.98046875,-27197.873046875,3184.76611328125,-750000.125,21210.912109375,-750000.125,-750000.125,972514.0,1.0,4
-657527.625,3694.29638671875,18434.021484375,10011.078125,-750000.125,8537.2041015625,-750000.125,-750000.125,972515.0,1.0,4
-651899.0,-21396.96875,-8544.5361328125,6130.8154296875,-750000.125,17470.482421875,-750000.125,-750000.125,972516.0,1.0,4
-639005.5625,-54044.10546875,-51258.72265625,-2833.0390625,-750000.125,25092.60546875,-750000.125,-750000.125,972517.0,1.0,4
-636923.375,-57652.21484375,-57195.16796875,-4439.056640625,-750000.125,25046.560546875,-750000.125,-750000.125,972518.0,1.0,4
-647862.375,-33097.03515625,-27563.994140625,3013.73046875,-750000.125,21207.873046875,-750000.125,-750000.125,972519.0,1.0,4
-657513.4375,3540.8740234375,18270.138671875,10025.919921875,-750000.125,8413.46484375,-750000.125,-750000.125,972520.0,1.0,4
-651973.0625,-21226.021484375,-8324.9521484375,6225.94482421875,-750000.125,17258.408203125,-750000.125,-750000.125,972521.0,1.0,4
-639078.0625,-53930.6484375,-51108.96484375,-2736.211181640625,-750000.125,25040.125,-750000.125,-750000.125,972522.0,1.0,4
-636877.9375,-57705.58984375,-57253.99609375,-4413.39697265625,-750000.125,25007.1328125,-750000.125,-750000.125,972523.0,1.0,4
-647761.0,-33374.73046875,-27913.84375,3073.0966796875,-750000.125,21312.30078125,-750000.125,-750000.125,972524.0,1.0,4
-657497.9375,3569.305419921875,18240.1875,10052.1162109375,-750000.125,8507.7900390625,-750000.125,-750000.125,972525.0,1.0,4
-652047.375,-20851.5859375,-7879.52685546875,6303.5498046875,-750000.125,17214.330078125,-750000.125,-750000.125,972526.0,1.0,4
-639147.8125,-53790.28125,-50912.984375,-2667.904296875,-750000.125,25060.509765625,-750000.125,-750000.125,972527.0,1.0,4
-636839.4375,-57759.50390625,-57311.57421875,-4406.78076171875,-750000.125,25022.421875,-750000.125,-750000.125,972528.0,1.0,4
-647666.875,-33638.66015625,-28243.396484375,3038.3173828125,-750000.125,21420.662109375,-750000.125,-750000.125,972529.0,1.0,4
-657477.875,3563.225830078125,18179.568359375,10070.802734375,-750000.125,8580.208984375,-750000.125,-750000.125,972530.0,1.0,4
-652114.0625,-20542.416015625,-7508.9345703125,6381.78076171875,-750000.125,17161.40234375,-750000.125,-750000.125,972531.0,1.0,4
-639208.125,-53660.91015625,-50737.2109375,-2590.74609375,-750000.125,25075.439453125,-750000.125,-750000.125,972532.0,1.0,4
-636791.9375,-57808.67578125,-57366.6484375,-4403.02587890625,-750000.125,25032.435546875,-750000.125,-750000.125,972533.0,1.0,4
-647573.625,-33873.53515625,-28541.30078125,3007.114501953125,-750000.125,21518.115234375,-750000.125,-750000.125,972534.0,1.0,4
-657467.125,3589.332763671875,18156.591796875,10091.1875,-750000.125,8637.4296875,-750000.125,-750000.125,972535.0,1.0,4
-652181.5625,-20227.79296875,-7134.7666015625,6445.259765625,-750000.125,17090.412109375,-750000.125,-750000.125,972536.0,1.0,4
-639271.75,-53525.90234375,-50565.55078125,-2534.77734375,-750000.125,25081.966796875,-750000.125,-750000.125,972537.0,1.0,4
-636753.5,-57848.015625,-57418.68359375,-4416.8837890625,-750000.125,25037.173828125,-750000.125,-750000.125,972538.0,1.0,4
-647487.0625,-34115.46875,-28850.91796875,2952.307861328125,-750000.125,21598.669921875,-750000.125,-750000.125,972539.0,1.0,4
-657453.0625,3615.08203125,18081.84765625,10072.322265625,-750000.125,8656.9208984375,-750000.125,-750000.125,972540.0,1.0,4
-652248.4375,-19876.244140625,-6783.03955078125,6500.78173828125,-750000.125,17006.01171875,-750000.125,-750000.125,972541.0,1.0,4
-639337.5,-53389.73828125,-50392.3671875,-2476.12646484375,-750000.125,25086.705078125,-750000.125,-750000.125,972542.0,1.0,4
-636720.25,-57888.4296875,-57470.00390625,-4427.97021484375,-750000.125,25044.146484375,-750000.125,-750000.125,972543.0,1.0,4
-647397.8125,-34331.296875,-29155.884765625,2908.587890625,-750000.125,21689.955078125,-750000.125,-750000.125,972544.0,1.0,4
-657435.0,3633.052734375,18028.29296875,10100.2177734375,-750000.125,8727.2841796875,-750000.125,-750000.125,972545.0,1.0,4
-652319.5,-19569.400390625,-6414.59326171875,6584.82421875,-750000.125,16953.62109375,-750000.125,-750000.125,972546.0,1.0,4
-639405.625,-53264.92578125,-50217.0390625,-2397.35888671875,-750000.125,25103.87109375,-750000.125,-750000.125,972547.0,1.0,4
-636682.4375,-57937.24609375,-57525.078125,-4419.92333984375,-750000.125,25058.630859375,-750000.125,-750000.125,972548.0,1.0,4
-647304.75,-34594.15234375,-29486.064453125,2875.5966796875,-750000.125,21796.349609375,-750000.125,-750000.125,972549.0,1.0,4
-657420.875,3619.283935546875,17959.091796875,10117.6513671875,-750000.125,8801.5810546875,-750000.125,-750000.125,972550.0,1.0,4
-652385.25,-19244.673828125,-6035.77587890625,6667.3466796875,-750000.125,16902.478515625,-750000.125,-750000.125,972551.0,1.0,4
-639480.125,-53112.93359375,-50012.56640625,-2306.96826171875,-750000.125,25121.126953125,-750000.125,-750000.125,972552.0,1.0,4
-636650.5,-57971.84375,-57558.78515625,-4404.36669921875,-750000.125,25071.23828125,-750000.125,-750000.125,972553.0,1.0,4
-647203.375,-34897.2421875,-29847.537109375,2843.2314453125,-750000.125,21924.291015625,-750000.125,-750000.125,972554.0,1.0,4
-657368.5,3473.282470703125,17779.3828125,10133.56640625,-750000.125,8928.896484375,-750000.125,-750000.125,972555.0,1.0,4
-652426.375,-19047.62109375,-5806.89404296875,6736.5478515625,-750000.125,16881.46875,-750000.125,-750000.125,972556.0,1.0,4
-639535.125,-53011.09765625,-49887.6640625,-2241.5224609375,-750000.125,25139.09765625,-750000.125,-750000.125,972557.0,1.0,4
-636608.1875,-58020.75,-57624.5,-4420.638671875,-750000.125,25080.447265625,-750000.125,-750000.125,972558.0,1.0,4
-647125.125,-35122.37109375,-30149.017578125,2701.342529296875,-750000.125,21889.154296875,-750000.125,-750000.125,972559.0,1.0,4
-657380.1875,3417.85009765625,17667.982421875,10132.224609375,-750000.125,8707.6142578125,-750000.125,-750000.125,972560.0,1.0,4
-652511.9375,-18802.82421875,-5523.65283203125,6803.3349609375,-750000.125,16575.96484375,-750000.125,-750000.125,972561.0,1.0,4
-639608.4375,-52870.55078125,-49704.6484375,-2163.023193359375,-750000.125,25048.349609375,-750000.125,-750000.125,972562.0,1.0,4
-636574.5,-58055.6171875,-57658.65234375,-4432.26171875,-750000.125,25020.365234375,-750000.125,-750000.125,972563.0,1.0,4
-647030.375,-35484.73828125,-30542.23046875,2644.9267578125,-750000.125,21891.65625,-750000.125,-750000.125,972564.0,1.0,4
-657345.0,3083.1103515625,17384.29296875,10059.0009765625,-750000.125,8608.193359375,-750000.125,-750000.125,972565.0,1.0,4
-652572.25,-18687.1328125,-5383.1943359375,6797.5234375,-750000.125,16349.5869140625,-750000.125,-750000.125,972566.0,1.0,4
-639678.4375,-52749.58203125,-49563.56640625,-2147.28759765625,-750000.125,24974.857421875,-750000.125,-750000.125,972567.0,1.0,4
-636536.125,-58092.9921875,-57708.36328125,-4472.58447265625,-750000.125,24964.93359375,-750000.125,-750000.125,972568.0,1.0,4
-646938.375,-35696.54296875,-30851.130859375,2658.158935546875,-750000.125,21959.517578125,-750000.125,-750000.125,972569.0,1.0,4
-657327.375,3112.61474609375,17316.166015625,10076.703125,-750000.125,8730.501953125,-750000.125,-750000.125,972570.0,1.0,4
-652641.625,-18343.8984375,-4987.92626953125,6857.42626953125,-750000.125,16335.818359375,-750000.125,-750000.125,972571.0,1.0,4
-639755.75,-52611.359375,-49366.2421875,-2108.57421875,-750000.125,24993.990234375,-750000.125,-750000.125,972572.0,1.0,4
-636506.125,-58137.96484375,-57753.421875,-4488.14111328125,-750000.125,24974.3203125,-750000.125,-750000.125,972573.0,1.0,4
-646843.75,-35948.84765625,-31162.4453125,2600.22314453125,-750000.125,22051.60546875,-750000.125,-750000.125,972574.0,1.0,4
-657302.8125,3068.090087890625,17221.037109375,10065.7060546875,-750000.125,8806.6767578125,-750000.125,-750000.125,972575.0,1.0,4
-652709.3125,-18024.1796875,-4611.34375,6912.94775390625,-750000.125,16269.4775390625,-750000.125,-750000.125,972576.0,1.0,4
-639828.0,-52459.27734375,-49160.16015625,-2045.5423583984375,-750000.125,24998.103515625,-750000.125,-750000.125,972577.0,1.0,4
-636474.5625,-58173.81640625,-57789.90234375,-4498.95947265625,-750000.125,24979.953125,-750000.125,-750000.125,972578.0,1.0,4
-646757.25,-36199.8125,-31468.12890625,2548.098876953125,-750000.125,22144.232421875,-750000.125,-750000.125,972579.0,1.0,4
-657276.9375,3014.3564453125,17121.615234375,10070.5341796875,-750000.125,8886.2490234375,-750000.125,-750000.125,972580.0,1.0,4
-652770.375,-17713.400390625,-4243.61279296875,6992.96728515625,-750000.125,16214.939453125,-750000.125,-750000.125,972581.0,1.0,4
-639892.8125,-52320.51953125,-48965.7890625,-1960.695068359375,-750000.125,25008.7421875,-750000.125,-750000.125,972582.0,1.0,4
-636429.8125,-58215.03125,-57834.42578125,-4499.13818359375,-750000.125,24987.28515625,-750000.125,-750000.125,972583.0,1.0,4
-646654.3125,-36495.57421875,-31824.50390625,2418.369384765625,-750000.125,22163.990234375,-750000.125,-750000.125,972584.0,1.0,4
-657255.75,2791.46484375,16902.033203125,10063.560546875,-750000.125,8787.1865234375,-750000.125,-750000.125,972585.0,1.0,4
-652836.4375,-17586.890625,-4070.34228515625,7032.216796875,-750000.125,15975.59765625,-750000.125,-750000.125,972586.0,1.0,4
-639962.8125,-52197.8515625,-48821.75390625,-1921.8924560546875,-750000.125,24926.041015625,-750000.125,-750000.125,972587.0,1.0,4
-636400.0625,-58249.2734375,-57878.234375,-4533.91748046875,-750000.125,24934.712890625,-750000.125,-750000.125,972588.0,1.0,4
-646568.125,-36735.5390625,-32113.916015625,2419.4423828125,-750000.125,22207.7109375,-750000.125,-750000.125,972589.0,1.0,4
-657227.5,2736.837158203125,16787.859375,9985.6875,-750000.125,8817.673828125,-750000.125,-750000.125,972590.0,1.0,4
-652895.5625,-17266.365234375,-3724.963134765625,7013.70947265625,-750000.125,15887.888671875,-750000.125,-750000.125,972591.0,1.0,4
-640030.6875,-52042.015625,-48612.90234375,-1927.2569580078125,-750000.125,24917.7265625,-750000.125,-750000.125,972592.0,1.0,4
-636359.625,-58276.90234375,-57908.9921875,-4611.9697265625,-750000.125,24928.72265625,-750000.125,-750000.125,972593.0,1.0,4
-646470.4375,-36969.609375,-32432.29296875,2305.18017578125,-750000.125,22298.458984375,-750000.125,-750000.125,972594.0,1.0,4
-657200.4375,2698.928466796875,16670.46875,9956.8984375,-750000.125,8933.4560546875,-750000.125,-750000.125,972595.0,1.0,4
-652958.25,-16942.443359375,-3345.430419921875,7061.005859375,-750000.125,15857.0439453125,-750000.125,-750000.125,972596.0,1.0,4
-640100.875,-51898.51953125,-48410.83984375,-1874.7750244140625,-750000.125,24935.697265625,-750000.125,-750000.125,972597.0,1.0,4
-636325.25,-58322.765625,-57955.3046875,-4632.26513671875,-750000.125,24944.189453125,-750000.125,-750000.125,972598.0,1.0,4
-646376.6875,-37206.1796875,-32727.24609375,2242.684814453125,-750000.125,22397.96875,-750000.125,-750000.125,972599.0,1.0,4
-657174.375,2698.21337890625,16595.1875,9956.8984375,-750000.125,9034.0390625,-750000.125,-750000.125,972600.0,1.0,4
-653021.4375,-16580.435546875,-2936.929931640625,7132.173828125,-750000.125,15824.052734375,-750000.125,-750000.125,972601.0,1.0,4
-640172.875,-51743.21875,-48195.90625,-1804.769287109375,-750000.125,24954.5625,-750000.125,-750000.125,972602.0,1.0,4
-636289.0,-58360.31640625,-57994.01953125,-4616.70849609375,-750000.125,24955.1875,-750000.125,-750000.125,972603.0,1.0,4
-646283.5625,-37441.3203125,-33017.4609375,2217.382568359375,-750000.125,22487.197265625,-750000.125,-750000.125,972604.0,1.0,4
-657147.3125,2642.60205078125,16484.322265625,9974.33203125,-750000.125,9119.958984375,-750000.125,-750000.125,972605.0,1.0,4
-653084.3125,-16283.8720703125,-2586.990966796875,7195.9208984375,-750000.125,15752.34765625,-750000.125,-750000.125,972606.0,1.0,4
-640248.25,-51581.48046875,-47988.03515625,-1741.7374267578125,-750000.125,24953.7578125,-750000.125,-750000.125,972607.0,1.0,4
-636260.5,-58384.63671875,-58027.90234375,-4637.1826171875,-750000.125,24961.625,-750000.125,-750000.125,972608.0,1.0,4
-646192.1875,-37715.62109375,-33368.296875,2062.52978515625,-750000.125,22495.6015625,-750000.125,-750000.125,972609.0,1.0,4
-657121.125,2423.0185546875,16229.6025390625,9937.0498046875,-750000.125,9000.6904296875,-750000.125,-750000.125,972610.0,1.0,4
-653147.4375,-16127.1416015625,-2412.379150390625,7241.33984375,-750000.125,15511.1279296875,-750000.125,-750000.125,972611.0,1.0,4
-640314.9375,-51466.4140625,-47838.63671875,-1679.599609375,-750000.125,24873.021484375,-750000.125,-750000.125,972612.0,1.0,4
-636229.3125,-58425.67578125,-58067.95703125,-4649.7890625,-750000.125,24912.451171875,-750000.125,-750000.125,972613.0,1.0,4
-646101.6875,-37957.46484375,-33647.15625,2089.441162109375,-750000.125,22546.7421875,-750000.125,-750000.125,972614.0,1.0,4
-657092.75,2331.19775390625,16108.544921875,9882.064453125,-750000.125,9059.251953125,-750000.125,-750000.125,972615.0,1.0,4
-653212.25,-15826.734375,-2061.367431640625,7227.302734375,-750000.125,15429.1416015625,-750000.125,-750000.125,972616.0,1.0,4
-640391.125,-51307.26953125,-47620.3046875,-1682.639404296875,-750000.125,24866.943359375,-750000.125,-750000.125,972617.0,1.0,4
-636194.3125,-58448.47265625,-58091.91796875,-4723.19189453125,-750000.125,24908.875,-750000.125,-750000.125,972618.0,1.0,4
-646008.0,-38186.97265625,-33948.27734375,1977.14599609375,-750000.125,22629.265625,-750000.125,-750000.125,972619.0,1.0,4
-657060.3125,2275.40771484375,15979.6201171875,9851.666015625,-750000.125,9178.9677734375,-750000.125,-750000.125,972620.0,1.0,4
-653276.1875,-15481.265625,-1663.6851806640625,7275.9404296875,-750000.125,15396.240234375,-750000.125,-750000.125,972621.0,1.0,4
-640471.5,-51138.19921875,-47387.04296875,-1633.6444091796875,-750000.125,24877.58203125,-750000.125,-750000.125,972622.0,1.0,4
-636164.75,-58483.87890625,-58125.89453125,-4745.0966796875,-750000.125,24913.61328125,-750000.125,-750000.125,972623.0,1.0,4
-645908.75,-38481.30078125,-34305.546875,1819.968505859375,-750000.125,22648.30859375,-750000.125,-750000.125,972624.0,1.0,4
-657027.5,2026.1409912109375,15711.3994140625,9823.8603515625,-750000.125,9089.560546875,-750000.125,-750000.125,972625.0,1.0,4
-653339.4375,-15340.62890625,-1480.490234375,7322.34228515625,-750000.125,15160.5634765625,-750000.125,-750000.125,972626.0,1.0,4
-640544.1875,-51010.70703125,-47220.921875,-1580.983642578125,-750000.125,24787.548828125,-750000.125,-750000.125,972627.0,1.0,4
-636134.0625,-58518.390625,-58161.56640625,-4750.55078125,-750000.125,24856.392578125,-750000.125,-750000.125,972628.0,1.0,4
-645819.4375,-38738.078125,-34617.3125,1857.0723876953125,-750000.125,22698.107421875,-750000.125,-750000.125,972629.0,1.0,4
-657000.4375,1907.4085693359375,15549.21484375,9808.3037109375,-750000.125,9179.7724609375,-750000.125,-750000.125,972630.0,1.0,4
-653406.4375,-15043.7080078125,-1130.6407470703125,7353.0986328125,-750000.125,15092.9716796875,-750000.125,-750000.125,972631.0,1.0,4
-640626.125,-50848.5234375,-46998.56640625,-1529.0382080078125,-750000.125,24789.60546875,-750000.125,-750000.125,972632.0,1.0,4
-636103.3125,-58551.828125,-58193.75390625,-4793.19775390625,-750000.125,24863.009765625,-750000.125,-750000.125,972633.0,1.0,4
-645721.4375,-38965.88671875,-34899.5703125,1767.2183837890625,-750000.125,22781.8828125,-750000.125,-750000.125,972634.0,1.0,4
-656964.5625,1849.4727783203125,15422.078125,9774.6865234375,-750000.125,9295.107421875,-750000.125,-750000.125,972635.0,1.0,4
-653464.0,-14708.1640625,-765.681396484375,7417.8291015625,-750000.125,15080.1865234375,-750000.125,-750000.125,972636.0,1.0,4
-640703.9375,-50684.4609375,-46782.47265625,-1437.1278076171875,-750000.125,24819.9140625,-750000.125,-750000.125,972637.0,1.0,4
-636078.375,-58579.9921875,-58228.890625,-4769.59423828125,-750000.125,24888.9375,-750000.125,-750000.125,972638.0,1.0,4
-645630.25,-39199.953125,-35186.02734375,1736.6412353515625,-750000.125,22890.421875,-750000.125,-750000.125,972639.0,1.0,4
-656929.6875,1755.86376953125,15272.8583984375,9737.5830078125,-750000.125,9410.173828125,-750000.125,-750000.125,972640.0,1.0,4
-653529.75,-14382.72265625,-406.26531982421875,7421.31591796875,-750000.125,15014.025390625,-750000.125,-750000.125,972641.0,1.0,4
-640786.1875,-50504.39453125,-46541.1640625,-1435.60791015625,-750000.125,24810.6171875,-750000.125,-750000.125,972642.0,1.0,4
-636051.8125,-58602.69921875,-58249.453125,-4854.888671875,-750000.125,24886.791015625,-750000.125,-750000.125,972643.0,1.0,4
-645536.8125,-39481.140625,-35539.54296875,1518.130615234375,-750000.125,22907.23046875,-750000.125,-750000.125,972644.0,1.0,4
-656890.25,1501.5902099609375,14981.8388671875,9689.66015625,-750000.125,9354.294921875,-750000.125,-750000.125,972645.0,1.0,4
-653588.4375,-14205.6962890625,-184.35719299316406,7491.85791015625,-750000.125,14807.9423828125,-750000.125,-750000.125,972646.0,1.0,4
-640864.0625,-50367.9609375,-46358.94921875,-1353.353515625,-750000.125,24742.66796875,-750000.125,-750000.125,972647.0,1.0,4
-636022.9375,-58636.94140625,-58283.4296875,-4834.77197265625,-750000.125,24848.615234375,-750000.125,-750000.125,972648.0,1.0,4
-645445.4375,-39702.8671875,-35815.09765625,1580.7154541015625,-750000.125,22965.525390625,-750000.125,-750000.125,972649.0,1.0,4
-656858.375,1450.091796875,14856.9375,9714.158203125,-750000.125,9472.3125,-750000.125,-750000.125,972650.0,1.0,4
-653648.875,-13848.6943359375,215.82846069335938,7562.1318359375,-750000.125,14776.91796875,-750000.125,-750000.125,972651.0,1.0,4
-640940.25,-50191.828125,-46115.5859375,-1280.129150390625,-750000.125,24756.8828125,-750000.125,-750000.125,972652.0,1.0,4
-635998.0625,-58664.83984375,-58308.91015625,-4815.4599609375,-750000.125,24863.544921875,-750000.125,-750000.125,972653.0,1.0,4
-645351.125,-39936.9375,-36102.00390625,1553.893310546875,-750000.125,23053.412109375,-750000.125,-750000.125,972654.0,1.0,4
-656817.0625,1345.4857177734375,14690.3720703125,9721.9365234375,-750000.125,9578.52734375,-750000.125,-750000.125,972655.0,1.0,4
-653714.0,-13529.779296875,587.672119140625,7646.44287109375,-750000.125,14716.6572265625,-750000.125,-750000.125,972656.0,1.0,4
-641026.25,-50014.35546875,-45869.0,-1170.4267578125,-750000.125,24768.05859375,-750000.125,-750000.125,972657.0,1.0,4
-635970.75,-58691.5703125,-58335.55078125,-4798.2939453125,-750000.125,24887.1484375,-750000.125,-750000.125,972658.0,1.0,4
-645256.5625,-40155.625,-36376.21484375,1518.6669921875,-750000.125,23147.109375,-750000.125,-750000.125,972659.0,1.0,4
-656783.0,1304.626708984375,14572.0859375,9727.748046875,-750000.125,9699.40625,-750000.125,-750000.125,972660.0,1.0,4
-653770.3125,-13166.6982421875,982.8509521484375,7723.33251953125,-750000.125,14689.5673828125,-750000.125,-750000.125,972661.0,1.0,4
-641104.375,-49838.671875,-45625.90234375,-1081.1092529296875,-750000.125,24790.142578125,-750000.125,-750000.125,972662.0,1.0,4
-635946.875,-58719.2890625,-58360.31640625,-4778.35595703125,-750000.125,24912.71875,-750000.125,-750000.125,972663.0,1.0,4
-645163.4375,-40385.9375,-36646.22265625,1484.8712158203125,-750000.125,23240.09375,-750000.125,-750000.125,972664.0,1.0,4
-656742.625,1195.818359375,14416.33984375,9691.806640625,-750000.125,9790.7802734375,-750000.125,-750000.125,972665.0,1.0,4
-653838.0625,-12814.8818359375,1384.1094970703125,7737.36962890625,-750000.125,14598.7294921875,-750000.125,-750000.125,972666.0,1.0,4
-641190.5625,-49636.609375,-45349.9921875,-1064.3006591796875,-750000.125,24774.853515625,-750000.125,-750000.125,972667.0,1.0,4
-635917.5,-58735.55859375,-58375.6953125,-4821.4501953125,-750000.125,24909.76953125,-750000.125,-750000.125,972668.0,1.0,4
-645062.8125,-40617.0546875,-36946.8984375,1397.5205078125,-750000.125,23300.890625,-750000.125,-750000.125,972669.0,1.0,4
-656699.5,1083.7020263671875,14222.7734375,9680.0048828125,-750000.125,9888.6806640625,-750000.125,-750000.125,972670.0,1.0,4
-653895.25,-12499.4541015625,1742.810302734375,7797.98779296875,-750000.125,14522.4658203125,-750000.125,-750000.125,972671.0,1.0,4
-641271.75,-49451.08984375,-45108.23828125,-1001.0005493164062,-750000.125,24765.64453125,-750000.125,-750000.125,972672.0,1.0,4
-635892.0625,-58751.3828125,-58397.95703125,-4831.8212890625,-750000.125,24915.22265625,-750000.125,-750000.125,972673.0,1.0,4
-644970.875,-40820.9921875,-37216.640625,1338.601318359375,-750000.125,23360.525390625,-750000.125,-750000.125,972674.0,1.0,4
-656663.6875,1019.5972290039062,14055.4931640625,9659.26171875,-750000.125,9954.484375,-750000.125,-750000.125,972675.0,1.0,4
-653954.9375,-12145.1337890625,2100.70654296875,7863.34423828125,-750000.125,14450.671875,-750000.125,-750000.125,972676.0,1.0,4
-641351.25,-49267.1796875,-44860.48828125,-908.5537719726562,-750000.125,24768.23828125,-750000.125,-750000.125,972677.0,1.0,4
-635867.3125,-58779.81640625,-58423.171875,-4811.16845703125,-750000.125,24929.6171875,-750000.125,-750000.125,972678.0,1.0,4
-644877.4375,-41036.73046875,-37486.6484375,1311.2427978515625,-750000.125,23435.447265625,-750000.125,-750000.125,972679.0,1.0,4
-656619.25,927.6868286132812,13892.3251953125,9667.5771484375,-750000.125,10056.408203125,-750000.125,-750000.125,972680.0,1.0,4
-654011.8125,-11808.6064453125,2468.794921875,7947.744140625,-750000.125,14392.3779296875,-750000.125,-750000.125,972681.0,1.0,4
-641434.1875,-49088.63671875,-44611.22265625,-801.265380859375,-750000.125,24778.162109375,-750000.125,-750000.125,972682.0,1.0,4
-635846.0,-58809.765625,-58450.44140625,-4793.01904296875,-750000.125,24956.974609375,-750000.125,-750000.125,972683.0,1.0,4
-644784.75,-41250.50390625,-37753.52734375,1280.48681640625,-750000.125,23527.1796875,-750000.125,-750000.125,972684.0,1.0,4
-656580.9375,874.9367065429688,13748.0224609375,9684.564453125,-750000.125,10179.96875,-750000.125,-750000.125,972685.0,1.0,4
-654074.8125,-11425.228515625,2886.4150390625,8045.19775390625,-750000.125,14354.4697265625,-750000.125,-750000.125,972686.0,1.0,4
-641512.375,-48899.8984375,-44346.7578125,-701.9342041015625,-750000.125,24795.05859375,-750000.125,-750000.125,972687.0,1.0,4
-635821.6875,-58831.94140625,-58472.16796875,-4744.91796875,-750000.125,24981.47265625,-750000.125,-750000.125,972688.0,1.0,4
-644695.9375,-41465.2578125,-38001.9921875,1275.390625,-750000.125,23598.97265625,-750000.125,-750000.125,972689.0,1.0,4
-656541.3125,737.7864379882812,13582.3515625,9661.318359375,-750000.125,10236.7421875,-750000.125,-750000.125,972690.0,1.0,4
-654130.875,-11149.5869140625,3201.75341796875,8041.44287109375,-750000.125,14226.6181640625,-750000.125,-750000.125,972691.0,1.0,4
-641590.9375,-48709.7265625,-44106.25390625,-702.4706420898438,-750000.125,24754.736328125,-750000.125,-750000.125,972692.0,1.0,4
-635800.6875,-58833.90625,-58479.49609375,-4814.4765625,-750000.125,24969.224609375,-750000.125,-750000.125,972693.0,1.0,4
-644603.6875,-41650.15234375,-38269.765625,1165.0623779296875,-750000.125,23633.931640625,-750000.125,-750000.125,972694.0,1.0,4
-656496.0,658.7506713867188,13371.9765625,9623.857421875,-750000.125,10304.4228515625,-750000.125,-750000.125,972695.0,1.0,4
-654181.6875,-10807.0693359375,3538.01318359375,8106.083984375,-750000.125,14161.529296875,-750000.125,-750000.125,972696.0,1.0,4
-641666.5,-48522.2421875,-43854.66015625,-609.0403442382812,-750000.125,24753.6640625,-750000.125,-750000.125,972697.0,1.0,4
-635778.5,-58847.140625,-58489.2421875,-4785.8662109375,-750000.125,24981.5625,-750000.125,-750000.125,972698.0,1.0,4
-644518.3125,-41848.7265625,-38512.68359375,1143.33642578125,-750000.125,23703.04296875,-750000.125,-750000.125,972699.0,1.0,4
-656454.5625,541.4486694335938,13197.3642578125,9629.1318359375,-750000.125,10410.0126953125,-750000.125,-750000.125,972700.0,1.0,4
-654238.1875,-10501.9228515625,3879.279541015625,8179.57666015625,-750000.125,14108.1533203125,-750000.125,-750000.125,972701.0,1.0,4
-641749.5625,-48335.3828125,-43598.15234375,-514.8948364257812,-750000.125,24757.59765625,-750000.125,-750000.125,972702.0,1.0,4
-635761.1875,-58866.00390625,-58506.23046875,-4759.9384765625,-750000.125,25000.427734375,-750000.125,-750000.125,972703.0,1.0,4
-644433.375,-42059.81640625,-38766.2421875,1118.57080078125,-750000.125,23772.064453125,-750000.125,-750000.125,972704.0,1.0,4
-656412.8125,414.2225341796875,13014.6171875,9639.2353515625,-750000.125,10511.310546875,-750000.125,-750000.125,972705.0,1.0,4
-654289.4375,-10170.669921875,4234.1357421875,8277.4775390625,-750000.125,14054.1513671875,-750000.125,-750000.125,972706.0,1.0,4
-641830.0,-48139.4921875,-43335.296875,-396.9670104980469,-750000.125,24764.482421875,-750000.125,-750000.125,972707.0,1.0,4
-635743.4375,-58884.2421875,-58519.91015625,-4712.10546875,-750000.125,25022.421875,-750000.125,-750000.125,972708.0,1.0,4
-644341.125,-42266.34765625,-39024.62890625,1117.05078125,-750000.125,23848.5078125,-750000.125,-750000.125,972709.0,1.0,4
-656364.1875,312.5668029785156,12827.3984375,9669.9013671875,-750000.125,10622.98046875,-750000.125,-750000.125,972710.0,1.0,4
-654350.5,-9842.2783203125,4594.71435546875,8365.4541015625,-750000.125,13984.4140625,-750000.125,-750000.125,972711.0,1.0,4
-641922.75,-47928.578125,-43059.921875,-298.4405212402344,-750000.125,24759.296875,-750000.125,-750000.125,972712.0,1.0,4
-635726.0,-58893.18359375,-58534.484375,-4688.23388671875,-750000.125,25038.9609375,-750000.125,-750000.125,972713.0,1.0,4
-644243.9375,-42497.91015625,-39309.03125,1077.0859375,-750000.125,23911.00390625,-750000.125,-750000.125,972714.0,1.0,4
-656312.0625,121.41468048095703,12581.7978515625,9612.8603515625,-750000.125,10681.8095703125,-750000.125,-750000.125,972715.0,1.0,4
-654403.125,-9516.3896484375,4920.15576171875,8367.8671875,-750000.125,13859.333984375,-750000.125,-750000.125,972716.0,1.0,4
-642009.8125,-47722.40625,-42788.125,-266.1645812988281,-750000.125,24728.09375,-750000.125,-750000.125,972717.0,1.0,4
-635712.5,-58900.15625,-58536.18359375,-4731.5068359375,-750000.125,25038.693359375,-750000.125,-750000.125,972718.0,1.0,4
-644156.625,-42742.08203125,-39615.4296875,883.1621704101562,-750000.125,23901.97265625,-750000.125,-750000.125,972719.0,1.0,4
-656263.4375,-206.26190185546875,12219.7890625,9565.1162109375,-750000.125,10583.9091796875,-750000.125,-750000.125,972720.0,1.0,4
-654456.9375,-9419.115234375,5054.1767578125,8442.8798828125,-750000.125,13592.0068359375,-750000.125,-750000.125,972721.0,1.0,4
-642089.3125,-47585.8828125,-42610.29296875,-162.6313018798828,-750000.125,24617.67578125,-750000.125,-750000.125,972722.0,1.0,4
-635697.125,-58919.55859375,-58551.0234375,-4712.01611328125,-750000.125,24991.30859375,-750000.125,-750000.125,972723.0,1.0,4
-644072.4375,-42987.0546875,-39906.89453125,850.3497924804688,-750000.125,23878.638671875,-750000.125,-750000.125,972724.0,1.0,4
-656220.625,-522.85205078125,11887.7314453125,9553.5830078125,-750000.125,10514.7978515625,-750000.125,-750000.125,972725.0,1.0,4
-654515.4375,-9310.396484375,5203.75439453125,8484.9912109375,-750000.125,13358.6552734375,-750000.125,-750000.125,972726.0,1.0,4
-642178.375,-47432.28125,-42411.0078125,-97.6324234008789,-750000.125,24512.623046875,-750000.125,-750000.125,972727.0,1.0,4
-635679.5,-58926.7109375,-58555.58203125,-4707.18798828125,-750000.125,24936.232421875,-750000.125,-750000.125,972728.0,1.0,4
-643982.9375,-43190.09765625,-40160.6328125,905.6033325195312,-750000.125,23907.6953125,-750000.125,-750000.125,972729.0,1.0,4
-656171.875,-679.9401245117188,11668.05859375,9552.0634765625,-750000.125,10656.6865234375,-750000.125,-750000.125,972730.0,1.0,4
-654571.6875,-9006.501953125,5542.78564453125,8521.826171875,-750000.125,13336.4814453125,-750000.125,-750000.125,972731.0,1.0,4
-642268.0,-47238.8046875,-42140.8203125,-51.76664352416992,-750000.125,24518.880859375,-750000.125,-750000.125,972732.0,1.0,4
-635667.9375,-58943.33984375,-58566.40234375,-4713.26806640625,-750000.125,24947.587890625,-750000.125,-750000.125,972733.0,1.0,4
-643895.9375,-43402.3515625,-40417.6796875,850.7968139648438,-750000.125,23968.669921875,-750000.125,-750000.125,972734.0,1.0,4
-656121.8125,-855.2672119140625,11434.974609375,9521.75390625,-750000.125,10771.6640625,-750000.125,-750000.125,972735.0,1.0,4
-654616.625,-8753.033203125,5821.64599609375,8548.1123046875,-750000.125,13276.6689453125,-750000.125,-750000.125,972736.0,1.0,4
-642344.8125,-47047.3828125,-41898.97265625,-14.9309663772583,-750000.125,24497.78125,-750000.125,-750000.125,972737.0,1.0,4
-635650.0,-58943.25,-58571.85546875,-4740.2685546875,-750000.125,24945.798828125,-750000.125,-750000.125,972738.0,1.0,4
-643807.4375,-43601.73046875,-40672.48828125,769.3471069335938,-750000.125,24011.67578125,-750000.125,-750000.125,972739.0,1.0,4
-656073.8125,-1037.2998046875,11176.0517578125,9445.5791015625,-750000.125,10840.865234375,-750000.125,-750000.125,972740.0,1.0,4
-654672.0625,-8452.6259765625,6098.71826171875,8546.9501953125,-750000.125,13181.181640625,-750000.125,-750000.125,972741.0,1.0,4
-642429.5,-46843.984375,-41646.30859375,20.56360626220703,-750000.125,24473.552734375,-750000.125,-750000.125,972742.0,1.0,4
-635634.8125,-58946.73828125,-58579.09765625,-4777.19384765625,-750000.125,24945.263671875,-750000.125,-750000.125,972743.0,1.0,4
-643718.5,-43825.9609375,-40962.61328125,592.0530395507812,-750000.125,24011.853515625,-750000.125,-750000.125,972744.0,1.0,4
-656020.3125,-1361.84716796875,10815.2939453125,9380.8486328125,-750000.125,10779.173828125,-750000.125,-750000.125,972745.0,1.0,4
-654721.9375,-8351.3271484375,6235.68994140625,8591.6533203125,-750000.125,12944.25390625,-750000.125,-750000.125,972746.0,1.0,4
-642513.625,-46700.57421875,-41458.46484375,93.51970672607422,-750000.125,24365.7265625,-750000.125,-750000.125,972747.0,1.0,4
-635622.5,-58963.1875,-58590.80859375,-4783.18408203125,-750000.125,24901.005859375,-750000.125,-750000.125,972748.0,1.0,4
-643633.4375,-44015.1484375,-41197.484375,622.8090209960938,-750000.125,24032.775390625,-750000.125,-750000.125,972749.0,1.0,4
-655974.3125,-1496.3153076171875,10609.1220703125,9370.3876953125,-750000.125,10897.638671875,-750000.125,-750000.125,972750.0,1.0,4
-654774.4375,-8031.87646484375,6573.55908203125,8627.5947265625,-750000.125,12910.8154296875,-750000.125,-750000.125,972751.0,1.0,4
-642590.3125,-46505.3984375,-41192.390625,149.2202606201172,-750000.125,24367.783203125,-750000.125,-750000.125,972752.0,1.0,4
-635603.0,-58976.69140625,-58600.82421875,-4791.677734375,-750000.125,24915.400390625,-750000.125,-750000.125,972753.0,1.0,4
-643549.75,-44195.390625,-41417.96484375,566.482666015625,-750000.125,24096.5234375,-750000.125,-750000.125,972754.0,1.0,4
-655926.4375,-1622.7366943359375,10415.82421875,9337.576171875,-750000.125,11030.4970703125,-750000.125,-750000.125,972755.0,1.0,4
-654822.25,-7730.39599609375,6895.42431640625,8660.943359375,-750000.125,12887.033203125,-750000.125,-750000.125,972756.0,1.0,4
-642667.25,-46310.671875,-40924.79296875,189.45339965820312,-750000.125,24365.99609375,-750000.125,-750000.125,972757.0,1.0,4
-635588.0625,-58990.90625,-58609.67578125,-4797.75732421875,-750000.125,24923.8046875,-750000.125,-750000.125,972758.0,1.0,4
-643467.75,-44377.87109375,-41638.08203125,516.504150390625,-750000.125,24143.37109375,-750000.125,-750000.125,972759.0,1.0,4
-655880.0625,-1762.65869140625,10207.86328125,9311.3798828125,-750000.125,11129.91796875,-750000.125,-750000.125,972760.0,1.0,4
-654870.1875,-7449.74755859375,7195.83154296875,8704.57421875,-750000.125,12835.9814453125,-750000.125,-750000.125,972761.0,1.0,4
-642747.0,-46125.77734375,-40668.734375,253.91583251953125,-750000.125,24357.412109375,-750000.125,-750000.125,972762.0,1.0,4
-635575.5625,-59003.78125,-58615.75390625,-4795.701171875,-750000.125,24932.92578125,-750000.125,-750000.125,972763.0,1.0,4
-643387.5,-44569.0234375,-41868.6640625,469.5654602050781,-750000.125,24195.40625,-750000.125,-750000.125,972764.0,1.0,4
-655832.5625,-1954.7943115234375,9951.623046875,9267.3017578125,-750000.125,11229.2490234375,-750000.125,-750000.125,972765.0,1.0,4
-654920.625,-7184.38720703125,7451.982421875,8715.9287109375,-750000.125,12760.4326171875,-750000.125,-750000.125,972766.0,1.0,4
-642823.75,-45932.92578125,-40433.14453125,287.5328674316406,-750000.125,24333.00390625,-750000.125,-750000.125,972767.0,1.0,4
-635567.125,-59001.72265625,-58619.33203125,-4824.84765625,-750000.125,24935.697265625,-750000.125,-750000.125,972768.0,1.0,4
-643312.9375,-44769.29296875,-42124.1875,302.46380615234375,-750000.125,24193.88671875,-750000.125,-750000.125,972769.0,1.0,4
-655787.4375,-2283.0966796875,9597.9287109375,9198.458984375,-750000.125,11166.7529296875,-750000.125,-750000.125,972770.0,1.0,4
-654969.5625,-7099.9873046875,7571.7880859375,8757.5029296875,-750000.125,12529.13671875,-750000.125,-750000.125,972771.0,1.0,4
-642905.125,-45787.640625,-40245.8359375,362.72412109375,-750000.125,24219.7265625,-750000.125,-750000.125,972772.0,1.0,4
-635561.0,-59008.25,-58618.4375,-4822.79150390625,-750000.125,24891.529296875,-750000.125,-750000.125,972773.0,1.0,4
-643234.625,-44941.3125,-42335.63671875,341.1770324707031,-750000.125,24212.126953125,-750000.125,-750000.125,972774.0,1.0,4
-655734.4375,-2433.389892578125,9372.9814453125,9195.8662109375,-750000.125,11303.1884765625,-750000.125,-750000.125,972775.0,1.0,4
-655012.8125,-6820.9482421875,7865.31103515625,8796.216796875,-750000.125,12523.50390625,-750000.125,-750000.125,972776.0,1.0,4
-642987.1875,-45591.390625,-39976.0078125,425.4878234863281,-750000.125,24230.455078125,-750000.125,-750000.125,972777.0,1.0,4
-635555.5,-59006.1953125,-58610.390625,-4820.109375,-750000.125,24912.451171875,-750000.125,-750000.125,972778.0,1.0,4
-643153.9375,-45113.8671875,-42547.80078125,291.82440185546875,-750000.125,24276.587890625,-750000.125,-750000.125,972779.0,1.0,4
-655680.3125,-2613.991943359375,9139.3603515625,9157.8681640625,-750000.125,11458.3984375,-750000.125,-750000.125,972780.0,1.0,4
-655057.3125,-6565.69091796875,8140.59521484375,8820.982421875,-750000.125,12520.375,-750000.125,-750000.125,972781.0,1.0,4
-643065.1875,-45398.8984375,-39719.67578125,465.1845397949219,-750000.125,24236.17578125,-750000.125,-750000.125,972782.0,1.0,4
-635547.625,-59008.51953125,-58607.26171875,-4821.53955078125,-750000.125,24921.033203125,-750000.125,-750000.125,972783.0,1.0,4
-643078.3125,-45290.26953125,-42760.9453125,242.11410522460938,-750000.125,24322.54296875,-750000.125,-750000.125,972784.0,1.0,4
-655629.8125,-2788.8720703125,8898.7666015625,9126.6650390625,-750000.125,11571.587890625,-750000.125,-750000.125,972785.0,1.0,4
-655105.1875,-6273.5986328125,8449.6748046875,8868.189453125,-750000.125,12469.501953125,-750000.125,-750000.125,972786.0,1.0,4
-643153.4375,-45185.39453125,-39429.015625,537.693603515625,-750000.125,24220.083984375,-750000.125,-750000.125,972787.0,1.0,4
-635541.375,-59014.0625,-58603.68359375,-4812.509765625,-750000.125,24931.31640625,-750000.125,-750000.125,972788.0,1.0,4
-642996.4375,-45486.0703125,-42992.0625,196.33773803710938,-750000.125,24373.05859375,-750000.125,-750000.125,972789.0,1.0,4
-655571.4375,-3006.309814453125,8632.6015625,9088.755859375,-750000.125,11679.3232421875,-750000.125,-750000.125,972790.0,1.0,4
-655151.9375,-5991.6982421875,8727.6416015625,8905.0244140625,-750000.125,12396.2783203125,-750000.125,-750000.125,972791.0,1.0,4
-643241.8125,-44965.18359375,-39155.25,604.3911743164062,-750000.125,24197.015625,-750000.125,-750000.125,972792.0,1.0,4
-635535.5625,-59011.0234375,-58602.96875,-4813.40380859375,-750000.125,24941.77734375,-750000.125,-750000.125,972793.0,1.0,4
-642910.75,-45685.08984375,-43248.125,53.10774612426758,-750000.125,24376.09765625,-750000.125,-750000.125,972794.0,1.0,4
-655516.1875,-3332.019287109375,8260.9365234375,9033.32421875,-750000.125,11637.0341796875,-750000.125,-750000.125,972795.0,1.0,4
-655201.0,-5905.15234375,8832.4267578125,8962.06640625,-750000.125,12185.0986328125,-750000.125,-750000.125,972796.0,1.0,4
-643322.6875,-44816.58984375,-38978.8515625,714.36181640625,-750000.125,24099.025390625,-750000.125,-750000.125,972797.0,1.0,4
-635527.875,-59013.52734375,-58610.92578125,-4773.349609375,-750000.125,24907.35546875,-750000.125,-750000.125,972798.0,1.0,4
-642833.875,-45847.0078125,-43464.1328125,127.31554412841797,-750000.125,24402.65234375,-750000.125,-750000.125,972799.0,1.0,4
-655468.0625,-3458.798583984375,8029.01513671875,9069.712890625,-750000.125,11795.6416015625,-750000.125,-750000.125,972800.0,1.0,4
-655251.6875,-5550.02783203125,9183.080078125,9046.466796875,-750000.125,12183.5791015625,-750000.125,-750000.125,972801.0,1.0,4
-643415.0,-44577.515625,-38655.19921875,798.9407958984375,-750000.125,24105.28515625,-750000.125,-750000.125,972802.0,1.0,4
-635527.0625,-59020.05078125,-58606.6328125,-4743.21923828125,-750000.125,24929.080078125,-750000.125,-750000.125,972803.0,1.0,4
-642750.9375,-46036.1015625,-43692.20703125,106.30490112304688,-750000.125,24460.05078125,-750000.125,-750000.125,972804.0,1.0,4
-655407.375,-3653.2587890625,7764.19189453125,9061.30859375,-750000.125,11930.0205078125,-750000.125,-750000.125,972805.0,1.0,4
-655297.9375,-5297.89990234375,9453.6259765625,9081.9609375,-750000.125,12134.2265625,-750000.125,-750000.125,972806.0,1.0,4
-643496.375,-44370.44921875,-38389.75,836.849365234375,-750000.125,24074.259765625,-750000.125,-750000.125,972807.0,1.0,4
-635521.375,-59013.16796875,-58601.26953125,-4767.26953125,-750000.125,24929.169921875,-750000.125,-750000.125,972808.0,1.0,4
-642672.75,-46198.9140625,-43903.65625,29.414897918701172,-750000.125,24490.001953125,-750000.125,-750000.125,972809.0,1.0,4
-655354.9375,-3827.512939453125,7495.88134765625,9008.916015625,-750000.125,12016.3876953125,-750000.125,-750000.125,972810.0,1.0,4
-655344.125,-4989.71435546875,9743.0361328125,9131.8505859375,-750000.125,12072.53515625,-750000.125,-750000.125,972811.0,1.0,4
-643588.625,-44142.640625,-38088.0,934.4817504882812,-750000.125,24063.80078125,-750000.125,-750000.125,972812.0,1.0,4
-635519.75,-59009.14453125,-58588.12890625,-4729.71875,-750000.125,24948.9296875,-750000.125,-750000.125,972813.0,1.0,4
-642587.125,-46372.18359375,-44117.33984375,9.655954360961914,-750000.125,24540.25,-750000.125,-750000.125,972814.0,1.0,4
-655293.625,-4019.112060546875,7233.29296875,9003.1044921875,-750000.125,12144.7763671875,-750000.125,-750000.125,972815.0,1.0,4
-655393.125,-4697.80029296875,10049.4345703125,9202.1240234375,-750000.125,12024.166015625,-750000.125,-750000.125,972816.0,1.0,4
-643674.9375,-43918.67578125,-37786.609375,1049.0120849609375,-750000.125,24056.111328125,-750000.125,-750000.125,972817.0,1.0,4
-635512.625,-59004.67578125,-58577.12890625,-4691.98876953125,-750000.125,24975.03515625,-750000.125,-750000.125,972818.0,1.0,4
-642506.8125,-46542.32421875,-44322.9765625,-12.695791244506836,-750000.125,24602.4765625,-750000.125,-750000.125,972819.0,1.0,4
-655237.125,-4187.28662109375,6994.666015625,8994.7890625,-750000.125,12298.376953125,-750000.125,-750000.125,972820.0,1.0,4
-655439.8125,-4368.96142578125,10380.59765625,9270.6103515625,-750000.125,12011.0234375,-750000.125,-750000.125,972821.0,1.0,4
-643763.25,-43675.04296875,-37460.36328125,1132.607666015625,-750000.125,24057.8984375,-750000.125,-750000.125,972822.0,1.0,4
-635510.625,-59005.12109375,-58567.20703125,-4657.5673828125,-750000.125,24995.689453125,-750000.125,-750000.125,972823.0,1.0,4
-642426.5625,-46715.1484375,-44530.3984375,-27.44794273376465,-750000.125,24653.169921875,-750000.125,-750000.125,972824.0,1.0,4
-655181.9375,-4365.2958984375,6739.587890625,8992.912109375,-750000.125,12420.775390625,-750000.125,-750000.125,972825.0,1.0,4
-655490.875,-4079.8193359375,10683.5087890625,9329.9765625,-750000.125,11949.9580078125,-750000.125,-750000.125,972826.0,1.0,4
-643852.5625,-43442.2265625,-37160.3125,1203.2391357421875,-750000.125,24029.01953125,-750000.125,-750000.125,972827.0,1.0,4
-635509.6875,-58994.5703125,-58557.28125,-4649.341796875,-750000.125,25008.1171875,-750000.125,-750000.125,972828.0,1.0,4
-642345.5625,-46872.05859375,-44739.1640625,-75.6383056640625,-750000.125,24689.111328125,-750000.125,-750000.125,972829.0,1.0,4
-655119.9375,-4528.642578125,6469.310546875,8967.69921875,-750000.125,12516.6201171875,-750000.125,-750000.125,972830.0,1.0,4
-655533.0,-3764.659912109375,10967.3759765625,9406.4189453125,-750000.125,11897.923828125,-750000.125,-750000.125,972831.0,1.0,4
-643932.9375,-43211.46875,-36859.01171875,1325.9949951171875,-750000.125,24022.94140625,-750000.125,-750000.125,972832.0,1.0,4
-635505.1875,-58987.77734375,-58542.53125,-4583.359375,-750000.125,25033.330078125,-750000.125,-750000.125,972833.0,1.0,4
-642264.8125,-47033.16796875,-44937.2890625,-65.17768859863281,-750000.125,24743.29296875,-750000.125,-750000.125,972834.0,1.0,4
-655058.75,-4701.1083984375,6219.41796875,8985.22265625,-750000.125,12642.236328125,-750000.125,-750000.125,972835.0,1.0,4
-655576.1875,-3457.546875,11271.6279296875,9499.044921875,-750000.125,11855.90234375,-750000.125,-750000.125,972836.0,1.0,4
-644017.875,-42978.7421875,-36550.19921875,1461.6253662109375,-750000.125,24018.91796875,-750000.125,-750000.125,972837.0,1.0,4
-635507.125,-58984.19921875,-58529.1171875,-4519.70166015625,-750000.125,25071.86328125,-750000.125,-750000.125,972838.0,1.0,4
-642191.25,-47190.5234375,-45118.33984375,-59.54505157470703,-750000.125,24807.3984375,-750000.125,-750000.125,972839.0,1.0,4
-655001.5625,-4876.078125,5992.77099609375,8980.3056640625,-750000.125,12774.1123046875,-750000.125,-750000.125,972840.0,1.0,4
-655616.5625,-3189.77294921875,11571.4990234375,9541.78125,-750000.125,11809.6787109375,-750000.125,-750000.125,972841.0,1.0,4
-644101.5,-42743.15234375,-36228.6015625,1506.865234375,-750000.125,23993.97265625,-750000.125,-750000.125,972842.0,1.0,4
-635504.5,-58962.5625,-58498.00390625,-4520.595703125,-750000.125,25079.8203125,-750000.125,-750000.125,972843.0,1.0,4
-642112.0,-47366.38671875,-45332.55859375,-209.92759704589844,-750000.125,24796.1328125,-750000.125,-750000.125,972844.0,1.0,4
-654935.5625,-5241.841796875,5587.1318359375,8900.822265625,-750000.125,12666.734375,-750000.125,-750000.125,972845.0,1.0,4
-655653.9375,-3111.81005859375,11627.3779296875,9576.91796875,-750000.125,11501.224609375,-750000.125,-750000.125,972846.0,1.0,4
-644183.3125,-42568.98828125,-36049.51953125,1565.5162353515625,-750000.125,23820.791015625,-750000.125,-750000.125,972847.0,1.0,4
-635503.6875,-58940.2109375,-58486.5625,-4515.857421875,-750000.125,25016.162109375,-750000.125,-750000.125,972848.0,1.0,4
-642033.75,-47497.19140625,-45527.109375,-156.9092559814453,-750000.125,24771.1875,-750000.125,-750000.125,972849.0,1.0,4
-654876.4375,-5400.181640625,5312.38427734375,8913.25,-750000.125,12754.4423828125,-750000.125,-750000.125,972850.0,1.0,4
-655696.5,-2853.33447265625,11861.4453125,9590.0615234375,-750000.125,11440.6064453125,-750000.125,-750000.125,972851.0,1.0,4
-644265.9375,-42343.953125,-35772.1796875,1602.888427734375,-750000.125,23787.443359375,-750000.125,-750000.125,972852.0,1.0,4
-635503.875,-58922.8671875,-58470.37890625,-4535.1689453125,-750000.125,25021.6171875,-750000.125,-750000.125,972853.0,1.0,4
-641953.375,-47658.66015625,-45736.41015625,-233.70985412597656,-750000.125,24800.06640625,-750000.125,-750000.125,972854.0,1.0,4
-654813.0625,-5623.34130859375,4997.04541015625,8845.1220703125,-750000.125,12858.7802734375,-750000.125,-750000.125,972855.0,1.0,4
-655735.3125,-2566.9638671875,12115.451171875,9613.1279296875,-750000.125,11382.3134765625,-750000.125,-750000.125,972856.0,1.0,4
-644358.5625,-42098.70703125,-35458.5390625,1690.775390625,-750000.125,23768.755859375,-750000.125,-750000.125,972857.0,1.0,4
-635507.3125,-58913.5703125,-58448.921875,-4521.84765625,-750000.125,25042.716796875,-750000.125,-750000.125,972858.0,1.0,4
-641866.375,-47825.4921875,-45938.11328125,-285.47650146484375,-750000.125,24847.8984375,-750000.125,-750000.125,972859.0,1.0,4
-654742.875,-5837.8291015625,4711.4794921875,8801.4912109375,-750000.125,13014.6171875,-750000.125,-750000.125,972860.0,1.0,4
-655780.875,-2282.2919921875,12405.4873046875,9645.314453125,-750000.125,11366.041015625,-750000.125,-750000.125,972861.0,1.0,4
-644443.375,-41853.5546875,-35131.9375,1754.4332275390625,-750000.125,23757.40234375,-750000.125,-750000.125,972862.0,1.0,4
-635505.4375,-58898.99609375,-58425.5859375,-4514.0693359375,-750000.125,25061.939453125,-750000.125,-750000.125,972863.0,1.0,4
-641787.125,-47998.765625,-46141.9609375,-339.5677185058594,-750000.125,24898.32421875,-750000.125,-750000.125,972864.0,1.0,4
-654672.6875,-6094.60595703125,4402.13134765625,8740.3369140625,-750000.125,13155.701171875,-750000.125,-750000.125,972865.0,1.0,4
-655819.0,-2019.167236328125,12694.8974609375,9662.123046875,-750000.125,11312.6650390625,-750000.125,-750000.125,972866.0,1.0,4
-644533.5,-41595.16796875,-34789.5078125,1779.1094970703125,-750000.125,23719.94140625,-750000.125,-750000.125,972867.0,1.0,4
-635510.5625,-58878.4296875,-58390.71484375,-4539.9970703125,-750000.125,25064.978515625,-750000.125,-750000.125,972868.0,1.0,4
-641706.125,-48143.515625,-46319.61328125,-416.8153381347656,-750000.125,24912.271484375,-750000.125,-750000.125,972869.0,1.0,4
-654607.875,-6288.7978515625,4119.7841796875,8675.0703125,-750000.125,13221.7724609375,-750000.125,-750000.125,972870.0,1.0,4
-655855.375,-1725.912353515625,12930.3955078125,9678.216796875,-750000.125,11226.4775390625,-750000.125,-750000.125,972871.0,1.0,4
-644618.6875,-41348.2265625,-34488.921875,1839.90625,-750000.125,23682.03125,-750000.125,-750000.125,972872.0,1.0,4
-635513.6875,-58854.73828125,-58364.51953125,-4531.056640625,-750000.125,25074.724609375,-750000.125,-750000.125,972873.0,1.0,4
-641629.375,-48284.5078125,-46507.546875,-461.5188293457031,-750000.125,24943.474609375,-750000.125,-750000.125,972874.0,1.0,4
-654542.4375,-6475.39013671875,3828.67529296875,8652.5390625,-750000.125,13341.3994140625,-750000.125,-750000.125,972875.0,1.0,4
-655896.5,-1467.79443359375,13182.9697265625,9738.2080078125,-750000.125,11189.9990234375,-750000.125,-750000.125,972876.0,1.0,4
-644700.0,-41121.04296875,-34187.0859375,1930.922607421875,-750000.125,23663.8828125,-750000.125,-750000.125,972877.0,1.0,4
-635515.0,-58845.88671875,-58347.53125,-4491.9853515625,-750000.125,25095.466796875,-750000.125,-750000.125,972878.0,1.0,4
-641554.8125,-48431.40625,-46683.140625,-479.13201904296875,-750000.125,24981.205078125,-750000.125,-750000.125,972879.0,1.0,4
-654483.8125,-6671.90673828125,3567.606689453125,8640.3798828125,-750000.125,13458.5224609375,-750000.125,-750000.125,972880.0,1.0,4
-655933.9375,-1206.457763671875,13437.3330078125,9798.2001953125,-750000.125,11152.0009765625,-750000.125,-750000.125,972881.0,1.0,4
-644781.6875,-40876.15625,-33872.37109375,2042.6812744140625,-750000.125,23648.68359375,-750000.125,-750000.125,972882.0,1.0,4
-635522.625,-58830.59765625,-58319.01171875,-4448.98095703125,-750000.125,25124.166015625,-750000.125,-750000.125,972883.0,1.0,4
-641479.375,-48581.0703125,-46864.90625,-499.87445068359375,-750000.125,25033.150390625,-750000.125,-750000.125,972884.0,1.0,4
-654415.375,-6855.90625,3296.70361328125,8631.1708984375,-750000.125,13609.3515625,-750000.125,-750000.125,972885.0,1.0,4
-655970.875,-900.1494750976562,13727.369140625,9874.375,-750000.125,11137.427734375,-750000.125,-750000.125,972886.0,1.0,4
-644868.625,-40607.84765625,-33533.25,2121.717041015625,-750000.125,23635.00390625,-750000.125,-750000.125,972887.0,1.0,4
-635527.25,-58802.703125,-58290.1328125,-4416.16845703125,-750000.125,25145.4453125,-750000.125,-750000.125,972888.0,1.0,4
-641404.6875,-48718.04296875,-47042.9140625,-518.3816528320312,-750000.125,25068.64453125,-750000.125,-750000.125,972889.0,1.0,4
-654348.25,-7076.47314453125,3010.24365234375,8593.7099609375,-750000.125,13697.2392578125,-750000.125,-750000.125,972890.0,1.0,4
-656007.5625,-677.16845703125,13949.724609375,9875.8056640625,-750000.125,11048.0205078125,-750000.125,-750000.125,972891.0,1.0,4
-644954.0625,-40374.31640625,-33227.74609375,2152.3837890625,-750000.125,23579.572265625,-750000.125,-750000.125,972892.0,1.0,4
-635535.125,-58778.921875,-58251.6875,-4436.19580078125,-750000.125,25147.322265625,-750000.125,-750000.125,972893.0,1.0,4
-641329.25,-48862.8828125,-47218.2421875,-595.5399169921875,-750000.125,25084.55859375,-750000.125,-750000.125,972894.0,1.0,4
-654283.4375,-7287.20556640625,2704.20361328125,8540.244140625,-750000.125,13789.2392578125,-750000.125,-750000.125,972895.0,1.0,4
-656048.0625,-396.8775939941406,14189.603515625,9918.720703125,-750000.125,10994.287109375,-750000.125,-750000.125,972896.0,1.0,4
-645040.875,-40126.92578125,-32910.62109375,2242.774169921875,-750000.125,23556.861328125,-750000.125,-750000.125,972897.0,1.0,4
-635542.5,-58762.91796875,-58223.078125,-4397.57177734375,-750000.125,25166.27734375,-750000.125,-750000.125,972898.0,1.0,4
-641258.8125,-49011.296875,-47393.30078125,-612.6166381835938,-750000.125,25119.337890625,-750000.125,-750000.125,972899.0,1.0,4
-654220.5,-7512.1533203125,2411.93212890625,8511.90234375,-750000.125,13892.3251953125,-750000.125,-750000.125,972900.0,1.0,4
-656081.0625,-142.8723602294922,14404.626953125,9945.990234375,-750000.125,10925.890625,-750000.125,-750000.125,972901.0,1.0,4
-645118.3125,-39884.8125,-32619.421875,2299.9052734375,-750000.125,23514.662109375,-750000.125,-750000.125,972902.0,1.0,4
-635548.0,-58735.828125,-58194.46875,-4390.5087890625,-750000.125,25175.84375,-750000.125,-750000.125,972903.0,1.0,4
-641183.0625,-49161.50390625,-47590.80078125,-754.2373046875,-750000.125,25113.169921875,-750000.125,-750000.125,972904.0,1.0,4
-654151.125,-7896.87158203125,1985.0137939453125,8428.75390625,-750000.125,13835.1943359375,-750000.125,-750000.125,972905.0,1.0,4
-656125.9375,-116.76551818847656,14475.4375,10009.0224609375,-750000.125,10669.650390625,-750000.125,-750000.125,972906.0,1.0,4
-645208.5,-39715.4765625,-32398.05078125,2410.94873046875,-750000.125,23351.673828125,-750000.125,-750000.125,972907.0,1.0,4
-635559.8125,-58713.4765625,-58162.4609375,-4342.85498046875,-750000.125,25132.66015625,-750000.125,-750000.125,972908.0,1.0,4
-641113.0625,-49303.30078125,-47758.70703125,-680.0294799804688,-750000.125,25103.603515625,-750000.125,-750000.125,972909.0,1.0,4
-654087.375,-8103.669921875,1708.388671875,8455.0390625,-750000.125,13973.4169921875,-750000.125,-750000.125,972910.0,1.0,4
-656154.4375,121.23587036132812,14697.5244140625,10023.953125,-750000.125,10663.5703125,-750000.125,-750000.125,972911.0,1.0,4
-645290.0625,-39472.46875,-32098.8046875,2425.4326171875,-750000.125,23329.767578125,-750000.125,-750000.125,972912.0,1.0,4
-635569.8125,-58686.921875,-58130.98828125,-4371.6435546875,-750000.125,25136.951171875,-750000.125,-750000.125,972913.0,1.0,4
-641041.375,-49438.21484375,-47930.9921875,-757.8135986328125,-750000.125,25120.322265625,-750000.125,-750000.125,972914.0,1.0,4
-654018.6875,-8360.9833984375,1391.44091796875,8361.7880859375,-750000.125,14056.029296875,-750000.125,-750000.125,972915.0,1.0,4
-656191.25,306.8447570800781,14884.5634765625,9987.2958984375,-750000.125,10569.693359375,-750000.125,-750000.125,972916.0,1.0,4
-645373.6875,-39245.46484375,-31804.208984375,2422.660888671875,-750000.125,23261.373046875,-750000.125,-750000.125,972917.0,1.0,4
-635583.3125,-58653.57421875,-58082.7109375,-4421.17529296875,-750000.125,25129.978515625,-750000.125,-750000.125,972918.0,1.0,4
-640973.0625,-49586.98828125,-48112.04296875,-953.1678466796875,-750000.125,25096.451171875,-750000.125,-750000.125,972919.0,1.0,4
-653948.5,-8778.7822265625,937.0745849609375,8215.33984375,-750000.125,13976.45703125,-750000.125,-750000.125,972920.0,1.0,4
-656223.3125,289.94683837890625,14885.9052734375,10000.8857421875,-750000.125,10313.36328125,-750000.125,-750000.125,972921.0,1.0,4
-645458.9375,-39094.72265625,-31617.52734375,2488.732666015625,-750000.125,23094.181640625,-750000.125,-750000.125,972922.0,1.0,4
-635601.5625,-58615.39453125,-58034.96484375,-4395.515625,-750000.125,25070.880859375,-750000.125,-750000.125,972923.0,1.0,4
-640905.875,-49723.78125,-48274.5859375,-897.5567016601562,-750000.125,25069.091796875,-750000.125,-750000.125,972924.0,1.0,4
-653879.6875,-9071.7685546875,605.553466796875,8227.587890625,-750000.125,14108.869140625,-750000.125,-750000.125,972925.0,1.0,4
-656249.5625,434.1603088378906,15040.400390625,10000.0810546875,-750000.125,10306.2109375,-750000.125,-750000.125,972926.0,1.0,4
-645532.6875,-38900.88671875,-31359.677734375,2519.48876953125,-750000.125,23069.86328125,-750000.125,-750000.125,972927.0,1.0,4
-635604.9375,-58608.69140625,-58017.3515625,-4410.35693359375,-750000.125,25074.724609375,-750000.125,-750000.125,972928.0,1.0,4
-640839.9375,-49849.9375,-48427.3828125,-961.7509155273438,-750000.125,25085.275390625,-750000.125,-750000.125,972929.0,1.0,4
-653826.4375,-9260.9541015625,350.9223937988281,8169.74169921875,-750000.125,14207.57421875,-750000.125,-750000.125,972930.0,1.0,4
-656287.8125,634.342529296875,15236.201171875,10006.33984375,-750000.125,10276.70703125,-750000.125,-750000.125,972931.0,1.0,4
-645613.0,-38680.5,-31072.591796875,2571.791748046875,-750000.125,23040.537109375,-750000.125,-750000.125,972932.0,1.0,4
-635616.5,-58584.19140625,-57979.17578125,-4416.61572265625,-750000.125,25086.615234375,-750000.125,-750000.125,972933.0,1.0,4
-640773.5,-49986.19140625,-48587.33203125,-1031.1307373046875,-750000.125,25117.103515625,-750000.125,-750000.125,972934.0,1.0,4
-653755.5625,-9520.234375,24.229291915893555,8100.7197265625,-750000.125,14367.076171875,-750000.125,-750000.125,972935.0,1.0,4
-656315.5625,850.0816040039062,15434.6845703125,10028.69140625,-750000.125,10294.9453125,-750000.125,-750000.125,972936.0,1.0,4
-645689.5625,-38442.85546875,-30767.177734375,2632.9462890625,-750000.125,23039.642578125,-750000.125,-750000.125,972937.0,1.0,4
-635630.8125,-58564.97265625,-57945.6484375,-4405.2607421875,-750000.125,25109.861328125,-750000.125,-750000.125,972938.0,1.0,4
-640710.3125,-50111.44921875,-48735.65625,-1075.7447509765625,-750000.125,25152.0625,-750000.125,-750000.125,972939.0,1.0,4
-653690.8125,-9709.5986328125,-235.6768035888672,8057.71484375,-750000.125,14505.2998046875,-750000.125,-750000.125,972940.0,1.0,4
-656344.625,1070.4698486328125,15644.3447265625,10042.6396484375,-750000.125,10290.0283203125,-750000.125,-750000.125,972941.0,1.0,4
-645767.0625,-38202.88671875,-30468.6484375,2661.645751953125,-750000.125,23013.53515625,-750000.125,-750000.125,972942.0,1.0,4
-635639.9375,-58531.0859375,-57908.0078125,-4421.53271484375,-750000.125,25120.6796875,-750000.125,-750000.125,972943.0,1.0,4
-640638.6875,-50223.92578125,-48886.21875,-1144.8564453125,-750000.125,25173.162109375,-750000.125,-750000.125,972944.0,1.0,4
-653623.625,-9919.7939453125,-533.6702880859375,7990.21240234375,-750000.125,14623.673828125,-750000.125,-750000.125,972945.0,1.0,4
-656377.0625,1342.714111328125,15866.1630859375,10072.8583984375,-750000.125,10275.9912109375,-750000.125,-750000.125,972946.0,1.0,4
-645853.0625,-37929.390625,-30126.30859375,2736.658203125,-750000.125,23004.86328125,-750000.125,-750000.125,972947.0,1.0,4
-635656.3125,-58499.97265625,-57861.875,-4382.4619140625,-750000.125,25143.92578125,-750000.125,-750000.125,972948.0,1.0,4
-640571.6875,-50379.40234375,-49065.12109375,-1243.561767578125,-750000.125,25180.404296875,-750000.125,-750000.125,972949.0,1.0,4
-653555.125,-10341.5263671875,-967.2941284179688,7893.2060546875,-750000.125,14572.4443359375,-750000.125,-750000.125,972950.0,1.0,4
-656409.6875,1312.226318359375,15854.361328125,10081.44140625,-750000.125,10011.7041015625,-750000.125,-750000.125,972951.0,1.0,4
-645932.875,-37790.6328125,-29967.611328125,2768.040283203125,-750000.125,22812.1015625,-750000.125,-750000.125,972952.0,1.0,4
-635666.5625,-58468.5,-57830.22265625,-4393.6376953125,-750000.125,25072.220703125,-750000.125,-750000.125,972953.0,1.0,4
-640499.0,-50493.0390625,-49221.94140625,-1225.769775390625,-750000.125,25134.1796875,-750000.125,-750000.125,972954.0,1.0,4
-653484.3125,-10571.392578125,-1293.4508056640625,7894.90478515625,-750000.125,14678.033203125,-750000.125,-750000.125,972955.0,1.0,4
-656440.4375,1483.0830078125,16019.853515625,10078.8486328125,-750000.125,9991.0517578125,-750000.125,-750000.125,972956.0,1.0,4
-646017.8125,-37561.83984375,-29669.70703125,2805.2333984375,-750000.125,22779.646484375,-750000.125,-750000.125,972957.0,1.0,4
-635684.6875,-58438.7265625,-57784.44921875,-4402.75732421875,-750000.125,25078.48046875,-750000.125,-750000.125,972958.0,1.0,4
-640431.3125,-50634.83984375,-49387.25390625,-1297.116455078125,-750000.125,25151.2578125,-750000.125,-750000.125,972959.0,1.0,4
-653409.8125,-10871.173828125,-1643.657958984375,7820.7861328125,-750000.125,14809.283203125,-750000.125,-750000.125,972960.0,1.0,4
-656473.0625,1695.2457275390625,16218.6943359375,10109.4267578125,-750000.125,9969.68359375,-750000.125,-750000.125,972961.0,1.0,4
-646108.5,-37283.515625,-29335.32421875,2918.154541015625,-750000.125,22760.693359375,-750000.125,-750000.125,972962.0,1.0,4
-635706.625,-58405.73828125,-57743.6796875,-4343.56982421875,-750000.125,25110.666015625,-750000.125,-750000.125,972963.0,1.0,4
-640357.6875,-50781.109375,-49574.5625,-1379.3709716796875,-750000.125,25176.46875,-750000.125,-750000.125,972964.0,1.0,4
-653331.0,-11235.060546875,-2076.11962890625,7750.5126953125,-750000.125,14850.767578125,-750000.125,-750000.125,972965.0,1.0,4
-656508.25,1730.114501953125,16269.4775390625,10158.5107421875,-750000.125,9812.953125,-750000.125,-750000.125,972966.0,1.0,4
-646193.8125,-37111.5859375,-29125.12890625,2954.45361328125,-750000.125,22609.23828125,-750000.125,-750000.125,972967.0,1.0,4
-635720.0,-58368.90234375,-57706.12890625,-4362.16650390625,-750000.125,25058.36328125,-750000.125,-750000.125,972968.0,1.0,4
-640295.0,-50897.25,-49726.01953125,-1385.271728515625,-750000.125,25148.306640625,-750000.125,-750000.125,972969.0,1.0,4
-653264.125,-11479.8564453125,-2400.488037109375,7716.98486328125,-750000.125,14964.314453125,-750000.125,-750000.125,972970.0,1.0,4
-656533.6875,1930.4755859375,16430.6796875,10128.1123046875,-750000.125,9806.068359375,-750000.125,-750000.125,972971.0,1.0,4
-646274.875,-36875.640625,-28827.134765625,2978.86181640625,-750000.125,22594.57421875,-750000.125,-750000.125,972972.0,1.0,4
-635740.5,-58340.0234375,-57660.44140625,-4378.259765625,-750000.125,25074.724609375,-750000.125,-750000.125,972973.0,1.0,4
-640227.8125,-51028.3203125,-49877.203125,-1462.1617431640625,-750000.125,25171.10546875,-750000.125,-750000.125,972974.0,1.0,4
-653192.125,-11732.431640625,-2710.462158203125,7626.7734375,-750000.125,15088.5908203125,-750000.125,-750000.125,972975.0,1.0,4
-656557.6875,2125.5615234375,16585.53125,10089.845703125,-750000.125,9782.107421875,-750000.125,-750000.125,972976.0,1.0,4
-646347.125,-36626.5546875,-28537.994140625,2960.533447265625,-750000.125,22551.927734375,-750000.125,-750000.125,972977.0,1.0,4
-635754.25,-58301.7578125,-57614.57421875,-4427.97021484375,-750000.125,25068.734375,-750000.125,-750000.125,972978.0,1.0,4
-640162.9375,-51141.8671875,-50027.3203125,-1622.021484375,-750000.125,25152.240234375,-750000.125,-750000.125,972979.0,1.0,4
-653124.1875,-12103.5595703125,-3128.97607421875,7482.2021484375,-750000.125,15055.95703125,-750000.125,-750000.125,972980.0,1.0,4
-656585.75,2074.51025390625,16575.25,10103.435546875,-750000.125,9584.25,-750000.125,-750000.125,972981.0,1.0,4
-646426.625,-36495.125,-28367.31640625,3013.283447265625,-750000.125,22396.091796875,-750000.125,-750000.125,972982.0,1.0,4
-635777.25,-58270.10546875,-57572.73046875,-4410.17822265625,-750000.125,25018.576171875,-750000.125,-750000.125,972983.0,1.0,4
-640102.25,-51270.61328125,-50178.1484375,-1597.076904296875,-750000.125,25123.451171875,-750000.125,-750000.125,972984.0,1.0,4
-653050.5625,-12386.0859375,-3478.02099609375,7491.67919921875,-750000.125,15175.7626953125,-750000.125,-750000.125,972985.0,1.0,4
