FZ,C3,CZ,C4,PZ,PO7,OZ,PO8,Counter,Validation,Label
235011.703125,283206.8125,292423.6875,280171.34375,257607.71875,285230.8125,256143.9375,258168.828125,114759.0,1.0,1
234218.390625,281845.75,290561.15625,279553.625,256060.703125,284535.125,255601.6875,257383.75,114760.0,1.0,1
233825.984375,281410.53125,290106.0,279463.875,255400.15625,284193.40625,255465.78125,257201.171875,114761.0,1.0,1
234377.0,282503.25,291683.21875,280024.90625,256535.359375,284677.1875,255913.265625,257880.9375,114762.0,1.0,1
235109.703125,283612.90625,293124.1875,280465.40625,257898.90625,285309.3125,256309.875,258493.5625,114763.0,1.0,1
235021.8125,283218.625,292445.0625,280176.90625,257610.296875,285227.9375,256094.671875,258192.96875,114764.0,1.0,1
234225.546875,281854.4375,290579.65625,279555.34375,256063.75,284542.8125,255551.625,257390.359375,114765.0,1.0,1
233825.0,281407.21875,290106.78125,279461.1875,255393.1875,284201.8125,255417.6875,257196.078125,114766.0,1.0,1
234364.21875,282483.25,291669.53125,280014.0,256514.0,284667.09375,255856.5,257861.0,114767.0,1.0,1
235102.8125,283604.40625,293123.28125,280458.15625,257889.34375,285309.40625,256279.578125,258476.125,114768.0,1.0,1
235029.59375,283231.5,292465.25,280174.84375,257623.453125,285230.71875,256088.6875,258188.234375,114769.0,1.0,1
234241.90625,281873.21875,290605.59375,279558.09375,256086.359375,284543.1875,255564.21875,257404.484375,114770.0,1.0,1
233829.484375,281404.4375,290109.46875,279457.96875,255396.234375,284196.28125,255440.578125,257210.125,114771.0,1.0,1
234356.53125,282465.96875,291658.0,280006.84375,256501.125,284666.46875,255895.65625,257862.515625,114772.0,1.0,1
235092.890625,283593.75,293125.34375,280457.0,257883.171875,285310.03125,256317.84375,258474.421875,114773.0,1.0,1
235028.421875,283237.5625,292494.3125,280185.75,257638.28125,285249.03125,256131.421875,258198.25,114774.0,1.0,1
234241.734375,281876.34375,290628.65625,279562.3125,256100.578125,284554.4375,255591.578125,257407.265625,114775.0,1.0,1
233824.296875,281395.96875,290106.0625,279453.78125,255391.578125,284196.375,255451.03125,257195.640625,114776.0,1.0,1
234353.671875,282458.84375,291648.96875,280007.03125,256488.6875,284667.0,255906.828125,257855.1875,114777.0,1.0,1
235091.1875,283592.25,293128.75,280459.25,257875.03125,285313.78125,256335.09375,258479.078125,114778.0,1.0,1
235037.640625,283250.34375,292516.75,280193.71875,257647.140625,285259.59375,256150.640625,258211.75,114779.0,1.0,1
234260.59375,281897.0,290654.5,279575.90625,256119.265625,284572.78125,255605.359375,257417.984375,114780.0,1.0,1
233828.578125,281395.96875,290111.625,279458.5,255393.8125,284204.0625,255446.828125,257196.078125,114781.0,1.0,1
234338.296875,282441.9375,291639.0625,280002.5625,256475.109375,284668.625,255884.84375,257847.140625,114782.0,1.0,1
235086.359375,283592.0625,293133.65625,280462.1875,257873.78125,285318.0625,256310.140625,258482.640625,114783.0,1.0,1
235040.578125,283262.34375,292535.96875,280196.375,257658.5,285254.75,256119.4375,258216.65625,114784.0,1.0,1
234261.578125,281903.15625,290668.71875,279572.59375,256130.078125,284567.5,255572.984375,257418.078125,114785.0,1.0,1
233823.125,281385.78125,290102.15625,279447.15625,255388.0,284195.125,255410.453125,257183.921875,114786.0,1.0,1
234340.96875,282433.625,291621.53125,279994.15625,256461.609375,284656.1875,255860.875,257840.53125,114787.0,1.0,1
235087.515625,283586.15625,293126.59375,280457.90625,257868.15625,285309.3125,256296.921875,258476.65625,114788.0,1.0,1
235047.109375,283271.53125,292549.84375,280202.5625,257674.859375,285256.1875,256112.828125,258220.328125,114789.0,1.0,1
234264.53125,281908.875,290674.625,279572.78125,256141.265625,284559.09375,255566.1875,257410.03125,114790.0,1.0,1
233812.671875,281372.1875,290083.28125,279437.84375,255381.125,284181.0625,255411.875,257167.734375,114791.0,1.0,1
234318.625,282402.25,291588.09375,279979.65625,256442.109375,284631.34375,255861.140625,257815.578125,114792.0,1.0,1
235076.796875,283565.6875,293106.40625,280449.40625,257854.296875,285286.40625,256300.40625,258456.09375,114793.0,1.0,1
235046.671875,283266.53125,292554.65625,280203.4375,257681.03125,285251.90625,256129.453125,258210.9375,114794.0,1.0,1
234268.28125,281910.40625,290688.46875,279580.1875,256157.078125,284569.5625,255591.859375,257423.625,114795.0,1.0,1
233815.890625,281366.53125,290076.84375,279440.375,255377.71875,284181.6875,255416.53125,257174.625,114796.0,1.0,1
234311.03125,282382.75,291565.90625,279979.5625,256424.140625,284631.0625,255852.46875,257818.984375,114797.0,1.0,1
235067.671875,283555.21875,293092.1875,280450.65625,257842.21875,285287.5625,256289.046875,258460.203125,114798.0,1.0,1
235049.53125,283277.0,292562.25,280208.90625,257689.078125,285259.3125,256131.328125,258227.21875,114799.0,1.0,1
234277.5,281930.25,290704.03125,279588.96875,256177.46875,284588.59375,255598.640625,257444.09375,114800.0,1.0,1
233819.734375,281375.03125,290075.84375,279439.1875,255386.125,284196.53125,255421.625,257181.953125,114801.0,1.0,1
234306.734375,282381.9375,291554.125,279970.1875,256416.8125,284636.15625,255855.875,257817.453125,114802.0,1.0,1
235056.046875,283551.21875,293092.34375,280444.84375,257836.859375,285285.875,256284.484375,258463.34375,114803.0,1.0,1
235050.234375,283284.9375,292580.6875,280207.28125,257699.625,285260.84375,256120.78125,258225.515625,114804.0,1.0,1
234280.359375,281929.625,290715.5625,279582.34375,256185.78125,284583.84375,255589.890625,257436.140625,114805.0,1.0,1
233805.421875,281345.34375,290057.34375,279426.21875,255374.328125,284181.34375,255410.09375,257165.234375,114806.0,1.0,1
234293.40625,282350.1875,291526.03125,279957.3125,256392.765625,284622.84375,255847.109375,257799.125,114807.0,1.0,1
235060.34375,283538.875,293082.875,280442.25,257828.8125,285281.6875,256292.171875,258454.484375,114808.0,1.0,1
235052.46875,283280.46875,292587.75,280211.40625,257705.703125,285257.71875,256127.75,258229.625,114809.0,1.0,1
234277.5,281925.25,290722.09375,279582.6875,256194.28125,284586.09375,255588.1875,257434.625,114810.0,1.0,1
233810.96875,281344.8125,290054.03125,279424.90625,255374.765625,284178.84375,255403.03125,257166.484375,114811.0,1.0,1
234290.453125,282334.8125,291507.34375,279953.5625,256381.140625,284606.65625,255832.171875,257794.390625,114812.0,1.0,1
235048.8125,283521.53125,293069.1875,280436.96875,257817.109375,285271.84375,256280.734375,258441.515625,114813.0,1.0,1
235050.78125,283279.6875,292595.71875,280209.625,257710.796875,285256.71875,256124.71875,258221.140625,114814.0,1.0,1
234282.953125,281929.4375,290733.34375,279587.25,256208.671875,284589.21875,255592.921875,257445.34375,114815.0,1.0,1
233802.03125,281328.8125,290038.40625,279419.78125,255371.28125,284177.3125,255407.046875,257166.046875,114816.0,1.0,1
234267.578125,282307.8125,291473.375,279936.65625,256359.59375,284595.03125,255826.453125,257769.625,114817.0,1.0,1
235038.171875,283514.28125,293052.125,280427.0625,257809.859375,285267.1875,256281.625,258438.125,114818.0,1.0,1
235063.46875,283300.875,292610.375,280215.4375,257733.5,285277.46875,256144.125,258246.796875,114819.0,1.0,1
234296.984375,281951.96875,290748.71875,279588.5,256233.265625,284610.5,255604.1875,257450.71875,114820.0,1.0,1
233800.78125,281336.15625,290033.84375,279415.25,255377.453125,284192.96875,255411.078125,257158.078125,114821.0,1.0,1
234274.359375,282318.71875,291464.15625,279936.46875,256355.125,284604.34375,255828.328125,257772.40625,114822.0,1.0,1
235040.3125,283524.84375,293049.34375,280429.28125,257802.703125,285268.4375,256278.671875,258438.84375,114823.0,1.0,1
235062.671875,283318.5625,292624.65625,280219.53125,257739.5,285280.4375,256144.203125,258234.28125,114824.0,1.0,1
234307.265625,281979.34375,290768.40625,279598.15625,256248.28125,284617.125,255613.75,257453.03125,114825.0,1.0,1
233808.46875,281348.03125,290029.46875,279416.75,255377.71875,284191.90625,255407.765625,257161.84375,114826.0,1.0,1
234257.203125,282302.46875,291435.8125,279928.4375,256336.609375,284594.3125,255813.3125,257761.671875,114827.0,1.0,1
235025.828125,283517.5,293035.6875,280423.75,257791.890625,285257.71875,256259.71875,258422.296875,114828.0,1.0,1
235071.703125,283340.375,292641.03125,280228.125,257755.046875,285283.71875,256137.859375,258247.421875,114829.0,1.0,1
234320.234375,282001.25,290784.84375,279603.4375,256267.6875,284618.09375,255600.171875,257459.75,114830.0,1.0,1
233804.890625,281342.6875,290020.96875,279407.1875,255374.59375,284176.59375,255385.40625,257147.796875,114831.0,1.0,1
234253.171875,282291.625,291419.90625,279917.625,256320.703125,284584.21875,255802.234375,257749.15625,114832.0,1.0,1
235035.125,283523.75,293036.21875,280425.34375,257787.953125,285263.96875,256268.390625,258429.453125,114833.0,1.0,1
235085.640625,283356.5625,292666.15625,280242.15625,257774.984375,285306.875,256161.375,258274.234375,114834.0,1.0,1
234332.65625,282016.1875,290810.59375,279618.1875,256291.375,284639.28125,255622.421875,257497.734375,114835.0,1.0,1
233812.484375,281341.59375,290021.5,279410.5,255377.359375,284187.96875,255389.96875,257153.53125,114836.0,1.0,1
234250.40625,282271.6875,291400.25,279912.15625,256304.78125,284576.0625,255793.46875,257736.8125,114837.0,1.0,1
235026.015625,283499.625,293023.4375,280421.0625,257776.421875,285248.6875,256260.609375,258421.578125,114838.0,1.0,1
235080.28125,283345.3125,292671.875,280239.75,257776.25,285296.875,256151.71875,258263.515625,114839.0,1.0,1
234336.0625,282017.25,290824.625,279618.46875,256303.53125,284647.78125,255627.96875,257487.546875,114840.0,1.0,1
233815.078125,281340.09375,290022.46875,279411.21875,255383.53125,284200.75,255403.109375,257156.5625,114841.0,1.0,1
234239.859375,282257.65625,291388.875,279908.5,256296.828125,284578.75,255794.453125,257734.046875,114842.0,1.0,1
235026.453125,283499.625,293030.3125,280426.59375,257778.5625,285262.1875,256266.609375,258430.078125,114843.0,1.0,1
235096.015625,283364.875,292699.59375,280249.84375,257795.28125,285314.125,256166.375,258282.640625,114844.0,1.0,1
234354.390625,282037.53125,290850.21875,279623.90625,256321.765625,284657.625,255631.375,257501.140625,114845.0,1.0,1
233820.625,281344.90625,290025.34375,279406.5625,255385.046875,284199.40625,255396.40625,257148.25,114846.0,1.0,1
234243.15625,282258.46875,291381.90625,279905.1875,256292.984375,284577.78125,255792.03125,257723.578125,114847.0,1.0,1
235024.21875,283500.25,293024.78125,280420.15625,257771.6875,285252.8125,256257.578125,258414.78125,114848.0,1.0,1
235102.359375,283381.5,292713.09375,280250.9375,257804.9375,285317.25,256167.984375,258279.15625,114849.0,1.0,1
234355.375,282049.4375,290865.40625,279626.25,256341.984375,284664.40625,255634.328125,257495.78125,114850.0,1.0,1
233812.125,281336.6875,290020.0625,279400.75,255388.625,284188.75,255386.03125,257144.046875,114851.0,1.0,1
234233.15625,282244.96875,291360.625,279892.84375,256278.234375,284561.9375,255779.34375,257721.796875,114852.0,1.0,1
235014.484375,283493.625,293010.5625,280411.78125,257763.28125,285242.59375,256254.984375,258419.4375,114853.0,1.0,1
235096.46875,283387.15625,292719.96875,280250.9375,257813.34375,285312.0,256168.609375,258289.0,114854.0,1.0,1
234356.171875,282061.78125,290879.625,279631.96875,256355.65625,284671.90625,255641.828125,257513.828125,114855.0,1.0,1
233807.75,281338.375,290011.9375,279400.9375,255387.109375,284201.1875,255398.015625,257147.71875,114856.0,1.0,1
234220.90625,282231.90625,291335.6875,279884.53125,256258.734375,284556.59375,255775.046875,257700.78125,114857.0,1.0,1
235005.09375,283481.90625,292995.625,280405.5,257748.796875,285235.8125,256248.546875,258404.78125,114858.0,1.0,1
235093.78125,283390.625,292728.5625,280254.0625,257822.734375,285318.59375,256172.28125,258286.125,114859.0,1.0,1
234363.328125,282078.03125,290893.9375,279633.84375,256371.65625,284680.15625,255648.171875,257513.125,114860.0,1.0,1
233810.25,281344.90625,290010.21875,279398.0625,255392.109375,284204.21875,255400.25,257147.265625,114861.0,1.0,1
234203.203125,282214.03125,291313.4375,279878.46875,256245.421875,284549.875,255774.953125,257702.9375,114862.0,1.0,1
234987.65625,283469.5625,292981.59375,280404.71875,257737.265625,285233.5,256249.171875,258402.984375,114863.0,1.0,1
235094.671875,283402.34375,292736.25,280258.875,257829.984375,285319.6875,256171.296875,258297.390625,114864.0,1.0,1
234360.828125,282082.875,290901.71875,279634.71875,256382.921875,284681.5,255641.296875,257519.203125,114865.0,1.0,1
233800.953125,281332.125,289998.6875,279391.71875,255388.71875,284200.65625,255391.40625,257140.109375,114866.0,1.0,1
234197.203125,282200.25,291291.25,279871.03125,256230.21875,284548.625,255769.0625,257692.015625,114867.0,1.0,1
234986.21875,283465.8125,292978.28125,280408.8125,257734.3125,285239.5625,256256.5,258407.546875,114868.0,1.0,1
235099.59375,283409.03125,292757.25,280272.90625,257847.953125,285334.15625,256188.46875,258308.03125,114869.0,1.0,1
234368.875,282094.59375,290922.28125,279649.125,256400.984375,284689.8125,255659.53125,257535.375,114870.0,1.0,1
233800.515625,281329.625,289997.28125,279398.96875,255386.84375,284196.625,255401.140625,257153.34375,114871.0,1.0,1
234185.234375,282180.0625,291274.8125,279870.125,256211.796875,284534.875,255764.3125,257687.546875,114872.0,1.0,1
234973.703125,283450.625,292970.5,280408.1875,257720.0,285229.5625,256258.03125,258406.65625,114873.0,1.0,1
235101.921875,283413.59375,292771.75,280276.84375,257850.265625,285325.21875,256195.078125,258312.234375,114874.0,1.0,1
234383.71875,282105.03125,290946.3125,279656.625,256418.515625,284692.84375,255670.625,257538.875,114875.0,1.0,1
233810.703125,281326.75,290006.21875,279404.0625,255398.734375,284199.03125,255404.8125,257148.96875,114876.0,1.0,1
234183.171875,282162.53125,291263.4375,279866.125,256206.25,284525.28125,255765.125,257683.96875,114877.0,1.0,1
234977.546875,283441.5,292966.28125,280404.25,257715.265625,285218.65625,256253.46875,258402.625,114878.0,1.0,1
235110.046875,283418.0,292794.09375,280282.3125,257865.828125,285331.84375,256199.46875,258320.46875,114879.0,1.0,1
234396.765625,282119.34375,290975.8125,279665.125,256443.28125,284706.6875,255676.96875,257549.15625,114880.0,1.0,1
233817.9375,281331.0625,290011.3125,279401.28125,255403.109375,284202.71875,255402.84375,257148.875,114881.0,1.0,1
234186.296875,282157.96875,291254.0625,279864.40625,256196.59375,284531.90625,255767.171875,257683.34375,114882.0,1.0,1
234976.84375,283438.09375,292960.5625,280406.75,257706.5,285225.4375,256253.546875,258405.765625,114883.0,1.0,1
235124.53125,283437.03125,292810.625,280288.75,257877.546875,285345.15625,256199.1875,258325.203125,114884.0,1.0,1
234413.75,282140.8125,290995.21875,279668.96875,256462.046875,284716.28125,255670.703125,257551.390625,114885.0,1.0,1
233822.765625,281332.125,290009.53125,279399.21875,255405.96875,284200.65625,255386.9375,257143.328125,114886.0,1.0,1
234182.1875,282145.625,291232.34375,279854.59375,256181.3125,284515.1875,255738.65625,257662.515625,114887.0,1.0,1
234979.515625,283431.9375,292946.8125,280400.15625,257692.46875,285205.6875,256225.21875,258384.921875,114888.0,1.0,1
235135.359375,283443.1875,292816.0,280292.5,257876.5625,285333.09375,256180.6875,258320.734375,114889.0,1.0,1
234429.484375,282151.71875,291003.8125,279676.46875,256468.3125,284713.59375,255667.578125,257562.03125,114890.0,1.0,1
233825.546875,281326.59375,289998.25,279397.53125,255399.453125,284200.46875,255387.5625,257155.3125,114891.0,1.0,1
234176.90625,282129.53125,291205.5,279847.96875,256163.875,284516.09375,255740.984375,257660.90625,114892.0,1.0,1
234980.234375,283426.75,292933.3125,280400.0625,257689.703125,285215.15625,256243.453125,258390.65625,114893.0,1.0,1
235141.53125,283447.5,292818.5,280293.9375,257889.796875,285343.625,256193.203125,258327.53125,114894.0,1.0,1
234435.828125,282158.59375,291007.5625,279675.84375,256486.28125,284732.53125,255676.78125,257564.625,114895.0,1.0,1
233837.96875,281334.53125,289989.03125,279396.46875,255414.109375,284225.96875,255400.15625,257148.25,114896.0,1.0,1
234169.84375,282114.53125,291176.28125,279836.875,256156.09375,284519.21875,255740.0,257657.328125,114897.0,1.0,1
234949.03125,283395.1875,292898.875,280380.5625,257667.703125,285196.03125,256221.8125,258370.53125,114898.0,1.0,1
235120.15625,283439.90625,292811.25,280283.75,257886.578125,285332.5625,256179.078125,258321.171875,114899.0,1.0,1
234427.515625,282160.65625,291013.28125,279665.75,256493.515625,284720.28125,255662.03125,257561.21875,114900.0,1.0,1
233816.953125,281314.0625,289971.34375,279376.625,255399.625,284199.125,255372.171875,257131.171875,114901.0,1.0,1
234144.546875,282087.875,291147.03125,279820.25,256130.703125,284494.96875,255719.609375,257638.375,114902.0,1.0,1
234942.859375,283391.53125,292889.5,280379.75,257658.671875,285193.25,256221.015625,258376.875,114903.0,1.0,1
235128.46875,283452.84375,292830.03125,280293.9375,257904.546875,285344.96875,256189.71875,258342.8125,114904.0,1.0,1
234442.984375,282183.28125,291039.21875,279678.625,256520.078125,284737.375,255673.921875,257584.5625,114905.0,1.0,1
233821.875,281320.21875,289975.1875,279375.625,255408.5625,284202.8125,255377.1875,257142.171875,114906.0,1.0,1
234139.625,282076.25,291132.90625,279813.1875,256122.75,284490.25,255712.109375,257634.984375,114907.0,1.0,1
234932.84375,283378.65625,292884.5625,280378.78125,257654.109375,285194.875,256220.46875,258378.578125,114908.0,1.0,1
235129.015625,283461.25,292848.09375,280303.125,257916.171875,285353.8125,256206.796875,258359.359375,114909.0,1.0,1
234446.65625,282194.4375,291059.6875,279687.3125,256537.234375,284745.3125,255692.25,257594.5625,114910.0,1.0,1
233819.015625,281317.625,289980.375,279380.5625,255414.640625,284212.46875,255393.640625,257142.4375,114911.0,1.0,1
234129.890625,282060.0625,291117.28125,279811.125,256107.015625,284480.3125,255720.953125,257627.65625,114912.0,1.0,1
234928.375,283365.0625,292870.4375,280372.25,257635.25,285170.625,256218.234375,258360.78125,114913.0,1.0,1
235131.875,283457.875,292854.4375,280305.5625,257917.328125,285344.0,256216.265625,258349.15625,114914.0,1.0,1
234451.125,282194.1875,291073.0,279692.21875,256549.671875,284741.9375,255704.765625,257596.984375,114915.0,1.0,1
233821.4375,281308.59375,289972.15625,279377.25,255411.875,284196.71875,255389.703125,257139.390625,114916.0,1.0,1
234124.078125,282040.75,291092.40625,279801.9375,256090.65625,284474.78125,255710.046875,257610.9375,114917.0,1.0,1
234930.4375,283360.5,292858.1875,280369.125,257626.125,285179.40625,256208.40625,258355.875,114918.0,1.0,1
235145.453125,283473.40625,292868.9375,280310.65625,257926.71875,285353.8125,256197.671875,258364.984375,114919.0,1.0,1
234460.953125,282209.84375,291092.40625,279698.03125,256563.796875,284754.96875,255681.890625,257604.5,114920.0,1.0,1
233819.734375,281304.6875,289968.375,279377.5,255411.96875,284203.6875,255357.421875,257125.09375,114921.0,1.0,1
234117.28125,282026.375,291068.53125,279798.71875,256074.03125,284466.03125,255677.328125,257603.6875,114922.0,1.0,1
234920.875,283344.59375,292839.875,280367.34375,257610.390625,285160.71875,256180.0625,258343.890625,114923.0,1.0,1
235145.546875,283473.875,292869.1875,280312.34375,257925.46875,285342.28125,256180.15625,258345.859375,114924.0,1.0,1
234481.171875,282227.1875,291109.84375,279708.21875,256579.078125,284760.4375,255685.109375,257605.03125,114925.0,1.0,1
233841.09375,281320.21875,289979.03125,279386.09375,255420.8125,284207.71875,255372.53125,257140.109375,114926.0,1.0,1
234127.109375,282027.8125,291065.25,279799.25,256063.46875,284460.03125,255689.390625,257606.8125,114927.0,1.0,1
234928.015625,283350.5625,292845.59375,280373.9375,257603.328125,285159.8125,256202.6875,258359.890625,114928.0,1.0,1
235165.578125,283500.875,292900.125,280327.90625,257940.578125,285353.8125,256216.53125,258372.953125,114929.0,1.0,1
234500.125,282252.84375,291135.40625,279718.15625,256596.15625,284760.0,255706.734375,257620.9375,114930.0,1.0,1
233848.703125,281326.59375,289982.25,279387.25,255421.265625,284201.625,255384.609375,257137.15625,114931.0,1.0,1
234126.21875,282023.0625,291053.625,279800.84375,256052.484375,284457.625,255705.578125,257596.453125,114932.0,1.0,1
234935.53125,283358.53125,292843.53125,280381.5625,257598.40625,285165.625,256227.984375,258356.046875,114933.0,1.0,1
235166.203125,283513.84375,292919.0,280340.15625,257950.5,285364.03125,256237.546875,258379.65625,114934.0,1.0,1
234511.65625,282281.1875,291169.65625,279737.71875,256620.921875,284777.25,255725.34375,257632.203125,114935.0,1.0,1
233860.328125,281346.59375,289998.875,279402.71875,255437.265625,284204.9375,255385.765625,257145.921875,114936.0,1.0,1
234122.109375,282021.1875,291045.75,279808.4375,256048.90625,284445.0,255682.59375,257590.8125,114937.0,1.0,1
234921.671875,283348.875,292832.46875,280385.125,257588.40625,285148.8125,256197.9375,258344.421875,114938.0,1.0,1
235171.296875,283525.375,292926.6875,280351.0625,257958.71875,285359.5625,256220.203125,258374.203125,114939.0,1.0,1
234512.640625,282288.0625,291181.1875,279749.53125,256638.09375,284776.71875,255711.203125,257635.25,114940.0,1.0,1
233852.546875,281338.125,289994.75,279405.59375,255443.265625,284205.46875,255369.5,257141.640625,114941.0,1.0,1
234114.6875,282004.90625,291028.21875,279806.40625,256043.53125,284449.125,255678.84375,257596.09375,114942.0,1.0,1
234916.671875,283333.78125,292817.0625,280386.09375,257582.765625,285152.3125,256191.0625,258356.578125,114943.0,1.0,1
235176.03125,283523.5625,292930.4375,280356.0625,257970.078125,285364.65625,256208.9375,258377.859375,114944.0,1.0,1
234521.046875,282293.25,291192.375,279752.3125,256657.578125,284795.46875,255715.59375,257643.921875,114945.0,1.0,1
233850.484375,281334.34375,289989.40625,279402.28125,255449.421875,284228.0,255397.390625,257148.875,114946.0,1.0,1
234103.953125,281990.0625,291004.4375,279794.78125,256026.8125,284452.34375,255707.359375,257588.484375,114947.0,1.0,1
234910.9375,283331.53125,292804.125,280377.15625,257568.015625,285155.15625,256236.921875,258351.84375,114948.0,1.0,1
235173.265625,283535.8125,292934.375,280349.90625,257964.796875,285372.34375,256269.203125,258395.46875,114949.0,1.0,1
234535.703125,282324.375,291208.28125,279751.6875,256662.234375,284808.625,255775.578125,257667.609375,114950.0,1.0,1
233875.34375,281363.40625,289991.90625,279399.40625,255443.4375,284228.625,255430.296875,257160.671875,114951.0,1.0,1
234112.984375,282002.0625,290983.0625,279784.5625,256000.890625,284448.65625,255722.828125,257582.5,114952.0,1.0,1
234909.15625,283339.125,292785.59375,280370.5625,257542.53125,285154.4375,256236.390625,258348.0,114953.0,1.0,1
235185.0625,283566.59375,292943.84375,280357.9375,257964.796875,285385.125,256265.984375,258407.28125,114954.0,1.0,1
234548.40625,282357.875,291222.84375,279757.5,256665.890625,284816.75,255760.65625,257673.421875,114955.0,1.0,1
233877.3125,281381.03125,289987.96875,279395.375,255433.78125,284232.5625,255410.09375,257162.46875,114956.0,1.0,1
234099.3125,281994.8125,290959.46875,279773.3125,255975.40625,284444.75,255688.140625,257585.359375,114957.0,1.0,1
234901.5625,283333.9375,292770.59375,280360.53125,257522.328125,285148.0,256201.78125,258350.6875,114958.0,1.0,1
235186.765625,283575.4375,292955.125,280351.40625,257962.03125,285391.75,256242.375,258412.640625,114959.0,1.0,1
234557.78125,282375.9375,291243.78125,279753.375,256678.234375,284832.59375,255747.15625,257685.578125,114960.0,1.0,1
233874.890625,281384.96875,289990.125,279388.0625,255436.375,284249.28125,255402.046875,257170.78125,114961.0,1.0,1
234089.203125,281984.09375,290947.40625,279764.28125,255962.0,284446.78125,255685.734375,257585.0,114962.0,1.0,1
234883.765625,283316.96875,292760.5625,280351.78125,257505.15625,285137.65625,256205.8125,258345.140625,114963.0,1.0,1
235175.328125,283566.65625,292963.96875,280347.65625,257964.0,285381.71875,256259.453125,258410.40625,114964.0,1.0,1
234560.015625,282380.96875,291269.25,279758.8125,256702.109375,284836.875,255778.53125,257696.9375,114965.0,1.0,1
233872.75,281375.125,289999.3125,279385.09375,255451.65625,284246.625,255426.1875,257168.984375,114966.0,1.0,1
234077.578125,281957.96875,290932.65625,279751.84375,255955.734375,284441.96875,255703.25,257567.5625,114967.0,1.0,1
234873.03125,283298.28125,292753.875,280344.25,257502.03125,285147.9375,256237.734375,258339.15625,114968.0,1.0,1
235177.828125,283570.15625,292984.53125,280353.84375,257981.4375,285394.96875,256289.40625,258419.4375,114969.0,1.0,1
234562.171875,282380.875,291290.8125,279764.5625,256720.53125,284845.8125,255799.015625,257704.8125,114970.0,1.0,1
233858.984375,281352.6875,289996.65625,279379.65625,255448.53125,284240.8125,255428.59375,257164.796875,114971.0,1.0,1
234061.578125,281932.3125,290916.28125,279744.0625,255938.21875,284429.90625,255696.90625,257563.453125,114972.0,1.0,1
234866.515625,283283.53125,292743.9375,280342.03125,257484.328125,285132.46875,256217.078125,258334.953125,114973.0,1.0,1
235183.375,283576.875,292998.84375,280361.4375,257980.890625,285393.6875,256273.140625,258429.0,114974.0,1.0,1
234569.5,282396.0625,291319.59375,279776.4375,256733.9375,284854.65625,255787.5625,257722.234375,114975.0,1.0,1
233874.265625,281371.8125,290014.78125,279389.75,255456.484375,284251.0,255414.109375,257180.34375,114976.0,1.0,1
234071.140625,281940.90625,290909.84375,279744.625,255929.1875,284430.6875,255671.15625,257560.5,114977.0,1.0,1
234863.921875,283285.9375,292733.75,280339.09375,257473.0625,285131.65625,256192.21875,258328.875,114978.0,1.0,1
235182.921875,283592.59375,293009.375,280367.6875,257988.578125,285405.40625,256264.46875,258439.828125,114979.0,1.0,1
234581.484375,282423.875,291332.5625,279778.84375,256748.59375,284862.625,255782.203125,257725.734375,114980.0,1.0,1
233879.453125,281380.21875,290012.75,279386.96875,255464.984375,284258.6875,255412.59375,257178.640625,114981.0,1.0,1
234061.484375,281922.46875,290886.78125,279733.96875,255920.6875,284423.46875,255664.453125,257548.96875,114982.0,1.0,1
234858.640625,283269.9375,292715.0625,280329.5,257464.484375,285117.875,256188.734375,258327.609375,114983.0,1.0,1
235197.40625,283597.25,293017.0,280367.96875,258004.140625,285399.6875,256275.375,258447.78125,114984.0,1.0,1
234594.171875,282430.65625,291349.375,279784.5,256779.09375,284863.53125,255796.59375,257734.671875,114985.0,1.0,1
233877.578125,281374.5,290008.0,279382.78125,255475.625,284249.90625,255421.078125,257174.09375,114986.0,1.0,1
234050.3125,281906.21875,290861.84375,279722.09375,255905.671875,284406.46875,255668.296875,257534.484375,114987.0,1.0,1
234851.046875,283260.28125,292699.40625,280324.0625,257453.21875,285107.96875,256190.25,258308.484375,114988.0,1.0,1
235189.0,283595.28125,293017.4375,280363.21875,258003.78125,285395.21875,256275.90625,258441.4375,114989.0,1.0,1
234595.78125,282440.9375,291360.28125,279781.53125,256787.046875,284866.46875,255799.71875,257740.75,114990.0,1.0,1
233878.734375,281372.0,290002.8125,279378.3125,255478.3125,284248.75,255409.015625,257169.265625,114991.0,1.0,1
234049.953125,281891.625,290844.40625,279717.25,255898.703125,284403.34375,255650.40625,257529.21875,114992.0,1.0,1
234845.5,283243.03125,292680.09375,280314.5,257439.453125,285097.9375,256171.203125,258307.328125,114993.0,1.0,1
235192.75,283595.28125,293026.65625,280364.75,258011.03125,285397.0,256267.6875,258457.171875,114994.0,1.0,1
234606.78125,282451.6875,291382.71875,279785.03125,256805.828125,284876.03125,255785.328125,257743.609375,114995.0,1.0,1
233884.734375,281376.28125,290009.4375,279370.8125,255481.609375,284251.8125,255393.28125,257165.140625,114996.0,1.0,1
234040.65625,281879.28125,290827.5,279705.71875,255883.234375,284400.65625,255641.03125,257525.09375,114997.0,1.0,1
234836.375,283229.34375,292664.46875,280306.625,257422.90625,285089.28125,256159.3125,258295.15625,114998.0,1.0,1
235186.40625,283589.125,293022.34375,280358.75,258004.328125,285387.34375,256253.203125,258435.4375,114999.0,1.0,1
234610.53125,282455.0625,291394.6875,279790.84375,256818.0625,284875.5,255790.15625,257747.640625,115000.0,1.0,1
233890.359375,281373.0625,290010.84375,279374.5625,255491.09375,284247.0625,255398.828125,257167.828125,115001.0,1.0,1
234037.609375,281860.0625,290803.28125,279697.59375,255869.640625,284384.46875,255633.0625,257513.921875,115002.0,1.0,1
234830.125,283215.125,292645.875,280304.125,257408.78125,285084.09375,256165.671875,258296.953125,115003.0,1.0,1
235191.140625,283596.09375,293033.875,280369.46875,258011.65625,285392.625,256263.921875,258449.484375,115004.0,1.0,1
234617.59375,282468.5,291413.84375,279801.21875,256831.390625,284885.25,255804.015625,257765.6875,115005.0,1.0,1
233890.09375,281377.0,290013.53125,279380.90625,255495.109375,284261.90625,255414.203125,257182.84375,115006.0,1.0,1
234026.171875,281847.09375,290783.59375,279697.9375,255853.546875,284383.21875,255639.234375,257509.90625,115007.0,1.0,1
234817.25,283199.84375,292629.40625,280307.25,257392.234375,285079.15625,256178.265625,258294.359375,115008.0,1.0,1
235185.421875,283596.625,293038.8125,280376.71875,258014.78125,285398.53125,256294.859375,258454.484375,115009.0,1.0,1
234630.828125,282486.46875,291433.40625,279809.96875,256852.484375,284902.84375,255832.359375,257775.625,115010.0,1.0,1
233901.71875,281383.71875,290015.59375,279379.75,255502.625,284261.8125,255426.265625,257184.546875,115011.0,1.0,1
234018.84375,281828.25,290759.8125,279680.6875,255838.265625,284372.40625,255637.265625,257494.171875,115012.0,1.0,1
234804.453125,283182.21875,292606.0625,280287.59375,257372.03125,285068.1875,256170.3125,258274.328125,115013.0,1.0,1
235192.3125,283609.125,293041.5625,280369.65625,258010.3125,285395.9375,256288.328125,258450.46875,115014.0,1.0,1
234631.28125,282500.59375,291444.9375,279805.9375,256857.140625,284895.0,255825.03125,257776.953125,115015.0,1.0,1
233891.609375,281386.21875,290012.03125,279374.375,255500.75,284258.0625,255414.296875,257175.703125,115016.0,1.0,1
234010.078125,281826.90625,290741.75,279678.28125,255824.046875,284370.0,255626.1875,257492.109375,115017.0,1.0,1
234808.125,283187.59375,292596.34375,280290.96875,257362.375,285068.53125,256158.15625,258279.6875,115018.0,1.0,1
235195.4375,283618.78125,293051.15625,280375.90625,258017.828125,285403.53125,256279.84375,258455.375,115019.0,1.0,1
234638.609375,282517.65625,291457.90625,279807.09375,256870.1875,284905.71875,255808.3125,257768.90625,115020.0,1.0,1
233897.421875,281393.0,290007.5625,279365.25,255497.34375,284251.0,255391.40625,257165.6875,115021.0,1.0,1
234002.75,281812.59375,290718.15625,279663.15625,255803.203125,284355.6875,255606.421875,257476.734375,115022.0,1.0,1
234788.546875,283166.21875,292570.40625,280273.8125,257336.453125,285050.375,256137.5,258255.90625,115023.0,1.0,1
235182.296875,283610.65625,293045.5,280368.75,258009.59375,285389.6875,256269.734375,258450.015625,115024.0,1.0,1
234638.703125,282521.6875,291472.46875,279810.59375,256882.4375,284906.0625,255812.421875,257776.515625,115025.0,1.0,1
233900.640625,281395.25,290015.25,279370.0,255510.40625,284261.90625,255397.296875,257168.90625,115026.0,1.0,1
233999.703125,281802.75,290707.53125,279665.84375,255803.484375,284360.34375,255608.75,257472.703125,115027.0,1.0,1
234783.1875,283152.90625,292558.0625,280276.3125,257333.953125,285052.09375,256145.546875,258256.1875,115028.0,1.0,1
235185.78125,283612.0,293055.0,280374.5625,258020.859375,285399.875,256285.5625,258459.84375,115029.0,1.0,1
234652.109375,282539.125,291495.71875,279817.84375,256904.171875,284922.15625,255835.578125,257792.78125,115030.0,1.0,1
233901.265625,281393.8125,290021.3125,279368.5625,255518.71875,284263.96875,255409.8125,257179.09375,115031.0,1.0,1
233981.109375,281778.34375,290686.15625,279653.25,255787.46875,284350.15625,255610.890625,257471.015625,115032.0,1.0,1
234767.890625,283136.53125,292540.90625,280265.9375,257313.5625,285038.65625,256138.21875,258242.046875,115033.0,1.0,1
235193.03125,283623.34375,293070.28125,280383.96875,258031.671875,285410.6875,256291.640625,258461.375,115034.0,1.0,1
234656.40625,282545.90625,291517.375,279828.46875,256923.390625,284932.1875,255833.96875,257799.046875,115035.0,1.0,1
233906.453125,281392.46875,290025.34375,279368.9375,255524.796875,284267.34375,255404.1875,257174.359375,115036.0,1.0,1
233981.921875,281765.5625,290670.25,279646.34375,255776.203125,284351.5625,255604.8125,257457.0625,115037.0,1.0,1
234762.890625,283121.78125,292523.46875,280258.6875,257299.703125,285034.46875,256126.6875,258239.375,115038.0,1.0,1
235184.265625,283615.5,293063.40625,280372.34375,258021.21875,285386.8125,256265.359375,258451.984375,115039.0,1.0,1
234657.65625,282552.53125,291526.03125,279826.0625,256931.4375,284920.125,255823.140625,257800.46875,115040.0,1.0,1
233901.0,281395.78125,290026.3125,279370.25,255530.34375,284267.8125,255401.859375,257179.359375,115041.0,1.0,1
233974.3125,281762.71875,290657.0,279648.3125,255765.65625,284346.75,255597.03125,257460.015625,115042.0,1.0,1
234756.453125,283114.8125,292510.15625,280262.625,257282.09375,285022.3125,256112.828125,258231.59375,115043.0,1.0,1
235193.5625,283629.25,293076.4375,280387.8125,258026.046875,285394.0625,256271.34375,258463.421875,115044.0,1.0,1
234674.828125,282578.0,291551.78125,279843.3125,256950.484375,284936.84375,255835.84375,257821.84375,115045.0,1.0,1
233907.4375,281402.75,290032.75,279374.75,255538.203125,284278.34375,255407.859375,257179.90625,115046.0,1.0,1
233964.125,281746.25,290632.9375,279634.5625,255749.203125,284338.78125,255588.015625,257431.671875,115047.0,1.0,1
234748.484375,283103.90625,292489.5,280252.09375,257270.203125,285022.9375,256122.296875,258221.484375,115048.0,1.0,1
235196.59375,283633.46875,293083.15625,280391.375,258039.09375,285409.53125,256292.625,258467.09375,115049.0,1.0,1
234682.0625,282592.75,291572.1875,279849.65625,256977.75,284958.28125,255852.921875,257822.640625,115050.0,1.0,1
233920.9375,281416.0625,290041.625,279374.125,255552.953125,284288.0,255410.625,257175.078125,115051.0,1.0,1
233964.296875,281733.75,290616.84375,279626.59375,255741.34375,284335.40625,255581.578125,257427.109375,115052.0,1.0,1
234743.9375,283089.25,292478.3125,280250.75,257260.359375,285025.71875,256126.234375,258224.53125,115053.0,1.0,1
235192.578125,283629.0,293087.8125,280387.8125,258033.734375,285402.09375,256283.6875,258467.8125,115054.0,1.0,1
234690.015625,282600.53125,291586.9375,279846.90625,256984.640625,284954.0,255848.0,257830.78125,115055.0,1.0,1
233923.890625,281417.15625,290045.09375,279374.1875,255562.265625,284291.6875,255415.0,257188.921875,115056.0,1.0,1
233954.734375,281720.40625,290599.59375,279621.59375,255732.75,284326.09375,255576.75,257425.40625,115057.0,1.0,1
234723.640625,283066.78125,292454.1875,280239.125,257242.578125,285007.375,256109.078125,258205.75,115058.0,1.0,1
235182.296875,283627.65625,293086.0,280384.40625,258033.46875,285400.59375,256276.984375,258459.046875,115059.0,1.0,1
234689.84375,282613.15625,291602.75,279849.5625,256999.03125,284959.8125,255846.296875,257827.203125,115060.0,1.0,1
233923.09375,281420.375,290049.46875,279373.03125,255568.421875,284294.1875,255406.515625,257178.828125,115061.0,1.0,1
233948.390625,281708.96875,290580.8125,279613.375,255720.328125,284325.28125,255564.671875,257410.75,115062.0,1.0,1
234716.65625,283054.71875,292433.15625,280230.4375,257224.15625,284992.25,256095.296875,258194.671875,115063.0,1.0,1
235183.1875,283629.625,293087.34375,280386.375,258034.625,285391.1875,256279.65625,258468.609375,115064.0,1.0,1
234698.609375,282626.90625,291618.40625,279856.90625,257015.390625,284963.46875,255854.703125,257839.71875,115065.0,1.0,1
233933.09375,281432.875,290053.15625,279372.15625,255577.8125,284291.03125,255410.453125,257179.984375,115066.0,1.0,1
233947.40625,281705.75,290562.9375,279606.75,255712.1875,284310.28125,255565.75,257405.734375,115067.0,1.0,1
234711.75,283045.0625,292413.84375,280224.1875,257213.34375,284982.25,256102.1875,258186.0,115068.0,1.0,1
235184.0,283632.125,293093.875,280390.03125,258041.515625,285396.65625,256295.3125,258463.609375,115069.0,1.0,1
234705.75,282642.03125,291639.6875,279865.125,257037.828125,284973.84375,255877.0625,257849.46875,115070.0,1.0,1
233929.171875,281431.90625,290057.4375,279375.0,255587.109375,284298.90625,255431.359375,257194.734375,115071.0,1.0,1
233931.671875,281685.0,290542.75,279597.28125,255694.9375,284305.0,255565.296875,257394.65625,115072.0,1.0,1
234687.6875,283023.34375,292390.25,280212.46875,257187.765625,284970.53125,256091.640625,258169.015625,115073.0,1.0,1
235169.59375,283628.0,293089.5,280384.59375,258035.796875,285388.53125,256291.90625,258464.234375,115074.0,1.0,1
234704.421875,282649.71875,291651.84375,279864.875,257050.34375,284973.3125,255878.40625,257852.0625,115075.0,1.0,1
233916.296875,281422.6875,290054.5,279367.3125,255591.21875,284295.78125,255428.421875,257184.8125,115076.0,1.0,1
233915.125,281663.71875,290525.5625,279593.4375,255690.203125,284305.71875,255570.578125,257396.078125,115077.0,1.0,1
234678.21875,283003.3125,292375.59375,280210.875,257182.21875,284975.0,256096.640625,258172.578125,115078.0,1.0,1
235172.8125,283624.34375,293094.59375,280390.5,258043.390625,285402.375,256303.0,258474.609375,115079.0,1.0,1
234714.15625,282652.5625,291665.34375,279870.3125,257066.984375,284987.875,255886.1875,257867.96875,115080.0,1.0,1
233933.28125,281427.78125,290060.9375,279369.8125,255604.90625,284306.5,255427.171875,257196.265625,115081.0,1.0,1
233913.515625,281646.65625,290504.65625,279579.375,255677.421875,284292.5625,255550.28125,257380.4375,115082.0,1.0,1
234673.75,282990.625,292354.46875,280201.125,257169.4375,284959.8125,256086.265625,258167.84375,115083.0,1.0,1
235180.859375,283632.75,293096.125,280393.53125,258047.859375,285393.4375,256288.59375,258470.9375,115084.0,1.0,1
234729.8125,282672.34375,291686.0625,279883.46875,257087.09375,284989.84375,255878.40625,257871.28125,115085.0,1.0,1
233938.375,281432.53125,290068.78125,279379.90625,255616.171875,284304.46875,255416.53125,257193.21875,115086.0,1.0,1
233906.375,281635.21875,290490.34375,279585.1875,255670.078125,284285.6875,255538.125,257377.578125,115087.0,1.0,1
234666.6875,282982.40625,292342.15625,280210.25,257154.859375,284957.03125,256079.921875,258166.0625,115088.0,1.0,1
235182.296875,283639.90625,293108.8125,280407.28125,258050.015625,285401.125,256303.359375,258487.75,115089.0,1.0,1
234727.21875,282678.78125,291702.15625,279889.8125,257095.046875,284990.9375,255886.984375,257878.25,115090.0,1.0,1
233944.015625,281440.40625,290074.53125,279382.5,255623.140625,284308.75,255428.0625,257197.15625,115091.0,1.0,1
233914.5,281633.59375,290474.625,279581.53125,255665.25,284286.40625,255556.359375,257375.796875,115092.0,1.0,1
234668.828125,282965.59375,292319.09375,280200.84375,257145.125,284948.8125,256087.875,258156.671875,115093.0,1.0,1
235175.40625,283621.75,293095.75,280395.75,258049.03125,285388.6875,256301.125,258478.890625,115094.0,1.0,1
234731.5,282680.8125,291711.46875,279889.625,257114.09375,284993.53125,255892.078125,257887.90625,115095.0,1.0,1
233943.03125,281436.375,290075.21875,279377.40625,255633.875,284310.53125,255428.328125,257203.140625,115096.0,1.0,1
233904.3125,281618.125,290455.3125,279567.84375,255653.0,284284.78125,255547.234375,257364.96875,115097.0,1.0,1
234645.046875,282944.65625,292292.25,280182.71875,257115.34375,284936.28125,256071.25,258142.359375,115098.0,1.0,1
235164.40625,283621.3125,293095.3125,280390.125,258034.265625,285380.1875,256288.59375,258468.515625,115099.0,1.0,1
234740.984375,282704.25,291733.0,279894.90625,257122.234375,284996.90625,255892.265625,257888.453125,115100.0,1.0,1
233956.875,281456.5625,290088.5625,279381.25,255639.953125,284311.875,255427.703125,257201.359375,115101.0,1.0,1
233899.296875,281614.125,290442.5,279562.03125,255637.09375,284274.96875,255531.0625,257353.34375,115102.0,1.0,1
234644.421875,282947.53125,292286.53125,280186.5625,257108.828125,284941.3125,256067.3125,258138.078125,115103.0,1.0,1
235176.484375,283640.25,293112.46875,280403.0,258051.703125,285395.59375,256294.140625,258478.171875,115104.0,1.0,1
234762.890625,282729.5625,291758.75,279904.5625,257151.203125,285009.53125,255895.5625,257900.078125,115105.0,1.0,1
233966.1875,281463.8125,290094.46875,279379.28125,255656.9375,284318.9375,255422.96875,257205.015625,115106.0,1.0,1
233901.546875,281605.53125,290423.28125,279553.09375,255635.84375,284275.21875,255526.140625,257349.859375,115107.0,1.0,1
234645.671875,282934.90625,292263.5625,280177.96875,257097.5625,284928.4375,256058.828125,258130.828125,115108.0,1.0,1
235180.5,283642.84375,293110.5,280403.0,258050.90625,285388.34375,256289.578125,258487.390625,115109.0,1.0,1
234772.1875,282748.875,291777.0,279912.0625,257163.984375,285019.90625,255899.140625,257903.921875,115110.0,1.0,1
233978.515625,281482.9375,290108.9375,279386.8125,255666.0625,284321.28125,255423.5,257196.96875,115111.0,1.0,1
233895.546875,281598.09375,290413.28125,279552.3125,255621.359375,284263.78125,255521.75,257340.65625,115112.0,1.0,1
234629.484375,282918.65625,292247.1875,280171.875,257075.828125,284915.46875,256052.296875,258117.421875,115113.0,1.0,1
235173.796875,283638.90625,293115.25,280403.0,258046.25,285388.53125,256298.96875,258471.828125,115114.0,1.0,1
234785.328125,282762.90625,291806.15625,279925.84375,257190.1875,285037.9375,255925.703125,257915.09375,115115.0,1.0,1
233988.171875,281483.84375,290122.4375,279393.59375,255685.46875,284330.65625,255439.59375,257206.28125,115116.0,1.0,1
233896.359375,281581.3125,290401.21875,279547.125,255621.171875,284263.0625,255524.0,257332.0625,115117.0,1.0,1
234624.75,282894.25,292225.03125,280161.34375,257067.515625,284906.78125,256049.171875,258105.703125,115118.0,1.0,1
235179.796875,283631.40625,293109.53125,280399.4375,258054.203125,285382.0,256297.1875,258478.53125,115119.0,1.0,1
234783.890625,282755.65625,291807.65625,279920.65625,257199.390625,285028.21875,255918.28125,257930.375,115120.0,1.0,1
233981.109375,281473.84375,290114.65625,279383.0625,255685.734375,284326.625,255426.71875,257216.375,115121.0,1.0,1
233892.421875,281569.78125,290375.8125,279537.375,255605.796875,284256.4375,255507.546875,257333.234375,115122.0,1.0,1
234628.15625,282890.5,292204.8125,280159.28125,257049.640625,284902.3125,256032.625,258106.953125,115123.0,1.0,1
235189.359375,283642.125,293112.125,280403.4375,258046.796875,285385.75,256284.75,258479.25,115124.0,1.0,1
234804.734375,282778.28125,291821.34375,279925.125,257203.6875,285037.0625,255911.65625,257926.0,115125.0,1.0,1
234001.3125,281488.59375,290121.09375,279390.1875,255693.15625,284346.5625,255442.90625,257217.359375,115126.0,1.0,1
233893.3125,281560.03125,290358.90625,279535.75,255595.421875,284262.4375,255523.015625,257328.40625,115127.0,1.0,1
234627.34375,282887.1875,292187.90625,280161.15625,257036.046875,284909.46875,256055.421875,258106.953125,115128.0,1.0,1
235196.15625,283655.53125,293121.15625,280413.71875,258054.5625,285393.4375,256315.875,258498.296875,115129.0,1.0,1
234822.15625,282813.40625,291855.0625,279942.1875,257233.984375,285054.75,255951.53125,257956.40625,115130.0,1.0,1
234013.921875,281517.8125,290140.9375,279396.0,255711.65625,284339.25,255445.9375,257220.125,115131.0,1.0,1
233890.8125,281566.46875,290354.28125,279535.84375,255591.671875,284247.6875,255511.828125,257317.140625,115132.0,1.0,1
234616.078125,282876.71875,292172.4375,280156.6875,257017.171875,284888.5625,256041.296875,258086.3125,115133.0,1.0,1
235191.140625,283653.75,293121.3125,280417.03125,258045.453125,285379.3125,256301.390625,258474.0625,115134.0,1.0,1
234816.984375,282811.625,291866.15625,279949.25,257235.515625,285042.5,255932.140625,257938.515625,115135.0,1.0,1
234010.265625,281513.15625,290144.53125,279404.5,255713.453125,284338.875,255437.890625,257220.3125,115136.0,1.0,1
233883.484375,281550.46875,290337.65625,279535.59375,255577.90625,284243.84375,255492.4375,257312.046875,115137.0,1.0,1
234601.59375,282854.90625,292152.15625,280153.46875,257000.734375,284880.6875,256018.140625,258090.0625,115138.0,1.0,1
235174.421875,283643.46875,293115.0625,280415.0,258041.609375,285380.90625,256286.8125,258494.546875,115139.0,1.0,1
234825.65625,282837.65625,291886.875,279960.1875,257259.296875,285067.09375,255931.0625,257968.109375,115140.0,1.0,1
234027.15625,281541.5,290161.5,279412.28125,255736.953125,284363.46875,255440.75,257234.890625,115141.0,1.0,1
233885.53125,281556.28125,290327.8125,279529.6875,255578.984375,284254.125,255502.71875,257311.328125,115142.0,1.0,1
234600.171875,282859.8125,292139.0,280148.375,256995.09375,284889.8125,256042.015625,258085.234375,115143.0,1.0,1
235192.484375,283672.4375,293124.375,280418.46875,258051.703125,285397.625,256328.828125,258491.59375,115144.0,1.0,1
234838.53125,282866.34375,291906.09375,279959.28125,257279.671875,285083.0,255986.3125,257975.171875,115145.0,1.0,1
234030.109375,281561.0,290165.8125,279402.1875,255749.65625,284378.65625,255499.671875,257250.078125,115146.0,1.0,1
233880.078125,281563.25,290305.53125,279511.15625,255567.4375,284260.75,255545.1875,257318.921875,115147.0,1.0,1
234586.578125,282858.9375,292111.84375,280131.75,256972.921875,284892.3125,256071.515625,258090.859375,115148.0,1.0,1
235183.375,283680.3125,293118.5625,280411.84375,258043.21875,285404.875,256355.828125,258502.3125,115149.0,1.0,1
234849.96875,282895.84375,291919.34375,279961.78125,257285.9375,285100.34375,256003.84375,257989.125,115150.0,1.0,1
234044.765625,281589.625,290177.59375,279408.875,255755.015625,284396.71875,255502.71875,257260.453125,115151.0,1.0,1
233882.765625,281572.625,290298.84375,279514.3125,255556.359375,284274.78125,255539.546875,257324.375,115152.0,1.0,1
234580.3125,282856.96875,292097.78125,280126.75,256950.65625,284892.03125,256044.4375,258085.234375,115153.0,1.0,1
235180.953125,283689.78125,293121.40625,280412.5625,258032.03125,285407.90625,256316.5,258511.265625,115154.0,1.0,1
234851.84375,282912.21875,291939.8125,279966.875,257290.859375,285101.6875,255955.921875,258006.109375,115155.0,1.0,1
234046.640625,281599.625,290191.71875,279408.0,255755.828125,284391.90625,255450.59375,257272.53125,115156.0,1.0,1
233880.0,281565.65625,290291.3125,279507.3125,255540.359375,284257.25,255483.484375,257321.875,115157.0,1.0,1
234574.6875,282842.21875,292082.25,280118.6875,256925.09375,284874.875,256003.390625,258079.609375,115158.0,1.0,1
235181.125,283687.8125,293125.09375,280410.15625,258021.484375,285402.5625,256304.609375,258515.109375,115159.0,1.0,1
234853.90625,282917.5625,291962.53125,279971.78125,257299.53125,285114.5625,255969.0625,258014.78125,115160.0,1.0,1
234055.671875,281605.4375,290212.90625,279417.21875,255770.75,284411.03125,255479.734375,257283.515625,115161.0,1.0,1
233880.0,281551.78125,290286.21875,279508.03125,255536.859375,284262.34375,255510.046875,257317.234375,115162.0,1.0,1
234562.609375,282815.03125,292066.25,280114.3125,256911.671875,284870.3125,256028.515625,258068.609375,115163.0,1.0,1
235178.0,283673.96875,293130.71875,280417.3125,258026.21875,285408.1875,256346.265625,258523.78125,115164.0,1.0,1
234869.109375,282924.0,291986.03125,279984.84375,257322.40625,285121.625,256014.84375,258025.421875,115165.0,1.0,1
234058.625,281595.6875,290221.21875,279417.75,255783.0,284414.4375,255512.8125,257275.828125,115166.0,1.0,1
233866.9375,281525.40625,290274.53125,279497.9375,255532.390625,284265.5625,255541.0625,257308.28125,115167.0,1.0,1
234560.46875,282799.65625,292057.46875,280109.65625,256906.84375,284875.9375,256060.703125,258064.9375,115168.0,1.0,1
235180.421875,283668.875,293137.5,280414.8125,258029.796875,285411.75,256365.578125,258515.90625,115169.0,1.0,1
234875.359375,282928.40625,292007.125,279984.59375,257336.09375,285130.3125,256028.609375,258036.234375,115170.0,1.0,1
234065.25,281598.8125,290229.625,279413.4375,255789.796875,284416.5,255513.796875,257280.84375,115171.0,1.0,1
233871.953125,281519.4375,290265.03125,279491.5,255523.453125,284260.28125,255526.765625,257301.21875,115172.0,1.0,1
234556.09375,282783.90625,292037.28125,280097.3125,256886.015625,284857.25,256024.765625,258054.921875,115173.0,1.0,1
235189.453125,283674.59375,293139.5625,280416.5,258028.1875,285406.21875,256335.984375,258523.0625,115174.0,1.0,1
234887.703125,282946.0,292028.15625,279992.90625,257352.09375,285137.375,256000.0,258045.71875,115175.0,1.0,1
234070.96875,281609.09375,290246.625,279416.125,255802.234375,284420.0625,255476.515625,257279.765625,115176.0,1.0,1
233875.609375,281522.46875,290265.125,279490.0625,255522.03125,284254.21875,255495.03125,257302.5625,115177.0,1.0,1
234543.65625,282776.3125,292028.9375,280093.5625,256873.328125,284849.65625,256007.859375,258048.84375,115178.0,1.0,1
235174.0625,283669.59375,293144.46875,280414.625,258025.875,285396.375,256319.265625,258507.859375,115179.0,1.0,1
234885.375,282956.28125,292051.21875,279999.0625,257370.0625,285133.71875,256003.65625,258044.203125,115180.0,1.0,1
234071.859375,281620.46875,290264.9375,279423.71875,255821.0,284425.59375,255501.109375,257287.90625,115181.0,1.0,1
233863.09375,281510.5,290253.34375,279487.21875,255515.953125,284246.53125,255501.375,257290.578125,115182.0,1.0,1
234540.703125,282768.8125,292015.8125,280095.71875,256866.796875,284845.8125,256015.1875,258038.921875,115183.0,1.0,1
235174.609375,283673.4375,293144.46875,280419.53125,258024.34375,285399.4375,256336.703125,258506.515625,115184.0,1.0,1
234895.296875,282976.59375,292069.71875,280006.9375,257382.859375,285147.21875,256025.203125,258047.6875,115185.0,1.0,1
234082.953125,281637.90625,290277.5625,279430.625,255831.375,284440.53125,255516.75,257295.953125,115186.0,1.0,1
233859.078125,281508.0625,290244.46875,279485.6875,255510.3125,284259.9375,255519.171875,257292.375,115187.0,1.0,1
234524.265625,282755.125,291993.8125,280086.9375,256844.359375,284851.1875,256024.40625,258033.46875,115188.0,1.0,1
235170.84375,283676.03125,293140.90625,280419.1875,258016.75,285405.9375,256342.25,258510.359375,115189.0,1.0,1
234905.484375,282993.5625,292083.5,280013.28125,257394.390625,285156.59375,256031.5625,258061.8125,115190.0,1.0,1
234092.78125,281647.46875,290284.4375,279432.65625,255845.59375,284447.34375,255521.046875,257308.109375,115191.0,1.0,1
233853.625,281492.96875,290225.0,279473.96875,255503.15625,284251.625,255506.46875,257287.28125,115192.0,1.0,1
234517.109375,282734.90625,291968.25,280070.40625,256828.078125,284836.96875,256005.359375,258025.59375,115193.0,1.0,1
235168.96875,283669.40625,293135.8125,280402.90625,258010.765625,285404.625,256329.1875,258506.78125,115194.0,1.0,1
234910.9375,282999.5625,292098.96875,279999.78125,257403.78125,285157.65625,256013.140625,258055.8125,115195.0,1.0,1
234104.046875,281657.5625,290298.84375,279420.6875,255855.15625,284443.5,255501.109375,257305.34375,115196.0,1.0,1
233854.875,281490.8125,290216.0625,279460.5625,255492.796875,284241.4375,255483.21875,257281.90625,115197.0,1.0,1
234510.40625,282724.375,291957.4375,280065.03125,256813.953125,284828.375,255988.734375,258019.515625,115198.0,1.0,1
235169.859375,283669.84375,293139.84375,280409.09375,258012.015625,285392.90625,256324.546875,258516.359375,115199.0,1.0,1
234921.3125,283014.75,292116.40625,280009.78125,257425.5,285158.28125,256022.34375,258069.59375,115200.0,1.0,1
234110.03125,281665.25,290305.90625,279424.1875,255875.265625,284452.15625,255517.734375,257314.28125,115201.0,1.0,1
233860.859375,281485.375,290202.625,279456.53125,255495.5625,284238.84375,255488.40625,257276.1875,115202.0,1.0,1
234504.328125,282700.75,291926.40625,280051.0,256798.21875,284804.6875,255979.875,258012.8125,115203.0,1.0,1
235154.046875,283644.90625,293120.25,280390.9375,258002.171875,285369.75,256311.671875,258498.203125,115204.0,1.0,1
234915.421875,283008.3125,292127.21875,280007.375,257438.46875,285157.65625,256024.578125,258066.453125,115205.0,1.0,1
234103.328125,281654.25,290313.78125,279422.84375,255885.203125,284449.5625,255514.96875,257304.359375,115206.0,1.0,1
233846.90625,281459.71875,290188.96875,279446.96875,255489.21875,284236.875,255495.734375,257262.25,115207.0,1.0,1
234498.515625,282684.125,291915.3125,280047.34375,256792.953125,284813.4375,256001.875,257996.453125,115208.0,1.0,1
235164.0625,283650.71875,293127.59375,280400.15625,258008.171875,285384.6875,256344.921875,258504.546875,115209.0,1.0,1
234933.5625,283024.34375,292143.65625,280016.21875,257456.25,285170.53125,256052.828125,258078.078125,115210.0,1.0,1
234120.5,281669.625,290324.0625,279426.5,255901.734375,284463.875,255536.234375,257312.125,115211.0,1.0,1
233850.484375,281459.96875,290175.625,279441.625,255483.046875,284236.25,255497.078125,257254.90625,115212.0,1.0,1
234491.359375,282675.375,291888.21875,280037.5,256770.234375,284800.21875,255990.15625,257983.84375,115213.0,1.0,1
235158.78125,283652.59375,293118.90625,280397.5625,257995.109375,285381.1875,256335.71875,258499.71875,115214.0,1.0,1
234939.015625,283050.78125,292163.6875,280025.09375,257464.65625,285183.96875,256058.28125,258087.5625,115215.0,1.0,1
234127.921875,281695.84375,290337.8125,279433.375,255909.6875,284473.25,255534.8125,257317.671875,115216.0,1.0,1
233847.625,281469.8125,290164.71875,279443.03125,255475.625,284240.25,255493.234375,257255.8125,115217.0,1.0,1
234475.890625,282672.78125,291866.6875,280035.90625,256753.0625,284796.1875,255981.40625,257980.09375,115218.0,1.0,1
235148.234375,283656.09375,293110.34375,280398.90625,257990.1875,285371.1875,256324.28125,258494.890625,115219.0,1.0,1
234940.453125,283068.75,292172.71875,280033.3125,257480.75,285185.375,256055.15625,258094.0,115220.0,1.0,1
234127.46875,281709.6875,290341.21875,279437.0625,255924.453125,284476.375,255533.828125,257326.53125,115221.0,1.0,1
233838.421875,281460.6875,290145.59375,279436.25,255470.53125,284224.0,255480.09375,257253.484375,115222.0,1.0,1
234468.296875,282658.28125,291843.53125,280026.59375,256740.375,284781.96875,255969.78125,257972.140625,115223.0,1.0,1
235144.03125,283650.8125,293104.53125,280396.65625,257988.671875,285368.65625,256321.953125,258492.65625,115224.0,1.0,1
234948.859375,283079.3125,292191.6875,280041.96875,257499.796875,285199.15625,256066.25,258099.546875,115225.0,1.0,1
234138.5625,281715.84375,290358.03125,279444.03125,255944.46875,284481.5625,255536.0625,257329.75,115226.0,1.0,1
233844.859375,281453.8125,290139.34375,279435.8125,255471.15625,284226.0625,255477.953125,257253.21875,115227.0,1.0,1
234473.296875,282644.625,291830.75,280025.875,256730.984375,284778.03125,255963.515625,257975.4375,115228.0,1.0,1
235152.4375,283644.0,293107.65625,280398.71875,257986.171875,285370.46875,256323.109375,258495.703125,115229.0,1.0,1
234960.03125,283077.96875,292205.53125,280040.8125,257507.3125,285194.78125,256053.453125,258098.46875,115230.0,1.0,1
234149.015625,281714.15625,290371.53125,279446.53125,255955.921875,284495.78125,255539.109375,257339.84375,115231.0,1.0,1
233838.234375,281434.9375,290131.28125,279430.875,255465.515625,284239.1875,255477.328125,257246.0625,115232.0,1.0,1
234457.390625,282619.40625,291809.8125,280017.40625,256712.390625,284783.0625,255954.3125,257948.796875,115233.0,1.0,1
235144.65625,283637.75,293105.0625,280400.5,257980.984375,285378.6875,256328.203125,258498.5625,115234.0,1.0,1
234963.875,283091.21875,292221.71875,280049.03125,257517.328125,285207.1875,256071.703125,258115.71875,115235.0,1.0,1
234152.234375,281724.8125,290378.21875,279446.34375,255961.1875,284501.15625,255547.859375,257337.53125,115236.0,1.0,1
233827.0625,281427.34375,290112.96875,279421.21875,255452.28125,284230.875,255482.328125,257234.4375,115237.0,1.0,1
234435.5625,282604.84375,291784.6875,280006.3125,256687.171875,284765.15625,255958.234375,257944.421875,115238.0,1.0,1
235137.40625,283644.8125,293103.96875,280401.5625,257974.546875,285373.84375,256333.84375,258497.578125,115239.0,1.0,1
234961.90625,283111.0625,292245.0625,280058.6875,257534.390625,285216.59375,256079.125,258126.546875,115240.0,1.0,1
234153.75,281744.90625,290397.625,279452.78125,255977.375,284496.25,255543.125,257344.234375,115241.0,1.0,1
233829.125,281435.9375,290116.4375,279422.84375,255457.296875,284223.09375,255471.328125,257234.171875,115242.0,1.0,1
234432.078125,282602.5,291776.65625,280001.3125,256681.09375,284760.875,255953.59375,257931.8125,115243.0,1.0,1
235130.796875,283640.0625,293103.96875,280397.09375,257974.734375,285373.125,256337.15625,258487.46875,115244.0,1.0,1
234962.71875,283114.8125,292258.71875,280056.90625,257546.921875,285210.40625,256079.5625,258119.921875,115245.0,1.0,1
234162.15625,281752.78125,290413.0,279451.8125,255995.53125,284505.09375,255553.40625,257342.265625,115246.0,1.0,1
233831.984375,281429.5625,290109.90625,279416.75,255457.921875,284225.78125,255471.421875,257224.0625,115247.0,1.0,1
234432.53125,282587.9375,291760.46875,279997.1875,256676.890625,284752.21875,255944.203125,257921.53125,115248.0,1.0,1
235128.921875,283628.8125,293098.53125,280395.9375,257978.578125,285362.59375,256325.890625,258480.328125,115249.0,1.0,1
234979.34375,283130.375,292275.8125,280066.375,257574.0,285219.90625,256083.40625,258137.71875,115250.0,1.0,1
234180.9375,281765.03125,290420.875,279453.78125,256020.640625,284508.9375,255543.65625,257345.5625,115251.0,1.0,1
233829.921875,281411.0625,290085.34375,279402.53125,255461.859375,284215.3125,255454.609375,257205.921875,115252.0,1.0,1
234416.4375,282557.34375,291721.84375,279976.625,256660.890625,284738.875,255932.5,257910.0,115253.0,1.0,1
235127.046875,283616.5625,293076.90625,280384.78125,257966.859375,285351.59375,256315.421875,258489.53125,115254.0,1.0,1
234980.765625,283125.0,292275.34375,280058.875,257574.8125,285216.0625,256074.03125,258131.71875,115255.0,1.0,1
234181.46875,281764.0625,290423.375,279452.15625,256027.078125,284516.875,255545.09375,257344.234375,115256.0,1.0,1
233835.46875,281410.8125,290074.34375,279404.5,255453.546875,284220.6875,255459.984375,257211.375,115257.0,1.0,1
234412.671875,282544.5625,291702.4375,279976.90625,256642.109375,284736.21875,255934.28125,257905.53125,115258.0,1.0,1
235121.671875,283613.15625,293073.6875,280388.0625,257960.421875,285356.59375,256328.296875,258482.375,115259.0,1.0,1
234990.0625,283147.53125,292293.15625,280068.71875,257588.578125,285236.15625,256103.890625,258147.734375,115260.0,1.0,1
234183.796875,281772.375,290431.59375,279455.5625,256034.953125,284522.875,255564.84375,257362.828125,115261.0,1.0,1
233817.40625,281390.875,290056.28125,279396.71875,255440.671875,284211.75,255459.890625,257213.25,115262.0,1.0,1
234399.09375,282527.21875,291678.125,279970.0,256620.296875,284725.84375,255934.1875,257906.328125,115263.0,1.0,1
235118.375,283606.46875,293066.34375,280389.15625,257951.484375,285347.65625,256326.78125,258486.40625,115264.0,1.0,1
234986.9375,283141.625,292299.21875,280072.1875,257593.234375,285224.46875,256097.0,258148.71875,115265.0,1.0,1
234178.25,281769.15625,290434.125,279455.375,256036.828125,284518.125,255561.0,257358.171875,115266.0,1.0,1
233818.390625,281390.78125,290046.34375,279391.53125,255430.46875,284209.25,255461.40625,257206.71875,115267.0,1.0,1
234387.734375,282508.4375,291654.4375,279957.84375,256597.953125,284711.0,255920.609375,257886.65625,115268.0,1.0,1
235105.3125,283589.28125,293053.125,280378.15625,257936.28125,285338.625,256317.21875,258469.234375,115269.0,1.0,1
234991.140625,283146.46875,292312.71875,280072.90625,257601.71875,285229.28125,256099.6875,258152.296875,115270.0,1.0,1
234195.421875,281779.6875,290453.59375,279461.8125,256056.5,284532.0,255572.625,257367.65625,115271.0,1.0,1
233823.9375,281379.40625,290047.59375,279393.59375,255436.90625,284219.625,255465.15625,257205.015625,115272.0,1.0,1
234384.96875,282487.4375,291645.03125,279957.5,256591.59375,284716.1875,255924.71875,257885.859375,115273.0,1.0,1
235112.015625,283586.6875,293058.125,280385.125,257935.828125,285343.46875,256322.21875,258479.25,115274.0,1.0,1
235005.625,283156.28125,292335.8125,280082.65625,257613.796875,285229.46875,256093.421875,258156.84375,115275.0,1.0,1
234202.65625,281782.03125,290469.25,279463.875,256065.703125,284526.71875,255554.03125,257365.953125,115276.0,1.0,1
233814.640625,281363.3125,290033.46875,279381.875,255422.34375,284202.4375,255437.625,257197.15625,115277.0,1.0,1
234372.890625,282473.3125,291620.1875,279944.15625,256565.5,284698.375,255895.203125,257869.765625,115278.0,1.0,1
235100.484375,283580.96875,293042.375,280374.46875,257919.03125,285329.96875,256303.265625,258462.078125,115279.0,1.0,1
234996.6875,283164.53125,292335.96875,280077.84375,257612.890625,285230.0,256093.421875,258154.96875,115280.0,1.0,1
234206.5,281804.46875,290479.34375,279468.625,256078.578125,284538.96875,255570.125,257374.625,115281.0,1.0,1
233808.734375,281364.65625,290015.15625,279376.625,255416.171875,284197.875,255445.578125,257192.140625,115282.0,1.0,1
234359.84375,282459.1875,291589.53125,279934.96875,256546.1875,284688.0,255902.8125,257857.609375,115283.0,1.0,1
235085.5625,283568.28125,293025.21875,280371.0,257903.203125,285318.96875,256308.71875,258457.703125,115284.0,1.0,1
234995.609375,283174.09375,292346.34375,280085.53125,257619.609375,285230.34375,256105.765625,258167.9375,115285.0,1.0,1
234202.125,281807.15625,290480.59375,279468.15625,256080.015625,284534.875,255572.890625,257380.703125,115286.0,1.0,1
233794.4375,281352.96875,290000.84375,279372.84375,255403.921875,284197.25,255453.09375,257186.609375,115287.0,1.0,1
234340.703125,282443.0,291571.09375,279931.75,256528.21875,284677.65625,255905.046875,257853.140625,115288.0,1.0,1
235079.03125,283568.28125,293023.875,280373.6875,257899.265625,285309.84375,256310.78125,258461.640625,115289.0,1.0,1
235005.8125,283190.625,292369.15625,280099.75,257640.171875,285236.625,256117.46875,258176.609375,115290.0,1.0,1
234215.625,281822.53125,290505.0,279483.1875,256105.5,284543.875,255581.125,257391.34375,115291.0,1.0,1
233804.984375,281354.46875,290005.6875,279379.21875,255412.0625,284191.8125,255441.828125,257188.84375,115292.0,1.0,1
234338.734375,282425.21875,291562.78125,279932.375,256519.265625,284667.71875,255886.625,257849.015625,115293.0,1.0,1
235080.015625,283555.40625,293030.40625,280381.625,257898.546875,285311.8125,256297.90625,258458.0625,115294.0,1.0,1
235012.953125,283190.28125,292392.84375,280108.59375,257652.6875,285245.375,256108.453125,258180.453125,115295.0,1.0,1
234210.34375,281812.5,290518.6875,279480.40625,256108.796875,284547.03125,255565.296875,257381.15625,115296.0,1.0,1
233803.8125,281347.3125,290007.46875,279381.53125,255412.6875,284205.5625,255441.109375,257180.171875,115297.0,1.0,1
234351.875,282433.34375,291559.84375,279939.59375,256517.21875,284681.5,255891.1875,257845.0,115298.0,1.0,1
235097.09375,283571.6875,293038.90625,280390.21875,257903.015625,285322.28125,256305.671875,258461.640625,115299.0,1.0,1
235035.75,283215.84375,292416.34375,280115.75,257668.6875,285252.09375,256118.015625,258187.15625,115300.0,1.0,1
234251.296875,281848.71875,290549.625,279496.40625,256135.359375,284555.4375,255582.546875,257403.234375,115301.0,1.0,1
233813.03125,281347.15625,290007.1875,279380.28125,255409.1875,284197.78125,255438.078125,257191.171875,115302.0,1.0,1
234333.828125,282407.875,291531.21875,279920.5625,256488.875,284660.75,255873.125,257835.078125,115303.0,1.0,1
235086.359375,283560.78125,293020.46875,280376.71875,257885.3125,285306.09375,256298.796875,258456.453125,115304.0,1.0,1
235027.984375,283217.28125,292415.5625,280109.46875,257667.4375,285249.75,256118.28125,258186.71875,115305.0,1.0,1
234238.609375,281845.59375,290540.9375,279484.34375,256131.6875,284556.3125,255575.140625,257391.890625,115306.0,1.0,1
233810.96875,281340.0,289980.28125,279364.1875,255392.65625,284184.21875,255418.40625,257164.609375,115307.0,1.0,1
234327.109375,282391.59375,291501.09375,279909.75,256462.046875,284645.0,255856.234375,257814.0625,115308.0,1.0,1
235069.828125,283541.0,293003.84375,280371.4375,257861.453125,285294.0,256281.71875,258444.65625,115309.0,1.0,1
235036.109375,283228.90625,292429.40625,280123.0625,257672.265625,285257.625,256118.015625,258205.3125,115310.0,1.0,1
234262.921875,281876.34375,290564.90625,279504.46875,256151.71875,284574.8125,255585.328125,257423.265625,115311.0,1.0,1
233822.421875,281351.53125,289982.34375,279371.34375,255397.296875,284195.28125,255423.140625,257172.75,115312.0,1.0,1
234327.5625,282385.5,291487.875,279907.25,256455.171875,284647.15625,255858.90625,257810.75,115313.0,1.0,1
235086.546875,283555.125,293004.28125,280372.59375,257868.15625,285304.65625,256292.53125,258448.140625,115314.0,1.0,1
235047.46875,283245.15625,292442.0,280120.84375,257688.71875,285262.53125,256124.984375,258203.34375,115315.0,1.0,1
234256.21875,281875.4375,290569.46875,279493.65625,256157.625,284571.25,255583.453125,257409.9375,115316.0,1.0,1
233810.078125,281338.65625,289967.9375,279356.84375,255387.375,284187.875,255422.6875,257163.625,115317.0,1.0,1
234307.890625,282364.5,291460.40625,279890.625,256430.9375,284633.65625,255854.703125,257796.8125,115318.0,1.0,1
235068.484375,283540.75,292993.65625,280364.28125,257851.34375,285297.21875,256296.015625,258444.109375,115319.0,1.0,1
235053.375,283256.15625,292460.78125,280128.4375,257696.046875,285262.90625,256134.28125,258215.59375,115320.0,1.0,1
234269.09375,281886.90625,290586.09375,279501.59375,256172.109375,284565.71875,255586.40625,257418.609375,115321.0,1.0,1
233807.125,281328.71875,289955.4375,279352.375,255381.03125,284172.3125,255412.59375,257159.515625,115322.0,1.0,1
234304.765625,282347.34375,291438.96875,279882.5625,256414.84375,284623.1875,255848.265625,257786.53125,115323.0,1.0,1
235062.3125,283523.5,292981.40625,280357.59375,257845.09375,285287.5,256293.15625,258435.703125,115324.0,1.0,1
235050.78125,283250.53125,292464.46875,280124.15625,257707.125,285261.8125,256136.515625,258216.84375,115325.0,1.0,1
234280.71875,281896.09375,290597.90625,279502.3125,256192.671875,284579.125,255594.09375,257425.671875,115326.0,1.0,1
233805.78125,281317.5625,289946.21875,279348.0,255387.109375,284179.5625,255415.28125,257164.515625,115327.0,1.0,1
234287.234375,282320.78125,291412.21875,279874.15625,256401.96875,284613.1875,255840.671875,257789.75,115328.0,1.0,1
235053.28125,283510.0625,292964.78125,280355.34375,257831.140625,285273.375,256269.640625,258427.84375,115329.0,1.0,1
235057.125,283261.53125,292475.625,280132.71875,257713.65625,285265.5,256124.984375,258213.984375,115330.0,1.0,1
234284.828125,281904.78125,290611.6875,279512.4375,256204.296875,284590.5625,255589.4375,257426.21875,115331.0,1.0,1
233807.484375,281321.3125,289949.0625,279357.84375,255387.640625,284194.125,255415.09375,257160.9375,115332.0,1.0,1
234294.03125,282327.65625,291405.875,279882.125,256389.359375,284616.9375,255838.796875,257780.171875,115333.0,1.0,1
235060.171875,283520.34375,292969.78125,280368.9375,257827.203125,285282.5625,256293.515625,258444.46875,115334.0,1.0,1
235065.53125,283276.90625,292497.4375,280148.8125,257723.3125,285275.59375,256151.0,258237.9375,115335.0,1.0,1
234287.59375,281915.3125,290629.375,279520.28125,256212.515625,284593.875,255607.671875,257436.046875,115336.0,1.0,1
233796.484375,281312.90625,289938.78125,279352.21875,255374.0625,284181.25,255421.625,257156.296875,115337.0,1.0,1
234278.5625,282313.09375,291392.65625,279878.46875,256376.484375,284610.9375,255852.46875,257777.859375,115338.0,1.0,1
235050.328125,283522.15625,292972.8125,280371.34375,257826.046875,285278.09375,256305.59375,258443.046875,115339.0,1.0,1
235061.953125,283294.15625,292517.65625,280155.78125,257738.515625,285275.875,256160.03125,258226.40625,115340.0,1.0,1
234307.8125,281950.5625,290660.65625,279537.0,256243.0,284605.03125,255628.234375,257440.078125,115341.0,1.0,1
233812.484375,281331.5,289950.96875,279367.3125,255392.921875,284181.25,255437.359375,257166.21875,115342.0,1.0,1
234267.921875,282303.96875,291375.75,279881.9375,256367.015625,284589.21875,255841.296875,257770.15625,115343.0,1.0,1
235036.5625,283512.03125,292957.96875,280368.0625,257814.15625,285255.84375,256279.125,258409.328125,115344.0,1.0,1
235062.40625,283300.3125,292525.6875,280156.15625,257746.03125,285268.0,256137.5,258218.1875,115345.0,1.0,1
234304.046875,281955.375,290663.875,279530.75,256253.203125,284605.65625,255601.421875,257433.375,115346.0,1.0,1
233805.0625,281322.8125,289932.4375,279348.8125,255389.703125,284180.28125,255401.6875,257142.796875,115347.0,1.0,1
234260.953125,282287.875,291345.96875,279860.46875,256352.96875,284585.09375,255814.125,257749.78125,115348.0,1.0,1
235037.90625,283511.59375,292939.21875,280354.71875,257806.28125,285258.4375,256274.921875,258416.484375,115349.0,1.0,1
235074.734375,283324.375,292535.34375,280158.84375,257762.921875,285286.78125,256167.640625,258244.203125,115350.0,1.0,1
234315.859375,281979.59375,290680.15625,279535.03125,256274.828125,284632.03125,255650.6875,257463.234375,115351.0,1.0,1
233807.390625,281336.78125,289922.625,279340.84375,255388.359375,284205.5625,255458.015625,257152.890625,115352.0,1.0,1
234261.3125,282297.375,291322.71875,279849.3125,256338.671875,284609.0625,255874.5625,257754.78125,115353.0,1.0,1
235039.421875,283524.84375,292933.84375,280354.28125,257803.875,285284.4375,256337.59375,258435.53125,115354.0,1.0,1
235081.796875,283350.125,292547.78125,280161.53125,257773.5625,285312.96875,256227.265625,258264.578125,115355.0,1.0,1
234329.703125,282014.5625,290696.96875,279543.8125,256288.328125,284660.375,255713.453125,257487.28125,115356.0,1.0,1
233817.859375,281357.875,289921.625,279347.5625,255386.03125,284214.78125,255494.671875,257164.078125,115357.0,1.0,1
234253.796875,282295.65625,291300.71875,279843.9375,256312.203125,284597.34375,255887.609375,257746.65625,115358.0,1.0,1
235022.53125,283519.90625,292917.03125,280345.78125,257773.65625,285274.25,256346.984375,258427.390625,115359.0,1.0,1
235078.140625,283362.8125,292555.46875,280160.1875,257762.390625,285310.5625,256224.671875,258269.59375,115360.0,1.0,1
234329.703125,282028.4375,290708.21875,279540.40625,256290.296875,284656.0,255683.3125,257491.03125,115361.0,1.0,1
233811.859375,281357.5,289913.84375,279338.4375,255374.5,284209.78125,255450.234375,257162.015625,115362.0,1.0,1
234245.84375,282284.5625,291285.1875,279839.21875,256293.15625,284602.375,255843.53125,257748.53125,115363.0,1.0,1
235031.203125,283525.8125,292922.75,280356.0625,257773.5625,285291.34375,256311.671875,258447.421875,115364.0,1.0,1
235096.109375,283381.59375,292584.625,280178.5,257784.921875,285331.84375,256194.015625,258288.8125,115365.0,1.0,1
234346.703125,282040.6875,290730.125,279548.8125,256307.375,284663.15625,255649.15625,257502.21875,115366.0,1.0,1
233818.03125,281350.1875,289915.71875,279337.0,255377.09375,284210.9375,255423.953125,257169.625,115367.0,1.0,1
234246.828125,282269.375,291278.125,279836.625,256286.8125,284599.84375,255823.0625,257755.234375,115368.0,1.0,1
235029.765625,283508.8125,292918.09375,280349.375,257762.921875,285275.15625,256282.34375,258445.546875,115369.0,1.0,1
235097.71875,283376.21875,292596.15625,280174.46875,257789.125,285332.09375,256186.5,258293.109375,115370.0,1.0,1
234357.25,282048.09375,290749.1875,279553.28125,256325.34375,284679.25,255669.375,257514.109375,115371.0,1.0,1
233819.734375,281344.09375,289914.375,279335.9375,255380.21875,284220.875,255449.0625,257177.484375,115372.0,1.0,1
234235.921875,282251.3125,291257.5625,279826.34375,256269.375,284594.40625,255844.96875,257750.21875,115373.0,1.0,1
235020.828125,283498.53125,292907.90625,280342.125,257751.125,285277.03125,256323.296875,258434.453125,115374.0,1.0,1
235105.40625,283389.1875,292613.75,280181.28125,257799.9375,285344.96875,256244.796875,258307.5,115375.0,1.0,1
234361.890625,282059.71875,290767.59375,279558.46875,256334.46875,284692.9375,255715.59375,257523.671875,115376.0,1.0,1
233813.65625,281340.09375,289909.84375,279328.5,255369.046875,284217.375,255468.296875,257154.421875,115377.0,1.0,1
234226.0,282241.125,291245.125,279822.5,256254.171875,284588.9375,255858.90625,257730.640625,115378.0,1.0,1
235014.203125,283501.6875,292908.28125,280350.0,257749.875,285280.34375,256335.1875,258430.53125,115379.0,1.0,1
235110.046875,283409.59375,292632.53125,280191.90625,257816.03125,285354.625,256250.515625,258309.640625,115380.0,1.0,1
234376.203125,282084.46875,290791.5625,279566.4375,256357.625,284702.3125,255709.515625,257526.34375,115381.0,1.0,1
233823.21875,281352.34375,289919.46875,279337.625,255385.59375,284224.15625,255460.421875,257166.671875,115382.0,1.0,1
234220.90625,282233.96875,291236.625,279825.15625,256252.84375,284574.8125,255827.0,257733.421875,115383.0,1.0,1
235011.171875,283495.5,292908.09375,280353.65625,257750.40625,285257.28125,256291.28125,258438.125,115384.0,1.0,1
235114.078125,283415.40625,292649.625,280198.8125,257831.40625,285333.53125,256199.375,258309.28125,115385.0,1.0,1
234372.0,282089.03125,290809.4375,279571.25,256380.15625,284690.4375,255671.328125,257532.96875,115386.0,1.0,1
233813.390625,281348.5625,289921.28125,279335.84375,255396.859375,284220.59375,255431.8125,257166.484375,115387.0,1.0,1
234209.546875,282221.90625,291221.6875,279815.25,256246.3125,284572.40625,255812.6875,257722.421875,115388.0,1.0,1
235003.03125,283485.9375,292899.40625,280342.3125,257744.328125,285256.65625,256296.296875,258426.046875,115389.0,1.0,1
235112.375,283417.375,292665.71875,280194.875,257845.09375,285341.125,256226.109375,258309.90625,115390.0,1.0,1
234379.15625,282092.875,290830.0,279571.25,256399.90625,284699.46875,255704.6875,257534.484375,115391.0,1.0,1
233816.6875,281331.6875,289914.75,279324.5,255396.765625,284211.90625,255453.8125,257158.265625,115392.0,1.0,1
234200.421875,282189.53125,291197.28125,279801.28125,256228.875,284565.15625,255841.921875,257715.71875,115393.0,1.0,1
234994.625,283462.5,292880.65625,280336.125,257730.28125,285257.09375,256327.671875,258417.109375,115394.0,1.0,1
235119.265625,283412.53125,292667.21875,280197.5625,257847.328125,285344.0,256245.15625,258308.9375,115395.0,1.0,1
234389.25,282092.34375,290835.1875,279577.25,256409.484375,284704.09375,255724.71875,257544.671875,115396.0,1.0,1
233811.859375,281319.875,289898.125,279319.75,255385.140625,284209.78125,255460.421875,257148.25,115397.0,1.0,1
234188.09375,282166.46875,291162.40625,279784.9375,256196.515625,284542.375,255814.46875,257682.015625,115398.0,1.0,1
234981.046875,283443.90625,292856.0625,280322.09375,257700.6875,285237.40625,256303.703125,258401.28125,115399.0,1.0,1
235104.515625,283409.5,292662.84375,280193.0625,257832.84375,285342.75,256246.765625,258316.171875,115400.0,1.0,1
234378.4375,282093.4375,290837.25,279571.0625,256399.46875,284702.59375,255712.546875,257541.8125,115401.0,1.0,1
233811.6875,281317.625,289896.875,279321.375,255377.09375,284212.375,255451.9375,257156.65625,115402.0,1.0,1
234184.421875,282158.25,291155.71875,279788.6875,256182.828125,284546.40625,255815.28125,257698.015625,115403.0,1.0,1
234975.9375,283439.4375,292857.84375,280324.78125,257691.125,285235.8125,256295.84375,258413.53125,115404.0,1.0,1
235109.875,283421.21875,292684.21875,280196.75,257842.21875,285340.6875,256232.0,258320.90625,115405.0,1.0,1
234389.515625,282113.8125,290863.625,279576.71875,256420.203125,284706.34375,255708.34375,257547.71875,115406.0,1.0,1
233802.203125,281315.65625,289896.875,279314.46875,255378.96875,284204.0625,255446.03125,257150.75,115407.0,1.0,1
234172.796875,282147.875,291137.84375,279778.40625,256172.8125,284540.40625,255820.828125,257685.3125,115408.0,1.0,1
234966.109375,283432.75,292847.65625,280319.5,257689.875,285235.09375,256306.65625,258400.9375,115409.0,1.0,1
235108.4375,283425.0625,292699.15625,280202.03125,257862.796875,285343.53125,256248.375,258326.640625,115410.0,1.0,1
234396.046875,282122.125,290884.375,279583.78125,256448.90625,284715.71875,255726.140625,257563.015625,115411.0,1.0,1
233809.890625,281314.34375,289894.4375,279307.6875,255390.421875,284200.5625,255442.28125,257146.46875,115412.0,1.0,1
234164.03125,282125.6875,291115.9375,279761.5,256163.703125,284524.84375,255796.421875,257663.59375,115413.0,1.0,1
234962.078125,283418.25,292835.9375,280309.9375,257681.390625,285216.125,256286.09375,258393.234375,115414.0,1.0,1
235115.5,283427.09375,292708.4375,280202.65625,257869.9375,285342.03125,256243.890625,258333.78125,115415.0,1.0,1
234404.09375,282124.4375,290895.53125,279581.25,256456.59375,284718.40625,255721.765625,257555.59375,115416.0,1.0,1
233808.015625,281305.3125,289888.71875,279304.375,255384.515625,284209.40625,255447.109375,257140.46875,115417.0,1.0,1
234167.34375,282119.625,291101.71875,279762.75,256149.578125,284534.0625,255800.171875,257665.375,115418.0,1.0,1
234966.46875,283416.8125,292827.625,280312.4375,257668.859375,285225.78125,256285.296875,258389.046875,115419.0,1.0,1
235124.890625,283437.5625,292714.15625,280206.21875,257870.75,285356.96875,256241.390625,258325.03125,115420.0,1.0,1
234421.4375,282148.59375,290908.0625,279592.4375,256468.75,284738.875,255726.140625,257564.265625,115421.0,1.0,1
233821.078125,281316.03125,289882.5625,279309.03125,255382.1875,284214.34375,255442.1875,257148.0625,115422.0,1.0,1
234151.96875,282100.5,291066.75,279753.65625,256117.5625,284513.59375,255782.640625,257650.625,115423.0,1.0,1
234948.40625,283403.3125,292803.75,280310.65625,257643.296875,285216.40625,256280.546875,258378.046875,115424.0,1.0,1
235128.03125,283453.9375,292720.78125,280217.65625,257869.9375,285360.96875,256247.65625,258332.359375,115425.0,1.0,1
234432.078125,282167.09375,290916.28125,279598.78125,256474.484375,284736.5625,255727.03125,257565.25,115426.0,1.0,1
233814.28125,281312.0,289871.90625,279308.65625,255377.09375,284208.34375,255439.953125,257136.8125,115427.0,1.0,1
234149.203125,282093.34375,291053.25,279759.46875,256111.390625,284509.375,255788.375,257655.640625,115428.0,1.0,1
234956.546875,283407.4375,292802.0625,280317.1875,257641.953125,285208.53125,256283.6875,258389.484375,115429.0,1.0,1
235137.328125,283468.3125,292739.8125,280227.5,257886.21875,285356.5,256257.9375,258346.484375,115430.0,1.0,1
234443.34375,282187.5625,290944.8125,279610.59375,256504.078125,284743.96875,255740.359375,257588.046875,115431.0,1.0,1
233826.53125,281325.15625,289882.28125,279314.28125,255399.359375,284221.5,255451.75,257154.6875,115432.0,1.0,1
234142.84375,282080.09375,291035.375,279747.65625,256109.609375,284506.0625,255785.328125,257642.671875,115433.0,1.0,1
234948.5,283392.96875,292786.40625,280306.90625,257639.0,285202.8125,256282.15625,258377.328125,115434.0,1.0,1
235145.734375,283474.40625,292752.625,280231.4375,257904.1875,285369.125,256265.359375,258357.03125,115435.0,1.0,1
234458.1875,282199.09375,290968.84375,279619.71875,256530.09375,284765.4375,255747.59375,257601.90625,115436.0,1.0,1
233836.265625,281324.78125,289891.6875,279318.15625,255411.78125,284220.40625,255439.140625,257162.640625,115437.0,1.0,1
234143.828125,282071.0625,291025.4375,279745.15625,256100.40625,284497.3125,255758.421875,257645.078125,115438.0,1.0,1
234943.84375,283387.21875,292782.65625,280304.21875,257628.28125,285198.09375,256255.515625,258372.234375,115439.0,1.0,1
235148.859375,283485.03125,292768.0,280234.03125,257910.625,285370.1875,256245.6875,258356.3125,115440.0,1.0,1
234463.375,282213.84375,290983.53125,279620.6875,256542.515625,284767.84375,255733.5625,257598.140625,115441.0,1.0,1
233831.171875,281325.6875,289883.71875,279310.1875,255406.59375,284226.9375,255432.078125,257142.609375,115442.0,1.0,1
234145.53125,282071.4375,291014.28125,279745.15625,256089.140625,284505.1875,255760.46875,257631.140625,115443.0,1.0,1
234947.59375,283389.5625,292781.125,280315.125,257624.875,285205.15625,256271.171875,258383.859375,115444.0,1.0,1
235151.1875,283493.8125,292784.875,280248.15625,257918.3125,285381.71875,256270.0,258375.625,115445.0,1.0,1
234472.3125,282230.46875,291012.21875,279637.5,256557.453125,284785.28125,255758.59375,257616.296875,115446.0,1.0,1
233837.53125,281331.9375,289889.1875,279312.875,255402.671875,284226.21875,255440.671875,257140.828125,115447.0,1.0,1
234128.984375,282053.0,290989.40625,279730.40625,256060.609375,284491.59375,255763.6875,257606.1875,115448.0,1.0,1
234931.328125,283376.15625,292760.84375,280300.375,257596.984375,285188.25,256263.484375,258355.78125,115449.0,1.0,1
235145.734375,283499.09375,292788.1875,280241.90625,257911.875,285368.21875,256266.703125,258361.0625,115450.0,1.0,1
234464.453125,282236.65625,291014.625,279626.875,256556.015625,284768.65625,255757.875,257614.859375,115451.0,1.0,1
233824.65625,281324.875,289882.28125,279306.34375,255403.5625,284220.25,255443.609375,257141.984375,115452.0,1.0,1
234112.546875,282034.0625,290967.96875,279722.09375,256052.921875,284485.0625,255763.515625,257610.578125,115453.0,1.0,1
234915.59375,283357.46875,292744.3125,280292.9375,257592.0625,285190.21875,256269.203125,258366.421875,115454.0,1.0,1
235143.84375,283495.9375,292791.25,280240.03125,257926.71875,285377.53125,256263.296875,258369.453125,115455.0,1.0,1
234479.109375,282246.40625,291028.84375,279631.875,256587.84375,284782.15625,255751.0,257617.453125,115456.0,1.0,1
233827.25,281317.71875,289872.375,279300.09375,255417.0625,284222.84375,255429.75,257141.640625,115457.0,1.0,1
234103.59375,282011.625,290936.21875,279706.15625,256044.515625,284474.5,255742.0625,257599.75,115458.0,1.0,1
234907.1875,283335.71875,292715.6875,280279.53125,257582.671875,285171.4375,256243.0,258358.46875,115459.0,1.0,1
235141.609375,283489.875,292790.0,280238.5,257936.90625,285374.125,256257.3125,258385.1875,115460.0,1.0,1
234486.078125,282252.84375,291039.9375,279632.0625,256610.203125,284798.625,255749.65625,257625.140625,115461.0,1.0,1
233827.78125,281308.59375,289860.9375,279286.9375,255416.609375,284224.0,255405.890625,257134.125,115462.0,1.0,1
234089.03125,281977.46875,290904.46875,279687.21875,256022.078125,284457.4375,255705.578125,257580.0,115463.0,1.0,1
234889.390625,283305.15625,292691.5625,280261.90625,257560.765625,285155.34375,256218.78125,258333.609375,115464.0,1.0,1
235145.453125,283489.96875,292793.75,280230.90625,257934.5,285369.65625,256251.9375,258372.234375,115465.0,1.0,1
234491.796875,282258.125,291051.46875,279632.21875,256616.640625,284794.40625,255758.234375,257635.25,115466.0,1.0,1
233824.921875,281302.15625,289857.0,279282.90625,255414.109375,284215.78125,255419.921875,257138.234375,115467.0,1.0,1
234082.59375,281965.5625,290884.09375,279677.90625,256003.484375,284442.59375,255718.984375,257575.171875,115468.0,1.0,1
234881.625,283299.96875,292679.9375,280259.25,257543.515625,285144.71875,256232.90625,258333.78125,115469.0,1.0,1
235143.765625,283500.6875,292808.5,280240.90625,257941.46875,285369.28125,256268.03125,258388.234375,115470.0,1.0,1
234493.5,282273.84375,291075.4375,279645.28125,256634.78125,284798.6875,255773.265625,257652.421875,115471.0,1.0,1
233826.796875,281313.96875,289864.6875,279292.84375,255420.1875,284221.65625,255437.09375,257142.890625,115472.0,1.0,1
234075.4375,281963.25,290872.90625,279682.03125,255992.75,284447.5,255733.296875,257575.078125,115473.0,1.0,1
234872.234375,283291.46875,292669.65625,280260.40625,257530.828125,285142.1875,256237.640625,258330.65625,115474.0,1.0,1
235139.921875,283500.6875,292815.5625,280244.9375,257945.40625,285368.84375,256272.6875,258381.703125,115475.0,1.0,1
234496.28125,282277.78125,291083.84375,279643.125,256643.28125,284796.1875,255770.484375,257638.734375,115476.0,1.0,1
233827.25,281304.84375,289859.5,279283.09375,255422.609375,284217.09375,255427.609375,257132.953125,115477.0,1.0,1
234069.09375,281942.59375,290854.21875,279672.28125,255987.03125,284437.40625,255723.453125,257567.03125,115478.0,1.0,1
234865.25,283276.90625,292658.03125,280258.625,257531.0,285138.71875,256234.0625,258327.96875,115479.0,1.0,1
235141.53125,283504.1875,292818.9375,280242.6875,257954.609375,285371.34375,256263.75,258372.046875,115480.0,1.0,1
234507.984375,282290.125,291100.625,279646.71875,256669.203125,284805.9375,255763.328125,257640.25,115481.0,1.0,1
233830.375,281302.8125,289862.34375,279288.0,255441.203125,284221.5625,255416.890625,257131.34375,115482.0,1.0,1
234061.40625,281923.375,290836.1875,279668.78125,255982.375,284435.53125,255703.34375,257549.421875,115483.0,1.0,1
234866.859375,283266.71875,292644.96875,280253.59375,257525.90625,285136.9375,256223.875,258310.984375,115484.0,1.0,1
235146.890625,283505.15625,292829.40625,280250.03125,257970.078125,285378.875,256273.21875,258383.046875,115485.0,1.0,1
234518.09375,282303.875,291118.875,279656.90625,256691.734375,284819.8125,255782.015625,257659.125,115486.0,1.0,1
233838.859375,281309.9375,289862.4375,279288.375,255446.5625,284227.5625,255434.578125,257143.25,115487.0,1.0,1
234060.78125,281914.34375,290813.8125,279660.3125,255964.671875,284428.1875,255704.0625,257547.0,115488.0,1.0,1
234863.015625,283256.6875,292626.90625,280250.21875,257507.390625,285125.9375,256217.4375,258309.375,115489.0,1.0,1
235157.34375,283513.46875,292836.03125,280252.34375,257971.15625,285367.5,256266.78125,258386.453125,115490.0,1.0,1
234533.5625,282319.34375,291134.34375,279657.34375,256699.515625,284815.96875,255783.09375,257670.390625,115491.0,1.0,1
233846.109375,281309.59375,289860.84375,279283.53125,255441.921875,284213.875,255416.890625,257139.125,115492.0,1.0,1
234052.734375,281892.78125,290791.375,279650.1875,255945.71875,284402.09375,255683.21875,257529.03125,115493.0,1.0,1
234850.78125,283236.03125,292608.125,280242.53125,257490.40625,285107.78125,256206.96875,258296.140625,115494.0,1.0,1
235162.53125,283516.96875,292843.90625,280258.53125,257975.625,285370.625,256270.625,258387.609375,115495.0,1.0,1
234547.0625,282332.84375,291155.28125,279667.8125,256717.84375,284822.65625,255784.96875,257669.21875,115496.0,1.0,1
233853.171875,281315.59375,289862.875,279285.34375,255448.890625,284222.84375,255425.015625,257130.640625,115497.0,1.0,1
234048.609375,281886.53125,290775.75,279646.0,255933.203125,284409.5,255691.265625,257523.671875,115498.0,1.0,1
234849.25,283232.90625,292601.4375,280242.34375,257478.875,285111.0,256209.65625,258299.1875,115499.0,1.0,1
235168.4375,283527.96875,292859.09375,280265.6875,257984.65625,285376.28125,256278.3125,258409.6875,115500.0,1.0,1
234559.75,282353.34375,291175.84375,279677.03125,256738.234375,284837.5,255792.21875,257692.640625,115501.0,1.0,1
233859.078125,281319.15625,289863.4375,279281.46875,255457.390625,284225.6875,255404.8125,257122.765625,115502.0,1.0,1
234043.15625,281871.25,290752.21875,279630.4375,255922.390625,284392.78125,255660.875,257508.46875,115503.0,1.0,1
234844.515625,283221.125,292581.21875,280228.125,257469.75,285096.875,256188.375,258284.171875,115504.0,1.0,1
235170.84375,283531.34375,292861.875,280259.40625,257992.34375,285372.15625,256267.140625,258394.9375,115505.0,1.0,1
234562.25,282360.21875,291188.625,279671.125,256753.96875,284835.8125,255785.234375,257682.09375,115506.0,1.0,1
233860.6875,281321.21875,289866.65625,279279.4375,255467.21875,284229.09375,255410.53125,257127.59375,115507.0,1.0,1
234039.765625,281866.0625,290739.0625,279628.46875,255917.5625,284396.28125,255665.078125,257504.53125,115508.0,1.0,1
234838.703125,283217.90625,292567.90625,280225.09375,257460.015625,285095.25,256188.828125,258277.015625,115509.0,1.0,1
235167.28125,283538.875,292870.09375,280260.125,257996.71875,285376.28125,256266.875,258397.265625,115510.0,1.0,1
234565.75,282371.21875,291204.0,279675.21875,256769.609375,284836.0625,255781.65625,257692.921875,115511.0,1.0,1
233855.671875,281319.59375,289860.21875,279274.25,255465.34375,284219.34375,255402.9375,257132.421875,115512.0,1.0,1
234024.46875,281848.4375,290713.34375,279619.53125,255897.453125,284380.8125,255658.734375,257504.625,115513.0,1.0,1
234820.28125,283197.59375,292546.25,280219.8125,257441.5,285080.25,256181.21875,258274.328125,115514.0,1.0,1
235166.65625,283539.40625,292873.59375,280268.4375,257998.953125,285376.1875,256277.15625,258407.015625,115515.0,1.0,1
234579.953125,282389.375,291223.3125,279692.21875,256784.265625,284853.6875,255803.921875,257703.90625,115516.0,1.0,1
233865.78125,281323.625,289866.1875,279284.0,255469.0,284230.4375,255412.140625,257133.40625,115517.0,1.0,1
234023.046875,281832.71875,290697.6875,279614.625,255883.765625,284375.1875,255653.984375,257500.78125,115518.0,1.0,1
234818.3125,283187.3125,292534.375,280216.9375,257428.09375,285077.375,256187.125,258280.3125,115519.0,1.0,1
235167.90625,283544.21875,292878.125,280267.09375,257997.96875,285372.875,256278.765625,258408.890625,115520.0,1.0,1
234582.1875,282396.96875,291234.125,279688.1875,256793.921875,284849.5625,255800.53125,257705.171875,115521.0,1.0,1
233864.34375,281323.8125,289862.8125,279275.59375,255473.390625,284229.8125,255410.453125,257131.703125,115522.0,1.0,1
234011.59375,281820.46875,290674.4375,279602.46875,255868.5625,284373.9375,255647.109375,257483.703125,115523.0,1.0,1
234791.5,283161.03125,292504.875,280197.28125,257402.171875,285062.1875,256167.90625,258255.375,115524.0,1.0,1
235139.734375,283524.03125,292866.0625,280249.84375,257982.6875,285356.5,256255.703125,258390.734375,115525.0,1.0,1
234568.0625,282392.3125,291235.5625,279679.15625,256792.140625,284841.78125,255782.921875,257699.890625,115526.0,1.0,1
233849.765625,281315.125,289855.03125,279265.75,255465.34375,284223.1875,255399.1875,257126.703125,115527.0,1.0,1
233992.5625,281801.34375,290654.15625,279593.78125,255845.765625,284363.90625,255636.46875,257470.03125,115528.0,1.0,1
234794.171875,283161.375,292501.28125,280205.40625,257392.328125,285057.875,256164.5,258250.1875,115529.0,1.0,1
235169.78125,283555.5,292893.34375,280272.46875,258002.171875,285369.90625,256273.765625,258408.53125,115530.0,1.0,1
234591.765625,282420.90625,291267.28125,279694.8125,256817.078125,284853.40625,255797.9375,257710.625,115531.0,1.0,1
233869.265625,281330.34375,289867.71875,279274.25,255479.203125,284226.9375,255403.65625,257123.65625,115532.0,1.0,1
234008.734375,281805.4375,290644.75,279594.78125,255845.765625,284362.75,255641.203125,257465.46875,115533.0,1.0,1
234803.03125,283159.875,292490.84375,280200.5,257382.671875,285051.90625,256168.703125,258239.640625,115534.0,1.0,1
235172.28125,283555.6875,292899.0625,280268.90625,257998.953125,285365.375,256279.390625,258403.515625,115535.0,1.0,1
234603.828125,282437.71875,291290.28125,279702.6875,256828.796875,284866.125,255812.953125,257717.0625,115536.0,1.0,1
233879.359375,281344.09375,289884.0,279283.0,255487.15625,284239.90625,255420.375,257129.46875,115537.0,1.0,1
234001.9375,281794.625,290640.28125,279593.875,255835.125,284354.4375,255646.5625,257459.296875,115538.0,1.0,1
234792.921875,283148.6875,292483.84375,280198.25,257369.796875,285042.25,256173.359375,258238.65625,115539.0,1.0,1
235173.53125,283563.90625,292913.28125,280278.0,258007.0,285372.0625,256296.5625,258418.546875,115540.0,1.0,1
234607.40625,282448.90625,291312.4375,279711.0,256846.953125,284874.53125,255834.859375,257736.09375,115541.0,1.0,1
233871.046875,281334.90625,289881.65625,279276.65625,255489.484375,284232.3125,255426.09375,257129.921875,115542.0,1.0,1
233990.046875,281772.4375,290613.625,279583.0625,255818.859375,284344.0625,255639.0625,257445.890625,115543.0,1.0,1
234778.0,283124.375,292456.21875,280190.21875,257355.671875,285038.3125,256169.78125,258226.671875,115544.0,1.0,1
235179.609375,283565.96875,292913.90625,280283.5625,258021.046875,285380.90625,256295.84375,258417.734375,115545.0,1.0,1
234630.390625,282464.71875,291326.40625,279721.46875,256876.1875,284891.15625,255830.03125,257746.5625,115546.0,1.0,1
233884.640625,281337.9375,289877.71875,279278.25,255503.078125,284248.21875,255414.828125,257138.59375,115547.0,1.0,1
233987.375,281760.03125,290588.53125,279574.65625,255810.625,284350.0625,255620.1875,257447.859375,115548.0,1.0,1
234770.84375,283111.0625,292434.40625,280180.75,257339.578125,285036.875,256146.359375,258222.03125,115549.0,1.0,1
235182.46875,283570.4375,292919.0,280283.5625,258018.984375,285391.1875,256286.90625,258424.265625,115550.0,1.0,1
234637.1875,282476.34375,291346.59375,279727.96875,256890.484375,284906.15625,255831.28125,257758.90625,115551.0,1.0,1
233891.703125,281342.6875,289886.40625,279280.21875,255510.484375,284258.5,255416.078125,257142.34375,115552.0,1.0,1
233992.015625,281754.9375,290581.1875,279573.9375,255800.34375,284350.3125,255631.734375,257449.546875,115553.0,1.0,1
234772.28125,283105.0625,292430.65625,280185.21875,257328.671875,285028.46875,256162.53125,258233.109375,115554.0,1.0,1
235180.328125,283570.59375,292928.03125,280283.8125,258019.25,285378.6875,256303.703125,258422.484375,115555.0,1.0,1
234646.296875,282492.1875,291364.75,279728.34375,256903.453125,284898.65625,255857.84375,257758.90625,115556.0,1.0,1
233901.453125,281354.125,289896.78125,279284.0,255521.578125,284251.71875,255449.0625,257152.265625,115557.0,1.0,1
233979.234375,281741.6875,290566.96875,279568.03125,255791.40625,284334.0625,255641.46875,257434.265625,115558.0,1.0,1
234760.46875,283095.9375,292418.15625,280181.28125,257320.09375,285018.90625,256166.109375,258209.515625,115559.0,1.0,1
235174.96875,283573.8125,292930.0,280289.0,258020.953125,285362.84375,256301.921875,258412.203125,115560.0,1.0,1
234643.34375,282502.46875,291374.59375,279734.96875,256912.9375,284890.0625,255848.265625,257747.453125,115561.0,1.0,1
233888.484375,281352.0625,289888.8125,279283.71875,255524.0,284244.375,255428.421875,257131.0,115562.0,1.0,1
233969.125,281731.9375,290539.34375,279566.96875,255781.578125,284323.84375,255617.15625,257421.203125,115563.0,1.0,1
234753.953125,283089.875,292391.125,280182.34375,257308.203125,285015.4375,256144.390625,258204.953125,115564.0,1.0,1
235178.1875,283584.90625,292927.65625,280299.375,258026.671875,285382.15625,256290.296875,258434.28125,115565.0,1.0,1
234650.765625,282519.90625,291383.6875,279746.84375,256930.28125,284915.03125,255834.859375,257769.890625,115566.0,1.0,1
233899.84375,281370.75,289891.78125,279289.875,255534.625,284267.71875,255413.390625,257141.984375,115567.0,1.0,1
233971.015625,281739.8125,290525.21875,279562.125,255772.8125,284339.78125,255611.078125,257427.734375,115568.0,1.0,1
234743.3125,283087.90625,292372.8125,280171.34375,257289.78125,285015.0625,256142.6875,258204.140625,115569.0,1.0,1
235179.609375,283599.9375,292930.71875,280293.125,258027.03125,285386.0,256303.890625,258433.203125,115570.0,1.0,1
234670.34375,282557.1875,291406.9375,279751.40625,256948.609375,284935.40625,255877.953125,257795.203125,115571.0,1.0,1
233914.0625,281397.03125,289900.34375,279292.03125,255542.40625,284288.625,255461.59375,257167.46875,115572.0,1.0,1
233971.09375,281744.1875,290506.0,279554.25,255757.078125,284349.0625,255649.96875,257430.234375,115573.0,1.0,1
234749.5625,283099.6875,292358.25,280168.75,257271.546875,285033.125,256192.671875,258216.484375,115574.0,1.0,1
235191.859375,283626.40625,292940.1875,280302.59375,258026.21875,285407.375,256358.15625,258456.09375,115575.0,1.0,1
234692.34375,282595.625,291430.1875,279764.0,256962.015625,284955.78125,255928.203125,257815.21875,115576.0,1.0,1
233927.921875,281423.125,289908.5,279291.40625,255542.953125,284295.0625,255493.328125,257175.96875,115577.0,1.0,1
233966.1875,281745.625,290495.1875,279547.125,255737.234375,284348.4375,255661.328125,257436.5,115578.0,1.0,1
234744.5625,283096.03125,292354.5625,280167.40625,257255.53125,285026.25,256184.0,258232.125,115579.0,1.0,1
235196.953125,283632.84375,292951.8125,280298.75,258020.0625,285397.625,256328.296875,258465.578125,115580.0,1.0,1
234691.1875,282604.28125,291448.96875,279756.3125,256965.328125,284957.5625,255886.09375,257821.390625,115581.0,1.0,1
233932.296875,281428.59375,289922.34375,279291.0625,255552.515625,284300.53125,255445.671875,257182.84375,115582.0,1.0,1
233970.5625,281738.375,290490.25,279543.1875,255732.75,284336.8125,255604.375,257424.703125,115583.0,1.0,1
234740.265625,283083.875,292340.09375,280154.375,257236.671875,285012.28125,256133.921875,258206.109375,115584.0,1.0,1
235199.109375,283638.5625,292965.03125,280300.0,258020.859375,285410.5,256313.71875,258462.0,115585.0,1.0,1
234703.4375,282616.71875,291478.21875,279764.0,256981.859375,284974.5625,255881.359375,257825.0625,115586.0,1.0,1
233933.015625,281422.34375,289931.71875,279288.5625,255552.328125,284303.46875,255435.03125,257179.0,115587.0,1.0,1
233963.5,281717.65625,290479.25,279538.875,255714.609375,284338.625,255603.03125,257426.75,115588.0,1.0,1
234730.515625,283058.5625,292326.9375,280152.21875,257213.6875,285006.5625,256129.359375,258195.203125,115589.0,1.0,1
235184.4375,283616.03125,292964.0625,280295.4375,258005.484375,285398.34375,256312.46875,258446.171875,115590.0,1.0,1
234698.0625,282609.03125,291495.46875,279770.1875,256983.375,284973.21875,255897.71875,257824.609375,115591.0,1.0,1
233935.25,281420.625,289946.65625,279296.875,255558.0625,284318.0625,255479.921875,257185.359375,115592.0,1.0,1
233958.578125,281711.375,290478.0,279540.40625,255706.5625,284355.6875,255661.140625,257425.671875,115593.0,1.0,1
234725.25,283058.5625,292328.03125,280156.875,257206.359375,285017.46875,256183.90625,258207.546875,115594.0,1.0,1
235194.640625,283637.65625,292984.90625,280311.625,258016.84375,285407.46875,256353.515625,258471.390625,115595.0,1.0,1
234714.703125,282640.59375,291523.4375,279785.375,257005.5625,284987.96875,255934.546875,257842.859375,115596.0,1.0,1
233942.84375,281439.40625,289953.90625,279301.78125,255566.640625,284316.96875,255483.671875,257186.78125,115597.0,1.0,1
233948.203125,281701.1875,290454.5,279533.0,255691.8125,284329.3125,255626.625,257407.96875,115598.0,1.0,1
234705.671875,283040.6875,292305.03125,280150.78125,257185.984375,284995.5625,256157.625,258190.46875,115599.0,1.0,1
235189.890625,283643.46875,292995.0,280319.9375,258021.9375,285409.09375,256346.8125,258475.859375,115600.0,1.0,1
234721.046875,282658.28125,291547.59375,279797.1875,257023.703125,284994.15625,255916.21875,257860.109375,115601.0,1.0,1
233945.4375,281446.46875,289963.375,279303.65625,255572.625,284314.125,255454.609375,257195.09375,115602.0,1.0,1
233950.625,281699.84375,290448.5,279530.75,255686.53125,284316.96875,255592.296875,257408.421875,115603.0,1.0,1
234701.28125,283031.5625,292292.53125,280145.5,257176.765625,284975.375,256114.703125,258187.515625,115604.0,1.0,1
235192.046875,283644.625,292997.3125,280318.25,258026.578125,285393.15625,256309.875,258463.6875,115605.0,1.0,1
234732.75,282668.9375,291564.9375,279799.15625,257044.984375,284981.8125,255897.625,257854.46875,115606.0,1.0,1
233953.75,281447.28125,289974.46875,279305.09375,255593.375,284311.53125,255449.609375,257188.65625,115607.0,1.0,1
233946.328125,281684.46875,290435.28125,279522.25,255685.109375,284319.65625,255599.546875,257390.90625,115608.0,1.0,1
234702.71875,283020.03125,292281.78125,280140.59375,257175.25,284988.59375,256141.4375,258172.3125,115609.0,1.0,1
235189.359375,283635.4375,293002.6875,280321.09375,258034.71875,285405.25,256341.4375,258477.46875,115610.0,1.0,1
234732.75,282668.65625,291583.0,279807.5625,257065.71875,285000.40625,255938.484375,257885.765625,115611.0,1.0,1
233954.015625,281442.53125,289972.0625,279301.34375,255602.046875,284318.9375,255472.046875,257193.21875,115612.0,1.0,1
233930.953125,281653.53125,290407.125,279506.53125,255669.453125,284308.21875,255597.3125,257366.046875,115613.0,1.0,1
234689.03125,282993.75,292260.25,280131.9375,257156.03125,284977.0625,256131.25,258154.53125,115614.0,1.0,1
235194.28125,283637.125,293007.15625,280321.65625,258033.640625,285405.3125,256338.9375,258466.90625,115615.0,1.0,1
234740.09375,282677.78125,291599.625,279807.46875,257071.71875,285008.09375,255935.71875,257872.796875,115616.0,1.0,1
233961.0,281449.0625,289987.4375,279306.78125,255604.8125,284325.8125,255470.4375,257198.765625,115617.0,1.0,1
233937.296875,281654.625,290403.09375,279512.34375,255656.3125,284307.84375,255588.453125,257377.484375,115618.0,1.0,1
234683.40625,282981.0625,292242.0,280128.25,257131.703125,284962.9375,256104.875,258153.359375,115619.0,1.0,1
235186.234375,283629.25,293001.0625,280316.90625,258020.328125,285395.65625,256309.171875,258469.6875,115620.0,1.0,1
234750.09375,282694.5,291609.8125,279809.0625,257077.890625,285002.71875,255905.765625,257879.15625,115621.0,1.0,1
233963.140625,281455.6875,289981.625,279298.28125,255602.578125,284317.0625,255439.0625,257191.96875,115622.0,1.0,1
233920.3125,281640.3125,290375.90625,279494.09375,255637.8125,284292.65625,255551.265625,257367.46875,115623.0,1.0,1
234661.40625,282967.09375,292216.09375,280114.40625,257112.84375,284947.21875,256078.9375,258150.046875,115624.0,1.0,1
235175.765625,283634.1875,292999.09375,280317.09375,258022.734375,285387.71875,256300.671875,258472.453125,115625.0,1.0,1
234747.515625,282709.0,291623.125,279815.96875,257097.5625,285006.5625,255904.0625,257881.296875,115626.0,1.0,1
233964.921875,281462.75,289987.875,279304.5625,255621.625,284311.15625,255429.671875,257190.09375,115627.0,1.0,1
233908.953125,281621.09375,290359.28125,279491.40625,255636.46875,284277.71875,255548.84375,257361.21875,115628.0,1.0,1
234658.1875,282952.625,292202.21875,280111.53125,257110.609375,284940.15625,256090.921875,258144.875,115629.0,1.0,1
235191.859375,283641.59375,293010.90625,280323.15625,258040.078125,285395.65625,256322.21875,258472.546875,115630.0,1.0,1
234765.21875,282719.09375,291645.84375,279826.59375,257126.703125,285015.78125,255924.625,257891.671875,115631.0,1.0,1
233963.140625,281456.9375,289992.8125,279306.875,255637.625,284332.625,255460.15625,257196.078125,115632.0,1.0,1
233899.65625,281608.03125,290344.25,279482.125,255631.015625,284290.875,255567.796875,257343.78125,115633.0,1.0,1
234653.453125,282942.625,292186.3125,280102.78125,257099.171875,284942.8125,256100.125,258131.015625,115634.0,1.0,1
235180.5,283629.25,293003.125,280313.96875,258029.09375,285392.0,256326.0625,258470.046875,115635.0,1.0,1
234761.09375,282713.71875,291652.09375,279818.71875,257128.046875,285018.375,255934.28125,257887.203125,115636.0,1.0,1
233971.640625,281459.4375,290000.21875,279305.71875,255643.34375,284335.65625,255466.59375,257204.3125,115637.0,1.0,1
233914.0625,281607.84375,290335.59375,279484.09375,255625.46875,284287.1875,255569.328125,257346.640625,115638.0,1.0,1
234652.734375,282928.9375,292170.03125,280101.53125,257082.71875,284935.65625,256093.15625,258119.828125,115639.0,1.0,1
235181.21875,283626.125,293001.53125,280316.90625,258022.296875,285387.0,256313.640625,258467.890625,115640.0,1.0,1
234772.09375,282732.9375,291666.21875,279828.03125,257134.125,285023.03125,255926.859375,257899.796875,115641.0,1.0,1
233976.1875,281470.0625,290000.65625,279302.9375,255637.890625,284334.15625,255453.8125,257202.25,115642.0,1.0,1
233896.53125,281592.5625,290312.0625,279469.40625,255598.921875,284272.4375,255538.203125,257334.390625,115643.0,1.0,1
234630.828125,282914.34375,292146.96875,280092.21875,257054.734375,284921.8125,256071.15625,258113.21875,115644.0,1.0,1
235175.328125,283636.3125,293010.09375,280323.4375,258020.765625,285389.9375,256314.625,258471.390625,115645.0,1.0,1
234774.15625,282751.90625,291687.15625,279835.1875,257146.1875,285028.03125,255923.46875,257903.46875,115646.0,1.0,1
233981.921875,281484.84375,290011.40625,279308.5,255648.0,284336.375,255451.21875,257205.015625,115647.0,1.0,1
233897.875,281590.96875,290299.375,279468.0,255593.640625,284266.0,255538.921875,257336.453125,115648.0,1.0,1
234628.15625,282906.40625,292127.84375,280085.0625,257043.734375,284912.6875,256067.3125,258105.53125,115649.0,1.0,1
235176.296875,283634.1875,293003.65625,280318.34375,258022.65625,285381.46875,256314.078125,258472.28125,115650.0,1.0,1
234778.4375,282756.5625,291699.125,279839.21875,257169.4375,285032.5,255938.578125,257918.765625,115651.0,1.0,1
233985.5,281484.125,290018.0,279311.0625,255672.5,284344.59375,255466.953125,257213.34375,115652.0,1.0,1
233893.046875,281575.5625,290286.84375,279466.46875,255602.40625,284276.5625,255557.703125,257333.765625,115653.0,1.0,1
234619.296875,282884.5,292107.625,280081.78125,257041.3125,284904.75,256076.078125,258103.5625,115654.0,1.0,1
235179.796875,283633.1875,293008.75,280323.625,258035.34375,285388.34375,256329.734375,258475.5,115655.0,1.0,1
234786.9375,282766.5625,291716.75,279845.46875,257191.609375,285040.90625,255946.703125,257919.109375,115656.0,1.0,1
233985.9375,281487.0625,290023.375,279315.5625,255687.609375,284351.5,255473.125,257218.609375,115657.0,1.0,1
233888.484375,281569.125,290272.1875,279462.53125,255596.953125,284270.84375,255551.34375,257327.78125,115658.0,1.0,1
234607.40625,282871.1875,292088.9375,280074.34375,257024.78125,284898.75,256068.125,258092.828125,115659.0,1.0,1
235168.078125,283629.0625,293009.375,280323.625,258031.5,285387.4375,256329.734375,258475.3125,115660.0,1.0,1
234794.984375,282788.28125,291744.625,279853.15625,257208.953125,285056.625,255963.609375,257925.46875,115661.0,1.0,1
233999.4375,281508.25,290043.9375,279314.65625,255696.28125,284358.09375,255468.921875,257208.78125,115662.0,1.0,1
233883.125,281565.84375,290268.15625,279456.8125,255583.1875,284268.25,255539.734375,257321.15625,115663.0,1.0,1
234598.46875,282870.09375,292083.9375,280074.4375,257006.8125,284898.75,256058.28125,258090.15625,115664.0,1.0,1
235162.625,283638.28125,293011.96875,280324.5,258019.609375,285379.5625,256313.015625,258468.703125,115665.0,1.0,1
234792.03125,282800.71875,291757.0625,279858.59375,257208.15625,285052.0,255953.0625,257935.75,115666.0,1.0,1
233989.421875,281512.28125,290050.09375,279317.25,255691.984375,284358.28125,255468.734375,257223.078125,115667.0,1.0,1
233872.03125,281559.9375,290255.65625,279449.3125,255566.109375,284256.625,255534.90625,257312.046875,115668.0,1.0,1
234588.625,282858.21875,292066.0625,280060.5625,256988.65625,284887.40625,256063.75,258072.453125,115669.0,1.0,1
235153.6875,283631.84375,293013.59375,280314.65625,258015.59375,285379.5,256323.65625,258467.09375,115670.0,1.0,1
234800.96875,282811.8125,291778.4375,279857.25,257225.765625,285060.21875,255966.5625,257941.5625,115671.0,1.0,1
234000.328125,281514.25,290060.125,279310.1875,255708.625,284362.9375,255479.015625,257215.03125,115672.0,1.0,1
233868.640625,281542.5,290239.03125,279433.5625,255562.34375,284251.4375,255537.578125,257304.71875,115673.0,1.0,1
234579.6875,282837.03125,292045.84375,280050.28125,256976.140625,284877.28125,256064.09375,258078.96875,115674.0,1.0,1
235162.625,283629.6875,293014.75,280314.9375,258019.78125,285376.0,256329.640625,258471.5625,115675.0,1.0,1
234805.984375,282813.15625,291785.84375,279855.46875,257238.8125,285061.375,255967.546875,257940.3125,115676.0,1.0,1
234000.515625,281513.25,290060.75,279310.0,255720.953125,284373.75,255484.203125,257219.328125,115677.0,1.0,1
233861.75,281527.84375,290223.375,279430.25,255560.03125,284259.75,255537.140625,257297.015625,115678.0,1.0,1
234570.296875,282816.28125,292021.0,280043.84375,256962.28125,284871.75,256052.125,258061.453125,115679.0,1.0,1
235157.703125,283622.90625,293006.71875,280315.5625,258014.953125,285374.84375,256324.546875,258471.203125,115680.0,1.0,1
234816.796875,282823.96875,291797.375,279861.28125,257248.390625,285066.21875,255969.78125,257951.578125,115681.0,1.0,1
234007.484375,281512.71875,290060.9375,279308.03125,255723.734375,284364.53125,255471.0625,257222.640625,115682.0,1.0,1
233855.046875,281505.40625,290200.21875,279419.71875,255542.5,284245.1875,255514.96875,257289.515625,115683.0,1.0,1
234564.046875,282794.46875,291997.9375,280032.59375,256938.046875,284858.96875,256026.90625,258049.65625,115684.0,1.0,1
235153.328125,283608.0625,292999.1875,280309.5625,258003.25,285363.46875,256306.921875,258475.3125,115685.0,1.0,1
234816.171875,282823.25,291807.9375,279861.1875,257255.71875,285065.9375,255964.5,257962.296875,115686.0,1.0,1
234011.515625,281516.5625,290062.53125,279303.9375,255724.53125,284363.28125,255468.46875,257215.578125,115687.0,1.0,1
233853.171875,281496.09375,290177.6875,279409.96875,255523.90625,284233.8125,255512.453125,257274.21875,115688.0,1.0,1
234556.53125,282779.625,291977.53125,280028.3125,256920.078125,284851.28125,256037.453125,258042.3125,115689.0,1.0,1
235156.640625,283612.90625,293005.28125,280314.84375,258004.953125,285374.21875,256329.640625,258471.109375,115690.0,1.0,1
234836.46875,282847.75,291833.6875,279875.15625,257273.6875,285080.5,255986.046875,257972.765625,115691.0,1.0,1
234026.265625,281530.34375,290077.90625,279313.9375,255736.515625,284365.6875,255480.625,257232.109375,115692.0,1.0,1
233856.75,281495.65625,290173.125,279412.03125,255521.484375,284234.71875,255526.578125,257277.265625,115693.0,1.0,1
234545.8125,282766.75,291957.15625,280021.15625,256904.25,284841.34375,256041.75,258041.0625,115694.0,1.0,1
235147.25,283606.09375,292998.84375,280312.625,257998.6875,285361.96875,256326.78125,258471.828125,115695.0,1.0,1
234837.09375,282855.15625,291848.15625,279878.53125,257289.6875,285085.875,255994.1875,257972.046875,115696.0,1.0,1
234026.265625,281531.15625,290086.84375,279310.4375,255751.890625,284374.46875,255484.828125,257224.15625,115697.0,1.0,1
233841.546875,281470.53125,290156.78125,279399.59375,255516.125,284224.875,255507.625,257264.828125,115698.0,1.0,1
234527.03125,282736.0,291935.34375,280008.90625,256890.75,284829.625,256021.984375,258021.125,115699.0,1.0,1
235140.0,283596.25,292996.4375,280308.5,258003.15625,285362.84375,256325.890625,258466.375,115700.0,1.0,1
234835.03125,282859.90625,291859.625,279879.96875,257307.75,285083.1875,255990.421875,257980.53125,115701.0,1.0,1
234031.8125,281544.1875,290099.09375,279319.40625,255772.09375,284380.71875,255487.328125,257242.390625,115702.0,1.0,1
233838.859375,281469.1875,290147.84375,279401.1875,255517.46875,284226.6875,255508.171875,257271.453125,115703.0,1.0,1
234522.65625,282731.96875,291923.53125,280011.3125,256888.25,284828.5625,256019.671875,258025.875,115704.0,1.0,1
235143.40625,283603.15625,293003.03125,280317.625,258011.921875,285363.3125,256320.515625,258474.953125,115705.0,1.0,1
234843.890625,282871.0,291877.59375,279888.1875,257324.296875,285087.65625,255983.1875,257984.109375,115706.0,1.0,1
234046.015625,281554.75,290111.71875,279326.1875,255790.6875,284388.78125,255485.90625,257238.015625,115707.0,1.0,1
233852.453125,281472.65625,290141.40625,279403.34375,255520.234375,284222.125,255502.984375,257260.359375,115708.0,1.0,1
234529.171875,282730.4375,291908.96875,280008.90625,256875.921875,284813.71875,256015.640625,258015.671875,115709.0,1.0,1
235148.3125,283608.78125,293001.25,280319.5,258005.484375,285350.0625,256319.53125,258469.421875,115710.0,1.0,1
234856.765625,282891.5625,291891.4375,279895.71875,257334.65625,285088.03125,255995.34375,257982.859375,115711.0,1.0,1
234051.03125,281566.09375,290115.46875,279325.84375,255792.296875,284387.59375,255492.4375,257236.21875,115712.0,1.0,1
233834.03125,281455.15625,290117.0625,279389.3125,255495.46875,284210.21875,255497.4375,257243.203125,115713.0,1.0,1
234510.140625,282709.96875,291882.15625,279998.71875,256845.0625,284805.125,256007.78125,257994.390625,115714.0,1.0,1
235154.9375,283616.28125,293006.15625,280326.75,258001.640625,285355.625,256330.984375,258474.0625,115715.0,1.0,1
234878.046875,282918.375,291920.3125,279913.78125,257355.046875,285107.78125,256013.140625,258008.515625,115716.0,1.0,1
234061.125,281577.90625,290128.15625,279332.8125,255803.125,284396.46875,255494.21875,257241.5,115717.0,1.0,1
233842.078125,281457.125,290112.5,279392.625,255496.359375,284217.90625,255496.90625,257243.015625,115718.0,1.0,1
234507.453125,282701.125,291871.25,279997.09375,256840.875,284808.96875,256004.015625,257995.375,115719.0,1.0,1
235146.625,283611.375,293007.59375,280322.4375,258001.453125,285360.53125,256324.90625,258476.5625,115720.0,1.0,1
234869.375,282915.15625,291931.9375,279906.71875,257359.609375,285108.6875,256001.515625,258005.75,115721.0,1.0,1
234059.078125,281577.0,290138.09375,279326.1875,255808.125,284401.03125,255484.46875,257242.578125,115722.0,1.0,1
233838.5,281449.25,290103.40625,279381.4375,255486.0,284214.59375,255482.5,257240.0625,115723.0,1.0,1
234504.234375,282692.28125,291856.84375,279990.75,256827.640625,284801.03125,255993.203125,257993.953125,115724.0,1.0,1
235140.453125,283606.46875,293003.75,280320.21875,257999.140625,285351.0625,256312.65625,258473.96875,115725.0,1.0,1
234874.828125,282927.84375,291948.9375,279909.5625,257378.828125,285107.6875,255999.640625,258010.484375,115726.0,1.0,1
234070.421875,281591.40625,290151.5,279328.78125,255831.1875,284402.0,255487.96875,257249.28125,115727.0,1.0,1
233832.875,281440.3125,290090.59375,279374.5625,255486.703125,284206.375,255480.984375,257238.640625,115728.0,1.0,1
234492.703125,282677.875,291834.03125,279976.34375,256812.609375,284788.59375,255986.046875,257977.234375,115729.0,1.0,1
235139.828125,283605.65625,292999.03125,280312.875,257994.84375,285352.125,256318.015625,258458.515625,115730.0,1.0,1
234885.1875,282940.375,291961.375,279915.65625,257389.375,285118.40625,256006.875,258005.390625,115731.0,1.0,1
234082.5,281605.25,290164.28125,279340.40625,255847.203125,284415.15625,255495.109375,257250.796875,115732.0,1.0,1
233838.6875,281442.09375,290081.75,279377.34375,255483.3125,284207.90625,255475.890625,257228.171875,115733.0,1.0,1
234496.71875,282676.34375,291818.5,279979.5625,256800.8125,284783.3125,255977.015625,257966.765625,115734.0,1.0,1
235150.109375,283614.6875,292998.84375,280322.90625,257994.390625,285349.0,256311.3125,258465.65625,115735.0,1.0,1
234905.140625,282965.5,291983.4375,279930.9375,257409.9375,285126.71875,256007.78125,258023.09375,115736.0,1.0,1
234092.6875,281615.71875,290173.59375,279344.0625,255855.78125,284415.15625,255490.90625,257260.71875,115737.0,1.0,1
233832.703125,281428.15625,290068.53125,279377.5,255474.375,284204.3125,255476.703125,257239.890625,115738.0,1.0,1
234481.171875,282652.5625,291792.5625,279974.3125,256778.109375,284776.34375,255975.40625,257963.015625,115739.0,1.0,1
235149.03125,283614.5,292990.96875,280323.6875,257989.75,285349.09375,256317.65625,258452.703125,115740.0,1.0,1
234915.421875,282982.75,291995.4375,279940.875,257429.875,285136.9375,256034.859375,258030.34375,115741.0,1.0,1
234106.1875,281633.15625,290182.6875,279352.84375,255879.109375,284427.3125,255508.25,257269.3125,115742.0,1.0,1
233837.96875,281429.5625,290051.28125,279369.625,255476.0625,284205.3125,255472.765625,257223.34375,115743.0,1.0,1
234480.890625,282648.375,291771.0,279966.0625,256772.921875,284782.96875,255979.25,257957.921875,115744.0,1.0,1
235146.078125,283612.0,292986.59375,280319.40625,257991.359375,285354.71875,256320.96875,258468.25,115745.0,1.0,1
234904.5,282973.8125,291997.3125,279929.3125,257433.015625,285132.71875,256023.515625,258040.359375,115746.0,1.0,1
234091.703125,281621.71875,290177.4375,279337.625,255878.578125,284426.0625,255509.15625,257278.0625,115747.0,1.0,1
233825.28125,281415.71875,290032.6875,279355.96875,255467.125,284199.84375,255471.78125,257223.890625,115748.0,1.0,1
234451.84375,282615.8125,291737.21875,279944.53125,256749.140625,284753.46875,255954.046875,257944.15625,115749.0,1.0,1
235111.75,283581.5,292960.84375,280299.5625,257969.546875,285326.1875,256293.96875,258444.109375,115750.0,1.0,1
234906.5625,282988.65625,292006.6875,279933.34375,257444.359375,285137.0,256020.828125,258034.625,115751.0,1.0,1
234100.734375,281638.875,290185.03125,279342.5625,255891.640625,284431.59375,255505.84375,257268.859375,115752.0,1.0,1
233816.953125,281409.0,290013.53125,279346.46875,255454.796875,284190.46875,255456.40625,257205.46875,115753.0,1.0,1
234445.578125,282605.71875,291715.40625,279935.59375,256727.59375,284746.40625,255941.609375,257920.28125,115754.0,1.0,1
235122.296875,283587.25,292962.1875,280301.4375,257963.375,285327.28125,256293.078125,258440.53125,115755.0,1.0,1
234908.796875,282990.875,292020.90625,279934.4375,257445.265625,285139.25,256024.3125,258040.4375,115756.0,1.0,1
234102.53125,281638.34375,290194.40625,279341.5625,255887.96875,284435.15625,255510.484375,257274.765625,115757.0,1.0,1
233820.8125,281398.46875,290007.71875,279344.15625,255436.1875,284186.71875,255450.59375,257199.21875,115758.0,1.0,1
234448.0,282595.25,291708.875,279935.59375,256708.1875,284744.34375,255939.734375,257923.671875,115759.0,1.0,1
235125.25,283590.53125,292970.40625,280306.1875,257955.0625,285335.3125,256303.796875,258455.734375,115760.0,1.0,1
234922.03125,283008.25,292042.375,279942.03125,257448.125,285139.78125,256031.28125,258057.96875,115761.0,1.0,1
234108.96875,281647.28125,290207.8125,279345.3125,255889.9375,284428.28125,255510.140625,257277.625,115762.0,1.0,1
233805.875,281381.75,289997.71875,279339.5,255424.65625,284181.53125,255458.8125,257191.078125,115763.0,1.0,1
234427.078125,282574.4375,291690.09375,279929.6875,256687.171875,284739.4375,255954.21875,257918.40625,115764.0,1.0,1
235115.859375,283583.65625,292966.28125,280307.0625,257947.375,285332.0,256316.046875,258450.8125,115765.0,1.0,1
234923.28125,283011.46875,292054.0,279943.28125,257458.9375,285142.8125,256039.78125,258049.03125,115766.0,1.0,1
234117.90625,281650.21875,290219.90625,279348.1875,255910.140625,284435.78125,255516.921875,257279.59375,115767.0,1.0,1
233807.65625,281369.9375,289984.84375,279335.40625,255430.296875,284176.4375,255453.359375,257187.3125,115768.0,1.0,1
234425.734375,282554.21875,291665.59375,279921.0,256681.984375,284723.15625,255936.515625,257902.21875,115769.0,1.0,1
235114.96875,283569.8125,292956.09375,280301.71875,257951.921875,285322.4375,256297.09375,258446.265625,115770.0,1.0,1
234930.25,283017.8125,292064.625,279946.84375,257483.53125,285152.125,256032.09375,258058.328125,115771.0,1.0,1
234124.96875,281658.5625,290223.03125,279347.46875,255928.734375,284438.3125,255501.8125,257286.5625,115772.0,1.0,1
233806.859375,281364.65625,289970.8125,279327.625,255428.953125,284171.96875,255433.15625,257183.75,115773.0,1.0,1
234413.84375,282538.125,291644.78125,279910.28125,256665.359375,284716.71875,255910.765625,257895.953125,115774.0,1.0,1
235115.78125,283573.46875,292957.34375,280303.21875,257946.390625,285322.53125,256287.890625,258452.703125,115775.0,1.0,1
234947.328125,283040.15625,292091.34375,279960.625,257498.90625,285161.6875,256040.671875,258077.015625,115776.0,1.0,1
234140.875,281675.09375,290244.46875,279359.625,255943.40625,284448.84375,255515.59375,257295.234375,115777.0,1.0,1
233810.703125,281364.9375,289965.09375,279330.03125,255423.59375,284170.96875,255439.40625,257182.84375,115778.0,1.0,1
234416.53125,282542.15625,291633.40625,279913.9375,256656.0625,284713.21875,255926.0625,257894.96875,115779.0,1.0,1
235112.375,283584.1875,292958.6875,280307.78125,257947.09375,285322.8125,256305.953125,258449.5625,115780.0,1.0,1
234931.953125,283049.71875,292101.0,279961.4375,257503.734375,285155.625,256041.125,258073.96875,115781.0,1.0,1
234127.296875,281684.03125,290256.375,279359.4375,255949.21875,284442.875,255514.96875,257293.890625,115782.0,1.0,1
233802.65625,281371.46875,289962.9375,279331.28125,255421.703125,284164.28125,255444.15625,257179.984375,115783.0,1.0,1
234408.203125,282539.28125,291621.0625,279915.75,256645.328125,284702.6875,255923.28125,257888.0,115784.0,1.0,1
235114.25,283587.875,292960.46875,280317.34375,257947.8125,285318.78125,256307.640625,258453.59375,115785.0,1.0,1
234960.296875,283078.40625,292128.71875,279981.4375,257532.703125,285168.65625,256059.984375,258089.609375,115786.0,1.0,1
234147.765625,281702.0,290271.3125,279373.46875,255975.234375,284460.28125,255522.921875,257299.078125,115787.0,1.0,1
233808.90625,281367.53125,289953.46875,279333.4375,255424.125,284172.59375,255435.21875,257175.875,115788.0,1.0,1
234404.625,282526.6875,291599.4375,279908.9375,256632.28125,284703.40625,255904.78125,257876.375,115789.0,1.0,1
235120.0625,283595.0,292954.40625,280316.90625,257945.671875,285328.78125,256298.609375,258450.1875,115790.0,1.0,1
234966.828125,283093.4375,292142.3125,279988.0625,257545.65625,285185.5625,256060.25,258099.984375,115791.0,1.0,1
234154.46875,281714.15625,290278.46875,279374.03125,255979.875,284463.78125,255517.203125,257306.234375,115792.0,1.0,1
233812.046875,281368.78125,289938.09375,279327.96875,255411.078125,284175.875,255441.828125,257177.3125,115793.0,1.0,1
234403.5625,282524.09375,291581.28125,279907.96875,256614.40625,284709.84375,255923.28125,257876.640625,115794.0,1.0,1
235116.3125,283598.84375,292951.28125,280317.71875,257935.484375,285332.90625,256321.140625,258458.6875,115795.0,1.0,1
