FZ,C3,CZ,C4,PZ,PO7,OZ,PO8,Counter,Validation,Label
238001.296875,255368.875,241039.53125,249871.140625,225092.359375,254371.171875,229004.71875,229799.28125,383354.0,1.0,3
237943.1875,255330.515625,241022.265625,249857.921875,225075.28125,254349.71875,228999.53125,229771.828125,383355.0,1.0,3
237875.765625,255312.359375,241015.828125,249852.90625,225080.734375,254350.078125,229006.421875,229770.046875,383356.0,1.0,3
237886.59375,255331.859375,241025.3125,249858.8125,225097.1875,254362.15625,229011.609375,229788.28125,383357.0,1.0,3
237958.828125,255359.21875,241036.21875,249867.921875,225099.59375,254372.875,229008.921875,229801.78125,383358.0,1.0,3
238000.484375,255366.1875,241035.234375,249869.09375,225089.765625,254371.984375,229002.484375,229798.109375,383359.0,1.0,3
237946.578125,255337.3125,241021.46875,249859.796875,225079.484375,254354.453125,228999.53125,229777.28125,383360.0,1.0,3
237882.296875,255326.578125,241018.0625,249856.75,225086.453125,254355.71875,229007.9375,229773.53125,383361.0,1.0,3
237887.03125,255342.5,241025.484375,249862.203125,225097.8125,254367.78125,229010.984375,229787.203125,383362.0,1.0,3
237957.578125,255365.65625,241039.53125,249871.953125,225101.125,254378.515625,229009.375,229802.046875,383363.0,1.0,3
237998.078125,255367.796875,241040.59375,249873.203125,225088.609375,254373.234375,229002.65625,229794.984375,383364.0,1.0,3
237948.453125,255343.5625,241023.25,249860.6875,225071.890625,254352.765625,228994.703125,229767.625,383365.0,1.0,3
237889.265625,255337.125,241023.15625,249862.5625,225087.53125,254358.578125,229011.0625,229775.59375,383366.0,1.0,3
237894.640625,255352.421875,241032.1875,249868.46875,225105.59375,254372.703125,229020.90625,229796.328125,383367.0,1.0,3
237964.1875,255377.359375,241043.453125,249877.40625,225111.578125,254385.3125,229019.375,229813.859375,383368.0,1.0,3
238002.1875,255379.328125,241040.15625,249875.34375,225097.90625,254382.4375,229014.109375,229804.90625,383369.0,1.0,3
237943.546875,255341.328125,241022.1875,249860.59375,225076.4375,254358.484375,229004.71875,229776.296875,383370.0,1.0,3
237875.59375,255322.015625,241012.4375,249853.53125,225083.78125,254353.125,229007.40625,229773.0,383371.0,1.0,3
237883.8125,255340.625,241020.578125,249858.546875,225103.890625,254369.21875,229013.296875,229792.390625,383372.0,1.0,3
237950.515625,255358.40625,241031.75,249866.9375,225104.515625,254381.375,229011.875,229807.0625,383373.0,1.0,3
237995.390625,255361.453125,241032.640625,249866.140625,225090.21875,254378.328125,229005.078125,229800.0,383374.0,1.0,3
237942.640625,255327.75,241015.296875,249854.78125,225070.984375,254356.609375,228997.828125,229769.859375,383375.0,1.0,3
237872.734375,255308.4375,241004.125,249846.921875,225077.421875,254350.25,228999.171875,229764.234375,383376.0,1.0,3
237878.359375,255324.171875,241014.3125,249854.15625,225096.65625,254365.8125,229007.578125,229785.421875,383377.0,1.0,3
237953.90625,255355.109375,241028.53125,249865.96875,225101.921875,254379.140625,229008.5625,229804.109375,383378.0,1.0,3
237997.1875,255361.890625,241028.265625,249867.03125,225089.765625,254376.09375,229002.21875,229796.59375,383379.0,1.0,3
237940.5,255324.53125,241013.78125,249856.125,225069.5625,254356.34375,228998.640625,229766.5625,383380.0,1.0,3
237866.46875,255293.859375,241003.140625,249846.734375,225064.734375,254348.46875,228999.09375,229752.515625,383381.0,1.0,3
237879.25,255317.640625,241011.09375,249853.890625,225086.640625,254363.40625,229006.59375,229774.515625,383382.0,1.0,3
237953.46875,255347.5,241026.734375,249866.671875,225094.5,254377.796875,229007.84375,229796.234375,383383.0,1.0,3
237988.953125,255345.53125,241024.0625,249863.546875,225076.625,254371.453125,228996.5,229786.3125,383384.0,1.0,3
237941.3125,255322.46875,241013.0625,249854.515625,225062.765625,254352.671875,228991.3125,229761.28125,383385.0,1.0,3
237873.0,255302.984375,241005.734375,249848.078125,225066.4375,254344.453125,228995.59375,229753.953125,383386.0,1.0,3
237885.421875,255323.625,241017.625,249859.25,225089.9375,254363.125,229010.703125,229780.234375,383387.0,1.0,3
237963.03125,255358.671875,241031.75,249869.8125,225098.890625,254377.890625,229010.625,229798.5625,383388.0,1.0,3
238006.390625,255365.46875,241034.25,249871.859375,225090.484375,254378.421875,229005.703125,229792.84375,383389.0,1.0,3
237954.890625,255332.65625,241020.125,249862.203125,225076.09375,254359.90625,229001.234375,229767.453125,383390.0,1.0,3
237886.40625,255313.625,241014.765625,249857.109375,225082.703125,254355.359375,229007.140625,229760.46875,383391.0,1.0,3
237888.734375,255326.765625,241022.53125,249862.203125,225098.078125,254366.0,229016.875,229777.546875,383392.0,1.0,3
237956.6875,255350.0,241033.71875,249868.640625,225099.78125,254376.546875,229013.84375,229795.4375,383393.0,1.0,3
237997.90625,255350.0,241030.140625,249865.0625,225085.296875,254371.265625,228999.171875,229785.875,383394.0,1.0,3
237947.828125,255318.0,241015.390625,249856.03125,225070.71875,254352.5,228995.234375,229765.03125,383395.0,1.0,3
237877.640625,255299.84375,241005.546875,249848.609375,225075.734375,254348.5625,229000.96875,229758.78125,383396.0,1.0,3
237881.21875,255311.734375,241011.71875,249853.984375,225091.46875,254361.875,229009.375,229776.125,383397.0,1.0,3
237954.265625,255337.75,241025.84375,249865.0625,225096.734375,254374.3125,229004.71875,229792.125,383398.0,1.0,3
237988.328125,255331.859375,241022.265625,249862.03125,225075.640625,254364.5625,228990.328125,229776.65625,383399.0,1.0,3
237940.859375,255302.359375,241009.390625,249852.375,225060.984375,254345.703125,228990.5,229755.65625,383400.0,1.0,3
237879.53125,255295.109375,241007.0625,249850.40625,225073.765625,254346.953125,229000.703125,229754.125,383401.0,1.0,3
237886.5,255320.140625,241020.390625,249861.140625,225097.359375,254364.296875,229010.703125,229776.21875,383402.0,1.0,3
237957.671875,255345.359375,241030.859375,249866.671875,225099.0625,254375.203125,229006.953125,229788.8125,383403.0,1.0,3
237999.15625,255343.921875,241029.0625,249864.703125,225081.546875,254366.53125,228994.53125,229776.125,383404.0,1.0,3
237946.9375,255312.71875,241012.96875,249853.265625,225063.84375,254344.890625,228986.125,229749.390625,383405.0,1.0,3
237870.765625,255287.78125,241005.1875,249847.71875,225067.953125,254342.65625,228991.75,229741.609375,383406.0,1.0,3
237873.890625,255307.71875,241015.203125,249855.671875,225087.359375,254359.203125,229002.9375,229762.71875,383407.0,1.0,3
237948.71875,255343.65625,241030.859375,249866.671875,225096.65625,254376.0,229006.234375,229786.046875,383408.0,1.0,3
237993.078125,255349.296875,241031.296875,249867.484375,225084.484375,254371.53125,228994.53125,229777.828125,383409.0,1.0,3
237940.140625,255317.015625,241010.921875,249852.734375,225062.671875,254345.515625,228981.921875,229747.328125,383410.0,1.0,3
237874.703125,255308.078125,241005.734375,249850.765625,225073.21875,254346.234375,228993.984375,229750.375,383411.0,1.0,3
237873.171875,255320.40625,241015.109375,249857.5625,225089.140625,254359.90625,229002.21875,229766.015625,383412.0,1.0,3
237947.390625,255348.3125,241034.34375,249869.53125,225098.34375,254378.328125,229007.765625,229786.140625,383413.0,1.0,3
237991.28125,255350.28125,241033.4375,249868.46875,225086.1875,254376.8125,229000.96875,229780.859375,383414.0,1.0,3
237941.21875,255318.53125,241011.8125,249853.71875,225067.59375,254348.296875,228986.921875,229754.484375,383415.0,1.0,3
237877.015625,255305.296875,241007.96875,249852.1875,225079.484375,254346.6875,228995.328125,229758.328125,383416.0,1.0,3
237881.9375,255323.546875,241020.65625,249861.578125,225102.015625,254367.875,229010.0,229782.109375,383417.0,1.0,3
237946.9375,255341.515625,241029.953125,249866.765625,225101.296875,254378.15625,229006.421875,229792.65625,383418.0,1.0,3
237981.625,255331.859375,241024.953125,249861.671875,225075.1875,254369.03125,228988.890625,229774.421875,383419.0,1.0,3
237919.671875,255280.890625,241003.578125,249845.125,225040.140625,254342.21875,228972.53125,229728.109375,383420.0,1.0,3
237843.140625,255251.5625,240992.859375,249836.8125,225034.515625,254334.96875,228971.734375,229710.671875,383421.0,1.0,3
237848.859375,255269.71875,241003.765625,249846.5625,225051.234375,254351.953125,228982.375,229731.0625,383422.0,1.0,3
237922.96875,255302.890625,241018.421875,249859.34375,225061.328125,254369.484375,228988.453125,229754.671875,383423.0,1.0,3
237969.203125,255310.84375,241019.40625,249861.140625,225053.46875,254366.34375,228979.59375,229750.828125,383424.0,1.0,3
237919.21875,255274.28125,241005.375,249849.0625,225031.46875,254344.09375,228970.46875,229719.96875,383425.0,1.0,3
237854.21875,255260.15625,241003.046875,249846.109375,225039.703125,254344.171875,228983.625,229721.3125,383426.0,1.0,3
237853.0625,255272.9375,241008.046875,249849.234375,225055.078125,254356.6875,228989.96875,229738.390625,383427.0,1.0,3
237928.78125,255310.125,241021.546875,249859.703125,225065.71875,254372.34375,228991.046875,229761.546875,383428.0,1.0,3
237986.1875,255340.4375,241026.65625,249865.96875,225072.515625,254378.15625,228995.515625,229780.234375,383429.0,1.0,3
237945.5,255328.1875,241013.78125,249859.53125,225068.671875,254360.265625,228996.140625,229774.25,383430.0,1.0,3
237877.203125,255313.171875,241005.375,249854.78125,225077.25,254355.53125,229004.453125,229774.875,383431.0,1.0,3
237877.296875,255330.875,241012.703125,249857.5625,225095.40625,254368.765625,229010.4375,229789.71875,383432.0,1.0,3
237943.359375,255352.59375,241023.96875,249864.890625,225097.359375,254380.125,229007.578125,229800.53125,383433.0,1.0,3
237991.1875,255355.8125,241024.765625,249864.703125,225085.65625,254374.578125,228999.359375,229792.84375,383434.0,1.0,3
237947.109375,255327.203125,241013.5,249857.46875,225070.984375,254353.828125,228995.78125,229767.546875,383435.0,1.0,3
237881.40625,255311.296875,241010.28125,249858.265625,225082.4375,254354.640625,229006.0625,229767.546875,383436.0,1.0,3
237887.03125,255331.671875,241022.890625,249866.671875,225106.75,254371.53125,229016.703125,229793.28125,383437.0,1.0,3
237959.8125,255363.328125,241037.296875,249874.453125,225112.921875,254384.046875,229016.875,229808.3125,383438.0,1.0,3
238005.765625,255367.0,241035.953125,249872.390625,225099.59375,254378.953125,229005.078125,229798.5625,383439.0,1.0,3
237954.171875,255328.375,241017.703125,249857.640625,225077.421875,254355.796875,228994.890625,229767.09375,383440.0,1.0,3
237888.828125,255309.421875,241011.984375,249853.71875,225084.21875,254352.9375,229003.828125,229761.734375,383441.0,1.0,3
237889.09375,255324.25,241019.59375,249859.34375,225101.03125,254362.953125,229007.671875,229776.65625,383442.0,1.0,3
237949.34375,255341.25,241026.65625,249864.703125,225100.9375,254369.921875,229000.703125,229784.53125,383443.0,1.0,3
237993.703125,255343.484375,241027.28125,249865.515625,225085.109375,254367.15625,228992.296875,229772.09375,383444.0,1.0,3
237944.171875,255309.140625,241010.5625,249853.4375,225066.25,254346.5,228984.25,229747.15625,383445.0,1.0,3
237877.109375,255295.734375,241004.296875,249849.875,225075.8125,254343.90625,228992.5625,229749.03125,383446.0,1.0,3
237879.078125,255315.234375,241013.59375,249855.328125,225094.59375,254357.140625,229002.65625,229772.1875,383447.0,1.0,3
237947.5625,255340.890625,241026.296875,249861.9375,225096.03125,254369.84375,229000.421875,229784.4375,383448.0,1.0,3
237988.78125,255339.546875,241024.5,249859.25,225073.765625,254359.734375,228984.6875,229769.328125,383449.0,1.0,3
237936.03125,255302.0,241005.640625,249844.0625,225050.515625,254336.046875,228975.296875,229737.234375,383450.0,1.0,3
237870.859375,255290.8125,241000.0,249841.828125,225060.703125,254335.0625,228981.828125,229732.484375,383451.0,1.0,3
237871.828125,255309.421875,241009.578125,249851.75,225082.796875,254352.5,228992.109375,229752.515625,383452.0,1.0,3
237943.1875,255337.84375,241022.8125,249862.921875,225090.921875,254366.34375,228992.921875,229772.28125,383453.0,1.0,3
237992.359375,255340.890625,241023.15625,249862.46875,225076.984375,254362.5,228982.640625,229767.546875,383454.0,1.0,3
237944.875,255305.484375,241007.15625,249850.765625,225057.765625,254343.46875,228976.109375,229738.75,383455.0,1.0,3
237874.703125,255286.171875,241002.421875,249847.0,225066.15625,254342.75,228987.90625,229737.859375,383456.0,1.0,3
237868.171875,255299.484375,241008.59375,249849.421875,225080.203125,254354.28125,228996.578125,229758.515625,383457.0,1.0,3
237935.5,255325.421875,241020.125,249857.203125,225086.015625,254366.703125,228993.625,229776.296875,383458.0,1.0,3
237986.015625,255334.8125,241021.46875,249858.453125,225075.46875,254363.765625,228985.40625,229772.015625,383459.0,1.0,3
237941.75,255305.921875,241006.71875,249848.265625,225060.078125,254348.015625,228983.53125,229749.75,383460.0,1.0,3
237871.5625,255285.984375,240999.734375,249844.59375,225065.0,254343.90625,228985.859375,229741.796875,383461.0,1.0,3
237875.765625,255307.71875,241012.34375,249856.125,225088.609375,254360.1875,228997.5625,229765.578125,383462.0,1.0,3
237943.890625,255332.84375,241024.421875,249865.328125,225094.0625,254375.296875,228997.5625,229781.125,383463.0,1.0,3
237991.90625,255332.84375,241025.671875,249866.5,225079.21875,254372.609375,228988.0,229773.078125,383464.0,1.0,3
237954.0,255310.484375,241010.28125,249855.5,225063.921875,254352.046875,228979.5,229747.328125,383465.0,1.0,3
237879.875,255285.8125,241002.328125,249848.53125,225066.34375,254343.90625,228982.28125,229736.96875,383466.0,1.0,3
237873.53125,255298.859375,241012.703125,249854.609375,225083.234375,254358.21875,228995.234375,229754.125,383467.0,1.0,3
237942.015625,255328.28125,241025.21875,249862.109375,225089.234375,254370.546875,228995.953125,229772.640625,383468.0,1.0,3
237995.484375,255341.875,241027.28125,249864.0,225081.265625,254370.640625,228988.625,229772.8125,383469.0,1.0,3
237953.203125,255315.671875,241013.953125,249856.390625,225069.375,254354.734375,228984.609375,229752.609375,383470.0,1.0,3
237882.75,255295.5625,241007.703125,249851.65625,225076.984375,254353.65625,228993.8125,229748.5,383471.0,1.0,3
237881.21875,255309.140625,241015.5625,249857.28125,225096.828125,254366.0,229000.875,229768.609375,383472.0,1.0,3
237947.296875,255332.84375,241026.5625,249864.0,225098.703125,254376.8125,228995.234375,229777.828125,383473.0,1.0,3
237994.5,255334.359375,241027.359375,249865.515625,225082.53125,254372.515625,228985.859375,229769.78125,383474.0,1.0,3
237957.671875,255312.640625,241017.984375,249858.71875,225069.828125,254354.28125,228984.78125,229753.859375,383475.0,1.0,3
237887.21875,255295.734375,241012.25,249854.34375,225072.953125,254351.328125,228993.09375,229747.421875,383476.0,1.0,3
237876.03125,255301.09375,241016.90625,249858.890625,225087.171875,254362.6875,228998.375,229762.171875,383477.0,1.0,3
237944.796875,255332.390625,241031.03125,249868.546875,225097.8125,254374.84375,228997.75,229785.6875,383478.0,1.0,3
237998.078125,255346.25,241033.984375,249870.703125,225088.6875,254373.234375,228993.09375,229784.265625,383479.0,1.0,3
237951.859375,255317.8125,241017.0,249859.078125,225069.828125,254352.578125,228984.0625,229755.65625,383480.0,1.0,3
237872.8125,255291.53125,241003.3125,249848.4375,225068.484375,254343.46875,228986.484375,229742.953125,383481.0,1.0,3
237858.25,255294.3125,241005.453125,249848.34375,225080.640625,254352.40625,228990.59375,229753.953125,383482.0,1.0,3
237913.765625,255302.265625,241013.328125,249853.0,225076.890625,254361.078125,228984.328125,229758.234375,383483.0,1.0,3
237974.75,255323.625,241018.78125,249858.0,225074.75,254363.40625,228982.1875,229768.4375,383484.0,1.0,3
237933.078125,255297.4375,241003.21875,249847.625,225060.171875,254343.015625,228978.34375,229747.15625,383485.0,1.0,3
237865.390625,255283.125,240997.765625,249844.859375,225070.8125,254342.21875,228992.03125,229748.046875,383486.0,1.0,3
237859.5,255296.453125,241003.9375,249846.734375,225088.609375,254355.625,229000.609375,229767.453125,383487.0,1.0,3
237925.296875,255320.328125,241013.421875,249852.1875,225092.8125,254368.046875,228997.296875,229780.859375,383488.0,1.0,3
237978.671875,255329.890625,241015.65625,249855.328125,225083.328125,254366.796875,228989.96875,229777.28125,383489.0,1.0,3
237934.0625,255295.640625,240996.78125,249842.53125,225063.5625,254342.921875,228981.828125,229750.109375,383490.0,1.0,3
237860.390625,255272.9375,240985.609375,249835.296875,225064.28125,254335.140625,228984.328125,229738.484375,383491.0,1.0,3
237855.390625,255291.4375,240993.484375,249842.0,225086.640625,254350.890625,228997.921875,229758.953125,383492.0,1.0,3
237916.984375,255314.515625,241003.578125,249850.578125,225093.609375,254363.765625,228999.796875,229776.75,383493.0,1.0,3
237970.359375,255323.90625,241004.65625,249852.453125,225081.453125,254360.0,228986.21875,229771.65625,383494.0,1.0,3
237931.375,255296.1875,240988.390625,249841.46875,225060.265625,254339.265625,228976.46875,229746.265625,383495.0,1.0,3
237852.171875,255260.328125,240978.453125,249834.3125,225055.96875,254333.625,228979.6875,229733.125,383496.0,1.0,3
237831.78125,255251.65625,240983.640625,249835.828125,225057.765625,254342.03125,228982.8125,229734.734375,383497.0,1.0,3
237897.046875,255274.453125,240995.453125,249842.796875,225056.15625,254353.5625,228978.34375,229744.03125,383498.0,1.0,3
237957.21875,255295.015625,241002.6875,249848.53125,225054.453125,254357.328125,228976.90625,229752.875,383499.0,1.0,3
237909.203125,255255.859375,240982.484375,249832.25,225029.234375,254331.65625,228962.078125,229718.546875,383500.0,1.0,3
237843.5,255240.03125,240978.546875,249830.015625,225037.46875,254330.59375,228974.671875,229715.5,383501.0,1.0,3
237849.9375,255274.28125,240990.890625,249840.125,225069.375,254349.546875,228990.59375,229748.9375,383502.0,1.0,3
237917.609375,255304.59375,241003.671875,249849.421875,225079.84375,254363.578125,228990.421875,229769.953125,383503.0,1.0,3
237974.46875,255314.6875,241007.25,249850.765625,225073.5,254364.296875,228984.6875,229770.40625,383504.0,1.0,3
237940.046875,255295.203125,240997.5,249842.453125,225061.609375,254346.859375,228984.15625,229752.609375,383505.0,1.0,3
237863.78125,255269.8125,240987.9375,249836.640625,225062.40625,254338.015625,228987.46875,229745.015625,383506.0,1.0,3
237857.265625,255285.09375,240994.109375,249841.46875,225078.6875,254351.953125,228996.40625,229761.90625,383507.0,1.0,3
237928.078125,255319.34375,241012.703125,249856.484375,225091.828125,254370.375,228999.4375,229783.8125,383508.0,1.0,3
237987.890625,255334.09375,241017.890625,249861.40625,225084.765625,254371.71875,228992.375,229786.046875,383509.0,1.0,3
237944.171875,255299.765625,241000.640625,249849.234375,225065.625,254350.890625,228985.9375,229759.140625,383510.0,1.0,3
237869.328125,255275.171875,240988.03125,249837.890625,225065.453125,254339.4375,228984.15625,229746.53125,383511.0,1.0,3
237860.84375,255286.4375,240994.375,249838.328125,225080.109375,254349.71875,228988.171875,229759.3125,383512.0,1.0,3
237924.234375,255310.84375,241008.40625,249847.28125,225085.75,254362.953125,228990.0625,229773.625,383513.0,1.0,3
237982.078125,255324.53125,241012.875,249852.453125,225077.25,254364.65625,228982.09375,229774.0625,383514.0,1.0,3
237943.71875,255294.84375,240997.765625,249843.078125,225059.015625,254344.359375,228971.453125,229746.96875,383515.0,1.0,3
237872.015625,255273.109375,240992.765625,249838.515625,225065.265625,254341.5,228980.578125,229737.5,383516.0,1.0,3
237868.265625,255290.546875,241004.203125,249846.734375,225086.375,254357.671875,228993.625,229758.0625,383517.0,1.0,3
237936.03125,255317.8125,241022.265625,249860.421875,225097.8125,254375.109375,228997.5625,229780.6875,383518.0,1.0,3
237979.578125,255309.765625,241019.671875,249857.46875,225073.9375,254370.734375,228980.21875,229759.140625,383519.0,1.0,3
237934.953125,255268.921875,241002.59375,249844.0625,225042.828125,254348.203125,228967.703125,229720.59375,383520.0,1.0,3
237867.1875,255254.25,240997.6875,249843.875,225049.984375,254346.234375,228978.703125,229719.96875,383521.0,1.0,3
237873.796875,255292.515625,241013.421875,249858.0,225088.609375,254371.890625,229004.453125,229763.34375,383522.0,1.0,3
237940.40625,255325.6875,241025.671875,249865.78125,225098.4375,254385.390625,229004.890625,229785.875,383523.0,1.0,3
237994.328125,255333.375,241025.75,249865.6875,225085.828125,254383.0625,228993.28125,229784.703125,383524.0,1.0,3
237947.46875,255293.859375,241005.453125,249850.84375,225055.4375,254356.15625,228977.265625,229745.640625,383525.0,1.0,3
237865.484375,255258.984375,240992.140625,249840.390625,225045.78125,254344.625,228975.390625,229719.53125,383526.0,1.0,3
237852.25,255265.96875,241002.25,249845.9375,225062.140625,254358.21875,228985.9375,229733.65625,383527.0,1.0,3
237920.03125,255295.734375,241021.015625,249858.1875,225071.078125,254374.578125,228989.4375,229753.40625,383528.0,1.0,3
237972.859375,255302.4375,241021.203125,249857.375,225056.0625,254372.078125,228982.28125,229749.5625,383529.0,1.0,3
237938.71875,255279.015625,241009.03125,249850.40625,225041.84375,254354.453125,228981.390625,229733.390625,383530.0,1.0,3
237859.046875,255251.84375,240998.125,249842.359375,225044.796875,254344.359375,228980.125,229718.984375,383531.0,1.0,3
237848.859375,255265.703125,241005.375,249847.28125,225061.328125,254357.328125,228988.0,229733.03125,383532.0,1.0,3
237917.515625,255296.984375,241018.328125,249857.734375,225070.984375,254371.0,228987.015625,229755.921875,383533.0,1.0,3
237981.359375,255319.78125,241025.21875,249863.71875,225070.90625,254374.484375,228984.15625,229769.234375,383534.0,1.0,3
237959.90625,255317.015625,241016.28125,249858.359375,225068.484375,254358.578125,228987.734375,229764.59375,383535.0,1.0,3
237897.046875,255309.6875,241011.09375,249857.46875,225085.75,254361.25,229003.640625,229766.640625,383536.0,1.0,3
237884.078125,255321.03125,241017.796875,249862.03125,225105.6875,254374.21875,229011.328125,229783.8125,383537.0,1.0,3
237947.109375,255350.625,241028.078125,249870.078125,225109.96875,254382.359375,229005.4375,229800.625,383538.0,1.0,3
238000.140625,255358.953125,241028.34375,249870.078125,225096.65625,254379.046875,228996.140625,229796.78125,383539.0,1.0,3
237958.828125,255318.71875,241012.171875,249857.46875,225073.5,254354.015625,228982.8125,229765.75,383540.0,1.0,3
237893.296875,255305.296875,241008.5,249856.9375,225083.234375,254355.359375,228996.84375,229764.765625,383541.0,1.0,3
237884.078125,255324.34375,241017.890625,249864.265625,225105.765625,254372.25,229011.78125,229787.484375,383542.0,1.0,3
237940.234375,255345.09375,241026.5625,249866.9375,225108.546875,254379.9375,229006.234375,229798.203125,383543.0,1.0,3
237987.171875,255344.1875,241022.984375,249862.921875,225089.140625,254374.671875,228987.90625,229782.921875,383544.0,1.0,3
237947.734375,255314.78125,241006.890625,249849.328125,225065.8125,254354.734375,228977.625,229750.828125,383545.0,1.0,3
237873.890625,255290.734375,240998.390625,249844.140625,225069.03125,254349.71875,228985.859375,229743.046875,383546.0,1.0,3
237865.3125,255306.203125,241005.28125,249850.84375,225089.59375,254364.734375,228997.5625,229760.125,383547.0,1.0,3
237925.296875,255327.828125,241015.5625,249856.84375,225092.890625,254374.125,228993.984375,229774.6875,383548.0,1.0,3
237980.828125,255336.421875,241019.140625,249857.46875,225080.5625,254371.0,228986.84375,229774.953125,383549.0,1.0,3
237949.265625,255309.6875,241007.78125,249849.421875,225062.9375,254352.671875,228978.875,229752.515625,383550.0,1.0,3
237876.65625,255283.21875,240997.765625,249844.5,225064.734375,254346.0625,228980.765625,229741.171875,383551.0,1.0,3
237860.484375,255285.71875,241001.34375,249847.1875,225080.015625,254354.90625,228989.15625,229753.5,383552.0,1.0,3
237923.0625,255306.828125,241013.59375,249856.390625,225085.5625,254367.6875,228988.8125,229769.59375,383553.0,1.0,3
237992.265625,255330.78125,241024.421875,249866.5,225086.453125,254377.96875,228989.875,229778.625,383554.0,1.0,3
237968.578125,255323.8125,241021.90625,249866.5,225082.171875,254373.5,228997.390625,229769.5,383555.0,1.0,3
237909.203125,255322.46875,241022.984375,249870.25,225102.546875,254381.015625,229016.609375,229778.984375,383556.0,1.0,3
237899.90625,255338.109375,241031.828125,249878.125,225127.671875,254400.328125,229032.34375,229801.421875,383557.0,1.0,3
237962.40625,255362.078125,241047.65625,249889.65625,225137.6875,254419.28125,229039.765625,229817.609375,383558.0,1.0,3
238014.4375,255365.921875,241045.421875,249886.53125,225119.0,254413.734375,229028.328125,229807.0625,383559.0,1.0,3
237974.828125,255334.09375,241028.171875,249873.375,225098.078125,254391.390625,229019.375,229782.109375,383560.0,1.0,3
237894.90625,255307.71875,241018.0625,249865.875,225099.78125,254385.21875,229025.90625,229769.6875,383561.0,1.0,3
237874.421875,255310.484375,241017.0,249863.28125,225107.015625,254385.484375,229020.28125,229773.0,383562.0,1.0,3
237932.453125,255327.46875,241024.6875,249868.90625,225107.203125,254387.71875,229009.546875,229785.328125,383563.0,1.0,3
237988.875,255334.1875,241027.640625,249869.8125,225097.1875,254385.75,228999.359375,229784.890625,383564.0,1.0,3
237954.8125,255306.28125,241013.328125,249859.078125,225077.875,254365.453125,228988.890625,229758.78125,383565.0,1.0,3
237883.734375,255284.5625,241007.421875,249856.125,225080.109375,254359.90625,228994.4375,229749.03125,383566.0,1.0,3
237868.53125,255293.5,241012.96875,249859.078125,225096.65625,254371.890625,228999.796875,229763.25,383567.0,1.0,3
237931.921875,255323.546875,241025.75,249867.21875,225102.640625,254384.40625,229000.421875,229780.953125,383568.0,1.0,3
237994.0625,255340.0,241032.640625,249871.6875,225096.5625,254387.71875,228997.5625,229784.53125,383569.0,1.0,3
237964.109375,255317.90625,241020.921875,249863.09375,225081.71875,254368.859375,228992.03125,229764.40625,383570.0,1.0,3
237889.453125,255291.71875,241011.625,249857.28125,225083.859375,254364.46875,229000.34375,229754.75,383571.0,1.0,3
237874.25,255300.5625,241019.3125,249863.453125,225101.203125,254380.390625,229013.296875,229773.796875,383572.0,1.0,3
237937.28125,255330.609375,241031.921875,249872.578125,225108.546875,254393.53125,229014.015625,229794.1875,383573.0,1.0,3
237995.671875,255342.9375,241033.0,249873.46875,225098.4375,254391.5625,229004.8125,229792.75,383574.0,1.0,3
237962.140625,255318.453125,241015.46875,249859.96875,225077.078125,254369.21875,228990.5,229764.046875,383575.0,1.0,3
237886.859375,255295.46875,241004.65625,249853.0,225078.40625,254361.609375,228995.953125,229751.171875,383576.0,1.0,3
237874.96875,255306.375,241014.9375,249864.796875,225101.84375,254381.546875,229010.625,229773.078125,383577.0,1.0,3
237933.265625,255325.421875,241027.984375,249875.4375,225110.6875,254396.125,229012.40625,229791.40625,383578.0,1.0,3
237990.03125,255335.078125,241027.984375,249873.109375,225098.625,254391.921875,229000.515625,229787.65625,383579.0,1.0,3
237955.25,255306.203125,241012.609375,249860.15625,225073.40625,254366.34375,228985.671875,229755.65625,383580.0,1.0,3
237882.921875,255283.3125,241004.75,249855.859375,225074.75,254358.9375,228992.203125,229743.84375,383581.0,1.0,3
237865.578125,255293.6875,241011.984375,249860.59375,225092.984375,254373.40625,229001.765625,229763.96875,383582.0,1.0,3
237926.109375,255319.96875,241024.59375,249869.984375,225099.875,254384.671875,228998.90625,229782.46875,383583.0,1.0,3
237992.453125,255340.4375,241030.234375,249874.984375,225094.6875,254388.078125,228995.59375,229784.703125,383584.0,1.0,3
237957.671875,255311.03125,241014.3125,249864.078125,225074.296875,254367.78125,228988.09375,229759.3125,383585.0,1.0,3
237883.734375,255288.578125,241005.8125,249858.890625,225078.6875,254360.0,228995.0625,229752.609375,383586.0,1.0,3
237873.0,255303.96875,241019.140625,249868.546875,225104.875,254381.015625,229011.6875,229777.203125,383587.0,1.0,3
237934.515625,255330.0625,241033.265625,249877.859375,225112.390625,254397.546875,229015.8125,229793.640625,383588.0,1.0,3
237992.984375,255340.796875,241034.875,249876.421875,225098.171875,254393.171875,229002.484375,229788.375,383589.0,1.0,3
237964.015625,255316.75,241019.671875,249866.40625,225075.734375,254369.5625,228991.21875,229764.046875,383590.0,1.0,3
237889.0,255292.078125,241009.3125,249860.421875,225077.703125,254359.28125,228994.609375,229756.8125,383591.0,1.0,3
237872.46875,255302.171875,241017.4375,249865.96875,225098.796875,254373.59375,229006.953125,229776.390625,383592.0,1.0,3
237932.28125,255327.203125,241030.40625,249875.171875,225107.375,254387.546875,229009.28125,229794.0,383593.0,1.0,3
237989.765625,255339.015625,241030.765625,249875.796875,225094.140625,254385.84375,228997.03125,229789.0,383594.0,1.0,3
237963.828125,255318.0,241019.046875,249868.734375,225076.53125,254368.5,228991.9375,229767.71875,383595.0,1.0,3
237887.125,255293.6875,241008.953125,249860.0625,225077.078125,254358.65625,228997.921875,229760.828125,383596.0,1.0,3
237861.375,255292.15625,241007.34375,249856.578125,225088.15625,254363.21875,229003.46875,229768.609375,383597.0,1.0,3
237922.96875,255317.734375,241019.9375,249865.0625,225097.640625,254378.15625,229004.1875,229786.3125,383598.0,1.0,3
237982.703125,255330.78125,241026.375,249869.171875,225090.84375,254382.171875,228999.53125,229790.515625,383599.0,1.0,3
237961.515625,255317.1875,241014.671875,249860.421875,225076.53125,254364.109375,228995.234375,229773.53125,383600.0,1.0,3
237890.703125,255298.15625,241003.9375,249852.8125,225079.21875,254353.75,229001.046875,229764.859375,383601.0,1.0,3
237864.953125,255297.796875,241008.328125,249853.265625,225091.828125,254361.34375,229008.390625,229775.140625,383602.0,1.0,3
237919.671875,255315.765625,241017.796875,249858.359375,225094.59375,254367.6875,229006.328125,229784.703125,383603.0,1.0,3
237988.78125,255338.109375,241027.453125,249863.8125,225091.734375,254370.734375,229005.34375,229793.203125,383604.0,1.0,3
237960.703125,255312.1875,241011.8125,249849.0625,225071.171875,254346.59375,228993.546875,229771.203125,383605.0,1.0,3
237880.15625,255278.03125,240998.3125,249837.171875,225065.71875,254334.796875,228993.28125,229754.578125,383606.0,1.0,3
237866.65625,255295.015625,241008.40625,249842.53125,225088.609375,254349.8125,229006.0625,229772.90625,383607.0,1.0,3
237926.828125,255326.9375,241020.21875,249849.953125,225097.015625,254361.515625,229006.0625,229790.25,383608.0,1.0,3
237986.015625,255337.484375,241025.125,249852.8125,225089.140625,254364.296875,228998.8125,229792.21875,383609.0,1.0,3
237955.875,255313.078125,241009.84375,249839.765625,225068.3125,254342.5625,228991.578125,229766.5625,383610.0,1.0,3
237881.046875,255287.6875,240997.59375,249832.34375,225064.640625,254330.40625,228992.828125,229754.125,383611.0,1.0,3
237864.859375,255299.765625,241005.28125,249840.296875,225085.75,254345.78125,229008.390625,229775.859375,383612.0,1.0,3
237926.734375,255329.984375,241018.78125,249847.28125,225094.421875,254356.875,229006.0625,229794.546875,383613.0,1.0,3
237982.96875,255337.3125,241018.609375,249844.953125,225077.703125,254350.171875,228988.8125,229787.828125,383614.0,1.0,3
237957.84375,255315.3125,241007.703125,249837.34375,225061.6875,254332.5625,228985.234375,229768.96875,383615.0,1.0,3
237886.671875,255295.921875,241002.421875,249833.78125,225066.25,254326.828125,228994.890625,229761.375,383616.0,1.0,3
237870.9375,255309.421875,241010.5625,249841.109375,225087.265625,254341.9375,229006.328125,229778.984375,383617.0,1.0,3
237932.90625,255337.125,241024.59375,249850.765625,225096.203125,254357.953125,229008.828125,229798.109375,383618.0,1.0,3
237988.328125,255345.0,241025.75,249849.234375,225080.203125,254353.390625,228995.875,229792.21875,383619.0,1.0,3
237963.125,255325.234375,241015.5625,249843.703125,225066.34375,254338.09375,228992.828125,229774.609375,383620.0,1.0,3
237892.21875,255307.0,241004.5625,249837.890625,225070.09375,254333.71875,229002.484375,229765.484375,383621.0,1.0,3
237873.09375,255322.015625,241009.65625,249841.546875,225088.609375,254347.125,229008.828125,229777.640625,383622.0,1.0,3
237927.359375,255346.25,241024.5,249851.75,225094.953125,254361.4375,229014.734375,229792.75,383623.0,1.0,3
237986.546875,255352.953125,241028.34375,249855.328125,225082.4375,254359.828125,229007.84375,229790.703125,383624.0,1.0,3
237963.828125,255330.34375,241017.625,249848.96875,225068.390625,254345.078125,229001.140625,229771.390625,383625.0,1.0,3
237893.65625,255309.328125,241010.828125,249844.5,225075.28125,254340.875,229008.921875,229764.59375,383626.0,1.0,3
237869.421875,255316.921875,241012.703125,249842.71875,225090.65625,254352.3125,229013.390625,229774.515625,383627.0,1.0,3
237925.21875,255341.328125,241021.46875,249848.265625,225097.984375,254367.421875,229014.015625,229792.125,383628.0,1.0,3
237992.359375,255361.625,241028.796875,249854.421875,225092.0,254372.34375,229012.59375,229797.765625,383629.0,1.0,3
237963.03125,255329.625,241015.296875,249844.765625,225068.578125,254349.90625,228999.984375,229770.21875,383630.0,1.0,3
237885.875,255299.3125,241000.640625,249835.65625,225063.84375,254333.453125,228993.984375,229755.296875,383631.0,1.0,3
237863.34375,255307.09375,241008.5,249842.265625,225084.40625,254349.28125,229006.859375,229775.3125,383632.0,1.0,3
237926.828125,255340.34375,241025.21875,249853.53125,225100.046875,254365.015625,229010.0,229797.578125,383633.0,1.0,3
237992.359375,255355.375,241030.9375,249858.1875,225092.1875,254366.34375,229002.21875,229796.6875,383634.0,1.0,3
237965.984375,255330.15625,241017.625,249850.578125,225070.359375,254346.140625,228992.65625,229771.5625,383635.0,1.0,3
237891.6875,255303.875,241004.828125,249842.796875,225066.515625,254333.53125,228996.9375,229759.046875,383636.0,1.0,3
237867.0,255304.859375,241007.78125,249843.25,225082.609375,254342.125,229002.84375,229771.5625,383637.0,1.0,3
237923.6875,255333.90625,241021.90625,249852.109375,225093.609375,254357.40625,229005.796875,229791.40625,383638.0,1.0,3
237991.28125,255355.1875,241028.96875,249858.1875,225088.515625,254361.34375,229000.15625,229796.15625,383639.0,1.0,3
237966.34375,255332.578125,241015.5625,249849.0625,225068.390625,254342.75,228990.765625,229775.140625,383640.0,1.0,3
237893.46875,255311.296875,241008.046875,249844.40625,225070.1875,254337.203125,229000.703125,229767.984375,383641.0,1.0,3
237874.96875,255325.859375,241014.40625,249848.609375,225093.796875,254350.609375,229012.5,229785.15625,383642.0,1.0,3
237936.65625,255360.640625,241029.875,249859.25,225111.046875,254367.25,229016.796875,229810.71875,383643.0,1.0,3
238004.96875,255382.640625,241036.84375,249863.546875,225106.84375,254371.171875,229011.78125,229818.046875,383644.0,1.0,3
237980.734375,255360.46875,241020.84375,249852.546875,225085.390625,254350.96875,229003.109375,229795.53125,383645.0,1.0,3
237894.90625,255320.765625,241002.78125,249840.125,225074.296875,254333.453125,228998.640625,229772.28125,383646.0,1.0,3
237874.25,255328.109375,241011.09375,249846.375,225093.96875,254347.484375,229010.265625,229784.265625,383647.0,1.0,3
237931.65625,255351.34375,241024.953125,249856.03125,225101.5625,254363.578125,229013.484375,229798.5625,383648.0,1.0,3
237992.265625,255355.8125,241026.03125,249856.578125,225083.6875,254361.796875,228997.921875,229790.96875,383649.0,1.0,3
237963.75,255318.171875,241009.578125,249842.53125,225055.171875,254338.09375,228981.921875,229757.4375,383650.0,1.0,3
237885.421875,255282.328125,240995.8125,249831.359375,225047.484375,254322.625,228978.796875,229735.171875,383651.0,1.0,3
237866.375,255291.625,241003.765625,249838.328125,225066.515625,254336.578125,228990.59375,229751.53125,383652.0,1.0,3
237926.109375,255321.75,241021.015625,249852.015625,225081.71875,254355.796875,229000.0625,229776.03125,383653.0,1.0,3
237994.59375,255343.65625,241028.34375,249855.5,225079.03125,254359.828125,228996.140625,229785.15625,383654.0,1.0,3
237972.15625,255322.921875,241013.859375,249843.78125,225061.328125,254339.34375,228986.5625,229765.84375,383655.0,1.0,3
237896.15625,255297.53125,241000.453125,249832.875,225060.265625,254328.078125,228987.734375,229751.625,383656.0,1.0,3
237867.90625,255301.640625,241001.703125,249834.84375,225075.46875,254335.0625,228993.1875,229763.515625,383657.0,1.0,3
237926.640625,255334.53125,241016.546875,249847.0,225085.46875,254354.109375,228998.1875,229783.453125,383658.0,1.0,3
237987.96875,255347.765625,241021.828125,249850.84375,225077.703125,254357.859375,228990.953125,229787.03125,383659.0,1.0,3
237963.921875,255323.90625,241008.140625,249839.671875,225056.421875,254338.28125,228977.8125,229763.34375,383660.0,1.0,3
237891.953125,255301.015625,240995.265625,249832.96875,225055.609375,254328.796875,228981.5625,229747.875,383661.0,1.0,3
237872.015625,255314.875,241001.796875,249837.796875,225078.40625,254342.03125,228994.4375,229768.4375,383662.0,1.0,3
237925.5625,255338.03125,241015.390625,249847.453125,225087.4375,254355.796875,228995.328125,229786.765625,383663.0,1.0,3
237986.015625,255347.40625,241015.921875,249845.84375,225070.71875,254352.5,228980.21875,229779.15625,383664.0,1.0,3
237965.796875,255327.125,241004.484375,249837.890625,225049.984375,254332.015625,228971.109375,229756.28125,383665.0,1.0,3
237890.609375,255301.015625,240992.046875,249828.5,225048.546875,254319.765625,228977.0,229746.078125,383666.0,1.0,3
237859.046875,255301.015625,240992.859375,249828.046875,225064.734375,254330.671875,228985.671875,229757.4375,383667.0,1.0,3
237917.4375,255330.609375,241006.359375,249837.34375,225076.0,254344.359375,228985.59375,229776.921875,383668.0,1.0,3
237986.546875,255349.5625,241016.8125,249846.015625,225071.171875,254351.953125,228979.6875,229783.8125,383669.0,1.0,3
237965.09375,255323.359375,241005.546875,249838.515625,225053.375,254336.84375,228972.984375,229762.265625,383670.0,1.0,3
237883.1875,255285.90625,240988.5625,249825.28125,225046.140625,254321.921875,228970.65625,229739.203125,383671.0,1.0,3
237859.9375,255295.734375,240996.4375,249831.71875,225068.578125,254337.03125,228988.0,229754.671875,383672.0,1.0,3
237920.203125,255328.8125,241014.21875,249844.953125,225084.484375,254357.40625,228997.125,229781.671875,383673.0,1.0,3
237986.546875,255343.84375,241019.671875,249850.046875,225076.53125,254358.296875,228981.109375,229785.421875,383674.0,1.0,3
237964.375,255317.1875,241003.5,249839.578125,225054.546875,254337.5625,228968.515625,229759.40625,383675.0,1.0,3
237885.515625,255286.703125,240990.078125,249831.265625,225045.515625,254322.8125,228969.5,229736.515625,383676.0,1.0,3
237857.359375,255288.5,240997.140625,249836.71875,225063.21875,254330.765625,228980.21875,229749.21875,383677.0,1.0,3
237911.4375,255311.828125,241012.4375,249847.0,225075.734375,254346.328125,228986.75,229768.609375,383678.0,1.0,3
237979.03125,255332.84375,241016.28125,249849.78125,225068.21875,254348.375,228978.34375,229770.046875,383679.0,1.0,3
237963.75,255318.53125,241005.8125,249842.984375,225053.921875,254334.515625,228971.546875,229754.390625,383680.0,1.0,3
237885.515625,255287.59375,240993.5625,249834.21875,225050.609375,254322.71875,228973.78125,229738.75,383681.0,1.0,3
237861.109375,255297.53125,241002.328125,249842.09375,225072.15625,254336.84375,228987.734375,229757.078125,383682.0,1.0,3
237919.578125,255330.515625,241018.6875,249853.265625,225087.4375,254354.453125,228994.265625,229779.515625,383683.0,1.0,3
237986.453125,255349.5625,241021.734375,249853.984375,225078.40625,254354.015625,228984.78125,229778.53125,383684.0,1.0,3
237966.875,255329.4375,241008.5,249845.671875,225061.328125,254336.484375,228977.1875,229755.296875,383685.0,1.0,3
237889.359375,255299.3125,240994.46875,249836.015625,225059.546875,254324.421875,228982.546875,229740.8125,383686.0,1.0,3
237856.453125,255299.484375,240994.828125,249835.390625,225071.96875,254330.3125,228988.265625,229752.515625,383687.0,1.0,3
237908.3125,255322.109375,241007.25,249843.609375,225083.328125,254345.78125,228988.453125,229772.1875,383688.0,1.0,3
237978.59375,255344.828125,241014.484375,249848.53125,225077.78125,254351.328125,228983.0,229777.640625,383689.0,1.0,3
237963.5625,255325.859375,241004.921875,249842.796875,225061.25,254336.40625,228978.078125,229756.28125,383690.0,1.0,3
237888.828125,255295.5625,240994.640625,249834.671875,225060.4375,254327.28125,228982.453125,229740.09375,383691.0,1.0,3
237863.078125,255301.90625,241000.90625,249839.046875,225079.65625,254341.5,228993.453125,229756.09375,383692.0,1.0,3
237920.109375,255327.921875,241015.203125,249851.125,225089.765625,254356.421875,228997.5625,229776.296875,383693.0,1.0,3
237983.328125,255336.6875,241017.796875,249851.828125,225075.90625,254353.125,228983.265625,229776.921875,383694.0,1.0,3
237961.25,255311.828125,241003.046875,249840.484375,225051.5,254331.125,228970.203125,229750.1875,383695.0,1.0,3
237881.484375,255277.046875,240989.09375,249831.09375,225045.953125,254319.328125,228972.984375,229729.09375,383696.0,1.0,3
237856.015625,255284.65625,240991.0625,249831.8125,225064.640625,254329.515625,228980.484375,229739.828125,383697.0,1.0,3
237911.796875,255314.6875,241004.828125,249842.265625,225077.875,254346.59375,228985.40625,229761.28125,383698.0,1.0,3
237979.84375,255333.640625,241012.703125,249849.0625,225074.828125,254352.671875,228983.34375,229770.671875,383699.0,1.0,3
237961.15625,255310.046875,241000.28125,249840.03125,225053.109375,254333.1875,228976.375,229748.5,383700.0,1.0,3
237881.671875,255278.484375,240984.71875,249827.421875,225043.28125,254316.46875,228971.8125,229731.0625,383701.0,1.0,3
237855.109375,255290.109375,240984.890625,249826.078125,225059.8125,254325.21875,228977.453125,229746.796875,383702.0,1.0,3
237905.453125,255315.859375,240996.609375,249836.09375,225072.59375,254340.78125,228981.03125,229766.90625,383703.0,1.0,3
237967.6875,255327.390625,240999.375,249837.4375,225060.53125,254339.0,228969.578125,229762.625,383704.0,1.0,3
237951.234375,255308.34375,240988.828125,249831.71875,225044.171875,254322.09375,228961.453125,229741.4375,383705.0,1.0,3
237873.359375,255277.3125,240976.046875,249823.40625,225040.328125,254311.09375,228964.671875,229725.875,383706.0,1.0,3
237851.09375,255289.65625,240983.90625,249830.109375,225063.484375,254324.859375,228977.453125,229743.578125,383707.0,1.0,3
237905.984375,255316.75,240998.21875,249840.484375,225075.734375,254341.671875,228986.5625,229766.109375,383708.0,1.0,3
237968.84375,255327.65625,241000.1875,249841.734375,225062.3125,254343.546875,228976.90625,229765.390625,383709.0,1.0,3
237952.125,255303.34375,240986.78125,249831.1875,225043.1875,254326.125,228968.234375,229743.046875,383710.0,1.0,3
237879.703125,255280.0,240979.984375,249827.25,225046.578125,254318.078125,228978.25,229734.90625,383711.0,1.0,3
237853.0625,255288.3125,240986.0625,249832.796875,225066.078125,254330.140625,228990.421875,229752.34375,383712.0,1.0,3
237899.375,255306.734375,240995.8125,249839.40625,225072.78125,254341.5,228986.484375,229767.453125,383713.0,1.0,3
237962.40625,255314.6875,241001.34375,249842.359375,225059.1875,254343.1875,228971.734375,229764.140625,383714.0,1.0,3
237945.59375,255292.609375,240990.171875,249832.796875,225039.4375,254326.46875,228962.34375,229739.828125,383715.0,1.0,3
237874.515625,255272.140625,240979.984375,249825.28125,225040.59375,254318.078125,228969.765625,229726.234375,383716.0,1.0,3
237849.484375,255282.234375,240989.09375,249831.09375,225060.890625,254331.84375,228984.953125,229742.5,383717.0,1.0,3
237904.203125,255311.5625,241005.640625,249841.375,225074.125,254349.984375,228992.296875,229766.734375,383718.0,1.0,3
237973.765625,255329.796875,241010.109375,249845.671875,225066.78125,254351.234375,228980.3125,229770.3125,383719.0,1.0,3
237959.640625,255309.234375,240998.578125,249838.6875,225048.8125,254333.53125,228971.375,229749.84375,383720.0,1.0,3
237880.953125,255276.15625,240984.265625,249827.78125,225044.34375,254319.859375,228973.34375,229732.9375,383721.0,1.0,3
237850.203125,255281.34375,240990.171875,249830.203125,225063.21875,254332.109375,228981.828125,229746.34375,383722.0,1.0,3
237904.46875,255311.46875,241005.375,249839.578125,225075.90625,254348.640625,228985.859375,229764.671875,383723.0,1.0,3
237974.296875,255332.03125,241013.234375,249845.671875,225071.703125,254352.671875,228981.390625,229769.5,383724.0,1.0,3
237963.125,255318.265625,241004.5625,249842.265625,225057.578125,254341.3125,228980.578125,229751.265625,383725.0,1.0,3
237880.15625,255282.421875,240989.375,249831.265625,225050.0625,254324.421875,228980.3125,229737.140625,383726.0,1.0,3
237848.328125,255284.296875,240990.625,249831.1875,225063.84375,254330.765625,228981.828125,229746.0,383727.0,1.0,3
237903.9375,255317.015625,241004.921875,249841.46875,225077.96875,254349.546875,228989.78125,229765.84375,383728.0,1.0,3
237974.109375,255335.875,241013.328125,249846.46875,225071.703125,254352.3125,228982.28125,229769.78125,383729.0,1.0,3
237957.3125,255310.3125,241000.359375,249837.625,225051.046875,254333.984375,228970.65625,229748.046875,383730.0,1.0,3
237875.859375,255273.109375,240985.078125,249826.265625,225043.1875,254318.25,228967.96875,229725.703125,383731.0,1.0,3
237846.984375,255276.328125,240990.265625,249831.1875,225060.890625,254330.953125,228979.859375,229739.828125,383732.0,1.0,3
237901.515625,255306.90625,241006.09375,249843.4375,225073.859375,254347.75,228985.3125,229759.765625,383733.0,1.0,3
237973.484375,255331.859375,241016.1875,249851.5625,225072.0625,254356.421875,228982.375,229766.640625,383734.0,1.0,3
237961.25,255316.65625,241004.921875,249843.4375,225055.609375,254341.3125,228975.21875,229748.859375,383735.0,1.0,3
237882.921875,255279.203125,240990.703125,249832.796875,225047.390625,254327.28125,228976.015625,229731.234375,383736.0,1.0,3
237857.984375,255288.765625,240997.765625,249840.03125,225068.390625,254342.84375,228990.59375,229750.734375,383737.0,1.0,3
237905.984375,255312.28125,241008.234375,249847.90625,225077.421875,254353.5625,228991.484375,229766.375,383738.0,1.0,3
237971.4375,255328.28125,241012.171875,249850.765625,225069.109375,254354.640625,228982.640625,229766.203125,383739.0,1.0,3
237957.75,255305.484375,241000.359375,249842.171875,225051.046875,254337.921875,228972.796875,229742.421875,383740.0,1.0,3
237884.359375,255276.515625,240989.09375,249832.703125,225050.421875,254327.90625,228977.890625,229729.546875,383741.0,1.0,3
237853.59375,255286.4375,240992.765625,249835.46875,225070.90625,254341.5,228990.328125,229745.015625,383742.0,1.0,3
237897.046875,255307.359375,240999.734375,249840.5625,225076.984375,254351.515625,228987.203125,229760.390625,383743.0,1.0,3
237963.296875,255320.953125,241002.59375,249841.1875,225064.90625,254353.828125,228977.453125,229759.671875,383744.0,1.0,3
237947.828125,255294.390625,240987.484375,249829.390625,225037.640625,254330.234375,228960.640625,229729.28125,383745.0,1.0,3
237873.0,255264.359375,240977.390625,249822.421875,225034.953125,254318.25,228964.21875,229716.21875,383746.0,1.0,3
237844.296875,255272.9375,240983.46875,249826.265625,225054.625,254331.65625,228979.5,229733.65625,383747.0,1.0,3
237898.296875,255305.921875,240998.046875,249836.375,225070.1875,254349.8125,228985.40625,229755.65625,383748.0,1.0,3
237968.84375,255323.28125,241004.828125,249841.828125,225064.375,254351.953125,228976.5625,229762.0,383749.0,1.0,3
237959.640625,255305.578125,240994.375,249834.765625,225044.265625,254335.59375,228966.453125,229740.890625,383750.0,1.0,3
237880.859375,255270.796875,240979.078125,249823.765625,225034.328125,254320.65625,228967.25,229717.65625,383751.0,1.0,3
237844.828125,255268.375,240980.609375,249825.1875,225048.375,254327.90625,228975.578125,229727.75,383752.0,1.0,3
237894.984375,255292.96875,240994.734375,249836.09375,225061.421875,254343.109375,228980.484375,229750.109375,383753.0,1.0,3
237963.03125,255311.5625,241004.125,249842.359375,225057.21875,254350.078125,228976.109375,229755.203125,383754.0,1.0,3
237957.84375,255299.484375,240998.484375,249838.78125,225044.265625,254338.09375,228973.875,229742.5,383755.0,1.0,3
237888.546875,255276.25,240986.59375,249831.1875,225043.28125,254325.21875,228975.296875,229728.46875,383756.0,1.0,3
237852.796875,255274.546875,240988.734375,249831.984375,225058.296875,254335.5,228981.65625,229731.953125,383757.0,1.0,3
237903.75,255299.9375,241005.109375,249844.953125,225073.859375,254351.59375,228985.234375,229751.359375,383758.0,1.0,3
237973.84375,255321.21875,241012.796875,249849.234375,225068.125,254354.90625,228976.640625,229757.4375,383759.0,1.0,3
237957.671875,255294.484375,240995.890625,249838.0625,225042.828125,254332.46875,228961.265625,229730.4375,383760.0,1.0,3
237886.234375,255265.78125,240984.359375,249831.1875,225039.96875,254320.75,228965.296875,229716.125,383761.0,1.0,3
237862.171875,255282.328125,240994.203125,249840.125,225066.703125,254338.015625,228982.71875,229741.34375,383762.0,1.0,3
237904.296875,255301.015625,241000.453125,249844.59375,225074.75,254348.015625,228977.8125,229755.921875,383763.0,1.0,3
237976.078125,255323.8125,241010.203125,249850.578125,225070.359375,254354.90625,228974.140625,229762.890625,383764.0,1.0,3
237966.96875,255305.296875,241000.1875,249841.90625,225050.78125,254337.46875,228965.296875,229740.984375,383765.0,1.0,3
237891.765625,255275.359375,240988.390625,249833.234375,225044.4375,254325.671875,228969.046875,229726.0625,383766.0,1.0,3
237857.265625,255280.984375,240993.484375,249836.546875,225065.8125,254339.171875,228982.546875,229743.9375,383767.0,1.0,3
237904.921875,255309.140625,241004.828125,249845.3125,225079.484375,254354.28125,228986.75,229766.640625,383768.0,1.0,3
237972.6875,255324.96875,241008.59375,249847.09375,225068.3125,254356.421875,228978.875,229768.703125,383769.0,1.0,3
237961.875,255302.4375,240996.96875,249841.109375,225048.8125,254338.71875,228968.421875,229749.21875,383770.0,1.0,3
237889.453125,255274.90625,240985.171875,249833.328125,225044.609375,254325.40625,228972.53125,229733.03125,383771.0,1.0,3
237860.21875,255286.53125,240991.421875,249838.6875,225065.890625,254339.53125,228988.625,229751.71875,383772.0,1.0,3
237905.8125,255313.53125,241002.515625,249847.1875,225078.765625,254352.21875,228990.421875,229770.484375,383773.0,1.0,3
237973.578125,255328.28125,241008.59375,249850.765625,225072.59375,254355.890625,228982.640625,229772.71875,383774.0,1.0,3
237963.65625,255308.609375,240995.53125,249839.578125,225050.515625,254338.453125,228969.140625,229752.34375,383775.0,1.0,3
237886.5,255274.8125,240978.546875,249829.75,225040.40625,254322.546875,228969.40625,229732.671875,383776.0,1.0,3
237854.21875,255280.09375,240984.546875,249837.34375,225061.15625,254337.296875,228984.515625,229748.859375,383777.0,1.0,3
237902.59375,255305.390625,241001.265625,249847.8125,225077.34375,254354.8125,228987.375,229770.84375,383778.0,1.0,3
237971.53125,255323.359375,241008.328125,249850.84375,225070.28125,254356.0625,228978.34375,229769.953125,383779.0,1.0,3
237964.640625,255305.125,241003.21875,249848.34375,225053.734375,254342.5625,228976.28125,229750.546875,383780.0,1.0,3
237892.9375,255275.625,240991.0625,249838.25,225051.953125,254330.671875,228975.84375,229735.625,383781.0,1.0,3
237861.109375,255281.875,240993.03125,249839.140625,225070.0,254339.796875,228984.328125,229745.71875,383782.0,1.0,3
237905.8125,255304.140625,241005.734375,249850.21875,225082.609375,254356.78125,228992.03125,229766.640625,383783.0,1.0,3
237973.21875,255319.25,241010.109375,249853.09375,225070.984375,254359.109375,228980.3125,229766.203125,383784.0,1.0,3
237969.921875,255308.4375,241001.078125,249847.0,225054.625,254344.53125,228975.390625,229750.546875,383785.0,1.0,3
237893.734375,255276.96875,240988.03125,249835.109375,225051.046875,254329.0625,228974.5,229735.265625,383786.0,1.0,3
237859.140625,255280.984375,240993.390625,249837.4375,225071.703125,254342.75,228988.53125,229746.796875,383787.0,1.0,3
237905.8125,255305.578125,241009.84375,249848.265625,225084.40625,254356.15625,228990.765625,229766.109375,383788.0,1.0,3
237980.015625,255330.0625,241017.625,249853.4375,225077.96875,254362.15625,228981.03125,229769.859375,383789.0,1.0,3
237971.25,255308.796875,241003.3125,249842.71875,225055.609375,254345.421875,228970.296875,229742.5,383790.0,1.0,3
237893.46875,255276.875,240989.015625,249833.15625,225048.1875,254329.6875,228971.015625,229720.515625,383791.0,1.0,3
237857.984375,255279.375,240991.953125,249836.453125,225064.015625,254338.71875,228982.09375,229731.953125,383792.0,1.0,3
237904.46875,255302.078125,241004.5625,249846.734375,225075.546875,254352.21875,228987.46875,229752.078125,383793.0,1.0,3
237973.484375,255319.96875,241010.28125,249851.484375,225070.359375,254356.421875,228982.09375,229762.0,383794.0,1.0,3
237959.1875,255293.953125,240990.625,249834.125,225042.375,254333.265625,228960.46875,229733.828125,383795.0,1.0,3
237891.6875,255275.53125,240981.59375,249827.515625,225041.671875,254325.765625,228965.375,229719.96875,383796.0,1.0,3
237853.421875,255279.546875,240983.28125,249829.578125,225057.125,254332.90625,228975.03125,229729.359375,383797.0,1.0,3
237895.265625,255298.859375,240993.03125,249838.25,225066.703125,254342.5625,228978.96875,229747.25,383798.0,1.0,3
237965.265625,255314.6875,241001.703125,249844.234375,225062.59375,254351.953125,228976.015625,229754.84375,383799.0,1.0,3
237960.96875,255296.90625,240991.875,249837.984375,225041.3125,254335.953125,228963.328125,229733.828125,383800.0,1.0,3
237887.921875,255267.84375,240978.28125,249828.859375,225035.671875,254320.75,228964.21875,229715.953125,383801.0,1.0,3
237854.3125,255272.40625,240984.0,249832.96875,225054.984375,254334.171875,228979.6875,229728.46875,383802.0,1.0,3
237895.703125,255291.359375,240994.734375,249840.5625,225065.359375,254347.03125,228984.15625,229746.0,383803.0,1.0,3
237960.171875,255304.140625,240998.578125,249842.71875,225057.84375,254347.75,228971.1875,229749.03125,383804.0,1.0,3
237951.40625,255285.09375,240987.484375,249833.78125,225037.546875,254331.84375,228962.15625,229724.890625,383805.0,1.0,3
237881.578125,255259.890625,240975.78125,249825.375,225031.109375,254313.59375,228962.609375,229708.265625,383806.0,1.0,3
237851.71875,255272.3125,240984.546875,249831.890625,225055.53125,254330.40625,228978.96875,229727.9375,383807.0,1.0,3
237895.96875,255300.203125,240997.6875,249841.640625,225070.28125,254348.640625,228985.40625,229750.375,383808.0,1.0,3
237967.6875,255317.109375,241004.296875,249846.203125,225063.5625,254352.84375,228977.265625,229754.046875,383809.0,1.0,3
237958.828125,255288.140625,240992.3125,249837.4375,225037.90625,254331.65625,228960.90625,229725.15625,383810.0,1.0,3
237888.375,255259.890625,240981.59375,249830.28125,225035.5,254318.515625,228965.109375,229711.125,383811.0,1.0,3
237849.484375,255260.421875,240983.28125,249830.46875,225050.875,254325.765625,228975.84375,229722.203125,383812.0,1.0,3
237894.546875,255286.609375,240995.8125,249839.9375,225065.53125,254340.515625,228982.71875,229743.578125,383813.0,1.0,3
237962.5,255303.34375,241003.046875,249845.578125,225060.984375,254347.21875,228974.59375,229748.40625,383814.0,1.0,3
237957.21875,255285.28125,240992.3125,249838.515625,225043.0,254332.28125,228966.0,229729.71875,383815.0,1.0,3
237891.140625,255261.40625,240983.90625,249832.078125,225040.234375,254319.234375,228970.296875,229715.6875,383816.0,1.0,3
237857.078125,255267.578125,240988.390625,249837.0,225058.65625,254327.8125,228981.734375,229730.703125,383817.0,1.0,3
237900.09375,255293.765625,241000.640625,249847.625,225072.0625,254344.796875,228983.0,229751.09375,383818.0,1.0,3
237972.0625,255315.40625,241007.609375,249853.09375,225067.859375,254351.328125,228977.8125,229756.359375,383819.0,1.0,3
237970.90625,255301.1875,240994.828125,249844.859375,225047.5625,254333.890625,228965.640625,229737.5,383820.0,1.0,3
237891.953125,255266.328125,240977.75,249830.46875,225036.125,254313.0625,228960.90625,229714.515625,383821.0,1.0,3
237850.375,255265.609375,240978.734375,249831.09375,225053.734375,254320.21875,228972.265625,229725.078125,383822.0,1.0,3
237895.96875,255290.8125,240996.4375,249843.875,225071.171875,254341.046875,228982.28125,229751.71875,383823.0,1.0,3
237966.703125,255306.90625,241005.109375,249851.03125,225064.546875,254346.859375,228976.46875,229759.765625,383824.0,1.0,3
237963.296875,255288.21875,240992.765625,249841.828125,225041.3125,254327.734375,228960.90625,229733.296875,383825.0,1.0,3
237894.984375,255262.5625,240982.296875,249833.859375,225038.984375,254317.53125,228965.734375,229718.640625,383826.0,1.0,3
237860.921875,255274.375,240986.78125,249838.15625,225060.171875,254331.484375,228979.78125,229734.1875,383827.0,1.0,3
237900.0,255299.484375,241001.96875,249848.078125,225074.75,254348.921875,228986.125,229755.46875,383828.0,1.0,3
237971.796875,255316.5625,241009.75,249853.171875,225068.046875,254353.5625,228977.359375,229758.953125,383829.0,1.0,3
237968.65625,255295.640625,240996.15625,249841.734375,225042.828125,254333.890625,228962.15625,229733.390625,383830.0,1.0,3
237895.4375,255265.703125,240981.59375,249832.96875,225034.6875,254319.765625,228962.4375,229714.609375,383831.0,1.0,3
237853.78125,255264.625,240986.59375,249836.71875,225053.734375,254329.875,228974.59375,229727.75,383832.0,1.0,3
237896.78125,255292.515625,241000.359375,249847.1875,225070.71875,254344.625,228980.578125,229752.15625,383833.0,1.0,3
237972.421875,255317.640625,241009.125,249852.1875,225069.203125,254353.390625,228978.25,229760.46875,383834.0,1.0,3
237966.875,255298.78125,240997.765625,249841.90625,225044.890625,254336.671875,228965.734375,229736.96875,383835.0,1.0,3
237892.84375,255268.109375,240985.609375,249833.328125,225037.828125,254322.71875,228969.671875,229719.890625,383836.0,1.0,3
237853.5,255272.140625,240987.046875,249837.0,225055.4375,254331.65625,228981.296875,229731.515625,383837.0,1.0,3
237896.25,255301.734375,241002.875,249849.421875,225070.8125,254351.421875,228989.609375,229754.484375,383838.0,1.0,3
237963.390625,255315.765625,241008.5,249852.8125,225063.125,254358.03125,228979.421875,229756.984375,383839.0,1.0,3
237966.78125,255303.6875,241000.8125,249845.484375,225048.015625,254346.140625,228971.734375,229740.984375,383840.0,1.0,3
237899.109375,255278.484375,240988.296875,249835.828125,225042.203125,254329.15625,228970.203125,229721.40625,383841.0,1.0,3
237857.703125,255278.484375,240989.375,249837.984375,225058.390625,254335.59375,228978.875,229727.75,383842.0,1.0,3
237893.921875,255293.046875,240999.375,249845.3125,225068.578125,254347.84375,228981.921875,229744.5625,383843.0,1.0,3
237965.265625,255312.015625,241008.953125,249851.296875,225063.921875,254355.890625,228976.90625,229756.625,383844.0,1.0,3
237969.640625,255301.015625,241003.9375,249847.90625,225046.40625,254344.0,228970.125,229741.703125,383845.0,1.0,3
237893.03125,255266.40625,240987.9375,249836.546875,225033.53125,254323.796875,228968.953125,229717.734375,383846.0,1.0,3
237853.0625,255270.34375,240991.421875,249839.3125,225048.640625,254334.96875,228983.984375,229728.46875,383847.0,1.0,3
237895.796875,255299.484375,241003.5,249848.171875,225065.53125,254350.890625,228988.09375,229753.40625,383848.0,1.0,3
237967.859375,255318.453125,241013.15625,249854.15625,225062.671875,254355.4375,228981.109375,229762.078125,383849.0,1.0,3
237969.375,255301.734375,241003.3125,249847.984375,225046.3125,254340.515625,228970.921875,229744.734375,383850.0,1.0,3
237897.859375,255271.78125,240988.46875,249835.390625,225036.75,254323.4375,228965.734375,229716.578125,383851.0,1.0,3
237863.25,255278.84375,240996.4375,249842.171875,225060.53125,254338.640625,228984.328125,229733.203125,383852.0,1.0,3
237906.796875,255306.90625,241010.921875,249852.1875,225078.859375,254355.53125,228991.671875,229759.84375,383853.0,1.0,3
237974.390625,255322.109375,241014.21875,249852.375,225069.03125,254356.515625,228980.671875,229758.953125,383854.0,1.0,3
237969.921875,255300.65625,241001.796875,249843.15625,225045.78125,254337.5625,228966.28125,229736.421875,383855.0,1.0,3
237900.625,255272.671875,240992.859375,249837.0,225041.046875,254325.84375,228972.984375,229722.75,383856.0,1.0,3
237861.90625,255278.21875,240997.5,249840.5625,225063.65625,254338.8125,228988.171875,229739.640625,383857.0,1.0,3
237901.703125,255301.28125,241009.390625,249850.40625,225076.890625,254354.28125,228990.5,229757.265625,383858.0,1.0,3
237982.4375,255329.53125,241022.890625,249864.0,225076.796875,254365.71875,228990.765625,229767.453125,383859.0,1.0,3
237984.671875,255316.125,241017.703125,249862.109375,225062.234375,254355.359375,228984.0625,229752.703125,383860.0,1.0,3
237904.640625,255277.765625,240998.21875,249846.375,225047.75,254333.359375,228975.84375,229723.640625,383861.0,1.0,3
237862.8125,255277.40625,240998.9375,249847.71875,225060.53125,254340.0625,228987.46875,229729.546875,383862.0,1.0,3
237902.140625,255300.125,241011.359375,249856.484375,225074.203125,254353.296875,228990.0625,229751.265625,383863.0,1.0,3
237973.9375,255318.453125,241019.140625,249863.28125,225070.359375,254360.0,228980.765625,229759.40625,383864.0,1.0,3
237981.1875,255311.46875,241011.09375,249857.921875,225055.171875,254347.84375,228975.21875,229742.6875,383865.0,1.0,3
237908.671875,255278.75,240993.125,249842.984375,225045.78125,254329.421875,228973.875,229720.25,383866.0,1.0,3
237864.6875,255275.078125,240995.171875,249843.609375,225063.21875,254340.15625,228986.125,229732.484375,383867.0,1.0,3
237904.921875,255300.5625,241009.578125,249854.421875,225078.59375,254358.65625,228991.671875,229755.5625,383868.0,1.0,3
237974.65625,255318.890625,241013.59375,249855.328125,225069.734375,254359.203125,228981.734375,229758.15625,383869.0,1.0,3
237981.53125,255310.671875,241007.34375,249851.03125,225053.5625,254348.46875,228977.453125,229745.640625,383870.0,1.0,3
237902.140625,255271.15625,240987.21875,249837.0,225038.53125,254326.296875,228972.625,229716.9375,383871.0,1.0,3
237862.890625,255275.53125,240991.953125,249841.015625,225058.5625,254339.4375,228986.390625,229730.25,383872.0,1.0,3
237902.6875,255302.171875,241007.25,249852.1875,225074.484375,254359.90625,228994.703125,229751.796875,383873.0,1.0,3
237969.921875,255314.15625,241013.15625,249855.671875,225064.546875,254362.234375,228981.921875,229751.890625,383874.0,1.0,3
237974.921875,255301.015625,241002.6875,249847.09375,225044.078125,254345.78125,228971.1875,229731.953125,383875.0,1.0,3
237901.25,255266.859375,240985.171875,249835.921875,225034.25,254328.703125,228969.40625,229712.109375,383876.0,1.0,3
237858.421875,255267.125,240986.328125,249838.78125,225052.65625,254338.1875,228981.03125,229724.359375,383877.0,1.0,3
237898.84375,255294.9375,241000.1875,249849.234375,225073.046875,254356.875,228991.390625,229750.46875,383878.0,1.0,3
237970.359375,255316.65625,241007.515625,249854.78125,225067.6875,254362.234375,228984.421875,229758.6875,383879.0,1.0,3
237971.078125,255299.671875,240995.453125,249844.59375,225044.53125,254343.640625,228969.765625,229737.40625,383880.0,1.0,3
237900.265625,255269.8125,240979.359375,249834.765625,225037.28125,254327.09375,228972.0,229719.4375,383881.0,1.0,3
237855.296875,255265.515625,240979.625,249836.1875,225053.46875,254333.53125,228981.46875,229728.921875,383882.0,1.0,3
237891.0625,255284.03125,240990.984375,249844.140625,225067.6875,254346.5,228983.0,229748.859375,383883.0,1.0,3
237966.421875,255304.859375,241000.640625,249850.765625,225061.328125,254350.703125,228976.46875,229756.1875,383884.0,1.0,3
237968.484375,255291.359375,240989.8125,249842.984375,225039.078125,254331.03125,228961.984375,229736.25,383885.0,1.0,3
237897.40625,255261.3125,240973.984375,249832.34375,225030.578125,254316.375,228961.71875,229717.296875,383886.0,1.0,3
237857.53125,255265.25,240980.0625,249839.140625,225052.578125,254332.5625,228981.203125,229734.015625,383887.0,1.0,3
237886.5,255277.3125,240992.140625,249846.203125,225058.203125,254343.640625,228978.25,229746.34375,383888.0,1.0,3
237955.609375,255287.328125,241000.453125,249848.890625,225042.828125,254349.984375,228967.34375,229737.59375,383889.0,1.0,3
237963.921875,255272.140625,240997.765625,249847.1875,225023.96875,254343.734375,228963.40625,229716.125,383890.0,1.0,3
237903.578125,255253.265625,240993.296875,249847.90625,225029.0625,254341.671875,228979.421875,229711.84375,383891.0,1.0,3
237860.03125,255259.96875,240996.609375,249848.34375,225048.90625,254354.734375,228994.34375,229722.921875,383892.0,1.0,3
237894.90625,255286.078125,241007.0625,249852.90625,225064.828125,254370.203125,228999.171875,229745.1875,383893.0,1.0,3
237968.65625,255307.09375,241015.296875,249857.5625,225060.4375,254377.4375,228994.96875,229754.125,383894.0,1.0,3
237971.703125,255286.890625,241002.515625,249848.078125,225037.828125,254353.75,228979.234375,229730.796875,383895.0,1.0,3
237898.484375,255254.34375,240979.171875,249829.9375,225028.703125,254326.5625,228971.015625,229712.203125,383896.0,1.0,3
237851.984375,255250.3125,240976.3125,249829.65625,225042.375,254331.578125,228978.796875,229720.15625,383897.0,1.0,3
237895.96875,255289.921875,240989.71875,249839.140625,225064.640625,254349.09375,228987.640625,229749.921875,383898.0,1.0,3
237961.515625,255307.984375,240992.3125,249840.296875,225057.765625,254349.8125,228977.0,229755.296875,383899.0,1.0,3
237963.296875,255291.625,240978.734375,249831.0,225039.875,254332.734375,228963.859375,229737.59375,383900.0,1.0,3
237895.34375,255262.390625,240964.6875,249821.4375,225034.0625,254318.703125,228964.21875,229720.15625,383901.0,1.0,3
237852.53125,255264.4375,240967.734375,249824.65625,225051.140625,254328.796875,228977.1875,229732.40625,383902.0,1.0,3
237885.25,255286.34375,240980.0625,249833.421875,225065.453125,254345.78125,228985.046875,229753.328125,383903.0,1.0,3
237960.171875,255311.734375,240989.546875,249838.78125,225061.328125,254354.28125,228980.046875,229758.953125,383904.0,1.0,3
237969.46875,255299.484375,240983.015625,249835.203125,225045.328125,254343.46875,228970.03125,229741.171875,383905.0,1.0,3
237896.59375,255266.59375,240968.53125,249826.359375,225035.140625,254327.734375,228968.78125,229720.421875,383906.0,1.0,3
237845.90625,255260.875,240966.390625,249823.578125,225047.484375,254330.59375,228976.734375,229725.078125,383907.0,1.0,3
237880.59375,255283.84375,240978.546875,249833.6875,225060.0,254344.09375,228982.71875,229743.671875,383908.0,1.0,3
237950.515625,255299.84375,240986.234375,249838.328125,225052.84375,254349.71875,228975.84375,229749.75,383909.0,1.0,3
237962.40625,255294.484375,240981.140625,249834.484375,225038.984375,254340.78125,228971.734375,229737.140625,383910.0,1.0,3
237893.828125,255264.09375,240969.96875,249825.28125,225031.5625,254326.125,228973.609375,229717.65625,383911.0,1.0,3
237845.015625,255256.9375,240971.125,249824.65625,225042.65625,254333.71875,228981.390625,229721.671875,383912.0,1.0,3
237883.8125,255282.59375,240987.671875,249838.6875,225065.0,254355.796875,228989.875,229746.890625,383913.0,1.0,3
237962.765625,255309.5,240999.921875,249848.53125,225066.515625,254363.484375,228984.515625,229760.203125,383914.0,1.0,3
237970.1875,255296.1875,240990.0,249839.046875,225044.171875,254346.859375,228970.390625,229737.3125,383915.0,1.0,3
237900.359375,255265.515625,240976.765625,249829.9375,225036.125,254333.53125,228973.609375,229716.578125,383916.0,1.0,3
237851.265625,255261.765625,240977.75,249832.609375,225052.65625,254340.15625,228983.984375,229726.234375,383917.0,1.0,3
237883.1875,255282.765625,240986.78125,249837.171875,225061.78125,254353.296875,228986.5625,229741.875,383918.0,1.0,3
237956.0625,255304.40625,240994.90625,249842.53125,225057.671875,254360.890625,228979.78125,229749.03125,383919.0,1.0,3
237964.546875,255291.4375,240986.78125,249838.0625,225041.125,254347.84375,228970.125,229733.75,383920.0,1.0,3
237894.015625,255260.6875,240970.953125,249827.96875,225031.65625,254330.765625,228968.78125,229714.34375,383921.0,1.0,3
237841.890625,255253.984375,240968.890625,249824.03125,225040.953125,254332.109375,228971.546875,229716.578125,383922.0,1.0,3
237879.34375,255279.203125,240986.0625,249835.109375,225058.734375,254350.25,228982.375,229741.171875,383923.0,1.0,3
237957.046875,255307.359375,240995.984375,249841.1875,225056.421875,254358.03125,228977.0,229751.453125,383924.0,1.0,3
237970.625,255300.65625,240990.890625,249839.9375,225044.078125,254351.234375,228972.796875,229737.671875,383925.0,1.0,3
237897.140625,255264.09375,240972.296875,249826.265625,225033.53125,254332.203125,228969.765625,229713.265625,383926.0,1.0,3
237852.25,255263.1875,240975.953125,249829.578125,225051.5,254340.875,228982.015625,229724.0,383927.0,1.0,3
237888.90625,255292.515625,240989.375,249840.03125,225068.9375,254358.125,228992.375,229748.40625,383928.0,1.0,3
237960.171875,255311.109375,240995.0,249844.5,225062.859375,254362.59375,228986.296875,229753.40625,383929.0,1.0,3
237967.234375,255296.359375,240986.0625,249837.890625,225043.453125,254349.1875,228976.90625,229735.078125,383930.0,1.0,3
237891.234375,255261.765625,240968.0,249822.234375,225030.484375,254326.125,228974.046875,229711.578125,383931.0,1.0,3
237842.234375,255263.546875,240966.03125,249820.0,225043.984375,254326.75,228978.078125,229718.453125,383932.0,1.0,3
237877.203125,255290.46875,240981.859375,249831.359375,225063.65625,254344.71875,228986.65625,229743.3125,383933.0,1.0,3
237948.71875,255310.9375,240992.40625,249837.171875,225057.84375,254352.21875,228982.8125,229751.453125,383934.0,1.0,3
237959.90625,255303.875,240984.265625,249829.75,225036.5625,254337.46875,228971.734375,229733.296875,383935.0,1.0,3
237889.359375,255268.734375,240968.171875,249817.6875,225022.984375,254314.859375,228966.28125,229706.46875,383936.0,1.0,3
237840.1875,255262.75,240967.640625,249815.890625,225039.703125,254319.765625,228978.96875,229716.671875,383937.0,1.0,3
237872.46875,255284.828125,240980.0625,249824.03125,225059.546875,254335.5,228987.828125,229742.0625,383938.0,1.0,3
237949.703125,255313.34375,240991.0625,249829.296875,225060.171875,254341.859375,228983.265625,229754.9375,383939.0,1.0,3
237956.953125,255299.046875,240980.515625,249819.375,225037.1875,254324.6875,228972.265625,229737.59375,383940.0,1.0,3
237884.796875,255264.890625,240965.5,249807.40625,225024.234375,254304.921875,228972.71875,229714.96875,383941.0,1.0,3
237840.71875,255265.609375,240971.578125,249812.3125,225043.90625,254315.390625,228989.96875,229732.484375,383942.0,1.0,3
237872.28125,255285.1875,240983.90625,249819.296875,225058.203125,254331.03125,228993.90625,229751.71875,383943.0,1.0,3
237933.265625,255284.5625,240991.25,249820.1875,225040.5,254332.734375,228977.265625,229737.859375,383944.0,1.0,3
237938.625,255259.890625,240982.65625,249812.578125,225007.953125,254313.875,228958.671875,229706.46875,383945.0,1.0,3
237872.8125,255232.890625,240967.375,249802.125,224997.234375,254294.5625,228957.78125,229688.59375,383946.0,1.0,3
237827.765625,255240.21875,240967.640625,249802.65625,225017.25,254303.5,228971.109375,229705.484375,383947.0,1.0,3
237869.15625,255282.421875,240986.421875,249818.125,225048.453125,254328.078125,228987.640625,229746.703125,383948.0,1.0,3
237938.890625,255301.90625,240993.296875,249821.796875,225043.90625,254334.609375,228978.34375,229753.859375,383949.0,1.0,3
237952.921875,255296.1875,240986.234375,249817.40625,225025.21875,254322.546875,228968.234375,229736.0625,383950.0,1.0,3
237891.765625,255276.96875,240974.078125,249809.546875,225023.25,254307.609375,228972.4375,229724.625,383951.0,1.0,3
237846.0,255283.21875,240976.578125,249811.59375,225042.5625,254315.65625,228987.015625,229739.90625,383952.0,1.0,3
237880.15625,255310.671875,240993.21875,249825.28125,225063.5625,254333.265625,228997.75,229767.984375,383953.0,1.0,3
237953.46875,255330.515625,241003.5,249830.828125,225060.703125,254339.625,228990.328125,229773.53125,383954.0,1.0,3
237968.125,255321.03125,240993.484375,249821.890625,225040.59375,254325.578125,228978.171875,229753.953125,383955.0,1.0,3
237901.421875,255290.546875,240976.3125,249810.078125,225032.640625,254306.71875,228973.515625,229732.9375,383956.0,1.0,3
237848.046875,255281.078125,240974.890625,249809.015625,225045.6875,254310.921875,228979.6875,229735.53125,383957.0,1.0,3
237881.046875,255308.078125,240987.40625,249818.125,225061.328125,254328.0,228984.0625,229755.921875,383958.0,1.0,3
237956.0625,255331.40625,240998.9375,249827.421875,225057.578125,254338.640625,228979.328125,229761.015625,383959.0,1.0,3
237967.59375,255314.875,240993.921875,249825.015625,225040.140625,254327.015625,228973.25,229746.703125,383960.0,1.0,3
237895.53125,255279.203125,240974.171875,249811.59375,225024.140625,254305.015625,228968.859375,229721.671875,383961.0,1.0,3
237846.4375,255275.4375,240972.921875,249809.71875,225037.734375,254308.6875,228977.71875,229726.5,383962.0,1.0,3
237882.390625,255304.859375,240989.71875,249823.140625,225064.375,254332.375,228992.203125,229758.859375,383963.0,1.0,3
237955.515625,255328.734375,240999.828125,249829.75,225064.90625,254341.5,228986.03125,229768.96875,383964.0,1.0,3
237970.1875,255318.625,240991.15625,249821.890625,225044.171875,254329.421875,228975.125,229751.171875,383965.0,1.0,3
237895.34375,255278.65625,240971.21875,249809.640625,225029.328125,254307.796875,228970.03125,229727.03125,383966.0,1.0,3
237843.21875,255272.484375,240969.96875,249809.90625,225043.28125,254311.90625,228980.21875,229734.8125,383967.0,1.0,3
237877.015625,255301.453125,240985.171875,249820.1875,225061.328125,254333.1875,228990.859375,229758.234375,383968.0,1.0,3
237952.5625,255325.953125,240995.625,249827.6875,225059.640625,254342.84375,228985.3125,229767.09375,383969.0,1.0,3
237973.140625,255323.09375,240992.3125,249827.78125,225045.515625,254333.359375,228977.265625,229757.703125,383970.0,1.0,3
237904.296875,255291.0,240977.65625,249816.421875,225031.296875,254314.9375,228974.328125,229733.125,383971.0,1.0,3
237850.203125,255282.0625,240974.4375,249814.375,225040.765625,254315.75,228980.3125,229732.671875,383972.0,1.0,3
237870.859375,255290.90625,240984.546875,249819.734375,225048.375,254326.46875,228983.984375,229743.671875,383973.0,1.0,3
237931.46875,255293.5,240986.0625,249817.5,225025.65625,254327.1875,228967.34375,229729.984375,383974.0,1.0,3
237950.515625,255288.3125,240979.796875,249813.484375,225011.09375,254316.640625,228958.234375,229719.078125,383975.0,1.0,3
237892.125,255276.25,240969.4375,249807.484375,225017.796875,254306.890625,228966.90625,229717.5625,383976.0,1.0,3
237839.46875,255276.515625,240968.359375,249808.828125,225038.265625,254311.28125,228979.5,229731.515625,383977.0,1.0,3
237868.4375,255300.296875,240977.125,249814.28125,225053.640625,254324.421875,228986.484375,229754.390625,383978.0,1.0,3
237944.796875,255325.421875,240987.046875,249821.171875,225052.84375,254333.890625,228982.90625,229763.78125,383979.0,1.0,3
237962.3125,255316.5625,240978.90625,249815.71875,225031.390625,254319.328125,228971.546875,229746.265625,383980.0,1.0,3
237891.5,255279.109375,240963.96875,249805.171875,225018.234375,254301.703125,228970.03125,229721.765625,383981.0,1.0,3
237838.125,255272.21875,240962.015625,249802.125,225031.46875,254310.203125,228980.484375,229729.8125,383982.0,1.0,3
237866.46875,255297.34375,240971.046875,249809.453125,225046.671875,254325.046875,228984.328125,229746.96875,383983.0,1.0,3
237942.28125,255320.0625,240983.734375,249819.46875,225044.34375,254334.25,228978.25,229753.859375,383984.0,1.0,3
237956.421875,255307.53125,240978.015625,249813.296875,225023.15625,254321.296875,228966.71875,229733.46875,383985.0,1.0,3
237883.1875,255267.484375,240964.515625,249803.46875,225008.3125,254302.96875,228963.953125,229706.921875,383986.0,1.0,3
237835.796875,255268.203125,240964.6875,249804.8125,225025.21875,254310.46875,228977.625,229716.125,383987.0,1.0,3
237865.3125,255294.3125,240974.890625,249812.046875,225042.296875,254326.5625,228981.296875,229740.453125,383988.0,1.0,3
237936.921875,255310.046875,240983.375,249818.578125,225036.21875,254332.28125,228975.390625,229745.8125,383989.0,1.0,3
237958.828125,255305.65625,240980.609375,249815.453125,225021.015625,254323.4375,228971.375,229732.40625,383990.0,1.0,3
237896.6875,255279.203125,240968.265625,249805.25,225013.140625,254305.90625,228970.75,229716.40625,383991.0,1.0,3
237840.984375,255268.203125,240963.96875,249801.859375,225023.78125,254305.90625,228970.46875,229718.546875,383992.0,1.0,3
237866.203125,255288.140625,240975.953125,249809.640625,225039.4375,254322.984375,228978.703125,229739.203125,383993.0,1.0,3
237940.859375,255312.640625,240986.59375,249818.390625,225037.28125,254334.25,228975.125,229748.671875,383994.0,1.0,3
237951.046875,255291.265625,240974.890625,249808.921875,225005.640625,254316.1875,228954.109375,229713.890625,383995.0,1.0,3
237872.546875,255240.75,240954.5,249794.25,224979.078125,254289.90625,228942.9375,229676.703125,383996.0,1.0,3
237821.5,255235.65625,240953.609375,249794.25,224992.671875,254295.546875,228953.21875,229682.875,383997.0,1.0,3
237852.34375,255262.296875,240969.15625,249805.96875,225013.765625,254318.78125,228966.09375,229707.375,383998.0,1.0,3
237927.09375,255287.6875,240981.328125,249815.09375,225018.328125,254329.96875,228964.390625,229727.390625,383999.0,1.0,3
237945.859375,255280.625,240974.703125,249810.4375,225000.53125,254314.578125,228948.578125,229712.734375,384000.0,1.0,3
237890.875,255264.0,240966.390625,249806.59375,224997.765625,254305.203125,228959.21875,229701.109375,384001.0,1.0,3
237835.171875,255259.703125,240961.734375,249802.484375,225014.484375,254308.140625,228971.8125,229710.671875,384002.0,1.0,3
237853.5,255269.546875,240968.0,249805.796875,225023.78125,254318.15625,228966.71875,229722.65625,384003.0,1.0,3
237921.640625,255281.15625,240974.703125,249808.5625,225016.984375,254322.8125,228954.828125,229724.453125,384004.0,1.0,3
237940.5,255270.96875,240969.078125,249804.8125,224997.671875,254313.25,228945.171875,229705.484375,384005.0,1.0,3
237871.921875,255235.203125,240950.828125,249791.484375,224981.765625,254291.78125,228941.0625,229679.734375,384006.0,1.0,3
237819.265625,255231.359375,240950.390625,249794.875,224998.390625,254299.828125,228954.828125,229689.9375,384007.0,1.0,3
237847.875,255256.21875,240965.578125,249807.9375,225020.921875,254320.65625,228965.734375,229718.015625,384008.0,1.0,3
237938.265625,255299.84375,240985.4375,249823.5,225041.75,254338.8125,228975.390625,229754.84375,384009.0,1.0,3
237975.1875,255322.5625,240989.015625,249826.4375,225047.125,254337.46875,228980.484375,229767.625,384010.0,1.0,3
237917.25,255308.25,240976.5,249819.109375,225046.84375,254322.453125,228985.40625,229759.671875,384011.0,1.0,3
237858.421875,255298.0625,240971.84375,249816.703125,225057.40625,254328.265625,228991.578125,229758.0625,384012.0,1.0,3
237886.3125,255325.78125,240984.625,249826.0,225079.9375,254346.765625,229001.234375,229783.28125,384013.0,1.0,3
237964.90625,255357.515625,240997.328125,249835.203125,225082.875,254358.296875,228999.265625,229796.859375,384014.0,1.0,3
237986.984375,255353.3125,240992.3125,249832.703125,225070.28125,254348.203125,228993.28125,229785.875,384015.0,1.0,3
237923.515625,255325.859375,240976.765625,249821.4375,225060.890625,254326.46875,228991.046875,229764.5,384016.0,1.0,3
237873.359375,255327.828125,240977.125,249823.40625,225082.34375,254333.359375,229005.34375,229773.625,384017.0,1.0,3
237898.03125,255345.984375,240991.515625,249832.4375,225101.203125,254350.25,229013.84375,229790.96875,384018.0,1.0,3
237970.546875,255364.125,241002.6875,249838.953125,225097.546875,254360.546875,229010.625,229798.390625,384019.0,1.0,3
237992.796875,255362.25,240994.546875,249834.765625,225079.9375,254349.28125,228995.0625,229785.421875,384020.0,1.0,3
237930.578125,255335.515625,240977.75,249822.515625,225067.421875,254326.921875,228985.9375,229761.015625,384021.0,1.0,3
237874.515625,255325.59375,240977.65625,249821.796875,225079.21875,254332.375,228998.375,229764.859375,384022.0,1.0,3
237895.96875,255340.96875,240986.328125,249826.984375,225088.6875,254341.140625,228998.1875,229778.8125,384023.0,1.0,3
237965.09375,255354.03125,240992.859375,249829.75,225079.484375,254345.78125,228987.109375,229778.53125,384024.0,1.0,3
237984.9375,255343.5625,240986.328125,249824.46875,225060.078125,254333.265625,228972.890625,229758.421875,384025.0,1.0,3
237919.40625,255309.5,240972.46875,249815.09375,225050.0625,254316.734375,228972.890625,229735.0,384026.0,1.0,3
237865.125,255302.171875,240970.5,249814.546875,225065.265625,254322.359375,228984.6875,229741.34375,384027.0,1.0,3
237885.609375,255318.984375,240981.859375,249824.203125,225079.21875,254337.46875,228993.625,229761.28125,384028.0,1.0,3
237961.328125,255344.015625,240996.703125,249832.796875,225080.5625,254349.90625,228992.296875,229776.65625,384029.0,1.0,3
237979.84375,255335.96875,240989.71875,249826.890625,225062.5,254338.015625,228978.796875,229761.28125,384030.0,1.0,3
237910.453125,255294.390625,240969.875,249812.5,225044.34375,254314.5,228971.375,229732.21875,384031.0,1.0,3
237853.59375,255283.9375,240967.90625,249810.625,225056.234375,254316.640625,228978.875,229734.375,384032.0,1.0,3
237879.4375,255305.75,240980.421875,249821.34375,225075.375,254333.0,228987.375,229755.734375,384033.0,1.0,3
237954.265625,255327.125,240992.40625,249829.84375,225075.015625,254342.390625,228982.28125,229766.015625,384034.0,1.0,3
237977.875,255318.890625,240988.921875,249829.03125,225057.578125,254335.421875,228979.15625,229753.0625,384035.0,1.0,3
237908.9375,255281.078125,240968.890625,249814.90625,225037.375,254312.171875,228975.125,229724.265625,384036.0,1.0,3
237856.1875,255279.109375,240966.921875,249812.765625,225047.390625,254310.921875,228977.0,229723.90625,384037.0,1.0,3
237880.59375,255304.953125,240979.890625,249822.0625,225065.53125,254326.828125,228983.53125,229746.703125,384038.0,1.0,3
237953.828125,255328.109375,240990.078125,249828.234375,225064.546875,254337.109375,228977.890625,229758.421875,384039.0,1.0,3
237974.46875,255318.796875,240984.71875,249824.03125,225044.171875,254327.453125,228968.78125,229742.953125,384040.0,1.0,3
237908.84375,255284.65625,240969.515625,249812.671875,225029.421875,254307.796875,228965.46875,229718.359375,384041.0,1.0,3
237851.1875,255276.78125,240968.453125,249811.875,225040.40625,254313.515625,228974.671875,229720.78125,384042.0,1.0,3
237872.8125,255297.703125,240980.25,249819.828125,225057.3125,254329.15625,228980.125,229740.984375,384043.0,1.0,3
237945.328125,255317.640625,240988.109375,249825.1875,225054.1875,254331.484375,228970.65625,229750.28125,384044.0,1.0,3
237973.3125,255313.53125,240986.59375,249824.203125,225041.484375,254324.953125,228962.78125,229738.390625,384045.0,1.0,3
237911.265625,255279.46875,240975.515625,249816.96875,225034.609375,254313.78125,228968.234375,229720.328125,384046.0,1.0,3
237861.28125,255280.984375,240977.828125,249822.234375,225053.46875,254323.171875,228982.375,229729.09375,384047.0,1.0,3
237883.453125,255302.890625,240991.515625,249831.625,225072.78125,254339.96875,228988.09375,229750.109375,384048.0,1.0,3
237955.609375,255323.1875,241001.265625,249836.90625,225072.515625,254349.1875,228983.265625,229761.375,384049.0,1.0,3
237982.078125,255318.265625,240995.71875,249833.328125,225055.96875,254339.0,228971.015625,229748.5,384050.0,1.0,3
237914.03125,255280.453125,240975.59375,249819.921875,225040.140625,254317.359375,228967.890625,229723.109375,384051.0,1.0,3
237850.734375,255267.84375,240969.4375,249815.984375,225051.40625,254320.03125,228974.953125,229725.703125,384052.0,1.0,3
237876.578125,255297.609375,240982.578125,249825.109375,225071.265625,254340.609375,228985.046875,229751.984375,384053.0,1.0,3
237951.140625,255318.984375,240993.921875,249832.96875,225072.875,254348.375,228981.203125,229763.0625,384054.0,1.0,3
237975.640625,255312.1875,240988.734375,249830.640625,225053.640625,254334.25,228970.125,229746.34375,384055.0,1.0,3
237915.375,255285.1875,240973.984375,249820.984375,225041.390625,254315.125,228968.78125,229724.890625,384056.0,1.0,3
237856.640625,255276.25,240970.6875,249817.765625,225052.578125,254315.03125,228977.625,229727.21875,384057.0,1.0,3
237868.609375,255288.765625,240978.546875,249824.03125,225063.65625,254325.484375,228981.46875,229738.21875,384058.0,1.0,3
237938.265625,255307.09375,240988.828125,249831.359375,225060.984375,254335.859375,228976.203125,229747.953125,384059.0,1.0,3
237970.265625,255310.9375,240986.859375,249827.515625,225044.890625,254326.390625,228968.859375,229740.1875,384060.0,1.0,3
237906.703125,255280.453125,240970.6875,249816.15625,225032.28125,254306.984375,228966.625,229716.578125,384061.0,1.0,3
237849.75,255273.109375,240971.125,249817.59375,225046.84375,254310.828125,228972.890625,229721.765625,384062.0,1.0,3
237874.703125,255299.3125,240988.734375,249831.625,225069.65625,254331.03125,228986.296875,229748.578125,384063.0,1.0,3
237946.9375,255322.5625,240999.5625,249838.515625,225069.375,254339.265625,228982.71875,229759.5,384064.0,1.0,3
237966.34375,255304.953125,240990.625,249828.953125,225043.0,254326.203125,228964.578125,229732.9375,384065.0,1.0,3
237908.84375,255273.390625,240977.828125,249818.484375,225030.3125,254309.578125,228961.984375,229711.390625,384066.0,1.0,3
237856.71875,255271.78125,240979.984375,249821.171875,225046.84375,254314.40625,228973.15625,229719.4375,384067.0,1.0,3
237878.0,255293.859375,240994.28125,249832.171875,225067.859375,254331.21875,228983.078125,229743.9375,384068.0,1.0,3
237951.859375,255311.375,241005.375,249840.75,225068.75,254342.921875,228981.03125,229757.34375,384069.0,1.0,3
237984.40625,255310.484375,241004.75,249840.65625,225053.5625,254338.71875,228974.671875,229749.296875,384070.0,1.0,3
237926.375,255285.453125,240989.28125,249830.109375,225039.703125,254318.421875,228972.0,229725.78125,384071.0,1.0,3
237863.609375,255272.40625,240984.71875,249828.046875,225050.609375,254319.40625,228979.6875,229727.484375,384072.0,1.0,3
237877.015625,255285.90625,240992.140625,249832.703125,225063.5625,254331.484375,228982.546875,229743.046875,384073.0,1.0,3
237952.65625,255313.4375,241004.203125,249842.984375,225065.359375,254344.359375,228978.515625,229753.765625,384074.0,1.0,3
237981.1875,255309.59375,241001.265625,249840.921875,225050.609375,254336.84375,228970.390625,229741.609375,384075.0,1.0,3
237918.953125,255274.453125,240985.609375,249829.390625,225036.390625,254317.0,228969.765625,229718.359375,384076.0,1.0,3
237864.5,255273.296875,240983.203125,249827.875,225050.15625,254321.203125,228981.203125,229724.453125,384077.0,1.0,3
237882.75,255293.59375,240992.9375,249835.5625,225065.984375,254334.515625,228985.859375,229744.921875,384078.0,1.0,3
237951.5,255314.875,241000.0,249840.296875,225063.390625,254342.84375,228978.34375,229755.015625,384079.0,1.0,3
237977.15625,255307.53125,240994.640625,249836.546875,225045.6875,254334.171875,228969.140625,229742.6875,384080.0,1.0,3
237915.90625,255276.96875,240976.84375,249824.65625,225028.796875,254314.5,228963.0625,229717.03125,384081.0,1.0,3
237853.6875,255266.046875,240972.65625,249821.25,225039.96875,254316.375,228973.0625,229718.28125,384082.0,1.0,3
237865.9375,255277.3125,240978.28125,249824.75,225051.5,254327.640625,228976.734375,229732.84375,384083.0,1.0,3
237937.640625,255299.9375,240985.703125,249829.578125,225050.34375,254336.046875,228970.46875,229743.84375,384084.0,1.0,3
237968.84375,255304.140625,240983.46875,249826.4375,225036.125,254329.78125,228962.703125,229733.5625,384085.0,1.0,3
237907.15625,255270.703125,240967.109375,249815.53125,225020.46875,254308.234375,228958.3125,229706.5625,384086.0,1.0,3
237847.78125,255260.15625,240963.796875,249815.265625,225031.921875,254309.3125,228967.609375,229710.140625,384087.0,1.0,3
237865.578125,255281.15625,240974.53125,249822.59375,225051.328125,254324.0625,228971.375,229732.21875,384088.0,1.0,3
237939.15625,255305.84375,240986.15625,249829.125,225051.59375,254333.71875,228968.15625,229742.234375,384089.0,1.0,3
237968.390625,255302.984375,240980.609375,249824.296875,225034.421875,254323.53125,228955.8125,229728.109375,384090.0,1.0,3
237911.0,255272.9375,240965.578125,249814.109375,225022.4375,254305.546875,228953.125,229708.078125,384091.0,1.0,3
237848.671875,255260.875,240963.078125,249810.796875,225036.21875,254309.21875,228967.25,229712.109375,384092.0,1.0,3
237867.09375,255281.15625,240975.328125,249817.859375,225056.234375,254325.578125,228978.34375,229735.359375,384093.0,1.0,3
237944.96875,255312.1875,240990.171875,249829.9375,225061.328125,254339.96875,228980.84375,229754.84375,384094.0,1.0,3
237976.625,255311.109375,240987.484375,249829.21875,225045.78125,254335.234375,228971.546875,229742.5,384095.0,1.0,3
237914.03125,255274.640625,240968.453125,249815.890625,225028.078125,254310.46875,228958.671875,229712.828125,384096.0,1.0,3
237854.671875,255259.34375,240969.15625,249817.953125,225039.875,254312.796875,228970.921875,229714.078125,384097.0,1.0,3
237878.265625,255285.640625,240983.734375,249828.59375,225060.984375,254332.109375,228982.1875,229741.34375,384098.0,1.0,3
237956.5,255314.875,240997.328125,249838.875,225066.34375,254345.34375,228981.390625,229757.078125,384099.0,1.0,3
237984.84375,255311.5625,240992.859375,249836.28125,225049.71875,254335.859375,228970.03125,229745.1875,384100.0,1.0,3
237921.640625,255279.46875,240975.234375,249823.3125,225032.546875,254310.828125,228963.5,229718.09375,384101.0,1.0,3
237856.015625,255261.671875,240970.765625,249819.375,225041.125,254310.65625,228970.46875,229717.65625,384102.0,1.0,3
237877.109375,255288.765625,240984.453125,249830.28125,225061.609375,254331.390625,228983.4375,229744.03125,384103.0,1.0,3
237950.953125,255317.375,240995.53125,249839.578125,225064.109375,254343.8125,228984.515625,229762.0,384104.0,1.0,3
237982.15625,255318.890625,240993.21875,249839.140625,225050.0625,254337.390625,228977.8125,229753.140625,384105.0,1.0,3
237920.828125,255283.484375,240976.765625,249826.0,225033.796875,254315.03125,228972.53125,229725.703125,384106.0,1.0,3
237863.96875,255276.25,240975.421875,249824.65625,225046.046875,254317.09375,228981.296875,229729.546875,384107.0,1.0,3
237877.375,255293.40625,240988.109375,249831.625,225063.03125,254333.359375,228985.9375,229745.71875,384108.0,1.0,3
237951.046875,255314.6875,240999.734375,249839.140625,225060.53125,254340.328125,228978.078125,229752.515625,384109.0,1.0,3
237992.53125,255323.1875,241000.8125,249842.09375,225049.984375,254337.65625,228974.671875,229749.65625,384110.0,1.0,3
237924.765625,255281.15625,240980.25,249828.046875,225030.484375,254316.015625,228966.28125,229723.015625,384111.0,1.0,3
237862.0,255267.21875,240974.890625,249825.28125,225041.125,254315.390625,228974.765625,229722.5625,384112.0,1.0,3
237881.40625,255292.609375,240988.296875,249835.203125,225064.015625,254334.171875,228986.21875,229745.28125,384113.0,1.0,3
237951.859375,255313.796875,241000.09375,249843.078125,225064.203125,254345.078125,228982.71875,229754.84375,384114.0,1.0,3
237976.359375,255303.6875,240993.390625,249836.71875,225046.21875,254335.953125,228972.71875,229742.859375,384115.0,1.0,3
237910.453125,255261.5,240975.953125,249824.65625,225026.375,254315.5625,228968.859375,229716.40625,384116.0,1.0,3
237845.015625,255241.734375,240968.453125,249818.3125,225028.34375,254312.53125,228971.546875,229708.796875,384117.0,1.0,3
237864.6875,255270.4375,240980.875,249827.0625,225052.03125,254329.6875,228981.109375,229736.78125,384118.0,1.0,3
237946.21875,255309.0625,240997.5,249839.765625,225060.984375,254344.53125,228985.40625,229758.78125,384119.0,1.0,3
237976.984375,255308.15625,240991.421875,249836.453125,225045.15625,254333.1875,228972.4375,229746.265625,384120.0,1.0,3
237915.734375,255275.890625,240972.109375,249824.828125,225028.875,254311.09375,228965.734375,229719.796875,384121.0,1.0,3
237857.53125,255268.375,240971.125,249824.46875,225041.578125,254316.8125,228978.25,229724.625,384122.0,1.0,3
237873.625,255288.140625,240986.328125,249834.578125,225063.03125,254339.265625,228992.375,229746.171875,384123.0,1.0,3
237944.25,255306.734375,240997.6875,249842.796875,225063.21875,254344.890625,228988.453125,229756.546875,384124.0,1.0,3
237980.28125,255308.078125,240996.609375,249841.46875,225049.890625,254338.1875,228978.875,229747.953125,384125.0,1.0,3
237918.140625,255272.765625,240973.28125,249822.328125,225026.734375,254312.265625,228961.453125,229714.25,384126.0,1.0,3
237853.59375,255258.8125,240968.53125,249818.21875,225035.671875,254312.96875,228970.125,229712.375,384127.0,1.0,3
237864.953125,255276.6875,240979.171875,249825.8125,225054.359375,254330.5,228977.890625,229734.734375,384128.0,1.0,3
237934.59375,255298.328125,240989.1875,249831.8125,225055.609375,254338.90625,228973.78125,229748.234375,384129.0,1.0,3
237972.59375,255303.96875,240988.390625,249832.25,225043.0,254332.375,228966.0,229740.265625,384130.0,1.0,3
237915.015625,255270.875,240971.671875,249821.34375,225027.453125,254312.171875,228960.109375,229714.796875,384131.0,1.0,3
237849.390625,255253.53125,240965.234375,249814.640625,225033.703125,254308.859375,228965.375,229710.046875,384132.0,1.0,3
237864.421875,255273.921875,240975.328125,249821.25,225053.28125,254323.96875,228974.953125,229729.8125,384133.0,1.0,3
237941.484375,255304.59375,240990.703125,249831.546875,225059.375,254340.421875,228979.859375,229749.484375,384134.0,1.0,3
237976.625,255304.3125,240990.265625,249831.625,225044.078125,254333.984375,228972.359375,229740.265625,384135.0,1.0,3
237916.09375,255270.53125,240975.328125,249822.78125,225028.96875,254311.71875,228964.125,229714.15625,384136.0,1.0,3
237852.171875,255255.859375,240973.546875,249821.25,225039.25,254313.0625,228972.53125,229713.625,384137.0,1.0,3
237869.421875,255277.59375,240988.921875,249831.625,225060.0,254330.671875,228982.8125,229736.6875,384138.0,1.0,3
237942.015625,255304.5,240998.9375,249839.671875,225062.3125,254338.28125,228974.234375,229747.6875,384139.0,1.0,3
237979.84375,255306.640625,240997.234375,249841.546875,225050.703125,254333.453125,228966.71875,229740.453125,384140.0,1.0,3
237923.421875,255272.578125,240984.265625,249831.546875,225036.921875,254313.953125,228963.140625,229717.03125,384141.0,1.0,3
237859.40625,255257.46875,240980.609375,249828.234375,225044.96875,254314.859375,228971.375,229714.15625,384142.0,1.0,3
237872.546875,255275.078125,240992.3125,249836.28125,225065.09375,254333.71875,228983.4375,229738.65625,384143.0,1.0,3
237945.421875,255301.28125,241002.6875,249843.25,225066.515625,254344.0,228978.96875,229751.09375,384144.0,1.0,3
237980.734375,255304.140625,240999.109375,249840.03125,225048.109375,254335.6875,228967.890625,229737.59375,384145.0,1.0,3
237923.875,255273.109375,240983.828125,249831.0,225031.5625,254314.9375,228962.703125,229711.296875,384146.0,1.0,3
237855.921875,255253.890625,240978.28125,249827.0625,225038.359375,254313.421875,228969.3125,229706.296875,384147.0,1.0,3
237867.640625,255272.40625,240990.171875,249837.4375,225055.171875,254331.65625,228980.484375,229729.546875,384148.0,1.0,3
237943.1875,255302.625,241001.34375,249844.59375,225059.015625,254342.65625,228979.5,229743.9375,384149.0,1.0,3
237984.046875,255309.765625,240998.671875,249843.78125,225048.015625,254338.359375,228971.734375,229736.0625,384150.0,1.0,3
237927.359375,255276.6875,240981.140625,249832.515625,225035.859375,254320.75,228969.3125,229714.796875,384151.0,1.0,3
237859.5,255263.640625,240973.1875,249828.328125,225046.3125,254320.484375,228978.4375,229717.296875,384152.0,1.0,3
237873.0,255288.671875,240983.109375,249835.5625,225064.109375,254334.171875,228986.75,229738.484375,384153.0,1.0,3
237942.109375,255305.75,240991.875,249840.125,225061.609375,254342.21875,228979.59375,229748.3125,384154.0,1.0,3
237975.8125,255304.671875,240989.28125,249836.453125,225045.515625,254335.0625,228968.859375,229740.0,384155.0,1.0,3
237923.421875,255279.640625,240975.15625,249827.6875,225032.359375,254315.828125,228968.15625,229717.375,384156.0,1.0,3
237859.9375,255265.703125,240970.953125,249826.4375,225043.546875,254317.796875,228979.0625,229718.28125,384157.0,1.0,3
237868.265625,255283.390625,240979.0,249831.890625,225061.6875,254333.359375,228986.921875,229736.875,384158.0,1.0,3
237944.875,255315.40625,240993.296875,249841.90625,225067.6875,254348.5625,228987.640625,229752.609375,384159.0,1.0,3
237988.78125,255323.453125,240995.09375,249842.625,225057.40625,254350.171875,228986.484375,229749.921875,384160.0,1.0,3
237931.46875,255287.953125,240977.46875,249830.203125,225038.453125,254322.8125,228972.796875,229724.453125,384161.0,1.0,3
237859.859375,255264.890625,240968.984375,249822.953125,225042.203125,254316.015625,228973.34375,229714.96875,384162.0,1.0,3
237862.265625,255270.875,240976.5,249827.34375,225051.671875,254325.40625,228975.84375,229724.890625,384163.0,1.0,3
237935.9375,255295.296875,240989.453125,249836.90625,225054.0,254335.6875,228974.234375,229738.390625,384164.0,1.0,3
237975.09375,255293.953125,240987.9375,249836.015625,225038.625,254331.84375,228962.703125,229726.59375,384165.0,1.0,3
237923.328125,255266.046875,240972.109375,249825.453125,225023.34375,254312.96875,228961.71875,229700.03125,384166.0,1.0,3
237861.90625,255256.671875,240970.0625,249825.640625,225039.25,254316.28125,228975.125,229706.109375,384167.0,1.0,3
237870.3125,255275.4375,240981.859375,249834.046875,225061.0625,254329.6875,228980.125,229729.546875,384168.0,1.0,3
237937.546875,255297.25,240992.140625,249839.859375,225059.09375,254338.71875,228972.890625,229739.109375,384169.0,1.0,3
237977.15625,255298.859375,240991.25,249839.40625,225041.671875,254330.40625,228961.796875,229730.875,384170.0,1.0,3
237925.390625,255270.703125,240978.28125,249831.453125,225028.703125,254311.28125,228957.953125,229713.453125,384171.0,1.0,3
237861.828125,255260.234375,240976.765625,249830.375,225043.71875,254314.140625,228970.03125,229717.46875,384172.0,1.0,3
237871.203125,255285.640625,240984.265625,249834.125,225060.625,254327.90625,228978.078125,229736.96875,384173.0,1.0,3
237941.3125,255308.703125,240993.5625,249840.296875,225060.4375,254337.921875,228974.671875,229747.25,384174.0,1.0,3
237975.546875,255301.453125,240991.78125,249839.40625,225044.890625,254331.21875,228964.84375,229737.5,384175.0,1.0,3
237922.625,255270.171875,240975.0625,249828.046875,225027.890625,254309.3125,228958.765625,229713.8125,384176.0,1.0,3
237861.28125,255263.109375,240970.765625,249825.28125,225040.859375,254308.421875,228968.421875,229717.03125,384177.0,1.0,3
237870.765625,255281.4375,240981.234375,249832.796875,225062.671875,254324.6875,228977.984375,229738.578125,384178.0,1.0,3
237940.234375,255303.875,240994.375,249841.46875,225065.890625,254336.84375,228976.203125,229749.21875,384179.0,1.0,3
237978.046875,255304.859375,240996.25,249843.515625,225052.75,254333.984375,228968.234375,229740.71875,384180.0,1.0,3
237924.859375,255274.015625,240978.1875,249831.890625,225034.421875,254313.953125,228962.96875,229712.546875,384181.0,1.0,3
237857.796875,255253.71875,240973.09375,249827.515625,225039.515625,254311.71875,228967.890625,229708.4375,384182.0,1.0,3
237870.21875,255277.9375,240985.703125,249837.4375,225061.875,254329.421875,228976.90625,229730.703125,384183.0,1.0,3
237939.78125,255301.734375,240995.984375,249842.890625,225061.78125,254338.546875,228974.59375,229738.296875,384184.0,1.0,3
237972.421875,255294.84375,240990.984375,249838.515625,225040.59375,254328.703125,228961.53125,229723.640625,384185.0,1.0,3
237923.6875,255269.265625,240978.1875,249831.625,225029.6875,254313.328125,228958.859375,229707.375,384186.0,1.0,3
237866.296875,255266.671875,240975.328125,249830.28125,225045.78125,254317.71875,228971.640625,229715.421875,384187.0,1.0,3
237870.21875,255282.5,240982.296875,249834.21875,225063.65625,254331.921875,228979.859375,229733.203125,384188.0,1.0,3
237934.421875,255303.6875,240988.65625,249838.78125,225059.640625,254339.34375,228971.734375,229740.0,384189.0,1.0,3
237965.09375,255293.859375,240977.5625,249829.296875,225032.90625,254324.953125,228953.3125,229723.734375,384190.0,1.0,3
237917.4375,255264.796875,240966.03125,249820.90625,225020.828125,254307.796875,228953.9375,229706.203125,384191.0,1.0,3
237855.65625,255255.5,240965.234375,249821.96875,225035.859375,254314.578125,228969.578125,229710.9375,384192.0,1.0,3
237864.0625,255273.828125,240976.21875,249830.28125,225056.953125,254331.84375,228978.515625,229734.1875,384193.0,1.0,3
237931.828125,255290.734375,240986.15625,249835.5625,225058.03125,254338.8125,228974.046875,229747.875,384194.0,1.0,3
237975.71875,255295.46875,240987.484375,249835.390625,225045.515625,254337.46875,228969.84375,229740.71875,384195.0,1.0,3
237924.578125,255265.515625,240970.859375,249824.75,225028.875,254313.515625,228957.78125,229716.578125,384196.0,1.0,3
237859.59375,255252.90625,240968.265625,249823.9375,225038.796875,254313.875,228967.34375,229717.46875,384197.0,1.0,3
237869.0625,255273.65625,240982.578125,249835.203125,225060.796875,254331.03125,228982.09375,229740.71875,384198.0,1.0,3
237936.484375,255296.1875,240990.171875,249837.890625,225058.109375,254339.0,228970.65625,229745.453125,384199.0,1.0,3
237979.75,255296.90625,240989.640625,249836.71875,225042.921875,254334.34375,228960.46875,229731.859375,384200.0,1.0,3
237930.390625,255269.09375,240977.5625,249829.578125,225029.140625,254314.140625,228958.765625,229709.875,384201.0,1.0,3
237865.75,255259.265625,240971.84375,249826.0,225037.640625,254312.4375,228966.90625,229708.265625,384202.0,1.0,3
237876.578125,255281.78125,240984.09375,249835.5625,225059.546875,254331.65625,228980.9375,229734.1875,384203.0,1.0,3
237947.828125,255308.609375,240998.390625,249845.125,225066.78125,254348.5625,228983.890625,229753.5,384204.0,1.0,3
237982.34375,255303.609375,240991.421875,249840.296875,225046.84375,254339.0,228966.8125,229740.625,384205.0,1.0,3
237929.765625,255270.609375,240973.09375,249827.609375,225029.78125,254317.0,228959.65625,229712.828125,384206.0,1.0,3
237866.296875,255262.203125,240969.078125,249824.828125,225040.0625,254314.859375,228967.078125,229713.359375,384207.0,1.0,3
237867.359375,255274.015625,240976.9375,249830.375,225055.078125,254328.703125,228974.234375,229728.640625,384208.0,1.0,3
237930.578125,255286.171875,240987.125,249836.1875,225051.953125,254337.921875,228971.28125,229735.890625,384209.0,1.0,3
237976.796875,255293.859375,240987.84375,249836.8125,225038.453125,254331.03125,228961.796875,229729.984375,384210.0,1.0,3
237930.21875,255266.140625,240972.203125,249826.171875,225022.71875,254310.921875,228957.421875,229704.78125,384211.0,1.0,3
237860.921875,255243.4375,240964.0625,249821.96875,225026.734375,254307.515625,228963.953125,229697.984375,384212.0,1.0,3
237868.265625,255266.140625,240974.265625,249828.5,225047.75,254325.21875,228973.78125,229720.0625,384213.0,1.0,3
237938.359375,255290.734375,240986.59375,249835.734375,225050.515625,254336.046875,228968.421875,229734.28125,384214.0,1.0,3
237984.484375,255296.71875,240988.921875,249838.328125,225039.875,254332.828125,228962.34375,229731.515625,384215.0,1.0,3
237938.0,255270.875,240980.25,249833.5,225030.046875,254319.140625,228964.21875,229715.859375,384216.0,1.0,3
237867.28125,255254.609375,240973.359375,249829.84375,225036.296875,254318.078125,228971.8125,229711.921875,384217.0,1.0,3
237864.5,255262.828125,240975.78125,249832.078125,225046.40625,254325.3125,228972.0,229722.84375,384218.0,1.0,3
237938.625,255289.75,240988.828125,249842.265625,225053.5625,254338.71875,228972.0,229740.09375,384219.0,1.0,3
237988.6875,255298.15625,240992.046875,249844.0625,225044.890625,254338.453125,228966.359375,229736.15625,384220.0,1.0,3
237935.046875,255265.34375,240976.3125,249831.09375,225027.453125,254316.90625,228958.671875,229709.6875,384221.0,1.0,3
237866.46875,255249.6875,240970.5,249827.0625,225032.09375,254314.765625,228966.28125,229704.421875,384222.0,1.0,3
237862.890625,255252.546875,240973.28125,249828.59375,225038.53125,254319.859375,228963.5,229711.484375,384223.0,1.0,3
237931.65625,255277.859375,240984.8125,249835.109375,225040.765625,254327.28125,228957.78125,229725.15625,384224.0,1.0,3
237979.84375,255285.453125,240988.390625,249838.328125,225032.8125,254325.84375,228952.59375,229722.484375,384225.0,1.0,3
237930.125,255253.625,240970.859375,249826.0,225014.390625,254303.859375,228944.640625,229693.953125,384226.0,1.0,3
237871.03125,255246.828125,240970.0625,249827.515625,225027.453125,254309.484375,228957.15625,229694.40625,384227.0,1.0,3
237884.0,255276.96875,240989.375,249845.046875,225058.203125,254337.921875,228977.359375,229725.15625,384228.0,1.0,3
237953.28125,255302.359375,241003.578125,249856.3125,225061.6875,254353.125,228979.0625,229739.28125,384229.0,1.0,3
238006.578125,255316.484375,241009.84375,249863.09375,225057.84375,254360.0,228984.15625,229743.21875,384230.0,1.0,3
237967.234375,255299.765625,241001.96875,249860.234375,225054.8125,254352.671875,228993.625,229735.796875,384231.0,1.0,3
237898.84375,255288.3125,240995.265625,249854.421875,225062.5,254349.71875,228999.09375,229733.390625,384232.0,1.0,3
237896.875,255305.484375,241004.65625,249859.25,225080.203125,254364.203125,229008.46875,229752.78125,384233.0,1.0,3
237958.296875,255323.984375,241009.390625,249860.59375,225078.328125,254369.03125,229000.421875,229761.453125,384234.0,1.0,3
237996.203125,255317.109375,241002.328125,249855.140625,225056.15625,254355.4375,228982.546875,229747.15625,384235.0,1.0,3
237933.34375,255266.765625,240976.140625,249834.046875,225022.265625,254322.1875,228963.328125,229705.578125,384236.0,1.0,3
237857.984375,255238.875,240965.671875,249824.390625,225022.796875,254313.328125,228962.96875,229695.296875,384237.0,1.0,3
237861.46875,255252.28125,240974.890625,249831.453125,225041.484375,254326.125,228972.171875,229712.734375,384238.0,1.0,3
237933.171875,255278.65625,240987.84375,249840.84375,225046.140625,254337.734375,228969.84375,229727.84375,384239.0,1.0,3
237980.734375,255286.265625,240987.671875,249840.125,225034.15625,254333.984375,228955.09375,229721.140625,384240.0,1.0,3
237937.28125,255263.734375,240976.40625,249833.0625,225023.609375,254317.625,228951.4375,229699.40625,384241.0,1.0,3
237872.90625,255255.234375,240974.890625,249833.328125,225038.984375,254323.96875,228966.09375,229703.703125,384242.0,1.0,3
237875.140625,255275.625,240983.28125,249840.5625,225060.890625,254340.515625,228980.765625,229724.359375,384243.0,1.0,3
237937.734375,255296.09375,240990.078125,249843.34375,225060.984375,254347.3125,228976.015625,229732.84375,384244.0,1.0,3
237983.5,255298.59375,240991.953125,249841.375,225047.203125,254345.703125,228967.078125,229727.84375,384245.0,1.0,3
237938.359375,255274.015625,240976.140625,249830.640625,225029.59375,254325.140625,228959.21875,229704.15625,384246.0,1.0,3
237867.90625,255258.71875,240968.890625,249826.0,225036.75,254322.625,228968.15625,229702.8125,384247.0,1.0,3
237860.484375,255264.796875,240974.890625,249831.09375,225047.75,254331.21875,228971.109375,229715.859375,384248.0,1.0,3
237929.234375,255289.921875,240985.875,249838.6875,225048.109375,254341.40625,228963.5,229725.703125,384249.0,1.0,3
237978.40625,255296.359375,240987.3125,249841.46875,225036.84375,254339.0,228956.171875,229719.796875,384250.0,1.0,3
237935.578125,255270.25,240973.546875,249833.328125,225024.234375,254320.03125,228954.5625,229697.984375,384251.0,1.0,3
237875.328125,255264.359375,240970.953125,249833.5,225039.703125,254324.6875,228971.1875,229703.703125,384252.0,1.0,3
237868.609375,255271.0625,240974.53125,249834.125,225050.875,254332.5625,228973.0625,229716.3125,384253.0,1.0,3
237933.96875,255290.546875,240985.875,249841.46875,225051.140625,254339.4375,228969.3125,229727.75,384254.0,1.0,3
237983.328125,255299.3125,240988.734375,249843.515625,225040.328125,254337.296875,228960.90625,229725.078125,384255.0,1.0,3
237938.171875,255269.265625,240974.265625,249834.484375,225025.9375,254320.21875,228955.71875,229703.34375,384256.0,1.0,3
237869.0625,255250.765625,240966.390625,249828.5,225030.21875,254317.625,228964.390625,229695.65625,384257.0,1.0,3
237869.328125,255267.03125,240975.421875,249835.390625,225051.046875,254330.765625,228975.21875,229717.375,384258.0,1.0,3
237940.859375,255296.359375,240989.546875,249846.5625,225057.578125,254341.9375,228974.5,229734.734375,384259.0,1.0,3
237983.953125,255298.6875,240990.34375,249845.484375,225044.171875,254337.46875,228963.765625,229729.0,384260.0,1.0,3
237937.734375,255268.46875,240974.171875,249832.703125,225024.5,254316.015625,228956.4375,229705.765625,384261.0,1.0,3
237869.421875,255251.390625,240967.375,249829.75,225030.046875,254314.3125,228963.328125,229700.125,384262.0,1.0,3
237871.125,255269.359375,240976.9375,249836.09375,225048.375,254331.484375,228972.4375,229719.078125,384263.0,1.0,3
237939.15625,255296.1875,240987.9375,249844.765625,225054.265625,254344.53125,228972.265625,229734.640625,384264.0,1.0,3
237983.59375,255296.1875,240988.5625,249846.296875,225041.75,254341.140625,228963.40625,229728.734375,384265.0,1.0,3
237936.484375,255263.734375,240973.1875,249835.109375,225023.15625,254318.609375,228956.0,229702.625,384266.0,1.0,3
237870.859375,255252.015625,240969.078125,249831.984375,225032.28125,254314.671875,228965.109375,229702.453125,384267.0,1.0,3
237873.625,255273.828125,240979.71875,249839.859375,225053.828125,254329.875,228975.75,229725.078125,384268.0,1.0,3
237940.859375,255303.515625,240994.015625,249849.234375,225060.171875,254343.015625,228976.28125,229741.609375,384269.0,1.0,3
237973.40625,255285.71875,240988.65625,249843.4375,225029.6875,254330.40625,228955.8125,229718.015625,384270.0,1.0,3
237911.625,255230.015625,240965.046875,249823.21875,224989.90625,254298.140625,228938.734375,229671.609375,384271.0,1.0,3
237842.953125,255209.375,240958.34375,249820.28125,224993.75,254295.625,228951.171875,229666.234375,384272.0,1.0,3
237847.25,255237.890625,240971.578125,249829.9375,225022.890625,254314.234375,228972.4375,229694.5,384273.0,1.0,3
237912.0625,255264.4375,240982.484375,249838.609375,225033.171875,254327.8125,228978.609375,229716.578125,384274.0,1.0,3
237958.828125,255271.0625,240984.546875,249839.140625,225019.84375,254322.453125,228963.0625,229711.65625,384275.0,1.0,3
237912.515625,255241.828125,240967.375,249823.140625,224996.421875,254295.265625,228951.078125,229681.625,384276.0,1.0,3
237838.75,255215.0,240956.28125,249810.53125,224995.890625,254284.1875,228951.703125,229668.75,384277.0,1.0,3
237838.9375,255231.546875,240967.28125,249817.6875,225016.71875,254298.9375,228964.125,229690.375,384278.0,1.0,3
237917.875,255270.4375,240983.203125,249829.75,225028.609375,254315.125,228972.796875,229715.234375,384279.0,1.0,3
237968.125,255274.640625,240981.140625,249830.375,225014.21875,254309.3125,228965.640625,229713.1875,384280.0,1.0,3
237923.875,255249.875,240966.5625,249817.40625,225002.328125,254292.953125,228963.0625,229697.625,384281.0,1.0,3
237853.328125,255237.171875,240960.578125,249810.078125,225009.75,254287.765625,228966.8125,229696.28125,384282.0,1.0,3
237843.40625,255240.65625,240966.84375,249811.875,225018.6875,254296.34375,228970.5625,229704.234375,384283.0,1.0,3
237914.484375,255268.109375,240981.40625,249820.359375,225024.5,254308.5,228972.171875,229721.9375,384284.0,1.0,3
237968.21875,255280.71875,240984.984375,249824.203125,225016.984375,254306.453125,228966.09375,229727.03125,384285.0,1.0,3
237922.625,255247.09375,240965.3125,249809.546875,224996.0625,254282.125,228955.640625,229702.09375,384286.0,1.0,3
237856.28125,255231.0,240956.109375,249803.109375,225004.03125,254279.171875,228960.828125,229697.359375,384287.0,1.0,3
237854.84375,255252.375,240968.265625,249812.859375,225030.3125,254299.296875,228976.109375,229721.9375,384288.0,1.0,3
237921.546875,255284.375,240980.421875,249820.625,225036.296875,254311.546875,228976.46875,229739.203125,384289.0,1.0,3
237978.671875,255304.59375,240985.796875,249824.5625,225031.828125,254314.234375,228971.90625,229742.0625,384290.0,1.0,3
237929.6875,255273.296875,240968.453125,249812.3125,225009.921875,254292.046875,228960.28125,229713.265625,384291.0,1.0,3
237855.390625,255248.265625,240961.5625,249808.734375,225010.109375,254287.84375,228963.953125,229701.203125,384292.0,1.0,3
237854.671875,255266.234375,240972.46875,249816.703125,225034.328125,254304.484375,228977.265625,229725.515625,384293.0,1.0,3
237933.890625,255311.375,240988.390625,249829.578125,225054.890625,254322.546875,228983.4375,229755.734375,384294.0,1.0,3
238011.3125,255364.765625,241002.515625,249843.078125,225073.9375,254337.65625,228995.953125,229786.578125,384295.0,1.0,3
237972.234375,255348.671875,240989.453125,249836.015625,225067.6875,254324.78125,228997.484375,229776.65625,384296.0,1.0,3
237895.796875,255325.328125,240974.96875,249824.203125,225069.5625,254312.265625,228995.0625,229769.0625,384297.0,1.0,3
237889.53125,255340.96875,240982.84375,249829.84375,225088.421875,254326.125,229004.1875,229791.5,384298.0,1.0,3
237954.8125,255366.1875,240994.546875,249838.25,225094.59375,254341.40625,229002.65625,229805.984375,384299.0,1.0,3
238002.1875,255370.84375,240992.5,249834.578125,225078.140625,254337.296875,228987.90625,229792.578125,384300.0,1.0,3
237953.734375,255333.46875,240978.453125,249826.71875,225057.9375,254315.203125,228981.390625,229765.296875,384301.0,1.0,3
237883.09375,255312.1875,240971.125,249822.59375,225064.46875,254309.125,228986.75,229760.03125,384302.0,1.0,3
237877.015625,255323.8125,240978.90625,249827.15625,225080.375,254323.34375,228994.96875,229770.484375,384303.0,1.0,3
237942.375,255344.109375,240992.40625,249837.171875,225081.453125,254336.84375,228993.359375,229783.359375,384304.0,1.0,3
237994.234375,255350.71875,240996.078125,249840.390625,225068.21875,254334.078125,228981.5625,229775.40625,384305.0,1.0,3
237958.46875,255332.75,240986.6875,249833.328125,225057.125,254319.328125,228981.828125,229754.75,384306.0,1.0,3
237883.453125,255308.34375,240976.578125,249824.828125,225061.609375,254316.109375,228991.484375,229745.640625,384307.0,1.0,3
237867.359375,255304.859375,240979.0,249823.40625,225068.578125,254320.65625,228987.734375,229750.734375,384308.0,1.0,3
237936.03125,255328.375,240993.296875,249833.6875,225068.484375,254329.78125,228982.28125,229764.328125,384309.0,1.0,3
237983.765625,255332.484375,240992.140625,249832.4375,225053.109375,254323.609375,228969.765625,229756.625,384310.0,1.0,3
237943.265625,255307.09375,240977.65625,249821.890625,225037.640625,254304.390625,228964.84375,229734.734375,384311.0,1.0,3
237871.921875,255290.109375,240969.78125,249816.78125,225041.671875,254300.375,228972.984375,229731.859375,384312.0,1.0,3
237865.21875,255307.265625,240979.171875,249824.390625,225062.140625,254316.734375,228985.765625,229756.625,384313.0,1.0,3
237928.4375,255330.421875,240989.90625,249832.703125,225064.734375,254328.0,228983.703125,229768.703125,384314.0,1.0,3
237978.140625,255336.859375,240991.15625,249832.515625,225048.8125,254324.953125,228973.609375,229756.0,384315.0,1.0,3
237934.78125,255303.875,240975.859375,249821.34375,225027.265625,254302.609375,228964.3125,229729.359375,384316.0,1.0,3
237863.515625,255280.53125,240966.921875,249817.328125,225030.671875,254295.1875,228971.640625,229724.984375,384317.0,1.0,3
237855.5625,255294.75,240972.203125,249822.59375,225047.296875,254306.625,228981.203125,229743.578125,384318.0,1.0,3
237921.90625,255325.0625,240985.25,249832.25,225054.1875,254318.078125,228974.046875,229761.90625,384319.0,1.0,3
237973.3125,255329.796875,240987.40625,249831.265625,225040.40625,254313.59375,228961.53125,229753.6875,384320.0,1.0,3
237934.15625,255300.390625,240973.0,249821.4375,225024.328125,254294.28125,228958.140625,229729.546875,384321.0,1.0,3
237866.46875,255284.109375,240964.515625,249818.75,225032.09375,254291.515625,228968.15625,229728.109375,384322.0,1.0,3
237859.3125,255295.203125,240970.953125,249823.046875,225049.359375,254305.828125,228977.0,229743.75,384323.0,1.0,3
237924.9375,255320.6875,240983.46875,249830.734375,225055.4375,254317.0,228977.8125,229762.0,384324.0,1.0,3
237971.609375,255321.484375,240981.046875,249826.71875,225037.640625,254308.953125,228960.734375,229749.125,384325.0,1.0,3
237927.71875,255283.671875,240964.15625,249815.265625,225016.1875,254287.671875,228950.984375,229715.5,384326.0,1.0,3
237860.484375,255267.125,240959.5,249811.953125,225026.46875,254287.578125,228959.484375,229712.375,384327.0,1.0,3
237861.109375,255288.5,240975.859375,249823.578125,225052.75,254309.9375,228975.65625,229736.78125,384328.0,1.0,3
237927.625,255317.46875,240990.265625,249833.234375,225057.40625,254323.078125,228974.234375,229751.890625,384329.0,1.0,3
237974.65625,255322.46875,240986.328125,249830.375,225037.90625,254315.5625,228958.140625,229742.328125,384330.0,1.0,3
237939.96875,255299.40625,240973.984375,249822.0625,225022.265625,254298.3125,228951.703125,229718.1875,384331.0,1.0,3
237874.703125,255287.0625,240973.09375,249823.3125,225033.96875,254301.0,228967.96875,229720.15625,384332.0,1.0,3
237870.765625,255304.40625,240982.125,249829.9375,225055.609375,254316.28125,228980.125,229740.0,384333.0,1.0,3
237935.40625,255329.625,240995.53125,249837.890625,225061.421875,254326.203125,228976.734375,229756.546875,384334.0,1.0,3
237991.8125,255339.015625,241001.703125,249841.015625,225051.953125,254327.1875,228971.375,229755.015625,384335.0,1.0,3
237946.765625,255305.84375,240982.484375,249827.515625,225028.796875,254301.984375,228957.15625,229723.734375,384336.0,1.0,3
237869.328125,255283.046875,240972.296875,249822.234375,225031.5625,254296.34375,228962.96875,229717.921875,384337.0,1.0,3
237858.15625,255295.921875,240979.71875,249828.859375,225050.609375,254309.125,228971.1875,229736.0625,384338.0,1.0,3
237923.953125,255324.53125,240992.859375,249836.453125,225057.765625,254320.390625,228968.953125,229752.96875,384339.0,1.0,3
237983.421875,255339.90625,240998.21875,249840.484375,225051.671875,254323.25,228966.0,229756.90625,384340.0,1.0,3
237948.640625,255316.65625,240985.796875,249832.4375,225039.875,254304.21875,228962.609375,229735.984375,384341.0,1.0,3
237872.46875,255288.578125,240977.203125,249826.4375,225041.484375,254300.375,228968.234375,229727.125,384342.0,1.0,3
237858.875,255292.609375,240981.953125,249827.96875,225054.0,254314.234375,228974.765625,229738.578125,384343.0,1.0,3
237930.578125,255326.21875,240996.78125,249839.5,225062.671875,254329.25,228972.4375,229760.125,384344.0,1.0,3
237980.015625,255329.0,240995.8125,249837.890625,225044.53125,254323.96875,228961.625,229749.921875,384345.0,1.0,3
237940.859375,255300.5625,240979.53125,249828.5,225026.109375,254302.515625,228956.171875,229723.546875,384346.0,1.0,3
237863.515625,255270.25,240967.46875,249822.859375,225027.265625,254298.21875,228961.71875,229713.0,384347.0,1.0,3
237853.5,255281.703125,240976.5,249830.203125,225045.78125,254314.671875,228973.34375,229734.375,384348.0,1.0,3
237921.71875,255314.59375,240992.046875,249838.875,225055.796875,254329.34375,228975.9375,229755.921875,384349.0,1.0,3
237975.71875,255322.5625,240990.53125,249836.375,225044.078125,254325.3125,228966.1875,229750.546875,384350.0,1.0,3
237932.90625,255289.390625,240970.859375,249823.21875,225022.078125,254302.15625,228954.921875,229721.9375,384351.0,1.0,3
237861.375,255269.8125,240963.703125,249818.21875,225026.015625,254297.953125,228960.46875,229715.765625,384352.0,1.0,3
237857.265625,255288.140625,240974.703125,249828.234375,225050.15625,254316.1875,228973.15625,229736.0625,384353.0,1.0,3
237920.5625,255311.296875,240987.125,249837.4375,225056.234375,254325.140625,228970.296875,229748.9375,384354.0,1.0,3
237974.46875,255319.515625,240989.09375,249838.25,225045.15625,254323.875,228961.265625,229746.890625,384355.0,1.0,3
237941.9375,255296.546875,240975.859375,249827.0625,225026.015625,254305.734375,228956.4375,229724.359375,384356.0,1.0,3
237866.203125,255275.625,240965.9375,249819.015625,225024.046875,254299.75,228963.765625,229715.5,384357.0,1.0,3
237858.421875,255294.3125,240974.609375,249826.265625,225045.421875,254314.3125,228976.640625,229735.265625,384358.0,1.0,3
237927.53125,255329.265625,240990.0,249837.34375,225059.8125,254326.296875,228976.828125,229759.5,384359.0,1.0,3
