FZ,C3,CZ,C4,PZ,PO7,OZ,PO8,Counter,Validation,Label
237848.59375,255216.796875,240897.546875,249743.46875,224967.546875,254252.453125,228880.09375,229663.828125,386354.0,1.0,4
237815.953125,255219.5625,240903.171875,249747.40625,224985.515625,254262.734375,228891.53125,229677.6875,386355.0,1.0,4
237865.84375,255245.21875,240918.375,249758.140625,224996.78125,254276.234375,228896.53125,229697.625,386356.0,1.0,4
237939.0625,255269.984375,240928.65625,249766.0,224995.4375,254285.265625,228893.859375,229708.265625,386357.0,1.0,4
237921.90625,255246.65625,240911.3125,249752.0625,224971.578125,254262.28125,228877.9375,229680.71875,386358.0,1.0,4
237844.5625,255214.109375,240896.03125,249741.859375,224965.578125,254245.5625,228880.890625,229662.3125,386359.0,1.0,4
237814.34375,255218.125,240900.046875,249745.703125,224984.890625,254258.53125,228894.65625,229677.421875,386360.0,1.0,4
237863.15625,255241.828125,240914.4375,249755.1875,224996.515625,254275.328125,228898.0625,229696.1875,386361.0,1.0,4
237937.28125,255265.0625,240922.84375,249761.09375,224990.4375,254280.4375,228890.09375,229699.234375,386362.0,1.0,4
237930.21875,255247.1875,240914.359375,249755.546875,224973.8125,254264.78125,228882.046875,229679.921875,386363.0,1.0,4
237848.953125,255204.71875,240896.921875,249743.109375,224963.25,254248.328125,228880.171875,229654.171875,386364.0,1.0,4
237816.84375,255207.671875,240898.703125,249747.046875,224979.53125,254257.625,228892.0625,229666.15625,386365.0,1.0,4
237870.046875,255242.09375,240914.09375,249756.96875,224996.78125,254275.0625,228898.328125,229691.28125,386366.0,1.0,4
237936.296875,255257.921875,240918.734375,249758.3125,224988.640625,254275.0625,228886.171875,229691.453125,386367.0,1.0,4
237920.390625,255232.078125,240904.34375,249747.140625,224965.484375,254254.0625,228869.0,229665.4375,386368.0,1.0,4
237849.21875,255206.328125,240894.15625,249741.15625,224962.8125,254248.25,228875.890625,229654.078125,386369.0,1.0,4
237821.59375,255219.109375,240900.9375,249746.78125,224983.90625,254261.125,228891.984375,229672.671875,386370.0,1.0,4
237873.171875,255250.5,240916.140625,249757.953125,224997.859375,254275.421875,228896.625,229697.09375,386371.0,1.0,4
237937.546875,255257.46875,240918.828125,249758.21875,224984.0,254274.171875,228879.734375,229690.828125,386372.0,1.0,4
237931.375,255239.046875,240910.59375,249753.578125,224967.09375,254259.234375,228870.875,229671.609375,386373.0,1.0,4
237863.15625,255218.84375,240902.28125,249749.28125,224967.453125,254252.0,228880.0,229659.71875,386374.0,1.0,4
237824.71875,255215.1875,240903.265625,249750.71875,224982.5625,254259.15625,228887.328125,229666.953125,386375.0,1.0,4
237870.5,255237.71875,240917.390625,249759.828125,224995.703125,254274.796875,228888.671875,229680.640625,386376.0,1.0,4
237945.421875,255259.53125,240927.59375,249765.015625,224992.140625,254279.8125,228884.90625,229687.515625,386377.0,1.0,4
237936.65625,255237.53125,240914.625,249754.734375,224968.4375,254258.796875,228871.859375,229662.671875,386378.0,1.0,4
237859.671875,255205.609375,240899.421875,249744.640625,224960.484375,254243.78125,228871.40625,229640.9375,386379.0,1.0,4
237825.796875,255212.59375,240903.890625,249749.203125,224984.625,254258.34375,228887.0625,229658.375,386380.0,1.0,4
237877.109375,255242.625,240920.53125,249761.09375,225005.453125,254278.640625,228897.515625,229685.734375,386381.0,1.0,4
237947.828125,255264.359375,240928.484375,249765.46875,225002.6875,254287.21875,228895.015625,229694.9375,386382.0,1.0,4
237938.09375,255244.78125,240915.078125,249755.359375,224981.578125,254267.28125,228882.328125,229673.390625,386383.0,1.0,4
237864.421875,255219.296875,240901.21875,249745.703125,224975.5,254250.921875,228882.953125,229654.890625,386384.0,1.0,4
237828.296875,255221.625,240907.03125,249748.84375,224992.578125,254263.71875,228896.265625,229669.1875,386385.0,1.0,4
237872.640625,255245.40625,240921.59375,249758.3125,225002.59375,254279.171875,228898.5,229687.25,386386.0,1.0,4
237942.828125,255265.15625,240930.890625,249766.1875,225000.625,254285.796875,228895.109375,229693.0625,386387.0,1.0,4
237936.65625,255248.078125,240920.609375,249758.5,224981.3125,254269.34375,228886.796875,229668.828125,386388.0,1.0,4
237859.59375,255214.109375,240905.6875,249748.390625,224972.46875,254251.828125,228885.0,229649.703125,386389.0,1.0,4
237828.734375,255221.53125,240908.984375,249751.15625,224989.453125,254263.265625,228896.8125,229661.59375,386390.0,1.0,4
237876.03125,255246.46875,240923.5625,249760.28125,225001.96875,254278.28125,228899.21875,229682.421875,386391.0,1.0,4
237948.09375,255264.890625,240932.0625,249769.40625,224998.578125,254287.3125,228895.28125,229691.984375,386392.0,1.0,4
237941.65625,255248.078125,240919.09375,249760.546875,224977.375,254269.703125,228885.546875,229671.609375,386393.0,1.0,4
237870.40625,255221.265625,240906.046875,249751.15625,224972.828125,254253.96875,228886.25,229654.703125,386394.0,1.0,4
237825.25,255210.53125,240904.875,249749.375,224983.734375,254258.796875,228894.03125,229657.75,386395.0,1.0,4
237871.65625,255238.0625,240919.890625,249759.125,224996.515625,254276.140625,228899.75,229681.078125,386396.0,1.0,4
237942.015625,255258.8125,240927.859375,249764.578125,224987.9375,254281.859375,228889.5625,229686.890625,386397.0,1.0,4
237932.0,255237.53125,240913.1875,249753.75,224964.59375,254263.4375,228875.4375,229661.859375,386398.0,1.0,4
237859.5,255206.234375,240901.296875,249745.984375,224964.328125,254251.46875,228882.140625,229648.1875,386399.0,1.0,4
237826.5,255214.375,240906.3125,249751.078125,224985.96875,254261.390625,228894.484375,229662.046875,386400.0,1.0,4
237872.546875,255246.734375,240917.9375,249759.828125,225000.71875,254275.328125,228897.515625,229681.0,386401.0,1.0,4
237936.5625,255258.8125,240922.3125,249764.3125,224991.859375,254280.25,228893.40625,229681.984375,386402.0,1.0,4
237930.21875,255238.78125,240914.0,249759.5625,224975.5,254268.8125,228890.28125,229665.609375,386403.0,1.0,4
237857.171875,255209.015625,240896.296875,249746.25,224968.4375,254248.25,228881.515625,229648.0,386404.0,1.0,4
237822.65625,255213.65625,240899.953125,249749.28125,224986.59375,254256.203125,228889.5625,229660.4375,386405.0,1.0,4
237863.609375,255233.234375,240912.03125,249757.875,224997.40625,254271.046875,228894.03125,229678.84375,386406.0,1.0,4
237930.390625,255249.15625,240914.0,249757.78125,224985.78125,254274.0,228884.90625,229680.015625,386407.0,1.0,4
237926.546875,255236.734375,240901.296875,249748.21875,224966.203125,254258.53125,228877.5,229660.078125,386408.0,1.0,4
237853.78125,255207.140625,240887.359375,249738.828125,224961.828125,254245.5625,228881.421875,229643.890625,386409.0,1.0,4
237819.984375,255211.421875,240890.390625,249742.046875,224979.796875,254257.453125,228894.21875,229657.390625,386410.0,1.0,4
237860.390625,255232.703125,240902.640625,249749.828125,224990.796875,254272.828125,228895.640625,229674.734375,386411.0,1.0,4
237928.4375,255250.5,240910.78125,249753.671875,224984.796875,254278.203125,228888.84375,229678.125,386412.0,1.0,4
237919.84375,255227.078125,240895.046875,249743.109375,224961.015625,254258.4375,228875.53125,229655.0625,386413.0,1.0,4
237846.625,255197.125,240878.328125,249732.5625,224953.234375,254243.6875,228875.609375,229639.0625,386414.0,1.0,4
237810.234375,255200.78125,240882.53125,249735.34375,224968.625,254255.21875,228886.875,229649.875,386415.0,1.0,4
237854.84375,255227.703125,240896.296875,249744.453125,224982.203125,254270.234375,228891.4375,229672.671875,386416.0,1.0,4
237925.03125,255247.8125,240904.703125,249750.625,224979.796875,254275.515625,228883.9375,229682.25,386417.0,1.0,4
237927.53125,255240.65625,240898.265625,249747.3125,224968.890625,254264.96875,228881.34375,229668.125,386418.0,1.0,4
237859.140625,255216.609375,240892.0,249742.84375,224968.0,254257.71875,228888.484375,229649.96875,386419.0,1.0,4
237824.453125,255220.90625,240905.234375,249752.859375,224993.203125,254279.09375,228911.46875,229669.1875,386420.0,1.0,4
237874.078125,255251.390625,240923.75,249767.796875,225013.140625,254301.984375,228925.0625,229697.09375,386421.0,1.0,4
237946.125,255275.703125,240929.28125,249771.640625,225009.5625,254306.1875,228918.0,229704.5,386422.0,1.0,4
237941.125,255255.234375,240920.875,249764.75,224991.234375,254289.8125,228910.125,229688.6875,386423.0,1.0,4
237864.5,255219.03125,240904.875,249754.296875,224981.3125,254270.234375,228907.890625,229669.640625,386424.0,1.0,4
237820.875,255216.875,240898.796875,249746.6875,224988.46875,254268.359375,228905.296875,229670.265625,386425.0,1.0,4
237854.84375,255231.71875,240904.515625,249748.484375,224992.9375,254275.875,228900.921875,229680.546875,386426.0,1.0,4
237921.640625,255244.421875,240912.203125,249753.390625,224982.65625,254278.375,228891.53125,229681.078125,386427.0,1.0,4
237922.625,255231.8125,240908.28125,249751.515625,224968.4375,254263.4375,228882.671875,229665.4375,386428.0,1.0,4
237854.578125,255204.0,240898.0,249745.0,224964.59375,254245.203125,228878.65625,229644.78125,386429.0,1.0,4
237819.984375,255208.46875,240902.28125,249745.703125,224982.65625,254251.46875,228884.203125,229654.171875,386430.0,1.0,4
237865.390625,255233.953125,240914.171875,249752.859375,224996.0625,254264.515625,228886.609375,229674.28125,386431.0,1.0,4
237939.421875,255258.0,240923.03125,249759.65625,224993.46875,254270.59375,228881.0625,229683.046875,386432.0,1.0,4
237941.75,255249.875,240917.9375,249757.15625,224980.875,254261.296875,228878.125,229667.9375,386433.0,1.0,4
237873.796875,255226.71875,240908.1875,249749.109375,224976.21875,254250.75,228879.453125,229651.484375,386434.0,1.0,4
237831.609375,255225.109375,240910.515625,249750.171875,224989.8125,254257.71875,228887.421875,229658.46875,386435.0,1.0,4
237875.859375,255251.03125,240925.4375,249762.0625,225006.625,254274.265625,228894.296875,229681.53125,386436.0,1.0,4
237943.359375,255262.828125,240932.953125,249765.375,224996.609375,254278.015625,228885.1875,229681.171875,386437.0,1.0,4
237939.703125,255238.6875,240921.328125,249756.703125,224970.859375,254257.453125,228869.890625,229658.015625,386438.0,1.0,4
237867.984375,255211.875,240906.046875,249747.234375,224963.34375,254241.625,228870.4375,229642.109375,386439.0,1.0,4
237828.734375,255215.1875,240904.34375,249747.765625,224978.71875,254247.703125,228880.171875,229648.625,386440.0,1.0,4
237875.59375,255245.3125,240919.359375,249759.75,224996.34375,254269.703125,228889.390625,229674.90625,386441.0,1.0,4
237949.703125,255267.578125,240930.71875,249767.796875,224995.4375,254279.09375,228884.46875,229684.5625,386442.0,1.0,4
237950.15625,255253.890625,240922.3125,249760.734375,224978.90625,254264.875,228874.28125,229666.59375,386443.0,1.0,4
237872.375,255219.390625,240906.125,249749.828125,224970.3125,254249.578125,228874.71875,229646.65625,386444.0,1.0,4
237831.15625,255215.0,240909.171875,249749.828125,224982.296875,254258.171875,228884.015625,229652.46875,386445.0,1.0,4
237871.390625,255231.90625,240923.203125,249758.140625,224991.515625,254272.203125,228887.5,229667.671875,386446.0,1.0,4
237943.359375,255251.484375,240929.546875,249762.515625,224984.984375,254275.328125,228879.109375,229674.90625,386447.0,1.0,4
237946.046875,255241.375,240921.234375,249757.15625,224969.78125,254261.203125,228872.3125,229659.984375,386448.0,1.0,4
237868.703125,255205.34375,240906.3125,249747.046875,224959.671875,254244.125,228870.609375,229634.859375,386449.0,1.0,4
237830.53125,255204.90625,240910.59375,249749.828125,224975.765625,254255.046875,228883.65625,229645.859375,386450.0,1.0,4
237875.59375,255236.28125,240925.703125,249761.265625,224991.953125,254272.296875,228891.265625,229667.21875,386451.0,1.0,4
237940.859375,255254.34375,240929.640625,249764.125,224984.4375,254273.640625,228882.140625,229669.90625,386452.0,1.0,4
237941.578125,255241.90625,240923.296875,249761.4375,224970.859375,254265.671875,228880.796875,229658.640625,386453.0,1.0,4
237871.390625,255213.03125,240910.328125,249754.03125,224965.671875,254253.25,228882.328125,229644.421875,386454.0,1.0,4
237831.15625,255217.0625,240907.46875,249753.3125,224980.421875,254256.109375,228885.8125,229652.203125,386455.0,1.0,4
237875.859375,255243.96875,240920.703125,249762.515625,224994.453125,254270.15625,228889.203125,229674.5625,386456.0,1.0,4
237949.265625,255266.234375,240930.71875,249768.59375,224992.9375,254278.46875,228885.359375,229683.59375,386457.0,1.0,4
237945.0625,255247.1875,240920.96875,249760.1875,224973.8125,254261.921875,228874.625,229663.296875,386458.0,1.0,4
237857.703125,255198.015625,240897.453125,249744.09375,224953.15625,254236.703125,228864.796875,229629.140625,386459.0,1.0,4
237819.71875,255202.03125,240901.125,249748.484375,224971.65625,254247.796875,228875.96875,229639.953125,386460.0,1.0,4
237865.9375,255234.84375,240919.359375,249760.375,224992.578125,254269.609375,228888.765625,229668.390625,386461.0,1.0,4
237938.984375,255256.125,240927.046875,249764.125,224987.21875,254274.703125,228883.125,229675.984375,386462.0,1.0,4
237937.28125,255237.4375,240913.8125,249754.734375,224966.296875,254256.734375,228872.390625,229656.234375,386463.0,1.0,4
237867.640625,255210.796875,240901.65625,249746.15625,224962.8125,254243.859375,228874.1875,229641.203125,386464.0,1.0,4
237831.6875,255219.109375,240907.203125,249751.34375,224985.875,254259.0625,228893.5,229659.53125,386465.0,1.0,4
237868.53125,255239.328125,240915.515625,249755.0,224993.390625,254265.765625,228892.15625,229676.515625,386466.0,1.0,4
237938.0,255258.625,240922.3125,249756.703125,224989.625,254268.1875,228884.640625,229683.9375,386467.0,1.0,4
237937.28125,255242.09375,240911.046875,249747.234375,224971.125,254254.140625,228877.671875,229664.453125,386468.0,1.0,4
237867.1875,255214.5625,240896.921875,249736.40625,224964.5,254237.6875,228880.4375,229643.984375,386469.0,1.0,4
237828.390625,255220.453125,240903.71875,249741.234375,224985.703125,254246.71875,228896.890625,229660.78125,386470.0,1.0,4
237864.140625,255242.09375,240916.6875,249746.875,224998.125,254260.9375,228901.359375,229681.890625,386471.0,1.0,4
237934.0625,255263.1875,240925.359375,249752.0625,224995.890625,254269.609375,228897.609375,229688.6875,386472.0,1.0,4
237931.828125,255249.0625,240911.140625,249741.0625,224973.53125,254249.578125,228883.390625,229665.890625,386473.0,1.0,4
237862.265625,255220.71875,240897.28125,249733.015625,224965.671875,254233.84375,228885.453125,229649.25,386474.0,1.0,4
237820.875,255219.734375,240898.984375,249732.75,224980.25,254239.921875,228894.484375,229659.359375,386475.0,1.0,4
237862.71875,255247.375,240913.28125,249741.953125,224999.28125,254258.53125,228901.28125,229683.59375,386476.0,1.0,4
237936.125,255269.984375,240920.171875,249746.78125,224992.046875,254262.375,228893.3125,229689.578125,386477.0,1.0,4
237939.25,255257.296875,240910.6875,249739.890625,224971.03125,254245.65625,228880.796875,229673.390625,386478.0,1.0,4
237865.671875,255224.84375,240899.25,249731.140625,224964.59375,254230.359375,228881.6875,229657.125,386479.0,1.0,4
237820.875,255222.59375,240902.46875,249734.53125,224976.75,254235.375,228888.84375,229659.453125,386480.0,1.0,4
237858.609375,255248.703125,240914.53125,249744.8125,224988.015625,254249.671875,228895.546875,229676.796875,386481.0,1.0,4
237934.0625,255272.9375,240926.609375,249755.546875,224988.46875,254260.5,228893.40625,229691.359375,386482.0,1.0,4
237940.859375,255261.9375,240919.546875,249750.0,224970.140625,254247.53125,228880.09375,229673.484375,386483.0,1.0,4
237874.34375,255241.828125,240907.828125,249742.125,224967.71875,254236.4375,228887.78125,229657.75,386484.0,1.0,4
237833.21875,255244.0625,240909.265625,249744.375,224987.21875,254246.453125,228899.3125,229669.015625,386485.0,1.0,4
237864.6875,255258.1875,240916.40625,249747.859375,224994.1875,254258.171875,228898.328125,229682.609375,386486.0,1.0,4
237931.296875,255269.984375,240922.3125,249750.265625,224985.703125,254263.171875,228890.8125,229687.703125,386487.0,1.0,4
237938.0,255262.390625,240913.640625,249743.109375,224969.15625,254250.484375,228880.0,229670.625,386488.0,1.0,4
237869.0625,255237.796875,240900.5,249735.609375,224963.703125,254235.453125,228880.359375,229651.75,386489.0,1.0,4
237829.1875,255238.78125,240905.140625,249741.859375,224985.78125,254248.328125,228896.0,229666.78125,386490.0,1.0,4
237868.609375,255262.65625,240918.109375,249749.640625,225003.578125,254265.671875,228904.9375,229690.828125,386491.0,1.0,4
237938.53125,255281.25,240926.609375,249752.859375,224997.765625,254272.390625,228899.390625,229696.734375,386492.0,1.0,4
237947.109375,255274.09375,240920.4375,249748.484375,224983.375,254263.984375,228894.65625,229681.4375,386493.0,1.0,4
237874.25,255241.640625,240905.5,249739.0,224974.4375,254249.40625,228895.109375,229661.59375,386494.0,1.0,4
237829.09375,255233.78125,240904.515625,249737.9375,224984.625,254255.21875,228898.859375,229667.140625,386495.0,1.0,4
237867.1875,255256.390625,240917.75,249748.84375,224996.875,254270.15625,228902.53125,229685.28125,386496.0,1.0,4
237938.359375,255277.5,240924.640625,249755.1875,224993.921875,254274.703125,228897.15625,229691.359375,386497.0,1.0,4
237944.515625,255268.203125,240914.890625,249748.921875,224976.3125,254258.4375,228886.703125,229676.875,386498.0,1.0,4
237874.78125,255238.421875,240900.5,249738.5625,224969.421875,254244.671875,228888.046875,229661.234375,386499.0,1.0,4
237833.75,255239.859375,240903.8125,249740.796875,224987.84375,254257.625,228902.796875,229674.734375,386500.0,1.0,4
237864.6875,255252.640625,240914.171875,249746.15625,224995.796875,254269.25,228904.140625,229688.234375,386501.0,1.0,4
237934.59375,255268.828125,240919.984375,249750.0,224988.109375,254272.46875,228895.90625,229690.65625,386502.0,1.0,4
237944.4375,255263.015625,240912.296875,249745.890625,224973.984375,254263.078125,228892.421875,229676.34375,386503.0,1.0,4
237874.96875,255237.796875,240898.890625,249734.890625,224966.109375,254245.46875,228889.734375,229659.984375,386504.0,1.0,4
237830.0,255238.96875,240899.0625,249735.6875,224981.21875,254248.78125,228894.65625,229671.515625,386505.0,1.0,4
237861.828125,255257.46875,240910.25,249742.578125,224993.921875,254262.640625,228895.546875,229686.984375,386506.0,1.0,4
237934.953125,255281.609375,240918.015625,249748.921875,224990.34375,254269.796875,228887.953125,229693.78125,386507.0,1.0,4
237937.640625,255268.921875,240905.953125,249740.96875,224968.796875,254255.046875,228880.359375,229673.578125,386508.0,1.0,4
237862.265625,255232.34375,240889.328125,249730.0625,224958.609375,254236.890625,228883.125,229654.265625,386509.0,1.0,4
237812.828125,255225.375,240888.515625,249727.921875,224972.109375,254240.46875,228889.109375,229664.09375,386510.0,1.0,4
237853.0625,255252.28125,240903.359375,249738.734375,224988.828125,254258.703125,228896.265625,229685.546875,386511.0,1.0,4
237928.96875,255276.875,240915.96875,249747.234375,224988.734375,254268.09375,228890.453125,229694.859375,386512.0,1.0,4
237934.421875,255262.296875,240908.359375,249742.40625,224971.921875,254256.375,228882.40625,229677.0625,386513.0,1.0,4
237858.953125,255222.6875,240893.515625,249730.15625,224959.671875,254238.046875,228879.8125,229652.46875,386514.0,1.0,4
237818.1875,255223.9375,240895.40625,249731.140625,224977.5625,254244.578125,228890.015625,229660.875,386515.0,1.0,4
237849.75,255242.890625,240906.9375,249739.71875,224989.90625,254259.953125,228894.921875,229679.921875,386516.0,1.0,4
237923.25,255265.34375,240917.03125,249746.421875,224985.25,254267.90625,228890.640625,229688.6875,386517.0,1.0,4
237935.140625,255260.59375,240908.90625,249741.953125,224972.015625,254256.015625,228882.234375,229676.171875,386518.0,1.0,4
237863.34375,255231.28125,240895.84375,249733.734375,224964.859375,254240.28125,228882.859375,229656.5,386519.0,1.0,4
237819.984375,255234.21875,240899.78125,249738.46875,224983.375,254249.578125,228897.78125,229670.71875,386520.0,1.0,4
237856.546875,255260.0625,240910.953125,249747.59375,224998.296875,254265.046875,228901.90625,229692.96875,386521.0,1.0,4
237931.734375,255284.65625,240919.265625,249753.3125,224992.046875,254269.515625,228893.59375,229698.078125,386522.0,1.0,4
237933.53125,255267.03125,240909.265625,249746.25,224969.6875,254253.4375,228880.4375,229675.0,386523.0,1.0,4
237861.640625,255230.640625,240897.09375,249737.125,224960.3125,254241.1875,228884.28125,229652.296875,386524.0,1.0,4
237820.0625,255234.40625,240901.65625,249740.515625,224980.25,254250.921875,228898.140625,229666.234375,386525.0,1.0,4
237855.03125,255259.265625,240913.015625,249750.0,224990.96875,254258.609375,228896.265625,229682.328125,386526.0,1.0,4
237933.609375,255282.859375,240923.75,249759.125,224989.71875,254267.46875,228890.90625,229691.90625,386527.0,1.0,4
237941.3125,255271.0625,240914.359375,249750.53125,224973.09375,254254.328125,228880.53125,229676.25,386528.0,1.0,4
237868.265625,255233.328125,240900.9375,249741.0625,224964.859375,254239.390625,228884.90625,229660.703125,386529.0,1.0,4
237823.375,255231.625,240899.875,249738.828125,224979.53125,254244.671875,228891.625,229665.96875,386530.0,1.0,4
237861.109375,255259.53125,240913.8125,249747.140625,224994.375,254260.3125,228896.453125,229684.484375,386531.0,1.0,4
237937.640625,255282.0625,240924.015625,249755.09375,224989.625,254267.734375,228887.5,229691.453125,386532.0,1.0,4
237946.3125,255271.15625,240915.34375,249750.453125,224972.375,254256.828125,228883.9375,229677.5,386533.0,1.0,4
237874.34375,255235.125,240899.515625,249740.609375,224964.328125,254238.40625,228882.046875,229657.5625,386534.0,1.0,4
237830.53125,255236.015625,240903.453125,249742.046875,224985.078125,254247.890625,228889.390625,229668.921875,386535.0,1.0,4
237861.109375,255258.0,240912.75,249747.9375,224998.84375,254263.53125,228894.84375,229688.765625,386536.0,1.0,4
237931.46875,255273.828125,240920.078125,249753.125,224992.578125,254268.0,228888.9375,229695.03125,386537.0,1.0,4
237945.0625,255265.25,240915.875,249750.890625,224977.03125,254260.40625,228882.953125,229681.4375,386538.0,1.0,4
237879.171875,255236.546875,240906.75,249745.703125,224970.234375,254249.40625,228887.78125,229664.90625,386539.0,1.0,4
237832.671875,255237.078125,240909.265625,249746.25,224987.21875,254256.921875,228900.65625,229673.484375,386540.0,1.0,4
237860.65625,255253.71875,240918.734375,249751.515625,224997.3125,254267.90625,228903.59375,229691.1875,386541.0,1.0,4
237932.90625,255274.71875,240926.78125,249757.421875,224995.171875,254276.234375,228894.65625,229700.75,386542.0,1.0,4
237938.71875,255261.671875,240916.859375,249750.71875,224976.9375,254262.453125,228884.015625,229681.265625,386543.0,1.0,4
237866.734375,255231.625,240901.84375,249739.453125,224966.65625,254247.0,228884.90625,229660.875,386544.0,1.0,4
237819.265625,255231.28125,240905.140625,249742.40625,224983.8125,254257.28125,228899.671875,229670.09375,386545.0,1.0,4
237854.578125,255262.75,240919.890625,249751.96875,225004.828125,254274.4375,228906.8125,229692.34375,386546.0,1.0,4
237922.890625,255279.375,240926.0625,249755.1875,224998.296875,254276.40625,228898.765625,229695.75,386547.0,1.0,4
237934.234375,255268.203125,240919.453125,249751.515625,224981.671875,254264.609375,228894.65625,229681.34375,386548.0,1.0,4
237868.890625,255241.5625,240905.5,249741.6875,224973.8125,254248.875,228891.625,229664.71875,386549.0,1.0,4
237819.71875,255235.46875,240903.890625,249739.890625,224988.734375,254254.59375,228895.828125,229670.71875,386550.0,1.0,4
237853.234375,255254.34375,240919.09375,249750.453125,225004.203125,254271.9375,228903.59375,229687.78125,386551.0,1.0,4
237932.359375,255283.21875,240933.125,249762.609375,225007.515625,254282.3125,228902.890625,229702.546875,386552.0,1.0,4
237940.671875,255269.1875,240923.109375,249757.0625,224989.90625,254267.109375,228891.34375,229688.0625,386553.0,1.0,4
237870.046875,255234.046875,240905.6875,249744.1875,224975.765625,254247.625,228885.359375,229661.5,386554.0,1.0,4
237824.265625,255232.796875,240905.6875,249743.921875,224991.15625,254253.15625,228893.59375,229668.484375,386555.0,1.0,4
237848.859375,255245.484375,240913.46875,249747.765625,224999.375,254265.671875,228895.640625,229683.234375,386556.0,1.0,4
237923.953125,255266.140625,240922.84375,249753.390625,224994.546875,254273.09375,228888.671875,229691.8125,386557.0,1.0,4
237935.3125,255255.59375,240913.90625,249747.859375,224973.359375,254258.171875,228876.328125,229671.96875,386558.0,1.0,4
237863.15625,255218.84375,240897.1875,249737.9375,224961.28125,254240.640625,228874.984375,229646.65625,386559.0,1.0,4
237818.28125,255220.1875,240899.15625,249740.171875,224980.421875,254247.890625,228889.03125,229657.5625,386560.0,1.0,4
237851.71875,255244.0625,240911.046875,249749.640625,224996.515625,254263.0,228896.09375,229680.546875,386561.0,1.0,4
237926.015625,255267.03125,240922.765625,249758.765625,224997.5,254275.6875,228895.828125,229697.984375,386562.0,1.0,4
237940.5,255262.390625,240916.140625,249755.1875,224980.0625,254263.265625,228885.359375,229683.671875,386563.0,1.0,4
237867.1875,255224.296875,240898.0,249742.40625,224962.890625,254240.28125,228877.671875,229655.328125,386564.0,1.0,4
237820.34375,255221.625,240898.703125,249742.578125,224979.609375,254248.15625,228888.484375,229663.203125,386565.0,1.0,4
237851.0,255242.71875,240909.890625,249748.84375,224991.59375,254260.046875,228893.5,229679.5625,386566.0,1.0,4
237922.53125,255264.09375,240917.84375,249755.625,224986.328125,254264.515625,228886.875,229686.625,386567.0,1.0,4
237935.765625,255254.15625,240916.859375,249755.546875,224974.96875,254259.78125,228882.859375,229673.390625,386568.0,1.0,4
237863.078125,255219.296875,240900.3125,249740.4375,224963.875,254240.90625,228880.0,229645.5,386569.0,1.0,4
237814.796875,255218.84375,240899.421875,249738.734375,224978.28125,254248.25,228891.703125,229652.46875,386570.0,1.0,4
237853.234375,255251.921875,240914.359375,249751.609375,225000.265625,254271.84375,228905.203125,229682.0625,386571.0,1.0,4
237929.5,255276.515625,240925.53125,249758.21875,225001.703125,254283.5625,228901.640625,229693.6875,386572.0,1.0,4
237936.828125,255258.984375,240916.234375,249748.484375,224979.171875,254265.953125,228884.46875,229674.109375,386573.0,1.0,4
237865.484375,255221.96875,240900.046875,249737.390625,224967.71875,254247.96875,228883.390625,229649.96875,386574.0,1.0,4
237816.40625,255219.65625,240899.78125,249738.203125,224983.375,254255.84375,228894.75,229659.625,386575.0,1.0,4
237851.546875,255248.078125,240912.484375,249750.53125,225001.96875,254268.71875,228899.84375,229684.125,386576.0,1.0,4
237926.1875,255272.671875,240924.375,249759.125,225001.25,254275.953125,228893.765625,229693.15625,386577.0,1.0,4
237936.828125,255258.0,240916.59375,249753.125,224980.875,254263.53125,228882.328125,229674.109375,386578.0,1.0,4
237863.609375,255217.859375,240897.71875,249739.453125,224965.484375,254245.03125,228880.171875,229649.34375,386579.0,1.0,4
237814.4375,255214.828125,240896.46875,249739.265625,224979.4375,254251.828125,228891.171875,229658.375,386580.0,1.0,4
237844.484375,255240.75,240909.890625,249747.765625,224995.53125,254268.0,228899.84375,229681.34375,386581.0,1.0,4
237918.328125,255264.0,240919.71875,249754.46875,224994.09375,254274.703125,228896.359375,229692.171875,386582.0,1.0,4
237933.265625,255253.53125,240912.5625,249749.734375,224977.65625,254263.796875,228888.125,229675.546875,386583.0,1.0,4
237867.546875,255222.78125,240899.875,249739.359375,224970.59375,254247.265625,228889.390625,229657.03125,386584.0,1.0,4
237822.484375,255224.203125,240903.890625,249744.28125,224992.578125,254257.984375,228906.109375,229670.53125,386585.0,1.0,4
237855.109375,255250.578125,240916.6875,249754.109375,225011.53125,254274.4375,228912.984375,229691.1875,386586.0,1.0,4
237922.890625,255264.359375,240920.875,249757.15625,224999.203125,254274.171875,228897.703125,229688.421875,386587.0,1.0,4
237931.109375,255245.40625,240908.546875,249748.21875,224972.828125,254258.890625,228882.234375,229664.453125,386588.0,1.0,4
237870.578125,255219.65625,240897.1875,249739.984375,224966.390625,254245.03125,228885.71875,229649.609375,386589.0,1.0,4
237819.71875,255218.578125,240899.25,249741.859375,224982.828125,254249.9375,228896.453125,229659.796875,386590.0,1.0,4
237841.34375,255231.8125,240906.75,249745.0,224990.875,254258.796875,228895.203125,229673.03125,386591.0,1.0,4
237922.890625,255262.125,240922.3125,249754.828125,224994.28125,254270.6875,228892.875,229688.5,386592.0,1.0,4
237940.671875,255257.5625,240918.109375,249751.875,224981.765625,254261.65625,228886.875,229680.09375,386593.0,1.0,4
237871.75,255223.3125,240900.671875,249739.09375,224972.203125,254242.171875,228883.84375,229657.84375,386594.0,1.0,4
237827.578125,255222.328125,240904.703125,249742.3125,224989.71875,254250.84375,228896.453125,229667.578125,386595.0,1.0,4
237854.484375,255243.34375,240914.796875,249748.21875,225002.140625,254260.765625,228897.34375,229684.125,386596.0,1.0,4
237925.296875,255260.875,240923.921875,249757.6875,225001.34375,254270.421875,228896.09375,229693.15625,386597.0,1.0,4
237941.125,255249.421875,240916.40625,249753.84375,224982.5625,254257.546875,228885.71875,229676.875,386598.0,1.0,4
237875.40625,255217.5,240901.75,249742.484375,224970.59375,254239.578125,228884.5625,229656.5,386599.0,1.0,4
237829.8125,255216.875,240905.140625,249745.53125,224989.359375,254249.859375,228896.09375,229666.6875,386600.0,1.0,4
237857.796875,255243.34375,240916.859375,249755.1875,225006.890625,254267.734375,228904.3125,229690.03125,386601.0,1.0,4
237931.296875,255266.234375,240926.421875,249762.0625,225006.265625,254279.53125,228902.53125,229698.703125,386602.0,1.0,4
237946.3125,255258.359375,240918.015625,249754.65625,224987.21875,254266.84375,228889.734375,229681.984375,386603.0,1.0,4
237883.90625,255233.859375,240904.875,249746.515625,224976.671875,254250.03125,228889.109375,229659.53125,386604.0,1.0,4
237828.390625,255223.671875,240902.109375,249744.1875,224987.578125,254254.0625,228896.09375,229659.625,386605.0,1.0,4
237844.296875,255226.53125,240905.953125,249744.90625,224989.90625,254259.515625,228894.75,229666.6875,386606.0,1.0,4
237923.6875,255258.09375,240919.265625,249755.546875,224992.140625,254270.5,228893.40625,229682.328125,386607.0,1.0,4
237946.484375,255259.796875,240916.140625,249754.03125,224978.453125,254263.0,228886.96875,229672.765625,386608.0,1.0,4
237880.15625,255230.46875,240904.78125,249746.15625,224972.828125,254252.171875,228890.71875,229657.125,386609.0,1.0,4
237828.5625,255223.234375,240904.4375,249745.34375,224987.65625,254257.453125,228900.921875,229663.375,386610.0,1.0,4
237854.140625,255243.4375,240913.375,249750.265625,225001.515625,254272.03125,228904.9375,229684.125,386611.0,1.0,4
237923.875,255260.78125,240922.484375,249756.890625,224996.96875,254277.5625,228896.0,229691.71875,386612.0,1.0,4
237940.671875,255249.515625,240917.3125,249754.734375,224978.09375,254264.609375,228885.71875,229673.65625,386613.0,1.0,4
237879.171875,255221.265625,240905.6875,249747.3125,224970.40625,254249.859375,228888.765625,229657.296875,386614.0,1.0,4
237822.390625,255211.515625,240903.453125,249745.984375,224981.140625,254254.140625,228896.453125,229662.671875,386615.0,1.0,4
237846.625,255228.859375,240911.40625,249752.6875,224992.765625,254267.5625,228901.28125,229677.953125,386616.0,1.0,4
237922.171875,255253.984375,240921.0625,249759.125,224988.921875,254272.03125,228894.75,229686.890625,386617.0,1.0,4
237939.96875,255244.859375,240914.796875,249755.1875,224971.03125,254259.421875,228884.46875,229674.28125,386618.0,1.0,4
237875.40625,255215.265625,240903.625,249747.40625,224962.1875,254243.5,228882.234375,229655.328125,386619.0,1.0,4
237822.65625,255211.875,240902.46875,249747.046875,224976.484375,254249.765625,228897.078125,229665.53125,386620.0,1.0,4
237844.921875,255234.046875,240912.390625,249753.390625,224991.953125,254263.265625,228902.53125,229686.625,386621.0,1.0,4
237918.953125,255259.609375,240921.6875,249759.828125,224992.9375,254272.5625,228895.828125,229697.359375,386622.0,1.0,4
237934.421875,255249.609375,240914.359375,249752.421875,224974.15625,254261.125,228882.40625,229678.40625,386623.0,1.0,4
237866.03125,255214.734375,240898.53125,249739.09375,224961.109375,254242.515625,228879.28125,229651.75,386624.0,1.0,4
237815.859375,255209.640625,240898.4375,249737.65625,224974.703125,254249.140625,228893.859375,229656.5,386625.0,1.0,4
237844.390625,255231.28125,240908.984375,249746.25,224991.59375,254263.53125,228900.03125,229676.171875,386626.0,1.0,4
237917.25,255255.234375,240917.84375,249754.921875,224989.359375,254271.671875,228897.78125,229689.578125,386627.0,1.0,4
237930.578125,255239.40625,240907.46875,249748.03125,224967.28125,254255.21875,228880.625,229672.046875,386628.0,1.0,4
237868.34375,255211.78125,240893.078125,249738.828125,224956.8125,254238.5,228879.640625,229653.546875,386629.0,1.0,4
237820.875,255212.859375,240896.921875,249742.21875,224975.765625,254246.90625,228895.015625,229665.34375,386630.0,1.0,4
237851.453125,255241.109375,240909.890625,249750.359375,224993.75,254261.203125,228902.265625,229687.078125,386631.0,1.0,4
237923.78125,255263.109375,240918.828125,249756.171875,224990.078125,254265.234375,228894.921875,229694.671875,386632.0,1.0,4
237940.765625,255248.984375,240912.484375,249752.140625,224970.59375,254252.796875,228881.515625,229677.421875,386633.0,1.0,4
237878.8125,255215.453125,240899.875,249745.703125,224961.640625,254240.375,228882.859375,229659.984375,386634.0,1.0,4
237822.484375,255206.515625,240895.3125,249740.875,224971.84375,254241.0,228886.875,229660.078125,386635.0,1.0,4
237850.375,255232.796875,240908.453125,249748.21875,224990.96875,254258.34375,228895.109375,229681.0,386636.0,1.0,4
237922.265625,255252.734375,240921.78125,249756.796875,224991.421875,254271.3125,228895.734375,229691.546875,386637.0,1.0,4
237938.625,255241.640625,240912.75,249750.71875,224969.328125,254255.3125,228882.140625,229673.390625,386638.0,1.0,4
237872.46875,255210.53125,240897.1875,249738.109375,224954.21875,254233.40625,228874.625,229649.171875,386639.0,1.0,4
237816.3125,255201.6875,240896.109375,249739.546875,224969.875,254238.765625,228884.90625,229654.171875,386640.0,1.0,4
237846.171875,255230.828125,240911.5,249751.609375,224992.3125,254259.15625,228897.609375,229682.515625,386641.0,1.0,4
237925.390625,255263.015625,240924.640625,249759.03125,224994.8125,254270.59375,228896.71875,229696.90625,386642.0,1.0,4
237946.765625,255253.625,240920.4375,249755.28125,224977.828125,254260.046875,228883.484375,229681.53125,386643.0,1.0,4
237882.75,255221.078125,240903.09375,249743.296875,224964.421875,254243.328125,228880.53125,229655.78125,386644.0,1.0,4
237831.421875,255218.75,240903.453125,249744.90625,224981.40625,254251.640625,228892.875,229661.5,386645.0,1.0,4
237853.6875,255239.765625,240915.421875,249753.578125,224995.078125,254263.0,228896.453125,229680.8125,386646.0,1.0,4
237926.828125,255263.640625,240926.15625,249760.90625,224989.625,254272.296875,228890.015625,229686.359375,386647.0,1.0,4
237946.046875,255249.6875,240921.5,249758.046875,224970.59375,254261.03125,228879.1875,229669.1875,386648.0,1.0,4
237878.546875,255211.25,240905.765625,249747.5,224958.515625,254242.515625,228879.546875,229646.65625,386649.0,1.0,4
237828.296875,255215.09375,240904.34375,249748.65625,224976.3125,254251.46875,228893.140625,229657.484375,386650.0,1.0,4
237853.0625,255240.9375,240913.46875,249753.75,224992.3125,254266.125,228894.75,229677.421875,386651.0,1.0,4
237923.421875,255259.890625,240923.296875,249760.734375,224989.8125,254273.71875,228889.65625,229688.421875,386652.0,1.0,4
237939.0625,255246.109375,240914.265625,249753.484375,224966.921875,254260.3125,228874.09375,229667.84375,386653.0,1.0,4
237877.921875,255217.234375,240900.859375,249745.796875,224956.28125,254244.75,228875.4375,229648.625,386654.0,1.0,4
237823.5625,255210.078125,240899.515625,249746.328125,224972.375,254247.34375,228885.890625,229655.78125,386655.0,1.0,4
237850.109375,255235.75,240914.890625,249759.296875,224995.0,254268.1875,228898.953125,229681.984375,386656.0,1.0,4
237922.265625,255259.53125,240925.796875,249766.453125,224995.890625,254278.203125,228896.453125,229693.421875,386657.0,1.0,4
237944.171875,255250.5,240921.59375,249763.671875,224981.578125,254267.90625,228888.21875,229680.1875,386658.0,1.0,4
237884.078125,255222.59375,240909.265625,249753.484375,224972.375,254249.3125,228885.359375,229658.90625,386659.0,1.0,4
237828.46875,255218.046875,240906.3125,249752.6875,224984.890625,254252.984375,228893.3125,229661.140625,386660.0,1.0,4
237853.953125,255243.609375,240919.890625,249763.140625,225006.796875,254273.1875,228906.1875,229686.625,386661.0,1.0,4
237921.015625,255257.203125,240926.6875,249766.09375,224999.015625,254275.15625,228893.3125,229691.28125,386662.0,1.0,4
237943.8125,255249.609375,240920.078125,249760.8125,224979.53125,254261.65625,228879.015625,229675.09375,386663.0,1.0,4
237884.4375,255223.234375,240908.71875,249752.140625,224969.6875,254246.09375,228881.34375,229655.953125,386664.0,1.0,4
237835.359375,255225.1875,240912.203125,249753.75,224989.453125,254255.21875,228898.0625,229667.40625,386665.0,1.0,4
237857.265625,255246.734375,240921.953125,249759.921875,225005.984375,254269.515625,228901.640625,229686.359375,386666.0,1.0,4
237924.5,255262.75,240926.6875,249762.515625,224995.890625,254269.4375,228889.828125,229687.78125,386667.0,1.0,4
237945.234375,255247.375,240920.4375,249757.59375,224972.015625,254256.828125,228880.53125,229669.8125,386668.0,1.0,4
237886.234375,255218.3125,240907.46875,249751.078125,224959.671875,254240.46875,228879.734375,229647.28125,386669.0,1.0,4
237832.3125,255213.65625,240903.984375,249748.921875,224970.9375,254240.828125,228886.25,229648.453125,386670.0,1.0,4
237856.453125,255242.09375,240916.328125,249757.78125,224991.421875,254258.078125,228897.15625,229670.359375,386671.0,1.0,4
237931.109375,255269.71875,240926.6875,249766.0,224993.75,254269.703125,228896.265625,229682.875,386672.0,1.0,4
237953.203125,255263.90625,240919.890625,249759.828125,224978.640625,254258.078125,228880.984375,229670.71875,386673.0,1.0,4
237880.15625,255216.078125,240900.765625,249745.625,224959.046875,254234.203125,228867.84375,229638.796875,386674.0,1.0,4
237826.859375,255210.359375,240900.5,249748.03125,224973.359375,254241.359375,228882.234375,229643.4375,386675.0,1.0,4
237850.921875,255232.703125,240911.40625,249757.0625,224988.375,254257.28125,228889.828125,229664.359375,386676.0,1.0,4
237929.59375,255260.0625,240925.265625,249765.375,224991.328125,254267.640625,228888.3125,229681.4375,386677.0,1.0,4
237956.5,255258.0,240924.375,249763.671875,224981.578125,254261.75,228883.03125,229673.9375,386678.0,1.0,4
237886.765625,255219.921875,240904.875,249749.46875,224967.453125,254240.28125,228878.203125,229648.890625,386679.0,1.0,4
237831.78125,255216.34375,240903.359375,249750.890625,224983.8125,254246.546875,228892.15625,229655.421875,386680.0,1.0,4
237854.671875,255241.109375,240912.828125,249757.421875,225000.1875,254263.71875,228897.96875,229673.84375,386681.0,1.0,4
237925.5625,255262.03125,240923.75,249764.65625,224999.734375,254272.828125,228895.109375,229686.453125,386682.0,1.0,4
237953.28125,255260.15625,240918.640625,249759.125,224983.640625,254263.078125,228885.453125,229674.640625,386683.0,1.0,4
237889.890625,255228.234375,240900.046875,249746.515625,224967.640625,254243.234375,228879.640625,229646.21875,386684.0,1.0,4
237824.546875,255210.796875,240893.96875,249740.34375,224971.75,254241.53125,228884.203125,229643.078125,386685.0,1.0,4
237849.484375,255238.6875,240907.46875,249749.828125,224992.671875,254261.75,228895.28125,229665.703125,386686.0,1.0,4
237918.140625,255257.921875,240915.875,249755.09375,224991.6875,254271.484375,228889.5625,229676.609375,386687.0,1.0,4
237945.328125,255255.0625,240912.125,249753.125,224977.828125,254261.65625,228881.0625,229666.6875,386688.0,1.0,4
237889.265625,255231.546875,240898.4375,249742.84375,224968.0,254244.578125,228880.265625,229645.59375,386689.0,1.0,4
237829.90625,255220.015625,240896.734375,249741.234375,224977.5625,254250.921875,228891.703125,229642.546875,386690.0,1.0,4
237838.84375,255229.125,240904.703125,249744.09375,224986.859375,254260.578125,228891.171875,229655.0625,386691.0,1.0,4
237912.515625,255255.140625,240916.859375,249754.296875,224988.109375,254269.875,228886.34375,229669.640625,386692.0,1.0,4
237941.578125,255259.265625,240913.46875,249753.578125,224975.234375,254264.609375,228879.109375,229659.796875,386693.0,1.0,4
237878.984375,255226.796875,240899.875,249743.109375,224964.5,254248.25,228878.75,229637.8125,386694.0,1.0,4
237816.140625,255208.828125,240897.28125,249742.125,224973.453125,254246.90625,228886.875,229638.796875,386695.0,1.0,4
237840.546875,255234.578125,240910.78125,249751.96875,224992.484375,254263.71875,228896.0,229663.015625,386696.0,1.0,4
237916.71875,255263.546875,240920.4375,249758.9375,224991.6875,254273.09375,228890.28125,229676.515625,386697.0,1.0,4
237943.359375,255258.359375,240915.96875,249757.15625,224976.125,254264.78125,228880.984375,229663.5625,386698.0,1.0,4
237878.71875,255216.4375,240898.0,249746.421875,224959.5,254243.234375,228875.34375,229637.8125,386699.0,1.0,4
237820.15625,255203.109375,240893.96875,249743.921875,224970.046875,254243.421875,228883.65625,229640.9375,386700.0,1.0,4
237843.046875,255227.25,240905.328125,249751.96875,224987.03125,254255.9375,228890.546875,229663.296875,386701.0,1.0,4
237911.53125,255245.578125,240911.40625,249752.953125,224982.296875,254260.578125,228881.78125,229669.015625,386702.0,1.0,4
237938.0,255241.46875,240904.515625,249747.046875,224962.265625,254249.578125,228868.28125,229652.921875,386703.0,1.0,4
237876.484375,255212.046875,240891.828125,249740.515625,224952.96875,254234.203125,228868.109375,229634.234375,386704.0,1.0,4
237819.078125,255201.046875,240890.84375,249740.703125,224968.984375,254240.828125,228879.109375,229639.859375,386705.0,1.0,4
237845.90625,255228.40625,240906.75,249753.671875,224993.390625,254262.1875,228892.78125,229663.921875,386706.0,1.0,4
237931.65625,255267.125,240926.6875,249769.84375,225005.09375,254280.25,228897.96875,229686.09375,386707.0,1.0,4
237962.578125,255267.125,240925.53125,249770.75,224991.6875,254276.859375,228892.875,229681.0,386708.0,1.0,4
237902.0625,255237.625,240913.640625,249763.328125,224979.96875,254263.890625,228897.609375,229660.609375,386709.0,1.0,4
237839.375,255224.65625,240910.875,249760.015625,224993.03125,254266.484375,228909.5,229664.0,386710.0,1.0,4
237854.046875,255243.515625,240917.65625,249762.875,225005.984375,254279.984375,228916.03125,229679.390625,386711.0,1.0,4
237924.5,255267.484375,240923.390625,249762.96875,224999.375,254284.453125,228905.03125,229685.46875,386712.0,1.0,4
237947.5625,255258.09375,240914.984375,249757.421875,224976.9375,254270.328125,228888.9375,229668.484375,386713.0,1.0,4
237874.78125,255209.1875,240889.953125,249740.171875,224950.203125,254241.8125,228877.5,229633.421875,386714.0,1.0,4
237809.609375,255191.046875,240881.546875,249732.75,224954.40625,254234.296875,228879.28125,229629.140625,386715.0,1.0,4
237833.5625,255216.96875,240896.828125,249744.09375,224974.96875,254247.703125,228883.9375,229650.234375,386716.0,1.0,4
237905.984375,255237.0,240904.78125,249751.078125,224972.015625,254254.140625,228876.328125,229658.546875,386717.0,1.0,4
237932.8125,255229.21875,240900.046875,249749.546875,224954.84375,254246.015625,228870.078125,229650.421875,386718.0,1.0,4
237874.875,255199.984375,240884.578125,249737.296875,224941.796875,254229.46875,228864.265625,229626.359375,386719.0,1.0,4
237818.640625,255194.53125,240882.796875,249736.671875,224955.921875,254233.671875,228871.6875,229628.515625,386720.0,1.0,4
237842.6875,255219.734375,240898.4375,249750.453125,224978.640625,254253.875,228884.109375,229657.296875,386721.0,1.0,4
237915.203125,255241.734375,240909.53125,249759.203125,224979.53125,254264.609375,228880.796875,229672.140625,386722.0,1.0,4
237939.15625,255230.203125,240902.734375,249752.59375,224957.265625,254253.15625,228867.84375,229652.203125,386723.0,1.0,4
237882.46875,255205.078125,240888.609375,249742.578125,224946.890625,254237.78125,228868.28125,229631.90625,386724.0,1.0,4
237822.390625,255196.671875,240883.78125,249738.734375,224959.046875,254237.78125,228875.703125,229638.078125,386725.0,1.0,4
237844.75,255226.453125,240898.53125,249751.515625,224985.421875,254258.96875,228890.28125,229666.953125,386726.0,1.0,4
237911.0,255248.0,240905.421875,249754.46875,224982.484375,254265.234375,228883.75,229674.734375,386727.0,1.0,4
237933.34375,255238.96875,240895.765625,249748.296875,224959.5,254250.125,228868.109375,229657.484375,386728.0,1.0,4
237873.625,255207.484375,240880.828125,249737.21875,224945.640625,254231.078125,228864.890625,229633.078125,386729.0,1.0,4
237816.5,255199.625,240881.71875,249737.65625,224962.546875,254237.25,228876.328125,229639.953125,386730.0,1.0,4
237834.1875,255220.71875,240894.328125,249745.265625,224982.296875,254253.515625,228884.375,229664.0,386731.0,1.0,4
237909.296875,255250.3125,240906.84375,249754.46875,224985.421875,254265.046875,228881.0625,229681.0,386732.0,1.0,4
237938.171875,255250.140625,240903.359375,249751.4375,224970.59375,254257.28125,228873.296875,229669.375,386733.0,1.0,4
237879.609375,255221.265625,240889.046875,249740.96875,224956.453125,254239.75,228872.484375,229645.234375,386734.0,1.0,4
237822.84375,255212.671875,240887.890625,249740.796875,224970.140625,254245.203125,228883.03125,229651.046875,386735.0,1.0,4
237837.0625,255228.40625,240898.4375,249747.765625,224987.125,254259.59375,228888.40625,229671.609375,386736.0,1.0,4
237901.078125,255238.421875,240905.6875,249753.125,224976.578125,254260.765625,228877.046875,229674.828125,386737.0,1.0,4
237930.390625,255233.0625,240901.5625,249748.921875,224955.03125,254248.328125,228865.515625,229655.0625,386738.0,1.0,4
237873.359375,255208.828125,240887.796875,249741.5,224947.4375,254234.03125,228866.765625,229633.25,386739.0,1.0,4
237813.453125,255201.328125,240886.8125,249742.046875,224963.171875,254237.875,228877.9375,229640.40625,386740.0,1.0,4
237828.03125,255220.984375,240897.8125,249750.265625,224982.125,254253.875,228885.8125,229663.5625,386741.0,1.0,4
237905.8125,255251.296875,240911.578125,249761.890625,224989.453125,254268.625,228888.40625,229682.78125,386742.0,1.0,4
237935.578125,255246.390625,240906.21875,249756.890625,224972.203125,254259.328125,228874.546875,229668.03125,386743.0,1.0,4
237871.828125,255206.0625,240887.71875,249741.6875,224951.625,254233.140625,228862.828125,229637.1875,386744.0,1.0,4
237818.1875,255202.03125,240890.65625,249744.453125,224968.4375,254241.71875,228881.6875,229645.671875,386745.0,1.0,4
237838.21875,255226.171875,240905.5,249755.0,224991.59375,254261.921875,228894.921875,229672.859375,386746.0,1.0,4
237904.296875,255240.9375,240913.46875,249758.140625,224988.734375,254268.265625,228887.0625,229681.0,386747.0,1.0,4
237935.046875,255240.03125,240908.09375,249755.09375,224972.109375,254258.609375,228875.96875,229670.09375,386748.0,1.0,4
237876.03125,255208.921875,240890.03125,249741.0625,224955.75,254235.015625,228870.703125,229644.34375,386749.0,1.0,4
237819.796875,255206.234375,240887.984375,249739.8125,224968.171875,254240.203125,228886.515625,229650.328125,386750.0,1.0,4
237835.984375,255226.796875,240897.375,249747.046875,224985.515625,254254.40625,228894.21875,229672.046875,386751.0,1.0,4
237912.6875,255254.78125,240911.671875,249756.96875,224990.078125,254265.765625,228891.171875,229685.109375,386752.0,1.0,4
237948.90625,255258.546875,240913.90625,249757.953125,224977.828125,254261.203125,228886.25,229676.078125,386753.0,1.0,4
237887.125,255219.203125,240896.203125,249744.09375,224957.4375,254236.796875,228879.015625,229648.265625,386754.0,1.0,4
237823.109375,255204.71875,240889.328125,249740.171875,224962.8125,254234.203125,228882.671875,229647.5625,386755.0,1.0,4
237838.046875,255226.796875,240899.875,249746.875,224980.0625,254249.140625,228889.296875,229664.984375,386756.0,1.0,4
237911.53125,255253.796875,240912.390625,249753.84375,224983.1875,254262.015625,228890.1875,229677.953125,386757.0,1.0,4
237941.578125,255248.796875,240906.75,249747.3125,224966.65625,254253.4375,228881.25,229665.703125,386758.0,1.0,4
237885.515625,255219.46875,240891.46875,249735.515625,224955.03125,254231.078125,228878.75,229644.609375,386759.0,1.0,4
237818.375,255200.078125,240884.671875,249729.171875,224961.28125,254228.390625,228885.71875,229641.5625,386760.0,1.0,4
237830.53125,255218.9375,240894.421875,249735.421875,224978.71875,254242.96875,228896.890625,229662.125,386761.0,1.0,4
237901.78125,255245.484375,240905.0625,249741.15625,224980.78125,254252.0,228893.59375,229676.609375,386762.0,1.0,4
237934.15625,255247.546875,240903.359375,249739.8125,224966.5625,254243.328125,228883.9375,229669.90625,386763.0,1.0,4
237881.3125,255221.4375,240889.671875,249730.59375,224954.140625,254224.546875,228878.828125,229650.59375,386764.0,1.0,4
237818.8125,255207.578125,240885.296875,249727.5625,224961.828125,254224.375,228884.90625,229649.796875,386765.0,1.0,4
237828.390625,255220.1875,240892.625,249731.40625,224973.8125,254238.40625,228890.71875,229664.1875,386766.0,1.0,4
237901.078125,255249.515625,240903.890625,249738.375,224976.671875,254250.921875,228891.0,229680.375,386767.0,1.0,4
237935.671875,255256.3125,240898.34375,249733.546875,224961.375,254240.828125,228878.390625,229674.375,386768.0,1.0,4
237878.0,255228.859375,240883.15625,249724.875,224950.015625,254222.40625,228876.234375,229653.546875,386769.0,1.0,4
237815.6875,255215.71875,240880.921875,249725.234375,224962.984375,254226.875,228888.671875,229654.796875,386770.0,1.0,4
237830.53125,255235.03125,240889.328125,249731.578125,224974.34375,254236.984375,228889.5625,229669.453125,386771.0,1.0,4
237905.71875,255263.015625,240905.953125,249741.953125,224981.046875,254248.609375,228887.5,229687.4375,386772.0,1.0,4
237938.359375,255259.96875,240904.78125,249738.109375,224966.390625,254239.578125,228878.390625,229678.84375,386773.0,1.0,4
237882.828125,255230.203125,240887.984375,249725.328125,224950.015625,254219.359375,228871.5,229652.03125,386774.0,1.0,4
237821.5,255217.234375,240883.953125,249724.34375,224960.390625,254224.8125,228882.140625,229652.390625,386775.0,1.0,4
237837.328125,255240.03125,240895.765625,249735.6875,224980.515625,254243.140625,228895.375,229677.78125,386776.0,1.0,4
237914.296875,255274.015625,240910.15625,249745.53125,224983.734375,254257.90625,228896.0,229695.75,386777.0,1.0,4
237948.28125,255271.5,240908.09375,249741.234375,224966.75,254251.375,228883.390625,229685.734375,386778.0,1.0,4
237884.4375,255230.109375,240887.4375,249726.125,224945.1875,254225.984375,228872.390625,229655.15625,386779.0,1.0,4
237824.0,255217.859375,240882.171875,249723.265625,224952.96875,254226.515625,228878.921875,229649.171875,386780.0,1.0,4
237839.5625,255238.515625,240896.65625,249734.265625,224976.484375,254247.625,228894.921875,229676.4375,386781.0,1.0,4
237911.796875,255263.546875,240908.546875,249742.21875,224979.609375,254256.734375,228892.515625,229692.96875,386782.0,1.0,4
237951.140625,255266.953125,240906.046875,249740.609375,224965.765625,254249.9375,228880.890625,229682.421875,386783.0,1.0,4
237893.5625,255233.515625,240889.046875,249730.6875,224948.953125,254230.546875,228874.0,229656.234375,386784.0,1.0,4
237827.484375,255215.265625,240886.8125,249729.4375,224958.0625,254231.703125,228883.75,229653.8125,386785.0,1.0,4
237843.046875,255236.28125,240901.65625,249740.796875,224980.6875,254250.5625,228898.765625,229678.125,386786.0,1.0,4
237916.984375,255265.25,240911.9375,249747.3125,224984.265625,254257.0,228893.140625,229690.65625,386787.0,1.0,4
237947.109375,255258.546875,240908.8125,249743.828125,224964.78125,254247.265625,228879.8125,229676.515625,386788.0,1.0,4
237890.875,255226.625,240893.171875,249732.296875,224947.609375,254228.578125,228880.09375,229653.28125,386789.0,1.0,4
237833.390625,255226.71875,240889.59375,249728.8125,224961.203125,254229.734375,228891.625,229658.46875,386790.0,1.0,4
237841.890625,255242.0,240897.375,249733.109375,224978.640625,254242.96875,228895.375,229677.0625,386791.0,1.0,4
237911.0,255263.109375,240907.46875,249740.796875,224980.0625,254254.765625,228892.6875,229690.203125,386792.0,1.0,4
237948.375,255269.8125,240907.109375,249740.171875,224968.890625,254252.171875,228889.828125,229682.78125,386793.0,1.0,4
237891.6875,255237.359375,240891.28125,249729.34375,224950.46875,254230.0,228880.625,229657.5625,386794.0,1.0,4
237826.0625,255224.03125,240887.984375,249728.1875,224962.625,254230.453125,228890.453125,229659.625,386795.0,1.0,4
237837.5,255247.09375,240897.015625,249733.8125,224983.1875,254242.875,228901.0,229679.03125,386796.0,1.0,4
237905.0,255269.265625,240909.796875,249741.59375,224986.765625,254252.265625,228896.71875,229690.203125,386797.0,1.0,4
237939.34375,255263.90625,240907.203125,249738.28125,224965.9375,254244.125,228882.40625,229676.34375,386798.0,1.0,4
237886.671875,255235.390625,240891.640625,249727.109375,224949.484375,254225.53125,228875.078125,229652.296875,386799.0,1.0,4
237819.359375,255216.078125,240887.265625,249725.140625,224956.453125,254228.3125,228883.296875,229648.359375,386800.0,1.0,4
237826.78125,255228.859375,240898.0,249732.125,224971.65625,254243.234375,228890.71875,229664.625,386801.0,1.0,4
237904.921875,255261.765625,240914.625,249743.65625,224981.40625,254256.828125,228891.171875,229681.34375,386802.0,1.0,4
237942.46875,255263.90625,240913.109375,249740.515625,224968.359375,254246.546875,228878.5625,229671.515625,386803.0,1.0,4
237885.875,255230.109375,240894.421875,249727.828125,224951.90625,254224.546875,228874.625,229645.234375,386804.0,1.0,4
237821.59375,255213.84375,240889.671875,249725.953125,224961.640625,254225.890625,228883.296875,229644.609375,386805.0,1.0,4
237832.671875,255234.84375,240903.171875,249736.328125,224980.25,254243.234375,228892.421875,229666.328125,386806.0,1.0,4
237905.8125,255264.796875,240914.890625,249744.375,224984.0,254255.578125,228886.609375,229681.0,386807.0,1.0,4
237940.953125,255265.515625,240910.15625,249740.078125,224966.46875,254245.734375,228875.609375,229669.90625,386808.0,1.0,4
237886.046875,255231.359375,240894.5,249730.515625,224948.765625,254225.171875,228870.96875,229644.515625,386809.0,1.0,4
237817.65625,255212.59375,240890.9375,249728.28125,224957.4375,254226.96875,228881.25,229646.578125,386810.0,1.0,4
237828.296875,255230.109375,240901.921875,249735.6875,224976.046875,254239.84375,228887.59375,229668.75,386811.0,1.0,4
237904.015625,255260.15625,240912.921875,249744.453125,224979.4375,254250.75,228884.640625,229686.71875,386812.0,1.0,4
237942.828125,255265.0625,240909.078125,249742.046875,224965.40625,254242.515625,228872.390625,229678.765625,386813.0,1.0,4
237891.140625,255237.625,240895.40625,249734.171875,224954.9375,254226.609375,228873.109375,229659.890625,386814.0,1.0,4
237820.609375,255215.453125,240888.78125,249728.1875,224959.859375,254228.125,228883.390625,229656.046875,386815.0,1.0,4
237831.328125,255235.828125,240899.15625,249733.640625,224979.796875,254244.125,228890.71875,229675.0,386816.0,1.0,4
237907.0625,255268.015625,240910.953125,249739.625,224982.828125,254251.90625,228880.4375,229685.90625,386817.0,1.0,4
237941.84375,255267.3125,240905.6875,249736.5,224962.359375,254239.296875,228866.5,229671.78125,386818.0,1.0,4
237881.3125,255226.359375,240890.390625,249725.40625,224941.984375,254219.546875,228864.078125,229641.65625,386819.0,1.0,4
237817.75,255210.4375,240886.90625,249725.0625,224954.3125,254220.53125,228871.140625,229641.921875,386820.0,1.0,4
237827.765625,255229.484375,240897.015625,249735.421875,224973.71875,254236.703125,228883.03125,229661.234375,386821.0,1.0,4
237898.03125,255252.828125,240906.21875,249739.8125,224973.53125,254244.3125,228875.796875,229672.859375,386822.0,1.0,4
237942.015625,255262.828125,240907.65625,249740.875,224966.390625,254244.75,228870.515625,229670.4375,386823.0,1.0,4
237886.765625,255229.21875,240890.03125,249729.609375,224950.828125,254225.625,228865.421875,229645.953125,386824.0,1.0,4
237819.890625,255213.03125,240884.21875,249726.046875,224959.234375,254227.5,228874.359375,229646.75,386825.0,1.0,4
237823.90625,255227.515625,240892.8125,249731.9375,224974.78125,254241.453125,228880.796875,229665.078125,386826.0,1.0,4
237897.234375,255253.171875,240909.265625,249744.28125,224983.546875,254259.234375,228882.59375,229681.796875,386827.0,1.0,4
237938.71875,255256.21875,240908.984375,249745.984375,224971.21875,254253.078125,228875.078125,229676.4375,386828.0,1.0,4
237887.921875,255229.671875,240891.015625,249734.078125,224956.1875,254229.828125,228868.28125,229654.625,386829.0,1.0,4
237824.984375,255218.75,240886.015625,249730.515625,224966.5625,254227.953125,228876.328125,229653.546875,386830.0,1.0,4
237829.375,255232.171875,240893.609375,249736.765625,224982.203125,254238.859375,228883.125,229670.53125,386831.0,1.0,4
237898.5625,255253.265625,240905.140625,249745.078125,224982.828125,254251.640625,228880.171875,229681.890625,386832.0,1.0,4
237936.03125,255248.625,240899.515625,249740.515625,224962.890625,254241.984375,228867.84375,229666.78125,386833.0,1.0,4
237882.390625,255212.953125,240880.828125,249725.859375,224943.046875,254217.75,228859.796875,229638.078125,386834.0,1.0,4
237819.890625,255202.75,240876.71875,249725.140625,224956.734375,254219.09375,228873.203125,229640.140625,386835.0,1.0,4
237830.0,255225.546875,240887.4375,249734.359375,224978.453125,254238.40625,228885.546875,229663.734375,386836.0,1.0,4
237901.875,255251.65625,240902.28125,249743.109375,224980.421875,254251.90625,228885.625,229679.921875,386837.0,1.0,4
237935.84375,255250.234375,240897.640625,249738.109375,224962.265625,254240.015625,228870.15625,229666.234375,386838.0,1.0,4
237879.078125,255218.40625,240880.921875,249726.046875,224943.859375,254217.671875,228864.53125,229638.25,386839.0,1.0,4
237816.046875,255210.078125,240879.046875,249726.3125,224957.0,254222.765625,228879.734375,229644.875,386840.0,1.0,4
237820.96875,255224.65625,240887.796875,249732.828125,224973.71875,254238.671875,228884.640625,229667.140625,386841.0,1.0,4
237893.5625,255250.046875,240901.125,249741.859375,224976.046875,254249.140625,228880.359375,229681.890625,386842.0,1.0,4
237934.59375,255252.1875,240899.78125,249739.8125,224960.9375,254243.421875,228868.90625,229670.265625,386843.0,1.0,4
237881.40625,255220.09375,240884.40625,249729.53125,224946.53125,254226.25,228868.734375,229647.640625,386844.0,1.0,4
237818.015625,255208.921875,240882.4375,249729.53125,224958.703125,254230.1875,228884.46875,229651.3125,386845.0,1.0,4
237824.265625,255226.0,240890.484375,249735.875,224978.90625,254245.109375,228893.046875,229670.265625,386846.0,1.0,4
237889.0,255247.90625,240899.875,249739.453125,224982.203125,254251.109375,228883.03125,229681.4375,386847.0,1.0,4
237928.25,255247.09375,240898.53125,249737.65625,224965.40625,254242.609375,228870.96875,229668.484375,386848.0,1.0,4
237878.359375,255214.015625,240883.6875,249726.21875,224946.71875,254220.703125,228865.328125,229640.40625,386849.0,1.0,4
237814.796875,255199.359375,240883.328125,249726.578125,224958.34375,254227.234375,228880.359375,229643.4375,386850.0,1.0,4
237820.15625,255220.09375,240891.734375,249733.015625,224976.21875,254241.53125,228889.734375,229664.90625,386851.0,1.0,4
237893.375,255250.859375,240905.140625,249741.0625,224980.515625,254254.140625,228887.5,229680.640625,386852.0,1.0,4
237933.890625,255251.84375,240905.421875,249739.8125,224968.0,254249.765625,228876.421875,229674.5625,386853.0,1.0,4
237885.34375,255224.390625,240889.953125,249729.96875,224950.734375,254229.296875,228872.84375,229650.421875,386854.0,1.0,4
237827.046875,255218.75,240887.890625,249731.765625,224964.421875,254232.15625,228887.953125,229653.8125,386855.0,1.0,4
237827.578125,255231.984375,240893.078125,249733.734375,224978.1875,254241.53125,228889.46875,229666.0625,386856.0,1.0,4
237896.515625,255255.0625,240906.046875,249740.34375,224980.25,254253.96875,228886.171875,229676.4375,386857.0,1.0,4
237939.78125,255257.109375,240909.078125,249742.40625,224968.984375,254252.359375,228878.65625,229667.3125,386858.0,1.0,4
237893.203125,255229.578125,240895.40625,249734.171875,224954.765625,254232.953125,228874.90625,229642.640625,386859.0,1.0,4
237826.328125,255214.46875,240887.0,249729.4375,224962.625,254231.96875,228883.484375,229641.65625,386860.0,1.0,4
237831.78125,255234.40625,240895.40625,249735.875,224981.3125,254249.40625,228893.859375,229661.40625,386861.0,1.0,4
237903.03125,255260.421875,240906.75,249743.5625,224984.4375,254260.046875,228888.84375,229675.265625,386862.0,1.0,4
237944.875,255260.515625,240905.140625,249742.40625,224968.359375,254251.1875,228875.890625,229669.1875,386863.0,1.0,4
237893.921875,255228.234375,240890.03125,249732.390625,224952.34375,254230.71875,228873.109375,229647.46875,386864.0,1.0,4
237821.234375,255202.03125,240881.71875,249725.40625,224955.390625,254228.84375,228879.90625,229642.015625,386865.0,1.0,4
237824.09375,255213.65625,240889.328125,249727.921875,224970.140625,254242.25,228887.15625,229659.71875,386866.0,1.0,4
237892.21875,255232.703125,240898.796875,249733.375,224969.515625,254249.40625,228880.625,229673.21875,386867.0,1.0,4
237937.109375,255237.53125,240899.6875,249735.78125,224955.484375,254247.171875,228872.75,229666.328125,386868.0,1.0,4
237895.078125,255219.109375,240889.953125,249730.6875,224946.453125,254234.390625,228877.671875,229645.671875,386869.0,1.0,4
237824.359375,255198.8125,240880.109375,249722.28125,224950.015625,254226.609375,228875.53125,229636.828125,386870.0,1.0,4
237828.296875,255214.28125,240891.5625,249729.609375,224970.046875,254241.1875,228881.15625,229657.84375,386871.0,1.0,4
237899.375,255243.171875,240906.84375,249740.078125,224975.59375,254254.953125,228883.484375,229676.078125,386872.0,1.0,4
237948.546875,255252.546875,240908.8125,249744.453125,224966.828125,254253.15625,228880.09375,229672.765625,386873.0,1.0,4
237894.28125,255211.515625,240888.875,249729.609375,224945.546875,254229.5625,228866.859375,229640.40625,386874.0,1.0,4
237827.765625,255194.890625,240885.03125,249723.359375,224951.0,254226.96875,228873.109375,229632.796875,386875.0,1.0,4
237836.78125,255221.4375,240898.703125,249735.515625,224975.0625,254247.0,228887.953125,229660.78125,386876.0,1.0,4
237902.40625,255244.234375,240904.703125,249739.453125,224974.15625,254255.75,228880.0,229672.59375,386877.0,1.0,4
237946.046875,255246.296875,240905.859375,249741.234375,224962.625,254252.71875,228873.921875,229666.6875,386878.0,1.0,4
237893.734375,255209.90625,240888.875,249728.71875,224938.3125,254228.671875,228864.796875,229635.390625,386879.0,1.0,4
237827.40625,255194.796875,240884.9375,249725.328125,224943.9375,254226.78125,228874.453125,229631.1875,386880.0,1.0,4
237829.09375,255211.96875,240895.3125,249734.4375,224962.625,254243.6875,228887.5,229652.65625,386881.0,1.0,4
237902.40625,255240.484375,240908.359375,249744.375,224970.046875,254256.109375,228885.359375,229669.8125,386882.0,1.0,4
237948.453125,255244.78125,240908.09375,249744.453125,224958.34375,254252.359375,228875.796875,229662.75,386883.0,1.0,4
237891.859375,255203.46875,240887.359375,249729.25,224935.71875,254226.78125,228864.890625,229630.921875,386884.0,1.0,4
237826.421875,255192.65625,240880.203125,249723.796875,224945.640625,254224.546875,228874.1875,229628.6875,386885.0,1.0,4
237831.328125,255212.5,240889.953125,249732.390625,224968.0,254242.078125,228887.78125,229651.484375,386886.0,1.0,4
237904.5625,255245.484375,240908.546875,249747.046875,224978.984375,254260.578125,228895.109375,229676.171875,386887.0,1.0,4
237947.03125,255245.84375,240909.171875,249745.078125,224964.78125,254254.328125,228882.765625,229668.484375,386888.0,1.0,4
237894.90625,255206.78125,240892.265625,249733.1875,224944.84375,254234.203125,228873.734375,229636.828125,386889.0,1.0,4
237829.015625,255192.375,240888.703125,249729.703125,224951.09375,254234.46875,228882.859375,229632.453125,386890.0,1.0,4
237831.6875,255210.53125,240898.984375,249737.65625,224970.671875,254252.359375,228891.890625,229651.578125,386891.0,1.0,4
237900.53125,255233.859375,240911.40625,249747.234375,224974.25,254263.0,228888.21875,229666.953125,386892.0,1.0,4
237946.484375,255241.640625,240912.296875,249746.328125,224963.96875,254259.328125,228880.890625,229662.75,386893.0,1.0,4
237893.5625,255208.46875,240893.96875,249734.71875,224947.15625,254237.34375,228875.890625,229639.953125,386894.0,1.0,4
237828.65625,255198.734375,240889.046875,249734.078125,224956.8125,254236.703125,228886.4375,229640.3125,386895.0,1.0,4
237833.84375,255225.28125,240899.421875,249740.875,224982.296875,254256.5625,228901.90625,229664.0,386896.0,1.0,4
237904.640625,255253.796875,240913.734375,249750.453125,224987.84375,254270.15625,228900.734375,229680.1875,386897.0,1.0,4
237943.359375,255248.796875,240907.375,249744.375,224964.5,254257.625,228881.6875,229660.34375,386898.0,1.0,4
237895.4375,255217.953125,240892.453125,249732.75,224949.84375,254237.96875,228876.59375,229635.9375,386899.0,1.0,4
237831.6875,255205.4375,240888.703125,249731.5,224960.578125,254238.046875,228886.703125,229636.5625,386900.0,1.0,4
237837.234375,255226.359375,240899.328125,249738.203125,224980.25,254252.453125,228895.28125,229656.046875,386901.0,1.0,4
237908.765625,255256.578125,240910.515625,249745.984375,224986.59375,254266.125,228894.125,229673.21875,386902.0,1.0,4
237955.078125,255263.1875,240906.84375,249743.921875,224973.53125,254261.65625,228884.828125,229666.78125,386903.0,1.0,4
237903.3125,255226.796875,240887.09375,249730.515625,224952.4375,254238.859375,228875.703125,229638.96875,386904.0,1.0,4
237837.859375,255211.609375,240881.984375,249727.828125,224960.75,254239.125,228888.046875,229638.703125,386905.0,1.0,4
237834.015625,255222.78125,240886.640625,249730.6875,224975.953125,254251.28125,228896.53125,229654.171875,386906.0,1.0,4
237902.765625,255248.625,240897.8125,249739.265625,224978.1875,254259.953125,228891.265625,229669.453125,386907.0,1.0,4
237949.625,255253.984375,240901.5625,249742.21875,224968.265625,254260.578125,228889.5625,229666.6875,386908.0,1.0,4
237899.8125,255218.75,240884.21875,249727.375,224948.328125,254237.421875,228878.65625,229635.84375,386909.0,1.0,4
237828.203125,255198.109375,240874.03125,249720.9375,224947.78125,254229.5625,228879.734375,229626.28125,386910.0,1.0,4
237826.859375,255212.3125,240883.0625,249729.703125,224967.453125,254244.578125,228892.0625,229649.96875,386911.0,1.0,4
237894.359375,255241.5625,240893.609375,249736.140625,224972.734375,254255.3125,228889.296875,229665.34375,386912.0,1.0,4
237941.125,255248.984375,240895.671875,249737.484375,224961.46875,254254.953125,228879.546875,229659.0,386913.0,1.0,4
237896.25,255221.4375,240882.703125,249729.890625,224946.265625,254237.515625,228876.515625,229635.84375,386914.0,1.0,4
237830.96875,255207.21875,240880.65625,249727.015625,224957.625,254237.78125,228889.734375,229636.296875,386915.0,1.0,4
237827.765625,255215.71875,240886.015625,249730.0625,224970.859375,254246.28125,228892.15625,229649.34375,386916.0,1.0,4
237890.4375,255233.953125,240896.734375,249737.484375,224970.40625,254254.953125,228887.328125,229659.625,386917.0,1.0,4
237938.796875,255241.28125,240900.046875,249738.90625,224958.703125,254251.640625,228878.296875,229656.234375,386918.0,1.0,4
237899.640625,255221.078125,240890.65625,249734.984375,224950.015625,254237.515625,228879.453125,229639.328125,386919.0,1.0,4
237835.890625,255208.296875,240887.796875,249734.796875,224958.78125,254237.15625,228890.640625,229636.734375,386920.0,1.0,4
237833.5625,255219.734375,240898.625,249742.21875,224975.59375,254252.53125,228902.53125,229651.3125,386921.0,1.0,4
237901.515625,255244.328125,240913.640625,249752.140625,224981.21875,254264.609375,228903.421875,229668.03125,386922.0,1.0,4
237946.9375,255246.109375,240909.703125,249747.046875,224965.40625,254254.6875,228884.734375,229660.25,386923.0,1.0,4
237901.78125,255216.25,240891.46875,249733.453125,224945.640625,254231.703125,228873.5625,229632.71875,386924.0,1.0,4
237834.734375,255202.9375,240886.015625,249730.953125,224952.171875,254228.84375,228881.96875,229629.765625,386925.0,1.0,4
237838.578125,255224.203125,240897.8125,249741.953125,224977.921875,254247.796875,228894.921875,229654.171875,386926.0,1.0,4
237907.859375,255250.765625,240912.828125,249753.390625,224986.765625,254261.03125,228893.859375,229671.875,386927.0,1.0,4
237950.515625,255248.53125,240909.890625,249750.0,224970.5,254254.953125,228881.34375,229661.40625,386928.0,1.0,4
237899.546875,255213.578125,240891.28125,249735.6875,224947.34375,254232.0625,228874.71875,229632.09375,386929.0,1.0,4
237826.859375,255194.796875,240879.484375,249727.46875,224950.5625,254225.53125,228881.25,229626.1875,386930.0,1.0,4
237831.609375,255219.65625,240892.890625,249739.71875,224976.046875,254246.640625,228899.21875,229653.09375,386931.0,1.0,4
237890.703125,255236.90625,240898.796875,249742.578125,224973.0,254251.90625,228890.1875,229657.84375,386932.0,1.0,4
237938.625,255242.890625,240898.984375,249743.203125,224960.390625,254247.4375,228879.28125,229651.3125,386933.0,1.0,4
237891.234375,255206.515625,240885.203125,249733.90625,224941.984375,254226.515625,228874.1875,229625.734375,386934.0,1.0,4
237821.140625,255185.046875,240877.515625,249729.609375,224947.875,254220.796875,228880.4375,229620.734375,386935.0,1.0,4
237823.203125,255204.265625,240888.421875,249737.84375,224972.828125,254237.421875,228890.453125,229646.390625,386936.0,1.0,4
237893.109375,255234.9375,240902.109375,249748.84375,224980.59375,254253.875,228893.59375,229667.21875,386937.0,1.0,4
237937.28125,255236.28125,240898.265625,249743.296875,224962.453125,254248.609375,228877.84375,229656.046875,386938.0,1.0,4
237892.40625,255205.4375,240883.0625,249732.296875,224944.125,254228.671875,228872.484375,229631.734375,386939.0,1.0,4
237825.609375,255191.75,240878.40625,249729.609375,224954.140625,254225.625,228882.671875,229628.0625,386940.0,1.0,4
237825.171875,255213.21875,240890.03125,249738.203125,224979.34375,254244.84375,228896.0,229648.71875,386941.0,1.0,4
237889.09375,255235.03125,240907.03125,249749.109375,224984.09375,254259.859375,228896.0,229663.5625,386942.0,1.0,4
237944.4375,255243.875,240912.296875,249754.296875,224975.421875,254260.578125,228890.90625,229664.546875,386943.0,1.0,4
237899.015625,255215.265625,240891.90625,249739.09375,224955.484375,254238.140625,228881.875,229635.671875,386944.0,1.0,4
237822.296875,255190.234375,240878.140625,249727.640625,224954.5,254227.59375,228880.796875,229620.90625,386945.0,1.0,4
237823.734375,255208.921875,240890.125,249734.359375,224977.734375,254246.359375,228895.828125,229646.21875,386946.0,1.0,4
237891.234375,255240.296875,240902.734375,249741.78125,224983.546875,254257.90625,228891.703125,229664.09375,386947.0,1.0,4
237939.875,255249.875,240905.6875,249745.984375,224975.5,254259.859375,228884.28125,229660.703125,386948.0,1.0,4
237887.578125,255209.453125,240885.5625,249731.671875,224946.890625,254230.09375,228868.1875,229626.1875,386949.0,1.0,4
237822.484375,255193.71875,240883.15625,249733.1875,224956.109375,254231.4375,228882.59375,229630.390625,386950.0,1.0,4
237819.71875,255209.734375,240891.828125,249740.875,224974.4375,254245.5625,228895.46875,229654.171875,386951.0,1.0,4
237881.84375,255229.9375,240900.9375,249743.921875,224975.59375,254251.640625,228884.90625,229661.765625,386952.0,1.0,4
237931.734375,255232.53125,240901.484375,249743.390625,224962.8125,254248.25,228874.359375,229652.296875,386953.0,1.0,4
237894.640625,255208.921875,240887.171875,249734.171875,224948.859375,254231.171875,228872.84375,229628.59375,386954.0,1.0,4
237825.34375,255194.265625,240879.75,249729.796875,224956.28125,254228.671875,228881.609375,229622.96875,386955.0,1.0,4
237818.015625,255205.171875,240890.65625,249738.46875,224974.4375,254242.609375,228891.0,229640.40625,386956.0,1.0,4
237889.265625,255235.03125,240906.75,249749.640625,224982.75,254254.765625,228887.59375,229659.453125,386957.0,1.0,4
237940.5,255243.25,240905.859375,249747.59375,224968.359375,254252.984375,228877.671875,229653.8125,386958.0,1.0,4
237901.078125,255218.40625,240893.4375,249739.0,224951.8125,254238.046875,228875.34375,229632.359375,386959.0,1.0,4
237825.515625,255193.1875,240883.59375,249732.5625,224952.53125,254233.484375,228880.359375,229621.8125,386960.0,1.0,4
237823.375,255210.4375,240893.171875,249739.359375,224973.171875,254247.4375,228890.71875,229642.90625,386961.0,1.0,4
237890.609375,255236.734375,240906.75,249750.359375,224982.484375,254261.390625,228892.328125,229664.71875,386962.0,1.0,4
237940.671875,255241.828125,240907.921875,249749.546875,224968.359375,254256.734375,228883.03125,229656.234375,386963.0,1.0,4
237897.3125,255213.296875,240890.03125,249735.25,224945.640625,254232.59375,228870.609375,229624.21875,386964.0,1.0,4
237822.9375,255190.421875,240878.765625,249727.640625,224948.0625,254225.453125,228874.984375,229615.453125,386965.0,1.0,4
237816.671875,255200.703125,240885.03125,249730.421875,224966.828125,254239.484375,228883.296875,229635.84375,386966.0,1.0,4
237884.53125,255226.625,240898.53125,249738.828125,224975.765625,254255.671875,228885.265625,229656.40625,386967.0,1.0,4
237940.953125,255239.40625,240902.015625,249742.40625,224965.84375,254256.46875,228883.03125,229657.5625,386968.0,1.0,4
237897.671875,255209.09375,240882.890625,249728.984375,224943.671875,254232.234375,228872.125,229628.875,386969.0,1.0,4
237825.703125,255191.3125,240873.046875,249722.1875,224947.875,254224.8125,228873.734375,229621.0,386970.0,1.0,4
237819.171875,255206.0625,240881.71875,249728.359375,224969.0625,254240.734375,228884.734375,229641.296875,386971.0,1.0,4
237882.921875,255232.609375,240894.234375,249736.046875,224975.234375,254253.25,228882.859375,229656.859375,386972.0,1.0,4
237932.8125,255237.796875,240894.78125,249735.96875,224960.390625,254251.546875,228874.71875,229648.359375,386973.0,1.0,4
237893.109375,255205.875,240881.359375,249726.125,224941.796875,254232.15625,228868.28125,229624.40625,386974.0,1.0,4
237827.40625,255190.953125,240878.6875,249725.953125,224951.28125,254232.328125,228876.875,229627.171875,386975.0,1.0,4
237821.140625,255206.0625,240888.875,249733.640625,224972.375,254248.515625,228892.0625,229649.171875,386976.0,1.0,4
237881.140625,255224.296875,240898.4375,249739.984375,224971.578125,254254.765625,228887.328125,229659.359375,386977.0,1.0,4
237932.90625,255235.203125,240899.328125,249739.984375,224961.46875,254249.671875,228873.65625,229655.515625,386978.0,1.0,4
237887.921875,255200.875,240880.734375,249724.96875,224940.28125,254225.71875,228862.65625,229625.03125,386979.0,1.0,4
237817.921875,255183.53125,240872.953125,249720.9375,224949.671875,254224.640625,228873.015625,229622.34375,386980.0,1.0,4
237810.859375,255197.5625,240883.234375,249728.8125,224971.390625,254241.09375,228885.625,229641.65625,386981.0,1.0,4
237885.0625,255231.984375,240901.390625,249742.578125,224981.9375,254258.34375,228888.9375,229662.3125,386982.0,1.0,4
237940.671875,255243.34375,240904.875,249745.53125,224973.71875,254258.4375,228881.0625,229663.296875,386983.0,1.0,4
237896.15625,255207.484375,240888.96875,249734.359375,224952.53125,254232.78125,228870.15625,229633.421875,386984.0,1.0,4
237822.296875,255182.375,240880.734375,249730.0625,224956.546875,254227.859375,228877.765625,229623.859375,386985.0,1.0,4
237818.734375,255199.53125,240891.375,249739.625,224977.734375,254247.0,228891.53125,229646.75,386986.0,1.0,4
237881.21875,255227.34375,240899.78125,249745.53125,224979.34375,254256.734375,228886.078125,229660.34375,386987.0,1.0,4
237937.28125,255240.296875,240903.09375,249747.046875,224970.9375,254255.75,228879.453125,229658.734375,386988.0,1.0,4
237900.0,255217.6875,240888.609375,249736.859375,224957.625,254236.796875,228875.265625,229639.0625,386989.0,1.0,4
237826.59375,255192.46875,240878.859375,249731.84375,224962.890625,254232.421875,228881.34375,229633.96875,386990.0,1.0,4
237817.125,255197.296875,240885.390625,249735.6875,224977.375,254247.34375,228888.3125,229646.65625,386991.0,1.0,4
237884.53125,255227.078125,240896.921875,249742.40625,224985.25,254259.859375,228888.484375,229664.0,386992.0,1.0,4
237930.390625,255230.015625,240893.875,249738.203125,224969.875,254250.75,228873.015625,229657.390625,386993.0,1.0,4
237887.75,255195.6875,240880.734375,249727.734375,224949.84375,254228.3125,228866.3125,229632.0,386994.0,1.0,4
237820.25,255182.90625,240873.234375,249724.96875,224956.640625,254225.71875,228876.59375,229628.328125,386995.0,1.0,4
237816.578125,255202.3125,240881.09375,249732.921875,224975.140625,254243.328125,228887.328125,229648.1875,386996.0,1.0,4
237877.296875,255222.328125,240893.34375,249740.34375,224979.609375,254256.375,228885.265625,229661.859375,386997.0,1.0,4
237932.09375,255236.453125,240898.703125,249743.203125,224972.015625,254259.59375,228878.75,229662.484375,386998.0,1.0,4
237897.859375,255215.1875,240885.921875,249733.1875,224953.953125,254239.390625,228871.140625,229638.609375,386999.0,1.0,4
237824.453125,255189.15625,240878.859375,249728.359375,224954.84375,254234.03125,228879.109375,229628.78125,387000.0,1.0,4
237818.640625,255204.90625,240887.984375,249732.921875,224974.15625,254248.953125,228890.71875,229646.84375,387001.0,1.0,4
237888.546875,255239.140625,240902.734375,249743.203125,224983.546875,254266.21875,228894.03125,229666.6875,387002.0,1.0,4
237937.375,255239.859375,240903.265625,249744.8125,224969.328125,254261.75,228886.34375,229661.0625,387003.0,1.0,4
237903.9375,255215.8125,240893.96875,249740.078125,224957.0,254243.59375,228882.40625,229646.21875,387004.0,1.0,4
237834.015625,255195.25,240884.578125,249732.125,224957.625,254236.078125,228883.484375,229636.109375,387005.0,1.0,4
237824.453125,255208.5625,240890.484375,249734.71875,224972.828125,254246.1875,228886.4375,229647.90625,387006.0,1.0,4
237885.875,255233.78125,240900.9375,249741.328125,224977.203125,254255.84375,228884.203125,229660.078125,387007.0,1.0,4
237939.25,255244.328125,240902.546875,249741.953125,224967.71875,254251.734375,228872.21875,229656.765625,387008.0,1.0,4
237895.703125,255206.421875,240886.90625,249730.953125,224946.890625,254228.9375,228863.453125,229630.75,387009.0,1.0,4
237825.34375,255184.25,240876.984375,249722.46875,224948.859375,254222.234375,228868.734375,229616.359375,387010.0,1.0,4
237819.53125,255201.953125,240886.546875,249730.15625,224972.28125,254239.921875,228883.125,229637.0,387011.0,1.0,4
237882.390625,255225.8125,240900.765625,249739.71875,224978.546875,254256.109375,228883.125,229654.171875,387012.0,1.0,4
237941.3125,255240.21875,240903.0,249742.40625,224968.078125,254255.9375,228876.421875,229655.421875,387013.0,1.0,4
237899.546875,255206.78125,240887.09375,249732.5625,224947.34375,254234.390625,228870.609375,229631.90625,387014.0,1.0,4
237825.078125,255185.046875,240877.25,249725.328125,224948.765625,254227.40625,228875.96875,229622.796875,387015.0,1.0,4
237814.53125,255200.421875,240884.5,249730.234375,224967.546875,254242.515625,228885.71875,229636.828125,387016.0,1.0,4
237874.515625,255223.234375,240895.3125,249740.25,224974.4375,254257.28125,228886.609375,229653.359375,387017.0,1.0,4
237924.40625,255227.25,240893.875,249738.828125,224959.40625,254254.5,228875.078125,229645.671875,387018.0,1.0,4
237891.0625,255204.359375,240879.21875,249729.53125,224941.34375,254233.84375,228867.65625,229621.625,387019.0,1.0,4
237815.515625,255176.640625,240871.265625,249724.078125,224941.265625,254224.46875,228870.96875,229610.984375,387020.0,1.0,4
237805.234375,255189.4375,240877.515625,249728.0,224959.953125,254237.34375,228882.140625,229629.40625,387021.0,1.0,4
237869.6875,255220.09375,240889.953125,249735.875,224968.890625,254249.234375,228882.140625,229649.515625,387022.0,1.0,4
237923.328125,255226.796875,240889.5,249734.078125,224951.8125,254244.3125,228867.5625,229643.4375,387023.0,1.0,4
237886.5,255194.4375,240874.125,249722.734375,224933.125,254221.875,228856.21875,229619.484375,387024.0,1.0,4
237816.21875,255175.84375,240865.71875,249715.484375,224937.6875,254216.953125,228860.78125,229608.65625,387025.0,1.0,4
237808.171875,255190.59375,240875.640625,249723.796875,224959.40625,254234.390625,228875.4375,229631.1875,387026.0,1.0,4
237883.640625,255229.3125,240898.265625,249740.25,224978.0,254261.296875,228888.84375,229662.75,387027.0,1.0,4
237950.328125,255251.5625,240907.46875,249748.65625,224975.765625,254267.5625,228885.0,229668.65625,387028.0,1.0,4
237920.203125,255230.015625,240899.78125,249743.921875,224962.359375,254254.59375,228880.71875,229646.21875,387029.0,1.0,4
237850.640625,255213.390625,240894.421875,249740.796875,224971.03125,254257.453125,228896.09375,229642.375,387030.0,1.0,4
237842.59375,255229.390625,240904.703125,249748.296875,224992.671875,254278.375,228913.875,229665.703125,387031.0,1.0,4
237900.0,255251.296875,240918.375,249756.890625,224999.28125,254290.71875,228913.25,229683.3125,387032.0,1.0,4
237950.328125,255255.40625,240918.203125,249754.921875,224982.921875,254283.375,228899.3125,229675.984375,387033.0,1.0,4
237906.34375,255220.359375,240896.734375,249737.9375,224956.1875,254254.234375,228884.46875,229644.515625,387034.0,1.0,4
237825.4375,255188.0,240881.453125,249725.59375,224951.546875,254243.859375,228886.171875,229628.0625,387035.0,1.0,4
237810.40625,255196.21875,240883.78125,249725.953125,224965.140625,254250.484375,228889.46875,229640.765625,387036.0,1.0,4
237878.09375,255225.28125,240898.078125,249737.03125,224972.015625,254261.5625,228885.265625,229658.46875,387037.0,1.0,4
237936.125,255237.265625,240903.359375,249740.609375,224961.46875,254261.921875,228880.0,229657.03125,387038.0,1.0,4
237895.53125,255202.03125,240885.75,249728.453125,224938.671875,254236.625,228871.140625,229626.90625,387039.0,1.0,4
237825.609375,255179.953125,240874.21875,249722.1875,224940.640625,254227.0625,228874.28125,229618.234375,387040.0,1.0,4
237815.15625,255194.265625,240881.28125,249728.625,224958.703125,254242.515625,228883.578125,229637.90625,387041.0,1.0,4
237877.46875,255221.96875,240895.84375,249739.8125,224968.703125,254258.53125,228885.09375,229659.53125,387042.0,1.0,4
237938.53125,255238.6875,240903.453125,249743.03125,224965.046875,254264.25,228882.046875,229664.359375,387043.0,1.0,4
237906.53125,255215.453125,240890.484375,249733.453125,224948.234375,254246.640625,228878.5625,229645.5,387044.0,1.0,4
237830.171875,255189.609375,240877.4375,249724.703125,224949.390625,254238.40625,228882.953125,229633.875,387045.0,1.0,4
237815.515625,255201.140625,240882.4375,249729.796875,224965.484375,254249.234375,228888.40625,229644.25,387046.0,1.0,4
237879.4375,255231.28125,240895.578125,249739.984375,224972.828125,254261.5625,228886.875,229660.609375,387047.0,1.0,4
237934.421875,255239.234375,240898.34375,249739.8125,224961.28125,254261.5625,228878.828125,229655.609375,387048.0,1.0,4
237902.40625,255210.4375,240886.546875,249731.671875,224944.390625,254242.515625,228872.125,229632.0,387049.0,1.0,4
237829.640625,255184.15625,240879.75,249729.796875,224950.921875,254238.5,228880.09375,229627.4375,387050.0,1.0,4
237816.578125,255197.484375,240888.25,249735.34375,224969.96875,254252.984375,228888.125,229643.53125,387051.0,1.0,4
237876.484375,255226.09375,240899.6875,249741.78125,224972.640625,254261.296875,228884.375,229659.359375,387052.0,1.0,4
237937.546875,255238.34375,240905.140625,249745.171875,224960.03125,254260.40625,228875.53125,229655.609375,387053.0,1.0,4
237906.53125,255210.265625,240894.78125,249738.109375,224941.53125,254241.984375,228871.953125,229632.09375,387054.0,1.0,4
237836.875,255189.796875,240885.03125,249732.828125,224946.265625,254235.015625,228876.328125,229625.46875,387055.0,1.0,4
237828.203125,255209.453125,240891.90625,249739.984375,224971.75,254251.28125,228889.109375,229646.921875,387056.0,1.0,4
237887.484375,255234.140625,240902.109375,249747.9375,224979.53125,254261.921875,228888.484375,229664.09375,387057.0,1.0,4
237941.390625,255243.4375,240904.078125,249748.75,224966.203125,254259.78125,228877.9375,229660.703125,387058.0,1.0,4
237908.21875,255216.515625,240890.75,249739.984375,224947.4375,254242.875,228871.6875,229635.390625,387059.0,1.0,4
237834.28125,255193.453125,240881.625,249733.28125,224947.515625,254233.578125,228875.4375,229625.5625,387060.0,1.0,4
237818.1875,255201.328125,240887.984375,249737.484375,224965.140625,254245.296875,228883.390625,229645.5,387061.0,1.0,4
237880.328125,255227.78125,240901.65625,249746.328125,224975.59375,254262.28125,228885.09375,229664.546875,387062.0,1.0,4
237937.28125,255239.328125,240903.265625,249747.5,224965.671875,254264.15625,228877.21875,229659.890625,387063.0,1.0,4
237903.9375,255214.375,240885.828125,249738.203125,224948.6875,254241.265625,228866.40625,229637.0,387064.0,1.0,4
237822.84375,255184.0625,240872.328125,249728.625,224944.921875,254229.296875,228868.828125,229620.015625,387065.0,1.0,4
237803.625,255184.96875,240878.859375,249732.5625,224957.890625,254240.015625,228879.28125,229631.375,387066.0,1.0,4
237867.71875,255212.3125,240893.171875,249741.78125,224968.890625,254256.734375,228885.546875,229656.046875,387067.0,1.0,4
237927.625,255228.59375,240895.3125,249741.859375,224959.5,254257.09375,228877.046875,229657.390625,387068.0,1.0,4
237898.484375,255208.390625,240882.4375,249734.078125,224943.9375,254239.921875,228869.0,229635.84375,387069.0,1.0,4
237828.03125,255190.0625,240876.0,249728.71875,224950.46875,254236.53125,228876.953125,229630.484375,387070.0,1.0,4
237810.859375,255198.90625,240881.984375,249730.328125,224967.28125,254243.5,228883.75,229643.0,387071.0,1.0,4
237872.90625,255227.515625,240894.5,249738.109375,224975.859375,254256.828125,228884.015625,229661.5,387072.0,1.0,4
237931.921875,255243.4375,240899.0625,249741.328125,224965.671875,254258.34375,228877.140625,229662.578125,387073.0,1.0,4
237897.671875,255215.0,240885.296875,249729.890625,224945.015625,254234.65625,228866.859375,229637.453125,387074.0,1.0,4
237823.375,255187.734375,240875.015625,249720.234375,224946.265625,254223.921875,228871.234375,229625.203125,387075.0,1.0,4
237810.765625,255200.421875,240882.4375,249726.21875,224967.1875,254236.265625,228884.640625,229646.390625,387076.0,1.0,4
237876.3125,255230.015625,240899.515625,249737.65625,224979.96875,254251.015625,228889.65625,229671.25,387077.0,1.0,4
237930.9375,255236.640625,240900.3125,249733.640625,224963.796875,254245.390625,228878.203125,229663.828125,387078.0,1.0,4
237904.5625,255216.796875,240887.984375,249724.4375,224947.15625,254225.265625,228872.578125,229642.640625,387079.0,1.0,4
237827.765625,255189.875,240874.03125,249714.0625,224943.40625,254213.90625,228874.984375,229627.796875,387080.0,1.0,4
237814.171875,255203.203125,240881.90625,249718.625,224964.5,254228.84375,228886.875,229646.296875,387081.0,1.0,4
237876.484375,255231.453125,240897.71875,249729.609375,224975.328125,254244.671875,228890.09375,229667.9375,387082.0,1.0,4
237934.234375,255242.453125,240900.671875,249730.15625,224966.109375,254244.046875,228881.515625,229666.0625,387083.0,1.0,4
237905.625,255222.59375,240886.546875,249717.1875,224949.046875,254225.0,228873.65625,229642.640625,387084.0,1.0,4
237835.171875,255208.203125,240880.828125,249714.953125,224955.03125,254222.234375,228886.171875,229639.515625,387085.0,1.0,4
237818.640625,255217.421875,240887.0,249718.4375,224973.265625,254235.640625,228897.4375,229653.359375,387086.0,1.0,4
237875.046875,255238.609375,240896.921875,249724.609375,224978.1875,254244.671875,228894.125,229669.90625,387087.0,1.0,4
237933.796875,255251.75,240901.5625,249728.8125,224966.75,254243.78125,228882.234375,229671.34375,387088.0,1.0,4
237906.96875,255231.359375,240887.796875,249718.078125,224947.078125,254226.15625,228872.21875,229643.984375,387089.0,1.0,4
237831.328125,255202.65625,240876.09375,249710.578125,224945.1875,254216.0625,228876.875,229631.375,387090.0,1.0,4
237808.09375,255204.1875,240879.9375,249711.640625,224955.921875,254224.015625,228884.734375,229642.109375,387091.0,1.0,4
237874.78125,255242.0,240897.09375,249723.890625,224970.40625,254241.71875,228890.015625,229668.03125,387092.0,1.0,4
237940.046875,255266.140625,240904.25,249729.4375,224968.53125,254246.90625,228884.46875,229673.9375,387093.0,1.0,4
237905.984375,255236.546875,240889.59375,249719.328125,224950.5625,254228.21875,228876.953125,229649.078125,387094.0,1.0,4
237830.625,255209.015625,240877.25,249712.625,224947.78125,254219.453125,228879.28125,229635.75,387095.0,1.0,4
237813.546875,255221.703125,240881.90625,249715.75,224964.15625,254230.0,228887.328125,229647.640625,387096.0,1.0,4
237871.390625,255247.640625,240893.96875,249724.609375,224973.53125,254244.21875,228888.671875,229665.171875,387097.0,1.0,4
237932.359375,255261.21875,240900.234375,249728.28125,224966.828125,254248.953125,228885.359375,229667.140625,387098.0,1.0,4
237907.78125,255239.046875,240891.90625,249722.734375,224950.921875,254233.765625,228883.21875,229647.90625,387099.0,1.0,4
237836.25,255217.5,240879.75,249713.4375,224950.65625,254225.0,228887.421875,229635.125,387100.0,1.0,4
237818.28125,255225.28125,240884.671875,249717.015625,224969.421875,254238.140625,228894.921875,229648.890625,387101.0,1.0,4
237877.203125,255250.9375,240899.609375,249729.703125,224980.328125,254255.484375,228897.34375,229667.140625,387102.0,1.0,4
237931.109375,255256.578125,240899.6875,249729.53125,224968.359375,254254.0625,228883.484375,229665.171875,387103.0,1.0,4
237904.921875,255234.9375,240887.265625,249721.21875,224950.203125,254236.890625,228875.609375,229643.890625,387104.0,1.0,4
237834.28125,255215.0,240879.046875,249716.65625,224954.5,254231.078125,228886.96875,229638.609375,387105.0,1.0,4
237811.75,255218.125,240880.5625,249718.0,224966.921875,254238.5,228893.5,229647.5625,387106.0,1.0,4
237876.03125,255249.875,240896.921875,249729.96875,224980.421875,254255.046875,228896.71875,229670.53125,387107.0,1.0,4
237935.5,255261.046875,240900.234375,249732.203125,224970.3125,254256.109375,228888.765625,229670.359375,387108.0,1.0,4
237907.6875,255233.6875,240891.109375,249726.578125,224953.78125,254236.625,228883.125,229647.734375,387109.0,1.0,4
237837.40625,255218.125,240884.9375,249723.796875,224960.390625,254229.734375,228889.390625,229642.015625,387110.0,1.0,4
237820.421875,255233.515625,240891.203125,249725.765625,224979.078125,254242.703125,228897.78125,229655.953125,387111.0,1.0,4
237879.078125,255260.875,240903.453125,249732.46875,224986.765625,254255.046875,228896.890625,229670.71875,387112.0,1.0,4
237934.78125,255264.890625,240907.828125,249734.359375,224973.359375,254256.375,228888.21875,229666.0625,387113.0,1.0,4
237902.59375,255233.78125,240890.9375,249721.65625,224944.84375,254230.625,228874.546875,229633.78125,387114.0,1.0,4
237828.734375,255212.140625,240876.453125,249710.390625,224941.171875,254216.421875,228872.9375,229620.734375,387115.0,1.0,4
237809.421875,255219.296875,240881.71875,249714.953125,224958.96875,254230.90625,228886.703125,229640.84375,387116.0,1.0,4
237868.796875,255248.4375,240895.125,249724.15625,224969.25,254244.9375,228889.296875,229659.984375,387117.0,1.0,4
237927.53125,255260.15625,240899.15625,249728.71875,224959.234375,254245.203125,228881.515625,229659.53125,387118.0,1.0,4
237905.1875,255238.96875,240885.75,249720.5,224941.703125,254224.109375,228871.140625,229638.078125,387119.0,1.0,4
237834.828125,255219.734375,240874.125,249712.625,224943.140625,254213.828125,228874.8125,229627.265625,387120.0,1.0,4
237815.328125,255228.6875,240880.828125,249716.828125,224965.21875,254228.390625,228887.5,229646.65625,387121.0,1.0,4
237869.59375,255248.890625,240891.734375,249723.453125,224974.4375,254241.53125,228887.6875,229665.078125,387122.0,1.0,4
237934.421875,255263.375,240896.734375,249726.484375,224964.953125,254242.703125,228878.921875,229662.75,387123.0,1.0,4
237910.109375,255238.6875,240886.375,249717.8125,224945.46875,254225.09375,228872.484375,229639.421875,387124.0,1.0,4
237837.59375,255213.21875,240878.234375,249714.0625,224947.96875,254218.921875,228879.734375,229630.5625,387125.0,1.0,4
237820.96875,255224.125,240884.578125,249722.1875,224968.890625,254232.234375,228891.53125,229647.90625,387126.0,1.0,4
237878.0,255250.578125,240896.296875,249729.703125,224978.09375,254244.75,228889.828125,229666.59375,387127.0,1.0,4
237939.421875,255264.0,240902.28125,249733.734375,224969.0625,254246.90625,228881.96875,229667.84375,387128.0,1.0,4
237918.0625,255244.953125,240895.125,249728.71875,224952.53125,254234.125,228880.984375,229645.859375,387129.0,1.0,4
237843.140625,255216.796875,240886.640625,249723.0,224951.453125,254227.6875,228885.71875,229633.421875,387130.0,1.0,4
237824.890625,255228.234375,240891.734375,249727.46875,224969.15625,254236.265625,228893.40625,229651.125,387131.0,1.0,4
237885.875,255262.390625,240905.421875,249737.03125,224979.703125,254250.75,228895.28125,229670.71875,387132.0,1.0,4
237947.390625,255275.359375,240910.0625,249739.546875,224971.484375,254252.71875,228885.71875,229668.921875,387133.0,1.0,4
237920.828125,255246.203125,240895.765625,249729.53125,224952.890625,254233.3125,228874.984375,229644.0625,387134.0,1.0,4
237849.3125,255226.796875,240883.78125,249723.453125,224953.15625,254223.5625,228880.0,229632.359375,387135.0,1.0,4
237826.234375,255233.0625,240889.859375,249727.921875,224968.4375,254235.8125,228892.953125,229646.75,387136.0,1.0,4
237876.390625,255251.5625,240898.625,249733.28125,224973.53125,254245.65625,228889.921875,229663.65625,387137.0,1.0,4
237933.53125,255255.234375,240900.765625,249733.640625,224955.03125,254240.828125,228873.46875,229651.3125,387138.0,1.0,4
237915.5625,255238.0625,240892.0,249727.015625,224941.34375,254226.25,228868.375,229633.25,387139.0,1.0,4
237841.890625,255210.890625,240880.828125,249719.609375,224944.296875,254217.84375,228870.78125,229620.28125,387140.0,1.0,4
237822.84375,255219.5625,240890.21875,249726.046875,224964.328125,254234.03125,228885.09375,229637.453125,387141.0,1.0,4
237877.375,255242.09375,240901.65625,249734.359375,224968.796875,254246.09375,228885.453125,229654.078125,387142.0,1.0,4
237944.078125,255262.65625,240909.34375,249740.609375,224963.34375,254251.734375,228880.0,229661.328125,387143.0,1.0,4
237920.734375,255241.109375,240893.703125,249728.359375,224946.265625,254232.515625,228868.828125,229639.234375,387144.0,1.0,4
237847.34375,255213.484375,240880.828125,249719.515625,224946.265625,254220.796875,228873.015625,229627.625,387145.0,1.0,4
237822.21875,255214.203125,240886.375,249722.28125,224962.359375,254232.59375,228881.0625,229637.453125,387146.0,1.0,4
237875.5,255238.15625,240900.046875,249731.671875,224970.859375,254247.0,228883.125,229653.546875,387147.0,1.0,4
237940.5,255258.1875,240905.421875,249736.234375,224963.875,254251.375,228877.84375,229655.609375,387148.0,1.0,4
237918.328125,255235.390625,240893.34375,249727.828125,224947.078125,254235.015625,228868.734375,229631.90625,387149.0,1.0,4
237844.75,255209.375,240884.671875,249720.765625,224950.46875,254226.78125,228875.96875,229620.546875,387150.0,1.0,4
237823.5625,255216.4375,240889.328125,249724.609375,224969.6875,254237.515625,228887.234375,229639.234375,387151.0,1.0,4
237885.515625,255250.765625,240903.0,249734.359375,224979.96875,254251.828125,228889.828125,229662.75,387152.0,1.0,4
237948.546875,255267.578125,240907.5625,249737.9375,224972.28125,254254.953125,228886.4375,229666.328125,387153.0,1.0,4
237917.4375,255234.140625,240890.578125,249725.765625,224947.515625,254231.703125,228872.3125,229637.0,387154.0,1.0,4
237841.890625,255205.796875,240879.390625,249716.921875,224944.21875,254221.25,228876.953125,229623.421875,387155.0,1.0,4
237818.1875,255216.609375,240884.046875,249718.890625,224959.234375,254226.875,228882.40625,229636.203125,387156.0,1.0,4
237877.375,255248.34375,240902.90625,249732.125,224971.390625,254244.046875,228890.640625,229660.609375,387157.0,1.0,4
237942.375,255264.984375,240909.890625,249736.859375,224966.75,254246.90625,228880.890625,229664.28125,387158.0,1.0,4
237922.265625,255247.015625,240896.03125,249728.1875,224951.28125,254231.4375,228873.296875,229645.3125,387159.0,1.0,4
237847.515625,255219.109375,240885.5625,249720.578125,224950.921875,254221.875,228877.046875,229631.640625,387160.0,1.0,4
237830.53125,255230.921875,240895.125,249726.125,224973.8125,254237.421875,228890.28125,229651.9375,387161.0,1.0,4
237884.890625,255253.265625,240906.84375,249733.640625,224981.140625,254249.40625,228890.90625,229669.90625,387162.0,1.0,4
237944.875,255262.125,240907.375,249733.453125,224965.671875,254247.703125,228879.1875,229664.546875,387163.0,1.0,4
237917.25,255231.09375,240887.359375,249720.3125,224941.0,254224.546875,228865.6875,229633.96875,387164.0,1.0,4
237842.15625,255202.75,240876.171875,249715.21875,224941.265625,254215.96875,228870.78125,229620.109375,387165.0,1.0,4
237825.796875,255216.078125,240890.65625,249727.296875,224968.265625,254237.15625,228891.265625,229645.234375,387166.0,1.0,4
237879.4375,255239.59375,240900.9375,249733.1875,224976.671875,254248.421875,228887.59375,229661.328125,387167.0,1.0,4
237943.359375,255252.28125,240903.359375,249734.171875,224966.109375,254247.796875,228877.3125,229661.59375,387168.0,1.0,4
237916.71875,255224.65625,240887.0,249722.28125,224942.953125,254225.984375,228866.859375,229638.609375,387169.0,1.0,4
237840.8125,255196.671875,240874.84375,249712.984375,224939.828125,254217.21875,228870.34375,229624.21875,387170.0,1.0,4
237823.109375,255213.84375,240882.171875,249719.609375,224961.203125,254233.3125,228884.828125,229641.03125,387171.0,1.0,4
237880.15625,255242.984375,240896.390625,249731.5,224973.8125,254251.90625,228889.390625,229661.859375,387172.0,1.0,4
237941.9375,255256.125,240901.65625,249735.34375,224965.21875,254253.34375,228881.515625,229664.90625,387173.0,1.0,4
237916.8125,255229.21875,240887.984375,249724.703125,224944.125,254233.9375,228872.390625,229638.078125,387174.0,1.0,4
237839.734375,255196.671875,240876.359375,249717.640625,224942.875,254222.140625,228875.34375,229622.4375,387175.0,1.0,4
237819.796875,255209.640625,240884.84375,249725.5,224966.828125,254238.40625,228890.640625,229645.5,387176.0,1.0,4
237876.484375,255243.171875,240898.53125,249735.875,224979.96875,254252.53125,228891.796875,229667.21875,387177.0,1.0,4
237939.15625,255256.578125,240903.453125,249738.28125,224968.625,254251.828125,228881.421875,229665.96875,387178.0,1.0,4
237913.234375,255224.65625,240888.0625,249728.09375,224942.953125,254234.03125,228873.828125,229635.9375,387179.0,1.0,4
237838.75,255199.625,240877.15625,249720.765625,224944.84375,254224.640625,228876.953125,229625.828125,387180.0,1.0,4
237818.640625,255212.765625,240885.5625,249726.9375,224966.828125,254236.53125,228884.640625,229646.484375,387181.0,1.0,4
237873.359375,255238.875,240899.875,249738.203125,224979.53125,254254.59375,228888.671875,229666.15625,387182.0,1.0,4
237932.1875,255243.171875,240901.484375,249738.203125,224963.703125,254251.375,228875.53125,229657.921875,387183.0,1.0,4
237912.34375,255220.09375,240888.421875,249728.359375,224941.53125,254230.1875,228862.734375,229631.015625,387184.0,1.0,4
237840.453125,255197.5625,240876.984375,249719.875,224943.40625,254223.203125,228870.515625,229623.328125,387185.0,1.0,4
237816.21875,255204.71875,240881.359375,249723.625,224961.203125,254236.171875,228882.859375,229639.59375,387186.0,1.0,4
237872.90625,255232.078125,240897.546875,249734.265625,224973.359375,254250.921875,228884.828125,229664.8125,387187.0,1.0,4
237936.921875,255245.84375,240905.140625,249739.984375,224964.953125,254253.15625,228878.484375,229667.140625,387188.0,1.0,4
237920.390625,255224.203125,240893.96875,249731.5,224945.828125,254233.9375,228868.90625,229641.921875,387189.0,1.0,4
237844.75,255194.171875,240878.328125,249720.765625,224939.296875,254220.265625,228868.90625,229623.59375,387190.0,1.0,4
237819.984375,255202.75,240882.609375,249724.34375,224961.921875,254237.609375,228886.875,229641.46875,387191.0,1.0,4
237871.125,255225.90625,240892.890625,249730.515625,224970.40625,254246.90625,228885.890625,229658.28125,387192.0,1.0,4
237937.734375,255243.171875,240903.09375,249738.640625,224967.640625,254250.296875,228878.828125,229662.671875,387193.0,1.0,4
237920.734375,255223.765625,240893.609375,249730.6875,224949.84375,254232.6875,228869.171875,229639.0625,387194.0,1.0,4
237855.203125,255211.15625,240885.03125,249727.375,224957.171875,254225.796875,228878.5625,229633.15625,387195.0,1.0,4
237829.1875,255220.546875,240888.875,249730.78125,224978.90625,254235.015625,228890.71875,229650.0625,387196.0,1.0,4
237885.96875,255248.265625,240904.25,249742.046875,224992.484375,254251.375,228897.515625,229671.96875,387197.0,1.0,4
237954.359375,255268.828125,240911.21875,249748.390625,224986.765625,254255.484375,228891.796875,229677.15625,387198.0,1.0,4
237928.34375,255239.859375,240894.421875,249736.59375,224964.328125,254231.796875,228878.5625,229650.859375,387199.0,1.0,4
237852.796875,255212.046875,240881.984375,249726.125,224957.53125,254218.921875,228879.8125,229634.234375,387200.0,1.0,4
237828.46875,255218.84375,240888.25,249731.3125,224973.359375,254232.234375,228889.734375,229647.5625,387201.0,1.0,4
237881.484375,255242.625,240902.546875,249743.03125,224984.0,254246.09375,228890.1875,229666.875,387202.0,1.0,4
237949.703125,255261.84375,240909.796875,249748.03125,224976.21875,254248.875,228883.125,229668.5625,387203.0,1.0,4
237929.859375,255240.9375,240896.734375,249738.375,224957.0,254230.625,228872.390625,229642.375,387204.0,1.0,4
237850.5625,255204.984375,240882.34375,249726.3125,224948.0625,254217.21875,228874.1875,229622.25,387205.0,1.0,4
237825.609375,255211.515625,240889.5,249730.78125,224966.390625,254233.3125,228887.0625,229636.734375,387206.0,1.0,4
237874.078125,255231.625,240900.40625,249738.828125,224973.53125,254250.84375,228888.046875,229650.421875,387207.0,1.0,4
237938.71875,255247.453125,240902.640625,249740.875,224963.875,254249.234375,228874.71875,229652.921875,387208.0,1.0,4
237918.421875,255224.125,240888.515625,249729.53125,224941.078125,254228.390625,228861.578125,229627.890625,387209.0,1.0,4
237843.3125,255196.21875,240877.4375,249722.546875,224939.828125,254220.890625,228869.71875,229615.8125,387210.0,1.0,4
237821.140625,255205.609375,240884.21875,249725.953125,224961.28125,254237.15625,228882.59375,229632.71875,387211.0,1.0,4
237874.078125,255231.90625,240899.78125,249735.96875,224974.078125,254254.328125,228884.375,229654.34375,387212.0,1.0,4
237942.109375,255250.140625,240910.78125,249742.84375,224969.609375,254262.375,228880.796875,229658.546875,387213.0,1.0,4
237920.828125,255222.78125,240894.6875,249731.40625,224945.375,254240.46875,228867.84375,229630.03125,387214.0,1.0,4
237839.65625,255184.515625,240879.671875,249721.84375,224939.390625,254225.453125,228870.078125,229613.671875,387215.0,1.0,4
237810.140625,255188.8125,240882.171875,249724.34375,224956.109375,254236.171875,228880.625,229627.078125,387216.0,1.0,4
237867.8125,255224.125,240897.546875,249734.625,224970.046875,254252.625,228884.640625,229651.84375,387217.0,1.0,4
237935.046875,255244.953125,240903.890625,249737.03125,224964.0625,254256.828125,228876.6875,229657.125,387218.0,1.0,4
237919.578125,255225.8125,240893.796875,249727.828125,224945.828125,254237.78125,228868.109375,229633.609375,387219.0,1.0,4
237844.390625,255195.15625,240880.375,249720.234375,224941.703125,254224.375,228872.21875,229619.75,387220.0,1.0,4
237818.453125,255201.40625,240884.046875,249723.890625,224958.34375,254233.140625,228877.046875,229630.5625,387221.0,1.0,4
237874.703125,255232.703125,240899.875,249735.515625,224974.34375,254252.71875,228883.484375,229653.1875,387222.0,1.0,4
237939.515625,255247.640625,240904.34375,249736.859375,224963.703125,254255.046875,228875.53125,229655.15625,387223.0,1.0,4
237921.015625,255222.78125,240891.46875,249727.375,224942.25,254237.78125,228868.1875,229629.671875,387224.0,1.0,4
237847.34375,255194.96875,240882.96875,249722.546875,224944.921875,254228.578125,228871.953125,229619.390625,387225.0,1.0,4
237825.078125,255208.75,240891.375,249729.4375,224971.296875,254244.75,228886.875,229643.078125,387226.0,1.0,4
237875.6875,255236.453125,240901.390625,249736.328125,224983.640625,254259.859375,228891.703125,229661.6875,387227.0,1.0,4
237938.359375,255245.578125,240902.46875,249737.296875,224970.234375,254255.671875,228877.9375,229657.921875,387228.0,1.0,4
237919.21875,255216.078125,240886.1875,249725.765625,224945.375,254232.15625,228865.609375,229631.640625,387229.0,1.0,4
237846.09375,255190.953125,240875.1875,249719.25,224945.734375,254222.234375,228871.234375,229622.703125,387230.0,1.0,4
237815.859375,255195.0625,240882.34375,249723.890625,224965.3125,254234.921875,228881.34375,229638.171875,387231.0,1.0,4
237872.1875,255227.25,240896.46875,249734.625,224978.984375,254250.296875,228884.015625,229659.453125,387232.0,1.0,4
237939.34375,255244.859375,240900.3125,249737.296875,224970.40625,254252.53125,228874.1875,229658.734375,387233.0,1.0,4
237924.140625,255223.671875,240891.828125,249730.515625,224949.671875,254238.859375,228868.90625,229635.390625,387234.0,1.0,4
237845.109375,255188.359375,240877.96875,249720.5,224941.703125,254222.3125,228868.546875,229615.09375,387235.0,1.0,4
237814.171875,255194.4375,240880.375,249722.109375,224960.84375,254231.796875,228876.421875,229628.78125,387236.0,1.0,4
237861.734375,255219.03125,240889.859375,249727.203125,224970.046875,254246.09375,228877.5,229644.15625,387237.0,1.0,4
237926.1875,255235.125,240897.015625,249731.40625,224963.4375,254248.515625,228869.625,229647.90625,387238.0,1.0,4
237915.203125,255217.234375,240889.40625,249727.921875,224948.59375,254234.390625,228867.390625,229634.59375,387239.0,1.0,4
237843.9375,255190.59375,240877.515625,249721.125,224945.109375,254222.9375,228869.890625,229618.140625,387240.0,1.0,4
237819.265625,255200.25,240884.5,249727.46875,224965.9375,254236.703125,228883.484375,229635.21875,387241.0,1.0,4
237866.5625,255223.046875,240893.96875,249733.734375,224974.703125,254247.0,228880.359375,229651.3125,387242.0,1.0,4
237929.953125,255235.390625,240897.640625,249734.53125,224963.796875,254245.65625,228871.0625,229649.4375,387243.0,1.0,4
237916.09375,255216.96875,240886.453125,249727.5625,224946.0,254230.09375,228862.921875,229630.65625,387244.0,1.0,4
237839.015625,255183.265625,240873.9375,249720.234375,224941.34375,254219.28125,228865.421875,229618.40625,387245.0,1.0,4
237810.859375,255187.90625,240879.75,249723.984375,224961.203125,254234.203125,228878.125,229633.15625,387246.0,1.0,4
237863.78125,255217.6875,240893.4375,249733.1875,224975.0625,254251.1875,228885.09375,229651.484375,387247.0,1.0,4
237934.234375,255242.09375,240902.46875,249740.171875,224973.71875,254260.765625,228886.875,229657.75,387248.0,1.0,4
237920.5625,255219.46875,240888.25,249728.71875,224952.609375,254240.734375,228874.0,229634.328125,387249.0,1.0,4
237843.140625,255183.4375,240873.765625,249717.8125,224944.65625,254223.03125,228866.5,229614.828125,387250.0,1.0,4
237813.71875,255187.640625,240878.6875,249721.84375,224964.421875,254235.546875,228879.109375,229629.859375,387251.0,1.0,4
237864.140625,255215.1875,240890.75,249731.40625,224974.96875,254247.53125,228880.625,229647.90625,387252.0,1.0,4
237931.109375,255230.640625,240898.53125,249737.75,224967.640625,254251.734375,228873.375,229651.046875,387253.0,1.0,4
237919.21875,255212.953125,240887.4375,249729.609375,224949.671875,254234.03125,228865.25,229633.609375,387254.0,1.0,4
237843.84375,255183.796875,240871.4375,249717.8125,224943.578125,254219.28125,228865.6875,229615.734375,387255.0,1.0,4
237808.890625,255180.3125,240874.125,249719.609375,224957.09375,254231.078125,228876.515625,229624.21875,387256.0,1.0,4
237859.046875,255206.78125,240888.15625,249730.328125,224969.6875,254246.71875,228882.671875,229646.296875,387257.0,1.0,4
237933.265625,255236.640625,240898.703125,249738.015625,224968.796875,254255.3125,228881.6875,229657.03125,387258.0,1.0,4
237917.875,255216.078125,240883.328125,249725.859375,224946.265625,254232.515625,228869.265625,229633.96875,387259.0,1.0,4
237844.65625,255189.078125,240872.78125,249720.40625,224944.484375,254221.6875,228873.015625,229620.546875,387260.0,1.0,4
237814.171875,255192.5625,240880.828125,249727.203125,224965.3125,254238.234375,228889.828125,229632.09375,387261.0,1.0,4
237860.84375,255215.0,240891.734375,249733.546875,224975.59375,254250.5625,228889.203125,229649.796875,387262.0,1.0,4
237928.703125,255234.5,240896.921875,249735.25,224967.640625,254253.078125,228877.3125,229653.546875,387263.0,1.0,4
237915.5625,255211.15625,240882.171875,249724.25,224944.296875,254235.375,228865.609375,229629.40625,387264.0,1.0,4
237838.125,255177.625,240869.734375,249715.75,224938.484375,254221.25,228867.125,229612.78125,387265.0,1.0,4
237811.3125,255187.015625,240877.875,249722.1875,224963.34375,254236.796875,228884.640625,229633.078125,387266.0,1.0,4
237865.9375,255218.21875,240895.9375,249736.046875,224981.859375,254256.828125,228892.515625,229656.9375,387267.0,1.0,4
237937.640625,255241.5625,240902.46875,249741.0625,224976.21875,254259.421875,228883.03125,229660.515625,387268.0,1.0,4
237924.3125,255219.828125,240890.03125,249732.5625,224956.1875,254243.859375,228875.34375,229639.421875,387269.0,1.0,4
237848.59375,255189.515625,240876.890625,249721.921875,224952.171875,254230.90625,228874.546875,229622.875,387270.0,1.0,4
237820.609375,255202.3125,240883.0625,249726.75,224975.140625,254244.21875,228886.96875,229640.671875,387271.0,1.0,4
237870.859375,255231.28125,240895.671875,249736.59375,224986.6875,254258.796875,228889.03125,229659.984375,387272.0,1.0,4
237937.015625,255243.34375,240902.015625,249737.75,224975.328125,254260.765625,228880.265625,229658.109375,387273.0,1.0,4
237922.796875,255221.078125,240887.984375,249726.484375,224954.046875,254238.765625,228869.265625,229634.328125,387274.0,1.0,4
237842.15625,255185.9375,240872.515625,249716.296875,224945.1875,254220.078125,228868.375,229616.171875,387275.0,1.0,4
237810.953125,255190.6875,240879.578125,249723.09375,224966.109375,254232.6875,228884.109375,229632.171875,387276.0,1.0,4
237860.484375,255216.96875,240892.1875,249730.328125,224976.046875,254247.171875,228885.09375,229648.8125,387277.0,1.0,4
237929.140625,255232.703125,240897.546875,249734.4375,224966.65625,254252.359375,228876.421875,229648.984375,387278.0,1.0,4
237920.65625,255217.5,240888.609375,249728.625,224951.1875,254240.90625,228871.0625,229633.875,387279.0,1.0,4
237848.140625,255188.53125,240877.25,249721.390625,224947.96875,254229.734375,228876.234375,229622.078125,387280.0,1.0,4
237815.328125,255193.0,240878.859375,249722.46875,224962.359375,254236.796875,228882.765625,229632.71875,387281.0,1.0,4
237867.28125,255223.3125,240893.34375,249734.796875,224979.53125,254258.25,228890.90625,229658.546875,387282.0,1.0,4
237933.796875,255239.671875,240897.375,249736.765625,224970.40625,254258.890625,228881.421875,229658.90625,387283.0,1.0,4
237920.65625,255218.125,240885.390625,249728.71875,224949.75,254239.390625,228870.25,229637.28125,387284.0,1.0,4
237844.390625,255185.765625,240874.296875,249720.234375,224946.453125,254226.515625,228872.390625,229620.640625,387285.0,1.0,4
237809.703125,255187.90625,240877.96875,249721.65625,224962.890625,254235.015625,228881.0625,229631.734375,387286.0,1.0,4
237857.078125,255212.765625,240890.578125,249731.84375,224974.25,254250.390625,228884.734375,229651.046875,387287.0,1.0,4
237923.0625,255225.109375,240898.0,249737.21875,224966.390625,254254.140625,228875.34375,229651.578125,387288.0,1.0,4
237915.90625,255208.390625,240889.953125,249733.546875,224950.828125,254242.796875,228873.46875,229634.59375,387289.0,1.0,4
237841.890625,255179.5,240878.140625,249726.75,224945.734375,254226.421875,228869.625,229620.46875,387290.0,1.0,4
237809.25,255185.140625,240876.453125,249726.84375,224960.390625,254232.421875,228875.34375,229633.609375,387291.0,1.0,4
237856.640625,255208.296875,240889.046875,249735.6875,224973.890625,254247.0,228881.6875,229653.359375,387292.0,1.0,4
237925.125,255226.796875,240897.09375,249738.203125,224965.9375,254249.9375,228874.09375,229652.65625,387293.0,1.0,4
237916.8125,255207.765625,240886.8125,249729.796875,224945.828125,254235.1875,228863.546875,229630.75,387294.0,1.0,4
237844.203125,255179.328125,240876.359375,249725.328125,224945.828125,254227.5,228872.578125,229622.078125,387295.0,1.0,4
237812.109375,255185.9375,240879.3125,249727.296875,224965.046875,254235.1875,228878.03125,229635.390625,387296.0,1.0,4
237855.46875,255210.265625,240888.703125,249733.453125,224976.9375,254248.421875,228877.5,229651.046875,387297.0,1.0,4
237926.109375,255228.140625,240895.3125,249736.765625,224969.875,254252.53125,228869.625,229654.34375,387298.0,1.0,4
237915.375,255205.4375,240884.046875,249728.625,224947.34375,254237.96875,228863.640625,229630.296875,387299.0,1.0,4
237838.125,255172.0,240867.6875,249718.078125,224939.203125,254221.0625,228862.296875,229613.84375,387300.0,1.0,4
237799.78125,255170.65625,240865.625,249715.671875,224952.53125,254226.34375,228867.75,229624.671875,387301.0,1.0,4
237849.484375,255200.15625,240880.828125,249726.3125,224967.375,254244.3125,228873.921875,229647.90625,387302.0,1.0,4
237919.9375,255220.8125,240887.53125,249731.046875,224958.25,254247.890625,228867.03125,229649.703125,387303.0,1.0,4
237910.8125,255203.5625,240877.4375,249722.109375,224939.828125,254232.6875,228859.4375,229628.515625,387304.0,1.0,4
237839.375,255173.421875,240866.25,249713.609375,224935.09375,254220.703125,228862.828125,229609.203125,387305.0,1.0,4
237805.046875,255172.796875,240869.390625,249716.734375,224949.75,254230.265625,228873.65625,229617.609375,387306.0,1.0,4
237849.65625,255196.859375,240881.8125,249725.59375,224961.734375,254246.8125,228877.765625,229639.234375,387307.0,1.0,4
237920.03125,255217.328125,240888.703125,249729.53125,224957.625,254252.359375,228872.21875,229645.953125,387308.0,1.0,4
237915.734375,255205.171875,240880.375,249725.859375,224941.171875,254236.625,228865.15625,229626.09375,387309.0,1.0,4
237847.515625,255184.609375,240873.578125,249724.25,224942.6875,254229.296875,228874.625,229615.546875,387310.0,1.0,4
237809.515625,255183.984375,240873.859375,249723.890625,224959.953125,254237.78125,228883.296875,229622.515625,387311.0,1.0,4
237856.546875,255210.078125,240884.046875,249729.796875,224973.453125,254253.078125,228886.609375,229641.46875,387312.0,1.0,4
237924.765625,255226.796875,240888.34375,249731.578125,224960.9375,254253.703125,228874.09375,229641.65625,387313.0,1.0,4
237919.484375,255209.1875,240882.265625,249726.9375,224944.296875,254241.1875,228866.859375,229624.671875,387314.0,1.0,4
237848.40625,255181.03125,240873.234375,249722.546875,224941.53125,254232.6875,228875.796875,229611.96875,387315.0,1.0,4
237812.734375,255183.078125,240875.46875,249726.75,224953.515625,254239.578125,228880.625,229619.75,387316.0,1.0,4
237857.984375,255209.28125,240887.09375,249736.765625,224966.03125,254253.25,228879.375,229637.28125,387317.0,1.0,4
237926.015625,255227.25,240895.578125,249742.21875,224961.28125,254259.515625,228875.265625,229643.53125,387318.0,1.0,4
237916.625,255206.234375,240884.40625,249731.9375,224941.171875,254240.109375,228864.796875,229622.515625,387319.0,1.0,4
237846.984375,255182.015625,240870.546875,249720.765625,224936.875,254226.15625,228866.578125,229605.984375,387320.0,1.0,4
237808.171875,255181.828125,240871.171875,249721.5625,224951.546875,254237.0625,228879.546875,229619.21875,387321.0,1.0,4
237852.171875,255205.53125,240884.21875,249730.421875,224964.78125,254252.53125,228884.640625,229643.0,387322.0,1.0,4
237924.578125,255226.984375,240891.640625,249734.359375,224957.171875,254255.671875,228875.703125,229647.828125,387323.0,1.0,4
237920.828125,255214.015625,240883.0625,249728.984375,224938.9375,254242.4375,228869.0,229627.4375,387324.0,1.0,4
237843.578125,255178.796875,240868.125,249718.171875,224930.625,254226.78125,228866.765625,229603.296875,387325.0,1.0,4
237809.421875,255183.4375,240872.609375,249721.5625,224950.65625,254236.0,228879.734375,229617.609375,387326.0,1.0,4
237855.5625,255212.59375,240886.640625,249731.3125,224967.453125,254252.53125,228888.3125,229641.203125,387327.0,1.0,4
237923.25,255230.203125,240891.375,249734.53125,224959.671875,254255.046875,228877.671875,229644.6875,387328.0,1.0,4
237916.53125,255211.0625,240881.8125,249726.578125,224940.90625,254241.09375,228864.4375,229622.515625,387329.0,1.0,4
237841.96875,255174.5,240868.046875,249717.09375,224933.75,254227.328125,228865.328125,229602.3125,387330.0,1.0,4
237808.984375,255179.5,240872.6875,249721.84375,224953.515625,254236.890625,228879.546875,229614.5625,387331.0,1.0,4
237852.875,255207.578125,240884.671875,249731.5,224966.828125,254253.703125,228886.609375,229634.328125,387332.0,1.0,4
237922.703125,255226.625,240893.875,249738.640625,224962.546875,254258.078125,228879.1875,229643.890625,387333.0,1.0,4
237920.296875,255212.859375,240884.140625,249730.953125,224945.828125,254242.078125,228869.265625,229629.671875,387334.0,1.0,4
237848.59375,255185.9375,240871.4375,249720.234375,224940.90625,254226.875,228869.171875,229612.15625,387335.0,1.0,4
237813.28125,255191.9375,240875.734375,249725.59375,224959.328125,254239.125,228884.109375,229626.90625,387336.0,1.0,4
237857.359375,255215.453125,240888.15625,249735.421875,224968.984375,254252.984375,228883.578125,229643.078125,387337.0,1.0,4
237919.578125,255222.78125,240891.28125,249735.875,224956.734375,254252.53125,228869.453125,229639.0625,387338.0,1.0,4
237920.5625,255211.78125,240882.4375,249729.25,224940.09375,254238.3125,228862.734375,229624.046875,387339.0,1.0,4
237845.8125,255179.953125,240869.46875,249722.546875,224934.015625,254224.375,228866.5,229605.53125,387340.0,1.0,4
237807.8125,255183.984375,240871.796875,249725.59375,224952.53125,254233.046875,228878.390625,229617.96875,387341.0,1.0,4
237857.703125,255214.90625,240889.953125,249738.5625,224972.015625,254255.21875,228887.328125,229644.609375,387342.0,1.0,4
237928.4375,255232.34375,240897.375,249742.125,224966.203125,254261.390625,228878.5625,229650.6875,387343.0,1.0,4
237923.78125,255211.96875,240887.625,249733.109375,224946.71875,254246.8125,228868.28125,229630.75,387344.0,1.0,4
237848.671875,255180.765625,240873.859375,249723.171875,224937.953125,254233.40625,228872.390625,229609.203125,387345.0,1.0,4
237811.75,255183.984375,240877.25,249727.015625,224954.3125,254238.859375,228882.140625,229619.921875,387346.0,1.0,4
237856.71875,255208.65625,240890.75,249737.75,224968.625,254250.5625,228883.21875,229642.453125,387347.0,1.0,4
237934.0625,255235.125,240902.546875,249746.6875,224968.0,254259.953125,228881.25,229652.03125,387348.0,1.0,4
237934.15625,255220.640625,240894.0625,249739.890625,224949.046875,254246.09375,228871.6875,229631.015625,387349.0,1.0,4
237859.765625,255187.28125,240877.515625,249728.359375,224936.96875,254226.421875,228868.109375,229605.265625,387350.0,1.0,4
237819.984375,255193.1875,240880.921875,249732.46875,224957.171875,254237.0625,228884.203125,229622.078125,387351.0,1.0,4
237859.140625,255216.96875,240891.375,249740.4375,224967.546875,254251.28125,228883.578125,229637.0,387352.0,1.0,4
237931.65625,255236.640625,240896.65625,249743.921875,224958.609375,254255.21875,228874.8125,229642.8125,387353.0,1.0,4
237925.484375,255216.4375,240884.21875,249733.015625,224934.90625,254235.734375,228864.53125,229623.421875,387354.0,1.0,4
237849.3125,255180.578125,240873.40625,249724.34375,224929.90625,254222.40625,228866.046875,229606.421875,387355.0,1.0,4
237813.71875,255185.046875,240877.875,249728.28125,224952.53125,254233.578125,228877.765625,229624.046875,387356.0,1.0,4
237871.125,255231.0,240898.078125,249746.0625,224978.1875,254261.03125,228894.65625,229658.640625,387357.0,1.0,4
237948.71875,255256.390625,240910.953125,249757.59375,224978.90625,254277.125,228899.578125,229667.671875,387358.0,1.0,4
