FZ,C3,CZ,C4,PZ,PO7,OZ,PO8,Counter,Validation,Label
232406.5625,278169.96875,273740.125,266477.40625,250397.578125,281034.03125,253191.8125,252829.0,311236.0,1.0,4
232785.03125,278626.75,274175.28125,266543.03125,251158.96875,281394.625,253350.6875,253037.234375,311237.0,1.0,4
232344.25,277687.0,272912.21875,266120.0625,250199.71875,281022.40625,252961.671875,252493.28125,311238.0,1.0,4
231688.53125,276642.71875,271698.25,265792.03125,248848.328125,280436.0,252568.5625,251946.109375,311239.0,1.0,4
231737.171875,276957.625,272232.28125,266020.71875,248987.265625,280457.0,252721.625,252155.9375,311240.0,1.0,4
232407.453125,278167.5625,273744.78125,266480.09375,250401.234375,281035.125,253194.140625,252826.9375,311241.0,1.0,4
232779.84375,278623.8125,274178.59375,266544.21875,251161.203125,281383.96875,253346.84375,253032.3125,311242.0,1.0,4
232347.734375,277694.34375,272925.375,266127.5625,250212.140625,281029.5625,252969.546875,252498.8125,311243.0,1.0,4
231691.125,276647.90625,271702.375,265793.8125,248854.859375,280438.0625,252562.46875,251944.765625,311244.0,1.0,4
231734.671875,276952.34375,272220.65625,266013.84375,248981.09375,280440.09375,252700.875,252141.453125,311245.0,1.0,4
232404.859375,278161.9375,273734.59375,266474.90625,250393.90625,281028.6875,253185.90625,252810.671875,311246.0,1.0,4
232785.46875,278627.125,274179.84375,266546.25,251161.734375,281385.0625,253340.3125,253031.0625,311247.0,1.0,4
232352.109375,277697.5625,272925.90625,266125.4375,250210.265625,281018.3125,252954.609375,252498.8125,311248.0,1.0,4
231697.65625,276654.15625,271704.0625,265793.28125,248853.0625,280431.78125,252551.125,251942.078125,311249.0,1.0,4
231740.84375,276959.0625,272219.75,266014.90625,248978.859375,280441.4375,252692.203125,252143.6875,311250.0,1.0,4
232409.421875,278167.90625,273730.125,266475.53125,250389.4375,281022.5,253179.390625,252814.15625,311251.0,1.0,4
232789.046875,278632.9375,274176.0,266544.21875,251161.109375,281383.34375,253343.359375,253033.296875,311252.0,1.0,4
232352.203125,277701.9375,272918.9375,266117.1875,250210.0,281022.59375,252953.28125,252489.15625,311253.0,1.0,4
231698.640625,276654.875,271692.71875,265785.59375,248853.609375,280436.96875,252556.125,251942.609375,311254.0,1.0,4
231738.96875,276951.0,272203.5,266009.1875,248973.40625,280441.0,252699.359375,252146.90625,311255.0,1.0,4
232400.125,278155.03125,273714.65625,266466.4375,250380.3125,281020.375,253177.859375,252802.984375,311256.0,1.0,4
232783.5,278629.15625,274171.0625,266536.78125,251157.796875,281388.4375,253348.453125,253024.359375,311257.0,1.0,4
232352.5625,277704.15625,272923.5625,266116.3125,250218.671875,281037.71875,252976.34375,252492.109375,311258.0,1.0,4
231701.328125,276657.03125,271697.53125,265782.90625,248864.78125,280446.625,252569.1875,251945.5625,311259.0,1.0,4
231741.46875,276946.25,272201.96875,266003.125,248980.03125,280436.4375,252698.203125,252151.5625,311260.0,1.0,4
232402.1875,278146.5625,273712.3125,266463.21875,250385.328125,281017.21875,253175.546875,252813.703125,311261.0,1.0,4
232787.703125,278622.09375,274174.1875,266544.5625,251170.234375,281392.21875,253351.671875,253050.09375,311262.0,1.0,4
232358.546875,277700.21875,272926.875,266124.625,250231.71875,281036.53125,252967.578125,252499.4375,311263.0,1.0,4
231707.5,276650.78125,271698.4375,265786.46875,248872.03125,280443.15625,252559.171875,251930.8125,311264.0,1.0,4
231739.234375,276935.4375,272196.96875,266004.09375,248976.8125,280446.09375,252698.734375,252131.53125,311265.0,1.0,4
232406.03125,278144.125,273713.40625,266470.4375,250387.375,281032.59375,253185.640625,252800.75,311266.0,1.0,4
232786.453125,278619.96875,274176.6875,266546.1875,251174.34375,281385.5,253341.03125,253033.46875,311267.0,1.0,4
232346.484375,277694.6875,272928.03125,266123.8125,250235.21875,281027.34375,252960.421875,252507.578125,311268.0,1.0,4
231698.015625,276652.375,271693.78125,265787.8125,248871.9375,280438.59375,252556.84375,251941.90625,311269.0,1.0,4
231730.5625,276935.8125,272187.40625,266002.125,248967.6875,280431.625,252685.234375,252132.25,311270.0,1.0,4
232389.40625,278140.28125,273699.90625,266460.78125,250371.640625,281017.21875,253163.921875,252790.734375,311271.0,1.0,4
232775.453125,278623.71875,274167.0625,266535.90625,251158.609375,281378.0625,253320.015625,253019.171875,311272.0,1.0,4
232355.25,277710.59375,272929.375,266121.21875,250227.078125,281021.0625,252942.453125,252493.1875,311273.0,1.0,4
231698.90625,276657.21875,271696.71875,265788.28125,248866.75,280435.46875,252543.96875,251938.421875,311274.0,1.0,4
231728.59375,276936.15625,272186.25,266003.46875,248962.0625,280432.40625,252677.90625,252132.515625,311275.0,1.0,4
232396.546875,278146.8125,273698.09375,266465.09375,250367.53125,281014.0,253164.28125,252800.390625,311276.0,1.0,4
232781.890625,278632.46875,274171.0625,266543.3125,251161.46875,281385.15625,253339.953125,253032.84375,311277.0,1.0,4
232356.859375,277714.8125,272934.03125,266123.8125,250233.953125,281031.53125,252959.078125,252504.359375,311278.0,1.0,4
231705.96875,276659.71875,271692.71875,265785.84375,248870.140625,280441.4375,252553.171875,251943.6875,311279.0,1.0,4
231734.765625,276937.15625,272176.59375,265998.28125,248961.703125,280432.25,252687.5625,252138.953125,311280.0,1.0,4
232386.8125,278133.59375,273684.96875,266454.0,250360.828125,281006.59375,253162.390625,252793.140625,311281.0,1.0,4
232780.734375,278626.21875,274166.78125,266537.5,251162.0,281382.46875,253339.6875,253031.6875,311282.0,1.0,4
232364.984375,277719.46875,272936.53125,266127.75,250242.625,281036.625,252970.703125,252520.453125,311283.0,1.0,4
231698.8125,276651.65625,271689.125,265784.875,248872.296875,280440.75,252562.203125,251942.96875,311284.0,1.0,4
231723.234375,276921.84375,272168.625,265997.125,248963.84375,280437.0625,252696.59375,252122.140625,311285.0,1.0,4
232388.6875,278131.34375,273684.15625,266460.6875,250369.40625,281012.40625,253172.765625,252795.46875,311286.0,1.0,4
232781.1875,278625.78125,274168.75,266542.875,251173.53125,281373.78125,253334.953125,253027.65625,311287.0,1.0,4
232357.484375,277715.25,272937.78125,266126.9375,250255.421875,281025.46875,252954.796875,252505.609375,311288.0,1.0,4
231696.9375,276650.5,271688.5,265783.71875,248884.359375,280432.40625,252542.625,251936.984375,311289.0,1.0,4
231719.03125,276915.6875,272163.53125,265996.3125,248966.34375,280423.5625,252676.375,252127.15625,311290.0,1.0,4
232371.703125,278115.34375,273674.25,266457.46875,250365.296875,280998.375,253148.0,252785.015625,311291.0,1.0,4
232767.59375,278616.375,274165.15625,266542.875,251172.90625,281376.125,253324.046875,253025.96875,311292.0,1.0,4
232349.609375,277710.6875,272939.3125,266128.09375,250257.390625,281032.34375,252955.0625,252508.03125,311293.0,1.0,4
231694.625,276653.8125,271692.96875,265787.09375,248888.296875,280444.65625,252550.40625,251950.578125,311294.0,1.0,4
231718.125,276918.28125,272161.28125,265994.34375,248961.25,280425.28125,252673.875,252130.46875,311295.0,1.0,4
232374.375,278119.5625,273674.78125,266456.21875,250359.046875,281003.09375,253158.375,252794.3125,311296.0,1.0,4
232773.671875,278628.28125,274171.96875,266540.375,251175.234375,281374.78125,253329.5,253030.078125,311297.0,1.0,4
232361.59375,277728.40625,272948.34375,266125.25,250266.421875,281033.40625,252960.0625,252507.84375,311298.0,1.0,4
231698.734375,276660.59375,271695.40625,265780.84375,248894.375,280441.0,252557.375,251943.421875,311299.0,1.0,4
231715.53125,276917.21875,272156.90625,265985.875,248963.671875,280415.0,252673.25,252119.734375,311300.0,1.0,4
232381.890625,278125.0,273671.09375,266448.375,250361.28125,280992.8125,253163.5625,252785.640625,311301.0,1.0,4
232771.25,278624.53125,274170.8125,266532.5,251173.53125,281370.75,253343.09375,253028.828125,311302.0,1.0,4
232352.03125,277720.34375,272949.59375,266116.5,250264.8125,281023.40625,252958.015625,252501.859375,311303.0,1.0,4
231699.0,276659.1875,271696.90625,265776.46875,248894.46875,280434.46875,252550.046875,251940.65625,311304.0,1.0,4
231711.96875,276912.375,272153.6875,265983.53125,248956.328125,280418.46875,252676.109375,252114.453125,311305.0,1.0,4
232367.9375,278110.78125,273665.28125,266449.96875,250351.703125,280994.15625,253152.5625,252775.984375,311306.0,1.0,4
232775.90625,278626.75,274173.46875,266544.65625,251178.8125,281371.90625,253327.53125,253022.109375,311307.0,1.0,4
232370.09375,277734.65625,272959.875,266136.6875,250280.90625,281032.96875,252955.421875,252509.09375,311308.0,1.0,4
231700.34375,276657.75,271699.9375,265794.8125,248901.265625,280438.78125,252547.71875,251953.171875,311309.0,1.0,4
231714.28125,276912.375,272152.71875,266000.4375,248959.640625,280419.1875,252665.203125,252126.96875,311310.0,1.0,4
232372.6875,278117.40625,273660.46875,266457.65625,250351.078125,280989.6875,253141.390625,252782.5,311311.0,1.0,4
232776.53125,278635.6875,274176.4375,266549.84375,251180.6875,281379.5,253333.515625,253036.59375,311312.0,1.0,4
232365.53125,277741.625,272963.4375,266136.34375,250284.203125,281040.125,252963.109375,252521.171875,311313.0,1.0,4
231708.03125,276674.65625,271702.46875,265793.09375,248907.78125,280447.0,252555.40625,251959.0625,311314.0,1.0,4
231718.21875,276921.75,272146.8125,265995.25,248960.09375,280425.0,252680.3125,252132.875,311315.0,1.0,4
232374.5625,278124.46875,273658.9375,266459.625,250355.375,280999.0,253172.234375,252808.609375,311316.0,1.0,4
232778.140625,278645.71875,274174.8125,266546.875,251183.734375,281382.90625,253352.75,253043.03125,311317.0,1.0,4
232367.578125,277757.4375,272963.8125,266132.5625,250287.515625,281047.09375,252984.921875,252521.609375,311318.0,1.0,4
231709.1875,276689.03125,271699.59375,265788.53125,248908.140625,280456.5625,252581.78125,251960.3125,311319.0,1.0,4
231711.96875,276924.1875,272138.75,265988.8125,248954.453125,280430.625,252697.5625,252127.15625,311320.0,1.0,4
232366.59375,278126.875,273648.75,266451.65625,250341.609375,281005.59375,253175.09375,252793.234375,311321.0,1.0,4
232780.828125,278656.96875,274176.625,266547.4375,251176.21875,281390.9375,253361.78125,253045.71875,311322.0,1.0,4
232372.859375,277767.1875,272967.90625,266134.90625,250284.828125,281055.59375,252993.421875,252530.28125,311323.0,1.0,4
231710.171875,276693.5,271698.6875,265785.84375,248904.125,280462.0,252577.9375,251964.875,311324.0,1.0,4
231716.796875,276931.40625,272135.625,265985.59375,248948.28125,280435.8125,252688.984375,252134.484375,311325.0,1.0,4
232372.5,278131.8125,273650.71875,266450.6875,250340.53125,281013.21875,253171.34375,252802.359375,311326.0,1.0,4
232784.125,278659.03125,274182.15625,266547.15625,251180.6875,281396.0625,253353.453125,253053.40625,311327.0,1.0,4
232376.53125,277773.625,272977.21875,266132.65625,250293.765625,281061.125,252976.25,252534.765625,311328.0,1.0,4
231709.90625,276696.46875,271704.6875,265781.84375,248911.0,280467.8125,252559.875,251963.8125,311329.0,1.0,4
231715.890625,276928.28125,272137.59375,265984.78125,248950.171875,280441.53125,252678.96875,252136.0,311330.0,1.0,4
232364.90625,278122.15625,273647.59375,266445.875,250334.09375,281004.0,253152.734375,252798.515625,311331.0,1.0,4
232771.609375,278653.21875,274182.4375,266541.875,251174.25,281396.21875,253342.546875,253051.078125,311332.0,1.0,4
232372.234375,277771.3125,272986.59375,266135.875,250299.671875,281069.625,252975.984375,252536.640625,311333.0,1.0,4
231705.796875,276689.9375,271712.375,265786.9375,248916.09375,280474.25,252567.578125,251968.984375,311334.0,1.0,4
231705.703125,276918.53125,272139.28125,265984.6875,248947.03125,280445.375,252686.65625,252142.265625,311335.0,1.0,4
232358.375,278118.84375,273654.03125,266451.65625,250332.046875,281012.125,253165.171875,252805.390625,311336.0,1.0,4
232771.34375,278656.0,274193.875,266549.84375,251178.90625,281399.8125,253353.453125,253053.5,311337.0,1.0,4
232374.921875,277781.5,273001.625,266143.40625,250304.6875,281075.34375,252993.6875,252540.84375,311338.0,1.0,4
231708.296875,276698.78125,271723.03125,265792.65625,248916.734375,280476.0625,252577.9375,251971.140625,311339.0,1.0,4
231699.0,276916.59375,272137.40625,265983.96875,248932.015625,280433.40625,252682.546875,252127.0625,311340.0,1.0,4
232350.15625,278116.15625,273651.875,266451.03125,250317.015625,281008.90625,253177.6875,252792.78125,311341.0,1.0,4
232768.65625,278661.09375,274200.5625,266551.375,251171.03125,281397.46875,253359.625,253052.6875,311342.0,1.0,4
232369.28125,277784.90625,273009.3125,266142.6875,250299.234375,281066.9375,252981.703125,252539.5,311343.0,1.0,4
231706.78125,276705.3125,271732.0625,265795.6875,248914.046875,280476.78125,252575.96875,251971.046875,311344.0,1.0,4
231701.234375,276920.5,272143.0625,265986.75,248927.015625,280425.1875,252673.703125,252126.609375,311345.0,1.0,4
232352.03125,278115.53125,273653.59375,266450.15625,250306.640625,280987.90625,253145.046875,252788.234375,311346.0,1.0,4
232770.984375,278660.375,274209.96875,266557.625,251170.3125,281393.09375,253348.453125,253053.59375,311347.0,1.0,4
232377.859375,277790.53125,273022.375,266154.46875,250305.390625,281070.34375,252984.921875,252545.21875,311348.0,1.0,4
231718.578125,276708.09375,271737.3125,265800.78125,248917.359375,280467.1875,252567.84375,251971.40625,311349.0,1.0,4
231715.53125,276924.34375,272144.9375,265994.53125,248934.34375,280431.875,252680.3125,252131.09375,311350.0,1.0,4
232364.359375,278116.875,273655.90625,266456.6875,250314.875,280992.375,253153.984375,252793.328125,311351.0,1.0,4
232778.765625,278663.59375,274216.125,266565.5,251180.15625,281395.25,253352.921875,253059.40625,311352.0,1.0,4
232390.46875,277805.71875,273036.0625,266160.65625,250322.296875,281077.40625,252998.609375,252552.1875,311353.0,1.0,4
231726.625,276721.21875,271750.09375,265807.75,248935.5,280479.90625,252583.84375,251981.0625,311354.0,1.0,4
231707.21875,276913.625,272141.875,265992.3125,248938.546875,280426.4375,252677.359375,252127.15625,311355.0,1.0,4
232344.25,278096.75,273647.59375,266452.75,250313.890625,280990.84375,253153.90625,252779.015625,311356.0,1.0,4
232772.328125,278659.46875,274214.875,266565.03125,251187.390625,281395.4375,253360.4375,253058.234375,311357.0,1.0,4
232390.46875,277803.6875,273040.4375,266167.625,250337.40625,281078.9375,253006.109375,252575.078125,311358.0,1.0,4
231725.375,276714.25,271752.34375,265811.78125,248945.15625,280480.78125,252583.9375,251996.265625,311359.0,1.0,4
231704.984375,276909.59375,272138.03125,265991.21875,248938.71875,280432.78125,252679.515625,252123.75,311360.0,1.0,4
232346.9375,278096.75,273641.34375,266448.625,250308.078125,280990.6875,253149.171875,252774.1875,311361.0,1.0,4
232778.046875,278661.96875,274215.15625,266559.9375,251181.234375,281394.0,253349.53125,253047.78125,311362.0,1.0,4
232397.0,277809.03125,273045.625,266161.28125,250333.109375,281080.625,252996.8125,252554.078125,311363.0,1.0,4
231729.125,276717.84375,271753.3125,265804.46875,248939.96875,280482.21875,252580.171875,251977.9375,311364.0,1.0,4
231714.640625,276917.375,272142.0625,265989.34375,248935.5,280434.3125,252688.09375,252129.828125,311365.0,1.0,4
232354.890625,278103.375,273644.1875,266447.8125,250304.0625,280990.15625,253153.015625,252783.125,311366.0,1.0,4
232784.84375,278671.5625,274224.09375,266565.5,251188.296875,281407.3125,253369.640625,253064.40625,311367.0,1.0,4
232411.578125,277829.5,273063.0625,266170.3125,250350.375,281107.4375,253024.078125,252571.953125,311368.0,1.0,4
231738.421875,276726.78125,271754.5,265802.84375,248942.390625,280480.0625,252577.859375,251977.390625,311369.0,1.0,4
231713.921875,276908.96875,272131.25,265985.15625,248930.859375,280423.84375,252672.09375,252123.84375,311370.0,1.0,4
232353.640625,278094.53125,273637.3125,266447.375,250300.296875,280986.5625,253149.703125,252782.859375,311371.0,1.0,4
232782.796875,278659.125,274216.84375,266557.625,251181.578125,281387.28125,253346.671875,253046.796875,311372.0,1.0,4
232404.515625,277807.4375,273050.34375,266157.34375,250341.875,281076.15625,252990.015625,252550.9375,311373.0,1.0,4
231731.0,276706.28125,271752.625,265800.875,248945.0625,280477.9375,252569.8125,251972.84375,311374.0,1.0,4
231708.125,276893.34375,272129.28125,265984.6875,248929.328125,280428.65625,252674.0625,252119.546875,311375.0,1.0,4
232353.1875,278086.125,273635.25,266447.75,250298.0625,280990.6875,253153.09375,252782.59375,311376.0,1.0,4
232778.953125,278654.84375,274221.9375,266566.90625,251186.6875,281405.0,253365.625,253065.921875,311377.0,1.0,4
232400.03125,277806.96875,273058.5,266169.15625,250349.5625,281084.90625,253000.921875,252571.0625,311378.0,1.0,4
231729.84375,276707.53125,271752.0625,265803.46875,248945.6875,280471.75,252568.5625,251981.78125,311379.0,1.0,4
231703.828125,276889.3125,272122.75,265986.75,248926.296875,280418.21875,252669.765625,252122.765625,311380.0,1.0,4
232342.1875,278077.625,273628.5625,266453.46875,250295.921875,280980.75,253153.015625,252792.25,311381.0,1.0,4
232775.546875,278654.65625,274219.53125,266568.625,251185.875,281389.78125,253359.0,253060.03125,311382.0,1.0,4
232403.171875,277815.21875,273060.53125,266169.5,250351.4375,281082.5,253007.71875,252567.390625,311383.0,1.0,4
231730.65625,276714.34375,271752.15625,265807.75,248949.265625,280480.25,252579.1875,251981.234375,311384.0,1.0,4
231695.875,276885.90625,272110.875,265985.40625,248918.6875,280417.03125,252668.515625,252120.171875,311385.0,1.0,4
232336.46875,278075.03125,273617.5625,266449.625,250282.328125,280972.4375,253149.515625,252781.515625,311386.0,1.0,4
232775.90625,278660.65625,274217.65625,266570.03125,251179.625,281388.1875,253362.578125,253058.328125,311387.0,1.0,4
232397.0,277818.34375,273060.1875,266171.28125,250351.703125,281085.1875,253009.328125,252560.15625,311388.0,1.0,4
231728.5,276721.75,271753.78125,265807.75,248951.328125,280488.375,252584.828125,251975.515625,311389.0,1.0,4
231696.9375,276889.21875,272107.28125,265979.78125,248915.125,280420.96875,252664.75,252105.0625,311390.0,1.0,4
232341.75,278076.625,273613.15625,266442.09375,250279.5625,280969.125,253137.546875,252765.703125,311391.0,1.0,4
232772.234375,278656.34375,274215.6875,266562.28125,251179.625,281383.53125,253354.625,253055.734375,311392.0,1.0,4
232395.65625,277816.5625,273066.1875,266169.875,250358.859375,281086.15625,253012.640625,252577.40625,311393.0,1.0,4
231726.890625,276714.96875,271754.3125,265804.53125,248955.171875,280480.53125,252579.734375,251985.890625,311394.0,1.0,4
231684.25,276869.46875,272100.3125,265974.96875,248911.359375,280409.625,252658.3125,252105.15625,311395.0,1.0,4
232321.1875,278050.875,273604.59375,266437.90625,250270.609375,280968.875,253134.140625,252763.015625,311396.0,1.0,4
232765.4375,278641.96875,274215.3125,266564.0625,251179.171875,281388.1875,253354.171875,253059.84375,311397.0,1.0,4
232397.171875,277809.84375,273068.0625,266170.3125,250365.125,281088.03125,253010.578125,252573.65625,311398.0,1.0,4
231715.53125,276695.375,271751.8125,265800.78125,248959.015625,280483.84375,252580.625,251984.453125,311399.0,1.0,4
231674.6875,276854.25,272096.125,265972.625,248911.09375,280411.9375,252661.359375,252106.953125,311400.0,1.0,4
232315.015625,278044.4375,273599.75,266441.21875,250269.90625,280970.03125,253140.671875,252767.3125,311401.0,1.0,4
232753.375,278640.09375,274213.09375,266566.75,251179.4375,281394.71875,253359.890625,253061.453125,311402.0,1.0,4
232385.46875,277815.125,273073.59375,266172.90625,250370.484375,281096.0,253015.953125,252579.109375,311403.0,1.0,4
231718.578125,276712.65625,271759.40625,265807.6875,248968.40625,280493.5625,252589.5625,251991.875,311404.0,1.0,4
231672.625,276866.0625,272097.28125,265975.84375,248914.765625,280422.125,252670.921875,252110.25,311405.0,1.0,4
232307.234375,278053.3125,273602.25,266440.5,250271.59375,280973.96875,253145.3125,252768.109375,311406.0,1.0,4
232758.109375,278659.65625,274225.59375,266569.15625,251186.234375,281395.0625,253361.140625,253062.078125,311407.0,1.0,4
232399.859375,277840.875,273093.0,266181.03125,250384.703125,281105.03125,253022.46875,252582.140625,311408.0,1.0,4
231716.875,276727.9375,271768.71875,265808.5625,248969.03125,280499.5625,252592.6875,251987.59375,311409.0,1.0,4
231673.421875,276881.53125,272100.75,265975.21875,248907.34375,280420.8125,252664.9375,252105.0625,311410.0,1.0,4
232312.234375,278067.875,273603.25,266438.0,250260.875,280973.0625,253132.265625,252763.640625,311411.0,1.0,4
232765.4375,278673.34375,274235.25,266568.25,251184.09375,281394.25,253348.90625,253062.171875,311412.0,1.0,4
232398.78125,277847.9375,273101.40625,266176.3125,250381.03125,281101.8125,253009.0625,252590.28125,311413.0,1.0,4
231728.859375,276740.4375,271777.75,265808.75,248973.234375,280498.40625,252580.984375,252002.34375,311414.0,1.0,4
231689.515625,276888.59375,272101.125,265970.40625,248910.921875,280420.0,252653.578125,252102.75,311415.0,1.0,4
232318.953125,278060.0,273597.875,266431.375,250264.265625,280968.0625,253127.96875,252757.65625,311416.0,1.0,4
232763.390625,278663.5,274226.9375,266564.875,251187.671875,281393.53125,253358.5625,253065.125,311417.0,1.0,4
232404.953125,277845.25,273097.5625,266174.15625,250387.5625,281101.71875,253016.484375,252584.375,311418.0,1.0,4
231731.28125,276728.5625,271771.5625,265801.875,248976.453125,280493.75,252581.703125,251983.390625,311419.0,1.0,4
231682.375,276869.09375,272091.71875,265970.40625,248906.09375,280417.03125,252665.109375,252108.015625,311420.0,1.0,4
232314.125,278044.8125,273588.59375,266436.65625,250254.703125,280967.15625,253136.296875,252765.078125,311421.0,1.0,4
232768.84375,278653.84375,274226.78125,266570.59375,251186.6875,281396.40625,253368.125,253064.046875,311422.0,1.0,4
232409.96875,277835.78125,273098.46875,266182.28125,250396.140625,281109.21875,253026.140625,252586.4375,311423.0,1.0,4
231732.078125,276716.5625,271764.21875,265806.0625,248981.546875,280493.3125,252580.625,251978.296875,311424.0,1.0,4
231683.796875,276855.0625,272083.78125,265970.03125,248905.90625,280412.03125,252657.34375,252091.75,311425.0,1.0,4
232317.6875,278035.40625,273584.28125,266434.9375,250251.578125,280961.34375,253136.375,252749.0625,311426.0,1.0,4
232767.234375,278645.625,274222.9375,266569.6875,251182.5625,281383.0,253359.71875,253052.0625,311427.0,1.0,4
232402.359375,277826.03125,273096.5625,266177.71875,250391.234375,281093.40625,253013.625,252574.1875,311428.0,1.0,4
231731.28125,276716.21875,271767.28125,265807.5,248980.203125,280498.21875,252588.21875,251986.875,311429.0,1.0,4
231684.421875,276851.59375,272076.0,265965.9375,248899.203125,280404.625,252653.484375,252090.40625,311430.0,1.0,4
232311.34375,278024.25,273575.0,266427.09375,250243.4375,280949.1875,253121.359375,252741.375,311431.0,1.0,4
232764.46875,278642.40625,274224.09375,266565.03125,251181.671875,281382.0,253356.953125,253057.34375,311432.0,1.0,4
232409.515625,277833.34375,273100.59375,266172.71875,250396.140625,281091.625,253007.984375,252575.078125,311433.0,1.0,4
231733.15625,276719.34375,271768.25,265799.90625,248985.296875,280493.03125,252582.765625,251981.59375,311434.0,1.0,4
231672.171875,276844.78125,272071.25,265957.875,248900.09375,280406.9375,252659.296875,252096.046875,311435.0,1.0,4
232289.0,278010.03125,273559.34375,266413.84375,250234.40625,280940.78125,253121.984375,252742.625,311436.0,1.0,4
232753.46875,278637.65625,274213.53125,266554.9375,251179.4375,281377.8125,253356.671875,253051.890625,311437.0,1.0,4
232403.96875,277833.8125,273099.09375,266168.34375,250400.53125,281095.1875,253009.875,252577.3125,311438.0,1.0,4
231729.125,276714.0625,271764.40625,265792.5625,248984.140625,280486.59375,252574.453125,251986.34375,311439.0,1.0,4
231668.59375,276837.71875,272060.4375,265946.34375,248889.71875,280397.46875,252645.796875,252085.125,311440.0,1.0,4
232294.625,278012.34375,273557.28125,266408.3125,250231.09375,280941.9375,253120.46875,252738.703125,311441.0,1.0,4
232755.796875,278639.4375,274217.28125,266552.0625,251180.875,281379.78125,253356.3125,253051.359375,311442.0,1.0,4
232413.625,277842.3125,273108.90625,266168.34375,250412.0625,281100.125,253022.03125,252581.15625,311443.0,1.0,4
231737.4375,276718.375,271767.71875,265790.875,248992.640625,280488.125,252580.09375,251986.421875,311444.0,1.0,4
231672.09375,276831.8125,272058.75,265947.6875,248891.0625,280398.71875,252650.984375,252092.46875,311445.0,1.0,4
232301.875,278008.6875,273557.90625,266412.34375,250232.078125,280940.34375,253119.125,252740.484375,311446.0,1.0,4
232765.359375,278640.34375,274221.125,266556.53125,251184.890625,281376.375,253355.421875,253053.765625,311447.0,1.0,4
232412.90625,277837.90625,273111.40625,266173.25,250415.640625,281099.75,253024.0,252587.953125,311448.0,1.0,4
231736.28125,276715.875,271763.6875,265795.15625,248994.6875,280490.34375,252581.703125,251981.78125,311449.0,1.0,4
231669.046875,276829.84375,272048.8125,265951.8125,248892.5,280402.375,252649.921875,252076.109375,311450.0,1.0,4
232306.4375,278016.1875,273552.65625,266422.0625,250236.734375,280953.9375,253133.515625,252736.8125,311451.0,1.0,4
232759.28125,278640.53125,274214.625,266558.78125,251182.75,281375.125,253351.578125,253045.984375,311452.0,1.0,4
232411.125,277841.0625,273108.375,266172.71875,250417.421875,281095.65625,253021.671875,252586.171875,311453.0,1.0,4
231728.6875,276711.03125,271757.71875,265791.75,248993.171875,280485.875,252579.109375,251979.546875,311454.0,1.0,4
231655.90625,276814.84375,272033.96875,265942.78125,248879.265625,280390.40625,252641.15625,252070.015625,311455.0,1.0,4
232291.671875,277994.8125,273534.3125,266410.09375,250218.40625,280933.1875,253117.15625,252728.234375,311456.0,1.0,4
232754.890625,278629.78125,274207.625,266552.875,251175.140625,281366.8125,253359.359375,253047.515625,311457.0,1.0,4
232416.40625,277845.15625,273116.0625,266175.6875,250421.53125,281100.75,253032.9375,252593.328125,311458.0,1.0,4
231735.828125,276712.8125,271767.375,265793.375,248998.359375,280482.9375,252583.9375,251985.890625,311459.0,1.0,4
231670.125,276820.375,272043.375,265944.5625,248884.265625,280389.78125,252651.96875,252078.609375,311460.0,1.0,4
232296.421875,277996.34375,273540.125,266408.3125,250218.40625,280933.375,253127.171875,252732.4375,311461.0,1.0,4
232761.78125,278636.875,274218.1875,266552.0,251178.28125,281372.34375,253362.21875,253053.765625,311462.0,1.0,4
232418.015625,277847.03125,273123.21875,266168.15625,250424.84375,281100.75,253029.1875,252591.359375,311463.0,1.0,4
231739.140625,276715.875,271767.1875,265783.71875,248998.796875,280490.09375,252588.578125,251981.421875,311464.0,1.0,4
231669.671875,276814.125,272032.375,265935.4375,248876.9375,280391.90625,252650.625,252076.28125,311465.0,1.0,4
232287.921875,277980.53125,273525.09375,266401.34375,250209.46875,280930.6875,253120.375,252735.296875,311466.0,1.0,4
232745.6875,278619.15625,274205.3125,266544.21875,251169.78125,281362.875,253347.5625,253044.5625,311467.0,1.0,4
232410.859375,277840.78125,273118.03125,266164.0625,250419.125,281089.28125,253016.578125,252575.4375,311468.0,1.0,4
231726.171875,276706.65625,271767.90625,265789.0625,248995.140625,280487.6875,252593.140625,251986.78125,311469.0,1.0,4
231645.796875,276796.3125,272026.375,265936.0625,248864.609375,280380.125,252645.359375,252066.890625,311470.0,1.0,4
232273.078125,277968.09375,273515.1875,266398.90625,250193.28125,280909.84375,253098.5625,252702.125,311471.0,1.0,4
232751.765625,278626.03125,274209.78125,266556.375,251171.03125,281352.40625,253341.921875,253037.3125,311472.0,1.0,4
232417.296875,277849.4375,273130.5625,266181.21875,250432.171875,281090.46875,253023.90625,252583.75,311473.0,1.0,4
231733.78125,276713.96875,271775.59375,265798.71875,249007.921875,280483.28125,252589.828125,251981.421875,311474.0,1.0,4
231659.5625,276805.28125,272030.9375,265943.5625,248870.859375,280382.875,252643.5625,252059.109375,311475.0,1.0,4
232280.140625,277971.5,273519.21875,266405.1875,250193.28125,280917.28125,253110.8125,252709.8125,311476.0,1.0,4
232747.75,278618.875,274211.3125,266555.125,251167.375,281350.375,253348.28125,253029.984375,311477.0,1.0,4
232417.5625,277848.375,273132.25,266175.5,250430.03125,281085.71875,253023.90625,252575.0,311478.0,1.0,4
231743.96875,276723.71875,271777.65625,265794.34375,249007.390625,280486.15625,252593.765625,251979.0,311479.0,1.0,4
231659.84375,276805.90625,272025.75,265939.71875,248869.078125,280381.625,252649.296875,252067.421875,311480.0,1.0,4
232271.734375,277965.6875,273511.4375,266400.0,250190.6875,280905.75,253105.53125,252713.65625,311481.0,1.0,4
232746.140625,278628.71875,274213.625,266556.53125,251174.25,281360.09375,253358.90625,253043.75,311482.0,1.0,4
232423.828125,277868.0625,273141.28125,266181.5625,250444.78125,281097.875,253040.4375,252597.703125,311483.0,1.0,4
231742.1875,276732.3125,271778.1875,265791.40625,249013.734375,280485.09375,252594.390625,251976.140625,311484.0,1.0,4
231653.578125,276806.96875,272020.125,265931.3125,248869.34375,280376.1875,252644.8125,252056.609375,311485.0,1.0,4
232262.625,277961.9375,273502.5,266392.46875,250189.25,280908.78125,253115.546875,252709.90625,311486.0,1.0,4
232740.328125,278624.25,274205.40625,266545.71875,251174.515625,281358.9375,253365.0,253043.03125,311487.0,1.0,4
232417.03125,277861.96875,273133.21875,266168.6875,250448.984375,281102.71875,253042.234375,252591.625,311488.0,1.0,4
231740.84375,276725.96875,271769.25,265784.96875,249023.84375,280496.34375,252598.78125,251983.390625,311489.0,1.0,4
231654.921875,276795.53125,272005.1875,265928.28125,248874.078125,280387.71875,252650.09375,252062.78125,311490.0,1.0,4
232270.9375,277956.46875,273492.90625,266394.625,250192.125,280921.375,253118.046875,252716.796875,311491.0,1.0,4
232750.421875,278625.59375,274207.90625,266552.0,251182.390625,281367.78125,253364.09375,253057.875,311492.0,1.0,4
232429.90625,277868.9375,273146.1875,266180.40625,250461.765625,281110.125,253043.125,252609.328125,311493.0,1.0,4
231743.515625,276727.125,271776.46875,265790.5,249027.328125,280496.0,252599.84375,251988.125,311494.0,1.0,4
231641.59375,276787.3125,272000.96875,265929.09375,248860.671875,280385.46875,252661.359375,252072.53125,311495.0,1.0,4
232259.578125,277952.28125,273489.4375,266393.90625,250174.0625,280912.625,253115.015625,252709.015625,311496.0,1.0,4
232743.265625,278626.40625,274207.375,266553.875,251169.421875,281356.0,253349.703125,253040.53125,311497.0,1.0,4
232429.8125,277878.96875,273151.28125,266186.59375,250458.109375,281108.78125,253041.25,252596.0,311498.0,1.0,4
231739.59375,276732.84375,271777.65625,265797.5625,249022.859375,280492.21875,252598.0625,251981.59375,311499.0,1.0,4
231640.265625,276789.625,271997.21875,265933.28125,248853.25,280378.5,252651.078125,252054.203125,311500.0,1.0,4
232256.71875,277954.40625,273488.53125,266404.1875,250171.90625,280918.34375,253129.140625,252715.1875,311501.0,1.0,4
232740.5,278629.78125,274211.75,266564.78125,251169.875,281362.96875,253370.796875,253051.359375,311502.0,1.0,4
232431.6875,277879.40625,273153.875,266187.75,250457.65625,281097.34375,253032.75,252587.328125,311503.0,1.0,4
231757.03125,276741.625,271782.75,265801.9375,249028.390625,280491.96875,252592.515625,251981.59375,311504.0,1.0,4
231656.53125,276792.21875,271997.59375,265939.90625,248858.875,280373.6875,252637.125,252055.09375,311505.0,1.0,4
232264.765625,277947.625,273479.78125,266402.5,250171.015625,280905.21875,253106.609375,252702.390625,311506.0,1.0,4
232750.609375,278630.875,274207.90625,266565.21875,251175.328125,281364.84375,253362.21875,253050.28125,311507.0,1.0,4
232438.03125,277885.46875,273156.5625,266194.8125,250471.515625,281112.09375,253035.703125,252609.421875,311508.0,1.0,4
231759.796875,276746.4375,271784.34375,265802.84375,249040.375,280504.125,252590.28125,251998.3125,311509.0,1.0,4
231650.546875,276792.125,271990.25,265932.40625,248860.9375,280385.03125,252634.453125,252060.28125,311510.0,1.0,4
232258.5,277951.5625,273471.71875,266398.90625,250170.390625,280917.71875,253110.265625,252711.15625,311511.0,1.0,4
232749.4375,278644.09375,274210.78125,266567.71875,251181.859375,281378.875,253373.75,253062.0,311512.0,1.0,4
232439.46875,277903.53125,273164.875,266197.5,250481.53125,281127.125,253048.484375,252613.4375,311513.0,1.0,4
231751.21875,276753.84375,271785.25,265806.40625,249046.09375,280513.6875,252605.21875,252004.3125,311514.0,1.0,4
231649.203125,276803.75,271988.75,265937.3125,248864.25,280392.625,252655.1875,252067.703125,311515.0,1.0,4
232265.296875,277964.4375,273468.59375,266401.0625,250167.53125,280917.53125,253121.890625,252712.765625,311516.0,1.0,4
232755.515625,278655.1875,274210.5,266570.21875,251178.28125,281374.40625,253377.6875,253060.296875,311517.0,1.0,4
232440.546875,277915.0625,273170.875,266202.59375,250479.828125,281130.59375,253058.953125,252623.546875,311518.0,1.0,4
231761.046875,276775.75,271793.90625,265811.96875,249043.59375,280523.34375,252611.03125,252006.8125,311519.0,1.0,4
231658.671875,276822.625,271992.9375,265943.84375,248852.171875,280406.65625,252661.984375,252070.46875,311520.0,1.0,4
232262.984375,277973.375,273471.0,266406.96875,250150.1875,280928.1875,253132.71875,252720.71875,311521.0,1.0,4
232740.859375,278653.75,274208.25,266569.0625,251152.53125,281367.625,253372.59375,253064.671875,311522.0,1.0,4
232436.96875,277923.75,273173.375,266202.84375,250463.109375,281126.5,253046.796875,252623.546875,311523.0,1.0,4
231758.8125,276782.1875,271795.78125,265811.78125,249029.203125,280521.65625,252599.40625,252013.0625,311524.0,1.0,4
231656.890625,276826.8125,271991.5,265943.5625,248840.015625,280409.71875,252651.078125,252078.6875,311525.0,1.0,4
232258.234375,277974.96875,273469.21875,266405.8125,250139.1875,280931.5,253111.53125,252721.703125,311526.0,1.0,4
232746.84375,278668.0625,274218.46875,266572.46875,251155.65625,281377.28125,253365.96875,253077.109375,311527.0,1.0,4
232443.9375,277939.5625,273186.25,266206.875,250473.390625,281137.65625,253055.015625,252641.15625,311528.0,1.0,4
231760.421875,276787.5625,271803.125,265812.0625,249039.03125,280528.71875,252605.296875,252024.515625,311529.0,1.0,4
231652.5,276818.40625,271989.28125,265938.375,248841.0,280402.46875,252648.84375,252084.859375,311530.0,1.0,4
232255.734375,277966.5,273466.71875,266403.5625,250138.921875,280928.4375,253115.71875,252727.609375,311531.0,1.0,4
232753.46875,278666.8125,274226.6875,266574.25,251164.421875,281388.90625,253372.59375,253067.53125,311532.0,1.0,4
232450.46875,277938.21875,273202.71875,266208.125,250487.421875,281150.09375,253064.5,252635.796875,311533.0,1.0,4
231769.625,276789.25,271818.59375,265811.25,249053.96875,280544.0,252619.78125,252013.0625,311534.0,1.0,4
231657.515625,276816.25,271997.6875,265937.9375,248848.15625,280412.46875,252660.640625,252072.34375,311535.0,1.0,4
232261.28125,277963.96875,273472.25,266401.875,250138.46875,280929.34375,253123.6875,252715.09375,311536.0,1.0,4
232759.1875,278667.09375,274234.8125,266575.0625,251163.171875,281391.84375,253386.890625,253070.484375,311537.0,1.0,4
232466.46875,277949.9375,273214.6875,266213.65625,250491.0,281158.0625,253078.171875,252637.40625,311538.0,1.0,4
231780.8125,276798.03125,271827.09375,265820.46875,249055.484375,280544.71875,252625.59375,252016.015625,311539.0,1.0,4
231657.421875,276813.84375,271998.3125,265944.375,248841.890625,280410.34375,252660.640625,252076.8125,311540.0,1.0,4
232264.9375,277968.8125,273473.96875,266407.5,250134.265625,280929.53125,253120.375,252711.703125,311541.0,1.0,4
232765.796875,278680.03125,274238.75,266583.1875,251167.28125,281387.71875,253377.421875,253066.375,311542.0,1.0,4
232468.078125,277960.40625,273218.0,266222.15625,250500.125,281156.4375,253069.328125,252635.609375,311543.0,1.0,4
231777.140625,276801.15625,271821.09375,265821.8125,249052.890625,280539.34375,252609.765625,252013.609375,311544.0,1.0,4
231654.828125,276814.46875,271985.25,265939.46875,248831.515625,280403.1875,252641.875,252063.765625,311545.0,1.0,4
232258.6875,277962.71875,273458.5,266403.65625,250119.25,280926.03125,253107.046875,252706.328125,311546.0,1.0,4
232763.484375,278676.1875,274233.21875,266580.59375,251157.09375,281383.09375,253366.25,253068.875,311547.0,1.0,4
232469.859375,277962.65625,273221.375,266218.21875,250499.234375,281156.875,253063.421875,252640.703125,311548.0,1.0,4
231786.53125,276807.15625,271826.09375,265819.84375,249062.28125,280543.71875,252618.171875,252022.09375,311549.0,1.0,4
231661.8125,276813.3125,271981.3125,265934.71875,248836.625,280393.78125,252644.375,252067.421875,311550.0,1.0,4
232262.625,277960.84375,273453.3125,266396.40625,250125.328125,280910.5625,253106.703125,252709.546875,311551.0,1.0,4
232758.203125,278671.90625,274225.59375,266568.78125,251162.984375,281373.25,253366.421875,253062.53125,311552.0,1.0,4
232470.40625,277965.875,273217.71875,266211.0,250509.953125,281144.1875,253067.984375,252642.234375,311553.0,1.0,4
231787.328125,276808.3125,271818.9375,265811.34375,249072.296875,280536.3125,252621.75,252016.734375,311554.0,1.0,4
231658.5,276806.875,271968.71875,265927.21875,248842.703125,280403.53125,252660.90625,252062.0625,311555.0,1.0,4
232258.6875,277953.15625,273441.78125,266390.25,250132.125,280922.625,253122.15625,252701.953125,311556.0,1.0,4
232745.0625,278656.625,274209.34375,266554.125,251157.4375,281364.75,253365.078125,253055.28125,311557.0,1.0,4
232456.09375,277950.9375,273208.875,266200.71875,250506.46875,281144.625,253071.828125,252641.78125,311558.0,1.0,4
231772.046875,276790.6875,271810.5625,265803.28125,249067.203125,280537.5625,252623.265625,252023.984375,311559.0,1.0,4
231654.65625,276797.84375,271957.96875,265918.53125,248835.09375,280396.46875,252646.96875,252055.359375,311560.0,1.0,4
232243.84375,277932.34375,273419.15625,266375.6875,250110.578125,280910.9375,253103.921875,252688.8125,311561.0,1.0,4
232739.25,278647.3125,274203.34375,266555.03125,251147.875,281372.0,253363.828125,253058.859375,311562.0,1.0,4
232460.921875,277948.5,273209.5,266201.96875,250504.859375,281145.53125,253063.15625,252638.296875,311563.0,1.0,4
231776.0625,276789.875,271807.78125,265801.25,249061.390625,280533.4375,252614.59375,252016.203125,311564.0,1.0,4
231640.4375,276781.5,271944.84375,265912.375,248814.453125,280378.15625,252622.828125,252049.640625,311565.0,1.0,4
232235.625,277923.03125,273415.65625,266377.375,250097.078125,280897.4375,253080.671875,252681.203125,311566.0,1.0,4
232742.203125,278654.125,274213.8125,266562.53125,251150.734375,281367.4375,253359.625,253060.390625,311567.0,1.0,4
232466.5625,277962.1875,273229.09375,266210.8125,250516.484375,281152.0625,253072.71875,252643.125,311568.0,1.0,4
231774.015625,276792.75,271816.1875,265799.0,249064.515625,280527.0,252603.6875,252003.234375,311569.0,1.0,4
231638.828125,276778.90625,271948.40625,265907.1875,248814.890625,280371.1875,252623.09375,252041.59375,311570.0,1.0,4
232223.109375,277909.8125,273407.71875,266365.5625,250084.828125,280877.65625,253081.125,252680.9375,311571.0,1.0,4
232740.859375,278653.125,274211.03125,266553.40625,251145.203125,281358.3125,253361.421875,253054.03125,311572.0,1.0,4
232467.546875,277966.21875,273228.8125,266204.71875,250518.625,281157.25,253076.296875,252644.90625,311573.0,1.0,4
231778.578125,276794.90625,271818.40625,265799.1875,249072.46875,280531.46875,252607.171875,252014.140625,311574.0,1.0,4
231636.0625,276769.9375,271940.09375,265901.5625,248812.75,280364.375,252617.8125,252040.421875,311575.0,1.0,4
232236.25,277912.125,273409.9375,266361.5625,250087.875,280879.0,253080.671875,252681.03125,311576.0,1.0,4
232743.1875,278641.59375,274212.28125,266543.84375,251144.03125,281351.15625,253347.109375,253050.453125,311577.0,1.0,4
232469.15625,277952.53125,273229.78125,266194.71875,250519.078125,281142.3125,253064.3125,252648.21875,311578.0,1.0,4
231777.859375,276784.0,271814.5625,265788.09375,249073.453125,280528.53125,252604.046875,252018.25,311579.0,1.0,4
231633.90625,276761.8125,271932.6875,265896.28125,248811.671875,280373.21875,252619.703125,252041.40625,311580.0,1.0,4
232231.328125,277902.28125,273401.625,266364.40625,250086.703125,280891.625,253087.390625,252688.546875,311581.0,1.0,4
232743.453125,278641.59375,274211.03125,266550.1875,251148.6875,281361.8125,253359.53125,253061.90625,311582.0,1.0,4
232464.765625,277948.6875,273230.59375,266196.0625,250522.203125,281137.125,253056.09375,252640.265625,311583.0,1.0,4
231772.3125,276782.03125,271818.6875,265794.25,249074.4375,280524.59375,252600.390625,252011.375,311584.0,1.0,4
231630.15625,276762.34375,271933.46875,265902.4375,248804.25,280369.03125,252621.578125,252042.21875,311585.0,1.0,4
232224.890625,277903.625,273398.9375,266366.03125,250072.484375,280882.9375,253083.984375,252682.109375,311586.0,1.0,4
232738.171875,278647.15625,274216.03125,266556.71875,251145.203125,281359.65625,253359.265625,253055.640625,311587.0,1.0,4
232460.296875,277962.09375,273238.8125,266203.75,250526.59375,281138.75,253061.09375,252641.78125,311588.0,1.0,4
231773.109375,276797.21875,271821.28125,265799.0,249075.15625,280523.4375,252604.5,252013.96875,311589.0,1.0,4
231633.015625,276770.9375,271931.4375,265904.3125,248801.84375,280368.84375,252626.484375,252038.375,311590.0,1.0,4
232225.609375,277905.78125,273394.84375,266365.9375,250066.671875,280875.53125,253078.4375,252674.0625,311591.0,1.0,4
232737.109375,278646.6875,274214.6875,266559.75,251139.46875,281350.4375,253349.703125,253058.5,311592.0,1.0,4
232465.21875,277969.15625,273245.71875,266214.84375,250528.734375,281145.96875,253058.328125,252654.46875,311593.0,1.0,4
231778.390625,276800.1875,271827.4375,265808.125,249078.109375,280527.5625,252603.25,252024.953125,311594.0,1.0,4
231633.109375,276765.03125,271927.65625,265904.6875,248795.3125,280358.5625,252607.890625,252039.09375,311595.0,1.0,4
232227.125,277901.03125,273391.625,266368.53125,250059.34375,280871.40625,253071.734375,252678.34375,311596.0,1.0,4
232742.5625,278648.5625,274219.875,266565.84375,251139.203125,281355.71875,253357.84375,253067.0,311597.0,1.0,4
232476.125,277970.25,273254.1875,266215.375,250528.5625,281143.5625,253069.0625,252653.578125,311598.0,1.0,4
231791.796875,276796.0625,271831.90625,265805.53125,249081.0625,280532.375,252615.5,252014.328125,311599.0,1.0,4
231632.84375,276741.15625,271916.21875,265894.65625,248787.71875,280350.0,252599.40625,252020.3125,311600.0,1.0,4
232210.40625,277866.53125,273371.59375,266355.8125,250042.1875,280852.625,253056.265625,252654.125,311601.0,1.0,4
232738.09375,278631.3125,274206.84375,266556.09375,251127.046875,281340.34375,253347.296875,253046.4375,311602.0,1.0,4
232480.765625,277968.71875,273252.59375,266213.59375,250530.515625,281144.1875,253072.09375,252651.96875,311603.0,1.0,4
231791.625,276794.53125,271833.96875,265804.8125,249082.125,280534.625,252615.578125,252015.21875,311604.0,1.0,4
231624.078125,276739.1875,271918.28125,265897.0,248782.171875,280361.25,252618.171875,252030.140625,311605.0,1.0,4
232211.296875,277877.25,273382.3125,266364.6875,250043.796875,280871.0625,253082.46875,252671.546875,311606.0,1.0,4
232732.09375,278638.5625,274216.59375,266557.875,251126.875,281344.0,253355.34375,253048.9375,311607.0,1.0,4
232471.46875,277977.125,273261.53125,266214.5625,250530.515625,281144.8125,253075.3125,252654.828125,311608.0,1.0,4
231788.40625,276808.5625,271839.78125,265808.46875,249083.921875,280535.15625,252621.578125,252024.515625,311609.0,1.0,4
231628.8125,276756.0,271921.40625,265901.09375,248782.703125,280361.875,252623.09375,252031.9375,311610.0,1.0,4
232199.59375,277876.1875,273372.3125,266358.96875,250030.296875,280858.71875,253074.859375,252665.109375,311611.0,1.0,4
232728.15625,278648.125,274217.5625,266563.4375,251122.125,281346.53125,253364.28125,253059.21875,311612.0,1.0,4
232476.65625,277995.28125,273271.0,266224.3125,250537.234375,281149.5625,253078.890625,252658.859375,311613.0,1.0,4
231790.546875,276821.8125,271849.875,265816.875,249092.59375,280540.5,252624.4375,252025.9375,311614.0,1.0,4
231626.84375,276759.03125,271923.90625,265907.375,248785.921875,280365.46875,252624.609375,252030.140625,311615.0,1.0,4
232207.71875,277883.4375,273372.5625,266366.46875,250029.84375,280862.5625,253077.109375,252662.875,311616.0,1.0,4
232737.375,278652.6875,274221.75,266568.09375,251122.9375,281351.6875,253364.90625,253056.0,311617.0,1.0,4
232481.671875,277992.59375,273282.8125,266228.34375,250544.375,281158.125,253086.9375,252665.828125,311618.0,1.0,4
231800.390625,276822.25,271859.375,265821.96875,249103.59375,280556.78125,252642.3125,252029.4375,311619.0,1.0,4
231633.46875,276756.09375,271921.3125,265905.46875,248788.421875,280382.1875,252640.34375,252031.390625,311620.0,1.0,4
232211.65625,277873.5,273364.4375,266356.90625,250029.046875,280865.15625,253082.640625,252655.375,311621.0,1.0,4
232743.0,278643.375,274220.6875,266562.625,251131.609375,281356.25,253372.0625,253058.859375,311622.0,1.0,4
232483.984375,277982.75,273280.65625,266220.90625,250549.125,281154.75,253077.015625,252662.875,311623.0,1.0,4
231802.703125,276808.3125,271853.1875,265810.90625,249099.828125,280539.53125,252618.359375,252029.96875,311624.0,1.0,4
231641.234375,276742.15625,271915.59375,265899.84375,248784.5,280363.3125,252619.703125,252034.796875,311625.0,1.0,4
232214.703125,277858.46875,273360.59375,266354.5,250020.28125,280860.84375,253072.625,252649.734375,311626.0,1.0,4
232740.5,278630.96875,274219.8125,266565.5,251121.5,281357.78125,253369.109375,253051.625,311627.0,1.0,4
232496.6875,277987.59375,273285.59375,266225.75,250545.640625,281154.90625,253079.34375,252652.78125,311628.0,1.0,4
231809.0625,276810.8125,271855.0625,265811.6875,249093.484375,280539.625,252614.78125,252023.34375,311629.0,1.0,4
231631.40625,276732.3125,271906.5625,265892.15625,248766.96875,280358.46875,252605.296875,252015.75,311630.0,1.0,4
232208.703125,277854.0,273354.53125,266350.90625,250005.703125,280850.125,253057.96875,252644.015625,311631.0,1.0,4
232735.40625,278632.3125,274213.4375,266557.625,251107.46875,281342.40625,253351.21875,253043.75,311632.0,1.0,4
232496.234375,278000.1875,273291.40625,266226.46875,250548.21875,281162.96875,253083.890625,252665.203125,311633.0,1.0,4
231814.953125,276829.3125,271861.6875,265815.625,249101.984375,280557.5,252631.40625,252040.703125,311634.0,1.0,4
231640.796875,276750.90625,271905.9375,265894.40625,248771.625,280369.9375,252621.3125,252021.828125,311635.0,1.0,4
232203.703125,277857.5,273344.78125,266350.65625,250004.0,280858.90625,253069.5,252641.421875,311636.0,1.0,4
232733.609375,278639.53125,274212.28125,266558.25,251108.984375,281349.46875,253360.609375,253040.890625,311637.0,1.0,4
232498.03125,278010.375,273297.28125,266225.28125,250556.09375,281169.125,253091.046875,252658.046875,311638.0,1.0,4
231808.25,276831.1875,271866.15625,265810.90625,249108.328125,280561.15625,252635.34375,252026.75,311639.0,1.0,4
231632.65625,276745.53125,271903.71875,265890.8125,248775.28125,280368.0625,252628.453125,252023.53125,311640.0,1.0,4
232207.1875,277858.40625,273340.84375,266345.46875,250006.515625,280854.15625,253073.25,252640.703125,311641.0,1.0,4
232733.171875,278632.03125,274207.0,266550.09375,251111.9375,281345.4375,253361.6875,253037.140625,311642.0,1.0,4
232496.515625,278006.0,273297.125,266220.65625,250561.8125,281171.71875,253101.875,252664.484375,311643.0,1.0,4
231818.625,276833.625,271865.1875,265806.40625,249114.046875,280563.84375,252639.1875,252026.84375,311644.0,1.0,4
231635.078125,276731.40625,271893.15625,265878.65625,248770.09375,280362.9375,252615.671875,252010.828125,311645.0,1.0,4
232203.609375,277837.5625,273333.25,266337.84375,249999.171875,280854.40625,253072.984375,252642.046875,311646.0,1.0,4
232735.578125,278619.96875,274204.34375,266545.8125,251106.9375,281342.84375,253349.96875,253039.28125,311647.0,1.0,4
232498.46875,277991.875,273290.15625,266213.21875,250555.5625,281158.59375,253073.96875,252656.078125,311648.0,1.0,4
231815.234375,276814.65625,271851.21875,265796.84375,249106.8125,280543.03125,252614.515625,252025.046875,311649.0,1.0,4
231630.515625,276717.65625,271876.4375,265875.1875,248759.453125,280353.28125,252603.6875,252012.4375,311650.0,1.0,4
232197.796875,277823.78125,273315.625,266335.0,249985.140625,280844.5,253052.96875,252635.078125,311651.0,1.0,4
232726.46875,278609.3125,274193.6875,266546.53125,251095.3125,281338.46875,253346.125,253041.34375,311652.0,1.0,4
232495.34375,277991.625,273289.4375,266216.8125,250553.953125,281165.1875,253084.96875,252661.359375,311653.0,1.0,4
231806.90625,276808.84375,271848.46875,265800.34375,249103.3125,280561.96875,252626.046875,252022.28125,311654.0,1.0,4
231622.734375,276708.96875,271864.375,265872.3125,248744.34375,280354.46875,252596.0,251997.78125,311655.0,1.0,4
232187.78125,277815.9375,273301.40625,266330.96875,249969.046875,280840.21875,253047.15625,252628.28125,311656.0,1.0,4
232728.078125,278619.78125,274194.21875,266551.1875,251098.890625,281345.25,253354.625,253048.484375,311657.0,1.0,4
232492.84375,278000.09375,273290.40625,266216.34375,250559.140625,281164.5625,253080.328125,252670.484375,311658.0,1.0,4
231805.296875,276820.03125,271847.5625,265796.40625,249103.140625,280553.65625,252619.609375,252029.875,311659.0,1.0,4
231619.34375,276717.28125,271863.03125,265871.5,248742.390625,280361.875,252607.890625,252012.4375,311660.0,1.0,4
232185.28125,277823.0625,273298.46875,266326.78125,249961.890625,280843.34375,253052.25,252627.828125,311661.0,1.0,4
232727.265625,278627.46875,274192.34375,266543.9375,251090.84375,281341.0625,253353.375,253043.484375,311662.0,1.0,4
232504.828125,278020.3125,273301.0625,266214.65625,250563.15625,281171.90625,253091.3125,252666.015625,311663.0,1.0,4
231819.34375,276833.625,271858.5625,265794.34375,249111.90625,280558.84375,252627.828125,252026.296875,311664.0,1.0,4
231627.296875,276720.0625,271865.96875,265865.59375,248747.921875,280358.21875,252604.3125,252002.875,311665.0,1.0,4
232181.265625,277815.75,273294.34375,266319.96875,249963.6875,280842.96875,253050.453125,252618.0,311666.0,1.0,4
232725.921875,278624.625,274193.59375,266541.71875,251098.25,281347.40625,253361.78125,253035.890625,311667.0,1.0,4
232503.125,278019.25,273305.53125,266216.53125,250575.9375,281176.375,253095.609375,252668.0625,311668.0,1.0,4
231816.5625,276830.9375,271859.1875,265795.59375,249122.0,280562.5,252629.4375,252026.5625,311669.0,1.0,4
231619.34375,276709.34375,271857.9375,265862.65625,248748.109375,280357.5,252605.484375,252002.34375,311670.0,1.0,4
232170.359375,277798.03125,273282.09375,266316.21875,249956.703125,280830.71875,253047.6875,252619.96875,311671.0,1.0,4
232708.84375,278604.9375,274183.5,266538.84375,251089.859375,281340.34375,253361.953125,253043.3125,311672.0,1.0,4
232490.421875,278005.125,273300.96875,266216.4375,250571.109375,281168.6875,253091.859375,252666.640625,311673.0,1.0,4
231806.640625,276817.96875,271852.3125,265793.375,249113.6875,280556.78125,252625.15625,252013.25,311674.0,1.0,4
231612.453125,276692.71875,271841.9375,265856.65625,248730.578125,280333.1875,252579.734375,251983.828125,311675.0,1.0,4
232166.953125,277785.71875,273268.96875,266315.15625,249938.65625,280807.3125,253024.265625,252620.140625,311676.0,1.0,4
232709.390625,278595.03125,274174.65625,266537.21875,251077.515625,281314.59375,253328.6875,253026.765625,311677.0,1.0,4
232496.859375,278004.40625,273299.4375,266215.0,250568.34375,281159.84375,253074.15625,252652.59375,311678.0,1.0,4
231811.390625,276820.90625,271852.125,265793.375,249116.8125,280556.34375,252617.734375,252017.625,311679.0,1.0,4
231605.390625,276688.25,271833.71875,265853.90625,248724.765625,280339.34375,252584.015625,251985.890625,311680.0,1.0,4
232164.984375,277786.875,273262.78125,266312.5625,249929.265625,280820.71875,253029.890625,252608.78125,311681.0,1.0,4
232720.5625,278611.46875,274179.75,266536.53125,251073.21875,281325.25,253335.578125,253029.71875,311682.0,1.0,4
232496.953125,278011.71875,273304.53125,266212.6875,250562.625,281162.25,253078.078125,252666.28125,311683.0,1.0,4
231816.921875,276830.46875,271859.71875,265795.4375,249112.703125,280557.59375,252617.640625,252023.625,311684.0,1.0,4
231618.4375,276702.71875,271846.5,265862.75,248727.453125,280349.8125,252596.0,251996.796875,311685.0,1.0,4
232173.921875,277797.6875,273272.1875,266319.96875,249933.28125,280827.78125,253040.796875,252617.90625,311686.0,1.0,4
232724.765625,278617.71875,274186.53125,266542.5,251082.4375,281329.96875,253341.65625,253035.4375,311687.0,1.0,4
232517.34375,278030.78125,273319.65625,266221.28125,250586.140625,281168.96875,253085.59375,252676.5625,311688.0,1.0,4
231822.203125,276830.65625,271865.09375,265797.65625,249131.296875,280558.3125,252624.25,252033.640625,311689.0,1.0,4
231609.5,276686.09375,271835.59375,265859.53125,248727.359375,280342.375,252595.5625,251994.734375,311690.0,1.0,4
232168.109375,277783.90625,273263.3125,266317.84375,249934.0,280819.5625,253035.4375,252612.984375,311691.0,1.0,4
232716.890625,278609.0625,274190.125,266545.0,251089.140625,281332.3125,253346.21875,253035.171875,311692.0,1.0,4
232504.828125,278021.84375,273325.90625,266225.125,250593.109375,281173.25,253089.890625,252678.703125,311693.0,1.0,4
231816.484375,276826.71875,271868.40625,265800.34375,249142.65625,280554.0,252623.8125,252034.171875,311694.0,1.0,4
231603.59375,276678.21875,271830.5,265854.0625,248735.765625,280327.46875,252573.390625,251988.125,311695.0,1.0,4
232156.5,277769.0625,273248.84375,266309.59375,249927.734375,280798.28125,253006.46875,252595.5625,311696.0,1.0,4
232714.296875,278601.375,274181.34375,266545.5625,251085.109375,281315.3125,253329.140625,253028.28125,311697.0,1.0,4
232504.734375,278020.9375,273324.46875,266230.375,250596.421875,281168.59375,253087.203125,252678.53125,311698.0,1.0,4
231824.796875,276839.5,271868.40625,265808.65625,249144.453125,280558.9375,252623.546875,252045.96875,311699.0,1.0,4
231609.5,276687.34375,271825.5625,265861.0625,248727.8125,280335.5,252580.53125,251996.078125,311700.0,1.0,4
232156.765625,277771.9375,273241.40625,266312.46875,249916.921875,280804.0,253011.125,252590.734375,311701.0,1.0,4
232716.1875,278608.34375,274178.5,266545.5625,251075.734375,281317.625,253331.90625,253027.65625,311702.0,1.0,4
232513.3125,278036.59375,273325.1875,266229.6875,250590.421875,281167.78125,253084.34375,252679.953125,311703.0,1.0,4
231822.828125,276842.625,271862.59375,265799.0,249132.203125,280555.4375,252613.4375,252016.28125,311704.0,1.0,4
231600.65625,276682.4375,271817.0625,265853.375,248713.953125,280330.125,252570.796875,251973.28125,311705.0,1.0,4
232153.640625,277775.34375,273239.4375,266311.75,249904.9375,280803.71875,253018.453125,252592.875,311706.0,1.0,4
232721.90625,278622.03125,274187.4375,266548.3125,251073.9375,281324.15625,253341.5625,253032.40625,311707.0,1.0,4
232510.1875,278041.9375,273337.15625,266229.21875,250590.15625,281167.34375,253080.046875,252675.390625,311708.0,1.0,4
231821.046875,276849.0625,271876.0,265803.75,249136.578125,280551.15625,252606.640625,252019.6875,311709.0,1.0,4
231602.4375,276690.125,271819.65625,265856.9375,248715.5625,280330.9375,252571.234375,251974.171875,311710.0,1.0,4
232150.765625,277777.03125,273238.28125,266315.0625,249904.671875,280810.25,253022.296875,252592.78125,311711.0,1.0,4
232710.375,278616.21875,274184.75,266550.90625,251073.765625,281319.96875,253333.609375,253030.078125,311712.0,1.0,4
232508.578125,278045.6875,273339.84375,266232.34375,250601.78125,281170.90625,253085.953125,252682.8125,311713.0,1.0,4
231826.3125,276855.4375,271877.96875,265806.59375,249150.53125,280562.34375,252615.046875,252040.875,311714.0,1.0,4
231607.09375,276687.34375,271816.4375,265857.28125,248725.671875,280326.90625,252563.453125,251987.59375,311715.0,1.0,4
232153.640625,277770.59375,273228.0,266310.125,249908.703125,280795.21875,253002.453125,252596.1875,311716.0,1.0,4
232709.296875,278615.75,274176.25,266547.6875,251075.734375,281313.34375,253328.15625,253038.484375,311717.0,1.0,4
232514.125,278058.84375,273346.46875,266241.125,250613.578125,281181.28125,253091.046875,252697.921875,311718.0,1.0,4
231823.359375,276865.96875,271881.8125,265811.15625,249159.203125,280579.9375,252627.921875,252042.03125,311719.0,1.0,4
231593.046875,276690.90625,271810.28125,265852.90625,248714.9375,280340.59375,252575.703125,251982.671875,311720.0,1.0,4
232141.296875,277775.6875,273220.21875,266305.3125,249890.546875,280801.03125,253014.703125,252595.46875,311721.0,1.0,4
232707.6875,278627.28125,274176.53125,266547.53125,251065.71875,281321.125,253341.296875,253037.046875,311722.0,1.0,4
232511.625,278071.71875,273346.5625,266237.53125,250607.140625,281180.5625,253099.625,252696.140625,311723.0,1.0,4
231819.25,276878.21875,271881.625,265805.96875,249151.6875,280573.0625,252631.765625,252045.53125,311724.0,1.0,4
231593.3125,276707.0,271810.90625,265852.1875,248707.6875,280344.34375,252586.703125,251992.0625,311725.0,1.0,4
232145.59375,277795.0,273225.40625,266309.6875,249883.75,280810.6875,253027.75,252609.421875,311726.0,1.0,4
232707.0625,278644.90625,274183.125,266545.71875,251058.46875,281327.5625,253342.546875,253035.4375,311727.0,1.0,4
232512.328125,278090.84375,273361.125,266237.28125,250603.390625,281191.75,253104.546875,252697.84375,311728.0,1.0,4
231827.203125,276898.25,271898.625,265811.53125,249151.234375,280584.78125,252631.859375,252052.9375,311729.0,1.0,4
231599.671875,276717.84375,271818.5,265853.53125,248703.21875,280347.9375,252575.4375,251996.4375,311730.0,1.0,4
232146.390625,277796.78125,273229.34375,266308.53125,249876.78125,280812.65625,253016.484375,252617.734375,311731.0,1.0,4
232710.8125,278647.59375,274194.5,266547.4375,251055.34375,281334.1875,253332.265625,253050.015625,311732.0,1.0,4
232521.90625,278095.78125,273374.46875,266236.75,250607.59375,281193.28125,253089.796875,252703.375,311733.0,1.0,4
231831.671875,276894.40625,271903.09375,265802.40625,249152.671875,280583.53125,252614.875,252044.625,311734.0,1.0,4
231598.5,276704.875,271815.09375,265843.53125,248697.953125,280346.21875,252559.34375,251980.96875,311735.0,1.0,4
232142.640625,277777.75,273224.34375,266299.84375,249871.59375,280814.375,253010.046875,252600.734375,311736.0,1.0,4
232713.234375,278639.53125,274198.4375,266547.0625,251060.703125,281339.28125,253346.671875,253049.390625,311737.0,1.0,4
232521.09375,278091.03125,273382.15625,266239.5,250616.53125,281200.59375,253101.953125,252702.21875,311738.0,1.0,4
231833.640625,276892.53125,271915.59375,265812.3125,249167.78125,280595.15625,252632.03125,252058.21875,311739.0,1.0,4
231603.875,276703.4375,271822.625,265854.4375,248712.25,280361.78125,252591.0,251997.875,311740.0,1.0,4
232139.0625,277770.3125,273224.0625,266305.21875,249873.46875,280823.21875,253031.421875,252599.21875,311741.0,1.0,4
232709.296875,278631.59375,274201.65625,266552.6875,251061.515625,281344.625,253364.28125,253051.078125,311742.0,1.0,4
232527.71875,278094.6875,273392.78125,266250.5,250629.5,281207.59375,253122.703125,252712.765625,311743.0,1.0,4
231830.34375,276890.65625,271918.8125,265817.6875,249173.6875,280594.5,252641.78125,252056.96875,311744.0,1.0,4
231592.15625,276696.625,271823.34375,265856.5,248708.859375,280358.40625,252592.25,251994.390625,311745.0,1.0,4
232137.265625,277772.5625,273226.03125,266309.78125,249870.078125,280816.875,253034.640625,252607.984375,311746.0,1.0,4
232708.046875,278637.9375,274209.59375,266557.34375,251061.15625,281340.25,253361.328125,253051.625,311747.0,1.0,4
232522.609375,278104.25,273407.53125,266253.375,250629.5,281208.03125,253121.890625,252717.859375,311748.0,1.0,4
231831.5,276904.25,271931.15625,265818.84375,249172.34375,280592.28125,252640.171875,252065.015625,311749.0,1.0,4
231587.59375,276699.84375,271823.875,265852.8125,248700.359375,280351.96875,252584.203125,251988.9375,311750.0,1.0,4
232122.25,277765.0625,273219.25,266300.40625,249853.890625,280806.15625,253017.828125,252589.390625,311751.0,1.0,4
232701.96875,278636.15625,274204.875,266549.125,251052.21875,281324.0625,253341.125,253037.9375,311752.0,1.0,4
232520.375,278101.65625,273407.0,266246.9375,250630.65625,281194.78125,253105.71875,252710.53125,311753.0,1.0,4
231833.28125,276902.375,271933.03125,265811.6875,249179.578125,280592.71875,252636.6875,252053.65625,311754.0,1.0,4
231594.921875,276699.21875,271822.53125,265845.40625,248702.859375,280348.375,252580.890625,251980.25,311755.0,1.0,4
232130.5625,277763.875,273218.15625,266298.15625,249858.1875,280801.75,253019.078125,252584.5625,311756.0,1.0,4
232699.734375,278633.375,274203.4375,266551.09375,251056.328125,281328.375,253356.40625,253039.015625,311757.0,1.0,4
232516.359375,278102.46875,273409.5,266252.90625,250636.65625,281209.0,253126.71875,252712.046875,311758.0,1.0,4
231830.609375,276898.6875,271937.9375,265821.8125,249185.75,280605.25,252658.140625,252067.15625,311759.0,1.0,4
231591.984375,276694.3125,271822.78125,265858.0,248709.125,280364.46875,252606.828125,251992.953125,311760.0,1.0,4
232125.734375,277757.90625,273212.0,266308.34375,249860.6875,280814.0,253039.8125,252591.625,311761.0,1.0,4
232702.234375,278629.0,274203.0,266557.15625,251061.6875,281331.40625,253360.515625,253041.96875,311762.0,1.0,4
232529.046875,278107.03125,273416.21875,266257.375,250648.984375,281207.125,253124.9375,252717.859375,311763.0,1.0,4
231834.09375,276897.625,271935.0,265818.21875,249190.578125,280601.21875,252647.5,252055.09375,311764.0,1.0,4
231589.828125,276683.0625,271811.0,265849.4375,248701.53125,280352.21875,252585.8125,251978.5625,311765.0,1.0,4
232122.703125,277746.1875,273205.03125,266302.375,249846.375,280804.34375,253020.234375,252590.640625,311766.0,1.0,4
232697.859375,278622.03125,274203.625,266555.84375,251048.09375,281323.625,253342.375,253043.9375,311767.0,1.0,4
232521.453125,278102.46875,273420.84375,266260.15625,250638.265625,281203.8125,253112.59375,252725.375,311768.0,1.0,4
231844.46875,276909.34375,271941.96875,265824.03125,249186.015625,280599.6875,252641.25,252058.125,311769.0,1.0,4
231600.203125,276690.90625,271812.5,265851.125,248693.03125,280351.78125,252582.765625,251979.984375,311770.0,1.0,4
232122.34375,277742.25,273198.3125,266297.96875,249831.453125,280800.78125,253009.15625,252578.21875,311771.0,1.0,4
232699.375,278627.84375,274202.1875,266553.15625,251038.890625,281328.1875,253345.328125,253039.546875,311772.0,1.0,4
232542.375,278125.375,273431.125,266257.65625,250641.828125,281210.875,253122.609375,252721.171875,311773.0,1.0,4
231858.859375,276920.96875,271951.625,265820.28125,249186.640625,280604.53125,252648.84375,252067.875,311774.0,1.0,4
231607.09375,276692.875,271816.8125,265848.625,248690.265625,280348.8125,252586.171875,251983.5625,311775.0,1.0,4
232117.875,277734.84375,273194.03125,266290.28125,249821.171875,280790.125,253019.4375,252580.09375,311776.0,1.0,4
232695.34375,278617.46875,274198.0625,266544.9375,251029.40625,281314.875,253342.8125,253037.3125,311777.0,1.0,4
232535.671875,278112.65625,273426.65625,266248.28125,250637.984375,281199.71875,253112.6875,252710.984375,311778.0,1.0,4
231857.15625,276912.125,271946.4375,265810.71875,249194.328125,280598.90625,252648.03125,252059.65625,311779.0,1.0,4
231590.09375,276669.28125,271796.15625,265832.96875,248689.359375,280342.21875,252580.453125,251971.3125,311780.0,1.0,4
232115.359375,277723.21875,273178.46875,266282.0625,249823.671875,280785.3125,253011.296875,252573.46875,311781.0,1.0,4
232705.625,278619.15625,274198.15625,266544.46875,251045.859375,281323.4375,253353.09375,253035.53125,311782.0,1.0,4
232542.640625,278115.71875,273436.78125,266251.65625,250661.328125,281214.71875,253128.15625,252717.78125,311783.0,1.0,4
231851.34375,276908.4375,271948.0625,265810.53125,249205.875,280608.65625,252649.015625,252058.9375,311784.0,1.0,4
231586.25,276668.5625,271793.28125,265833.6875,248693.921875,280348.46875,252580.984375,251970.15625,311785.0,1.0,4
232109.109375,277720.53125,273178.84375,266285.71875,249828.5,280797.46875,253015.765625,252574.8125,311786.0,1.0,4
232691.59375,278611.75,274195.9375,266545.71875,251045.234375,281327.28125,253354.625,253041.421875,311787.0,1.0,4
232531.109375,278113.28125,273434.8125,266250.6875,250659.453125,281215.90625,253119.484375,252714.28125,311788.0,1.0,4
231852.25,276914.78125,271951.375,265814.90625,249208.734375,280616.25,252649.828125,252061.625,311789.0,1.0,4
231592.25,276673.46875,271793.46875,265838.34375,248693.390625,280360.09375,252582.6875,251973.546875,311790.0,1.0,4
232108.296875,277718.125,273164.0,266279.5625,249814.8125,280784.9375,252996.640625,252560.78125,311791.0,1.0,4
232689.53125,278613.96875,274183.125,266539.46875,251033.609375,281318.4375,253340.9375,253028.734375,311792.0,1.0,4
232536.65625,278126.71875,273434.53125,266255.6875,250662.125,281221.34375,253134.234375,252732.96875,311793.0,1.0,4
231846.078125,276921.5,271946.1875,265815.71875,249209.984375,280617.5,252659.578125,252073.6875,311794.0,1.0,4
231584.46875,276673.40625,271780.78125,265832.4375,248684.09375,280341.9375,252577.140625,251969.796875,311795.0,1.0,4
232112.859375,277724.46875,273160.59375,266280.625,249810.171875,280781.375,253006.109375,252564.796875,311796.0,1.0,4
232692.578125,278617.1875,274185.8125,266541.71875,251031.46875,281315.125,253346.125,253031.765625,311797.0,1.0,4
232535.578125,278127.25,273440.625,266255.0625,250661.953125,281211.78125,253129.765625,252721.078125,311798.0,1.0,4
231860.015625,276931.5,271959.59375,265820.0,249215.609375,280614.0,252659.921875,252073.234375,311799.0,1.0,4
231599.3125,276680.625,271788.8125,265836.375,248691.515625,280352.40625,252587.859375,251967.5625,311800.0,1.0,4
232114.03125,277716.40625,273157.8125,266279.375,249811.0625,280785.84375,253011.125,252558.09375,311801.0,1.0,4
232695.96875,278610.65625,274189.21875,266543.75,251039.515625,281320.5,253352.03125,253028.640625,311802.0,1.0,4
232545.0625,278126.625,273449.5625,266258.8125,250678.671875,281219.8125,253130.65625,252721.171875,311803.0,1.0,4
231865.65625,276923.1875,271959.84375,265819.03125,249228.484375,280614.71875,252648.390625,252064.84375,311804.0,1.0,4
231596.625,276661.78125,271781.65625,265834.21875,248693.65625,280343.46875,252568.90625,251964.515625,311805.0,1.0,4
232110.890625,277697.09375,273152.90625,266280.625,249808.5625,280780.9375,252995.921875,252561.21875,311806.0,1.0,4
232702.59375,278605.65625,274192.53125,266548.3125,251042.375,281321.125,253345.328125,253037.671875,311807.0,1.0,4
232550.515625,278124.90625,273456.0,266262.3125,250684.921875,281214.90625,253122.15625,252731.09375,311808.0,1.0,4
231871.640625,276928.1875,271969.4375,265824.40625,249238.5,280615.09375,252647.40625,252067.421875,311809.0,1.0,4
231602.796875,276668.75,271785.6875,265836.8125,248698.390625,280346.15625,252572.125,251963.71875,311810.0,1.0,4
232114.65625,277703.71875,273152.53125,266281.53125,249808.390625,280781.1875,252998.875,252556.125,311811.0,1.0,4
232698.296875,278610.75,274193.78125,266547.6875,251039.515625,281320.21875,253348.90625,253030.96875,311812.0,1.0,4
232548.0,278137.15625,273464.9375,266262.75,250685.203125,281225.625,253136.46875,252727.875,311813.0,1.0,4
231865.390625,276933.21875,271974.15625,265819.5625,249237.078125,280621.25,252652.859375,252068.5,311814.0,1.0,4
231592.96875,276664.1875,271782.84375,265833.0625,248692.765625,280351.0625,252577.40625,251967.296875,311815.0,1.0,4
232096.40625,277694.25,273142.4375,266276.625,249793.625,280785.40625,253000.84375,252555.0625,311816.0,1.0,4
232683.375,278605.9375,274186.53125,266544.125,251026.203125,281322.75,253347.734375,253033.203125,311817.0,1.0,4
232546.484375,278139.5625,273465.65625,266264.46875,250682.96875,281218.84375,253131.640625,252734.40625,311818.0,1.0,4
231867.890625,276936.0625,271976.84375,265823.40625,249237.25,280617.59375,252658.671875,252071.28125,311819.0,1.0,4
231591.359375,276658.65625,271777.65625,265832.625,248682.296875,280339.71875,252575.0,251968.90625,311820.0,1.0,4
232100.890625,277688.78125,273139.03125,266279.5625,249785.3125,280770.375,252999.140625,252568.828125,311821.0,1.0,4
232692.75,278606.375,274188.875,266549.3125,251029.6875,281312.71875,253347.296875,253030.875,311822.0,1.0,4
232559.984375,278150.125,273477.28125,266269.28125,250699.234375,281224.21875,253145.59375,252731.71875,311823.0,1.0,4
231881.390625,276944.28125,271985.25,265824.9375,249251.734375,280620.25,252661.265625,252068.953125,311824.0,1.0,4
231591.796875,276652.65625,271776.03125,265830.5625,248690.078125,280335.78125,252570.078125,251963.71875,311825.0,1.0,4
232092.390625,277676.90625,273133.6875,266275.375,249787.90625,280766.1875,252992.34375,252562.390625,311826.0,1.0,4
232686.953125,278593.5,274186.8125,266545.71875,251032.359375,281309.40625,253338.34375,253031.421875,311827.0,1.0,4
232556.140625,278137.53125,273477.09375,266267.21875,250703.25,281221.34375,253130.390625,252728.5,311828.0,1.0,4
231876.03125,276930.96875,271982.125,265823.5,249259.15625,280621.59375,252654.46875,252064.65625,311829.0,1.0,4
231581.609375,276633.96875,271763.6875,265824.125,248690.609375,280337.1875,252559.96875,251945.828125,311830.0,1.0,4
232092.296875,277665.8125,273120.53125,266270.4375,249786.03125,280767.0625,252986.0,252539.859375,311831.0,1.0,4
232687.296875,278589.84375,274180.28125,266545.5625,251031.375,281308.4375,253337.984375,253027.921875,311832.0,1.0,4
232554.359375,278138.9375,273475.46875,266268.125,250707.109375,281221.0,253129.859375,252733.421875,311833.0,1.0,4
231877.28125,276938.40625,271981.03125,265828.59375,249265.140625,280628.21875,252659.125,252073.0625,311834.0,1.0,4
231595.734375,276654.53125,271763.78125,265834.5,248695.625,280346.6875,252575.625,251960.3125,311835.0,1.0,4
232098.109375,277675.46875,273118.5625,266278.84375,249785.3125,280772.15625,252999.671875,252551.75,311836.0,1.0,4
232689.1875,278599.03125,274184.75,266555.125,251033.890625,281319.96875,253356.59375,253042.859375,311837.0,1.0,4
232560.171875,278153.09375,273484.59375,266277.25,250708.265625,281227.53125,253142.8125,252749.6875,311838.0,1.0,4
231881.203125,276942.875,271987.84375,265828.3125,249262.109375,280622.40625,252662.703125,252072.796875,311839.0,1.0,4
231592.609375,276645.3125,271761.28125,265825.65625,248681.59375,280340.34375,252569.53125,251947.4375,311840.0,1.0,4
232097.484375,277668.65625,273111.78125,266266.59375,249768.59375,280763.5,252986.625,252528.765625,311841.0,1.0,4
232687.578125,278591.34375,274178.5,266543.75,251021.8125,281303.5,253342.8125,253020.234375,311842.0,1.0,4
232571.703125,278161.125,273495.15625,266277.15625,250717.390625,281228.5,253146.75,252741.734375,311843.0,1.0,4
231896.046875,276956.71875,271999.375,265832.25,249277.03125,280627.15625,252661.359375,252074.578125,311844.0,1.0,4
231591.796875,276645.6875,271759.0625,265823.78125,248685.4375,280331.21875,252560.421875,251950.484375,311845.0,1.0,4
232084.4375,277657.5,273103.71875,266261.6875,249764.578125,280751.96875,252979.015625,252527.421875,311846.0,1.0,4
232684.4375,278592.59375,274180.1875,266545.625,251026.28125,281304.75,253345.0625,253023.90625,311847.0,1.0,4
232571.15625,278162.90625,273497.65625,266276.15625,250726.59375,281227.34375,253136.921875,252742.625,311848.0,1.0,4
231890.6875,276949.65625,271998.3125,265827.53125,249281.6875,280622.6875,252649.296875,252070.734375,311849.0,1.0,4
231593.5,276637.375,271756.46875,265825.5625,248692.3125,280330.9375,252555.5,251944.21875,311850.0,1.0,4
232089.625,277653.65625,273101.40625,266270.1875,249774.3125,280751.59375,252975.984375,252530.109375,311851.0,1.0,4
232691.5,278591.96875,274183.78125,266552.875,251040.40625,281303.0625,253340.3125,253028.46875,311852.0,1.0,4
232566.15625,278155.59375,273500.15625,266278.9375,250737.5,281226.1875,253139.515625,252743.25,311853.0,1.0,4
231885.859375,276946.96875,271999.5625,265833.96875,249292.859375,280630.90625,252662.4375,252081.734375,311854.0,1.0,4
231585.0,276630.65625,271747.0625,265825.46875,248690.796875,280332.375,252560.234375,251952.265625,311855.0,1.0,4
232078.265625,277643.0,273088.34375,266266.875,249761.796875,280750.4375,252978.21875,252528.953125,311856.0,1.0,4
232685.0625,278588.40625,274175.09375,266552.25,251028.875,281307.28125,253343.71875,253021.84375,311857.0,1.0,4
232568.65625,278161.5625,273502.40625,266284.03125,250740.890625,281233.3125,253151.125,252744.515625,311858.0,1.0,4
231884.421875,276950.03125,271997.75,265829.84375,249293.40625,280631.4375,252672.984375,252081.5625,311859.0,1.0,4
231581.34375,276628.78125,271738.40625,265815.8125,248685.078125,280328.71875,252563.640625,251943.875,311860.0,1.0,4
232076.46875,277639.4375,273074.125,266255.6875,249752.5,280743.375,252975.796875,252531.09375,311861.0,1.0,4
232676.578125,278581.15625,274163.03125,266541.15625,251019.40625,281296.53125,253341.125,253036.59375,311862.0,1.0,4
232561.0625,278158.09375,273495.34375,266270.1875,250734.375,281227.78125,253145.3125,252741.5625,311863.0,1.0,4
231888.453125,276953.0625,271993.28125,265818.5,249291.875,280629.90625,252667.0,252071.625,311864.0,1.0,4
231587.15625,276628.59375,271729.625,265805.71875,248680.6875,280323.78125,252555.59375,251934.921875,311865.0,1.0,4
232069.5,277627.28125,273062.4375,266241.46875,249741.78125,280739.71875,252972.234375,252505.703125,311866.0,1.0,4
232670.234375,278569.4375,274155.34375,266527.5625,251012.15625,281288.125,253327.359375,253003.515625,311867.0,1.0,4
232569.546875,278161.40625,273498.0,266265.0,250737.59375,281220.28125,253136.015625,252740.03125,311868.0,1.0,4
231894.171875,276952.6875,271993.5625,265815.375,249297.328125,280628.84375,252661.09375,252069.390625,311869.0,1.0,4
231576.515625,276613.75,271718.28125,265797.21875,248674.078125,280323.875,252553.53125,251925.546875,311870.0,1.0,4
232055.015625,277609.21875,273048.84375,266232.90625,249728.453125,280729.96875,252956.046875,252500.15625,311871.0,1.0,4
232664.953125,278562.03125,274149.625,266523.65625,251002.953125,281277.21875,253318.40625,253004.765625,311872.0,1.0,4
232563.5625,278158.625,273500.78125,266268.84375,250738.3125,281221.34375,253139.0625,252744.59375,311873.0,1.0,4
231888.984375,276952.34375,271999.71875,265824.3125,249301.625,280628.3125,252666.28125,252089.609375,311874.0,1.0,4
231571.421875,276607.40625,271717.90625,265805.78125,248674.171875,280319.40625,252549.25,251938.953125,311875.0,1.0,4
232051.796875,277602.5,273043.375,266239.875,249720.765625,280721.46875,252951.671875,252503.46875,311876.0,1.0,4
232668.078125,278565.15625,274154.09375,266535.71875,251001.15625,281281.78125,253321.8125,253005.671875,311877.0,1.0,4
232568.578125,278163.375,273510.34375,266280.625,250741.796875,281220.71875,253140.578125,252748.53125,311878.0,1.0,4
231886.84375,276949.46875,272007.15625,265830.375,249303.765625,280621.6875,252662.25,252087.546875,311879.0,1.0,4
231579.90625,276617.25,271727.84375,265816.15625,248678.640625,280323.0625,252559.078125,251948.78125,311880.0,1.0,4
232063.6875,277616.8125,273054.03125,266252.125,249733.453125,280737.03125,252977.328125,252520.453125,311881.0,1.0,4
232667.1875,278569.4375,274158.09375,266541.4375,251011.890625,281290.5625,253347.828125,253017.109375,311882.0,1.0,4
232570.71875,278172.84375,273517.3125,266285.1875,250754.9375,281234.40625,253165.34375,252766.328125,311883.0,1.0,4
231889.34375,276960.21875,272003.5625,265826.90625,249310.828125,280627.78125,252674.5,252092.1875,311884.0,1.0,4
231565.6875,276606.875,271707.625,265802.3125,248674.703125,280318.4375,252557.5625,251933.859375,311885.0,1.0,4
232046.34375,277600.71875,273026.9375,266235.125,249717.28125,280719.5,252959.0,252504.453125,311886.0,1.0,4
232656.546875,278558.1875,274132.1875,266519.0,250992.3125,281269.09375,253319.75,252988.234375,311887.0,1.0,4
232561.515625,278166.125,273498.0,266263.125,250741.25,281217.875,253138.171875,252729.75,311888.0,1.0,4
231879.59375,276947.78125,271991.0625,265812.6875,249299.75,280619.5625,252657.0625,252075.390625,311889.0,1.0,4
231562.03125,276596.9375,271698.4375,265796.59375,248661.203125,280310.90625,252543.96875,251938.859375,311890.0,1.0,4
232052.15625,277597.40625,273022.1875,266234.3125,249707.796875,280715.40625,252946.484375,252501.859375,311891.0,1.0,4
232666.46875,278559.15625,274138.96875,266528.90625,250995.890625,281276.0625,253316.0,252998.875,311892.0,1.0,4
232568.65625,278164.34375,273506.59375,266271.25,250749.390625,281227.96875,253137.453125,252736.1875,311893.0,1.0,4
231889.96875,276954.65625,271998.21875,265820.28125,249311.28125,280635.71875,252659.390625,252075.296875,311894.0,1.0,4
231571.59375,276602.5,271694.6875,265798.90625,248666.75,280323.78125,252549.15625,251930.375,311895.0,1.0,4
232050.28125,277592.9375,273013.34375,266234.59375,249704.578125,280726.375,252960.0625,252496.40625,311896.0,1.0,4
232663.15625,278558.28125,274133.59375,266529.09375,250993.03125,281281.78125,253328.328125,252997.078125,311897.0,1.0,4
232574.203125,278173.8125,273513.125,266279.75,250755.203125,281229.03125,253148.359375,252747.546875,311898.0,1.0,4
231902.84375,276963.0625,272005.625,265828.78125,249319.5,280637.6875,252671.1875,252084.234375,311899.0,1.0,4
231573.109375,276597.5625,271694.5,265801.3125,248668.4375,280324.40625,252557.015625,251929.390625,311900.0,1.0,4
232043.125,277582.21875,273008.34375,266235.40625,249698.859375,280723.0,252962.390625,252499.796875,311901.0,1.0,4
232666.921875,278559.15625,274137.375,266533.5625,250991.59375,281277.75,253330.484375,253001.90625,311902.0,1.0,4
232576.265625,278177.9375,273522.59375,266283.75,250761.546875,281231.8125,253157.484375,252749.875,311903.0,1.0,4
231889.4375,276958.78125,272009.375,265823.59375,249320.40625,280629.21875,252662.875,252074.765625,311904.0,1.0,4
231563.09375,276596.78125,271694.40625,265795.25,248665.84375,280315.5625,252546.03125,251911.328125,311905.0,1.0,4
232049.109375,277593.21875,273013.6875,266236.1875,249703.328125,280724.25,252964.53125,252492.65625,311906.0,1.0,4
232662.8125,278558.4375,274140.40625,266529.28125,250993.5625,281281.59375,253326.640625,252991.453125,311907.0,1.0,4
232581.171875,278184.375,273529.40625,266277.78125,250767.8125,281240.46875,253149.609375,252737.359375,311908.0,1.0,4
231911.515625,276979.625,272020.5625,265828.78125,249337.390625,280653.6875,252681.03125,252090.5,311909.0,1.0,4
231580.171875,276607.21875,271698.0625,265797.9375,248674.4375,280338.8125,252559.171875,251924.5625,311910.0,1.0,4
232053.40625,277586.25,273004.5625,266223.875,249693.859375,280721.84375,252946.125,252472.265625,311911.0,1.0,4
232671.203125,278560.3125,274135.75,266524.53125,250985.421875,281277.125,253316.53125,252991.1875,311912.0,1.0,4
232589.671875,278191.4375,273533.15625,266281.625,250767.8125,281240.9375,253152.296875,252755.59375,311913.0,1.0,4
231913.84375,276978.0,272019.03125,265827.0,249331.3125,280650.5625,252674.5,252080.03125,311914.0,1.0,4
231583.390625,276602.75,271687.53125,265796.9375,248662.546875,280332.90625,252561.140625,251914.546875,311915.0,1.0,4
232059.21875,277585.6875,272996.71875,266230.3125,249684.90625,280726.9375,252957.46875,252476.375,311916.0,1.0,4
232679.796875,278561.65625,274135.65625,266532.84375,250983.734375,281283.21875,253328.421875,252993.234375,311917.0,1.0,4
232594.3125,278190.375,273534.5,266286.4375,250769.421875,281244.0625,253159.53125,252755.0625,311918.0,1.0,4
231928.15625,276989.28125,272029.5,265836.28125,249343.015625,280661.5625,252689.515625,252099.171875,311919.0,1.0,4
231591.53125,276606.6875,271693.875,265800.96875,248667.28125,280329.4375,252558.1875,251927.234375,311920.0,1.0,4
232056.53125,277581.78125,272996.8125,266232.09375,249681.96875,280718.15625,252949.15625,252474.859375,311921.0,1.0,4
232681.671875,278569.1875,274143.1875,266540.0,250988.90625,281285.4375,253331.109375,252998.0625,311922.0,1.0,4
232605.765625,278207.15625,273549.96875,266296.71875,250780.234375,281242.90625,253162.578125,252757.65625,311923.0,1.0,4
231926.8125,276991.9375,272037.8125,265845.40625,249347.9375,280658.4375,252687.203125,252084.421875,311924.0,1.0,4
231588.140625,276605.8125,271698.0625,265814.8125,248673.71875,280334.6875,252561.140625,251921.15625,311925.0,1.0,4
232056.453125,277581.40625,272998.21875,266247.65625,249689.921875,280714.3125,252953.0,252485.859375,311926.0,1.0,4
232675.40625,278565.25,274142.1875,266548.9375,250993.828125,281274.71875,253323.328125,252993.859375,311927.0,1.0,4
232602.1875,278212.8125,273556.75,266304.59375,250794.1875,281244.59375,253157.921875,252753.09375,311928.0,1.0,4
231928.421875,277004.375,272045.875,265848.875,249366.71875,280658.1875,252678.171875,252092.90625,311929.0,1.0,4
231590.734375,276617.34375,271700.03125,265810.90625,248684.0,280333.625,252547.359375,251923.484375,311930.0,1.0,4
232054.65625,277590.4375,273000.5625,266243.0,249691.625,280724.875,252954.96875,252487.546875,311931.0,1.0,4
232673.796875,278575.875,274150.59375,266544.21875,250990.609375,281287.6875,253328.328125,252993.6875,311932.0,1.0,4
232607.46875,278232.21875,273573.21875,266304.40625,250798.46875,281260.15625,253166.859375,252760.15625,311933.0,1.0,4
231932.0,277023.25,272061.59375,265849.6875,249371.546875,280675.59375,252693.453125,252104.796875,311934.0,1.0,4
231589.65625,276631.09375,271703.09375,265807.5,248677.65625,280343.625,252565.421875,251932.328125,311935.0,1.0,4
232048.484375,277598.3125,272994.21875,266236.1875,249676.234375,280728.0,252958.453125,252482.71875,311936.0,1.0,4
232674.703125,278591.96875,274150.25,266545.90625,250985.34375,281297.4375,253345.6875,253007.0,311937.0,1.0,4
232609.078125,278253.9375,273577.3125,266307.0,250794.09375,281272.75,253188.234375,252777.40625,311938.0,1.0,4
231942.984375,277052.125,272067.6875,265852.09375,249364.390625,280687.6875,252705.078125,252105.875,311939.0,1.0,4
231592.609375,276646.03125,271703.15625,265808.21875,248664.59375,280346.40625,252564.171875,251921.96875,311940.0,1.0,4
232053.765625,277610.75,272997.25,266238.71875,249665.953125,280738.1875,252971.6875,252483.4375,311941.0,1.0,4
232678.8125,278604.0625,274155.6875,266549.125,250977.109375,281303.5,253351.84375,253020.859375,311942.0,1.0,4
232614.4375,278265.65625,273584.75,266309.59375,250791.40625,281271.78125,253181.4375,252789.390625,311943.0,1.0,4
231946.203125,277055.15625,272072.40625,265851.03125,249369.390625,280689.71875,252698.015625,252111.953125,311944.0,1.0,4
231588.40625,276638.875,271697.71875,265800.34375,248661.109375,280346.84375,252553.890625,251925.546875,311945.0,1.0,4
232045.453125,277597.5,272986.6875,266232.90625,249661.484375,280727.28125,252952.375,252494.53125,311946.0,1.0,4
232667.28125,278585.71875,274146.75,266542.0625,250975.328125,281288.9375,253325.03125,253018.8125,311947.0,1.0,4
232609.96875,278253.84375,273586.53125,266306.21875,250800.4375,281276.78125,253171.0625,252788.5,311948.0,1.0,4
231942.984375,277044.15625,272074.46875,265850.6875,249376.015625,280689.65625,252692.65625,252124.03125,311949.0,1.0,4
231591.625,276626.46875,271703.78125,265805.0,248668.71875,280346.21875,252553.09375,251948.421875,311950.0,1.0,4
232040.53125,277576.5,272983.65625,266229.6875,249657.46875,280717.53125,252939.328125,252494.796875,311951.0,1.0,4
232671.84375,278576.59375,274150.25,266541.71875,250975.140625,281285.375,253322.25,253014.515625,311952.0,1.0,4
232616.5,278249.8125,273598.34375,266310.9375,250810.09375,281270.6875,253173.84375,252796.546875,311953.0,1.0,4
231940.3125,277034.78125,272085.84375,265852.375,249385.484375,280685.8125,252694.34375,252122.859375,311954.0,1.0,4
231580.09375,276614.65625,271702.53125,265800.6875,248663.4375,280342.375,252550.5,251925.71875,311955.0,1.0,4
232041.875,277577.3125,272988.03125,266231.71875,249649.59375,280722.625,252954.4375,252483.625,311956.0,1.0,4
232670.140625,278579.625,274164.0,266545.5625,250971.03125,281292.0625,253340.671875,253004.59375,311957.0,1.0,4
232609.609375,278255.28125,273616.5625,266317.28125,250808.9375,281277.84375,253193.15625,252787.609375,311958.0,1.0,4
231934.765625,277047.75,272103.1875,265859.875,249381.46875,280692.25,252709.109375,252123.578125,311959.0,1.0,4
231586.53125,276634.84375,271720.875,265810.71875,248665.3125,280350.6875,252567.21875,251932.25,311960.0,1.0,4
232038.65625,277588.65625,273000.375,266236.8125,249650.484375,280727.1875,252960.609375,252480.75,311961.0,1.0,4
232661.828125,278588.84375,274171.25,266549.75,250969.0625,281296.8125,253344.078125,253008.171875,311962.0,1.0,4
232607.734375,278271.90625,273626.5,266321.59375,250808.84375,281282.78125,253190.109375,252792.34375,311963.0,1.0,4
231941.65625,277065.34375,272114.09375,265868.28125,249390.40625,280689.28125,252710.171875,252137.34375,311964.0,1.0,4
231581.34375,276634.15625,271716.65625,265814.65625,248660.75,280343.1875,252559.25,251939.75,311965.0,1.0,4
232033.203125,277578.375,272985.96875,266235.5,249636.984375,280712.875,252940.046875,252468.234375,311966.0,1.0,4
232667.8125,278584.8125,274163.03125,266550.90625,250961.90625,281283.21875,253330.03125,253001.015625,311967.0,1.0,4
232616.578125,278270.8125,273628.375,266327.40625,250814.84375,281279.46875,253188.5,252799.046875,311968.0,1.0,4
231948.71875,277062.9375,272117.3125,265871.0625,249400.859375,280701.1875,252708.484375,252134.03125,311969.0,1.0,4
231592.96875,276632.4375,271717.46875,265814.375,248670.5,280348.46875,252560.15625,251936.890625,311970.0,1.0,4
232036.328125,277570.9375,272981.875,266235.5625,249636.625,280717.4375,252951.3125,252480.9375,311971.0,1.0,4
232667.90625,278576.59375,274163.75,266549.125,250962.265625,281277.125,253328.875,253006.921875,311972.0,1.0,4
232615.953125,278263.84375,273628.375,266318.8125,250816.71875,281269.8125,253175.625,252786.53125,311973.0,1.0,4
231948.0,277055.34375,272111.40625,265862.03125,249399.25,280693.5,252700.078125,252118.75,311974.0,1.0,4
231574.0,276608.21875,271697.34375,265801.875,248656.46875,280334.53125,252546.46875,251920.265625,311975.0,1.0,4
232020.234375,277550.125,272966.59375,266227.34375,249626.34375,280704.03125,252937.8125,252469.765625,311976.0,1.0,4
232658.0625,278564.0,274155.59375,266547.15625,250958.78125,281277.9375,253327.890625,253008.796875,311977.0,1.0,4
232611.046875,278259.28125,273628.28125,266321.3125,250817.515625,281266.59375,253181.0,252802.09375,311978.0,1.0,4
231947.546875,277056.21875,272116.0625,265866.5,249401.765625,280690.4375,252702.9375,252138.15625,311979.0,1.0,4
231585.1875,276615.71875,271704.875,265809.90625,248660.21875,280341.03125,252551.125,251933.140625,311980.0,1.0,4
232028.546875,277556.5625,272970.4375,266234.875,249623.84375,280710.46875,252942.09375,252479.953125,311981.0,1.0,4
232656.90625,278570.4375,274158.5625,266555.28125,250950.375,281282.3125,253333.25,253025.609375,311982.0,1.0,4
232618.28125,278276.5625,273642.40625,266333.84375,250820.46875,281282.21875,253192.171875,252817.734375,311983.0,1.0,4
231952.46875,277066.78125,272125.0,265871.59375,249403.640625,280698.21875,252705.96875,252145.125,311984.0,1.0,4
231585.71875,276620.65625,271704.78125,265809.28125,248655.5625,280339.53125,252544.6875,251932.6875,311985.0,1.0,4
232023.71875,277554.59375,272964.96875,266226.53125,249612.765625,280704.3125,252930.03125,252468.953125,311986.0,1.0,4
232656.546875,278571.15625,274160.78125,266548.3125,250948.765625,281276.0625,253327.0,253009.0625,311987.0,1.0,4
232620.25,278278.15625,273648.9375,266328.5625,250821.09375,281272.03125,253180.375,252807.546875,311988.0,1.0,4
231958.8125,277070.625,272135.71875,265871.15625,249408.90625,280693.65625,252698.90625,252136.984375,311989.0,1.0,4
231585.359375,276615.71875,271707.625,265809.625,248657.265625,280332.28125,252547.015625,251936.171875,311990.0,1.0,4
232030.78125,277551.28125,272964.0625,266230.5625,249614.734375,280694.03125,252932.890625,252470.125,311991.0,1.0,4
232667.453125,278568.375,274163.46875,266554.03125,250954.9375,281267.125,253323.78125,253010.21875,311992.0,1.0,4
232625.875,278272.53125,273653.6875,266330.53125,250832.546875,281263.71875,253178.9375,252799.84375,311993.0,1.0,4
231954.34375,277057.125,272134.125,265867.125,249419.546875,280685.25,252699.359375,252134.3125,311994.0,1.0,4
231580.890625,276599.625,271699.6875,265802.3125,248663.53125,280332.1875,252547.1875,251922.046875,311995.0,1.0,4
232028.46875,277537.875,272959.25,266227.4375,249616.515625,280701.34375,252937.984375,252458.3125,311996.0,1.0,4
232668.625,278562.75,274163.75,266554.21875,250954.140625,281278.75,253330.75,253005.3125,311997.0,1.0,4
232636.78125,278282.8125,273664.21875,266338.65625,250841.484375,281288.75,253201.203125,252820.421875,311998.0,1.0,4
231973.828125,277072.9375,272146.09375,265874.8125,249427.234375,280703.78125,252712.953125,252145.65625,311999.0,1.0,4
231597.703125,276608.125,271706.75,265807.125,248664.875,280340.875,252548.4375,251931.265625,312000.0,1.0,4
232034.625,277536.78125,272953.15625,266222.15625,249605.421875,280693.5625,252922.25,252459.484375,312001.0,1.0,4
232673.984375,278568.09375,274161.5,266550.09375,250948.765625,281273.46875,253321.359375,253007.0,312002.0,1.0,4
232633.921875,278281.375,273662.78125,266331.6875,250834.234375,281273.375,253178.84375,252810.84375,312003.0,1.0,4
231974.734375,277080.5625,272150.21875,265877.5,249425.1875,280701.0,252707.140625,252153.171875,312004.0,1.0,4
231598.421875,276615.0,271703.34375,265808.46875,248656.46875,280338.46875,252544.140625,251930.1875,312005.0,1.0,4
232029.265625,277540.46875,272948.0625,266225.46875,249595.765625,280693.65625,252928.859375,252468.515625,312006.0,1.0,4
232667.1875,278569.28125,274158.28125,266553.59375,250940.90625,281273.65625,253331.109375,253009.0625,312007.0,1.0,4
232630.078125,278287.375,273663.96875,266335.96875,250835.40625,281283.40625,253197.890625,252810.84375,312008.0,1.0,4
231964.71875,277081.96875,272147.625,265877.78125,249426.703125,280703.15625,252715.265625,252150.3125,312009.0,1.0,4
231582.046875,276608.65625,271692.25,265803.03125,248651.640625,280323.34375,252536.8125,251925.09375,312010.0,1.0,4
232011.203125,277526.25,272930.8125,266217.15625,249586.75,280677.9375,252917.6875,252450.71875,312011.0,1.0,4
232655.203125,278561.5,274146.03125,266546.1875,250934.375,281258.09375,253318.234375,252997.984375,312012.0,1.0,4
232626.78125,278287.90625,273662.78125,266333.21875,250841.75,281269.71875,253184.65625,252813.359375,312013.0,1.0,4
231960.96875,277077.25,272144.03125,265873.03125,249434.390625,280692.59375,252707.765625,252159.703125,312014.0,1.0,4
231578.390625,276600.25,271681.25,265796.9375,248653.6875,280321.1875,252535.296875,251923.390625,312015.0,1.0,4
232006.5625,277516.0625,272919.5625,266212.40625,249587.640625,280677.5,252917.0625,252446.25,312016.0,1.0,4
232641.53125,278543.34375,274136.1875,266543.75,250937.5,281255.40625,253310.640625,252994.578125,312017.0,1.0,4
232619.171875,278281.375,273660.8125,266333.84375,250848.640625,281268.8125,253178.21875,252805.65625,312018.0,1.0,4
231959.796875,277074.84375,272144.9375,265871.15625,249440.65625,280691.25,252699.71875,252142.53125,312019.0,1.0,4
231567.125,276586.40625,271675.71875,265793.375,248655.84375,280323.875,252536.8125,251921.421875,312020.0,1.0,4
231990.828125,277498.1875,272907.21875,266206.25,249579.6875,280675.4375,252920.734375,252452.5,312021.0,1.0,4
232641.265625,278544.59375,274135.75,266542.25,250935.53125,281265.15625,253328.78125,253003.515625,312022.0,1.0,4
232624.71875,278286.28125,273668.875,266334.71875,250855.78125,281280.53125,253203.34375,252821.484375,312023.0,1.0,4
231970.890625,277086.0,272150.46875,265867.75,249448.703125,280703.3125,252715.625,252142.625,312024.0,1.0,4
231577.9375,276592.3125,271672.59375,265784.6875,248648.0625,280317.09375,252524.484375,251907.921875,312025.0,1.0,4
231999.765625,277502.09375,272904.8125,266203.5625,249571.0,280671.5,252909.375,252442.9375,312026.0,1.0,4
232644.125,278546.03125,274131.8125,266539.28125,250920.96875,281257.5625,253315.28125,252993.953125,312027.0,1.0,4
232635.265625,278299.25,273672.8125,266338.75,250850.328125,281283.40625,253200.3125,252828.46875,312028.0,1.0,4
231974.109375,277092.625,272154.3125,265876.15625,249451.015625,280709.21875,252720.015625,252155.3125,312029.0,1.0,4
231570.875,276591.3125,271669.1875,265788.0,248645.203125,280324.9375,252534.84375,251909.265625,312030.0,1.0,4
231994.671875,277498.875,272894.53125,266198.90625,249557.59375,280667.84375,252907.40625,252429.96875,312031.0,1.0,4
232647.875,278550.9375,274126.71875,266535.90625,250918.453125,281258.53125,253323.59375,252991.1875,312032.0,1.0,4
232631.25,278299.25,273666.53125,266328.65625,250848.1875,281276.96875,253193.328125,252812.90625,312033.0,1.0,4
231968.46875,277090.21875,272146.625,265863.09375,249444.3125,280695.625,252701.59375,252143.15625,312034.0,1.0,4
231573.828125,276592.46875,271664.28125,265781.65625,248642.421875,280319.78125,252529.484375,251912.75,312035.0,1.0,4
231996.359375,277500.6875,272888.875,266199.1875,249558.671875,280670.34375,252911.703125,252445.4375,312036.0,1.0,4
232645.109375,278547.8125,274122.25,266539.75,250920.34375,281254.34375,253318.6875,253005.75,312037.0,1.0,4
232633.296875,278296.3125,273671.28125,266335.875,250858.640625,281277.3125,253190.828125,252829.171875,312038.0,1.0,4
231971.6875,277085.75,272153.875,265872.125,249458.265625,280705.5625,252712.671875,252160.234375,312039.0,1.0,4
231579.109375,276585.0625,271662.5,265787.09375,248652.96875,280326.46875,252534.84375,251911.859375,312040.0,1.0,4
231990.828125,277477.59375,272875.03125,266194.09375,249554.28125,280660.6875,252897.84375,252423.71875,312041.0,1.0,4
232643.859375,278529.21875,274116.4375,266535.53125,250915.59375,281248.15625,253309.203125,252986.0,312042.0,1.0,4
232640.0,278292.28125,273678.25,266337.0625,250864.015625,281284.46875,253197.265625,252823.09375,312043.0,1.0,4
231982.328125,277088.6875,272162.28125,265873.84375,249466.84375,280717.625,252718.21875,252155.3125,312044.0,1.0,4
231578.921875,276579.6875,271658.71875,265783.96875,248646.546875,280330.75,252539.234375,251917.21875,312045.0,1.0,4
231998.515625,277478.875,272874.84375,266197.5,249547.9375,280665.3125,252903.5625,252433.1875,312046.0,1.0,4
232642.6875,278522.5,274109.65625,266532.0625,250903.625,281243.15625,253299.453125,252975.09375,312047.0,1.0,4
232635.453125,278287.46875,273670.65625,266332.125,250855.078125,281270.625,253179.203125,252801.28125,312048.0,1.0,4
231976.96875,277085.5625,272153.78125,265868.5625,249460.328125,280702.59375,252702.125,252144.046875,312049.0,1.0,4
231580.71875,276581.03125,271652.65625,265780.5,248643.953125,280320.21875,252524.125,251906.3125,312050.0,1.0,4
231988.046875,277468.84375,272861.875,266188.71875,249534.625,280652.53125,252891.3125,252422.109375,312051.0,1.0,4
232634.828125,278519.125,274104.90625,266530.15625,250894.046875,281237.53125,253302.671875,252987.421875,312052.0,1.0,4
232636.875,278296.65625,273676.75,266335.09375,250853.640625,281275.96875,253186.171875,252814.875,312053.0,1.0,4
231984.390625,277100.21875,272163.34375,265869.8125,249462.015625,280709.40625,252703.109375,252146.015625,312054.0,1.0,4
231580.0,276585.3125,271653.09375,265779.59375,248639.390625,280328.25,252528.046875,251903.8125,312055.0,1.0,4
231984.125,277469.03125,272859.46875,266188.375,249529.875,280662.65625,252892.484375,252421.65625,312056.0,1.0,4
232630.265625,278517.15625,274109.28125,266531.25,250896.90625,281245.125,253295.703125,252986.078125,312057.0,1.0,4
232636.609375,278297.375,273688.09375,266336.0625,250865.890625,281279.625,253183.9375,252821.578125,312058.0,1.0,4
231983.484375,277094.6875,272169.6875,265867.21875,249475.078125,280704.9375,252701.59375,252151.65625,312059.0,1.0,4
231574.1875,276569.59375,271649.4375,265773.25,248644.21875,280316.5625,252515.8125,251905.6875,312060.0,1.0,4
231984.75,277454.28125,272850.8125,266180.0625,249530.0625,280649.3125,252881.65625,252419.15625,312061.0,1.0,4
232636.15625,278510.71875,274102.21875,266525.25,250901.03125,281238.6875,253300.0,252991.625,312062.0,1.0,4
232639.46875,278292.375,273681.5625,266331.6875,250870.09375,281274.90625,253186.453125,252828.015625,312063.0,1.0,4
231987.34375,277094.15625,272166.03125,265868.28125,249482.578125,280706.09375,252703.828125,252152.71875,312064.0,1.0,4
231579.1875,276571.1875,271645.5,265775.40625,248651.359375,280321.1875,252529.390625,251906.046875,312065.0,1.0,4
231982.78125,277450.96875,272850.53125,266185.6875,249535.6875,280656.46875,252899.546875,252424.703125,312066.0,1.0,4
232634.203125,278508.28125,274102.5,266526.40625,250900.9375,281234.9375,253297.671875,252980.453125,312067.0,1.0,4
232651.265625,278305.53125,273693.375,266334.375,250879.921875,281285.625,253191.359375,252820.5,312068.0,1.0,4
232003.34375,277107.8125,272178.1875,265871.6875,249494.46875,280713.59375,252710.53125,252163.71875,312069.0,1.0,4
231587.6875,276568.875,271642.65625,265771.8125,248651.359375,280315.46875,252521.34375,251910.25,312070.0,1.0,4
231982.859375,277440.875,272834.4375,266173.34375,249524.34375,280646.5625,252877.546875,252409.40625,312071.0,1.0,4
232634.375,278503.28125,274091.6875,266517.84375,250894.59375,281230.1875,253280.40625,252961.5,312072.0,1.0,4
232651.625,278302.46875,273692.28125,266331.5,250881.71875,281275.625,253180.546875,252814.15625,312073.0,1.0,4
231999.9375,277103.0,272176.84375,265864.09375,249491.796875,280716.28125,252708.828125,252152.28125,312074.0,1.0,4
231573.734375,276557.875,271632.71875,265761.28125,248634.109375,280317.53125,252514.46875,251898.625,312075.0,1.0,4
231980.09375,277441.40625,272828.71875,266171.5625,249507.96875,280645.3125,252878.703125,252403.953125,312076.0,1.0,4
232630.703125,278503.71875,274088.28125,266515.875,250875.546875,281226.875,253283.8125,252966.6875,312077.0,1.0,4
232644.921875,278305.6875,273695.0625,266331.15625,250868.21875,281277.0625,253182.875,252818.890625,312078.0,1.0,4
231993.328125,277110.3125,272180.4375,265869.71875,249486.421875,280716.1875,252710.53125,252161.671875,312079.0,1.0,4
231575.34375,276566.8125,271637.28125,265770.3125,248635.984375,280325.3125,252520.28125,251903.640625,312080.0,1.0,4
231975.625,277438.0,272825.21875,266172.28125,249500.734375,280648.15625,252877.8125,252409.59375,312081.0,1.0,4
232622.296875,278494.34375,274085.0625,266517.375,250871.4375,281222.78125,253279.25,252972.234375,312082.0,1.0,4
232642.421875,278299.34375,273696.9375,266335.71875,250873.21875,281276.34375,253183.671875,252829.796875,312083.0,1.0,4
231995.46875,277101.65625,272179.53125,265864.0,249486.34375,280710.9375,252700.4375,252155.140625,312084.0,1.0,4
231576.15625,276555.90625,271627.71875,265761.4375,248631.34375,280315.65625,252510.265625,251891.46875,312085.0,1.0,4
231969.453125,277422.8125,272813.15625,266169.6875,249496.078125,280637.875,252877.90625,252405.5625,312086.0,1.0,4
232617.03125,278487.28125,274083.28125,266521.5,250873.9375,281229.46875,253295.4375,252978.75,312087.0,1.0,4
232648.671875,278308.28125,273705.4375,266339.65625,250886.453125,281289.65625,253195.484375,252821.75,312088.0,1.0,4
231994.40625,277105.9375,272182.9375,265867.65625,249500.375,280715.84375,252705.53125,252152.09375,312089.0,1.0,4
231571.765625,276552.78125,271622.15625,265758.40625,248634.375,280314.9375,252509.375,251885.671875,312090.0,1.0,4
231963.640625,277418.25,272802.4375,266161.8125,249490.71875,280642.34375,252877.546875,252397.15625,312091.0,1.0,4
232610.859375,278488.1875,274078.09375,266516.40625,250870.0,281238.5,253302.3125,252984.5625,312092.0,1.0,4
232641.34375,278310.53125,273704.625,266332.65625,250882.96875,281284.1875,253191.90625,252833.46875,312093.0,1.0,4
231996.640625,277115.40625,272189.53125,265862.46875,249503.234375,280718.0625,252707.140625,252161.03125,312094.0,1.0,4
231566.140625,276554.125,271624.65625,265754.9375,248633.75,280324.59375,252516.96875,251893.71875,312095.0,1.0,4
231950.671875,277407.34375,272796.09375,266148.59375,249476.859375,280628.65625,252856.265625,252379.453125,312096.0,1.0,4
232618.1875,278492.375,274080.0625,266506.3125,250862.046875,281221.09375,253279.25,252958.375,312097.0,1.0,4
232649.9375,278319.1875,273715.8125,266334.8125,250889.046875,281288.59375,253197.796875,252827.5625,312098.0,1.0,4
232001.375,277121.0625,272201.25,265871.96875,249511.90625,280729.25,252726.09375,252165.59375,312099.0,1.0,4
231570.4375,276553.84375,271624.125,265759.46875,248630.0,280313.40625,252511.875,251887.625,312100.0,1.0,4
231965.4375,277416.28125,272798.9375,266162.4375,249478.296875,280630.28125,252863.6875,252388.484375,312101.0,1.0,4
232618.734375,278489.59375,274082.65625,266519.34375,250862.9375,281222.59375,253282.828125,252973.84375,312102.0,1.0,4
232651.359375,278322.40625,273723.84375,266344.46875,250890.203125,281287.78125,253194.21875,252829.09375,312103.0,1.0,4
232011.75,277130.1875,272209.75,265876.53125,249517.28125,280726.125,252716.796875,252168.375,312104.0,1.0,4
231583.484375,276559.75,271632.09375,265767.53125,248638.9375,280320.75,252518.484375,251897.375,312105.0,1.0,4
231953.265625,277395.96875,272790.90625,266161.1875,249471.140625,280629.84375,252867.4375,252385.546875,312106.0,1.0,4
232604.6875,278468.5,274070.65625,266513.09375,250849.171875,281215.1875,253284.96875,252963.734375,312107.0,1.0,4
232658.421875,278318.21875,273725.5625,266345.09375,250892.984375,281287.40625,253205.9375,252846.25,312108.0,1.0,4
232016.65625,277122.84375,272212.15625,265875.53125,249521.5625,280727.65625,252725.828125,252173.734375,312109.0,1.0,4
231567.84375,276535.15625,271615.28125,265751.0,248623.5625,280307.0625,252505.796875,251880.484375,312110.0,1.0,4
231944.59375,277382.5625,272776.59375,266152.4375,249457.28125,280622.21875,252860.46875,252378.75,312111.0,1.0,4
232610.40625,278475.75,274070.40625,266511.65625,250847.03125,281214.5625,253280.6875,252961.046875,312112.0,1.0,4
232654.765625,278320.625,273723.3125,266339.03125,250888.78125,281276.0625,253184.390625,252825.25,312113.0,1.0,4
232014.515625,277130.875,272214.40625,265872.84375,249524.515625,280726.3125,252715.546875,252167.75,312114.0,1.0,4
231577.140625,276552.875,271620.46875,265756.25,248628.84375,280314.9375,252507.21875,251888.171875,312115.0,1.0,4
231957.296875,277402.875,272778.125,266152.25,249451.828125,280625.0,252863.953125,252385.71875,312116.0,1.0,4
232619.4375,278492.28125,274078.09375,266513.53125,250847.203125,281221.78125,253294.984375,252976.25,312117.0,1.0,4
232658.6875,278335.1875,273737.625,266342.0625,250893.421875,281285.0,253194.84375,252847.5,312118.0,1.0,4
232018.890625,277148.78125,272225.75,265876.53125,249524.0625,280732.8125,252721.53125,252180.078125,312119.0,1.0,4
231577.765625,276560.5625,271626.1875,265760.03125,248626.25,280320.03125,252519.375,251894.6875,312120.0,1.0,4
231955.5,277399.375,272776.3125,266150.71875,249446.109375,280617.59375,252861.359375,252377.671875,312121.0,1.0,4
232617.828125,278488.8125,274072.8125,266513.71875,250837.8125,281214.5625,253284.34375,252968.390625,312122.0,1.0,4
232663.796875,278341.09375,273738.59375,266348.21875,250890.390625,281285.28125,253205.140625,252846.609375,312123.0,1.0,4
232019.34375,277145.1875,272223.96875,265879.03125,249521.5625,280728.0,252725.28125,252171.59375,312124.0,1.0,4
231583.9375,276559.5625,271621.625,265762.0625,248622.9375,280315.3125,252518.9375,251891.921875,312125.0,1.0,4
231957.03125,277390.71875,272766.5,266153.21875,249439.765625,280613.375,252860.921875,252372.671875,312126.0,1.0,4
232612.46875,278474.0625,274062.4375,266513.90625,250835.671875,281212.125,253288.375,252953.28125,312127.0,1.0,4
232665.125,278332.59375,273731.8125,266348.84375,250897.984375,281281.59375,253198.703125,252836.953125,312128.0,1.0,4
232025.78125,277139.90625,272221.28125,265883.9375,249536.140625,280728.625,252727.078125,252183.484375,312129.0,1.0,4
231579.109375,276540.53125,271609.125,265761.375,248626.875,280308.21875,252511.328125,251890.765625,312130.0,1.0,4
231954.078125,277372.90625,272753.0625,266155.09375,249443.15625,280608.8125,252849.109375,252363.1875,312131.0,1.0,4
232614.53125,278461.875,274053.6875,266518.71875,250837.8125,281205.0625,253274.0625,252950.234375,312132.0,1.0,4
232659.765625,278315.4375,273725.90625,266350.46875,250895.03125,281269.09375,253183.765625,252830.34375,312133.0,1.0,4
232028.015625,277128.75,272218.5,265882.40625,249536.9375,280720.40625,252709.640625,252172.296875,312134.0,1.0,4
231583.75,276532.75,271603.9375,265758.78125,248628.296875,280307.53125,252503.734375,251885.03125,312135.0,1.0,4
231952.203125,277367.8125,272747.09375,266153.78125,249439.765625,280615.09375,252860.296875,252376.0625,312136.0,1.0,4
232613.09375,278464.5625,274052.875,266514.25,250834.0625,281206.78125,253283.1875,252960.875,312137.0,1.0,4
232670.765625,278334.21875,273739.0625,266348.6875,250906.921875,281285.375,253203.96875,252844.640625,312138.0,1.0,4
232040.984375,277152.53125,272232.71875,265884.5625,249552.234375,280740.0625,252735.03125,252185.453125,312139.0,1.0,4
231593.59375,276552.15625,271608.40625,265755.71875,248631.609375,280315.125,252520.546875,251889.515625,312140.0,1.0,4
231958.90625,277379.875,272748.6875,266149.65625,249436.453125,280613.5625,252868.15625,252372.578125,312141.0,1.0,4
232618.015625,278476.28125,274061.53125,266517.75,250836.03125,281214.375,253302.5,252964.453125,312142.0,1.0,4
232676.390625,278352.46875,273753.28125,266356.53125,250913.1875,281301.71875,253233.921875,252853.5,312143.0,1.0,4
232040.53125,277166.5625,272247.46875,265893.25,249553.125,280746.96875,252755.0625,252197.34375,312144.0,1.0,4
231588.765625,276558.5,271620.125,265764.125,248631.78125,280310.03125,252523.21875,251899.078125,312145.0,1.0,4
231958.8125,277386.875,272758.0,266157.625,249435.109375,280608.375,252873.171875,252383.125,312146.0,1.0,4
232621.40625,278484.5,274071.5625,266525.6875,250838.625,281211.15625,253298.46875,252961.046875,312147.0,1.0,4
232673.09375,278355.5,273761.75,266364.15625,250921.140625,281294.65625,253216.21875,252842.765625,312148.0,1.0,4
232039.8125,277173.09375,272251.40625,265898.25,249563.9375,280738.28125,252732.890625,252191.171875,312149.0,1.0,4
231592.0625,276567.71875,271622.34375,265770.84375,248644.84375,280322.28125,252514.46875,251889.515625,312150.0,1.0,4
231951.75,277387.125,272752.4375,266163.78125,249444.5,280617.125,252861.09375,252379.015625,312151.0,1.0,4
232614.265625,278487.0,274064.6875,266532.21875,250844.609375,281213.3125,253287.203125,252976.078125,312152.0,1.0,4
232675.5,278368.0,273764.4375,266372.53125,250931.609375,281304.21875,253213.359375,252862.53125,312153.0,1.0,4
232044.46875,277180.5,272255.53125,265901.90625,249579.765625,280749.46875,252734.046875,252186.515625,312154.0,1.0,4
231587.515625,276561.375,271615.90625,265769.6875,248648.953125,280324.0625,252514.640625,251887.71875,312155.0,1.0,4
231949.15625,277380.4375,272740.125,266156.8125,249433.046875,280615.09375,252859.9375,252368.90625,312156.0,1.0,4
232616.21875,278484.78125,274059.21875,266526.25,250835.84375,281213.9375,253298.828125,252967.046875,312157.0,1.0,4
232682.5625,278372.40625,273767.40625,266365.65625,250929.546875,281305.21875,253231.328125,252865.203125,312158.0,1.0,4
232046.609375,277186.5,272258.46875,265897.15625,249575.390625,280760.09375,252759.171875,252207.703125,312159.0,1.0,4
231591.359375,276573.625,271614.75,265769.3125,248637.15625,280335.0625,252535.296875,251903.640625,312160.0,1.0,4
231954.4375,277394.5625,272739.5,266160.90625,249423.21875,280626.15625,252878.96875,252381.78125,312161.0,1.0,4
232623.734375,278503.28125,274062.625,266530.15625,250829.40625,281225.28125,253309.65625,252974.640625,312162.0,1.0,4
232688.5625,278396.1875,273777.0625,266374.34375,250928.5625,281317.71875,253239.546875,252871.828125,312163.0,1.0,4
232060.109375,277222.71875,272272.15625,265907.8125,249580.125,280772.4375,252768.828125,252219.328125,312164.0,1.0,4
231596.890625,276595.53125,271621.625,265773.875,248639.5625,280342.3125,252543.34375,251918.296875,312165.0,1.0,4
231952.46875,277401.96875,272738.3125,266156.375,249413.109375,280625.90625,252868.6875,252381.515625,312166.0,1.0,4
232619.796875,278507.5625,274063.78125,266528.75,250816.71875,281222.78125,253297.578125,252971.609375,312167.0,1.0,4
232689.359375,278402.0625,273785.46875,266379.25,250925.171875,281318.875,253230.171875,252874.0625,312168.0,1.0,4
232067.984375,277230.125,272287.25,265916.125,249585.765625,280780.21875,252764.265625,252225.046875,312169.0,1.0,4
231603.328125,276596.59375,271627.71875,265773.0625,248639.296875,280336.75,252528.328125,251910.34375,312170.0,1.0,4
231958.015625,277399.75,272740.28125,266156.90625,249413.5625,280616.5,252853.40625,252374.359375,312171.0,1.0,4
232623.828125,278503.71875,274067.71875,266529.46875,250820.375,281213.65625,253283.625,252977.140625,312172.0,1.0,4
232689.359375,278398.0625,273793.40625,266378.8125,250932.859375,281311.46875,253224.984375,252881.75,312173.0,1.0,4
232049.390625,277211.71875,272286.90625,265911.125,249584.515625,280773.34375,252757.109375,252225.40625,312174.0,1.0,4
231593.40625,276585.6875,271626.28125,265771.03125,248640.734375,280351.5,252528.328125,251898.0,312175.0,1.0,4
231945.3125,277382.75,272733.6875,266154.03125,249409.453125,280620.09375,252856.171875,252367.03125,312176.0,1.0,4
232614.078125,278491.03125,274063.5,266524.53125,250814.125,281212.84375,253289.625,252962.390625,312177.0,1.0,4
232687.578125,278394.46875,273796.09375,266374.5,250932.671875,281313.96875,253230.078125,252864.765625,312178.0,1.0,4
232057.96875,277214.125,272294.59375,265909.6875,249595.953125,280781.09375,252771.234375,252220.671875,312179.0,1.0,4
231595.109375,276574.59375,271620.46875,265767.71875,248636.796875,280343.1875,252540.921875,251906.59375,312180.0,1.0,4
231941.203125,277366.21875,272719.8125,266147.6875,249390.671875,280613.65625,252865.390625,252365.421875,312181.0,1.0,4
232611.3125,278481.1875,274055.75,266523.71875,250803.84375,281212.75,253300.984375,252961.765625,312182.0,1.0,4
232684.625,278387.78125,273794.21875,266373.4375,250929.90625,281316.46875,253242.0625,252878.890625,312183.0,1.0,4
232054.84375,277210.09375,272288.96875,265903.59375,249587.71875,280773.40625,252762.84375,252218.53125,312184.0,1.0,4
231596.53125,276579.59375,271616.96875,265761.09375,248633.75,280339.96875,252531.890625,251896.296875,312185.0,1.0,4
231935.484375,277368.25,272712.40625,266140.8125,249390.046875,280610.96875,252856.71875,252355.5,312186.0,1.0,4
232602.90625,278482.71875,274047.96875,266516.9375,250799.015625,281206.9375,253284.265625,252949.875,312187.0,1.0,4
232684.796875,278399.65625,273795.375,266372.09375,250928.109375,281309.6875,253221.21875,252862.171875,312188.0,1.0,4
232062.96875,277226.46875,272295.125,265905.46875,249594.515625,280770.8125,252751.578125,252212.890625,312189.0,1.0,4
231589.390625,276578.09375,271610.09375,265758.59375,248629.1875,280331.65625,252518.9375,251895.671875,312190.0,1.0,4
231939.328125,277377.84375,272714.1875,266146.78125,249390.859375,280614.1875,252857.609375,252363.71875,312191.0,1.0,4
232601.828125,278489.25,274054.5625,266524.625,250805.359375,281211.4375,253291.671875,252961.5,312192.0,1.0,4
232688.28125,278414.3125,273810.21875,266384.34375,250946.890625,281324.4375,253240.625,252875.9375,312193.0,1.0,4
232062.34375,277234.96875,272304.53125,265912.375,249611.421875,280789.25,252777.046875,252212.171875,312194.0,1.0,4
231586.96875,276577.46875,271611.875,265761.625,248638.9375,280340.875,252528.140625,251887.0,312195.0,1.0,4
231930.828125,277363.4375,272704.25,266143.21875,249385.9375,280601.40625,252845.984375,252352.453125,312196.0,1.0,4
232604.875,278484.25,274048.5,266520.25,250803.390625,281204.4375,253285.953125,252950.5,312197.0,1.0,4
232689.984375,278408.4375,273808.34375,266377.375,250949.578125,281320.9375,253238.03125,252873.25,312198.0,1.0,4
232061.546875,277228.6875,272307.03125,265909.15625,249614.546875,280782.09375,252762.65625,252222.375,312199.0,1.0,4
231583.125,276567.4375,271609.03125,265757.4375,248635.984375,280333.71875,252516.078125,251889.59375,312200.0,1.0,4
231927.34375,277350.375,272697.28125,266138.84375,249378.6875,280605.96875,252845.625,252349.6875,312201.0,1.0,4
232605.765625,278471.71875,274043.03125,266518.46875,250792.484375,281204.09375,253278.0,252949.609375,312202.0,1.0,4
232692.9375,278401.28125,273808.96875,266379.0625,250942.25,281320.84375,253226.765625,252870.484375,312203.0,1.0,4
232065.484375,277227.0,272309.0,265914.875,249614.640625,280786.46875,252764.265625,252223.4375,312204.0,1.0,4
231592.875,276570.125,271607.875,265762.6875,248634.015625,280339.71875,252524.296875,251895.671875,312205.0,1.0,4
231925.5625,277345.65625,272687.8125,266135.0,249362.15625,280600.6875,252841.0625,252342.71875,312206.0,1.0,4
232600.40625,278471.375,274042.0625,266518.28125,250782.109375,281207.21875,253286.046875,252952.109375,312207.0,1.0,4
232696.78125,278407.875,273818.0,266382.125,250942.875,281318.96875,253230.796875,252876.296875,312208.0,1.0,4
232073.34375,277233.71875,272318.90625,265913.71875,249615.625,280777.8125,252756.046875,252228.984375,312209.0,1.0,4
231587.59375,276563.78125,271607.6875,265758.21875,248625.96875,280323.625,252511.609375,251897.734375,312210.0,1.0,4
231924.578125,277339.75,272684.84375,266135.34375,249358.21875,280590.5,252838.125,252347.359375,312211.0,1.0,4
232595.484375,278458.5,274033.125,266514.34375,250777.28125,281192.65625,253273.4375,252943.796875,312212.0,1.0,4
232692.21875,278403.34375,273813.0,266381.65625,250947.421875,281315.125,253229.90625,252873.515625,312213.0,1.0,4
232072.0,277231.375,272313.0,265912.09375,249623.671875,280778.5,252759.625,252219.6875,312214.0,1.0,4
231585.453125,276556.1875,271598.84375,265754.21875,248632.953125,280325.40625,252512.140625,251887.71875,312215.0,1.0,4
231922.34375,277333.40625,272678.96875,266132.75,249367.875,280599.25,252847.0625,252350.9375,312216.0,1.0,4
232591.015625,278453.75,274026.84375,266507.90625,250778.265625,281193.09375,253275.578125,252945.578125,312217.0,1.0,4
232683.015625,278395.09375,273811.03125,266375.5,250947.515625,281314.15625,253235.890625,252881.125,312218.0,1.0,4
232063.78125,277224.0625,272310.25,265905.3125,249623.9375,280776.46875,252765.25,252229.609375,312219.0,1.0,4
231580.0,276551.53125,271591.0625,265747.0625,248633.671875,280330.21875,252523.578125,251890.21875,312220.0,1.0,4
231907.765625,277318.1875,272658.5625,266117.75,249353.5625,280588.4375,252844.546875,252344.6875,312221.0,1.0,4
232570.53125,278434.1875,274011.3125,266498.0625,250767.90625,281182.90625,253282.734375,252959.359375,312222.0,1.0,4
232673.71875,278386.6875,273800.5625,266364.78125,250942.875,281307.28125,253233.03125,252871.203125,312223.0,1.0,4
232059.3125,277220.03125,272303.1875,265894.03125,249622.6875,280775.84375,252755.953125,252209.859375,312224.0,1.0,4
231565.6875,276539.0,271581.5625,265735.0625,248624.546875,280333.09375,252519.828125,251877.625,312225.0,1.0,4
231895.96875,277306.65625,272649.53125,266111.03125,249341.671875,280584.21875,252840.4375,252330.46875,312226.0,1.0,4
232578.578125,278443.375,274009.0625,266495.3125,250762.984375,281186.46875,253276.390625,252937.890625,312227.0,1.0,4
232687.84375,278405.03125,273808.875,266369.15625,250946.890625,281316.3125,253241.34375,252881.03125,312228.0,1.0,4
232065.75,277231.84375,272309.15625,265900.125,249623.3125,280779.9375,252767.3125,252227.375,312229.0,1.0,4
231563.71875,276539.90625,271574.96875,265734.09375,248611.140625,280322.09375,252511.953125,251877.171875,312230.0,1.0,4
231891.3125,277309.0625,272640.15625,266112.625,249323.796875,280582.8125,252834.546875,252334.21875,312231.0,1.0,4
232574.203125,278449.0,274005.84375,266503.34375,250752.703125,281185.75,253275.140625,252950.0625,312232.0,1.0,4
232683.375,278413.53125,273808.25,266371.84375,250940.359375,281312.71875,253234.09375,252879.421875,312233.0,1.0,4
232064.859375,277242.5625,272312.84375,265906.65625,249626.34375,280779.6875,252771.515625,252230.78125,312234.0,1.0,4
231581.078125,276561.625,271581.75,265746.34375,248624.546875,280326.21875,252515.8125,251893.796875,312235.0,1.0,4
231901.953125,277316.5,272639.09375,266112.625,249331.3125,280579.59375,252830.515625,252334.75,312236.0,1.0,4
232567.40625,278441.59375,273998.78125,266494.3125,250748.671875,281171.1875,253268.703125,252942.015625,312237.0,1.0,4
232681.9375,278413.0625,273814.0625,266373.1875,250952.4375,281307.71875,253229.0,252884.4375,312238.0,1.0,4
232069.59375,277251.15625,272323.65625,265906.03125,249643.609375,280783.96875,252764.890625,252234.0,312239.0,1.0,4
231575.96875,276555.5625,271580.40625,265740.0,248628.390625,280317.1875,252506.859375,251890.40625,312240.0,1.0,4
231894.265625,277307.8125,272635.78125,266112.375,249331.75,280573.25,252825.6875,252338.0625,312241.0,1.0,4
232571.078125,278446.6875,274004.875,266500.9375,250756.09375,281181.65625,253272.90625,252946.296875,312242.0,1.0,4
232682.125,278420.3125,273824.4375,266378.1875,250958.0625,281323.71875,253246.796875,252886.84375,312243.0,1.0,4
232074.6875,277261.4375,272338.6875,265916.75,249652.8125,280801.03125,252790.375,252247.671875,312244.0,1.0,4
231573.921875,276558.5,271584.71875,265741.59375,248629.546875,280331.75,252521.265625,251889.328125,312245.0,1.0,4
231893.8125,277307.125,272630.0625,266108.15625,249323.34375,280582.4375,252832.75,252326.171875,312246.0,1.0,4
232573.40625,278445.8125,274004.15625,266501.28125,250752.875,281187.09375,253285.875,252954.171875,312247.0,1.0,4
232686.40625,278418.96875,273827.5625,266376.3125,250956.28125,281319.78125,253248.671875,252889.265625,312248.0,1.0,4
232082.015625,277262.6875,272344.5,265912.09375,249656.5625,280796.75,252783.125,252232.828125,312249.0,1.0,4
231591.4375,276563.6875,271591.5,265743.84375,248639.65625,280328.09375,252520.0,251881.640625,312250.0,1.0,4
231890.421875,277294.9375,272624.34375,266104.5,249317.453125,280567.34375,252824.53125,252318.84375,312251.0,1.0,4
232570.71875,278438.90625,274003.6875,266495.5625,250747.875,281173.78125,253271.921875,252931.546875,312252.0,1.0,4
232693.109375,278425.5,273841.0625,266380.875,250970.40625,281318.4375,253249.203125,252890.421875,312253.0,1.0,4
232080.859375,277264.5625,272350.21875,265912.8125,249664.796875,280792.46875,252777.140625,252243.375,312254.0,1.0,4
231579.375,276558.25,271586.5,265736.875,248633.484375,280329.15625,252514.828125,251883.078125,312255.0,1.0,4
231889.53125,277298.53125,272624.96875,266102.96875,249317.0,280574.5625,252821.3125,252315.359375,312256.0,1.0,4
232565.265625,278435.875,273999.84375,266493.5,250745.28125,281170.75,253266.46875,252929.9375,312257.0,1.0,4
232690.171875,278424.15625,273840.625,266378.96875,250969.515625,281313.34375,253249.84375,252892.296875,312258.0,1.0,4
232078.4375,277260.09375,272353.25,265914.5,249668.734375,280792.71875,252781.078125,252249.546875,312259.0,1.0,4
231579.109375,276550.5625,271585.40625,265740.71875,248638.5,280321.5625,252507.21875,251884.140625,312260.0,1.0,4
231888.546875,277284.03125,272614.5,266104.15625,249315.03125,280560.375,252812.453125,252315.796875,312261.0,1.0,4
232565.53125,278425.78125,273993.6875,266495.65625,250743.046875,281170.28125,253262.53125,252929.046875,312262.0,1.0,4
232691.328125,278422.0,273839.28125,266381.75,250969.0625,281314.34375,253239.734375,252894.890625,312263.0,1.0,4
232085.421875,277263.65625,272354.3125,265914.78125,249671.953125,280791.84375,252769.453125,252245.96875,312264.0,1.0,4
231577.765625,276543.5,271580.5,265738.03125,248631.703125,280321.5625,252502.578125,251882.984375,312265.0,1.0,4
231885.140625,277277.96875,272612.71875,266107.375,249305.921875,280561.25,252816.84375,252331.359375,312266.0,1.0,4
232565.796875,278425.40625,273995.21875,266500.40625,250737.671875,281167.4375,253265.9375,252939.953125,312267.0,1.0,4
232694.71875,278422.5625,273845.28125,266384.15625,250970.3125,281312.90625,253236.78125,252889.265625,312268.0,1.0,4
232085.421875,277263.125,272357.1875,265914.34375,249669.890625,280792.90625,252770.171875,252239.265625,312269.0,1.0,4
231578.75,276547.5,271584.53125,265739.09375,248632.234375,280325.3125,252514.46875,251882.796875,312270.0,1.0,4
231878.265625,277272.78125,272612.25,266101.71875,249301.796875,280566.53125,252820.953125,252315.625,312271.0,1.0,4
232560.25,278419.6875,274000.3125,266495.75,250735.71875,281168.5,253262.359375,252933.78125,312272.0,1.0,4
232694.8125,278426.84375,273856.4375,266384.78125,250978.1875,281312.90625,253238.03125,252901.15625,312273.0,1.0,4
232086.125,277273.21875,272371.125,265919.15625,249685.359375,280795.6875,252777.40625,252264.125,312274.0,1.0,4
