FZ,C3,CZ,C4,PZ,PO7,OZ,PO8,Counter,Validation,Label
218977.1875,230923.578125,247300.34375,243544.984375,205313.390625,222402.640625,219006.6875,206632.40625,214723.0,1.0,1
218945.09375,230794.203125,247175.265625,243401.390625,205118.125,222378.859375,218300.375,206522.265625,214724.0,1.0,1
219293.421875,231453.125,247550.140625,243933.359375,205621.3125,222567.859375,219803.9375,207004.078125,214725.0,1.0,1
219534.90625,231984.5625,247899.0,244398.8125,206120.28125,222704.390625,221420.421875,207408.109375,214726.0,1.0,1
219332.40625,231645.796875,247739.328125,244151.328125,205923.328125,222602.015625,220906.140625,207171.4375,214727.0,1.0,1
218974.234375,230923.390625,247299.890625,243548.203125,205315.796875,222410.953125,219015.359375,206634.203125,214728.0,1.0,1
218940.796875,230791.421875,247174.546875,243402.734375,205120.53125,222389.765625,218301.8125,206523.6875,214729.0,1.0,1
219284.03125,231444.546875,247540.9375,243927.8125,205617.640625,222567.421875,219791.0625,207002.109375,214730.0,1.0,1
219527.9375,231977.6875,247891.046875,244396.578125,206116.0,222700.09375,221412.90625,207406.40625,214731.0,1.0,1
219324.09375,231634.359375,247733.25,244152.40625,205919.03125,222599.6875,220909.984375,207171.0,214732.0,1.0,1
218970.84375,230914.8125,247298.640625,243547.921875,205313.484375,222410.15625,219018.859375,206635.359375,214733.0,1.0,1
218940.796875,230783.734375,247172.75,243399.25,205117.5,222386.90625,218294.5625,206517.078125,214734.0,1.0,1
219284.390625,231442.046875,247539.6875,243923.609375,205613.796875,222567.140625,219780.0625,206992.546875,214735.0,1.0,1
219527.9375,231975.625,247891.671875,244392.28125,206117.0625,222703.765625,221410.046875,207400.78125,214736.0,1.0,1
219331.515625,231641.78125,247736.90625,244151.328125,205923.859375,222603.359375,220917.671875,207167.953125,214737.0,1.0,1
218978.625,230926.078125,247304.0,243550.515625,205318.578125,222414.265625,219031.1875,206632.40625,214738.0,1.0,1
218939.734375,230786.25,247172.578125,243397.71875,205116.875,222390.390625,218296.984375,206514.65625,214739.0,1.0,1
219278.046875,231433.640625,247532.890625,243915.484375,205607.265625,222567.859375,219773.984375,206990.484375,214740.0,1.0,1
219522.21875,231970.53125,247884.796875,244386.5625,206110.265625,222703.671875,221408.703125,207402.828125,214741.0,1.0,1
219326.765625,231644.640625,247733.515625,244151.78125,205921.71875,222602.734375,220929.5625,207175.5625,214742.0,1.0,1
218972.265625,230925.8125,247299.4375,243549.265625,205315.625,222410.0625,219041.109375,206633.84375,214743.0,1.0,1
218929.0,230776.3125,247162.46875,243387.171875,205105.421875,222375.375,218289.203125,206508.484375,214744.0,1.0,1
219271.875,231425.59375,247527.703125,243909.578125,205596.0,222557.046875,219761.46875,206984.40625,214745.0,1.0,1
219521.328125,231967.3125,247882.375,244383.703125,206099.1875,222692.3125,221400.390625,207394.34375,214746.0,1.0,1
219334.015625,231648.21875,247735.65625,244152.046875,205916.4375,222591.015625,220932.34375,207171.09375,214747.0,1.0,1
218981.484375,230930.015625,247302.65625,243552.84375,205314.109375,222398.171875,219045.671875,206637.6875,214748.0,1.0,1
218936.78125,230778.828125,247164.625,243391.109375,205102.65625,222372.328125,218287.5,206510.8125,214749.0,1.0,1
219276.171875,231424.515625,247523.859375,243910.109375,205589.484375,222550.25,219752.265625,206981.71875,214750.0,1.0,1
219524.546875,231966.6875,247878.71875,244386.46875,206095.4375,222685.796875,221396.453125,207396.125,214751.0,1.0,1
219333.75,231646.25,247732.984375,244155.53125,205916.171875,222587.71875,220937.53125,207174.484375,214752.0,1.0,1
218977.90625,230923.390625,247297.484375,243552.578125,205312.3125,222395.390625,219051.21875,206638.046875,214753.0,1.0,1
218934.984375,230773.09375,247158.8125,243390.484375,205100.875,222367.40625,218283.84375,206509.65625,214754.0,1.0,1
219275.546875,231420.5,247518.84375,243910.109375,205591.4375,222551.5,219744.84375,206982.96875,214755.0,1.0,1
219522.75,231962.921875,247873.703125,244384.6875,206095.96875,222685.4375,221394.390625,207394.421875,214756.0,1.0,1
219333.484375,231645.984375,247731.453125,244156.96875,205917.953125,222588.96875,220948.25,207176.0,214757.0,1.0,1
218976.75,230925.625,247295.875,243552.125,205314.375,222399.6875,219063.921875,206638.40625,214758.0,1.0,1
218931.6875,230772.203125,247155.765625,243386.90625,205099.703125,222371.703125,218286.515625,206506.609375,214759.0,1.0,1
219270.796875,231416.65625,247516.875,243903.671875,205588.765625,222551.6875,219737.328125,206978.234375,214760.0,1.0,1
219523.28125,231966.6875,247877.28125,244385.21875,206102.140625,222695.171875,221394.125,207395.671875,214761.0,1.0,1
219332.21875,231648.84375,247731.734375,244161.4375,205920.734375,222595.125,220952.015625,207177.703125,214762.0,1.0,1
218976.75,230932.515625,247293.546875,243561.515625,205313.921875,222402.375,219068.65625,206640.1875,214763.0,1.0,1
218931.234375,230774.265625,247147.90625,243393.4375,205098.359375,222374.203125,218282.671875,206505.453125,214764.0,1.0,1
219264.0,231411.203125,247504.71875,243903.671875,205585.0,222552.671875,219726.953125,206974.578125,214765.0,1.0,1
219519.984375,231965.34375,247870.484375,244386.65625,206102.671875,222695.71875,221391.453125,207396.75,214766.0,1.0,1
219337.953125,231662.515625,247734.234375,244166.4375,205931.8125,222603.359375,220966.3125,207184.046875,214767.0,1.0,1
218978.625,230932.78125,247294.265625,243556.953125,205321.609375,222406.84375,219076.875,206645.109375,214768.0,1.0,1
218934.546875,230771.9375,247152.734375,243389.40625,205103.90625,222381.1875,218283.21875,206511.890625,214769.0,1.0,1
219271.609375,231412.71875,247509.46875,243905.203125,205585.90625,222561.78125,219723.015625,206981.015625,214770.0,1.0,1
219526.59375,231967.40625,247869.328125,244388.078125,206097.578125,222697.0625,221384.03125,207398.1875,214771.0,1.0,1
219342.953125,231661.453125,247728.0625,244169.03125,205924.484375,222598.796875,220962.921875,207183.96875,214772.0,1.0,1
218988.8125,230943.6875,247292.828125,243566.609375,205321.796875,222409.34375,219081.796875,206648.953125,214773.0,1.0,1
218937.046875,230775.96875,247145.484375,243391.640625,205098.90625,222380.828125,218275.96875,206511.171875,214774.0,1.0,1
219269.640625,231407.359375,247497.921875,243901.890625,205578.65625,222556.859375,219706.921875,206976.1875,214775.0,1.0,1
219522.578125,231963.109375,247859.84375,244385.140625,206095.96875,222694.734375,221376.421875,207397.640625,214776.0,1.0,1
219338.578125,231663.234375,247728.0625,244169.3125,205930.921875,222602.109375,220970.609375,207190.484375,214777.0,1.0,1
218982.546875,230942.53125,247296.671875,243567.328125,205326.359375,222412.75,219091.265625,206652.53125,214778.0,1.0,1
218930.34375,230772.296875,247147.625,243388.875,205099.265625,222380.828125,218274.453125,206508.140625,214779.0,1.0,1
219262.9375,231409.671875,247502.125,243897.328125,205580.0,222558.296875,219702.453125,206973.140625,214780.0,1.0,1
219517.46875,231966.421875,247862.890625,244383.171875,206099.71875,222700.359375,221377.953125,207397.28125,214781.0,1.0,1
219333.921875,231667.171875,247729.578125,244169.125,205939.859375,222608.71875,220982.234375,207190.046875,214782.0,1.0,1
218976.828125,230949.5,247299.0,243565.453125,205338.421875,222416.046875,219103.796875,206652.078125,214783.0,1.0,1
218920.140625,230772.109375,247149.421875,243384.484375,205110.078125,222384.125,218278.109375,206504.734375,214784.0,1.0,1
219261.953125,231414.234375,247509.90625,243897.421875,205594.578125,222567.78125,219705.671875,206974.578125,214785.0,1.0,1
219523.203125,231977.234375,247876.390625,244386.921875,206114.921875,222709.125,221387.421875,207400.59375,214786.0,1.0,1
219345.546875,231679.78125,247744.15625,244176.453125,205952.015625,222613.1875,220997.34375,207193.4375,214787.0,1.0,1
218987.5625,230949.953125,247305.4375,243569.921875,205344.859375,222414.53125,219112.015625,206655.125,214788.0,1.0,1
218932.75,230768.265625,247152.90625,243384.40625,205109.71875,222377.6875,218270.25,206505.625,214789.0,1.0,1
219269.109375,231407.890625,247507.3125,243894.46875,205586.96875,222554.71875,219684.21875,206966.96875,214790.0,1.0,1
219528.5625,231971.78125,247874.953125,244386.390625,206107.140625,222696.25,221371.6875,207392.375,214791.0,1.0,1
219355.203125,231684.609375,247748.796875,244181.109375,205950.0625,222604.703125,220996.53125,207193.4375,214792.0,1.0,1
218998.46875,230963.8125,247315.71875,243579.125,205347.09375,222412.5625,219122.296875,206655.75,214793.0,1.0,1
218941.15625,230779.984375,247160.953125,243393.34375,205110.4375,222378.5,218275.875,206503.125,214794.0,1.0,1
219270.71875,231401.90625,247507.40625,243890.890625,205574.90625,222550.15625,219672.859375,206960.0,214795.0,1.0,1
219534.640625,231968.5625,247875.40625,244383.4375,206095.515625,222689.90625,221360.0625,207390.765625,214796.0,1.0,1
219360.828125,231686.65625,247751.9375,244183.703125,205946.125,222599.78125,220997.25,207196.390625,214797.0,1.0,1
219009.203125,230965.765625,247320.1875,243581.640625,205344.859375,222407.203125,219122.921875,206657.984375,214798.0,1.0,1
218950.1875,230776.046875,247158.53125,243388.421875,205102.75,222370.0,218261.84375,206499.8125,214799.0,1.0,1
219281.890625,231403.515625,247503.46875,243891.15625,205572.484375,222542.03125,219657.046875,206959.28125,214800.0,1.0,1
219544.75,231971.421875,247871.109375,244385.84375,206094.984375,222678.734375,221349.875,207390.3125,214801.0,1.0,1
219374.875,231692.921875,247750.40625,244191.203125,205946.5625,222588.78125,220998.6875,207195.765625,214802.0,1.0,1
219015.453125,230966.046875,247312.5,243591.109375,205341.46875,222397.546875,219126.140625,206658.875,214803.0,1.0,1
218950.90625,230771.765625,247142.796875,243396.375,205093.71875,222357.84375,218257.90625,206500.53125,214804.0,1.0,1
219280.015625,231395.015625,247480.21875,243896.796875,205555.5,222527.8125,219644.4375,206958.203125,214805.0,1.0,1
219546.53125,231971.15625,247855.46875,244395.421875,206089.703125,222676.84375,221346.203125,207392.453125,214806.0,1.0,1
219371.75,231688.625,247738.078125,244195.234375,205951.125,222588.78125,221004.5,207199.78125,214807.0,1.0,1
219014.03125,230962.734375,247304.8125,243592.1875,205353.625,222398.53125,219133.921875,206664.5,214808.0,1.0,1
218948.125,230766.390625,247140.390625,243392.984375,205104.796875,222358.734375,218256.65625,206502.5,214809.0,1.0,1
219273.65625,231385.984375,247483.53125,243887.765625,205565.0625,222530.046875,219639.703125,206956.25,214810.0,1.0,1
219541.703125,231964.984375,247859.9375,244389.15625,206093.015625,222678.28125,221346.921875,207392.546875,214811.0,1.0,1
219378.53125,231694.34375,247750.6875,244201.578125,205956.765625,222594.859375,221019.0625,207206.140625,214812.0,1.0,1
219016.96875,230964.25,247314.546875,243595.671875,205349.78125,222396.828125,219146.703125,206663.25,214813.0,1.0,1
218946.96875,230760.21875,247148.4375,243390.21875,205096.3125,222353.640625,218255.5,206496.875,214814.0,1.0,1
219275.625,231384.015625,247495.78125,243885.625,205562.125,222529.953125,219632.1875,206950.25,214815.0,1.0,1
219543.578125,231966.765625,247867.71875,244384.859375,206092.21875,222674.265625,221340.65625,207384.59375,214816.0,1.0,1
219378.890625,231701.140625,247755.0625,244198.453125,205958.015625,222589.765625,221024.078125,207198.984375,214817.0,1.0,1
219023.140625,230976.953125,247325.375,243598.265625,205357.90625,222394.6875,219155.921875,206663.4375,214818.0,1.0,1
218956.0,230775.875,247161.21875,243397.71875,205107.484375,222352.390625,218258.453125,206500.265625,214819.0,1.0,1
219285.28125,231399.3125,247506.328125,243894.921875,205574.546875,222528.96875,219627.890625,206951.5,214820.0,1.0,1
219556.28125,231981.703125,247881.390625,244397.46875,206103.921875,222676.046875,221340.578125,207387.90625,214821.0,1.0,1
219395.4375,231718.21875,247773.84375,244216.421875,205969.375,222593.078125,221036.140625,207210.34375,214822.0,1.0,1
219035.390625,230993.046875,247342.625,243613.375,205368.828125,222402.453125,219173.171875,206674.4375,214823.0,1.0,1
218956.0,230777.484375,247164.34375,243397.984375,205107.578125,222355.515625,218261.046875,206498.921875,214824.0,1.0,1
219280.09375,231392.875,247501.421875,243887.140625,205564.53125,222525.125,219621.015625,206949.359375,214825.0,1.0,1
219550.5625,231978.84375,247880.953125,244398.28125,206103.484375,222678.453125,221347.1875,207399.171875,214826.0,1.0,1
219386.671875,231714.375,247769.546875,244218.5625,205972.59375,222593.609375,221051.96875,207220.265625,214827.0,1.0,1
219021.53125,230981.421875,247329.9375,243608.28125,205363.015625,222389.5,219179.34375,206673.453125,214828.0,1.0,1
218943.296875,230761.75,247151.75,243388.515625,205094.875,222334.421875,218252.546875,206494.546875,214829.0,1.0,1
219273.65625,231380.890625,247494.703125,243879.453125,205551.21875,222502.78125,219604.921875,206943.453125,214830.0,1.0,1
219548.140625,231971.6875,247876.75,244391.296875,206090.0625,222651.8125,221329.75,207387.546875,214831.0,1.0,1
219387.5625,231715.53125,247770.53125,244215.4375,205964.265625,222568.9375,221043.65625,207209.984375,214832.0,1.0,1
219029.765625,230994.375,247340.296875,243613.1875,205363.71875,222368.578125,219180.859375,206670.59375,214833.0,1.0,1
218956.0,230776.765625,247167.296875,243398.53125,205100.328125,222320.03125,218252.8125,206494.1875,214834.0,1.0,1
219280.90625,231389.375,247505.703125,243888.484375,205558.359375,222494.015625,219602.0625,206941.046875,214835.0,1.0,1
219549.9375,231972.765625,247881.9375,244396.21875,206091.046875,222638.671875,221329.484375,207383.15625,214836.0,1.0,1
219391.859375,231718.578125,247777.40625,244221.875,205965.609375,222554.625,221054.5625,207210.875,214837.0,1.0,1
219033.34375,230998.046875,247347.015625,243620.078125,205369.53125,222360.796875,219196.328125,206673.890625,214838.0,1.0,1
218953.59375,230779.8125,247168.640625,243398.265625,205101.9375,222314.03125,218256.296875,206491.140625,214839.0,1.0,1
219276.796875,231385.984375,247504.546875,243883.203125,205553.453125,222487.125,219592.75,206934.421875,214840.0,1.0,1
219551.890625,231974.109375,247883.1875,244393.265625,206088.71875,222636.171875,221326.171875,207378.953125,214841.0,1.0,1
219393.015625,231723.046875,247778.390625,244221.78125,205966.234375,222553.375,221063.765625,207208.453125,214842.0,1.0,1
219037.1875,231003.140625,247351.203125,243622.3125,205371.234375,222359.71875,219210.984375,206675.0625,214843.0,1.0,1
218955.015625,230778.28125,247170.25,243396.375,205100.328125,222311.265625,218264.171875,206490.078125,214844.0,1.0,1
219267.40625,231373.5625,247493.28125,243870.15625,205540.296875,222474.34375,219583.1875,206928.4375,214845.0,1.0,1
219540.09375,231959.53125,247870.84375,244383.53125,206077.640625,222625.625,221317.6875,207375.109375,214846.0,1.0,1
219385.328125,231714.5625,247769.1875,244220.09375,205962.03125,222547.84375,221069.140625,207209.890625,214847.0,1.0,1
219025.921875,230988.578125,247330.203125,243616.140625,205362.03125,222349.4375,219210.71875,206668.359375,214848.0,1.0,1
218945.265625,230757.90625,247138.6875,243393.609375,205085.84375,222300.890625,218248.796875,206483.71875,214849.0,1.0,1
219269.90625,231368.8125,247465.828125,243882.21875,205526.796875,222477.390625,219573.796875,206933.71875,214850.0,1.0,1
219543.9375,231956.9375,247852.609375,244391.125,206074.875,222633.3125,221312.328125,207379.140625,214851.0,1.0,1
219389.0,231716.078125,247765.609375,244225.28125,205968.828125,222564.015625,221073.421875,207213.46875,214852.0,1.0,1
219028.78125,230994.828125,247332.609375,243620.53125,205365.515625,222380.734375,219219.578125,206672.375,214853.0,1.0,1
218943.21875,230754.6875,247147.546875,243390.03125,205085.40625,222347.46875,218253.984375,206484.625,214854.0,1.0,1
219259.890625,231354.609375,247471.734375,243863.71875,205525.8125,222508.59375,219562.171875,206925.390625,214855.0,1.0,1
219538.9375,231961.765625,247859.484375,244380.3125,206070.9375,222669.703125,221309.1875,207379.3125,214856.0,1.0,1
219387.5625,231727.34375,247774.28125,244219.015625,205967.125,222604.703125,221087.828125,207218.46875,214857.0,1.0,1
219027.078125,231001.796875,247343.25,243616.6875,205366.5,222406.9375,219236.46875,206681.140625,214858.0,1.0,1
218935.703125,230758.4375,247146.921875,243376.265625,205076.640625,222355.515625,218250.765625,206481.21875,214859.0,1.0,1
219255.875,231365.6875,247475.3125,243854.5,205515.0,222534.0625,219558.328125,206919.40625,214860.0,1.0,1
219532.40625,231962.578125,247860.390625,244373.78125,206056.265625,222672.46875,221310.0,207373.765625,214861.0,1.0,1
219385.15625,231726.0,247769.09375,244218.5625,205945.046875,222582.609375,221094.4375,207216.421875,214862.0,1.0,1
219020.828125,230997.59375,247333.328125,243614.890625,205339.859375,222379.484375,219244.34375,206675.59375,214863.0,1.0,1
218927.125,230754.6875,247137.890625,243375.734375,205052.234375,222316.0,218253.4375,206475.234375,214864.0,1.0,1
219249.4375,231355.671875,247469.5,243853.78125,205497.203125,222486.953125,219558.0625,206915.296875,214865.0,1.0,1
219529.09375,231953.359375,247853.234375,244373.15625,206045.1875,222644.3125,221317.5,207369.921875,214866.0,1.0,1
219380.953125,231724.5625,247761.859375,244221.96875,205944.609375,222565.359375,221120.09375,207215.078125,214867.0,1.0,1
219022.078125,231001.890625,247329.21875,243620.96875,205347.625,222366.15625,219279.390625,206677.65625,214868.0,1.0,1
218929.453125,230749.40625,247135.46875,243377.78125,205059.109375,222317.703125,218283.03125,206480.328125,214869.0,1.0,1
219248.0,231342.0,247464.671875,243852.71875,205495.6875,222491.15625,219578.984375,206918.15625,214870.0,1.0,1
219530.0,231943.703125,247852.34375,244377.625,206041.515625,222641.09375,221343.875,207375.296875,214871.0,1.0,1
219388.546875,231722.953125,247769.375,244229.125,205944.15625,222561.515625,221151.828125,207225.625,214872.0,1.0,1
219027.25,230998.578125,247349.875,243624.90625,205345.671875,222365.171875,219303.53125,206693.390625,214873.0,1.0,1
218931.234375,230744.125,247159.34375,243380.5625,205054.90625,222310.28125,218288.75,206492.671875,214874.0,1.0,1
219243.890625,231333.0625,247473.96875,243848.6875,205488.53125,222477.5625,219559.59375,206921.828125,214875.0,1.0,1
219531.875,231945.765625,247862.796875,244372.796875,206038.65625,222637.78125,221318.671875,207379.3125,214876.0,1.0,1
219396.328125,231736.546875,247781.4375,244230.90625,205948.625,222575.640625,221138.25,207233.046875,214877.0,1.0,1
219035.65625,231014.953125,247353.890625,243632.953125,205355.234375,222379.84375,219295.03125,206696.0625,214878.0,1.0,1
218935.53125,230755.125,247156.75,243387.359375,205063.578125,222321.015625,218270.96875,206491.0625,214879.0,1.0,1
219240.9375,231336.8125,247471.46875,243852.359375,205493.28125,222485.609375,219532.5,206918.25,214880.0,1.0,1
219526.328125,231952.375,247861.90625,244381.296875,206046.171875,222640.90625,221301.140625,207381.640625,214881.0,1.0,1
219392.75,231741.46875,247783.21875,244244.671875,205960.78125,222568.84375,221135.75,207243.421875,214882.0,1.0,1
219026.625,231008.59375,247348.34375,243641.53125,205364.34375,222365.984375,219292.96875,206705.09375,214883.0,1.0,1
218922.296875,230738.59375,247142.0,243384.671875,205063.046875,222300.265625,218255.3125,206491.234375,214884.0,1.0,1
219239.59375,231328.9375,247465.46875,243852.53125,205497.75,222465.21875,219518.109375,206921.828125,214885.0,1.0,1
219530.625,231946.65625,247858.6875,244384.953125,206052.515625,222629.28125,221292.46875,207384.328125,214886.0,1.0,1
219390.515625,231736.1875,247776.078125,244247.625,205962.3125,222557.046875,221133.234375,207241.890625,214887.0,1.0,1
219027.703125,231009.578125,247342.625,243643.59375,205366.046875,222360.53125,219295.125,206704.296875,214888.0,1.0,1
218926.671875,230745.828125,247136.71875,243384.84375,205061.96875,222303.484375,218250.84375,206489.265625,214889.0,1.0,1
219240.84375,231333.140625,247453.9375,243846.71875,205489.34375,222474.796875,219503.796875,206914.3125,214890.0,1.0,1
219522.65625,231941.203125,247838.84375,244373.328125,206040.453125,222634.203125,221281.125,207373.5,214891.0,1.0,1
219389.171875,231736.546875,247763.5625,244240.46875,205961.40625,222569.296875,221140.921875,207237.875,214892.0,1.0,1
219028.59375,231012.53125,247337.078125,243640.375,205368.640625,222376.078125,219306.203125,206702.59375,214893.0,1.0,1
218923.8125,230741.453125,247133.5,243381.984375,205064.03125,222323.78125,218252.375,206485.0625,214894.0,1.0,1
219230.921875,231316.78125,247452.328125,243841.625,205488.171875,222498.578125,219493.15625,206906.265625,214895.0,1.0,1
219520.515625,231934.5,247848.765625,244371.984375,206047.15625,222666.125,221273.34375,207372.078125,214896.0,1.0,1
219390.15625,231740.65625,247779.015625,244244.140625,205974.46875,222604.078125,221144.5,207238.953125,214897.0,1.0,1
219034.859375,231024.609375,247354.34375,243646.8125,205387.78125,222415.15625,219318.28125,206705.8125,214898.0,1.0,1
218925.78125,230747.703125,247144.40625,243379.21875,205078.78125,222350.515625,218254.6875,206483.546875,214899.0,1.0,1
219231.1875,231320.71875,247456.078125,243834.65625,205496.671875,222509.75,219486.90625,206901.96875,214900.0,1.0,1
219528.390625,231944.0625,247852.515625,244367.609375,206055.015625,222669.25,221271.8125,207369.578125,214901.0,1.0,1
219403.21875,231756.390625,247787.515625,244242.984375,205982.78125,222600.765625,221153.796875,207239.484375,214902.0,1.0,1
219042.09375,231034.25,247363.546875,243646.359375,205389.109375,222402.640625,219324.71875,206702.859375,214903.0,1.0,1
218934.546875,230755.484375,247150.671875,243380.5625,205077.53125,222338.890625,218254.328125,206479.96875,214904.0,1.0,1
219243.53125,231329.75,247460.28125,243834.296875,205494.4375,222496.96875,219480.640625,206896.15625,214905.0,1.0,1
219536.78125,231951.9375,247858.234375,244372.890625,206054.125,222659.140625,221269.046875,207364.390625,214906.0,1.0,1
219406.875,231758.984375,247789.9375,244248.34375,205980.546875,222591.203125,221155.328125,207236.171875,214907.0,1.0,1
219049.34375,231038.8125,247364.0,243647.796875,205386.4375,222390.03125,219326.328125,206698.65625,214908.0,1.0,1
218943.484375,230758.796875,247153.171875,243382.4375,205071.8125,222330.578125,218244.5,206475.953125,214909.0,1.0,1
219246.578125,231327.0625,247458.046875,243830.90625,205484.328125,222492.3125,219457.75,206889.640625,214910.0,1.0,1
219535.359375,231945.9375,247850.90625,244365.203125,206039.375,222653.0625,221247.046875,207354.46875,214911.0,1.0,1
219401.875,231752.640625,247781.265625,244242.53125,205964.453125,222584.3125,221146.296875,207228.84375,214912.0,1.0,1
219041.734375,231032.015625,247352.90625,243646.625,205375.796875,222387.703125,219327.671875,206700.09375,214913.0,1.0,1
218932.578125,230746.8125,247136.09375,243377.078125,205062.328125,222323.25,218240.03125,206479.171875,214914.0,1.0,1
219238.265625,231315.890625,247443.5625,243829.296875,205479.421875,222486.6875,219450.6875,206892.3125,214915.0,1.0,1
219536.96875,231946.921875,247848.578125,244372.265625,206049.03125,222657.625,221253.484375,207369.125,214916.0,1.0,1
219407.78125,231759.078125,247788.59375,244254.421875,205984.921875,222594.78125,221166.40625,207248.0625,214917.0,1.0,1
219038.875,231028.796875,247358.984375,243654.140625,205392.515625,222393.078125,219344.03125,206710.640625,214918.0,1.0,1
218925.328125,230738.328125,247131.53125,243384.21875,205070.921875,222328.609375,218245.9375,206478.890625,214919.0,1.0,1
219234.6875,231315.4375,247422.640625,243848.875,205478.171875,222499.734375,219456.859375,206902.59375,214920.0,1.0,1
219524.984375,231940.75,247811.390625,244379.859375,206038.84375,222659.140625,221247.953125,207367.515625,214921.0,1.0,1
219401.78125,231760.25,247764.265625,244262.375,205990.109375,222600.765625,221172.046875,207244.40625,214922.0,1.0,1
219044.515625,231041.046875,247347.1875,243668.53125,205407.265625,222402.375,219358.515625,206712.875,214923.0,1.0,1
218927.390625,230742.34375,247128.40625,243386.28125,205080.03125,222331.109375,218248.34375,206476.578125,214924.0,1.0,1
219230.03125,231304.265625,247434.265625,243827.5,205484.421875,222493.03125,219439.78125,206883.734375,214925.0,1.0,1
219524.359375,231935.21875,247832.40625,244366.359375,206041.078125,222656.734375,221241.0625,207357.328125,214926.0,1.0,1
219403.484375,231757.734375,247781.34375,244253.265625,205984.203125,222595.9375,221174.09375,207239.9375,214927.0,1.0,1
219041.46875,231032.65625,247355.59375,243653.34375,205394.921875,222393.703125,219359.140625,206701.796875,214928.0,1.0,1
218923.359375,230734.46875,247128.765625,243366.609375,205062.953125,222321.1875,218238.15625,206463.609375,214929.0,1.0,1
219226.90625,231300.875,247432.125,243814.359375,205471.453125,222482.921875,219426.015625,206871.21875,214930.0,1.0,1
219516.578125,231928.421875,247828.375,244353.75,206036.25,222642.96875,221228.71875,207341.40625,214931.0,1.0,1
219396.515625,231753.09375,247774.46875,244246.828125,205983.3125,222579.21875,221170.4375,207231.4375,214932.0,1.0,1
219039.328125,231032.65625,247350.578125,243652.625,205394.578125,222385.734375,219358.15625,206703.671875,214933.0,1.0,1
218918.53125,230734.65625,247128.40625,243371.4375,205066.171875,222321.28125,218233.859375,206469.421875,214934.0,1.0,1
219217.96875,231299.34375,247433.828125,243814.453125,205471.90625,222486.59375,219412.15625,206879.625,214935.0,1.0,1
219518.375,231933.609375,247835.703125,244362.515625,206038.484375,222658.4375,221223.1875,207361.703125,214936.0,1.0,1
219403.921875,231766.140625,247782.328125,244260.953125,205985.375,222603.09375,221179.546875,207256.734375,214937.0,1.0,1
219045.9375,231046.234375,247357.828125,243664.6875,205399.125,222408.625,219373.796875,206727.09375,214938.0,1.0,1
218928.90625,230747.34375,247136.90625,243379.390625,205073.515625,222345.421875,218246.109375,206489.265625,214939.0,1.0,1
219227.625,231301.234375,247434.984375,243816.0625,205474.140625,222507.515625,219412.875,206891.515625,214940.0,1.0,1
219526.328125,231935.65625,247833.65625,244360.640625,206042.859375,222674.34375,221225.78125,207369.75,214941.0,1.0,1
219413.046875,231775.4375,247781.53125,244262.46875,205997.0,222614.796875,221194.75,207260.5,214942.0,1.0,1
219054.171875,231058.046875,247361.046875,243668.71875,205412.90625,222415.78125,219391.40625,206724.859375,214943.0,1.0,1
218925.25,230741.890625,247131.265625,243372.15625,205073.328125,222339.78125,218245.390625,206475.5,214944.0,1.0,1
219222.25,231292.640625,247425.15625,243803.984375,205464.9375,222493.921875,219400.984375,206872.015625,214945.0,1.0,1
219520.15625,231927.171875,247826.140625,244348.921875,206027.75,222659.0625,221212.359375,207345.4375,214946.0,1.0,1
219403.75,231764.890625,247776.609375,244252.359375,205979.734375,222598.0,221188.3125,207239.84375,214947.0,1.0,1
219043.890625,231040.96875,247351.03125,243656.46875,205390.28125,222395.125,219383.1875,206702.78125,214948.0,1.0,1
218923.8125,230732.0625,247124.65625,243366.515625,205055.453125,222323.78125,218232.96875,206455.109375,214949.0,1.0,1
219220.28125,231285.578125,247420.953125,243801.671875,205455.1875,222483.375,219386.3125,206855.65625,214950.0,1.0,1
219515.234375,231918.046875,247819.078125,244344.71875,206022.828125,222647.890625,221199.578125,207335.0625,214951.0,1.0,1
219404.203125,231763.8125,247770.265625,244257.90625,205985.546875,222593.34375,221192.15625,207239.75,214952.0,1.0,1
219044.515625,231044.890625,247342.0,243669.703125,205400.296875,222399.515625,219397.671875,206715.109375,214953.0,1.0,1
218910.84375,230721.328125,247104.265625,243368.21875,205058.3125,222325.484375,218234.3125,206465.578125,214954.0,1.0,1
219199.8125,231262.78125,247399.21875,243796.84375,205458.234375,222486.234375,219378.453125,206865.5,214955.0,1.0,1
219501.5625,231905.53125,247806.734375,244349.8125,206036.0625,222661.921875,221206.28125,207353.484375,214956.0,1.0,1
219392.390625,231759.34375,247765.4375,244262.203125,206002.453125,222610.515625,221210.3125,207263.890625,214957.0,1.0,1
219034.40625,231047.125,247346.46875,243669.15625,205421.296875,222420.15625,219419.21875,206738.796875,214958.0,1.0,1
218909.328125,230731.609375,247115.09375,243367.6875,205076.8125,222346.046875,218250.125,206486.046875,214959.0,1.0,1
219205.359375,231278.609375,247408.703125,243794.875,205469.3125,222506.0,219381.75,206879.0,214960.0,1.0,1
219513.1875,231923.5,247816.75,244345.96875,206042.328125,222681.5,221204.765625,207360.71875,214961.0,1.0,1
219408.671875,231777.9375,247776.96875,244263.453125,206006.375,222627.59375,221213.265625,207264.78125,214962.0,1.0,1
219043.890625,231055.171875,247348.078125,243665.140625,205411.734375,222418.546875,219408.671875,206725.125,214963.0,1.0,1
218917.375,230738.671875,247114.46875,243362.859375,205064.921875,222344.34375,218232.34375,206470.859375,214964.0,1.0,1
219212.15625,231280.75,247404.234375,243788.875,205450.8125,222501.703125,219357.890625,206865.671875,214965.0,1.0,1
219510.59375,231917.328125,247804.0625,244334.171875,206015.40625,222663.53125,221176.875,207343.375,214966.0,1.0,1
219401.6875,231766.6875,247765.171875,244251.03125,205980.640625,222605.6875,221196.8125,207249.3125,214967.0,1.0,1
219039.15625,231042.65625,247343.34375,243656.734375,205391.796875,222405.234375,219403.03125,206717.34375,214968.0,1.0,1
218904.6875,230712.484375,247101.140625,243348.28125,205037.03125,222324.234375,218213.03125,206454.484375,214969.0,1.0,1
219196.140625,231254.109375,247389.03125,243771.796875,205423.359375,222480.6875,219332.765625,206844.75,214970.0,1.0,1
219499.59375,231898.90625,247795.390625,244325.234375,205996.71875,222652.703125,221164.0,207327.90625,214971.0,1.0,1
219395.4375,231759.609375,247758.1875,244245.921875,205968.109375,222599.0625,221196.546875,207240.015625,214972.0,1.0,1
219036.640625,231044.265625,247339.140625,243656.015625,205389.5625,222403.625,219412.875,206709.5625,214973.0,1.0,1
218901.375,230714.1875,247099.984375,243348.375,205044.453125,222334.328125,218220.71875,206450.28125,214974.0,1.0,1
219187.75,231253.75,247387.234375,243770.90625,205434.890625,222498.9375,219332.21875,206846.09375,214975.0,1.0,1
219487.34375,231897.65625,247791.625,244321.203125,206012.375,222671.75,221163.015625,207335.328125,214976.0,1.0,1
219384.96875,231763.8125,247760.421875,244247.171875,205990.921875,222626.609375,221210.3125,207257.09375,214977.0,1.0,1
219026.453125,231050.34375,247342.453125,243660.3125,205415.578125,222434.375,219434.5,206735.3125,214978.0,1.0,1
218888.046875,230715.078125,247097.65625,243345.59375,205059.921875,222355.96875,218231.453125,206469.59375,214979.0,1.0,1
219181.21875,231251.15625,247386.53125,243767.78125,205443.75,222515.109375,219335.265625,206859.953125,214980.0,1.0,1
219493.515625,231905.96875,247801.203125,244327.28125,206022.390625,222689.640625,221172.578125,207350.796875,214981.0,1.0,1
219396.0625,231777.3125,247769.375,244254.875,206000.484375,222638.578125,221228.640625,207267.375,214982.0,1.0,1
219040.21875,231064.03125,247350.9375,243663.0,205419.96875,222438.578125,219446.75,206736.125,214983.0,1.0,1
218901.640625,230726.25,247104.890625,243345.515625,205059.65625,222357.40625,218230.734375,206468.796875,214984.0,1.0,1
219188.546875,231254.828125,247386.53125,243763.75,205432.75,222509.5625,219319.4375,206852.796875,214985.0,1.0,1
219494.046875,231901.140625,247793.0625,244319.6875,206002.453125,222673.359375,221152.109375,207335.953125,214986.0,1.0,1
219396.59375,231773.109375,247764.546875,244252.546875,205983.671875,222620.796875,221217.8125,207257.8125,214987.0,1.0,1
219041.46875,231056.96875,247346.203125,243663.171875,205400.03125,222417.84375,219436.734375,206730.84375,214988.0,1.0,1
218903.875,230716.234375,247100.421875,243344.171875,205036.9375,222333.34375,218214.375,206460.03125,214989.0,1.0,1
219191.40625,231239.0,247382.140625,243757.234375,205414.15625,222483.734375,219296.46875,206843.328125,214990.0,1.0,1
219498.875,231889.609375,247790.015625,244315.84375,205991.09375,222651.1875,221131.0,207328.171875,214991.0,1.0,1
219408.84375,231775.359375,247770.796875,244258.359375,205987.703125,222608.984375,221214.15625,207256.828125,214992.0,1.0,1
219053.71875,231069.3125,247356.578125,243672.921875,205413.25,222415.421875,219445.0625,206729.953125,214993.0,1.0,1
218909.0625,230719.015625,247106.421875,243348.28125,205045.609375,222334.421875,218214.375,206455.921875,214994.0,1.0,1
219189.796875,231238.90625,247381.078125,243754.90625,205416.125,222485.515625,219284.296875,206836.34375,214995.0,1.0,1
219498.96875,231892.296875,247792.25,244317.09375,206003.15625,222661.390625,221131.0,207332.109375,214996.0,1.0,1
219406.96875,231778.921875,247772.046875,244258.796875,205997.265625,222616.6875,221222.921875,207263.53125,214997.0,1.0,1
219045.59375,231066.265625,247356.9375,243669.703125,205422.46875,222423.65625,219458.734375,206740.5,214998.0,1.0,1
218896.015625,230717.75,247105.78125,243342.921875,205056.34375,222345.59375,218224.296875,206466.46875,214999.0,1.0,1
219176.828125,231237.65625,247380.71875,243752.765625,205426.9375,222500.890625,219289.125,206847.4375,215000.0,1.0,1
219485.296875,231894.359375,247789.9375,244315.484375,206009.59375,222676.40625,221137.984375,207341.859375,215001.0,1.0,1
219393.828125,231780.453125,247770.53125,244257.90625,206006.921875,222630.625,221241.0625,207273.71875,215002.0,1.0,1
219036.015625,231071.359375,247356.21875,243669.15625,205434.171875,222432.765625,219479.203125,206745.515625,215003.0,1.0,1
218883.046875,230711.59375,247100.6875,243338.171875,205061.703125,222346.578125,218230.90625,206464.0625,215004.0,1.0,1
219171.203125,231233.640625,247378.5625,243744.265625,205426.046875,222499.640625,219284.296875,206839.5625,215005.0,1.0,1
219485.640625,231890.234375,247787.515625,244301.8125,206000.75,222668.796875,221126.796875,207327.640625,215006.0,1.0,1
219400.078125,231783.21875,247774.015625,244252.8125,206004.59375,222625.703125,221243.65625,207265.953125,215007.0,1.0,1
219041.828125,231068.671875,247354.078125,243665.40625,205428.453125,222426.0625,219481.71875,206738.0,215008.0,1.0,1
218893.953125,230711.046875,247096.765625,243333.96875,205054.90625,222338.359375,218226.796875,206454.21875,215009.0,1.0,1
219173.703125,231224.609375,247367.484375,243739.703125,205415.046875,222485.078125,219264.984375,206827.671875,215010.0,1.0,1
219489.84375,231886.578125,247779.921875,244305.734375,205993.6875,222655.75,221109.375,207322.359375,215011.0,1.0,1
219404.015625,231785.359375,247766.78125,244259.96875,205997.53125,222612.296875,221236.6875,207263.09375,215012.0,1.0,1
219042.546875,231074.046875,247353.71875,243673.453125,205427.5625,222416.3125,219482.875,206739.875,215013.0,1.0,1
218895.203125,230718.203125,247100.15625,243341.484375,205055.984375,222333.078125,218219.90625,206462.984375,215014.0,1.0,1
219173.265625,231228.265625,247370.25,243739.703125,205413.53125,222482.921875,219252.734375,206836.171875,215015.0,1.0,1
219488.953125,231891.765625,247786.0,244305.390625,206000.296875,222659.859375,221108.921875,207332.015625,215016.0,1.0,1
219406.875,231795.828125,247776.703125,244260.59375,206007.1875,222618.015625,221248.390625,207274.265625,215017.0,1.0,1
219050.0625,231087.28125,247363.640625,243674.265625,205433.8125,222424.359375,219497.984375,206751.59375,215018.0,1.0,1
218889.125,230715.515625,247099.984375,243333.0,205051.609375,222335.765625,218221.34375,206468.609375,215019.0,1.0,1
219166.28125,231225.328125,247371.0625,243732.375,205411.46875,222487.578125,219250.15625,206845.203125,215020.0,1.0,1
219482.875,231891.3125,247788.59375,244299.65625,205999.859375,222670.59375,221109.1875,207338.71875,215021.0,1.0,1
219400.796875,231802.078125,247783.578125,244258.4375,206013.265625,222634.375,221261.53125,207281.765625,215022.0,1.0,1
219039.234375,231087.453125,247369.09375,243672.5625,205441.59375,222437.234375,219514.34375,206755.53125,215023.0,1.0,1
218883.40625,230716.859375,247105.875,243330.484375,205058.40625,222347.75,218232.15625,206464.328125,215024.0,1.0,1
219160.03125,231222.109375,247371.421875,243725.484375,205410.9375,222497.59375,219247.203125,206830.265625,215025.0,1.0,1
219480.90625,231888.8125,247789.84375,244296.984375,205997.796875,222676.9375,221109.8125,207328.0,215026.0,1.0,1
219402.140625,231796.28125,247781.703125,244257.375,206009.328125,222636.265625,221268.15625,207274.984375,215027.0,1.0,1
219041.828125,231083.609375,247367.296875,243673.546875,205438.5625,222437.234375,219523.203125,206749.71875,215028.0,1.0,1
218880.8125,230705.859375,247099.53125,243328.875,205051.875,222344.34375,218232.515625,206454.765625,215029.0,1.0,1
219158.234375,231210.390625,247364.71875,243721.828125,205403.0625,222492.21875,219239.875,206821.5,215030.0,1.0,1
219476.796875,231875.3125,247780.8125,244292.78125,205988.234375,222666.5625,221097.75,207319.234375,215031.0,1.0,1
219398.296875,231785.453125,247774.90625,244256.828125,206003.703125,222623.828125,221263.140625,207267.375,215032.0,1.0,1
219039.5,231074.84375,247359.96875,243673.90625,205432.203125,222425.078125,219521.046875,206742.921875,215033.0,1.0,1
218884.65625,230702.296875,247097.921875,243332.546875,205049.546875,222336.203125,218224.46875,206451.359375,215034.0,1.0,1
219161.90625,231204.3125,247363.90625,243727.28125,205400.65625,222482.296875,219222.4375,206818.28125,215035.0,1.0,1
219481.984375,231873.703125,247781.703125,244299.125,205986.0,222656.5625,221083.890625,207316.109375,215036.0,1.0,1
219403.84375,231796.359375,247778.75,244263.453125,206004.765625,222615.25,221262.34375,207267.015625,215037.0,1.0,1
219044.0625,231087.1875,247366.234375,243679.4375,205438.640625,222418.90625,219528.03125,206746.046875,215038.0,1.0,1
218880.265625,230704.796875,247097.203125,243330.9375,205050.53125,222331.734375,218223.3125,206451.984375,215039.0,1.0,1
219152.609375,231203.953125,247358.546875,243718.6875,205397.609375,222481.046875,219214.5625,206816.765625,215040.0,1.0,1
219476.625,231880.9375,247777.859375,244291.875,205989.03125,222664.515625,221083.4375,207321.015625,215041.0,1.0,1
219407.234375,231805.296875,247781.078125,244267.390625,206018.453125,222638.3125,221281.921875,207282.3125,215042.0,1.0,1
219053.1875,231099.171875,247373.5625,243687.765625,205454.390625,222448.234375,219551.625,206764.46875,215043.0,1.0,1
218885.546875,230707.46875,247099.078125,243331.03125,205057.953125,222353.46875,218237.34375,206463.875,215044.0,1.0,1
219156.265625,231201.984375,247357.734375,243716.1875,205399.3125,222499.921875,219218.140625,206822.484375,215045.0,1.0,1
219481.53125,231877.8125,247777.953125,244291.875,205987.78125,222677.65625,221083.96875,207324.875,215046.0,1.0,1
219409.390625,231801.8125,247778.578125,244263.265625,206010.3125,222635.1875,221281.203125,207280.25,215047.0,1.0,1
219051.21875,231093.796875,247367.125,243683.5625,205444.1875,222436.96875,219551.625,206760.0,215048.0,1.0,1
218886.796875,230703.1875,247098.375,243330.3125,205052.765625,222342.921875,218232.78125,206458.953125,215049.0,1.0,1
219160.203125,231197.15625,247357.734375,243715.125,205393.671875,222485.4375,219200.796875,206814.796875,215050.0,1.0,1
219481.0,231864.40625,247775.71875,244286.703125,205982.78125,222658.875,221062.34375,207314.578125,215051.0,1.0,1
219416.984375,231797.875,247783.578125,244268.546875,206017.375,222625.4375,221276.203125,207275.875,215052.0,1.0,1
219062.21875,231099.34375,247374.015625,243692.5,205453.9375,222432.328125,219555.75,206757.484375,215053.0,1.0,1
218896.09375,230711.234375,247101.046875,243336.296875,205056.796875,222338.4375,218230.1875,206453.78125,215054.0,1.0,1
219167.71875,231200.46875,247358.625,243717.4375,205398.421875,222483.109375,219193.203125,206808.1875,215055.0,1.0,1
219492.703125,231873.96875,247781.4375,244294.65625,205994.140625,222664.6875,221064.578125,207315.921875,215056.0,1.0,1
219429.140625,231814.515625,247795.5625,244281.25,206034.28125,222635.546875,221294.53125,207287.5,215057.0,1.0,1
219064.625,231109.71875,247383.125,243698.21875,205469.21875,222437.6875,219576.21875,206768.9375,215058.0,1.0,1
218893.0625,230714.984375,247105.15625,243334.328125,205069.125,222343.359375,218241.734375,206463.4375,215059.0,1.0,1
219159.40625,231200.46875,247358.09375,243709.9375,205406.46875,222490.703125,219196.421875,206819.453125,215060.0,1.0,1
219480.1875,231875.578125,247779.015625,244283.921875,205996.546875,222673.71875,221069.84375,207328.0,215061.0,1.0,1
219415.828125,231815.140625,247790.46875,244270.875,206034.1875,222644.03125,221305.609375,207297.59375,215062.0,1.0,1
219055.6875,231108.015625,247378.21875,243688.03125,205466.0,222441.796875,219582.921875,206773.9375,215063.0,1.0,1
218880.1875,230702.5625,247095.15625,243319.9375,205054.5625,222337.546875,218230.640625,206457.796875,215064.0,1.0,1
219144.203125,231176.328125,247344.234375,243693.390625,205382.40625,222475.78125,219168.078125,206803.53125,215065.0,1.0,1
219475.1875,231859.21875,247769.640625,244274.53125,205978.671875,222656.828125,221043.828125,207310.296875,215066.0,1.0,1
219417.875,231807.09375,247786.625,244268.453125,206026.5,222625.984375,221291.84375,207283.5625,215067.0,1.0,1
219061.765625,231102.203125,247375.53125,243689.015625,205461.265625,222423.5625,219576.75,206760.0,215068.0,1.0,1
218889.21875,230699.34375,247094.4375,243325.03125,205055.71875,222321.546875,218225.359375,206449.21875,215069.0,1.0,1
219154.484375,231177.21875,247344.328125,243699.5625,205384.46875,222460.03125,219154.75,206794.59375,215070.0,1.0,1
219477.25,231856.265625,247766.6875,244277.484375,205977.328125,222638.046875,221028.71875,207302.875,215071.0,1.0,1
219415.015625,231803.96875,247785.90625,244269.796875,206024.890625,222606.671875,221289.703125,207282.3125,215072.0,1.0,1
219066.421875,231110.4375,247385.359375,243697.6875,205467.609375,222414.625,219583.453125,206764.28125,215073.0,1.0,1
218891.0,230701.484375,247101.40625,243327.1875,205054.203125,222313.046875,218219.46875,206447.0625,215074.0,1.0,1
219152.0625,231177.484375,247345.21875,243692.953125,205377.5,222453.328125,219140.625,206790.84375,215075.0,1.0,1
219478.140625,231860.921875,247767.046875,244273.203125,205970.53125,222636.703125,221019.6875,207300.09375,215076.0,1.0,1
219424.046875,231818.0,247789.3125,244275.609375,206021.671875,222613.90625,221293.640625,207285.4375,215077.0,1.0,1
219065.4375,231113.734375,247382.765625,243700.015625,205462.609375,222420.34375,219592.484375,206768.84375,215078.0,1.0,1
218887.421875,230704.609375,247099.171875,243326.828125,205053.21875,222324.40625,218228.765625,206454.046875,215079.0,1.0,1
219147.78125,231175.515625,247340.296875,243693.296875,205377.3125,222468.359375,219143.484375,206797.8125,215080.0,1.0,1
219472.953125,231855.1875,247753.359375,244271.40625,205967.84375,222652.359375,221018.4375,207305.640625,215081.0,1.0,1
219413.5,231813.625,247766.5,244274.8125,206014.078125,222631.796875,221302.3125,207290.0,215082.0,1.0,1
219055.421875,231112.125,247356.671875,243699.5625,205455.546875,222440.8125,219605.71875,206773.765625,215083.0,1.0,1
218881.796875,230701.390625,247074.140625,243323.6875,205048.46875,222343.359375,218231.984375,206452.078125,215084.0,1.0,1
219144.65625,231169.890625,247320.453125,243684.359375,205371.953125,222484.09375,219132.40625,206790.03125,215085.0,1.0,1
219471.703125,231850.984375,247745.671875,244266.671875,205966.59375,222668.0,221008.15625,207298.9375,215086.0,1.0,1
219420.296875,231819.15625,247774.109375,244275.796875,206027.125,222651.734375,221301.0625,207286.953125,215087.0,1.0,1
219065.703125,231121.078125,247372.21875,243704.5625,205470.921875,222462.28125,219608.21875,206771.53125,215088.0,1.0,1
218885.453125,230704.703125,247085.9375,243325.578125,205055.0,222361.15625,218225.90625,206447.703125,215089.0,1.0,1
219150.28125,231177.9375,247336.015625,243691.0625,205379.453125,222507.6875,219123.90625,206790.921875,215090.0,1.0,1
219482.421875,231862.875,247765.25,244274.453125,205977.859375,222694.546875,221008.34375,207306.453125,215091.0,1.0,1
219431.828125,231827.921875,247793.234375,244280.796875,206035.171875,222667.90625,221314.109375,207294.5625,215092.0,1.0,1
219073.578125,231123.671875,247387.953125,243703.046875,205472.53125,222466.125,219621.015625,206776.09375,215093.0,1.0,1
218891.890625,230703.90625,247099.34375,243323.515625,205051.875,222357.125,218230.640625,206450.28125,215094.0,1.0,1
219150.1875,231167.03125,247333.515625,243680.78125,205360.15625,222485.96875,219115.140625,206782.703125,215095.0,1.0,1
219482.515625,231855.90625,247758.734375,244266.046875,205955.0625,222662.359375,221001.90625,207295.984375,215096.0,1.0,1
219432.0,231827.5625,247783.9375,244274.890625,206013.171875,222623.203125,221313.3125,207283.734375,215097.0,1.0,1
219075.0,231131.890625,247379.546875,243702.25,205454.109375,222417.390625,219632.0,206770.28125,215098.0,1.0,1
218895.03125,230718.921875,247091.75,243324.046875,205035.78125,222318.59375,218244.859375,206449.21875,215099.0,1.0,1
219150.453125,231177.578125,247325.109375,243676.40625,205345.3125,222461.015625,219122.65625,206781.8125,215100.0,1.0,1
219476.34375,231858.046875,247745.5,244256.75,205943.0,222644.9375,221011.015625,207293.75,215101.0,1.0,1
219423.859375,231828.015625,247775.625,244271.3125,206011.921875,222634.03125,221343.34375,207292.6875,215102.0,1.0,1
219071.328125,231134.578125,247373.921875,243704.296875,205463.328125,222449.21875,219671.875,206783.859375,215103.0,1.0,1
218887.0625,230710.6875,247080.578125,243321.453125,205044.09375,222346.40625,218277.046875,206453.59375,215104.0,1.0,1
219136.515625,231160.40625,247314.109375,243673.453125,205355.140625,222485.609375,219147.78125,206782.875,215105.0,1.0,1
219466.515625,231846.4375,247740.9375,244258.796875,205953.984375,222670.40625,221037.65625,207301.265625,215106.0,1.0,1
219424.140625,231829.71875,247780.625,244283.03125,206029.625,222655.75,221379.640625,207306.09375,215107.0,1.0,1
219061.765625,231131.625,247374.375,243708.59375,205473.15625,222457.0,219700.5,206788.0625,215108.0,1.0,1
218868.03125,230701.9375,247075.5625,243318.6875,205045.34375,222346.9375,218285.0,206453.78125,215109.0,1.0,1
219126.59375,231161.125,247313.65625,243675.25,205356.484375,222482.84375,219142.59375,206784.84375,215110.0,1.0,1
219456.5,231849.46875,247740.125,244260.234375,205951.75,222653.609375,221021.125,207295.1875,215111.0,1.0,1
219416.625,231833.375,247780.546875,244286.96875,206028.015625,222625.359375,221364.71875,207295.984375,215112.0,1.0,1
219067.3125,231142.796875,247382.953125,243722.453125,205477.890625,222423.203125,219693.78125,206787.984375,215113.0,1.0,1
218879.015625,230710.875,247088.359375,243332.1875,205050.4375,222307.328125,218268.546875,206453.328125,215114.0,1.0,1
219129.1875,231158.890625,247327.078125,243679.984375,205361.046875,222433.484375,219099.234375,206774.5625,215115.0,1.0,1
219466.328125,231854.5625,247751.578125,244270.96875,205957.390625,222625.703125,220979.28125,207288.125,215116.0,1.0,1
219427.71875,231843.484375,247764.546875,244300.46875,206014.078125,222620.609375,221349.78125,207292.234375,215117.0,1.0,1
219072.046875,231143.421875,247363.015625,243730.046875,205466.28125,222413.90625,219680.375,206782.171875,215118.0,1.0,1
218885.546875,230706.9375,247087.453125,243337.46875,205048.5625,222290.875,218243.421875,206452.25,215119.0,1.0,1
219136.6875,231149.6875,247309.90625,243680.421875,205335.921875,222421.5,219077.421875,206774.921875,215120.0,1.0,1
219469.640625,231838.921875,247730.125,244271.671875,205930.75,222611.578125,220965.421875,207293.03125,215121.0,1.0,1
219432.09375,231834.453125,247775.71875,244305.03125,206016.3125,222607.921875,221336.546875,207307.796875,215122.0,1.0,1
219077.328125,231144.40625,247371.953125,243733.53125,205464.21875,222420.25,219671.703125,206798.96875,215123.0,1.0,1
218886.4375,230702.109375,247073.78125,243338.453125,205038.375,222320.46875,218237.171875,206459.59375,215124.0,1.0,1
219135.078125,231145.296875,247298.375,243681.140625,205336.71875,222466.390625,219062.65625,206781.0,215125.0,1.0,1
219467.671875,231843.65625,247722.875,244270.0625,205937.625,222665.234375,220958.265625,207301.53125,215126.0,1.0,1
219431.375,231843.65625,247773.390625,244304.21875,206028.015625,222655.21875,221341.921875,207313.25,215127.0,1.0,1
219079.109375,231152.453125,247382.765625,243738.09375,205488.984375,222467.640625,219686.71875,206803.265625,215128.0,1.0,1
218893.328125,230714.625,247090.765625,243345.421875,205065.1875,222367.6875,218251.109375,206464.6875,215129.0,1.0,1
219142.6875,231156.03125,247317.953125,243685.25,205359.96875,222498.390625,219066.78125,206780.296875,215130.0,1.0,1
219476.625,231851.703125,247748.625,244276.234375,205961.328125,222685.875,220962.03125,207299.75,215131.0,1.0,1
219441.484375,231853.21875,247799.765625,244315.125,206053.5,222674.890625,221357.5625,207316.109375,215132.0,1.0,1
219085.734375,231156.828125,247402.359375,243748.46875,205507.140625,222472.828125,219704.6875,206805.328125,215133.0,1.0,1
218893.234375,230712.390625,247098.015625,243345.875,205069.046875,222355.34375,218256.03125,206457.796875,215134.0,1.0,1
219138.296875,231148.078125,247316.796875,243675.875,205356.296875,222480.609375,219061.671875,206768.671875,215135.0,1.0,1
219475.1875,231844.90625,247747.546875,244263.0,205959.984375,222663.53125,220958.0,207288.65625,215136.0,1.0,1
219442.734375,231847.140625,247803.78125,244306.640625,206055.46875,222648.421875,221365.703125,207309.21875,215137.0,1.0,1
219091.0,231157.453125,247404.3125,243738.28125,205502.65625,222447.171875,219716.140625,206799.515625,215138.0,1.0,1
218897.890625,230712.03125,247100.15625,243334.328125,205057.859375,222329.953125,218260.40625,206450.90625,215139.0,1.0,1
219137.3125,231138.859375,247314.734375,243663.359375,205339.046875,222455.390625,219053.453125,206760.0,215140.0,1.0,1
219472.6875,231833.640625,247738.96875,244251.46875,205933.875,222638.9375,220944.40625,207278.546875,215141.0,1.0,1
219445.0625,231846.078125,247795.109375,244296.984375,206027.578125,222626.6875,221360.953125,207300.1875,215142.0,1.0,1
219099.3125,231163.71875,247404.859375,243738.625,205486.21875,222435.0,219722.21875,206797.71875,215143.0,1.0,1
218902.984375,230716.59375,247100.875,243334.421875,205045.171875,222325.03125,218263.546875,206450.90625,215144.0,1.0,1
219144.5625,231145.484375,247317.5,243662.90625,205329.296875,222455.203125,219049.703125,206757.765625,215145.0,1.0,1
219480.015625,231841.609375,247745.3125,244253.96875,205929.671875,222645.828125,220941.734375,207277.21875,215146.0,1.0,1
219453.8125,231859.75,247800.21875,244305.03125,206030.515625,222635.984375,221368.375,207303.40625,215147.0,1.0,1
219103.171875,231179.984375,247407.8125,243747.484375,205493.984375,222444.125,219735.0,206803.71875,215148.0,1.0,1
218897.4375,230723.03125,247095.953125,243336.125,205049.8125,222331.296875,218263.8125,206450.828125,215149.0,1.0,1
219135.265625,231147.625,247310.265625,243662.09375,205333.6875,222465.21875,219038.609375,206758.921875,215150.0,1.0,1
219474.296875,231846.515625,247743.171875,244255.671875,205941.296875,222659.234375,220931.8125,207286.78125,215151.0,1.0,1
219446.390625,231862.25,247802.265625,244307.4375,206045.546875,222647.171875,221366.6875,207317.625,215152.0,1.0,1
219093.6875,231176.140625,247409.328125,243749.71875,205508.75,222453.6875,219737.859375,206813.109375,215153.0,1.0,1
218890.828125,230715.875,247099.0,243341.671875,205065.90625,222346.046875,218266.40625,206460.5625,215154.0,1.0,1
219129.453125,231136.71875,247310.984375,243665.046875,205345.578125,222478.1875,219032.890625,206765.09375,215155.0,1.0,1
219468.578125,231836.15625,247738.796875,244255.671875,205951.578125,222668.265625,220928.046875,207287.140625,215156.0,1.0,1
219443.625,231858.5,247798.0625,244310.21875,206058.6875,222658.515625,221376.0625,207317.796875,215157.0,1.0,1
219097.0,231178.203125,247410.046875,243751.0625,205521.53125,222462.1875,219754.21875,206816.59375,215158.0,1.0,1
218895.828125,230719.453125,247100.25,243335.859375,205070.828125,222341.9375,218270.78125,206457.171875,215159.0,1.0,1
219136.25,231139.9375,247313.65625,243657.359375,205343.96875,222468.078125,219023.765625,206757.3125,215160.0,1.0,1
219477.0625,231841.78125,247743.53125,244246.828125,205942.015625,222654.59375,220915.53125,207279.1875,215161.0,1.0,1
219456.859375,231867.984375,247808.34375,244303.0625,206049.203125,222645.203125,221376.15625,207314.3125,215162.0,1.0,1
219105.84375,231179.640625,247415.578125,243742.65625,205504.71875,222446.0,219753.25,206807.203125,215163.0,1.0,1
218901.734375,230719.640625,247100.78125,243324.5,205049.015625,222324.046875,218262.375,206447.421875,215164.0,1.0,1
219136.421875,231134.75,247308.109375,243642.609375,205320.984375,222452.53125,219006.78125,206747.296875,215165.0,1.0,1
219477.875,231835.078125,247736.5625,244236.890625,205925.640625,222641.796875,220905.78125,207269.53125,215166.0,1.0,1
219461.78125,231864.140625,247802.09375,244299.65625,206040.359375,222640.640625,221375.078125,207309.484375,215167.0,1.0,1
219115.40625,231187.953125,247414.25,243747.84375,205509.375,222457.359375,219763.609375,206814.53125,215168.0,1.0,1
218901.734375,230718.828125,247093.8125,243328.4375,205048.921875,222339.875,218264.53125,206452.078125,215169.0,1.0,1
219128.46875,231127.59375,247296.046875,243643.765625,205316.515625,222467.015625,218998.296875,206748.015625,215170.0,1.0,1
219472.59375,231836.421875,247730.125,244242.265625,205925.640625,222665.765625,220899.703125,207277.390625,215171.0,1.0,1
219455.34375,231869.3125,247798.328125,244309.578125,206044.921875,222664.515625,221381.171875,207322.09375,215172.0,1.0,1
219102.265625,231188.390625,247408.078125,243754.1875,205514.828125,222471.484375,219770.40625,206825.0,215173.0,1.0,1
218894.125,230718.734375,247090.859375,243335.3125,205062.953125,222352.75,218267.5625,206460.65625,215174.0,1.0,1
219128.828125,231127.953125,247294.796875,243648.328125,205327.875,222475.78125,218992.84375,206753.828125,215175.0,1.0,1
219467.765625,231829.71875,247723.859375,244242.078125,205931.8125,222663.171875,220891.125,207276.859375,215176.0,1.0,1
219455.34375,231873.703125,247797.171875,244317.09375,206055.734375,222659.953125,221386.796875,207325.21875,215177.0,1.0,1
219108.34375,231197.15625,247403.25,243768.40625,205518.046875,222465.140625,219787.21875,206830.171875,215178.0,1.0,1
218897.171875,230722.578125,247079.6875,243346.21875,205055.1875,222341.21875,218278.109375,206465.125,215179.0,1.0,1
219129.71875,231122.6875,247288.09375,243650.390625,205322.6875,222462.90625,218991.578125,206753.28125,215180.0,1.0,1
219476.34375,231829.984375,247728.328125,244246.015625,205931.015625,222648.78125,220887.28125,207277.21875,215181.0,1.0,1
219465.265625,231873.078125,247803.96875,244319.59375,206054.9375,222642.421875,221387.609375,207323.265625,215182.0,1.0,1
219117.828125,231194.390625,247416.03125,243766.171875,205522.25,222445.5625,219790.609375,206823.734375,215183.0,1.0,1
218904.859375,230717.9375,247091.03125,243336.484375,205052.140625,222319.765625,218271.046875,206452.171875,215184.0,1.0,1
219135.078125,231121.515625,247294.53125,243641.984375,205310.890625,222444.84375,218975.140625,206740.859375,215185.0,1.0,1
219476.078125,231822.921875,247725.5625,244236.890625,205915.546875,222635.28125,220872.625,207263.71875,215186.0,1.0,1
219466.6875,231871.546875,247800.65625,244313.515625,206044.109375,222637.0625,221388.3125,207315.296875,215187.0,1.0,1
219121.21875,231197.421875,247418.265625,243764.296875,205521.078125,222454.5,219801.515625,206821.234375,215188.0,1.0,1
218909.0625,230723.484375,247098.8125,243335.046875,205062.328125,222339.515625,218283.21875,206453.421875,215189.0,1.0,1
219131.859375,231116.609375,247291.75,243629.828125,205315.71875,222457.890625,218970.578125,206733.34375,215190.0,1.0,1
219473.21875,231820.953125,247722.875,244227.953125,205923.40625,222652.796875,220867.875,207262.375,215191.0,1.0,1
219465.890625,231878.890625,247806.03125,244314.953125,206063.25,222660.21875,221398.421875,207323.703125,215192.0,1.0,1
219119.078125,231207.265625,247424.078125,243769.296875,205541.828125,222472.5625,219814.3125,206831.25,215193.0,1.0,1
218900.5625,230722.40625,247098.8125,243338.171875,205077.53125,222352.296875,218285.09375,206461.109375,215194.0,1.0,1
219117.296875,231109.8125,247286.84375,243631.515625,205323.484375,222468.359375,218962.4375,206740.59375,215195.0,1.0,1
219464.71875,231822.5625,247723.40625,244233.40625,205932.359375,222663.625,220866.625,207271.9375,215196.0,1.0,1
219464.09375,231886.3125,247812.375,244325.59375,206076.03125,222668.359375,221410.40625,207333.359375,215197.0,1.0,1
219108.078125,231205.203125,247423.1875,243771.359375,205545.125,222469.96875,219824.328125,206836.609375,215198.0,1.0,1
218887.515625,230712.21875,247091.9375,243333.96875,205070.65625,222342.296875,218282.9375,206460.921875,215199.0,1.0,1
219117.375,231106.140625,247285.3125,243628.484375,205316.34375,222462.359375,218955.90625,206742.734375,215200.0,1.0,1
219466.609375,231819.515625,247722.609375,244226.4375,205925.640625,222653.421875,220858.484375,207271.765625,215201.0,1.0,1
219463.03125,231879.328125,247805.125,244312.453125,206062.625,222651.8125,221400.5625,207329.6875,215202.0,1.0,1
219114.875,231204.21875,247417.28125,243763.046875,205531.453125,222457.453125,219817.4375,206833.390625,215203.0,1.0,1
218892.515625,230713.90625,247087.90625,243325.03125,205058.578125,222328.875,218274.453125,206452.171875,215204.0,1.0,1
219113.359375,231099.078125,247278.515625,243616.6875,205303.375,222447.078125,218937.578125,206728.34375,215205.0,1.0,1
219462.484375,231811.203125,247714.5625,244218.484375,205910.1875,222643.59375,220841.765625,207258.796875,215206.0,1.0,1
219463.109375,231877.640625,247802.265625,244312.0,206052.25,222647.703125,221401.453125,207321.5625,215207.0,1.0,1
219119.890625,231210.65625,247424.96875,243767.6875,205530.640625,222461.296875,219833.34375,206830.796875,215208.0,1.0,1
218901.546875,230720.890625,247098.546875,243328.34375,205060.09375,222342.5625,218287.0625,206451.359375,215209.0,1.0,1
219122.828125,231105.96875,247285.765625,243617.125,205305.34375,222469.421875,218941.34375,206725.65625,215210.0,1.0,1
219465.0,231814.25,247716.4375,244213.734375,205912.953125,222667.640625,220841.859375,207254.421875,215211.0,1.0,1
219463.03125,231881.65625,247805.484375,244307.625,206059.765625,222674.53125,221406.734375,207319.859375,215212.0,1.0,1
219117.203125,231210.75,247426.578125,243764.65625,205544.5,222482.5625,219844.078125,206831.96875,215213.0,1.0,1
218895.921875,230717.84375,247098.8125,243324.59375,205074.40625,222358.65625,218290.90625,206453.6875,215214.0,1.0,1
219114.609375,231100.234375,247283.796875,243609.34375,205316.515625,222475.0625,218932.671875,206727.984375,215215.0,1.0,1
219451.140625,231802.796875,247712.421875,244204.984375,205917.15625,222658.34375,220827.828125,207254.328125,215216.0,1.0,1
219454.4375,231877.71875,247808.53125,244307.625,206065.5625,222661.203125,221408.078125,207325.5,215217.0,1.0,1
219110.3125,231207.265625,247428.8125,243764.296875,205545.125,222467.28125,219849.359375,206838.9375,215218.0,1.0,1
218884.5625,230701.9375,247090.5,243318.234375,205061.796875,222332.640625,218284.203125,206454.484375,215219.0,1.0,1
219110.671875,231086.46875,247278.25,243607.734375,205301.140625,222452.34375,218920.59375,206730.765625,215220.0,1.0,1
219461.421875,231802.890625,247711.703125,244209.53125,205907.859375,222644.484375,220822.546875,207260.3125,215221.0,1.0,1
219468.125,231880.9375,247807.28125,244315.9375,206062.0,222649.84375,221413.4375,207333.546875,215222.0,1.0,1
219127.65625,231216.46875,247430.15625,243778.0625,205545.21875,222457.53125,219859.8125,206845.734375,215223.0,1.0,1
218903.78125,230716.140625,247095.328125,243332.8125,205063.9375,222326.640625,218292.78125,206457.078125,215224.0,1.0,1
219114.421875,231084.5,247270.921875,243605.234375,205288.53125,222433.21875,218907.0,206716.625,215225.0,1.0,1
219471.609375,231804.5,247712.140625,244210.34375,205898.5625,222627.140625,220812.984375,207251.90625,215226.0,1.0,1
219484.65625,231892.46875,247813.625,244322.734375,206061.09375,222639.203125,221416.484375,207333.8125,215227.0,1.0,1
219140.453125,231225.328125,247433.203125,243781.453125,205541.28125,222448.0625,219868.125,206840.28125,215228.0,1.0,1
218913.53125,230720.171875,247096.125,243330.21875,205055.71875,222319.765625,218294.390625,206442.953125,215229.0,1.0,1
219129.1875,231089.875,247278.34375,243609.96875,205286.828125,222437.328125,218909.0625,206712.15625,215230.0,1.0,1
219478.9375,231805.296875,247715.71875,244213.828125,205899.90625,222640.734375,220814.859375,207258.703125,215231.0,1.0,1
219485.203125,231893.28125,247815.5,244320.140625,206060.828125,222654.59375,221422.828125,207330.671875,215232.0,1.0,1
219142.859375,231232.390625,247441.78125,243783.515625,205550.578125,222473.453125,219885.125,206832.6875,215233.0,1.0,1
218909.234375,230720.4375,247103.375,243331.828125,205068.5,222344.96875,218307.265625,206442.78125,215234.0,1.0,1
219123.375,231091.484375,247284.78125,243606.84375,205301.765625,222474.4375,218918.71875,206708.234375,215235.0,1.0,1
219467.140625,231806.203125,247720.28125,244205.34375,205910.53125,222667.546875,220819.875,207241.265625,215236.0,1.0,1
219473.484375,231890.953125,247820.15625,244316.921875,206072.359375,222668.359375,221434.359375,207326.75,215237.0,1.0,1
219128.5625,231223.625,247443.296875,243778.328125,205558.1875,222481.5,219895.40625,206842.515625,215238.0,1.0,1
218898.6875,230711.953125,247104.453125,243325.75,205073.515625,222356.421875,218309.140625,206453.421875,215239.0,1.0,1
219107.71875,231073.328125,247277.890625,243596.296875,205295.234375,222471.84375,218895.296875,206714.484375,215240.0,1.0,1
219457.65625,231788.046875,247717.0625,244196.75,205901.953125,222665.3125,220794.828125,207250.65625,215241.0,1.0,1
219470.8125,231883.625,247827.921875,244313.515625,206067.71875,222670.765625,221425.25,207340.421875,215242.0,1.0,1
219129.890625,231225.5,247461.453125,243780.296875,205558.453125,222482.03125,219896.03125,206863.703125,215243.0,1.0,1
218898.0625,230711.5,247121.703125,243323.15625,205066.890625,222349.625,218301.359375,206469.59375,215244.0,1.0,1
219106.828125,231069.9375,247292.015625,243591.5625,205284.328125,222461.921875,218878.21875,206725.296875,215245.0,1.0,1
219458.375,231785.359375,247724.75,244194.15625,205887.03125,222652.0,220774.0,207254.0625,215246.0,1.0,1
219473.484375,231883.984375,247830.703125,244312.625,206053.5,222661.390625,221414.328125,207340.953125,215247.0,1.0,1
219129.984375,231225.859375,247461.890625,243780.5625,205547.546875,222474.171875,219892.1875,206860.578125,215248.0,1.0,1
218897.625,230716.421875,247122.6875,243325.125,205059.921875,222338.984375,218295.546875,206465.390625,215249.0,1.0,1
219104.234375,231072.34375,247291.3125,243584.9375,205270.65625,222445.734375,218860.609375,206713.5,215250.0,1.0,1
219455.421875,231787.953125,247729.765625,244189.78125,205877.375,222641.984375,220761.125,207244.40625,215251.0,1.0,1
219477.328125,231899.890625,247845.28125,244316.015625,206054.65625,222660.21875,221418.53125,207338.28125,215252.0,1.0,1
219135.171875,231241.859375,247477.28125,243784.59375,205553.984375,222479.34375,219903.453125,206860.84375,215253.0,1.0,1
218896.90625,230719.28125,247132.796875,243322.078125,205063.9375,222346.765625,218299.125,206462.890625,215254.0,1.0,1
219101.734375,231071.453125,247298.109375,243580.734375,205280.75,222453.59375,218854.609375,206710.375,215255.0,1.0,1
219449.265625,231781.96875,247729.21875,244182.53125,205889.34375,222646.71875,220750.9375,207242.96875,215256.0,1.0,1
219467.859375,231888.09375,247840.984375,244312.265625,206071.5625,222665.859375,221417.640625,207343.203125,215257.0,1.0,1
219125.25,231231.046875,247471.734375,243782.53125,205568.203125,222477.46875,219910.859375,206865.9375,215258.0,1.0,1
218884.65625,230706.578125,247123.484375,243319.046875,205069.578125,222338.359375,218302.25,206464.421875,215259.0,1.0,1
219086.359375,231052.9375,247286.296875,243577.34375,205276.90625,222446.09375,218851.03125,206711.890625,215260.0,1.0,1
219437.546875,231770.96875,247720.28125,244184.328125,205885.140625,222639.921875,220754.875,207251.28125,215261.0,1.0,1
219459.71875,231885.140625,247834.015625,244317.28125,206068.25,222659.0625,221430.15625,207355.0,215262.0,1.0,1
219124.359375,231236.9375,247464.3125,243788.4375,205564.359375,222469.421875,219924.546875,206873.0,215263.0,1.0,1
218885.375,230710.78125,247118.484375,243325.84375,205068.765625,222327.71875,218311.28125,206468.609375,215264.0,1.0,1
219084.296875,231049.546875,247277.890625,243577.078125,205272.0,222430.796875,218844.515625,206711.625,215265.0,1.0,1
219439.953125,231773.390625,247715.015625,244185.40625,205883.453125,222629.015625,220746.640625,207246.546875,215266.0,1.0,1
219469.015625,231893.015625,247832.046875,244321.65625,206065.484375,222644.578125,221425.421875,207344.53125,215267.0,1.0,1
219135.890625,231243.109375,247466.546875,243795.3125,205563.109375,222450.734375,219923.46875,206863.703125,215268.0,1.0,1
218897.34375,230720.078125,247119.640625,243330.3125,205062.609375,222310.640625,218307.0,206457.984375,215269.0,1.0,1
219098.34375,231060.359375,247280.125,243582.703125,205265.46875,222419.984375,218832.625,206697.859375,215270.0,1.0,1
219452.65625,231781.609375,247716.265625,244189.25,205878.265625,222622.765625,220733.234375,207232.78125,215271.0,1.0,1
219475.28125,231899.453125,247830.25,244323.796875,206065.125,222642.875,221424.53125,207335.78125,215272.0,1.0,1
219138.125,231248.125,247465.734375,243800.6875,205567.3125,222458.703125,219932.59375,206860.578125,215273.0,1.0,1
218900.125,230726.25,247122.953125,243338.171875,205075.203125,222329.765625,218315.046875,206458.0625,215274.0,1.0,1
219095.296875,231057.859375,247277.265625,243582.96875,205276.546875,222441.359375,218829.125,206695.890625,215275.0,1.0,1
219450.234375,231779.734375,247717.0625,244188.34375,205892.921875,222651.90625,220731.625,207232.421875,215276.0,1.0,1
219480.546875,231906.421875,247837.9375,244330.421875,206088.546875,222674.796875,221434.71875,207337.828125,215277.0,1.0,1
219139.90625,231253.390625,247467.078125,243803.90625,205589.03125,222477.921875,219941.265625,206862.453125,215278.0,1.0,1
218898.59375,230725.71875,247118.484375,243335.9375,205092.90625,222347.46875,218316.828125,206461.203125,215279.0,1.0,1
219093.953125,231056.875,247271.8125,243582.703125,205292.828125,222452.890625,218822.421875,206698.390625,215280.0,1.0,1
219443.265625,231773.75,247705.078125,244186.03125,205897.390625,222648.421875,220716.0625,207234.5625,215281.0,1.0,1
219472.234375,231905.0,247829.890625,244327.109375,206090.96875,222669.25,221431.234375,207349.1875,215282.0,1.0,1
219135.34375,231258.21875,247465.65625,243804.078125,205592.78125,222482.5625,219951.453125,206880.0625,215283.0,1.0,1
218885.640625,230717.21875,247109.8125,243326.375,205084.6875,222341.3125,218316.109375,206471.5625,215284.0,1.0,1
219073.296875,231037.46875,247257.15625,243559.90625,205270.203125,222438.84375,218805.078125,206700.984375,215285.0,1.0,1
219427.359375,231759.265625,247695.34375,244166.265625,205877.71875,222638.9375,220703.015625,207238.765625,215286.0,1.0,1
219464.28125,231894.359375,247826.140625,244317.71875,206080.234375,222664.515625,221431.046875,207354.640625,215287.0,1.0,1
219130.796875,231249.734375,247464.125,243796.203125,205588.578125,222475.6875,219955.578125,206880.96875,215288.0,1.0,1
218883.671875,230709.625,247105.875,243316.28125,205077.625,222325.21875,218306.375,206461.828125,215289.0,1.0,1
219078.125,231034.34375,247257.515625,243553.65625,205263.671875,222423.46875,218787.921875,206689.8125,215290.0,1.0,1
219434.421875,231757.203125,247695.0625,244159.65625,205869.671875,222617.21875,220683.96875,207222.671875,215291.0,1.0,1
219473.9375,231897.03125,247825.34375,244315.671875,206070.3125,222640.1875,221422.46875,207338.28125,215292.0,1.0,1
219140.453125,231255.8125,247466.453125,243799.25,205577.234375,222454.3125,219954.40625,206867.734375,215293.0,1.0,1
218900.203125,230724.1875,247118.75,243330.125,205077.796875,222318.859375,218311.640625,206455.109375,215294.0,1.0,1
219094.3125,231048.921875,247273.0625,243570.546875,205272.34375,222429.28125,218790.421875,206681.578125,215295.0,1.0,1
219450.15625,231770.875,247713.046875,244180.296875,205885.140625,222632.6875,220688.96875,207220.34375,215296.0,1.0,1
219484.484375,231909.015625,247837.859375,244330.6875,206089.078125,222657.984375,221431.046875,207337.828125,215297.0,1.0,1
219147.328125,231267.78125,247477.90625,243812.296875,205603.78125,222474.34375,219974.34375,206870.234375,215298.0,1.0,1
218895.03125,230724.546875,247119.375,243332.28125,205095.0625,222332.453125,218325.5,206455.65625,215299.0,1.0,1
219080.640625,231037.828125,247260.28125,243560.359375,205276.28125,222434.375,218787.640625,206681.140625,215300.0,1.0,1
219432.71875,231758.984375,247692.5625,244164.75,205881.125,222632.6875,220682.0,207218.828125,215301.0,1.0,1
219467.671875,231902.578125,247824.53125,244323.0,206085.59375,222658.4375,221438.109375,207342.21875,215302.0,1.0,1
219135.0,231264.65625,247466.71875,243806.765625,205597.875,222475.859375,219984.453125,206878.90625,215303.0,1.0,1
218891.1875,230726.703125,247114.28125,243328.34375,205090.59375,222338.53125,218334.53125,206465.125,215304.0,1.0,1
219080.09375,231037.65625,247259.296875,243556.328125,205270.5625,222432.40625,218788.09375,206686.765625,215305.0,1.0,1
219433.609375,231755.953125,247693.015625,244161.53125,205876.65625,222620.875,220677.796875,207221.515625,215306.0,1.0,1
219474.296875,231906.78125,247825.34375,244325.046875,206084.609375,222644.484375,221440.171875,207344.359375,215307.0,1.0,1
219144.015625,231272.4375,247464.9375,243812.921875,205593.859375,222457.0,219991.328125,206877.828125,215308.0,1.0,1
218899.859375,230730.28125,247105.609375,243334.421875,205082.359375,222318.78125,218334.625,206462.53125,215309.0,1.0,1
219081.53125,231030.859375,247242.046875,243555.96875,205251.4375,222412.296875,218771.203125,206679.890625,215310.0,1.0,1
219434.5,231747.640625,247678.265625,244161.796875,205854.21875,222607.46875,220663.859375,207218.734375,215311.0,1.0,1
219477.328125,231898.5625,247817.734375,244322.109375,206065.75,222634.296875,221436.6875,207342.21875,215312.0,1.0,1
219147.421875,231263.046875,247464.046875,243807.921875,205579.640625,222455.65625,219991.78125,206875.0625,215313.0,1.0,1
218898.59375,230717.671875,247110.4375,243327.453125,205068.0625,222321.71875,218328.8125,206456.546875,215314.0,1.0,1
219083.21875,231025.234375,247250.890625,243550.34375,205243.03125,222429.1875,218761.8125,206672.734375,215315.0,1.0,1
219440.59375,231754.34375,247688.984375,244157.140625,205857.609375,222644.390625,220657.5,207211.046875,215316.0,1.0,1
219486.359375,231922.421875,247837.3125,244326.484375,206084.078125,222689.1875,221452.515625,207346.5,215317.0,1.0,1
219152.96875,231291.578125,247484.609375,243813.375,205604.59375,222512.4375,220020.484375,206883.828125,215318.0,1.0,1
218896.359375,230734.46875,247119.375,243324.046875,205087.015625,222369.015625,218348.65625,206459.3125,215319.0,1.0,1
219079.296875,231036.84375,247253.84375,243544.984375,205256.96875,222468.796875,218773.34375,206673.09375,215320.0,1.0,1
219430.9375,231757.734375,247685.421875,244149.71875,205859.9375,222663.0,220664.75,207209.078125,215321.0,1.0,1
219476.265625,231915.359375,247824.53125,244318.796875,206073.34375,222682.9375,221457.15625,207345.609375,215322.0,1.0,1
219149.125,231284.515625,247474.765625,243810.25,205591.625,222489.1875,220033.796875,206888.734375,215323.0,1.0,1
218891.453125,230724.640625,247111.421875,243319.40625,205069.125,222331.5625,218359.828125,206466.03125,215324.0,1.0,1
219066.5,231013.96875,247239.625,243531.03125,205232.296875,222425.890625,218770.75,206675.234375,215325.0,1.0,1
219426.90625,231740.3125,247672.8125,244138.546875,205840.71875,222634.65625,220663.5,207212.9375,215326.0,1.0,1
219477.25,231909.109375,247813.625,244316.296875,206061.640625,222657.625,221473.609375,207351.59375,215327.0,1.0,1
219146.265625,231274.3125,247455.28125,243806.84375,205575.171875,222466.125,220053.828125,206891.875,215328.0,1.0,1
218890.90625,230714.265625,247090.328125,243318.515625,205053.9375,222322.53125,218379.140625,206469.25,215329.0,1.0,1
219066.234375,231003.140625,247214.421875,243526.640625,205210.125,222416.859375,218776.296875,206670.859375,215330.0,1.0,1
219419.578125,231722.875,247644.640625,244131.671875,205812.734375,222614.171875,220661.078125,207207.46875,215331.0,1.0,1
219470.984375,231893.8125,247793.5,244313.25,206041.15625,222650.125,221478.078125,207347.9375,215332.0,1.0,1
219148.21875,231273.15625,247448.578125,243813.828125,205567.3125,222471.125,220065.09375,206893.65625,215333.0,1.0,1
218896.09375,230722.046875,247090.40625,243329.421875,205049.375,222325.296875,218386.203125,206471.484375,215334.0,1.0,1
219070.796875,231009.046875,247218.265625,243538.625,205210.84375,222416.671875,218774.6875,206674.609375,215335.0,1.0,1
219428.6875,231734.40625,247653.140625,244145.34375,205822.390625,222616.40625,220660.1875,207212.578125,215336.0,1.0,1
219482.421875,231912.59375,247802.359375,244328.453125,206056.625,222650.921875,221484.25,207356.96875,215337.0,1.0,1
219156.890625,231294.875,247459.578125,243829.203125,205595.296875,222470.859375,220080.109375,206903.3125,215338.0,1.0,1
218896.09375,230735.015625,247096.21875,243337.46875,205080.3125,222319.046875,218388.625,206473.53125,215339.0,1.0,1
219066.78125,231019.328125,247222.203125,243543.375,205238.46875,222409.796875,218765.390625,206671.03125,215340.0,1.0,1
219423.328125,231749.609375,247658.765625,244150.171875,205849.03125,222612.125,220650.625,207208.1875,215341.0,1.0,1
219478.3125,231929.40625,247813.4375,244335.6875,206084.078125,222643.234375,221482.640625,207359.921875,215342.0,1.0,1
219151.09375,231307.125,247468.609375,243835.1875,205613.171875,222455.484375,220082.96875,206906.265625,215343.0,1.0,1
218894.84375,230744.9375,247103.734375,243343.984375,205091.484375,222308.765625,218392.640625,206478.625,215344.0,1.0,1
219064.0,231017.71875,247223.1875,243543.546875,205236.765625,222396.65625,218753.9375,206675.59375,215345.0,1.0,1
219422.609375,231737.625,247656.0,244149.640625,205839.28125,222595.484375,220631.75,207213.90625,215346.0,1.0,1
219480.1875,231917.15625,247807.453125,244338.015625,206075.578125,222631.515625,221474.328125,207363.765625,215347.0,1.0,1
219155.828125,231295.234375,247454.921875,243840.90625,205599.765625,222451.640625,220078.234375,206908.671875,215348.0,1.0,1
218901.546875,230735.109375,247085.5,243350.15625,205074.84375,222313.953125,218385.046875,206483.453125,215349.0,1.0,1
219070.359375,231011.015625,247208.78125,243546.234375,205230.859375,222414.984375,218743.03125,206679.703125,215350.0,1.0,1
219421.8125,231728.328125,247642.953125,244146.78125,205835.796875,222619.625,220619.59375,207213.109375,215351.0,1.0,1
219483.765625,231916.609375,247799.140625,244338.109375,206072.71875,222657.890625,221470.75,207366.53125,215352.0,1.0,1
219168.15625,231304.453125,247462.34375,243848.0625,205607.1875,222481.9375,220088.15625,206917.265625,215353.0,1.0,1
218913.078125,230743.859375,247096.3125,243356.78125,205079.5,222335.140625,218385.671875,206485.609375,215354.0,1.0,1
219079.109375,231016.28125,247216.46875,243554.546875,205225.328125,222423.5625,218727.5625,206675.6875,215355.0,1.0,1
219434.421875,231738.34375,247653.234375,244158.84375,205833.5625,222628.390625,220603.140625,207211.5,215356.0,1.0,1
219493.34375,231927.703125,247813.71875,244351.0625,206076.65625,222669.4375,221463.78125,207366.171875,215357.0,1.0,1
219170.484375,231316.515625,247471.90625,243854.765625,205613.078125,222495.09375,220085.5625,206918.25,215358.0,1.0,1
218908.34375,230750.65625,247106.234375,243357.125,205092.375,222353.734375,218387.109375,206485.515625,215359.0,1.0,1
219066.953125,231012.078125,247221.296875,243543.015625,205236.3125,222441.078125,218723.28125,206672.109375,215360.0,1.0,1
219421.71875,231736.90625,247662.171875,244149.71875,205849.390625,222643.59375,220606.0,207213.015625,215361.0,1.0,1
219478.859375,231929.21875,247818.984375,244340.34375,206090.6875,222677.484375,221471.28125,207366.0,215362.0,1.0,1
219155.640625,231318.484375,247478.703125,243844.84375,205627.46875,222498.578125,220097.734375,206917.4375,215363.0,1.0,1
218888.59375,230744.046875,247105.78125,243340.6875,205093.890625,222347.203125,218389.421875,206480.78125,215364.0,1.0,1
219055.421875,231011.8125,247218.796875,243530.140625,205230.953125,222433.9375,218718.625,206667.09375,215365.0,1.0,1
219410.8125,231734.3125,247647.953125,244132.921875,205832.84375,222629.203125,220595.09375,207202.375,215366.0,1.0,1
219473.9375,231931.28125,247814.15625,244333.453125,206083.1875,222671.125,221481.296875,207364.828125,215367.0,1.0,1
219152.78125,231319.015625,247475.9375,243839.296875,205618.53125,222490.53125,220113.46875,206916.453125,215368.0,1.0,1
218886.625,230739.65625,247100.875,243333.53125,205082.546875,222331.65625,218392.921875,206477.5625,215369.0,1.0,1
219051.671875,230998.234375,247210.125,243522.09375,205216.65625,222414.984375,218707.0,206661.828125,215370.0,1.0,1
219413.3125,231723.578125,247644.28125,244133.09375,205821.9375,222614.796875,220584.640625,207201.03125,215371.0,1.0,1
219479.75,231921.078125,247808.078125,244338.546875,206070.484375,222651.015625,221474.140625,207363.21875,215372.0,1.0,1
219160.296875,231306.234375,247468.953125,243848.0625,205607.984375,222466.5625,220112.484375,206919.578125,215373.0,1.0,1
218891.984375,230727.59375,247093.0,243341.3125,205070.375,222307.875,218387.90625,206477.46875,215374.0,1.0,1
219051.578125,230985.703125,247202.890625,243526.109375,205202.53125,222394.40625,218690.46875,206657.171875,215375.0,1.0,1
219416.265625,231720.1875,247643.578125,244138.375,205813.625,222605.859375,220568.640625,207198.265625,215376.0,1.0,1
219485.921875,231931.09375,247809.0625,244349.109375,206068.34375,222652.984375,221473.4375,207370.203125,215377.0,1.0,1
219167.625,231328.578125,247472.0,243862.015625,205610.125,222482.390625,220125.890625,206926.375,215378.0,1.0,1
218903.703125,230757.90625,247103.546875,243356.5,205083.875,222338.171875,218404.8125,206483.90625,215379.0,1.0,1
219063.828125,231016.46875,247216.203125,243537.015625,205221.390625,222430.171875,218701.8125,206662.265625,215380.0,1.0,1
219422.703125,231740.484375,247652.953125,244143.5625,205832.03125,222641.796875,220579.8125,207200.953125,215381.0,1.0,1
219490.03125,231941.65625,247820.953125,244346.875,206090.15625,222694.640625,221487.734375,207368.3125,215382.0,1.0,1
219170.75,231334.578125,247486.484375,243859.6875,205635.34375,222501.609375,220142.875,206930.578125,215383.0,1.0,1
218901.1875,230756.109375,247114.28125,243349.53125,205102.203125,222348.09375,218415.0,206486.59375,215384.0,1.0,1
219051.484375,231000.90625,247215.765625,243519.5,205228.28125,222459.765625,218697.4375,206658.703125,215385.0,1.0,1
219411.265625,231727.15625,247648.671875,244128.890625,205833.296875,222666.5625,220572.484375,207199.703125,215386.0,1.0,1
219480.90625,231936.828125,247818.359375,244340.34375,206090.0625,222710.375,221494.625,207371.71875,215387.0,1.0,1
219159.765625,231331.890625,247480.84375,243850.5625,205633.46875,222550.78125,220159.15625,206930.578125,215388.0,1.0,1
218885.09375,230744.40625,247098.375,243336.75,205093.09375,222372.421875,218424.65625,206483.09375,215389.0,1.0,1
219041.203125,230986.328125,247194.484375,243505.09375,205209.859375,222439.296875,218690.28125,206650.921875,215390.0,1.0,1
219400.53125,231704.359375,247619.703125,244104.84375,205803.515625,222638.859375,220550.390625,207182.890625,215391.0,1.0,1
219473.40625,231918.5,247791.359375,244320.765625,206061.90625,222677.828125,221476.65625,207357.046875,215392.0,1.0,1
219160.921875,231319.640625,247461.625,243842.171875,205609.859375,222502.421875,220147.96875,206920.296875,215393.0,1.0,1
218896.09375,230735.640625,247085.046875,243333.53125,205070.375,222344.796875,218411.515625,206476.3125,215394.0,1.0,1
219051.578125,230977.84375,247184.90625,243505.8125,205186.875,222409.96875,218668.921875,206647.078125,215395.0,1.0,1
219408.9375,231697.65625,247618.53125,244113.34375,205786.53125,222602.90625,220532.953125,207184.5,215396.0,1.0,1
219491.375,231921.890625,247799.859375,244339.0,206055.28125,222654.046875,221473.96875,207369.03125,215397.0,1.0,1
219173.703125,231321.171875,247468.25,243856.46875,205604.40625,222469.421875,220148.15625,206931.921875,215398.0,1.0,1
218905.484375,230738.046875,247096.484375,243347.125,205071.453125,222321.546875,218412.40625,206487.75,215399.0,1.0,1
219059.984375,230980.171875,247198.328125,243515.65625,205195.109375,222413.375,218664.359375,206656.8125,215400.0,1.0,1
219415.375,231705.34375,247627.75,244118.875,205798.59375,222614.171875,220526.96875,207192.1875,215401.0,1.0,1
219495.390625,231933.0625,247810.3125,244344.8125,206073.890625,222667.640625,221481.125,207377.34375,215402.0,1.0,1
219182.46875,231339.3125,247487.5625,243868.359375,205635.96875,222500.09375,220171.671875,206940.59375,215403.0,1.0,1
218905.484375,230750.65625,247107.125,243347.296875,205095.5,222347.03125,218425.8125,206485.25,215404.0,1.0,1
219055.515625,230989.546875,247205.484375,243511.0,205209.671875,222431.875,218667.84375,206646.625,215405.0,1.0,1
219410.453125,231710.359375,247635.875,244112.796875,205810.046875,222638.5,220530.1875,207182.53125,215406.0,1.0,1
219491.1875,231940.75,247816.75,244334.890625,206081.84375,222692.234375,221486.484375,207365.015625,215407.0,1.0,1
219175.21875,231341.28125,247487.375,243854.5,205635.4375,222515.109375,220178.90625,206930.046875,215408.0,1.0,1
218898.515625,230745.03125,247105.34375,243335.40625,205089.6875,222354.8125,218433.328125,206477.640625,215409.0,1.0,1
219046.125,230976.140625,247198.953125,243495.09375,205198.5,222429.28125,218662.65625,206639.03125,215410.0,1.0,1
219404.375,231701.234375,247627.203125,244096.34375,205797.171875,222626.609375,220518.828125,207177.796875,215411.0,1.0,1
219489.578125,231934.59375,247809.875,244324.96875,206071.5625,222679.265625,221484.25,207363.84375,215412.0,1.0,1
219175.140625,231336.546875,247475.75,243843.15625,205623.0,222499.921875,220177.75,206926.734375,215413.0,1.0,1
218899.046875,230744.9375,247091.3125,243325.484375,205080.84375,222343.625,218428.765625,206478.09375,215414.0,1.0,1
219042.90625,230966.75,247178.921875,243480.328125,205185.625,222419.53125,218647.71875,206634.828125,215415.0,1.0,1
219402.59375,231686.921875,247609.59375,244084.1875,205782.328125,222615.421875,220501.21875,207170.546875,215416.0,1.0,1
219488.15625,231925.640625,247800.390625,244321.46875,206062.0,222663.078125,221476.921875,207364.203125,215417.0,1.0,1
219179.515625,231340.65625,247482.734375,243854.234375,205623.0,222491.6875,220185.171875,206935.953125,215418.0,1.0,1
218902.796875,230744.3125,247100.328125,243336.75,205078.515625,222335.3125,218427.609375,206481.765625,215419.0,1.0,1
219046.390625,230963.453125,247187.78125,243490.265625,205180.34375,222411.21875,218630.640625,206637.15625,215420.0,1.0,1
219405.53125,231686.296875,247620.59375,244097.0625,205783.84375,222615.421875,220486.640625,207174.578125,215421.0,1.0,1
219493.15625,231931.28125,247812.8125,244338.015625,206077.109375,222678.8125,221474.421875,207371.53125,215422.0,1.0,1
219178.265625,231347.1875,247489.796875,243868.625,205645.265625,222510.203125,220192.953125,206944.078125,215423.0,1.0,1
218896.71875,230751.46875,247106.6875,243345.953125,205103.375,222352.578125,218438.25,206489.53125,215424.0,1.0,1
219035.125,230968.90625,247190.546875,243490.34375,205202.34375,222427.5,218634.140625,206638.21875,215425.0,1.0,1
219399.8125,231700.25,247623.453125,244094.296875,205805.9375,222632.234375,220491.828125,207174.9375,215426.0,1.0,1
219487.34375,231945.21875,247813.71875,244330.953125,206092.578125,222686.0625,221489.171875,207369.03125,215427.0,1.0,1
219174.59375,231357.90625,247493.453125,243861.203125,205657.34375,222517.34375,220214.84375,206942.390625,215428.0,1.0,1
218895.921875,230754.765625,247108.03125,243335.40625,205105.703125,222357.671875,218452.1875,206483.375,215429.0,1.0,1
219039.15625,230968.546875,247191.171875,243478.71875,205196.53125,222430.359375,218637.0,206624.984375,215430.0,1.0,1
219404.90625,231694.265625,247622.03125,244083.75,205795.921875,222634.03125,220490.671875,207165.640625,215431.0,1.0,1
219499.421875,231941.375,247815.6875,244325.328125,206083.71875,222680.34375,221490.421875,207362.59375,215432.0,1.0,1
219188.734375,231353.171875,247494.984375,243859.421875,205646.34375,222512.703125,220218.0625,206933.265625,215433.0,1.0,1
218905.9375,230749.859375,247107.390625,243334.875,205094.515625,222359.28125,218452.1875,206476.390625,215434.0,1.0,1
219043.0,230957.375,247187.0625,243475.421875,205183.921875,222424.453125,218626.359375,206623.828125,215435.0,1.0,1
219400.359375,231679.328125,247618.09375,244078.109375,205781.53125,222627.046875,220472.15625,207160.171875,215436.0,1.0,1
219495.84375,231936.640625,247817.015625,244326.390625,206073.171875,222682.65625,221482.46875,207363.765625,215437.0,1.0,1
219183.1875,231351.46875,247496.765625,243860.046875,205640.796875,222505.640625,220217.625,206940.5,215438.0,1.0,1
218895.109375,230747.34375,247105.609375,243331.390625,205085.3125,222342.5625,218445.671875,206478.453125,215439.0,1.0,1
219029.578125,230955.9375,247185.0,243472.109375,205173.015625,222412.109375,218608.65625,206622.03125,215440.0,1.0,1
219396.328125,231686.65625,247620.0625,244080.609375,205777.671875,222614.53125,220459.5625,207163.046875,215441.0,1.0,1
219494.59375,231942.984375,247812.734375,244325.859375,206069.140625,222669.15625,221473.171875,207366.890625,215442.0,1.0,1
219188.90625,231365.0625,247498.734375,243868.359375,205641.15625,222501.4375,220218.875,206949.625,215443.0,1.0,1
218904.859375,230759.78125,247111.15625,243344.171875,205093.8125,222341.578125,218448.34375,206489.71875,215444.0,1.0,1
219040.40625,230966.046875,247189.390625,243485.515625,205188.125,222415.78125,218607.9375,206634.375,215445.0,1.0,1
219398.5625,231688.359375,247618.09375,244089.109375,205787.25,222617.03125,220455.171875,207170.90625,215446.0,1.0,1
219493.96875,231948.359375,247815.765625,244338.734375,206085.953125,222675.78125,221487.109375,207377.625,215447.0,1.0,1
219185.0625,231367.75,247499.453125,243874.0,205660.46875,222508.5,220242.921875,206957.578125,215448.0,1.0,1
218902.796875,230758.796875,247111.421875,243343.984375,205110.25,222350.78125,218469.890625,206493.734375,215449.0,1.0,1
219034.953125,230956.203125,247181.96875,243475.328125,205191.078125,222415.15625,218613.578125,206625.609375,215450.0,1.0,1
219395.875,231680.046875,247610.484375,244075.96875,205788.3125,222613.375,220457.59375,207157.9375,215451.0,1.0,1
219497.71875,231945.5,247814.609375,244329.078125,206089.265625,222673.8125,221494.359375,207364.65625,215452.0,1.0,1
219192.84375,231369.4375,247500.703125,243868.359375,205660.375,222502.0625,220246.765625,206942.828125,215453.0,1.0,1
218909.234375,230757.71875,247109.453125,243337.46875,205102.828125,222336.65625,218464.4375,206477.640625,215454.0,1.0,1
219043.984375,230956.296875,247182.859375,243469.609375,205182.671875,222407.5625,218601.953125,206612.734375,215455.0,1.0,1
219406.171875,231678.796875,247609.859375,244071.3125,205773.921875,222609.078125,220439.4375,207146.328125,215456.0,1.0,1
219512.734375,231947.1875,247814.609375,244331.046875,206076.75,222671.046875,221486.578125,207357.046875,215457.0,1.0,1
219204.8125,231371.5,247501.140625,243872.828125,205652.875,222501.078125,220252.40625,206938.09375,215458.0,1.0,1
218912.375,230752.359375,247105.15625,243333.890625,205092.015625,222334.953125,218467.125,206470.046875,215459.0,1.0,1
219041.203125,230947.265625,247172.671875,243458.15625,205166.21875,222400.578125,218590.140625,206600.84375,215460.0,1.0,1
219404.015625,231674.40625,247602.890625,244062.828125,205759.984375,222590.484375,220429.875,207138.984375,215461.0,1.0,1
219507.015625,231946.921875,247809.953125,244326.125,206067.09375,222656.640625,221485.59375,207357.671875,215462.0,1.0,1
219200.96875,231376.234375,247502.046875,243876.671875,205651.796875,222507.421875,220260.09375,206948.375,215463.0,1.0,1
218908.796875,230756.46875,247109.640625,243344.4375,205095.5,222339.515625,218471.953125,206486.3125,215464.0,1.0,1
219028.953125,230938.765625,247170.34375,243466.296875,205163.1875,222408.625,218580.21875,206612.03125,215465.0,1.0,1
219389.625,231668.421875,247601.28125,244072.390625,205763.640625,222619.1875,220420.046875,207153.46875,215466.0,1.0,1
219491.8125,231942.71875,247806.109375,244334.0,206077.28125,222673.453125,221484.25,207372.96875,215467.0,1.0,1
219188.09375,231373.5625,247499.265625,243884.28125,205669.40625,222512.875,220273.765625,206965.8125,215468.0,1.0,1
218889.84375,230746.28125,247098.015625,243342.015625,205106.953125,222353.375,218479.8125,206495.625,215469.0,1.0,1
219013.578125,230930.90625,247161.9375,243462.984375,205178.03125,222420.515625,218586.296875,206622.9375,215470.0,1.0,1
219373.359375,231656.890625,247590.203125,244066.390625,205775.71875,222621.6875,220421.734375,207160.53125,215471.0,1.0,1
219480.8125,231938.96875,247801.109375,244332.203125,206092.390625,222693.84375,221497.65625,207379.046875,215472.0,1.0,1
219174.328125,231369.359375,247487.828125,243875.96875,205672.359375,222519.140625,220281.453125,206962.953125,215473.0,1.0,1
218886.703125,230750.84375,247091.03125,243338.625,205109.359375,222345.953125,218487.59375,206492.21875,215474.0,1.0,1
219013.40625,230929.734375,247151.125,243455.21875,205171.140625,222407.015625,218579.78125,206611.40625,215475.0,1.0,1
219382.46875,231657.515625,247583.21875,244059.609375,205765.96875,222609.34375,220411.09375,207145.25,215476.0,1.0,1
219492.796875,231938.4375,247796.09375,244326.578125,206074.25,222673.546875,221489.609375,207364.828125,215477.0,1.0,1
219192.390625,231373.109375,247487.5625,243875.875,205657.875,222503.671875,220283.6875,206950.703125,215478.0,1.0,1
218905.3125,230754.859375,247095.328125,243336.65625,205096.21875,222332.1875,218483.65625,206477.5625,215479.0,1.0,1
219032.078125,230934.125,247160.328125,243451.453125,205158.625,222396.828125,218563.328125,206595.03125,215480.0,1.0,1
219397.140625,231659.84375,247592.875,244054.859375,205752.375,222600.40625,220392.0625,207128.625,215481.0,1.0,1
219512.828125,231948.171875,247808.609375,244328.625,206070.75,222664.6875,221480.671875,207352.40625,215482.0,1.0,1
219215.546875,231385.890625,247508.484375,243890.359375,205661.265625,222497.59375,220287.09375,206947.5625,215483.0,1.0,1
218925.15625,230763.796875,247117.328125,243355.34375,205102.296875,222327.984375,218488.40625,206479.4375,215484.0,1.0,1
219041.203125,230933.234375,247171.6875,243461.5625,205157.1875,222392.71875,218551.4375,206592.625,215485.0,1.0,1
219402.59375,231661.171875,247602.265625,244065.953125,205753.265625,222601.921875,220380.078125,207131.65625,215486.0,1.0,1
219513.71875,231950.953125,247818.0,244341.328125,206076.296875,222670.0625,221480.765625,207365.28125,215487.0,1.0,1
219208.9375,231390.015625,247514.015625,243899.203125,205672.265625,222513.59375,220300.859375,206965.984375,215488.0,1.0,1
218907.90625,230763.0,247116.078125,243356.421875,205110.078125,222346.3125,218501.546875,206494.28125,215489.0,1.0,1
219021.0,230930.8125,247169.09375,243460.125,205166.671875,222410.78125,218563.140625,206608.359375,215490.0,1.0,1
219378.8125,231653.484375,247590.109375,244056.390625,205758.375,222620.171875,220383.375,207144.0,215491.0,1.0,1
219491.546875,231944.421875,247809.15625,244337.5625,206088.375,222695.171875,221496.59375,207380.5625,215492.0,1.0,1
219189.53125,231384.109375,247504.984375,243893.03125,205683.890625,222527.1875,220317.046875,206973.671875,215493.0,1.0,1
218893.234375,230756.109375,247103.28125,243346.3125,205117.046875,222356.5,218510.390625,206496.328125,215494.0,1.0,1
219014.390625,230929.296875,247157.28125,243452.078125,205169.265625,222416.5,218560.734375,206607.375,215495.0,1.0,1
219374.609375,231649.015625,247580.359375,244049.140625,205754.4375,222609.171875,220375.96875,207137.921875,215496.0,1.0,1
219490.390625,231943.890625,247801.109375,244332.296875,206079.15625,222673.09375,221493.015625,207371.625,215497.0,1.0,1
219192.296875,231383.390625,247501.328125,243893.21875,205675.046875,222501.34375,220320.796875,206967.6875,215498.0,1.0,1
218898.875,230759.0625,247102.390625,243348.28125,205107.84375,222326.828125,218511.828125,206488.109375,215499.0,1.0,1
219016.890625,230927.59375,247153.796875,243451.09375,205158.265625,222388.328125,218551.515625,206596.203125,215500.0,1.0,1
219383.546875,231653.21875,247580.1875,244051.640625,205748.984375,222591.921875,220366.3125,207128.796875,215501.0,1.0,1
219503.625,231955.953125,247804.953125,244336.40625,206077.546875,222659.859375,221489.4375,207363.9375,215502.0,1.0,1
219212.515625,231409.3125,247513.75,243904.390625,205682.1875,222500.546875,220334.390625,206965.359375,215503.0,1.0,1
218915.40625,230776.765625,247114.734375,243356.953125,205111.953125,222330.84375,218521.921875,206484.0,215504.0,1.0,1
219023.953125,230926.4375,247155.59375,243447.078125,205153.171875,222383.59375,218542.40625,206584.3125,215505.0,1.0,1
219382.109375,231642.3125,247574.734375,244041.984375,205738.34375,222580.46875,220350.03125,207118.34375,215506.0,1.0,1
219500.9375,231945.3125,247801.640625,244333.8125,206073.609375,222653.421875,221487.5625,207362.15625,215507.0,1.0,1
219199.453125,231392.0625,247503.734375,243898.21875,205677.453125,222488.203125,220333.9375,206962.953125,215508.0,1.0,1
218896.8125,230756.5625,247100.25,243349.359375,205106.40625,222316.359375,218518.171875,206484.078125,215509.0,1.0,1
219007.953125,230912.484375,247145.484375,243446.546875,205152.1875,222374.03125,218538.375,206589.671875,215510.0,1.0,1
219362.359375,231626.578125,247557.734375,244041.359375,205732.265625,222570.28125,220340.46875,207118.875,215511.0,1.0,1
219484.84375,231938.15625,247777.859375,244337.03125,206066.828125,222646.546875,221484.609375,207366.796875,215512.0,1.0,1
219189.0,231393.40625,247481.921875,243905.203125,205677.453125,222488.921875,220341.71875,206973.671875,215513.0,1.0,1
218887.609375,230759.328125,247076.734375,243356.78125,205105.96875,222320.921875,218527.390625,206495.890625,215514.0,1.0,1
218999.8125,230915.078125,247121.171875,243447.078125,205151.296875,222378.671875,218538.65625,206598.796875,215515.0,1.0,1
219362.796875,231636.59375,247551.65625,244042.265625,205741.640625,222580.46875,220346.09375,207130.859375,215516.0,1.0,1
219491.09375,231952.375,247781.4375,244337.296875,206080.765625,222656.46875,221496.953125,207376.015625,215517.0,1.0,1
219198.296875,231405.296875,247490.421875,243908.140625,205686.03125,222493.828125,220360.765625,206982.890625,215518.0,1.0,1
218900.125,230769.34375,247088.171875,243356.5,205111.0625,222322.703125,218541.15625,206497.859375,215519.0,1.0,1
219006.25,230915.703125,247125.28125,243440.8125,205139.21875,222375.546875,218532.84375,206591.46875,215520.0,1.0,1
219367.453125,231635.96875,247546.203125,244032.875,205720.8125,222573.671875,220332.421875,207118.25,215521.0,1.0,1
219498.515625,231954.4375,247778.484375,244329.96875,206062.171875,222660.75,221489.796875,207363.484375,215522.0,1.0,1
219209.5625,231413.078125,247491.3125,243905.015625,205674.5,222505.453125,220359.421875,206971.265625,215523.0,1.0,1
218909.953125,230776.9375,247093.890625,243356.78125,205107.9375,222331.203125,218536.40625,206489.984375,215524.0,1.0,1
219017.6875,230920.0,247136.359375,243443.40625,205143.421875,222385.65625,218519.421875,206583.953125,215525.0,1.0,1
219378.265625,231637.3125,247559.625,244038.859375,205728.234375,222581.71875,220315.34375,207113.859375,215526.0,1.0,1
219506.921875,231955.328125,247791.625,244339.359375,206071.203125,222655.390625,221478.0,207361.875,215527.0,1.0,1
219220.828125,231415.9375,247503.921875,243918.515625,205686.21875,222499.375,220357.71875,206972.421875,215528.0,1.0,1
218916.296875,230772.03125,247093.71875,243365.171875,205113.5625,222326.203125,218533.109375,206485.25,215529.0,1.0,1
219016.265625,230907.296875,247122.59375,243444.84375,205140.5625,222383.15625,218508.34375,206576.0,215530.0,1.0,1
219373.796875,231624.609375,247545.046875,244037.78125,205724.03125,222582.171875,220305.59375,207110.203125,215531.0,1.0,1
219500.9375,231944.875,247784.125,244337.125,206073.96875,222661.921875,221482.015625,207367.515625,215532.0,1.0,1
219210.09375,231406.8125,247502.21875,243913.875,205694.078125,222507.609375,220369.796875,206981.984375,215533.0,1.0,1
218905.21875,230768.453125,247099.34375,243360.34375,205127.421875,222344.53125,218545.796875,206499.375,215534.0,1.0,1
219003.75,230900.140625,247127.25,243435.359375,205154.953125,222408.0,218510.3125,206585.65625,215535.0,1.0,1
219360.65625,231618.71875,247544.515625,244028.484375,205739.234375,222618.5625,220303.984375,207116.734375,215536.0,1.0,1
219492.890625,231949.609375,247783.84375,244332.65625,206090.6875,222700.90625,221489.34375,207372.609375,215537.0,1.0,1
219206.609375,231421.5625,247504.453125,243911.90625,205710.890625,222548.015625,220388.296875,206989.5,215538.0,1.0,1
218899.140625,230778.46875,247099.53125,243354.546875,205136.546875,222375.109375,218561.09375,206504.828125,215539.0,1.0,1
218996.953125,230907.75,247129.03125,243421.6875,205152.359375,222421.140625,218512.1875,206583.765625,215540.0,1.0,1
219364.328125,231630.609375,247555.328125,244019.28125,205733.421875,222620.34375,220307.125,207112.53125,215541.0,1.0,1
219494.140625,231955.59375,247788.953125,244323.890625,206073.609375,222688.03125,221494.53125,207365.09375,215542.0,1.0,1
219206.34375,231421.296875,247498.546875,243902.34375,205681.484375,222514.671875,220397.421875,206976.625,215543.0,1.0,1
218900.5625,230773.1875,247090.671875,243343.71875,205100.421875,222333.625,218563.59375,206486.671875,215544.0,1.0,1
218998.015625,230896.125,247120.546875,243412.75,205117.671875,222396.65625,218505.390625,206568.03125,215545.0,1.0,1
219367.546875,231622.015625,247546.203125,244010.78125,205703.109375,222602.109375,220296.125,207099.46875,215546.0,1.0,1
219505.140625,231957.46875,247787.34375,244325.765625,206059.21875,222669.515625,221497.390625,207358.84375,215547.0,1.0,1
219221.359375,231428.71875,247503.65625,243914.046875,205683.265625,222514.484375,220411.1875,206977.875,215548.0,1.0,1
218923.1875,230790.796875,247101.765625,243367.59375,205114.1875,222354.0,218585.5,206493.828125,215549.0,1.0,1
219014.109375,230908.28125,247125.09375,243434.296875,205129.921875,222393.4375,218523.0,206570.546875,215550.0,1.0,1
219372.8125,231622.015625,247544.953125,244029.5625,205711.515625,222594.6875,220311.140625,207103.140625,215551.0,1.0,1
219513.28125,231962.484375,247791.265625,244348.03125,206069.5,222679.078125,221520.640625,207369.03125,215552.0,1.0,1
219226.28125,231434.796875,247509.546875,243931.65625,205688.359375,222510.640625,220440.15625,206989.765625,215553.0,1.0,1
218915.671875,230787.859375,247102.5625,243374.203125,205112.21875,222337.640625,218609.734375,206505.625,215554.0,1.0,1
219001.78125,230902.203125,247122.78125,243433.9375,205123.9375,222392.984375,218533.28125,206581.984375,215555.0,1.0,1
219357.703125,231617.640625,247536.28125,244020.265625,205700.703125,222585.484375,220309.796875,207110.296875,215556.0,1.0,1
219494.234375,231962.75,247779.734375,244336.59375,206062.4375,222653.6875,221519.296875,207377.96875,215557.0,1.0,1
219208.484375,231441.421875,247501.0625,243925.046875,205694.0,222504.75,220449.1875,207001.21875,215558.0,1.0,1
218900.390625,230792.59375,247093.265625,243368.390625,205120.359375,222345.234375,218609.90625,206512.78125,215559.0,1.0,1
218991.3125,230907.296875,247112.3125,243427.578125,205128.3125,222389.9375,218517.734375,206583.859375,215560.0,1.0,1
219357.609375,231628.8125,247535.5625,244022.140625,205709.734375,222608.453125,220296.65625,207114.40625,215561.0,1.0,1
219494.953125,231966.0625,247780.625,244339.8125,206068.34375,222691.328125,221511.25,207378.515625,215562.0,1.0,1
219213.40625,231442.125,247503.65625,243932.28125,205698.203125,222522.0,220441.765625,207000.953125,215563.0,1.0,1
218908.53125,230797.15625,247095.6875,243375.375,205122.234375,222346.9375,218599.265625,206509.46875,215564.0,1.0,1
218997.390625,230907.65625,247111.15625,243430.09375,205126.625,222382.515625,218497.25,206576.171875,215565.0,1.0,1
219359.671875,231621.390625,247529.84375,244025.09375,205707.578125,222583.515625,220272.609375,207107.078125,215566.0,1.0,1
219506.296875,231968.921875,247770.34375,244354.640625,206068.15625,222671.390625,221499.1875,207380.5625,215567.0,1.0,1
219225.921875,231447.9375,247482.1875,243954.546875,205689.703125,222515.03125,220438.8125,207011.3125,215568.0,1.0,1
218923.1875,230799.296875,247076.546875,243390.921875,205121.515625,222336.65625,218590.140625,206515.46875,215569.0,1.0,1
219015.015625,230909.265625,247107.484375,243448.0625,205136.359375,222378.328125,218484.46875,206581.71875,215570.0,1.0,1
219375.859375,231621.125,247526.265625,244041.1875,205717.6875,222580.5625,220256.421875,207109.75,215571.0,1.0,1
219524.0,231970.34375,247779.734375,244368.5,206085.78125,222671.75,221492.296875,207382.453125,215572.0,1.0,1
219243.984375,231456.265625,247507.671875,243962.59375,205717.0625,222524.140625,220440.875,207009.4375,215573.0,1.0,1
218926.765625,230803.40625,247096.84375,243397.28125,205129.65625,222353.015625,218592.734375,206514.84375,215574.0,1.0,1
219004.09375,230898.984375,247112.140625,243435.984375,205125.453125,222395.21875,218473.828125,206571.703125,215575.0,1.0,1
219366.46875,231613.609375,247533.6875,244028.21875,205704.8125,222603.171875,220248.46875,207102.421875,215576.0,1.0,1
219510.234375,231962.390625,247781.265625,244354.5625,206072.640625,222691.609375,221489.25,207377.96875,215577.0,1.0,1
219233.515625,231452.859375,247511.15625,243951.875,205711.15625,222540.953125,220447.84375,207008.453125,215578.0,1.0,1
218919.609375,230796.875,247100.6875,243385.296875,205127.875,222364.109375,218599.09375,206513.046875,215579.0,1.0,1
219000.609375,230892.28125,247111.15625,243433.125,205123.84375,222411.40625,218475.53125,206574.921875,215580.0,1.0,1
219361.734375,231608.96875,247527.25,244020.71875,205701.421875,222616.765625,220243.1875,207099.921875,215581.0,1.0,1
219507.375,231969.640625,247783.671875,244346.6875,206073.609375,222704.828125,221497.390625,207373.5,215582.0,1.0,1
219232.53125,231459.75,247518.40625,243947.3125,205713.21875,222550.96875,220467.25,207004.875,215583.0,1.0,1
218919.609375,230799.46875,247107.578125,243378.953125,205125.1875,222367.59375,218615.359375,206508.046875,215584.0,1.0,1
219001.78125,230896.296875,247121.171875,243422.21875,205121.34375,222409.171875,218480.796875,206568.9375,215585.0,1.0,1
219359.5,231606.8125,247536.28125,244010.96875,205697.390625,222607.828125,220240.6875,207093.296875,215586.0,1.0,1
219511.21875,231971.59375,247795.5625,244346.59375,206074.25,222696.34375,221501.5,207373.0625,215587.0,1.0,1
219237.984375,231463.765625,247528.421875,243949.71875,205715.09375,222542.109375,220476.71875,207005.859375,215588.0,1.0,1
218929.625,230809.671875,247117.953125,243388.96875,205134.9375,222361.515625,218626.53125,206511.984375,215589.0,1.0,1
219014.109375,230907.921875,247129.21875,243432.859375,205128.9375,222399.953125,218478.390625,206568.21875,215590.0,1.0,1
219370.84375,231620.59375,247544.0625,244020.984375,205703.203125,222595.40625,220232.375,207093.125,215591.0,1.0,1
219518.90625,231977.40625,247797.625,244355.265625,206076.484375,222676.578125,221493.1875,207373.234375,215592.0,1.0,1
219241.03125,231467.171875,247526.625,243959.921875,205717.78125,222520.828125,220476.984375,207011.578125,215593.0,1.0,1
218922.734375,230805.203125,247109.359375,243391.46875,205131.171875,222340.765625,218624.03125,206513.5,215594.0,1.0,1
218996.234375,230890.9375,247113.203125,243427.234375,205115.796875,222382.25,218466.765625,206561.6875,215595.0,1.0,1
219356.984375,231604.140625,247529.9375,244013.640625,205691.3125,222586.8125,220220.578125,207087.671875,215596.0,1.0,1
219507.546875,231967.9375,247788.40625,244348.03125,206071.46875,222676.046875,221492.75,207371.71875,215597.0,1.0,1
219233.078125,231461.796875,247523.765625,243951.6875,205719.390625,222528.078125,220482.453125,207009.265625,215598.0,1.0,1
218920.234375,230803.3125,247113.125,243382.34375,205137.53125,222356.953125,218627.515625,206512.25,215599.0,1.0,1
218991.671875,230883.421875,247110.890625,243409.4375,205115.078125,222393.609375,218451.203125,206555.4375,215600.0,1.0,1
219347.875,231588.140625,247519.203125,243994.15625,205684.703125,222596.109375,220196.609375,207079.625,215601.0,1.0,1
219500.671875,231956.84375,247782.0625,244337.65625,206068.25,222692.859375,221482.90625,207369.84375,215602.0,1.0,1
219230.21875,231460.1875,247523.3125,243946.859375,205718.140625,222543.546875,220490.21875,207010.515625,215603.0,1.0,1
218919.171875,230800.734375,247112.671875,243378.59375,205135.640625,222364.375,218636.109375,206513.40625,215604.0,1.0,1
218989.078125,230873.421875,247109.1875,243403.71875,205111.0625,222394.765625,218448.4375,206554.453125,215605.0,1.0,1
219350.46875,231585.453125,247525.109375,243989.515625,205682.375,222598.4375,220190.984375,207079.359375,215606.0,1.0,1
219503.703125,231957.75,247788.59375,244330.15625,206065.65625,222687.671875,221480.5,207366.359375,215607.0,1.0,1
219233.78125,231463.59375,247532.703125,243943.546875,205722.0625,222537.203125,220496.296875,207010.515625,215608.0,1.0,1
218919.609375,230801.796875,247121.171875,243375.46875,205138.859375,222355.609375,218637.359375,206511.625,215609.0,1.0,1
218992.84375,230876.28125,247119.375,243404.96875,205114.734375,222389.046875,218445.484375,206553.28125,215610.0,1.0,1
219355.46875,231586.609375,247529.40625,243990.484375,205684.34375,222587.984375,220185.078125,207073.359375,215611.0,1.0,1
219520.609375,231971.953125,247798.515625,244343.734375,206077.375,222681.859375,221487.65625,207369.125,215612.0,1.0,1
219251.3125,231478.078125,247543.34375,243961.96875,205733.15625,222530.671875,220510.609375,207019.1875,215613.0,1.0,1
218932.484375,230809.9375,247127.0625,243386.546875,205137.796875,222347.46875,218642.8125,206515.640625,215614.0,1.0,1
219001.859375,230879.3125,247117.234375,243406.578125,205102.125,222380.90625,218431.265625,206552.84375,215615.0,1.0,1
219362.984375,231591.171875,247531.8125,243994.515625,205673.4375,222585.921875,220170.859375,207080.78125,215616.0,1.0,1
219523.734375,231971.15625,247800.484375,244342.484375,206061.71875,222679.265625,221479.515625,207378.421875,215617.0,1.0,1
219255.0625,231477.09375,247539.0625,243957.765625,205716.53125,222529.328125,220507.65625,207025.71875,215618.0,1.0,1
218937.21875,230808.765625,247120.625,243385.5625,205129.921875,222350.96875,218646.109375,206522.34375,215619.0,1.0,1
219003.203125,230873.328125,247109.984375,243401.921875,205097.296875,222382.609375,218431.890625,206555.875,215620.0,1.0,1
219363.25,231588.484375,247521.359375,243984.40625,205669.5,222584.578125,220168.53125,207078.109375,215621.0,1.0,1
219522.578125,231971.328125,247789.484375,244334.796875,206062.4375,222679.984375,221482.734375,207373.59375,215622.0,1.0,1
219252.03125,231477.71875,247531.1875,243950.609375,205724.65625,222530.578125,220519.90625,207020.34375,215623.0,1.0,1
218934.546875,230810.65625,247116.078125,243379.03125,205137.890625,222348.546875,218655.6875,206516.53125,215624.0,1.0,1
218997.390625,230874.484375,247107.578125,243396.5625,205104.359375,222380.46875,218434.046875,206548.1875,215625.0,1.0,1
219351.265625,231580.0,247516.34375,243972.515625,205667.265625,222579.3125,220161.65625,207065.5,215626.0,1.0,1
219519.359375,231972.21875,247792.875,244329.515625,206066.828125,222682.65625,221484.515625,207368.234375,215627.0,1.0,1
219251.9375,231484.875,247541.921875,243954.109375,205735.484375,222540.59375,220531.265625,207021.953125,215628.0,1.0,1
218930.515625,230816.109375,247122.6875,243379.75,205146.46875,222357.671875,218662.921875,206515.640625,215629.0,1.0,1
218995.96875,230881.734375,247114.015625,243396.109375,205114.375,222392.359375,218431.625,206549.796875,215630.0,1.0,1
219356.90625,231593.234375,247530.65625,243981.734375,205685.5,222597.375,220161.203125,207074.078125,215631.0,1.0,1
219519.265625,231979.640625,247801.828125,244336.59375,206082.015625,222693.5625,221485.765625,207373.0625,215632.0,1.0,1
219250.59375,231488.4375,247545.046875,243957.5,205743.171875,222542.5625,220534.125,207021.6875,215633.0,1.0,1
218935.078125,230819.765625,247128.40625,243387.171875,205155.578125,222361.6875,218667.578125,206520.46875,215634.0,1.0,1
218994.265625,230873.234375,247112.9375,243398.53125,205116.34375,222394.140625,218425.546875,206550.328125,215635.0,1.0,1
219352.078125,231583.65625,247522.421875,243980.390625,205683.171875,222593.515625,220151.546875,207071.75,215636.0,1.0,1
219519.796875,231975.625,247798.609375,244337.296875,206081.578125,222693.84375,221484.96875,207374.671875,215637.0,1.0,1
219257.84375,231494.53125,247552.5625,243964.828125,205750.40625,222546.140625,220545.296875,207031.609375,215638.0,1.0,1
218936.953125,230822.359375,247132.703125,243390.03125,205159.875,222358.109375,218674.1875,206526.375,215639.0,1.0,1
218994.0,230870.375,247114.375,243394.5,205111.59375,222383.15625,218417.859375,206547.390625,215640.0,1.0,1
219352.96875,231576.515625,247521.890625,243975.203125,205672.09375,222582.078125,220135.546875,207065.59375,215641.0,1.0,1
219523.734375,231976.15625,247800.921875,244341.59375,206076.296875,222683.46875,221477.453125,207372.796875,215642.0,1.0,1
219260.703125,231498.453125,247552.109375,243970.015625,205747.546875,222538.71875,220547.4375,207029.640625,215643.0,1.0,1
218938.5625,230828.078125,247132.796875,243392.890625,205159.25,222355.609375,218676.6875,206523.25,215644.0,1.0,1
218997.578125,230876.984375,247114.640625,243392.625,205110.25,222385.921875,218412.578125,206541.578125,215645.0,1.0,1
219354.9375,231580.265625,247520.1875,243967.421875,205670.75,222585.5625,220124.1875,207060.140625,215646.0,1.0,1
219519.71875,231975.53125,247793.0625,244326.125,206071.5625,222684.890625,221465.921875,207364.390625,215647.0,1.0,1
219254.625,231498.453125,247544.59375,243956.96875,205744.15625,222541.40625,220545.921875,207023.75,215648.0,1.0,1
218930.609375,230825.21875,247123.40625,243378.328125,205150.40625,222362.234375,218677.140625,206517.078125,215649.0,1.0,1
218985.234375,230867.6875,247106.421875,243380.015625,205103.109375,222396.375,218409.09375,206538.53125,215650.0,1.0,1
219338.125,231564.796875,247509.734375,243953.921875,205659.84375,222592.625,220112.390625,207054.59375,215651.0,1.0,1
219511.578125,231970.53125,247791.0,244324.15625,206069.59375,222698.390625,221466.734375,207369.484375,215652.0,1.0,1
219247.5625,231497.75,247545.484375,243958.484375,205745.9375,222556.0625,220554.59375,207030.71875,215653.0,1.0,1
218924.890625,230824.59375,247128.59375,243384.21875,205157.375,222375.546875,218684.296875,206525.75,215654.0,1.0,1
218975.9375,230860.546875,247102.84375,243379.9375,205103.015625,222398.4375,218399.796875,206539.609375,215655.0,1.0,1
219334.8125,231565.328125,247511.34375,243958.125,205665.296875,222595.671875,220105.328125,207057.453125,215656.0,1.0,1
219505.140625,231964.0,247788.859375,244324.609375,206071.921875,222692.046875,221461.625,207369.125,215657.0,1.0,1
219244.25,231488.984375,247543.609375,243959.375,205746.65625,222542.5625,220556.921875,207033.84375,215658.0,1.0,1
218922.734375,230815.5625,247126.265625,243381.71875,205156.03125,222352.65625,218684.5625,206528.78125,215659.0,1.0,1
218976.203125,230845.609375,247099.171875,243374.828125,205098.640625,222375.375,218393.09375,206543.1875,215660.0,1.0,1
219334.8125,231546.375,247503.65625,243950.796875,205657.78125,222572.421875,220097.015625,207059.953125,215661.0,1.0,1
219509.703125,231952.375,247780.625,244313.609375,206062.984375,222663.265625,221456.09375,207370.640625,215662.0,1.0,1
219251.9375,231489.078125,247539.59375,243952.140625,205743.171875,222522.171875,220562.28125,207035.1875,215663.0,1.0,1
218926.765625,230816.109375,247122.6875,243375.1875,205149.953125,222339.421875,218694.3125,206526.1875,215664.0,1.0,1
218975.21875,230843.828125,247095.78125,243366.609375,205086.75,222360.34375,218393.546875,206535.84375,215665.0,1.0,1
219335.4375,231547.359375,247502.578125,243941.046875,205644.109375,222560.265625,220090.21875,207049.578125,215666.0,1.0,1
219510.0625,231957.828125,247783.5,244312.71875,206055.640625,222663.703125,221459.125,207362.953125,215667.0,1.0,1
219251.046875,231495.78125,247542.90625,243951.78125,205737.796875,222524.328125,220572.203125,207030.625,215668.0,1.0,1
218931.328125,230823.609375,247127.875,243374.828125,205147.53125,222346.765625,218702.53125,206524.578125,215669.0,1.0,1
218979.78125,230850.796875,247098.90625,243364.203125,205086.921875,222370.28125,218393.265625,206531.921875,215670.0,1.0,1
219333.75,231549.421875,247500.4375,243937.734375,205643.03125,222570.015625,220086.28125,207044.484375,215671.0,1.0,1
219511.671875,231965.796875,247787.875,244315.578125,206061.28125,222682.484375,221470.296875,207365.453125,215672.0,1.0,1
219254.171875,231502.84375,247546.75,243957.953125,205748.890625,222543.71875,220591.078125,207033.671875,215673.0,1.0,1
218931.140625,230828.796875,247132.15625,243380.109375,205160.765625,222364.375,218714.78125,206525.84375,215674.0,1.0,1
218975.40625,230850.703125,247098.8125,243362.671875,205093.453125,222383.59375,218388.4375,206531.203125,215675.0,1.0,1
219333.828125,231549.6875,247502.484375,243937.65625,205652.515625,222583.15625,220080.921875,207045.203125,215676.0,1.0,1
219512.375,231964.984375,247787.609375,244315.046875,206067.984375,222684.0,221464.578125,207360.0,215677.0,1.0,1
219262.75,231510.34375,247557.109375,243966.0,205760.78125,222543.015625,220598.578125,207036.890625,215678.0,1.0,1
218935.34375,230829.609375,247135.734375,243386.1875,205164.4375,222354.359375,218719.515625,206525.84375,215679.0,1.0,1
218978.359375,230846.328125,247101.671875,243366.609375,205095.234375,222372.328125,218386.75,206527.09375,215680.0,1.0,1
219330.96875,231539.59375,247501.421875,243937.46875,205649.921875,222566.515625,220071.0,207042.078125,215681.0,1.0,1
219513.28125,231961.59375,247790.640625,244320.046875,206069.5,222672.921875,221466.09375,207368.859375,215682.0,1.0,1
219262.9375,231511.328125,247558.015625,243972.34375,205763.828125,222539.4375,220609.3125,207049.765625,215683.0,1.0,1
218936.59375,230831.296875,247134.84375,243387.625,205166.765625,222351.234375,218727.921875,206536.75,215684.0,1.0,1
218980.859375,230849.546875,247100.609375,243366.34375,205094.703125,222368.84375,218384.15625,206532.625,215685.0,1.0,1
219334.8125,231542.453125,247501.859375,243936.125,205648.671875,222563.65625,220063.125,207045.65625,215686.0,1.0,1
219515.515625,231962.296875,247787.25,244314.6875,206070.21875,222670.140625,221459.21875,207369.484375,215687.0,1.0,1
219264.1875,231512.578125,247555.953125,243969.21875,205766.6875,222534.6875,220609.671875,207047.609375,215688.0,1.0,1
218935.078125,230829.25,247132.796875,243387.625,205168.546875,222349.984375,218726.5,206532.453125,215689.0,1.0,1
218973.96875,230841.140625,247091.484375,243360.796875,205091.125,222369.375,218371.453125,206526.1875,215690.0,1.0,1
219334.109375,231540.75,247496.140625,243931.484375,205646.15625,222573.578125,220053.734375,207043.234375,215691.0,1.0,1
219515.234375,231963.828125,247783.9375,244310.484375,206067.53125,222681.140625,221454.296875,207366.359375,215692.0,1.0,1
219267.859375,231519.109375,247555.328125,243967.78125,205769.625,222549.0,220615.75,207047.171875,215693.0,1.0,1
218933.921875,230828.890625,247125.90625,243379.390625,205167.828125,222357.75,218728.90625,206529.140625,215694.0,1.0,1
218973.25,230837.390625,247082.453125,243349.890625,205085.578125,222371.53125,218365.921875,206521.015625,215695.0,1.0,1
219328.65625,231534.21875,247484.78125,243921.375,205637.671875,222566.875,220040.859375,207030.359375,215696.0,1.0,1
219517.296875,231966.953125,247782.875,244313.15625,206070.390625,222678.90625,221457.609375,207361.96875,215697.0,1.0,1
219270.53125,231523.84375,247557.03125,243971.8125,205771.328125,222544.53125,220622.90625,207045.5625,215698.0,1.0,1
218937.3125,230838.90625,247131.984375,243386.1875,205173.28125,222352.75,218736.5,206529.953125,215699.0,1.0,1
218974.5,230843.828125,247087.109375,243355.34375,205092.90625,222368.9375,218363.859375,206521.359375,215700.0,1.0,1
219327.3125,231532.078125,247486.484375,243925.578125,205642.9375,222570.09375,220035.59375,207034.46875,215701.0,1.0,1
219509.078125,231958.09375,247779.296875,244312.984375,206065.921875,222677.484375,221451.625,207366.359375,215702.0,1.0,1
219257.390625,231513.84375,247551.21875,243971.09375,205767.671875,222539.4375,220625.859375,207050.828125,215703.0,1.0,1
218923.546875,230823.171875,247123.671875,243383.15625,205165.515625,222349.265625,218740.34375,206535.5,215704.0,1.0,1
218957.515625,230824.15625,247077.171875,243348.28125,205077.984375,222366.25,218359.484375,206527.453125,215705.0,1.0,1
219307.09375,231515.796875,247469.5,243910.65625,205621.578125,222559.28125,220020.75,207033.40625,215706.0,1.0,1
219497.8125,231953.1875,247766.5,244304.125,206054.484375,222669.875,221448.84375,207367.6875,215707.0,1.0,1
219259.265625,231519.375,247548.984375,243970.46875,205768.203125,222540.0625,220635.953125,207056.375,215708.0,1.0,1
218932.671875,230835.6875,247129.75,243386.90625,205172.65625,222355.96875,218754.125,206538.984375,215709.0,1.0,1
218963.875,230831.9375,247082.09375,243348.8125,205083.796875,222371.078125,218363.40625,206519.84375,215710.0,1.0,1
219313.453125,231519.5625,247475.9375,243911.09375,205625.6875,222565.984375,220020.921875,207026.15625,215711.0,1.0,1
219502.28125,231954.96875,247769.8125,244301.8125,206055.46875,222673.359375,221448.484375,207356.78125,215712.0,1.0,1
219262.671875,231523.671875,247550.140625,243967.421875,205768.03125,222544.078125,220641.234375,207045.828125,215713.0,1.0,1
218935.4375,230840.953125,247131.453125,243386.546875,205176.328125,222364.015625,218761.8125,206535.046875,215714.0,1.0,1
218966.8125,230835.140625,247084.515625,243348.109375,205087.1875,222377.34375,218363.328125,206515.015625,215715.0,1.0,1
219318.359375,231529.296875,247481.921875,243913.25,205634.1875,222569.109375,220016.546875,207020.171875,215716.0,1.0,1
219512.296875,231974.734375,247782.78125,244310.65625,206072.09375,222679.984375,221451.796875,207360.0,215717.0,1.0,1
219267.578125,231539.59375,247561.9375,243979.21875,205782.0625,222546.3125,220649.8125,207049.046875,215718.0,1.0,1
218935.96875,230847.125,247132.796875,243392.09375,205179.90625,222351.40625,218759.03125,206528.25,215719.0,1.0,1
218966.546875,230836.578125,247080.3125,243348.453125,205086.75,222363.5625,218346.6875,206507.234375,215720.0,1.0,1
219317.734375,231524.828125,247475.3125,243913.0625,205631.40625,222557.21875,219995.171875,207014.890625,215721.0,1.0,1
219510.140625,231964.453125,247775.0,244311.640625,206069.5,222667.828125,221437.671875,207356.515625,215722.0,1.0,1
219267.3125,231532.34375,247553.984375,243980.203125,205781.078125,222533.359375,220647.3125,207051.8125,215723.0,1.0,1
218931.40625,230839.96875,247125.640625,243392.09375,205178.828125,222343.984375,218760.015625,206535.84375,215724.0,1.0,1
218953.671875,230819.765625,247065.734375,243342.203125,205073.953125,222352.75,218334.078125,206510.640625,215725.0,1.0,1
219306.203125,231506.59375,247458.40625,243904.75,205615.140625,222547.65625,219979.078125,207021.59375,215726.0,1.0,1
219503.796875,231955.15625,247761.59375,244309.578125,206056.359375,222663.4375,221430.96875,207370.203125,215727.0,1.0,1
