FZ,C3,CZ,C4,PZ,PO7,OZ,PO8,Counter,Validation,Label
233957.328125,281017.3125,280401.84375,271484.46875,254675.609375,283502.375,255077.046875,255981.75,211529.0,1.0,3
233472.828125,279986.8125,278981.0,270997.3125,253598.34375,283056.34375,254646.1875,255378.890625,211530.0,1.0,3
232794.40625,278915.0,277676.09375,270628.0625,252230.328125,282442.8125,254237.34375,254809.546875,211531.0,1.0,3
232863.4375,279289.96875,278302.84375,270889.21875,252467.34375,282509.78125,254414.09375,255071.953125,211532.0,1.0,3
233564.828125,280568.9375,279961.78125,271407.21875,253951.953125,283150.84375,254919.25,255784.703125,211533.0,1.0,3
233945.96875,281009.53125,280399.59375,271479.75,254663.09375,283491.03125,255065.609375,255985.421875,211534.0,1.0,3
233474.53125,279987.875,278994.65625,271000.6875,253604.328125,283056.78125,254643.609375,255394.171875,211535.0,1.0,3
232799.328125,278909.625,277683.5,270630.5625,252236.046875,282441.75,254238.859375,254823.125,211536.0,1.0,3
232865.671875,279278.4375,278296.65625,270890.46875,252461.453125,282507.8125,254417.3125,255075.078125,211537.0,1.0,3
233564.75,280552.5,279956.875,271412.875,253945.875,283143.25,254922.546875,255787.828125,211538.0,1.0,3
233950.71875,281002.65625,280409.25,271489.65625,254670.78125,283488.25,255075.96875,255998.46875,211539.0,1.0,3
233481.78125,279986.09375,279006.28125,271008.125,253615.78125,283055.09375,254654.78125,255409.734375,211540.0,1.0,3
232802.734375,278898.90625,277682.15625,270631.28125,252238.640625,282435.59375,254240.640625,254826.96875,211541.0,1.0,3
232858.515625,279253.84375,278281.09375,270884.1875,252451.875,282495.3125,254415.171875,255069.453125,211542.0,1.0,3
233560.8125,280537.84375,279941.03125,271403.65625,253936.390625,283135.1875,254922.90625,255789.171875,211543.0,1.0,3
233953.75,281000.875,280405.96875,271485.71875,254675.875,283488.25,255076.875,255998.75,211544.0,1.0,3
233487.234375,279991.90625,279013.09375,271009.0,253632.046875,283062.875,254659.609375,255413.21875,211545.0,1.0,3
232800.671875,278899.28125,277678.96875,270629.9375,252246.78125,282441.5625,254247.890625,254835.640625,211546.0,1.0,3
232850.296875,279247.59375,278265.71875,270881.875,252443.921875,282499.59375,254421.25,255073.921875,211547.0,1.0,3
233557.6875,280534.6875,279928.78125,271403.03125,253924.59375,283132.78125,254925.40625,255780.859375,211548.0,1.0,3
233954.296875,281004.28125,280410.96875,271486.09375,254673.015625,283483.34375,255073.296875,255993.109375,211549.0,1.0,3
233488.390625,280000.59375,279023.375,271008.46875,253638.125,283060.53125,254659.34375,255404.28125,211550.0,1.0,3
232800.9375,278906.0625,277678.6875,270626.96875,252246.25,282437.625,254245.203125,254824.109375,211551.0,1.0,3
232843.40625,279238.65625,278248.65625,270872.84375,252428.28125,282486.53125,254413.296875,255059.171875,211552.0,1.0,3
233545.4375,280520.65625,279915.28125,271397.84375,253906.625,283125.71875,254925.140625,255779.078125,211553.0,1.0,3
233950.0,281005.6875,280410.34375,271484.3125,254664.609375,283478.875,255069.265625,255992.75,211554.0,1.0,3
233493.75,280011.65625,279036.78125,271012.0625,253643.765625,283065.8125,254653.96875,255405.53125,211555.0,1.0,3
232810.15625,278914.03125,277689.40625,270633.0625,252253.9375,282448.5625,254247.4375,254831.890625,211556.0,1.0,3
232850.734375,279239.65625,278243.8125,270875.34375,252422.640625,282484.84375,254403.359375,255061.9375,211557.0,1.0,3
233545.4375,280514.84375,279905.0,271396.78125,253895.796875,283115.875,254905.828125,255773.796875,211558.0,1.0,3
233949.8125,281008.90625,280415.25,271492.71875,254671.59375,283483.53125,255074.28125,256007.953125,211559.0,1.0,3
233500.734375,280022.03125,279047.59375,271020.90625,253661.46875,283071.4375,254665.78125,255424.21875,211560.0,1.0,3
232814.265625,278910.0,277685.3125,270627.5,252261.265625,282450.4375,254242.25,254823.84375,211561.0,1.0,3
232844.03125,279216.9375,278219.96875,270861.9375,252413.609375,282480.46875,254395.234375,255043.609375,211562.0,1.0,3
233538.90625,280493.5625,279883.375,271387.84375,253887.046875,283112.46875,254907.4375,255759.9375,211563.0,1.0,3
233955.09375,281003.28125,280410.59375,271490.1875,254679.1875,283487.0,255080.625,256000.984375,211564.0,1.0,3
233514.40625,280027.6875,279052.0625,271021.1875,253679.171875,283079.84375,254668.640625,255420.640625,211565.0,1.0,3
232817.84375,278908.46875,277681.71875,270629.03125,252272.890625,282451.0625,254245.203125,254829.125,211566.0,1.0,3
232836.609375,279205.40625,278205.75,270859.4375,252412.09375,282473.9375,254393.796875,255043.609375,211567.0,1.0,3
233534.078125,280487.3125,279867.53125,271382.75,253881.234375,283107.03125,254901.8125,255756.8125,211568.0,1.0,3
233961.359375,281010.53125,280412.21875,271491.09375,254682.3125,283490.5,255082.5,256004.28125,211569.0,1.0,3
233522.71875,280035.625,279063.25,271023.9375,253690.609375,283083.78125,254677.046875,255433.25,211570.0,1.0,3
232825.890625,278909.90625,277687.4375,270631.0,252282.0,282455.6875,254256.203125,254845.296875,211571.0,1.0,3
232833.65625,279190.125,278193.65625,270855.59375,252403.515625,282470.28125,254397.90625,255051.03125,211572.0,1.0,3
233534.25,280475.6875,279858.4375,271379.34375,253870.328125,283100.3125,254897.421875,255750.90625,211573.0,1.0,3
233963.140625,281006.9375,280414.625,271486.8125,254679.71875,283477.71875,255066.234375,255998.921875,211574.0,1.0,3
233516.546875,280032.78125,279070.3125,271021.8125,253694.015625,283075.28125,254665.421875,255441.015625,211575.0,1.0,3
232816.859375,278905.875,277685.375,270624.75,252278.703125,282446.125,254239.484375,254829.84375,211576.0,1.0,3
232830.53125,279189.40625,278183.375,270848.96875,252392.421875,282463.5625,254384.140625,255033.5,211577.0,1.0,3
233522.1875,280462.90625,279844.5625,271371.1875,253851.640625,283090.59375,254884.203125,255730.875,211578.0,1.0,3
233950.171875,280999.96875,280413.8125,271487.875,254672.5625,283477.0,255079.109375,255994.90625,211579.0,1.0,3
233520.578125,280045.46875,279084.53125,271027.6875,253701.15625,283084.15625,254687.953125,255437.71875,211580.0,1.0,3
232821.234375,278911.78125,277693.53125,270627.0625,252282.1875,282451.5,254249.859375,254829.921875,211581.0,1.0,3
232825.4375,279176.6875,278170.25,270841.65625,252378.921875,282455.53125,254378.15625,255021.890625,211582.0,1.0,3
233513.875,280449.84375,279829.0,271364.84375,253835.90625,283079.125,254879.453125,255727.03125,211583.0,1.0,3
233949.546875,280998.375,280415.625,271485.375,254672.03125,283472.78125,255074.984375,255997.046875,211584.0,1.0,3
233522.984375,280049.84375,279094.0,271025.71875,253711.796875,283088.625,254685.265625,255436.828125,211585.0,1.0,3
232821.40625,278909.625,277692.90625,270622.34375,252289.78125,282454.625,254250.75,254835.375,211586.0,1.0,3
232821.859375,279163.28125,278156.46875,270834.03125,252375.34375,282448.375,254370.546875,255021.4375,211587.0,1.0,3
233505.109375,280431.15625,279811.84375,271354.125,253827.578125,283068.0625,254866.578125,255720.59375,211588.0,1.0,3
233944.8125,280990.9375,280411.0625,271475.71875,254673.375,283469.3125,255063.09375,255985.59375,211589.0,1.0,3
233526.65625,280053.25,279096.5,271017.25,253722.625,283077.875,254670.875,255439.328125,211590.0,1.0,3
232821.0625,278911.6875,277684.75,270610.96875,252292.90625,282447.46875,254248.515625,254841.734375,211591.0,1.0,3
232808.71875,279155.15625,278136.0,270818.5,252365.328125,282450.4375,254375.734375,255010.078125,211592.0,1.0,3
233498.5,280435.09375,279799.5,271349.46875,253819.53125,283073.15625,254874.984375,255718.71875,211593.0,1.0,3
233950.0,281012.9375,280412.84375,271479.28125,254676.5,283478.25,255075.796875,255993.375,211594.0,1.0,3
233534.96875,280075.5,279108.46875,271022.34375,253737.109375,283093.53125,254684.375,255439.6875,211595.0,1.0,3
232834.203125,278928.0625,277696.5625,270618.46875,252310.4375,282459.53125,254256.5625,254842.359375,211596.0,1.0,3
232814.703125,279157.03125,278132.96875,270824.46875,252368.1875,282449.53125,254373.59375,255016.96875,211597.0,1.0,3
233503.046875,280434.75,279794.9375,271350.5625,253818.46875,283073.875,254884.546875,255715.5,211598.0,1.0,3
233951.421875,281014.5625,280417.5,271481.34375,254681.6875,283474.125,255086.875,255992.84375,211599.0,1.0,3
233532.28125,280080.875,279118.84375,271024.65625,253747.5625,283091.75,254688.9375,255442.09375,211600.0,1.0,3
232812.03125,278917.5,277688.59375,270607.5625,252303.46875,282448.09375,254243.234375,254821.703125,211601.0,1.0,3
232792.09375,279141.90625,278115.71875,270810.53125,252348.53125,282437.90625,254370.375,254997.296875,211602.0,1.0,3
233475.609375,280411.6875,279775.09375,271339.375,253791.015625,283054.375,254870.609375,255709.59375,211603.0,1.0,3
233931.765625,281001.125,280415.25,271477.3125,254663.71875,283461.0,255065.953125,255990.78125,211604.0,1.0,3
233527.28125,280082.84375,279132.53125,271030.28125,253742.640625,283091.03125,254679.90625,255447.015625,211605.0,1.0,3
232821.5,278926.625,277703.28125,270618.65625,252304.71875,282454.625,254245.828125,254829.921875,211606.0,1.0,3
232792.359375,279136.46875,278112.40625,270816.0625,252339.3125,282437.5625,254363.9375,255002.03125,211607.0,1.0,3
233477.03125,280406.9375,279774.65625,271348.3125,253786.71875,283061.78125,254871.046875,255708.4375,211608.0,1.0,3
233947.046875,281012.125,280429.375,271491.09375,254675.703125,283474.9375,255076.25,255992.390625,211609.0,1.0,3
233547.21875,280103.3125,279156.9375,271046.03125,253767.953125,283115.15625,254703.328125,255461.046875,211610.0,1.0,3
232834.46875,278936.1875,277718.1875,270630.09375,252323.40625,282467.875,254252.796875,254846.109375,211611.0,1.0,3
232800.671875,279134.59375,278112.40625,270823.0625,252343.25,282445.15625,254362.953125,255009.1875,211612.0,1.0,3
233475.0625,280396.21875,279766.96875,271347.875,253781.984375,283061.25,254869.71875,255713.0,211613.0,1.0,3
233942.40625,281008.28125,280432.0625,271495.5625,254683.828125,283480.03125,255090.8125,256004.640625,211614.0,1.0,3
233556.875,280114.84375,279167.5,271052.09375,253789.59375,283119.90625,254708.953125,255477.140625,211615.0,1.0,3
232843.765625,278947.375,277721.40625,270632.25,252341.1875,282484.9375,254264.421875,254851.203125,211616.0,1.0,3
232801.390625,279131.8125,278099.34375,270817.59375,252341.46875,282447.03125,254360.890625,254991.578125,211617.0,1.0,3
233482.671875,280399.0625,279758.46875,271349.28125,253777.421875,283063.84375,254870.0625,255704.59375,211618.0,1.0,3
233954.734375,281022.78125,280440.46875,271498.25,254688.390625,283485.5,255090.640625,256008.484375,211619.0,1.0,3
233567.25,280132.90625,279184.75,271055.59375,253803.359375,283129.03125,254711.1875,255479.109375,211620.0,1.0,3
232846.53125,278952.75,277726.78125,270632.53125,252348.609375,282485.46875,254262.375,254852.375,211621.0,1.0,3
232798.25,279123.78125,278083.6875,270810.875,252331.53125,282435.9375,254343.734375,254984.59375,211622.0,1.0,3
233466.3125,280381.625,279732.90625,271335.15625,253756.6875,283045.78125,254841.453125,255692.4375,211623.0,1.0,3
233950.4375,281022.5,280431.4375,271496.28125,254682.3125,283476.28125,255069.0,256009.390625,211624.0,1.0,3
233573.78125,280144.625,279190.8125,271061.5,253810.59375,283128.75,254699.84375,255491.984375,211625.0,1.0,3
232852.34375,278957.21875,277728.65625,270636.8125,252352.8125,282485.125,254252.984375,254866.84375,211626.0,1.0,3
232788.609375,279111.4375,278071.53125,270811.4375,252319.828125,282437.46875,254346.59375,254994.875,211627.0,1.0,3
233459.15625,280374.5625,279723.6875,271339.625,253741.84375,283046.5,254845.9375,255692.4375,211628.0,1.0,3
233948.03125,281023.84375,280438.78125,271502.0,254677.578125,283478.34375,255072.671875,256009.203125,211629.0,1.0,3
233573.140625,280149.09375,279207.0,271066.9375,253816.046875,283131.34375,254702.609375,255490.28125,211630.0,1.0,3
232852.34375,278961.21875,277738.59375,270638.96875,252355.3125,282486.375,254256.65625,254852.8125,211631.0,1.0,3
232798.171875,279116.625,278074.5,270814.5625,252318.3125,282439.96875,254360.71875,254987.1875,211632.0,1.0,3
233463.0,280373.3125,279728.15625,271344.1875,253738.453125,283050.78125,254871.59375,255699.59375,211633.0,1.0,3
233947.3125,281026.875,280453.78125,271507.28125,254684.453125,283487.0,255098.140625,256019.484375,211634.0,1.0,3
233586.46875,280168.40625,279235.8125,271073.84375,253839.65625,283142.34375,254730.140625,255506.734375,211635.0,1.0,3
232868.171875,278978.9375,277757.28125,270641.28125,252375.25,282494.25,254278.375,254874.546875,211636.0,1.0,3
232794.40625,279115.90625,278073.0625,270805.25,252318.03125,282435.21875,254355.078125,254977.265625,211637.0,1.0,3
233450.296875,280365.375,279718.6875,271329.0,253729.765625,283031.9375,254843.34375,255669.453125,211638.0,1.0,3
233944.28125,281035.1875,280458.15625,271504.5,254691.4375,283475.65625,255078.484375,256003.84375,211639.0,1.0,3
233583.078125,280183.96875,279247.40625,271077.40625,253854.859375,283147.71875,254722.28125,255501.734375,211640.0,1.0,3
232860.65625,278987.25,277758.34375,270640.46875,252383.03125,282492.4375,254257.0,254857.28125,211641.0,1.0,3
232785.03125,279112.59375,278058.3125,270808.03125,252317.859375,282431.1875,254333.1875,254974.3125,211642.0,1.0,3
233447.53125,280365.625,279705.8125,271338.03125,253730.9375,283038.375,254831.890625,255679.65625,211643.0,1.0,3
233953.75,281048.625,280460.03125,271513.28125,254703.859375,283490.21875,255074.1875,256016.53125,211644.0,1.0,3
233598.453125,280203.625,279255.1875,271087.5,253877.828125,283158.4375,254714.953125,255512.09375,211645.0,1.0,3
232874.4375,279003.78125,277761.125,270651.65625,252402.96875,282506.75,254261.921875,254870.875,211646.0,1.0,3
232785.203125,279114.21875,278047.59375,270810.09375,252318.484375,282439.6875,254347.484375,254983.703125,211647.0,1.0,3
233450.125,280370.5625,279696.15625,271342.21875,253725.21875,283043.1875,254854.0625,255690.015625,211648.0,1.0,3
233955.1875,281058.96875,280464.6875,271525.25,254705.828125,283494.875,255103.328125,256032.09375,211649.0,1.0,3
233603.546875,280225.09375,279272.8125,271100.21875,253888.46875,283170.0625,254753.390625,255540.984375,211650.0,1.0,3
232876.484375,279019.15625,277769.25,270655.3125,252403.328125,282515.59375,254291.96875,254881.953125,211651.0,1.0,3
232788.6875,279124.5,278038.09375,270809.1875,252303.640625,282440.78125,254365.71875,254975.390625,211652.0,1.0,3
233445.75,280372.78125,279679.25,271341.15625,253702.6875,283039.25,254869.71875,255684.203125,211653.0,1.0,3
233950.359375,281063.53125,280454.40625,271522.5625,254685.0,283492.65625,255111.734375,256023.234375,211654.0,1.0,3
233612.3125,280242.59375,279275.75,271101.5625,253880.15625,283181.5,254764.84375,255530.515625,211655.0,1.0,3
232893.921875,279038.75,277772.375,270659.78125,252402.703125,282528.5625,254308.59375,254889.921875,211656.0,1.0,3
232794.859375,279125.8125,278030.5,270808.90625,252291.84375,282437.8125,254363.578125,254991.484375,211657.0,1.0,3
233439.9375,280363.21875,279667.1875,271332.84375,253681.9375,283029.78125,254852.8125,255689.84375,211658.0,1.0,3
233952.859375,281068.375,280459.6875,271518.8125,254680.34375,283490.40625,255101.453125,256028.34375,211659.0,1.0,3
233614.28125,280249.75,279287.125,271094.40625,253887.125,283175.4375,254740.875,255526.671875,211660.0,1.0,3
232888.375,279038.9375,277775.96875,270646.65625,252405.203125,282526.40625,254280.078125,254881.328125,211661.0,1.0,3
232790.390625,279122.78125,278024.25,270795.34375,252289.34375,282447.375,254353.5625,254985.671875,211662.0,1.0,3
233436.09375,280356.5,279665.5625,271326.125,253681.671875,283041.3125,254850.21875,255690.203125,211663.0,1.0,3
233946.875,281065.5,280467.375,271515.5,254684.546875,283499.71875,255090.546875,256028.34375,211664.0,1.0,3
233614.90625,280260.40625,279309.125,271099.6875,253902.5,283193.5,254753.03125,255541.25,211665.0,1.0,3
232884.265625,279040.25,277790.53125,270652.375,252417.453125,282536.25,254294.734375,254893.671875,211666.0,1.0,3
232763.65625,279096.40625,278015.84375,270787.71875,252277.265625,282440.0625,254348.46875,254972.703125,211667.0,1.0,3
233418.203125,280345.25,279661.375,271323.09375,253667.90625,283039.78125,254856.921875,255681.4375,211668.0,1.0,3
233944.546875,281069.28125,280478.5625,271522.5625,254683.65625,283502.65625,255113.53125,256041.296875,211669.0,1.0,3
233615.890625,280262.46875,279326.28125,271105.125,253911.53125,283200.5625,254769.125,255545.546875,211670.0,1.0,3
232886.328125,279041.0625,277802.15625,270657.46875,252424.875,282551.90625,254311.71875,254895.640625,211671.0,1.0,3
232768.75,279095.96875,278016.71875,270796.84375,252275.75,282454.09375,254369.5625,254980.9375,211672.0,1.0,3
233409.890625,280327.1875,279647.25,271319.0,253647.515625,283028.875,254850.484375,255668.46875,211673.0,1.0,3
233932.203125,281057.71875,280479.4375,271522.75,254672.75,283504.71875,255119.15625,256040.859375,211674.0,1.0,3
233616.78125,280271.21875,279347.28125,271118.09375,253920.65625,283208.78125,254779.140625,255560.375,211675.0,1.0,3
232886.234375,279044.65625,277814.9375,270663.375,252427.46875,282546.28125,254305.640625,254900.5625,211676.0,1.0,3
232758.203125,279084.78125,278006.0,270790.15625,252256.53125,282437.1875,254340.875,254961.890625,211677.0,1.0,3
233401.484375,280323.78125,279637.21875,271318.0,253628.828125,283020.3125,254831.453125,255659.171875,211678.0,1.0,3
233932.03125,281070.875,280485.4375,271525.59375,254668.546875,283496.40625,255099.40625,256032.8125,211679.0,1.0,3
233614.09375,280287.40625,279359.1875,271117.71875,253920.828125,283205.375,254769.484375,255555.46875,211680.0,1.0,3
232889.09375,279064.21875,277825.40625,270665.34375,252430.6875,282555.5625,254308.234375,254895.1875,211681.0,1.0,3
232762.9375,279097.46875,278008.875,270792.1875,252255.90625,282436.03125,254334.703125,254958.40625,211682.0,1.0,3
233409.09375,280336.9375,279642.5,271318.1875,253627.84375,283013.5,254821.078125,255653.984375,211683.0,1.0,3
233950.4375,281095.375,280502.15625,271529.09375,254682.40625,283496.84375,255100.03125,256035.484375,211684.0,1.0,3
233625.625,280306.1875,279373.21875,271114.78125,253940.140625,283199.03125,254761.265625,255554.921875,211685.0,1.0,3
232888.109375,279062.78125,277823.78125,270651.28125,252439.546875,282537.25,254287.140625,254878.296875,211686.0,1.0,3
232759.71875,279087.84375,277995.1875,270778.25,252254.015625,282426.65625,254335.140625,254944.640625,211687.0,1.0,3
233399.25,280316.28125,279620.78125,271306.375,253619.796875,283008.59375,254823.9375,255638.96875,211688.0,1.0,3
233935.96875,281071.9375,280488.75,271520.59375,254678.5625,283492.1875,255092.421875,256016.53125,211689.0,1.0,3
233627.78125,280298.125,279382.875,271121.125,253955.703125,283208.59375,254768.6875,255557.25,211690.0,1.0,3
232896.34375,279057.4375,277831.40625,270659.34375,252453.21875,282546.90625,254298.9375,254898.765625,211691.0,1.0,3
232756.6875,279068.53125,277986.5,270779.6875,252248.03125,282429.15625,254341.671875,254959.390625,211692.0,1.0,3
233397.28125,280298.5625,279612.5625,271306.75,253607.640625,283006.96875,254823.9375,255646.125,211693.0,1.0,3
233936.046875,281065.875,280493.5,271527.125,254676.328125,283498.625,255100.375,256032.890625,211694.0,1.0,3
233636.8125,280305.46875,279396.375,271127.84375,253962.40625,283212.625,254774.046875,255577.015625,211695.0,1.0,3
232903.046875,279059.40625,277835.40625,270662.03125,252455.359375,282545.65625,254292.859375,254905.65625,211696.0,1.0,3
232755.703125,279055.8125,277972.3125,270772.25,252236.3125,282420.84375,254326.46875,254948.390625,211697.0,1.0,3
233377.796875,280273.0,279589.84375,271293.5,253586.0,282993.84375,254810.4375,255632.359375,211698.0,1.0,3
233923.625,281051.84375,280485.15625,271515.15625,254661.9375,283483.875,255088.3125,256026.546875,211699.0,1.0,3
233640.296875,280309.125,279404.0625,271125.25,253965.359375,283213.25,254774.21875,255580.9375,211700.0,1.0,3
232901.171875,279054.75,277835.9375,270653.875,252455.90625,282543.84375,254290.265625,254896.171875,211701.0,1.0,3
232736.296875,279031.9375,277953.625,270760.09375,252216.5625,282402.9375,254310.03125,254933.1875,211702.0,1.0,3
233374.484375,280259.59375,279577.96875,271295.03125,253571.4375,282980.0625,254809.984375,255636.375,211703.0,1.0,3
233929.34375,281048.96875,280485.71875,271522.5625,254661.390625,283477.625,255094.296875,256029.234375,211704.0,1.0,3
233636.890625,280304.21875,279408.71875,271127.84375,253971.796875,283212.34375,254780.75,255575.765625,211705.0,1.0,3
232900.984375,279053.0625,277839.625,270661.5625,252465.734375,282552.15625,254302.6875,254900.5625,211706.0,1.0,3
232737.734375,279025.875,277944.40625,270763.40625,252220.140625,282407.5,254313.15625,254935.875,211707.0,1.0,3
233369.03125,280248.25,279564.0,271289.65625,253567.234375,282978.28125,254806.59375,255631.734375,211708.0,1.0,3
233931.671875,281053.53125,280488.46875,271520.59375,254669.171875,283481.03125,255092.78125,256032.0,211709.0,1.0,3
233652.546875,280325.21875,279425.6875,271129.28125,253995.21875,283217.28125,254776.1875,255587.203125,211710.0,1.0,3
232916.90625,279069.5,277850.875,270659.34375,252488.53125,282554.125,254305.828125,254925.234375,211711.0,1.0,3
232747.46875,279030.0625,277938.9375,270755.53125,252228.984375,282409.03125,254320.578125,254940.703125,211712.0,1.0,3
233374.84375,280249.03125,279548.28125,271276.25,253564.109375,282978.375,254801.5,255611.515625,211713.0,1.0,3
233936.046875,281056.9375,280481.25,271512.46875,254671.859375,283487.28125,255098.59375,256022.078125,211714.0,1.0,3
233658.078125,280334.15625,279430.96875,271130.15625,254009.796875,283228.0,254785.40625,255588.28125,211715.0,1.0,3
232913.40625,279070.75,277850.78125,270655.21875,252494.96875,282553.875,254298.21875,254905.65625,211716.0,1.0,3
232737.109375,279022.5625,277929.5625,270751.34375,252220.765625,282406.15625,254316.015625,254925.6875,211717.0,1.0,3
233370.375,280248.78125,279547.1875,271285.28125,253556.59375,282984.8125,254806.953125,255614.65625,211718.0,1.0,3
233939.265625,281070.78125,280497.78125,271530.0625,254677.21875,283495.78125,255104.578125,256030.65625,211719.0,1.0,3
233663.625,280354.46875,279455.03125,271145.28125,254023.5625,283233.71875,254790.046875,255587.46875,211720.0,1.0,3
232922.625,279092.03125,277867.34375,270668.5625,252506.234375,282563.4375,254304.296875,254907.078125,211721.0,1.0,3
232733.53125,279024.25,277923.03125,270758.125,252213.609375,282401.34375,254307.34375,254924.515625,211722.0,1.0,3
233355.703125,280233.84375,279526.8125,271281.71875,253537.375,282967.71875,254783.875,255599.8125,211723.0,1.0,3
233932.109375,281061.03125,280487.5,271526.9375,254667.390625,283483.78125,255089.109375,256025.03125,211724.0,1.0,3
233665.6875,280356.78125,279461.5625,271147.78125,254031.25,283238.46875,254791.65625,255599.265625,211725.0,1.0,3
232920.484375,279086.65625,277868.0625,270668.09375,252515.53125,282568.4375,254311.453125,254920.578125,211726.0,1.0,3
232725.84375,279005.5625,277907.9375,270747.0625,252213.4375,282400.8125,254307.25,254930.953125,211727.0,1.0,3
233340.0625,280210.6875,279506.0625,271268.03125,253528.875,282969.0,254786.03125,255602.40625,211728.0,1.0,3
233921.65625,281054.96875,280482.5625,271518.90625,254667.390625,283489.6875,255092.96875,256024.21875,211729.0,1.0,3
233660.3125,280360.28125,279465.9375,271136.15625,254041.71875,283244.09375,254795.5,255594.09375,211730.0,1.0,3
232917.796875,279092.46875,277867.59375,270652.8125,252526.265625,282584.53125,254326.921875,254920.046875,211731.0,1.0,3
232721.375,279005.5625,277899.34375,270732.84375,252212.265625,282416.8125,254322.546875,254922.90625,211732.0,1.0,3
233328.34375,280199.4375,279493.375,271253.4375,253519.671875,282963.09375,254788.796875,255592.921875,211733.0,1.0,3
233912.171875,281047.09375,280478.5625,271510.75,254667.390625,283486.65625,255101.1875,256030.21875,211734.0,1.0,3
233667.828125,280370.90625,279482.125,271147.59375,254059.234375,283257.5,254819.734375,255625.5625,211735.0,1.0,3
232928.53125,279101.59375,277883.4375,270666.6875,252538.78125,282592.40625,254338.453125,254935.609375,211736.0,1.0,3
232722.265625,278997.875,277895.3125,270737.3125,252202.4375,282410.28125,254314.671875,254912.1875,211737.0,1.0,3
233329.953125,280198.71875,279492.125,271265.53125,253508.9375,282966.75,254792.109375,255588.546875,211738.0,1.0,3
233915.125,281060.0625,280495.4375,271530.0625,254665.0625,283496.5625,255105.203125,256031.015625,211739.0,1.0,3
233676.234375,280393.4375,279512.34375,271166.46875,254068.359375,283268.40625,254814.1875,255618.234375,211740.0,1.0,3
232937.828125,279118.125,277901.84375,270678.65625,252545.75,282591.15625,254322.90625,254931.140625,211741.0,1.0,3
232724.59375,279004.15625,277900.25,270747.6875,252203.0625,282413.21875,254313.421875,254919.0625,211742.0,1.0,3
233330.3125,280198.53125,279488.09375,271267.65625,253497.40625,282964.6875,254788.359375,255590.953125,211743.0,1.0,3
233920.9375,281065.875,280497.0625,271533.21875,254662.203125,283496.03125,255106.8125,256033.515625,211744.0,1.0,3
233682.9375,280404.0625,279516.96875,271169.40625,254076.765625,283265.625,254821.171875,255625.109375,211745.0,1.0,3
232939.703125,279125.65625,277905.59375,270681.875,252556.3125,282593.21875,254328.53125,254935.421875,211746.0,1.0,3
232713.953125,278998.34375,277883.53125,270741.25,252195.90625,282398.125,254305.828125,254914.421875,211747.0,1.0,3
233310.921875,280186.09375,279463.6875,271257.9375,253482.734375,282948.4375,254783.171875,255585.421875,211748.0,1.0,3
233903.234375,281059.25,280487.75,271526.21875,254656.46875,283484.59375,255106.546875,256032.625,211749.0,1.0,3
233674.0,280408.5625,279526.28125,271167.53125,254084.890625,283269.46875,254828.765625,255638.609375,211750.0,1.0,3
232940.953125,279134.15625,277915.4375,270675.0,252564.703125,282601.0625,254338.09375,254936.953125,211751.0,1.0,3
232720.390625,278997.71875,277886.375,270735.0625,252200.015625,282408.75,254316.015625,254910.296875,211752.0,1.0,3
233319.671875,280181.0,279463.4375,271255.96875,253485.421875,282957.71875,254791.921875,255582.90625,211753.0,1.0,3
233919.421875,281060.875,280492.3125,271525.0625,254663.8125,283493.28125,255112.359375,256029.328125,211754.0,1.0,3
233687.59375,280409.71875,279537.46875,271164.65625,254098.125,283277.96875,254831.359375,255631.109375,211755.0,1.0,3
232947.125,279128.15625,277919.1875,270674.4375,252576.421875,282605.09375,254339.0,254938.828125,211756.0,1.0,3
232731.109375,278991.96875,277877.71875,270731.75,252201.359375,282407.15625,254320.65625,254916.109375,211757.0,1.0,3
233330.234375,280171.96875,279453.875,271250.59375,253480.421875,282958.15625,254801.9375,255585.421875,211758.0,1.0,3
233928.984375,281055.75,280494.65625,271522.5625,254668.546875,283495.78125,255120.3125,256034.421875,211759.0,1.0,3
233701.453125,280419.90625,279554.625,271168.59375,254121.015625,283285.125,254845.84375,255646.84375,211760.0,1.0,3
232962.59375,279140.9375,277935.28125,270675.96875,252599.84375,282612.59375,254353.46875,254951.25,211761.0,1.0,3
232732.90625,278990.375,277873.15625,270728.90625,252205.828125,282410.625,254323.171875,254910.84375,211762.0,1.0,3
233326.203125,280165.8125,279442.78125,271252.125,253477.828125,282955.84375,254796.84375,255585.234375,211763.0,1.0,3
233920.859375,281051.84375,280492.3125,271527.03125,254669.625,283489.875,255113.96875,256033.4375,211764.0,1.0,3
233704.390625,280427.5,279561.3125,271174.15625,254129.875,283284.3125,254837.4375,255640.671875,211765.0,1.0,3
232959.90625,279137.0,277930.625,270680.8125,252600.921875,282608.0625,254343.109375,254950.53125,211766.0,1.0,3
232722.4375,278968.5625,277851.34375,270727.375,252191.96875,282398.03125,254314.5,254904.9375,211767.0,1.0,3
233309.671875,280134.25,279414.34375,271243.0,253455.03125,282938.59375,254788.4375,255565.125,211768.0,1.0,3
233910.296875,281027.0625,280477.03125,271522.65625,254658.265625,283474.75,255108.875,256027.0,211769.0,1.0,3
233697.328125,280411.78125,279562.9375,271176.46875,254134.078125,283280.125,254840.125,255647.828125,211770.0,1.0,3
232959.09375,279126.0,277931.71875,270677.5,252607.265625,282603.75,254344.796875,254949.90625,211771.0,1.0,3
232711.71875,278944.78125,277836.84375,270716.28125,252181.609375,282385.5,254302.15625,254897.875,211772.0,1.0,3
233290.265625,280110.1875,279395.75,271232.71875,253432.859375,282918.84375,254768.234375,255553.859375,211773.0,1.0,3
233893.140625,281017.9375,280469.15625,271517.46875,254643.875,283464.46875,255100.46875,256021.625,211774.0,1.0,3
233691.703125,280418.03125,279564.53125,271172.28125,254131.03125,283272.53125,254833.859375,255647.28125,211775.0,1.0,3
232959.546875,279135.21875,277933.6875,270674.375,252611.03125,282603.9375,254338.28125,254942.484375,211776.0,1.0,3
232698.921875,278937.09375,277823.25,270711.1875,252176.6875,282385.5,254301.4375,254888.046875,211777.0,1.0,3
233269.796875,280092.125,279372.78125,271227.78125,253419.171875,282914.4375,254769.125,255550.71875,211778.0,1.0,3
233889.015625,281019.8125,280461.125,271519.0,254637.875,283466.0,255105.484375,256021.453125,211779.0,1.0,3
233692.328125,280430.0,279573.21875,271179.25,254139.703125,283278.4375,254842.171875,255651.84375,211780.0,1.0,3
232953.109375,279139.59375,277939.65625,270679.46875,252617.546875,282608.21875,254340.328125,254950.796875,211781.0,1.0,3
232695.171875,278936.09375,277818.4375,270709.15625,252171.140625,282380.40625,254293.125,254890.1875,211782.0,1.0,3
233270.859375,280092.5,279365.875,271223.3125,253411.390625,282909.0,254764.296875,255549.828125,211783.0,1.0,3
233888.84375,281021.78125,280464.4375,271519.53125,254639.84375,283460.71875,255107.453125,256026.8125,211784.0,1.0,3
233696.890625,280441.4375,279593.0625,271189.15625,254158.03125,283285.65625,254855.9375,255670.359375,211785.0,1.0,3
232960.4375,279154.34375,277955.75,270689.5625,252634.625,282615.46875,254357.140625,254972.53125,211786.0,1.0,3
232699.828125,278942.53125,277816.625,270714.6875,252172.921875,282382.65625,254308.59375,254898.328125,211787.0,1.0,3
233266.921875,280085.96875,279354.875,271222.78125,253400.3125,282905.3125,254768.140625,255539.109375,211788.0,1.0,3
233882.3125,281015.34375,280459.5,271517.65625,254631.4375,283458.65625,255106.546875,256015.109375,211789.0,1.0,3
233700.375,280443.40625,279594.40625,271186.5625,254157.765625,283282.53125,254851.296875,255657.296875,211790.0,1.0,3
232960.984375,279148.1875,277953.6875,270686.15625,252635.34375,282616.71875,254354.546875,254958.84375,211791.0,1.0,3
232682.46875,278914.1875,277795.0,270705.9375,252156.84375,282371.21875,254292.234375,254880.171875,211792.0,1.0,3
233242.703125,280052.4375,279324.03125,271212.78125,253377.0625,282883.15625,254750.0,255525.0625,211793.0,1.0,3
233865.328125,280995.5,280442.6875,271513.71875,254621.15625,283444.4375,255097.4375,256011.625,211794.0,1.0,3
233691.4375,280436.25,279593.59375,271185.78125,254163.125,283280.5625,254850.484375,255657.296875,211795.0,1.0,3
232961.875,279148.09375,277955.21875,270684.375,252641.953125,282614.3125,254359.109375,254959.484375,211796.0,1.0,3
232684.625,278910.28125,277790.1875,270702.96875,252153.703125,282367.8125,254299.46875,254883.21875,211797.0,1.0,3
233244.75,280042.6875,279317.34375,271210.8125,253365.890625,282874.40625,254751.34375,255529.453125,211798.0,1.0,3
233871.765625,280994.875,280450.3125,271515.25,254618.484375,283438.71875,255102.078125,256015.640625,211799.0,1.0,3
233704.125,280451.09375,279618.0,271191.03125,254173.953125,283281.5625,254857.109375,255669.71875,211800.0,1.0,3
232968.9375,279158.5625,277974.625,270687.875,252652.15625,282613.6875,254356.515625,254971.546875,211801.0,1.0,3
232692.3125,278914.8125,277796.0625,270703.59375,252157.28125,282365.84375,254290.71875,254890.0,211802.0,1.0,3
233247.265625,280042.875,279315.90625,271210.8125,253363.296875,282874.75,254746.78125,255523.71875,211803.0,1.0,3
233872.75,281001.0625,280456.375,271518.90625,254621.15625,283442.125,255104.140625,256018.953125,211804.0,1.0,3
233703.234375,280463.25,279630.09375,271192.21875,254182.265625,283282.96875,254854.0625,255672.3125,211805.0,1.0,3
232971.890625,279173.75,277985.34375,270690.53125,252664.40625,282626.90625,254359.640625,254970.65625,211806.0,1.0,3
232676.21875,278908.125,277783.75,270697.25,252148.34375,282368.71875,254288.921875,254872.75,211807.0,1.0,3
233224.546875,280030.34375,279295.6875,271202.125,253339.6875,282864.65625,254741.40625,255510.765625,211808.0,1.0,3
233859.703125,280998.1875,280447.875,271518.09375,254603.640625,283429.0625,255098.765625,256016.890625,211809.0,1.0,3
233703.5,280471.65625,279637.15625,271199.625,254183.421875,283278.25,254859.25,255684.125,211810.0,1.0,3
232972.875,279178.5,277986.4375,270689.75,252661.71875,282620.3125,254360.0,254972.703125,211811.0,1.0,3
232679.53125,278903.1875,277773.09375,270689.75,252136.546875,282356.0,254277.84375,254863.1875,211812.0,1.0,3
233226.0625,280016.3125,279277.8125,271193.8125,253324.484375,282852.5625,254728.0,255499.671875,211813.0,1.0,3
233859.078125,280983.0,280436.96875,271511.9375,254595.59375,283425.0625,255089.828125,256009.390625,211814.0,1.0,3
233714.40625,280470.59375,279642.6875,271202.03125,254189.765625,283286.5625,254857.46875,255678.390625,211815.0,1.0,3
232986.1875,279177.40625,277988.03125,270691.09375,252668.15625,282623.15625,254354.28125,254969.484375,211816.0,1.0,3
232682.03125,278888.4375,277756.125,270690.09375,252128.3125,282356.1875,254280.703125,254864.265625,211817.0,1.0,3
233218.203125,279994.3125,279255.09375,271191.3125,253305.890625,282845.34375,254723.890625,255493.6875,211818.0,1.0,3
233853.703125,280970.375,280429.5625,271510.75,254584.5,283423.09375,255099.125,256010.015625,211819.0,1.0,3
233721.65625,280477.3125,279654.9375,271204.8125,254196.65625,283296.21875,254878.390625,255683.765625,211820.0,1.0,3
232991.375,279183.84375,277997.78125,270692.15625,252675.671875,282631.03125,254369.390625,254972.890625,211821.0,1.0,3
232682.5625,278886.125,277752.4375,270688.21875,252124.109375,282352.53125,254285.609375,254862.46875,211822.0,1.0,3
233225.171875,279997.09375,279251.4375,271194.09375,253298.65625,282844.71875,254736.9375,255504.953125,211823.0,1.0,3
233864.171875,280979.78125,280435.90625,271519.53125,254587.546875,283419.15625,255102.078125,256021.71875,211824.0,1.0,3
233723.078125,280484.1875,279670.6875,271213.75,254214.1875,283292.90625,254879.015625,255695.296875,211825.0,1.0,3
232994.6875,279192.34375,278013.15625,270700.03125,252696.859375,282635.9375,254379.765625,254990.859375,211826.0,1.0,3
232679.53125,278882.375,277746.90625,270682.59375,252127.328125,282354.40625,254277.296875,254860.234375,211827.0,1.0,3
233213.109375,279982.6875,279237.21875,271184.78125,253292.9375,282843.8125,254724.609375,255487.25,211828.0,1.0,3
233853.96875,280974.0625,280432.875,271515.0625,254587.984375,283421.84375,255093.671875,256010.015625,211829.0,1.0,3
233721.390625,280492.59375,279680.25,271218.3125,254224.90625,283302.84375,254877.9375,255710.140625,211830.0,1.0,3
232998.265625,279203.0,278017.53125,270706.375,252704.359375,282638.90625,254364.203125,255000.0625,211831.0,1.0,3
232682.203125,278886.3125,277743.59375,270691.4375,252127.15625,282358.25,254271.125,254863.0,211832.0,1.0,3
233215.703125,279985.375,279232.75,271192.9375,253286.046875,282844.1875,254721.921875,255492.34375,211833.0,1.0,3
233860.6875,280987.28125,280435.375,271523.5625,254582.890625,283426.65625,255101.546875,256019.3125,211834.0,1.0,3
233735.59375,280516.28125,279691.78125,271224.9375,254226.78125,283305.34375,254877.140625,255707.90625,211835.0,1.0,3
233007.46875,279219.25,278030.21875,270711.46875,252713.9375,282651.59375,254376.09375,254996.484375,211836.0,1.0,3
232678.265625,278881.46875,277737.25,270685.71875,252120.09375,282359.59375,254280.4375,254858.265625,211837.0,1.0,3
233200.859375,279964.90625,279210.84375,271177.71875,253261.546875,282828.15625,254716.015625,255477.671875,211838.0,1.0,3
233853.890625,280977.34375,280426.59375,271515.40625,254570.203125,283413.6875,255100.65625,256013.578125,211839.0,1.0,3
233742.03125,280525.03125,279702.78125,271223.84375,254235.734375,283303.375,254887.0625,255708.96875,211840.0,1.0,3
233012.484375,279226.15625,278034.78125,270703.96875,252720.1875,282643.46875,254378.328125,254985.9375,211841.0,1.0,3
232677.46875,278879.40625,277726.0625,270675.71875,252113.5625,282347.6875,254275.0625,254844.765625,211842.0,1.0,3
233195.671875,279961.5,279197.875,271176.125,253252.703125,282823.25,254720.40625,255474.640625,211843.0,1.0,3
233854.78125,280986.28125,280426.53125,271517.90625,254571.8125,283415.9375,255103.15625,256005.265625,211844.0,1.0,3
233745.078125,280537.46875,279709.5625,271227.78125,254246.09375,283298.90625,254889.828125,255709.953125,211845.0,1.0,3
233016.140625,279238.46875,278045.875,270717.0,252739.59375,282648.5625,254390.484375,255006.0625,211846.0,1.0,3
232675.6875,278885.40625,277724.71875,270687.5,252125.546875,282349.125,254274.265625,254859.875,211847.0,1.0,3
233195.5,279966.625,279188.0625,271184.53125,253258.328125,282825.21875,254716.375,255482.15625,211848.0,1.0,3
233849.59375,280988.625,280422.21875,271526.21875,254577.796875,283421.03125,255104.140625,256011.4375,211849.0,1.0,3
233750.359375,280553.65625,279722.34375,271240.40625,254264.96875,283318.84375,254889.65625,255718.0,211850.0,1.0,3
233022.765625,279251.875,278051.15625,270718.34375,252751.390625,282657.125,254379.3125,255014.546875,211851.0,1.0,3
232677.109375,278881.9375,277712.9375,270678.3125,252121.609375,282356.1875,254266.578125,254853.53125,211852.0,1.0,3
233192.71875,279955.78125,279171.4375,271173.53125,253245.1875,282830.3125,254715.484375,255472.671875,211853.0,1.0,3
233852.546875,280985.40625,280415.96875,271518.8125,254567.34375,283420.59375,255103.515625,256016.796875,211854.0,1.0,3
233761.703125,280562.5,279729.78125,271238.0625,254266.484375,283324.8125,254901.359375,255721.9375,211855.0,1.0,3
233037.6875,279261.28125,278059.28125,270722.1875,252756.578125,282672.25,254400.328125,255012.5,211856.0,1.0,3
232680.6875,278882.8125,277704.6875,270678.125,252109.71875,282365.3125,254294.28125,254858.796875,211857.0,1.0,3
233190.21875,279955.0,279150.3125,271166.5625,253215.140625,282827.53125,254727.203125,255465.25,211858.0,1.0,3
233856.203125,280998.375,280407.65625,271516.3125,254548.296875,283427.8125,255120.40625,256013.671875,211859.0,1.0,3
233766.890625,280586.5625,279740.6875,271242.28125,254266.578125,283346.71875,254929.34375,255740.71875,211860.0,1.0,3
233042.25,279286.03125,278067.34375,270719.5,252752.734375,282687.53125,254411.59375,255023.21875,211861.0,1.0,3
232690.875,278899.625,277702.03125,270674.0,252097.65625,282372.375,254287.21875,254858.265625,211862.0,1.0,3
233186.375,279952.40625,279140.9375,271161.28125,253193.515625,282829.40625,254719.515625,255470.078125,211863.0,1.0,3
233854.0625,281000.4375,280407.65625,271513.28125,254531.75,283428.71875,255104.578125,256011.265625,211864.0,1.0,3
233773.859375,280599.875,279753.28125,271240.75,254262.90625,283342.34375,254902.4375,255740.71875,211865.0,1.0,3
233048.328125,279296.6875,278077.34375,270714.59375,252753.453125,282685.75,254388.25,255023.046875,211866.0,1.0,3
232693.109375,278902.9375,277701.3125,270667.03125,252092.640625,282371.5625,254270.59375,254857.640625,211867.0,1.0,3
233193.890625,279954.0,279140.9375,271156.53125,253190.375,282831.5625,254710.03125,255470.265625,211868.0,1.0,3
233856.921875,280999.96875,280411.6875,271511.65625,254535.6875,283433.625,255099.125,256016.171875,211869.0,1.0,3
233779.5,280608.375,279767.78125,271242.71875,254281.765625,283359.4375,254912.625,255751.171875,211870.0,1.0,3
233055.21875,279304.0,278092.71875,270719.6875,252779.28125,282703.4375,254408.375,255036.640625,211871.0,1.0,3
232676.21875,278884.53125,277694.15625,270664.875,252097.375,282375.3125,254277.390625,254853.53125,211872.0,1.0,3
233170.375,279930.5,279118.40625,271150.0,253177.328125,282821.1875,254700.46875,255456.84375,211873.0,1.0,3
233839.3125,280986.5625,280405.78125,271510.5,254530.859375,283429.625,255103.25,256014.484375,211874.0,1.0,3
233767.34375,280606.125,279782.4375,271252.1875,254294.015625,283364.625,254926.03125,255761.453125,211875.0,1.0,3
233048.59375,279307.15625,278107.65625,270728.28125,252791.265625,282708.71875,254415.703125,255044.59375,211876.0,1.0,3
232676.65625,278882.71875,277694.59375,270665.6875,252097.5625,282378.625,254284.71875,254860.328125,211877.0,1.0,3
233156.78125,279910.90625,279109.5625,271146.15625,253166.859375,282817.8125,254700.375,255451.65625,211878.0,1.0,3
233832.609375,280974.9375,280404.25,271510.125,254525.5,283424.5,255104.859375,256013.234375,211879.0,1.0,3
233773.234375,280607.46875,279796.65625,271256.125,254302.25,283370.15625,254934.796875,255770.84375,211880.0,1.0,3
233053.609375,279305.8125,278116.40625,270728.90625,252799.84375,282715.15625,254416.859375,255048.265625,211881.0,1.0,3
232670.3125,278867.8125,277686.28125,270660.0625,252092.640625,282374.96875,254276.859375,254850.671875,211882.0,1.0,3
233149.1875,279897.125,279098.5625,271139.09375,253152.828125,282813.875,254693.140625,255439.59375,211883.0,1.0,3
233825.984375,280970.28125,280403.1875,271507.1875,254519.140625,283419.5,255095.828125,256006.25,211884.0,1.0,3
233772.34375,280612.84375,279800.65625,271249.875,254304.03125,283356.9375,254916.109375,255759.21875,211885.0,1.0,3
233063.890625,279319.75,278127.5,270725.875,252809.0625,282712.75,254408.46875,255043.78125,211886.0,1.0,3
232674.515625,278871.03125,277686.09375,270655.40625,252092.109375,282371.125,254267.203125,254849.59375,211887.0,1.0,3
233156.0625,279900.28125,279092.3125,271136.15625,253149.078125,282809.40625,254689.828125,255437.453125,211888.0,1.0,3
233834.84375,280977.8125,280404.15625,271506.5625,254520.484375,283417.8125,255099.671875,256008.9375,211889.0,1.0,3
233780.578125,280628.3125,279816.0625,271255.59375,254318.25,283364.78125,254934.078125,255775.765625,211890.0,1.0,3
233073.71875,279336.28125,278141.1875,270732.375,252829.09375,282724.1875,254425.09375,255052.453125,211891.0,1.0,3
232672.90625,278869.21875,277680.46875,270652.46875,252096.75,282373.4375,254271.9375,254842.078125,211892.0,1.0,3
233146.140625,279885.34375,279075.5,271128.5625,253142.546875,282804.9375,254689.375,255428.59375,211893.0,1.0,3
233826.53125,280969.125,280394.96875,271504.6875,254519.6875,283418.0,255100.109375,255999.8125,211894.0,1.0,3
233787.28125,280634.9375,279823.1875,271261.9375,254334.609375,283365.0625,254933.640625,255768.609375,211895.0,1.0,3
233078.90625,279338.96875,278146.375,270737.125,252843.578125,282718.65625,254423.65625,255053.625,211896.0,1.0,3
232672.640625,278862.96875,277673.40625,270653.625,252098.453125,282366.75,254275.15625,254841.734375,211897.0,1.0,3
233140.328125,279871.46875,279060.46875,271126.75,253131.375,282796.875,254690.09375,255426.453125,211898.0,1.0,3
233825.90625,280961.09375,280389.6875,271504.78125,254510.125,283406.53125,255088.578125,255998.828125,211899.0,1.0,3
233788.703125,280631.0,279830.71875,271264.4375,254337.296875,283368.1875,254928.90625,255772.1875,211900.0,1.0,3
233082.84375,279334.0625,278154.0625,270740.25,252852.0625,282730.1875,254426.875,255061.9375,211901.0,1.0,3
232685.609375,278857.25,277667.78125,270654.25,252098.625,282371.9375,254272.203125,254845.21875,211902.0,1.0,3
233148.015625,279856.46875,279046.53125,271126.84375,253122.875,282792.75,254681.421875,255417.78125,211903.0,1.0,3
233826.796875,280947.84375,280382.625,271506.46875,254509.140625,283408.5,255092.25,255995.078125,211904.0,1.0,3
233797.734375,280637.875,279839.5625,271267.3125,254348.640625,283373.71875,254934.890625,255779.703125,211905.0,1.0,3
233089.640625,279343.53125,278160.78125,270737.84375,252859.671875,282729.71875,254423.296875,255061.765625,211906.0,1.0,3
232676.75,278847.21875,277656.34375,270644.9375,252089.328125,282360.125,254256.296875,254829.84375,211907.0,1.0,3
233133.359375,279841.34375,279030.15625,271119.96875,253105.53125,282781.15625,254671.40625,255420.375,211908.0,1.0,3
233823.125,280946.15625,280377.53125,271503.875,254495.28125,283401.4375,255094.296875,256005.625,211909.0,1.0,3
233801.140625,280646.09375,279850.03125,271271.59375,254351.859375,283372.375,254941.234375,255775.5,211910.0,1.0,3
233088.296875,279343.71875,278167.65625,270738.5625,252866.015625,282722.21875,254422.40625,255055.59375,211911.0,1.0,3
232668.53125,278837.65625,277649.28125,270639.0625,252085.9375,282353.6875,254255.3125,254820.890625,211912.0,1.0,3
233122.53125,279827.21875,279014.96875,271113.09375,253095.4375,282770.15625,254667.828125,255404.546875,211913.0,1.0,3
233814.375,280938.09375,280373.40625,271502.71875,254494.828125,283395.8125,255088.671875,255999.28125,211914.0,1.0,3
233804.71875,280655.40625,279861.65625,271275.90625,254366.4375,283382.5,254947.9375,255783.0,211915.0,1.0,3
233099.46875,279361.9375,278183.65625,270745.71875,252885.6875,282747.4375,254447.53125,255070.078125,211916.0,1.0,3
232668.265625,278839.0,277648.09375,270639.75,252088.53125,282360.9375,254258.96875,254825.8125,211917.0,1.0,3
233120.5625,279824.90625,279007.09375,271109.78125,253088.1875,282774.25,254667.65625,255399.0,211918.0,1.0,3
233821.078125,280945.625,280373.84375,271502.53125,254496.4375,283401.71875,255092.421875,255994.984375,211919.0,1.0,3
233812.3125,280664.25,279873.1875,271276.53125,254379.578125,283380.71875,254946.515625,255784.171875,211920.0,1.0,3
233106.265625,279365.875,278196.34375,270746.15625,252901.421875,282747.4375,254441.625,255072.046875,211921.0,1.0,3
232679.703125,278842.40625,277650.78125,270641.09375,252096.671875,282370.6875,254269.703125,254831.453125,211922.0,1.0,3
233123.15625,279816.21875,278991.90625,271103.78125,253079.15625,282769.78125,254665.0625,255391.046875,211923.0,1.0,3
233814.1875,280931.65625,280361.875,271494.84375,254480.96875,283389.1875,255083.9375,255981.125,211924.0,1.0,3
233807.65625,280662.8125,279881.125,271277.875,254376.359375,283382.84375,254950.359375,255785.859375,211925.0,1.0,3
233106.265625,279372.5,278201.4375,270744.625,252898.640625,282745.65625,254440.46875,255070.4375,211926.0,1.0,3
232676.21875,278840.8125,277641.125,270636.09375,252083.703125,282361.8125,254260.765625,254825.640625,211927.0,1.0,3
233111.265625,279805.21875,278979.90625,271098.78125,253056.265625,282761.90625,254660.046875,255387.921875,211928.0,1.0,3
233806.046875,280929.78125,280359.5625,271492.0,254464.15625,283381.0625,255073.921875,255976.296875,211929.0,1.0,3
233813.46875,280680.78125,279890.6875,271277.5,254374.75,283380.53125,254940.078125,255789.984375,211930.0,1.0,3
233116.375,279395.75,278213.4375,270747.21875,252903.828125,282746.53125,254433.140625,255078.203125,211931.0,1.0,3
232677.46875,278847.40625,277635.84375,270629.9375,252074.3125,282357.4375,254246.09375,254812.84375,211932.0,1.0,3
233111.984375,279807.90625,278967.75,271093.78125,253043.3125,282758.625,254646.640625,255376.203125,211933.0,1.0,3
233809.359375,280938.03125,280360.8125,271497.09375,254464.25,283387.78125,255085.71875,255987.921875,211934.0,1.0,3
233821.609375,280697.0625,279910.375,271290.75,254391.828125,283391.4375,254968.859375,255823.140625,211935.0,1.0,3
233127.1875,279411.9375,278234.96875,270758.3125,252925.46875,282763.25,254462.015625,255107.09375,211936.0,1.0,3
232683.28125,278853.75,277643.90625,270631.71875,252084.6875,282364.3125,254258.703125,254821.4375,211937.0,1.0,3
233107.609375,279801.75,278963.09375,271092.25,253040.4375,282757.09375,254658.625,255387.734375,211938.0,1.0,3
233804.171875,280930.40625,280355.09375,271489.84375,254458.171875,283376.6875,255082.953125,255978.984375,211939.0,1.0,3
233815.625,280693.3125,279915.5625,271285.625,254398.359375,283393.21875,254963.953125,255805.984375,211940.0,1.0,3
233120.75,279408.25,278240.59375,270757.25,252936.90625,282765.0625,254458.0,255098.0625,211941.0,1.0,3
232668.34375,278838.46875,277631.5625,270628.0625,252079.765625,282357.34375,254259.328125,254827.6875,211942.0,1.0,3
233090.265625,279778.9375,278943.78125,271087.6875,253026.3125,282748.78125,254654.421875,255380.671875,211943.0,1.0,3
233788.4375,280911.90625,280345.53125,271493.96875,254449.671875,283377.03125,255081.0625,255983.09375,211944.0,1.0,3
233814.1875,280690.625,279921.46875,271293.5,254402.5625,283391.0,254959.125,255810.0,211945.0,1.0,3
233126.734375,279405.5,278244.625,270760.0,252943.4375,282760.84375,254448.609375,255095.28125,211946.0,1.0,3
232669.328125,278820.6875,277624.40625,270629.21875,252079.953125,282356.46875,254254.0625,254824.390625,211947.0,1.0,3
233087.9375,279761.59375,278928.59375,271084.375,253014.609375,282742.0625,254648.4375,255378.890625,211948.0,1.0,3
233789.328125,280908.34375,280340.15625,271490.03125,254444.046875,283375.6875,255085.71875,255988.109375,211949.0,1.0,3
233814.90625,280694.5625,279927.09375,271288.3125,254408.28125,283393.21875,254961.09375,255814.03125,211950.0,1.0,3
233124.0625,279411.65625,278253.46875,270755.53125,252952.921875,282766.9375,254449.953125,255103.6875,211951.0,1.0,3
232672.546875,278829.875,277623.78125,270621.625,252081.734375,282361.1875,254249.765625,254826.265625,211952.0,1.0,3
233087.40625,279759.71875,278919.46875,271075.34375,253009.328125,282740.1875,254636.09375,255364.046875,211953.0,1.0,3
233785.84375,280905.65625,280335.5,271485.28125,254441.1875,283367.75,255069.265625,255974.515625,211954.0,1.0,3
233814.8125,280704.21875,279936.75,271291.71875,254417.9375,283396.09375,254956.796875,255815.640625,211955.0,1.0,3
233129.0625,279427.3125,278264.9375,270757.96875,252968.03125,282778.625,254457.90625,255107.890625,211956.0,1.0,3
232670.3125,278832.3125,277615.65625,270620.09375,252082.625,282368.4375,254255.125,254822.78125,211957.0,1.0,3
233075.328125,279748.28125,278896.78125,271069.90625,252993.421875,282740.28125,254639.484375,255359.75,211958.0,1.0,3
233780.125,280900.375,280323.875,271485.28125,254428.046875,283369.875,255074.90625,255974.25,211959.0,1.0,3
233825.453125,280718.78125,279948.0,271299.3125,254423.125,283404.65625,254974.5,255831.640625,211960.0,1.0,3
233146.3125,279446.875,278281.09375,270770.125,252980.359375,282787.9375,254465.5,255116.46875,211961.0,1.0,3
232675.953125,278830.25,277613.6875,270621.875,252080.21875,282362.1875,254246.1875,254819.375,211962.0,1.0,3
233073.984375,279731.1875,278882.375,271068.5625,252977.5,282721.25,254619.734375,255351.53125,211963.0,1.0,3
233779.328125,280886.96875,280319.21875,271490.1875,254420.4375,283359.0625,255062.390625,255975.40625,211964.0,1.0,3
233829.75,280717.71875,279956.3125,271308.96875,254429.5625,283410.46875,254966.453125,255832.359375,211965.0,1.0,3
233154.90625,279451.4375,278290.84375,270780.5,252991.890625,282793.3125,254465.328125,255127.5625,211966.0,1.0,3
232680.234375,278826.9375,277611.28125,270625.1875,252079.5,282358.25,254244.3125,254818.921875,211967.0,1.0,3
233069.78125,279717.625,278869.84375,271062.9375,252963.5625,282715.0625,254612.9375,255334.984375,211968.0,1.0,3
233775.828125,280878.21875,280312.25,271483.3125,254410.15625,283353.15625,255059.875,255960.203125,211969.0,1.0,3
233838.421875,280722.09375,279962.5,271306.28125,254431.34375,283394.75,254963.328125,255827.890625,211970.0,1.0,3
233167.78125,279459.21875,278301.3125,270777.71875,252999.046875,282790.15625,254468.625,255122.90625,211971.0,1.0,3
232692.21875,278828.0,277611.4375,270623.65625,252084.140625,282364.59375,254249.578125,254814.90625,211972.0,1.0,3
233073.265625,279709.125,278856.8125,271058.09375,252958.734375,282713.625,254614.359375,255337.125,211973.0,1.0,3
233776.90625,280874.90625,280304.9375,271477.5,254406.578125,283352.625,255062.46875,255961.453125,211974.0,1.0,3
233846.640625,280733.625,279975.90625,271307.1875,254447.796875,283404.75,254975.296875,255834.953125,211975.0,1.0,3
233170.09375,279464.21875,278311.34375,270773.78125,253017.375,282792.40625,254474.0,255123.625,211976.0,1.0,3
232687.84375,278825.15625,277606.25,270613.75,252085.578125,282357.71875,254247.4375,254807.84375,211977.0,1.0,3
233073.984375,279711.09375,278851.25,271055.9375,252954.96875,282710.875,254617.578125,255329.078125,211978.0,1.0,3
233775.46875,280874.8125,280303.6875,271477.59375,254403.0,283343.96875,255058.71875,255955.921875,211979.0,1.0,3
233836.984375,280731.5625,279984.125,271306.1875,254450.390625,283403.9375,254971.546875,255829.859375,211980.0,1.0,3
233166.171875,279471.125,278323.84375,270773.875,253026.046875,282800.46875,254474.265625,255128.015625,211981.0,1.0,3
232682.125,278821.65625,277603.59375,270610.78125,252087.359375,282367.09375,254250.03125,254814.90625,211982.0,1.0,3
233061.828125,279694.375,278834.53125,271046.84375,252943.96875,282712.46875,254622.234375,255337.9375,211983.0,1.0,3
233766.09375,280863.375,280294.28125,271477.0625,254398.265625,283351.5625,255071.59375,255971.5625,211984.0,1.0,3
233843.328125,280739.0,279987.875,271314.96875,254463.09375,283415.46875,254986.484375,255850.234375,211985.0,1.0,3
233176.8125,279478.0,278330.28125,270786.375,253044.375,282811.375,254492.328125,255148.9375,211986.0,1.0,3
232676.21875,278808.875,277596.15625,270613.84375,252088.0,282367.46875,254250.125,254818.125,211987.0,1.0,3
233036.4375,279663.0625,278809.6875,271040.21875,252924.3125,282695.3125,254602.390625,255323.1875,211988.0,1.0,3
233751.34375,280846.1875,280279.09375,271475.0,254383.515625,283333.0625,255054.609375,255962.4375,211989.0,1.0,3
233835.375,280732.5625,279988.0625,271314.25,254463.53125,283408.15625,254974.9375,255841.921875,211990.0,1.0,3
233172.96875,279472.46875,278334.125,270780.9375,253048.40625,282805.5625,254472.390625,255134.453125,211991.0,1.0,3
232675.859375,278798.25,277591.0625,270609.375,252088.703125,282359.40625,254241.71875,254810.875,211992.0,1.0,3
233037.59375,279650.09375,278800.21875,271039.59375,252920.8125,282691.09375,254601.765625,255327.828125,211993.0,1.0,3
233743.734375,280831.8125,280273.09375,271471.59375,254377.796875,283333.0625,255053.71875,255960.125,211994.0,1.0,3
233837.4375,280735.96875,280000.125,271316.3125,254472.296875,283415.40625,254986.5625,255846.9375,211995.0,1.0,3
233177.34375,279482.5625,278349.40625,270784.6875,253064.859375,282817.71875,254493.671875,255152.859375,211996.0,1.0,3
232675.0625,278802.4375,277592.84375,270609.71875,252093.984375,282370.3125,254255.84375,254826.53125,211997.0,1.0,3
233039.5625,279654.84375,278796.8125,271040.65625,252918.140625,282706.03125,254615.078125,255332.65625,211998.0,1.0,3
233749.640625,280839.125,280275.6875,271470.96875,254379.21875,283343.96875,255060.0625,255945.453125,211999.0,1.0,3
233843.78125,280748.28125,280016.40625,271318.71875,254482.9375,283420.125,254986.75,255843.53125,212000.0,1.0,3
233186.640625,279498.65625,278366.59375,270788.53125,253080.328125,282823.6875,254491.4375,255145.0,212001.0,1.0,3
232676.125,278804.0625,277588.125,270603.46875,252095.234375,282367.46875,254247.796875,254804.4375,212002.0,1.0,3
233027.5,279643.21875,278775.8125,271026.625,252901.859375,282687.8125,254594.25,255298.78125,212003.0,1.0,3
233739.625,280838.96875,280266.75,271469.0,254369.484375,283329.75,255049.875,255938.578125,212004.0,1.0,3
233841.546875,280763.84375,280025.4375,271324.1875,254488.03125,283423.09375,254987.015625,255842.8125,212005.0,1.0,3
233189.140625,279516.71875,278379.53125,270796.9375,253087.921875,282831.46875,254497.0625,255141.515625,212006.0,1.0,3
232682.03125,278819.53125,277597.59375,270613.84375,252095.6875,282376.40625,254254.6875,254797.921875,212007.0,1.0,3
233029.28125,279644.84375,278771.5,271033.875,252890.59375,282684.21875,254593.359375,255291.265625,212008.0,1.0,3
233746.421875,280840.65625,280265.0625,271476.0625,254360.8125,283329.90625,255051.46875,255939.375,212009.0,1.0,3
233858.171875,280777.8125,280038.125,271335.15625,254491.703125,283423.4375,254988.890625,255853.640625,212010.0,1.0,3
233205.859375,279528.34375,278393.40625,270805.4375,253097.484375,282833.90625,254498.578125,255149.90625,212011.0,1.0,3
232686.671875,278814.59375,277598.65625,270619.5625,252098.28125,282381.21875,254259.953125,254811.78125,212012.0,1.0,3
233034.65625,279641.71875,278771.96875,271038.6875,252889.34375,282690.21875,254604.359375,255310.40625,212013.0,1.0,3
233754.734375,280840.75,280271.9375,271479.5625,254364.203125,283329.75,255057.375,255946.078125,212014.0,1.0,3
233869.703125,280780.5625,280053.4375,271341.53125,254508.515625,283429.0,255002.03125,255864.546875,212015.0,1.0,3
233210.609375,279527.875,278404.9375,270806.59375,253114.828125,282839.6875,254503.859375,255162.4375,212016.0,1.0,3
232687.03125,278803.875,277591.34375,270607.03125,252095.140625,282366.84375,254241.265625,254793.71875,212017.0,1.0,3
233026.0625,279620.15625,278752.03125,271021.71875,252870.03125,282674.46875,254590.9375,255281.25,212018.0,1.0,3
233752.140625,280830.90625,280261.46875,271467.03125,254346.6875,283322.9375,255059.515625,255929.625,212019.0,1.0,3
233871.3125,280778.5,280054.5,271329.90625,254499.125,283422.46875,255001.9375,255856.9375,212020.0,1.0,3
233210.25,279523.59375,278405.90625,270795.78125,253103.65625,282824.59375,254493.578125,255153.3125,212021.0,1.0,3
232684.625,278796.0,277583.8125,270601.21875,252079.234375,282355.65625,254237.15625,254793.625,212022.0,1.0,3
233026.875,279609.0625,278736.625,271018.40625,252848.671875,282662.21875,254578.328125,255280.53125,212023.0,1.0,3
233746.59375,280816.96875,280246.28125,271465.96875,254327.640625,283309.09375,255035.734375,255932.5,212024.0,1.0,3
233869.703125,280779.3125,280055.03125,271336.15625,254495.28125,283420.9375,254986.296875,255855.609375,212025.0,1.0,3
233221.421875,279539.15625,278414.5,270805.625,253113.3125,282835.3125,254493.3125,255147.953125,212026.0,1.0,3
232691.5,278800.65625,277576.75,270601.75,252080.578125,282360.5625,254231.078125,254783.4375,212027.0,1.0,3
233024.09375,279601.90625,278715.53125,271012.59375,252837.84375,282662.21875,254569.125,255263.546875,212028.0,1.0,3
233739.171875,280811.6875,280232.9375,271462.75,254319.765625,283311.0625,255036.640625,255917.296875,212029.0,1.0,3
233871.59375,280788.25,280063.625,271342.84375,254504.3125,283434.4375,255003.28125,255857.84375,212030.0,1.0,3
233234.46875,279553.46875,278427.75,270811.34375,253126.8125,282844.0,254498.140625,255161.359375,212031.0,1.0,3
232698.21875,278799.65625,277571.21875,270597.65625,252078.96875,282350.90625,254224.546875,254787.375,212032.0,1.0,3
233019.09375,279588.40625,278701.0625,271007.125,252825.0625,282646.6875,254565.453125,255266.140625,212033.0,1.0,3
233731.125,280797.46875,280222.59375,271462.84375,254308.234375,283299.53125,255038.953125,255920.875,212034.0,1.0,3
233868.734375,280787.28125,280066.84375,271344.375,254506.359375,283426.40625,255005.078125,255870.171875,212035.0,1.0,3
233231.703125,279556.9375,278433.375,270811.875,253136.46875,282844.25,254508.0625,255174.59375,212036.0,1.0,3
232678.359375,278786.53125,277565.40625,270596.75,252081.46875,282360.46875,254241.265625,254796.390625,212037.0,1.0,3
232994.0625,279566.15625,278683.1875,271003.1875,252817.015625,282657.84375,254581.109375,255271.78125,212038.0,1.0,3
233717.09375,280783.96875,280213.0,271457.46875,254305.546875,283296.5625,255039.3125,255928.375,212039.0,1.0,3
233864.609375,280781.375,280067.1875,271337.40625,254517.890625,283420.03125,255001.140625,255870.09375,212040.0,1.0,3
233223.75,279548.625,278431.5,270806.0625,253152.5625,282842.03125,254513.0625,255179.953125,212041.0,1.0,3
232677.46875,278774.71875,277555.40625,270588.25,252091.390625,282352.34375,254234.203125,254787.453125,212042.0,1.0,3
232989.59375,279546.03125,278666.625,270990.875,252816.296875,282641.3125,254561.890625,255258.1875,212043.0,1.0,3
233712.71875,280774.84375,280203.8125,271447.5625,254306.359375,283293.09375,255027.34375,255914.703125,212044.0,1.0,3
233864.890625,280791.9375,280079.8125,271340.09375,254532.109375,283430.0625,255002.65625,255876.703125,212045.0,1.0,3
233223.296875,279564.28125,278450.90625,270811.15625,253169.640625,282856.0625,254507.171875,255180.3125,212046.0,1.0,3
232675.234375,278793.3125,277562.8125,270592.28125,252097.65625,282366.5625,254236.171875,254793.0,212047.0,1.0,3
232985.03125,279560.875,278660.90625,270992.84375,252807.8125,282645.34375,254563.40625,255252.828125,212048.0,1.0,3
233706.1875,280783.34375,280200.21875,271454.625,254294.734375,283293.25,255038.328125,255918.09375,212049.0,1.0,3
233862.921875,280803.375,280089.46875,271351.875,254531.3125,283432.03125,255012.765625,255874.015625,212050.0,1.0,3
233233.9375,279581.90625,278466.71875,270824.375,253177.421875,282855.875,254521.375,255188.0,212051.0,1.0,3
232681.578125,278798.0625,277567.8125,270600.25,252097.828125,282360.75,254247.796875,254805.703125,212052.0,1.0,3
232985.65625,279554.71875,278653.75,270994.875,252798.421875,282634.6875,254568.859375,255253.453125,212053.0,1.0,3
233715.84375,280787.71875,280200.15625,271456.5,254293.03125,283286.28125,255042.890625,255909.25,212054.0,1.0,3
233880.53125,280819.46875,280101.4375,271357.25,254543.5625,283430.59375,255021.890625,255879.75,212055.0,1.0,3
233241.890625,279589.75,278476.28125,270827.15625,253192.078125,282857.125,254528.359375,255185.59375,212056.0,1.0,3
232678.8125,278791.4375,277561.75,270599.0,252099.96875,282357.0,254244.671875,254783.171875,212057.0,1.0,3
232977.703125,279543.28125,278638.28125,270998.65625,252789.75,282627.0,254564.75,255238.0625,212058.0,1.0,3
233707.96875,280781.90625,280193.71875,271466.40625,254288.296875,283280.46875,255034.84375,255908.0,212059.0,1.0,3
233886.34375,280832.78125,280114.84375,271369.9375,254555.890625,283436.3125,255014.546875,255883.859375,212060.0,1.0,3
233257.71875,279613.28125,278496.59375,270839.6875,253216.046875,282871.25,254525.140625,255194.890625,212061.0,1.0,3
232695.796875,278810.65625,277572.28125,270607.40625,252116.328125,282369.59375,254239.390625,254796.84375,212062.0,1.0,3
232990.03125,279555.59375,278636.78125,270997.3125,252791.171875,282642.90625,254565.734375,255253.0,212063.0,1.0,3
233722.1875,280798.625,280201.5625,271465.875,254294.828125,283302.84375,255048.890625,255926.140625,212064.0,1.0,3
233898.046875,280853.875,280129.25,271367.1875,254568.140625,283445.15625,255028.765625,255898.96875,212065.0,1.0,3
233281.59375,279650.03125,278517.5,270840.03125,253233.65625,282888.25,254548.390625,255207.140625,212066.0,1.0,3
232717.25,278840.96875,277577.3125,270604.1875,252123.125,282386.40625,254271.671875,254811.78125,212067.0,1.0,3
232993.796875,279561.6875,278626.5,270989.25,252779.109375,282640.59375,254581.46875,255260.328125,212068.0,1.0,3
233721.390625,280804.34375,280187.71875,271458.28125,254274.796875,283296.21875,255052.90625,255920.6875,212069.0,1.0,3
233907.796875,280874.625,280130.65625,271369.5,254560.71875,283460.90625,255047.984375,255900.9375,212070.0,1.0,3
233289.109375,279664.5,278524.28125,270844.40625,253230.609375,282904.625,254564.828125,255216.34375,212071.0,1.0,3
232720.921875,278847.3125,277575.96875,270603.90625,252111.421875,282389.4375,254265.671875,254804.890625,212072.0,1.0,3
232994.859375,279565.1875,278614.6875,270985.0625,252757.65625,282636.5625,254570.109375,255241.734375,212073.0,1.0,3
233722.90625,280809.09375,280179.3125,271454.625,254255.671875,283291.03125,255047.984375,255915.5,212074.0,1.0,3
233913.4375,280889.375,280137.65625,271374.78125,254557.40625,283460.1875,255042.265625,255911.484375,212075.0,1.0,3
233296.609375,279682.5625,278531.625,270850.9375,253235.078125,282903.90625,254559.5625,255231.1875,212076.0,1.0,3
232717.796875,278847.875,277566.5625,270604.34375,252106.953125,282392.40625,254260.578125,254814.1875,212077.0,1.0,3
232987.265625,279553.625,278598.6875,270984.15625,252744.515625,282640.59375,254561.171875,255247.09375,212078.0,1.0,3
233714.59375,280798.09375,280175.90625,271458.46875,254244.484375,283293.0,255038.328125,255929.359375,212079.0,1.0,3
233915.125,280892.15625,280154.28125,271381.3125,254560.359375,283465.90625,255040.921875,255931.859375,212080.0,1.0,3
233301.34375,279686.78125,278551.5625,270853.09375,253241.796875,282908.71875,254555.625,255247.546875,212081.0,1.0,3
232722.265625,278842.59375,277575.6875,270603.5625,252104.984375,282392.84375,254261.65625,254828.046875,212082.0,1.0,3
232986.28125,279536.375,278593.0625,270977.28125,252728.765625,282636.03125,254562.328125,255244.328125,212083.0,1.0,3
233712.890625,280779.0625,280170.46875,271451.3125,254230.453125,283293.25,255045.75,255912.5625,212084.0,1.0,3
233908.15625,280872.84375,280159.8125,271377.09375,254558.3125,283469.9375,255054.515625,255923.734375,212085.0,1.0,3
233304.03125,279681.125,278568.46875,270855.84375,253252.25,282922.40625,254578.6875,255247.1875,212086.0,1.0,3
232726.546875,278838.21875,277584.375,270604.09375,252109.71875,282405.90625,254283.734375,254818.921875,212087.0,1.0,3
232979.03125,279520.8125,278587.96875,270974.9375,252722.328125,282639.0625,254573.59375,255239.40625,212088.0,1.0,3
233702.96875,280769.40625,280170.09375,271451.125,254224.28125,283290.75,255058.453125,255917.828125,212089.0,1.0,3
233912.8125,280887.6875,280176.71875,271381.5625,254567.703125,283476.1875,255069.171875,255926.234375,212090.0,1.0,3
233304.921875,279697.21875,278584.46875,270858.375,253265.9375,282929.5625,254592.90625,255243.703125,212091.0,1.0,3
232718.421875,278841.59375,277586.40625,270601.0625,252112.84375,282404.03125,254281.140625,254812.9375,212092.0,1.0,3
232964.375,279513.84375,278579.46875,270969.5,252713.21875,282628.875,254560.359375,255224.65625,212093.0,1.0,3
233686.0625,280762.59375,280167.25,271448.0,254217.40625,283279.59375,255037.53125,255901.640625,212094.0,1.0,3
233903.59375,280895.09375,280188.34375,271384.4375,254575.828125,283465.375,255049.875,255919.53125,212095.0,1.0,3
233298.671875,279706.4375,278596.53125,270861.65625,253276.921875,282920.0,254571.265625,255248.796875,212096.0,1.0,3
232705.453125,278839.375,277583.90625,270598.0,252111.859375,282393.21875,254258.078125,254808.640625,212097.0,1.0,3
232945.78125,279506.625,278563.71875,270964.84375,252700.609375,282619.3125,254546.5,255217.5,212098.0,1.0,3
233672.484375,280763.75,280151.78125,271444.15625,254203.8125,283274.21875,255026.171875,255895.75,212099.0,1.0,3
233894.5625,280901.0,280187.53125,271385.875,254572.875,283473.59375,255050.3125,255925.703125,212100.0,1.0,3
233302.421875,279718.9375,278604.6875,270863.71875,253285.15625,282926.78125,254568.328125,255250.5,212101.0,1.0,3
232704.921875,278836.15625,277580.53125,270596.59375,252113.296875,282391.78125,254254.953125,254802.828125,212102.0,1.0,3
232942.296875,279492.3125,278553.0,270960.09375,252691.84375,282618.78125,254552.40625,255209.640625,212103.0,1.0,3
233675.078125,280755.90625,280150.6875,271445.40625,254201.390625,283280.84375,255046.65625,255895.84375,212104.0,1.0,3
233903.78125,280901.90625,280201.3125,271392.9375,254586.203125,283480.40625,255074.1875,255927.84375,212105.0,1.0,3
233313.15625,279720.375,278622.90625,270872.125,253306.78125,282935.90625,254597.015625,255256.84375,212106.0,1.0,3
232716.8125,278836.40625,277590.53125,270603.375,252127.328125,282402.5,254285.609375,254816.78125,212107.0,1.0,3
232945.15625,279482.28125,278546.375,270959.21875,252690.15625,282618.875,254566.71875,255215.453125,212108.0,1.0,3
233679.359375,280748.90625,280145.78125,271439.0625,254197.90625,283274.65625,255050.84375,255898.875,212109.0,1.0,3
233910.5625,280904.21875,280207.75,271387.375,254589.875,283478.15625,255075.34375,255935.796875,212110.0,1.0,3
233319.953125,279727.0,278636.3125,270870.15625,253316.53125,282944.75,254601.3125,255272.046875,212111.0,1.0,3
232720.203125,278836.6875,277590.25,270596.75,252126.609375,282404.5625,254281.140625,254829.125,212112.0,1.0,3
232948.1875,279478.625,278535.125,270950.1875,252675.671875,282611.71875,254540.421875,255208.296875,212113.0,1.0,3
233678.640625,280740.96875,280135.6875,271435.84375,254184.59375,283271.8125,255025.28125,255870.796875,212114.0,1.0,3
233919.421875,280913.875,280215.4375,271394.1875,254595.6875,283488.34375,255070.4375,255923.828125,212115.0,1.0,3
233320.65625,279738.875,278640.4375,270869.53125,253319.390625,282952.96875,254591.828125,255262.390625,212116.0,1.0,3
232715.828125,278842.75,277584.8125,270590.15625,252120.265625,282406.09375,254264.0625,254805.703125,212117.0,1.0,3
232937.28125,279472.53125,278521.625,270943.21875,252660.90625,282606.34375,254533.984375,255193.71875,212118.0,1.0,3
233663.625,280735.40625,280130.84375,271432.1875,254167.953125,283266.53125,255024.828125,255884.03125,212119.0,1.0,3
233916.203125,280922.8125,280228.40625,271395.34375,254589.421875,283484.78125,255063.8125,255937.953125,212120.0,1.0,3
233330.59375,279752.46875,278665.125,270879.5625,253328.0625,282955.65625,254593.625,255274.8125,212121.0,1.0,3
232713.859375,278835.6875,277591.5,270595.78125,252118.21875,282401.0625,254252.53125,254801.859375,212122.0,1.0,3
232930.578125,279457.4375,278512.75,270946.59375,252647.5,282601.78125,254526.84375,255185.5,212123.0,1.0,3
233659.78125,280726.125,280120.75,271435.5625,254155.796875,283253.5625,255018.390625,255880.28125,212124.0,1.0,3
233913.15625,280917.0,280231.875,271401.6875,254590.9375,283475.375,255063.640625,255945.453125,212125.0,1.0,3
233338.0,279755.875,278673.4375,270885.625,253341.5625,282953.78125,254593.796875,255281.875,212126.0,1.0,3
232722.265625,278831.5,277586.5,270594.875,252125.359375,282403.40625,254257.359375,254805.703125,212127.0,1.0,3
232933.4375,279441.25,278495.59375,270939.375,252641.875,282593.21875,254520.9375,255184.515625,212128.0,1.0,3
233665.328125,280714.78125,280114.65625,271433.53125,254157.046875,283255.28125,255018.3125,255882.15625,212129.0,1.0,3
233925.859375,280920.21875,280237.59375,271401.96875,254606.140625,283485.21875,255067.03125,255947.25,212130.0,1.0,3
233344.71875,279756.6875,278677.8125,270882.5,253358.203125,282956.65625,254598.546875,255282.328125,212131.0,1.0,3
232718.15625,278822.46875,277578.09375,270586.75,252131.71875,282401.4375,254258.171875,254800.328125,212132.0,1.0,3
232927.8125,279433.125,278482.1875,270930.78125,252640.53125,282596.34375,254527.46875,255180.9375,212133.0,1.0,3
233658.4375,280713.4375,280102.34375,271424.9375,254154.8125,283261.15625,255034.671875,255886.625,212134.0,1.0,3
233924.609375,280932.125,280234.21875,271397.03125,254609.09375,283492.8125,255087.953125,255955.734375,212135.0,1.0,3
233354.453125,279786.09375,278685.40625,270881.59375,253370.984375,282973.8125,254621.078125,255300.296875,212136.0,1.0,3
232725.5625,278846.78125,277576.59375,270582.90625,252138.15625,282411.71875,254270.5,254806.234375,212137.0,1.0,3
232917.890625,279436.25,278460.375,270924.15625,252626.671875,282597.5,254533.28125,255173.78125,212138.0,1.0,3
233646.734375,280712.1875,280085.34375,271425.03125,254137.015625,283248.75,255030.203125,255884.21875,212139.0,1.0,3
233919.59375,280941.3125,280238.0625,271404.1875,254605.421875,283481.1875,255077.578125,255956.359375,212140.0,1.0,3
233351.0625,279794.59375,278693.09375,270887.59375,253373.484375,282967.375,254613.109375,255288.046875,212141.0,1.0,3
232720.296875,278844.8125,277573.28125,270585.21875,252131.171875,282401.59375,254262.8125,254800.421875,212142.0,1.0,3
232910.015625,279422.21875,278447.75,270919.96875,252611.203125,282583.28125,254520.046875,255156.078125,212143.0,1.0,3
233640.921875,280699.84375,280071.21875,271415.09375,254122.453125,283236.65625,255014.109375,255851.765625,212144.0,1.0,3
233917.984375,280941.40625,280239.84375,271401.875,254610.609375,283483.625,255074.984375,255941.96875,212145.0,1.0,3
233355.265625,279801.03125,278705.15625,270890.90625,253389.9375,282969.96875,254607.03125,255294.03125,212146.0,1.0,3
232726.015625,278845.1875,277576.75,270588.25,252142.171875,282400.8125,254254.859375,254805.515625,212147.0,1.0,3
232908.3125,279409.0625,278437.40625,270920.9375,252604.859375,282570.84375,254504.21875,255162.34375,212148.0,1.0,3
233644.671875,280693.5625,280071.75,271427.0,254121.546875,283234.15625,255009.546875,255868.75,212149.0,1.0,3
233928.265625,280943.75,280256.75,271416.25,254624.015625,283482.375,255077.3125,255961.453125,212150.0,1.0,3
233367.328125,279807.03125,278723.59375,270904.21875,253408.359375,282974.71875,254615.34375,255308.078125,212151.0,1.0,3
232736.296875,278848.125,277580.96875,270595.0625,252150.84375,282407.875,254260.9375,254811.78125,212152.0,1.0,3
232910.90625,279402.53125,278423.96875,270920.9375,252599.3125,282570.9375,254504.84375,255160.734375,212153.0,1.0,3
233635.828125,280679.375,280054.6875,271420.03125,254109.125,283226.75,255000.609375,255859.171875,212154.0,1.0,3
233922.375,280944.53125,280254.0625,271413.65625,254621.078125,283483.15625,255074.1875,255961.375,212155.0,1.0,3
233370.734375,279819.53125,278732.96875,270903.5,253416.9375,282983.03125,254619.8125,255312.546875,212156.0,1.0,3
232730.671875,278848.65625,277582.40625,270587.71875,252154.421875,282412.78125,254261.46875,254806.953125,212157.0,1.0,3
232903.3125,279398.78125,278415.5,270910.65625,252593.40625,282574.0,254513.609375,255156.625,212158.0,1.0,3
233633.046875,280681.40625,280052.0,271416.09375,254105.015625,283228.71875,255015.09375,255868.03125,212159.0,1.0,3
233933.1875,280961.25,280271.9375,271415.8125,254634.125,283488.875,255087.59375,255971.296875,212160.0,1.0,3
233385.75,279841.09375,278753.8125,270905.75,253435.453125,282989.0,254623.578125,255311.203125,212161.0,1.0,3
232745.859375,278865.46875,277591.59375,270589.59375,252162.296875,282416.375,254257.71875,254799.890625,212162.0,1.0,3
232908.859375,279398.53125,278406.90625,270907.53125,252585.28125,282569.25,254499.203125,255143.921875,212163.0,1.0,3
233629.65625,280677.5,280042.34375,271412.40625,254093.125,283229.34375,255000.421875,255848.453125,212164.0,1.0,3
233932.203125,280966.8125,280277.9375,271422.34375,254636.09375,283498.90625,255091.796875,255972.71875,212165.0,1.0,3
233386.28125,279846.34375,278764.53125,270917.1875,253447.609375,282991.96875,254629.46875,255323.0,212166.0,1.0,3
232742.640625,278857.0625,277590.1875,270597.03125,252168.453125,282415.03125,254258.4375,254810.078125,212167.0,1.0,3
232903.21875,279384.125,278398.6875,270913.09375,252582.140625,282567.5625,254500.375,255145.265625,212168.0,1.0,3
233621.0625,280654.5,280030.34375,271414.90625,254084.890625,283213.5,254998.71875,255843.09375,212169.0,1.0,3
233918.96875,280945.71875,280270.875,271423.78125,254634.578125,283493.09375,255089.46875,255951.53125,212170.0,1.0,3
233387.453125,279844.5625,278771.96875,270922.375,253456.640625,282997.0625,254625.28125,255311.46875,212171.0,1.0,3
232745.234375,278851.875,277589.0,270598.1875,252169.0,282407.5,254249.3125,254798.28125,212172.0,1.0,3
232898.9375,279365.71875,278380.34375,270909.59375,252568.109375,282550.90625,254486.421875,255129.53125,212173.0,1.0,3
233627.421875,280651.125,280023.5625,271418.0625,254079.984375,283211.0,254998.28125,255841.921875,212174.0,1.0,3
233928.8125,280951.6875,280279.4375,271425.65625,254640.03125,283480.84375,255071.765625,255962.890625,212175.0,1.0,3
233384.765625,279847.15625,278778.5625,270914.78125,253460.296875,282989.09375,254612.75,255317.640625,212176.0,1.0,3
232737.453125,278854.46875,277586.6875,270589.6875,252167.203125,282414.03125,254251.46875,254807.484375,212177.0,1.0,3
232886.140625,279360.34375,278367.84375,270901.90625,252555.59375,282556.375,254491.4375,255140.703125,212178.0,1.0,3
233605.515625,280640.5625,280007.375,271405.53125,254058.515625,283202.6875,254985.5,255840.40625,212179.0,1.0,3
233920.3125,280960.625,280284.09375,271422.53125,254634.296875,283483.78125,255073.03125,255964.046875,212180.0,1.0,3
233393.625,279870.125,278798.78125,270921.3125,253475.765625,283005.28125,254625.1875,255332.125,212181.0,1.0,3
232745.328125,278868.0625,277594.71875,270589.0625,252177.671875,282420.84375,254257.71875,254812.84375,212182.0,1.0,3
232880.59375,279359.625,278355.5,270889.3125,252543.609375,282546.53125,254479.625,255127.5625,212183.0,1.0,3
233593.265625,280634.9375,279996.375,271395.78125,254043.953125,283193.5625,254977.0,255822.171875,212184.0,1.0,3
233915.21875,280965.46875,280288.90625,271420.71875,254634.03125,283484.59375,255080.984375,255963.34375,212185.0,1.0,3
233400.953125,279886.3125,278811.21875,270923.90625,253487.03125,283009.84375,254641.28125,255340.625,212186.0,1.0,3
232751.40625,278876.75,277593.3125,270588.8125,252182.046875,282422.25,254261.828125,254809.453125,212187.0,1.0,3
232875.140625,279347.5625,278337.96875,270887.34375,252534.40625,282545.65625,254480.53125,255125.59375,212188.0,1.0,3
233586.734375,280617.75,279979.84375,271392.9375,254031.703125,283186.4375,254979.421875,255824.40625,212189.0,1.0,3
233922.90625,280963.3125,280287.75,271422.0625,254634.296875,283481.46875,255091.0,255960.390625,212190.0,1.0,3
233406.5,279884.8125,278816.21875,270925.875,253492.390625,283010.75,254649.6875,255343.296875,212191.0,1.0,3
232747.203125,278860.28125,277590.625,270587.1875,252178.46875,282416.53125,254257.8125,254809.8125,212192.0,1.0,3
232866.828125,279319.84375,278324.28125,270882.9375,252523.21875,282532.15625,254471.140625,255109.5,212193.0,1.0,3
233586.46875,280600.3125,279970.71875,271393.03125,254023.921875,283182.03125,254980.484375,255814.46875,212194.0,1.0,3
233925.671875,280956.15625,280291.25,271425.5625,254641.1875,283483.4375,255089.296875,255967.625,212195.0,1.0,3
233406.84375,279877.65625,278821.3125,270925.34375,253506.53125,283014.125,254647.625,255343.5625,212196.0,1.0,3
232748.90625,278853.125,277585.34375,270582.28125,252188.125,282419.65625,254257.0,254797.03125,212197.0,1.0,3
232871.21875,279310.8125,278310.34375,270874.1875,252520.984375,282530.34375,254468.546875,255097.796875,212198.0,1.0,3
233583.25,280587.53125,279956.40625,271386.03125,254020.96875,283181.6875,254972.0,255804.375,212199.0,1.0,3
233927.828125,280953.03125,280293.03125,271428.0625,254650.125,283489.4375,255088.578125,255965.484375,212200.0,1.0,3
233426.703125,279892.65625,278838.84375,270933.46875,253526.28125,283018.59375,254644.765625,255353.046875,212201.0,1.0,3
232759.640625,278859.46875,277588.90625,270577.34375,252192.421875,282422.25,254254.859375,254796.9375,212202.0,1.0,3
232854.765625,279294.625,278289.0625,270861.03125,252498.28125,282526.875,254462.375,255092.515625,212203.0,1.0,3
233573.59375,280580.375,279942.125,271376.375,253994.234375,283171.84375,254961.09375,255798.109375,212204.0,1.0,3
233930.0625,280963.5,280296.6875,271419.46875,254636.09375,283484.15625,255075.96875,255954.125,212205.0,1.0,3
233419.375,279897.84375,278842.6875,270924.53125,253517.609375,283016.8125,254633.234375,255340.34375,212206.0,1.0,3
232757.046875,278861.28125,277587.5,270576.71875,252185.171875,282419.84375,254250.03125,254800.78125,212207.0,1.0,3
232868.0,279301.15625,278284.6875,270860.96875,252489.515625,282517.65625,254450.21875,255085.546875,212208.0,1.0,3
233578.0625,280577.34375,279933.96875,271370.9375,253982.890625,283158.53125,254950.625,255790.78125,212209.0,1.0,3
233931.046875,280964.46875,280300.09375,271424.125,254638.328125,283480.5625,255081.421875,255972.1875,212210.0,1.0,3
233426.875,279906.71875,278857.25,270936.15625,253533.078125,283024.6875,254653.34375,255361.453125,212211.0,1.0,3
232761.875,278862.0,277592.125,270582.53125,252193.84375,282422.8125,254261.296875,254810.796875,212212.0,1.0,3
232859.953125,279281.84375,278266.71875,270857.90625,252478.515625,282505.40625,254446.90625,255082.671875,212213.0,1.0,3
233568.671875,280557.40625,279913.9375,271368.15625,253968.125,283144.03125,254945.265625,255776.65625,212214.0,1.0,3
233927.734375,280957.0625,280295.90625,271424.03125,254636.09375,283468.78125,255075.609375,255957.4375,212215.0,1.0,3
233430.0,279904.90625,278858.40625,270932.40625,253534.15625,283013.96875,254647.53125,255350.625,212216.0,1.0,3
232765.625,278856.625,277586.6875,270578.34375,252190.71875,282411.96875,254249.140625,254797.109375,212217.0,1.0,3
232854.3125,279267.4375,278250.96875,270854.53125,252467.53125,282498.25,254436.71875,255071.953125,212218.0,1.0,3
233561.53125,280548.03125,279906.09375,271372.28125,253960.71875,283144.3125,254940.96875,255785.15625,212219.0,1.0,3
233931.140625,280964.84375,280306.28125,271432.34375,254642.53125,283474.84375,255074.0,255969.0625,212220.0,1.0,3
233442.171875,279925.03125,278879.40625,270945.28125,253558.203125,283024.40625,254642.53125,255361.890625,212221.0,1.0,3
232769.46875,278867.34375,277600.8125,270588.34375,252210.03125,282424.40625,254255.671875,254815.0,212222.0,1.0,3
232854.5,279269.875,278250.625,270856.125,252470.921875,282505.15625,254435.546875,255072.484375,212223.0,1.0,3
233563.484375,280550.71875,279902.9375,271373.09375,253961.25,283145.65625,254935.421875,255773.796875,212224.0,1.0,3
233930.953125,280969.75,280309.5,271433.4375,254651.734375,283476.5625,255072.21875,255963.609375,212225.0,1.0,3
233446.640625,279938.71875,278887.65625,270947.21875,253573.046875,283038.09375,254647.265625,255364.484375,212226.0,1.0,3
232772.0625,278874.9375,277594.65625,270580.5,252215.84375,282434.0625,254254.6875,254807.84375,212227.0,1.0,3
232844.84375,279261.625,278232.375,270843.78125,252463.0625,282508.4375,254447.078125,255077.40625,212228.0,1.0,3
233554.8125,280545.53125,279888.1875,271361.46875,253950.515625,283148.59375,254954.109375,255784.25,212229.0,1.0,3
233925.234375,280971.625,280306.8125,271423.6875,254649.953125,283478.15625,255089.75,255964.5,212230.0,1.0,3
233450.03125,279947.65625,278894.4375,270941.34375,253583.328125,283038.375,254663.1875,255366.1875,212231.0,1.0,3
232773.671875,278874.3125,277591.0625,270572.25,252217.0,282422.875,254257.09375,254801.3125,212232.0,1.0,3
232834.46875,279244.03125,278212.09375,270835.46875,252446.96875,282488.6875,254442.890625,255064.078125,212233.0,1.0,3
233533.984375,280522.53125,279868.09375,271351.34375,253924.859375,283130.28125,254946.15625,255772.359375,212234.0,1.0,3
233920.671875,280969.5,280308.21875,271423.6875,254636.890625,283467.59375,255080.71875,255957.34375,212235.0,1.0,3
233447.796875,279947.65625,278902.21875,270943.46875,253577.25,283025.9375,254649.6875,255362.171875,212236.0,1.0,3
232763.390625,278861.71875,277588.65625,270576.09375,252207.53125,282413.84375,254245.390625,254808.640625,212237.0,1.0,3
232825.4375,279227.5625,278199.3125,270837.1875,252428.8125,282479.46875,254418.65625,255053.984375,212238.0,1.0,3
233531.390625,280508.6875,279858.4375,271355.28125,253912.34375,283114.71875,254914.765625,255750.28125,212239.0,1.0,3
233921.125,280964.46875,280312.25,271430.9375,254639.21875,283460.28125,255072.046875,255964.953125,212240.0,1.0,3
233453.796875,279953.75,278918.125,270951.0625,253589.21875,283033.34375,254647.53125,255365.46875,212241.0,1.0,3
232771.4375,278871.375,277602.6875,270580.65625,252217.1875,282423.0625,254241.1875,254798.984375,212242.0,1.0,3
232823.828125,279225.5,278198.0625,270834.84375,252426.046875,282479.40625,254416.15625,255048.796875,212243.0,1.0,3
233527.28125,280506.71875,279857.09375,271356.28125,253907.15625,283117.75,254924.15625,255762.34375,212244.0,1.0,3
233921.921875,280972.34375,280328.53125,271441.03125,254647.0,283472.875,255078.125,255982.921875,212245.0,1.0,3
233461.125,279972.59375,278940.84375,270962.875,253605.9375,283048.28125,254657.1875,255391.765625,212246.0,1.0,3
232771.875,278880.3125,277607.4375,270584.0625,252223.890625,282432.28125,254248.953125,254808.828125,212247.0,1.0,3
232825.4375,279230.34375,278188.75,270831.90625,252421.390625,282488.15625,254425.625,255045.3125,212248.0,1.0,3
233530.234375,280511.8125,279850.03125,271350.71875,253901.25,283121.78125,254934.078125,255753.40625,212249.0,1.0,3
233932.109375,280986.84375,280332.375,271434.78125,254652.359375,283471.4375,255088.046875,255969.59375,212250.0,1.0,3
233475.515625,279987.96875,278953.0,270958.9375,253624.90625,283051.96875,254670.515625,255389.609375,212251.0,1.0,3
232785.46875,278886.3125,277612.96875,270582.625,252241.140625,282436.46875,254257.359375,254815.53125,212252.0,1.0,3
232828.390625,279216.5,278176.15625,270827.4375,252422.375,282483.5,254419.90625,255042.71875,212253.0,1.0,3
233521.734375,280489.28125,279830.1875,271346.25,253892.671875,283114.4375,254925.140625,255749.390625,212254.0,1.0,3
233926.75,280977.4375,280327.53125,271438.78125,254652.28125,283472.53125,255087.15625,255976.484375,212255.0,1.0,3
233482.125,279994.78125,278961.3125,270972.4375,253636.96875,283063.5,254678.375,255401.6875,212256.0,1.0,3
232791.546875,278887.03125,277610.46875,270589.4375,252244.546875,282438.71875,254256.015625,254821.875,212257.0,1.0,3
232821.234375,279200.40625,278158.625,270828.6875,252408.609375,282474.125,254415.25,255052.90625,212258.0,1.0,3
233519.421875,280476.0625,279817.03125,271348.75,253879.703125,283102.03125,254919.515625,255755.640625,212259.0,1.0,3
233936.40625,280976.71875,280331.03125,271445.0625,254654.515625,283468.0625,255078.5625,255976.921875,212260.0,1.0,3
233489.28125,279993.6875,278970.09375,270977.90625,253645.734375,283056.96875,254669.4375,255408.390625,212261.0,1.0,3
232796.5625,278883.09375,277614.3125,270592.28125,252246.875,282437.1875,254252.359375,254821.96875,212262.0,1.0,3
232823.015625,279190.1875,278153.71875,270828.40625,252398.5,282467.3125,254405.15625,255029.296875,212263.0,1.0,3
233513.15625,280462.625,279811.5,271349.5625,253865.578125,283091.65625,254913.703125,255739.375,212264.0,1.0,3
233936.9375,280980.9375,280343.28125,271453.53125,254656.828125,283471.28125,255093.3125,255981.3125,212265.0,1.0,3
233502.34375,280014.71875,278994.125,270988.1875,253663.4375,283066.34375,254682.765625,255407.046875,212266.0,1.0,3
232802.375,278894.53125,277628.15625,270594.34375,252260.546875,282435.84375,254252.453125,254806.859375,212267.0,1.0,3
232821.40625,279191.90625,278149.875,270826.28125,252396.71875,282455.875,254399.703125,255023.484375,212268.0,1.0,3
233525.765625,280476.5,279814.25,271354.46875,253866.65625,283085.5625,254908.78125,255740.53125,212269.0,1.0,3
233952.046875,280998.09375,280356.25,271460.6875,254668.28125,283465.375,255083.21875,255978.1875,212270.0,1.0,3
233505.640625,280023.84375,279005.03125,270990.6875,253677.65625,283063.3125,254673.828125,255405.34375,212271.0,1.0,3
232808.984375,278905.0,277626.90625,270594.78125,252269.671875,282440.6875,254252.09375,254812.765625,212272.0,1.0,3
232837.15625,279203.34375,278139.3125,270823.6875,252400.921875,282465.96875,254402.921875,255025.28125,212273.0,1.0,3
233528.265625,280474.96875,279799.875,271345.4375,253866.296875,283092.1875,254905.46875,255741.15625,212274.0,1.0,3
233951.875,281006.5,280356.875,271453.28125,254676.59375,283473.96875,255079.734375,255989.890625,212275.0,1.0,3
233523.96875,280055.21875,279022.125,270989.78125,253700.453125,283082.71875,254679.71875,255425.375,212276.0,1.0,3
232823.296875,278926.375,277635.40625,270593.625,252285.40625,282451.9375,254252.453125,254823.84375,212277.0,1.0,3
232825.53125,279197.34375,278125.09375,270814.90625,252391.96875,282464.28125,254393.4375,255018.03125,212278.0,1.0,3
233517.359375,280476.21875,279783.78125,271340.90625,253850.921875,283089.6875,254903.421875,255725.25,212279.0,1.0,3
233954.015625,281023.21875,280354.90625,271456.5,254676.59375,283476.375,255094.21875,255979.875,212280.0,1.0,3
233520.84375,280070.0625,279027.375,270993.90625,253710.546875,283088.6875,254700.734375,255423.5,212281.0,1.0,3
232817.03125,278938.25,277634.0625,270594.0625,252289.15625,282464.65625,254280.703125,254827.15625,212282.0,1.0,3
232824.71875,279207.46875,278113.03125,270817.40625,252384.203125,282479.84375,254430.71875,255026.796875,212283.0,1.0,3
233512.078125,280478.46875,279770.09375,271343.03125,253836.796875,283093.875,254935.6875,255741.15625,212284.0,1.0,3
233950.796875,281033.15625,280353.28125,271461.3125,254669.171875,283483.34375,255118.171875,255999.09375,212285.0,1.0,3
233527.546875,280090.53125,279035.96875,271003.8125,253711.4375,283102.8125,254723.53125,255444.328125,212286.0,1.0,3
232823.5625,278953.90625,277637.28125,270599.875,252285.5,282472.40625,254290.4375,254839.578125,212287.0,1.0,3
232818.828125,279202.34375,278101.125,270811.15625,252368.640625,282471.96875,254411.5,255017.859375,212288.0,1.0,3
233497.78125,280466.84375,279755.875,271334.1875,253819.1875,283090.5,254906.8125,255726.234375,212289.0,1.0,3
233946.59375,281037.78125,280354.625,271459.09375,254665.0625,283491.3125,255099.9375,256000.4375,212290.0,1.0,3
233529.515625,280099.90625,279044.375,270999.8125,253717.609375,283109.53125,254696.4375,255450.328125,212291.0,1.0,3
232819.796875,278949.59375,277633.625,270590.5,252288.265625,282477.4375,254261.203125,254843.6875,212292.0,1.0,3
232813.453125,279193.34375,278086.03125,270802.40625,252359.609375,282478.78125,254397.640625,255031.453125,212293.0,1.0,3
233496.265625,280462.8125,279742.5625,271325.5,253806.21875,283091.28125,254895.1875,255737.5,212294.0,1.0,3
233942.75,281034.75,280360.28125,271456.40625,254663.984375,283492.46875,255087.328125,256010.015625,212295.0,1.0,3
233536.046875,280110.375,279064.03125,271002.3125,253730.125,283119.375,254699.296875,255462.390625,212296.0,1.0,3
232830.4375,278961.3125,277649.375,270591.46875,252300.609375,282488.15625,254269.796875,254854.421875,212297.0,1.0,3
232813.640625,279187.96875,278086.46875,270793.8125,252353.53125,282478.0625,254395.859375,255027.96875,212298.0,1.0,3
233486.875,280446.53125,279741.84375,271319.25,253795.75,283094.0625,254908.96875,255738.921875,212299.0,1.0,3
233935.6875,281024.125,280363.3125,271448.90625,254656.296875,283494.6875,255109.953125,256008.21875,212300.0,1.0,3
233533.984375,280111.625,279077.46875,271000.875,253735.5,283134.3125,254732.296875,255462.65625,212301.0,1.0,3
232828.5625,278960.5,277659.0,270592.8125,252308.015625,282501.375,254301.890625,254857.1875,212302.0,1.0,3
232800.140625,279172.6875,278077.1875,270792.03125,252345.484375,282476.8125,254419.8125,255028.671875,212303.0,1.0,3
233476.953125,280436.09375,279731.375,271313.34375,253780.5625,283089.6875,254917.546875,255719.171875,212304.0,1.0,3
233928.71875,281028.84375,280376.09375,271454.25,254656.5625,283503.1875,255125.234375,256001.421875,212305.0,1.0,3
233527.1875,280119.6875,279098.90625,271007.84375,253741.578125,283135.71875,254738.640625,255463.28125,212306.0,1.0,3
232823.5625,278965.6875,277669.84375,270595.3125,252301.671875,282499.78125,254297.953125,254845.125,212307.0,1.0,3
232790.84375,279166.25,278074.21875,270792.28125,252325.453125,282471.53125,254412.125,255009.8125,212308.0,1.0,3
233463.0,280420.25,279727.0,271317.46875,253758.5625,283073.15625,254902.53125,255715.0625,212309.0,1.0,3
233935.0625,281033.15625,280388.625,271466.5,254655.40625,283491.9375,255112.0,256015.8125,212310.0,1.0,3
233544.0,280138.8125,279121.28125,271020.375,253756.140625,283135.1875,254728.359375,255472.21875,212311.0,1.0,3
232825.171875,278968.5625,277675.03125,270597.5625,252305.25,282489.0625,254278.640625,254843.6875,212312.0,1.0,3
232788.78125,279162.125,278065.375,270793.09375,252319.5625,282458.65625,254388.4375,254997.390625,212313.0,1.0,3
233467.921875,280428.3125,279722.53125,271324.1875,253756.6875,283073.6875,254899.9375,255712.546875,212314.0,1.0,3
233934.890625,281039.9375,280389.5,271466.6875,254655.3125,283488.15625,255097.609375,255999.28125,212315.0,1.0,3
233543.828125,280145.5,279127.625,271020.1875,253766.78125,283133.0625,254722.015625,255467.390625,212316.0,1.0,3
232825.609375,278970.4375,277680.84375,270599.53125,252321.609375,282496.28125,254287.40625,254848.609375,212317.0,1.0,3
232780.109375,279148.28125,278055.1875,270782.375,252320.1875,282459.8125,254396.03125,254995.859375,212318.0,1.0,3
233459.59375,280413.46875,279711.625,271311.21875,253756.328125,283071.625,254905.828125,255708.96875,212319.0,1.0,3
233931.765625,281035.125,280390.40625,271460.6875,254669.265625,283491.125,255118.625,256008.578125,212320.0,1.0,3
233548.921875,280148.375,279138.625,271019.28125,253789.234375,283142.78125,254745.4375,255481.609375,212321.0,1.0,3
232832.671875,278971.875,277681.53125,270593.90625,252333.765625,282500.5,254300.375,254857.546875,212322.0,1.0,3
232781.53125,279138.96875,278042.21875,270777.09375,252318.125,282458.125,254398.09375,254998.640625,212323.0,1.0,3
233454.953125,280399.34375,279693.65625,271303.78125,253740.40625,283063.5,254898.953125,255705.75,212324.0,1.0,3
233937.65625,281035.8125,280391.75,271460.15625,254662.28125,283489.0625,255117.546875,256016.09375,212325.0,1.0,3
233556.34375,280155.34375,279152.65625,271024.40625,253792.265625,283150.21875,254749.1875,255496.8125,212326.0,1.0,3
232830.796875,278966.0625,277685.21875,270595.875,252328.046875,282510.5,254297.234375,254863.8125,212327.0,1.0,3
232777.15625,279126.90625,278028.90625,270771.09375,252296.40625,282456.875,254381.28125,254979.953125,212328.0,1.0,3
233447.4375,280384.21875,279680.15625,271299.0625,253715.828125,283048.125,254876.859375,255684.203125,212329.0,1.0,3
233922.640625,281019.5625,280388.78125,271459.09375,254645.296875,283475.65625,255097.15625,255994.625,212330.0,1.0,3
233550.625,280149.96875,279159.625,271025.46875,253787.34375,283133.6875,254727.203125,255477.328125,212331.0,1.0,3
232837.328125,278968.65625,277691.8125,270597.75,252326.53125,282488.875,254278.90625,254847.546875,212332.0,1.0,3
232773.046875,279118.0625,278024.34375,270771.8125,252284.421875,282437.28125,254372.4375,254978.96875,212333.0,1.0,3
233437.96875,280373.21875,279674.0625,271300.5625,253703.125,283042.46875,254874.09375,255684.390625,212334.0,1.0,3
233922.28125,281027.5,280395.40625,271468.75,254650.578125,283477.1875,255100.828125,256006.875,212335.0,1.0,3
233560.8125,280172.59375,279175.4375,271040.9375,253808.984375,283143.78125,254743.828125,255498.15625,212336.0,1.0,3
232838.21875,278977.40625,277692.375,270604.1875,252341.734375,282492.8125,254288.5625,254856.21875,212337.0,1.0,3
232762.765625,279106.59375,278002.59375,270768.34375,252281.46875,282433.875,254374.578125,254973.78125,212338.0,1.0,3
233431.265625,280362.40625,279651.71875,271297.8125,253695.796875,283041.40625,254885.53125,255683.40625,212339.0,1.0,3
233917.984375,281023.5,280392.28125,271465.25,254654.15625,283488.15625,255127.828125,256012.328125,212340.0,1.0,3
233561.796875,280176.8125,279187.15625,271034.6875,253824.09375,283161.03125,254764.65625,255503.96875,212341.0,1.0,3
232839.921875,278977.78125,277697.5625,270594.0625,252354.6875,282505.84375,254301.625,254859.875,212342.0,1.0,3
232753.90625,279092.21875,277989.09375,270751.625,252279.5,282433.625,254370.109375,254966.984375,212343.0,1.0,3
233420.703125,280345.6875,279635.625,271281.34375,253686.5,283034.0,254870.421875,255671.78125,212344.0,1.0,3
233925.140625,281024.84375,280393.15625,271459.53125,254655.578125,283481.5625,255114.421875,256007.78125,212345.0,1.0,3
233566.984375,280177.875,279194.59375,271032.625,253832.140625,283156.28125,254759.203125,255504.5,212346.0,1.0,3
232838.140625,278971.34375,277701.75,270596.9375,252359.796875,282510.3125,254307.515625,254867.921875,212347.0,1.0,3
232756.140625,279088.46875,277986.34375,270758.9375,252273.78125,282440.5,254385.03125,254977.625,212348.0,1.0,3
233420.984375,280340.40625,279630.15625,271288.21875,253673.0,283033.28125,254881.78125,255682.78125,212349.0,1.0,3
233928.71875,281025.1875,280396.46875,271467.21875,254649.765625,283482.71875,255121.390625,256017.515625,212350.0,1.0,3
233580.484375,280190.65625,279209.4375,271042.28125,253837.859375,283161.21875,254764.21875,255511.125,212351.0,1.0,3
232849.125,278979.65625,277708.1875,270599.25,252360.140625,282508.53125,254302.328125,254863.625,212352.0,1.0,3
232756.140625,279078.34375,277974.875,270754.03125,252260.734375,282430.5,254372.703125,254971.015625,212353.0,1.0,3
233412.484375,280323.78125,279613.1875,271280.09375,253653.6875,283019.59375,254864.796875,255660.0625,212354.0,1.0,3
233926.75,281025.1875,280397.90625,271470.25,254646.015625,283483.25,255118.890625,256009.734375,212355.0,1.0,3
233581.109375,280198.4375,279219.875,271051.84375,253845.109375,283167.03125,254766.171875,255520.953125,212356.0,1.0,3
232859.59375,278993.6875,277715.875,270607.9375,252367.390625,282511.84375,254301.078125,254863.8125,212357.0,1.0,3
232755.25,279075.21875,277969.0,270755.53125,252251.15625,282425.84375,254370.734375,254958.578125,212358.0,1.0,3
233408.453125,280317.4375,279608.1875,271282.0625,253641.171875,283015.375,254867.828125,255659.4375,212359.0,1.0,3
233923.53125,281025.625,280402.125,271470.34375,254637.703125,283473.59375,255115.484375,256012.78125,212360.0,1.0,3
233594.34375,280218.125,279243.40625,271057.5625,253858.875,283172.375,254773.78125,255529.265625,212361.0,1.0,3
232870.59375,279004.0625,277731.0625,270610.53125,252381.875,282519.71875,254301.265625,254868.375,212362.0,1.0,3
232767.140625,279079.0625,277969.34375,270754.65625,252258.140625,282435.84375,254366.078125,254962.15625,212363.0,1.0,3
233414.71875,280315.65625,279602.09375,271280.90625,253644.84375,283018.78125,254859.609375,255660.515625,212364.0,1.0,3
233930.953125,281031.28125,280407.65625,271471.875,254655.046875,283486.375,255117.8125,256010.71875,212365.0,1.0,3
233604.796875,280229.65625,279253.59375,271058.53125,253879.53125,283180.0625,254771.28125,255524.265625,212366.0,1.0,3
232873.0,279009.96875,277731.34375,270604.1875,252391.078125,282523.28125,254298.765625,254866.9375,212367.0,1.0,3
232755.96875,279069.5,277954.78125,270743.28125,252250.4375,282430.9375,254362.78125,254956.171875,212368.0,1.0,3
233407.75,280310.03125,279590.03125,271272.0625,253631.34375,283017.4375,254858.890625,255655.0625,212369.0,1.0,3
233929.171875,281034.03125,280406.21875,271469.46875,254647.890625,283486.125,255118.0,256014.484375,212370.0,1.0,3
233605.78125,280240.5625,279262.0,271061.6875,253885.515625,283191.0625,254778.421875,255533.921875,212371.0,1.0,3
232878.28125,279022.375,277740.09375,270609.8125,252400.296875,282534.65625,254306.625,254875.53125,212372.0,1.0,3
232753.546875,279067.96875,277947.96875,270746.0625,252246.875,282429.59375,254358.21875,254957.328125,212373.0,1.0,3
233397.28125,280301.0,279577.78125,271276.15625,253620.875,283012.09375,254851.203125,255652.375,212374.0,1.0,3
233928.359375,281040.46875,280413.1875,271478.59375,254651.015625,283488.8125,255116.921875,256011.96875,212375.0,1.0,3
233609.0,280253.4375,279278.96875,271066.5,253896.25,283193.40625,254780.03125,255536.6875,212376.0,1.0,3
232880.421875,279029.71875,277749.125,270613.5625,252406.8125,282533.75,254309.484375,254878.921875,212377.0,1.0,3
232754.890625,279067.25,277947.625,270748.3125,252242.125,282431.375,254367.953125,254960.109375,212378.0,1.0,3
233394.0625,280293.84375,279571.78125,271273.21875,253612.203125,283008.78125,254857.375,255645.59375,212379.0,1.0,3
233923.359375,281033.78125,280411.21875,271477.3125,254650.671875,283471.90625,255116.828125,256013.40625,212380.0,1.0,3
233609.53125,280256.28125,279289.34375,271074.28125,253913.234375,283187.6875,254788.359375,255544.90625,212381.0,1.0,3
232885.15625,279033.03125,277753.53125,270616.96875,252422.828125,282535.53125,254315.484375,254878.921875,212382.0,1.0,3
232752.921875,279056.625,277928.5625,270740.53125,252242.046875,282420.75,254356.15625,254940.078125,212383.0,1.0,3
233383.0625,280274.625,279547.28125,271265.6875,253606.5625,282999.5625,254854.421875,255635.390625,212384.0,1.0,3
233914.5,281026.34375,280405.40625,271478.59375,254652.90625,283481.75,255129.53125,256012.6875,212385.0,1.0,3
233609.53125,280262.1875,279297.125,271075.96875,253925.03125,283200.1875,254797.296875,255545.0,212386.0,1.0,3
232885.78125,279037.21875,277757.71875,270616.6875,252433.546875,282541.8125,254320.65625,254882.140625,212387.0,1.0,3
232748.09375,279050.0,277921.15625,270736.15625,252239.890625,282423.15625,254359.203125,254937.125,212388.0,1.0,3
233380.75,280267.71875,279541.5625,271259.625,253596.921875,282995.90625,254851.203125,255629.140625,212389.0,1.0,3
233918.53125,281025.0,280408.90625,271472.3125,254649.234375,283469.84375,255117.546875,255999.453125,212390.0,1.0,3
233619.8125,280266.75,279310.90625,271076.15625,253935.140625,283200.1875,254798.90625,255537.578125,212391.0,1.0,3
232895.171875,279040.0,277767.90625,270619.125,252443.65625,282554.0625,254332.734375,254880.53125,212392.0,1.0,3
232755.96875,279046.625,277918.5625,270737.125,252238.28125,282434.40625,254366.0,254935.609375,212393.0,1.0,3
233377.171875,280252.8125,279526.28125,271257.84375,253582.4375,282989.90625,254843.515625,255620.109375,212394.0,1.0,3
233920.046875,281023.84375,280406.21875,271478.59375,254647.359375,283469.5625,255120.046875,256010.28125,212395.0,1.0,3
233623.125,280277.3125,279319.21875,271084.84375,253943.359375,283202.25,254800.78125,255556.453125,212396.0,1.0,3
232897.234375,279046.0625,277769.6875,270623.3125,252445.796875,282544.125,254322.265625,254890.0,212397.0,1.0,3
232738.796875,279030.53125,277902.46875,270731.84375,252221.03125,282411.8125,254350.703125,254936.234375,212398.0,1.0,3
233364.828125,280242.4375,279512.96875,271253.8125,253565.0,282977.375,254839.40625,255621.625,212399.0,1.0,3
233915.671875,281022.5,280409.875,271480.71875,254645.125,283471.28125,255125.78125,256019.3125,212400.0,1.0,3
233628.578125,280288.5625,279340.03125,271093.6875,253954.625,283214.6875,254810.703125,255572.71875,212401.0,1.0,3
232904.921875,279057.53125,277785.15625,270629.84375,252457.875,282558.0625,254331.921875,254904.9375,212402.0,1.0,3
232745.0625,279032.21875,277898.53125,270728.625,252222.640625,282414.84375,254344.53125,254927.46875,212403.0,1.0,3
233364.921875,280235.71875,279501.59375,271251.21875,253559.359375,282973.8125,254831.625,255615.453125,212404.0,1.0,3
233908.6875,281016.4375,280404.875,271479.84375,254642.796875,283467.96875,255121.03125,256020.015625,212405.0,1.0,3
233629.65625,280290.34375,279338.96875,271090.09375,253963.21875,283209.03125,254805.78125,255562.609375,212406.0,1.0,3
232903.75,279053.5,277779.4375,270624.84375,252465.921875,282552.625,254326.5625,254894.65625,212407.0,1.0,3
232739.703125,279019.53125,277880.21875,270724.0625,252217.09375,282409.3125,254348.375,254930.515625,212408.0,1.0,3
233353.65625,280218.125,279483.53125,271245.5,253549.53125,282967.46875,254830.28125,255614.296875,212409.0,1.0,3
233913.609375,281017.84375,280404.875,271480.8125,254646.375,283467.78125,255120.859375,256016.796875,212410.0,1.0,3
233645.296875,280303.125,279355.78125,271097.0,253983.234375,283217.09375,254806.234375,255581.84375,212411.0,1.0,3
232914.046875,279055.1875,277785.625,270620.71875,252478.515625,282558.78125,254322.1875,254892.953125,212412.0,1.0,3
232738.796875,279005.21875,277866.71875,270714.40625,252212.359375,282403.40625,254332.5625,254913.34375,212413.0,1.0,3
233353.921875,280206.03125,279467.1875,271237.0,253537.375,282955.9375,254815.984375,255597.84375,212414.0,1.0,3
233917.984375,281014.28125,280400.5,271474.375,254641.28125,283460.09375,255116.75,256005.625,212415.0,1.0,3
233647.796875,280301.09375,279359.96875,271091.625,253985.125,283216.1875,254805.34375,255566.1875,212416.0,1.0,3
232915.203125,279050.28125,277784.375,270616.4375,252477.53125,282551.375,254313.78125,254890.28125,212417.0,1.0,3
232741.65625,278995.90625,277856.34375,270709.5,252203.328125,282395.0,254328.078125,254915.046875,212418.0,1.0,3
233351.234375,280188.6875,279451.625,271231.71875,253522.96875,282950.46875,254810.34375,255593.640625,212419.0,1.0,3
233909.046875,280997.90625,280392.90625,271469.1875,254631.171875,283452.21875,255102.703125,256001.15625,212420.0,1.0,3
233644.40625,280297.3125,279363.5625,271088.40625,253984.40625,283201.8125,254793.1875,255573.96875,212421.0,1.0,3
232911.796875,279049.125,277786.0625,270613.75,252475.296875,282543.84375,254306.8125,254890.90625,212422.0,1.0,3
232731.828125,278986.8125,277847.03125,270705.125,252190.1875,282388.375,254322.1875,254909.3125,212423.0,1.0,3
233336.671875,280173.84375,279437.84375,271226.90625,253503.578125,282935.8125,254800.0625,255587.203125,212424.0,1.0,3
233908.15625,281001.84375,280394.5,271475.1875,254629.46875,283450.96875,255116.65625,256021.1875,212425.0,1.0,3
233647.359375,280309.03125,279376.0625,271096.375,253995.140625,283208.15625,254804.890625,255583.53125,212426.0,1.0,3
232914.484375,279053.75,277793.3125,270617.0625,252484.875,282545.90625,254304.578125,254890.984375,212427.0,1.0,3
232731.109375,278981.4375,277836.5,270700.375,252186.25,282382.21875,254308.765625,254899.21875,212428.0,1.0,3
233335.328125,280169.65625,279423.71875,271221.53125,253495.171875,282933.21875,254792.90625,255581.484375,212429.0,1.0,3
233900.5625,280997.125,280390.21875,271473.21875,254627.859375,283450.8125,255102.265625,256009.296875,212430.0,1.0,3
233651.375,280325.3125,279388.78125,271104.59375,254011.40625,283219.5,254801.9375,255588.984375,212431.0,1.0,3
232920.5625,279073.4375,277803.6875,270623.84375,252504.625,282561.1875,254319.40625,254901.359375,212432.0,1.0,3
232721.09375,278980.09375,277826.65625,270697.875,252188.578125,282387.03125,254318.078125,254898.328125,212433.0,1.0,3
233321.46875,280162.5,279406.375,271214.65625,253485.328125,282928.75,254791.296875,255568.78125,212434.0,1.0,3
233901.625,281002.84375,280382.0,271468.03125,254623.21875,283434.09375,255089.921875,255995.34375,212435.0,1.0,3
233659.6875,280333.96875,279390.46875,271099.59375,254017.3125,283206.8125,254797.03125,255588.453125,212436.0,1.0,3
232925.390625,279073.78125,277799.84375,270616.0625,252504.984375,282547.875,254306.0,254903.78125,212437.0,1.0,3
232717.4375,278965.6875,277806.8125,270684.09375,252174.359375,282370.21875,254292.328125,254875.609375,212438.0,1.0,3
233311.359375,280142.375,279384.21875,271202.03125,253467.71875,282916.6875,254776.453125,255549.734375,212439.0,1.0,3
233893.84375,280992.71875,280377.4375,271461.78125,254616.421875,283438.625,255087.78125,255989.890625,212440.0,1.0,3
233664.796875,280339.34375,279406.125,271101.625,254026.78125,283220.40625,254803.90625,255587.03125,212441.0,1.0,3
232941.21875,279081.21875,277815.9375,270622.78125,252518.75,282559.0625,254313.25,254903.421875,212442.0,1.0,3
232730.390625,278962.84375,277811.71875,270691.8125,252177.484375,282376.125,254304.21875,254889.203125,212443.0,1.0,3
233315.296875,280130.9375,279379.65625,271207.9375,253459.671875,282910.5,254779.59375,255559.9375,212444.0,1.0,3
233891.703125,280982.71875,280374.9375,271468.125,254612.578125,283429.4375,255088.484375,256002.765625,212445.0,1.0,3
233664.609375,280339.25,279409.59375,271108.15625,254032.234375,283219.78125,254807.03125,255598.296875,212446.0,1.0,3
232937.90625,279081.46875,277813.40625,270623.84375,252521.609375,282560.03125,254316.1875,254906.640625,212447.0,1.0,3
232719.3125,278952.8125,277792.21875,270685.53125,252162.015625,282367.1875,254296.34375,254879.640625,212448.0,1.0,3
233304.296875,280115.28125,279357.125,271197.125,253436.078125,282891.28125,254753.21875,255536.0625,212449.0,1.0,3
233893.3125,280983.0,280371.1875,271462.03125,254601.484375,283416.03125,255070.78125,255984.078125,212450.0,1.0,3
233667.203125,280346.78125,279421.75,271107.28125,254035.453125,283217.4375,254794.25,255594.171875,212451.0,1.0,3
232933.4375,279084.6875,277821.8125,270622.5,252525.734375,282563.96875,254307.875,254906.453125,212452.0,1.0,3
232718.328125,278953.4375,277790.34375,270684.09375,252159.703125,282368.625,254291.34375,254886.96875,212453.0,1.0,3
233313.15625,280125.5,279361.6875,271206.0625,253439.375,282900.6875,254766.890625,255557.25,212454.0,1.0,3
233901.0,280994.875,280385.5625,271473.84375,254613.46875,283422.71875,255077.046875,256001.78125,212455.0,1.0,3
233674.359375,280360.4375,279437.84375,271116.3125,254053.25,283224.5,254800.78125,255595.078125,212456.0,1.0,3
232951.234375,279104.625,277835.6875,270630.8125,252542.265625,282578.28125,254319.140625,254908.0625,212457.0,1.0,3
232725.484375,278955.0625,277786.0625,270681.0625,252160.59375,282363.25,254284.453125,254874.09375,212458.0,1.0,3
233299.734375,280104.5625,279341.9375,271191.21875,253420.96875,282879.3125,254751.34375,255537.046875,212459.0,1.0,3
233896.71875,280987.90625,280377.96875,271465.875,254602.296875,283411.625,255076.78125,255993.015625,212460.0,1.0,3
233688.84375,280372.59375,279450.8125,271117.1875,254062.71875,283222.09375,254807.3125,255611.34375,212461.0,1.0,3
232949.171875,279095.59375,277834.34375,270622.6875,252542.984375,282561.65625,254308.234375,254911.375,212462.0,1.0,3
232716.453125,278938.875,277771.125,270670.875,252148.515625,282356.5625,254278.640625,254868.640625,212463.0,1.0,3
233298.84375,280095.28125,279330.84375,271186.9375,253412.734375,282883.0625,254755.71875,255536.78125,212464.0,1.0,3
233893.671875,280980.21875,280377.0625,271464.375,254600.953125,283415.46875,255085.1875,255992.578125,212465.0,1.0,3
233688.578125,280376.625,279464.9375,271117.65625,254072.109375,283227.71875,254811.953125,255607.046875,212466.0,1.0,3
232952.3125,279104.09375,277852.84375,270628.125,252557.109375,282571.75,254320.65625,254920.671875,212467.0,1.0,3
232706.171875,278927.6875,277773.90625,270674.375,252149.0625,282359.5,254288.921875,254874.1875,212468.0,1.0,3
233290.0,280084.8125,279325.84375,271189.4375,253403.078125,282880.5625,254750.078125,255531.0625,212469.0,1.0,3
233891.265625,280983.15625,280383.875,271470.8125,254600.953125,283422.1875,255082.140625,255994.90625,212470.0,1.0,3
233688.484375,280383.34375,279475.21875,271127.9375,254082.484375,283236.40625,254814.734375,255623.0625,212471.0,1.0,3
232957.578125,279111.4375,277853.46875,270634.9375,252566.5,282575.3125,254315.203125,254925.5,212472.0,1.0,3
232710.375,278927.96875,277758.78125,270672.65625,252142.890625,282356.71875,254271.046875,254868.734375,212473.0,1.0,3
233285.25,280077.90625,279306.78125,271186.5,253389.484375,282878.40625,254736.578125,255523.90625,212474.0,1.0,3
233892.59375,280987.46875,280381.46875,271474.75,254598.09375,283428.28125,255081.609375,255997.40625,212475.0,1.0,3
233700.109375,280403.375,279489.0,271136.875,254093.390625,283245.0625,254815.625,255623.59375,212476.0,1.0,3
232964.90625,279125.46875,277860.90625,270641.5625,252575.4375,282579.25,254310.828125,254926.21875,212477.0,1.0,3
232712.421875,278930.46875,277752.4375,270681.0625,252146.28125,282360.03125,254276.046875,254877.9375,212478.0,1.0,3
233285.609375,280076.9375,279295.875,271194.53125,253385.28125,282871.96875,254742.3125,255537.671875,212479.0,1.0,3
233898.328125,280994.875,280382.0,271483.21875,254600.5,283420.21875,255081.0625,255999.28125,212480.0,1.0,3
233717.1875,280426.25,279507.78125,271146.4375,254113.78125,283246.25,254823.125,255628.953125,212481.0,1.0,3
232990.484375,279152.5625,277884.40625,270647.71875,252602.53125,282591.96875,254331.75,254938.734375,212482.0,1.0,3
232727.0,278940.5625,277758.25,270671.59375,252151.46875,282356.0,254278.90625,254862.203125,212483.0,1.0,3
233288.65625,280075.96875,279292.03125,271181.125,253380.640625,282865.90625,254744.09375,255513.4375,212484.0,1.0,3
233896.53125,280994.34375,280387.34375,271478.125,254602.828125,283418.6875,255089.109375,255988.546875,212485.0,1.0,3
233717.0,280426.875,279520.5625,271148.21875,254125.3125,283243.71875,254827.59375,255624.84375,212486.0,1.0,3
232991.28125,279151.5,277894.25,270653.625,252616.5625,282591.15625,254332.46875,254937.03125,212487.0,1.0,3
232729.859375,278934.84375,277753.0625,270677.5,252157.015625,282356.46875,254272.65625,254869.625,212488.0,1.0,3
233282.03125,280058.625,279275.9375,271182.46875,253373.21875,282860.34375,254723.0,255516.03125,212489.0,1.0,3
233887.234375,280981.28125,280376.53125,271478.3125,254595.859375,283411.625,255064.984375,255995.4375,212490.0,1.0,3
233719.0625,280435.5625,279528.78125,271153.59375,254134.875,283258.40625,254818.484375,255637.625,212491.0,1.0,3
232995.40625,279160.875,277899.15625,270655.84375,252622.375,282605.0,254320.9375,254934.265625,212492.0,1.0,3
232725.5625,278934.21875,277742.25,270675.15625,252146.28125,282364.78125,254265.5,254857.828125,212493.0,1.0,3
233285.171875,280067.5625,279266.8125,271181.5625,253361.140625,282872.59375,254734.53125,255511.03125,212494.0,1.0,3
233897.515625,281001.125,280380.90625,271482.34375,254595.328125,283431.03125,255092.515625,255998.65625,212495.0,1.0,3
233730.328125,280461.46875,279544.6875,271162.25,254144.171875,283281.71875,254855.578125,255655.59375,212496.0,1.0,3
233005.765625,279190.28125,277908.28125,270659.78125,252629.078125,282623.34375,254358.21875,254957.0625,212497.0,1.0,3
232720.828125,278949.15625,277733.125,270673.5625,252137.078125,282376.75,254300.90625,254875.703125,212498.0,1.0,3
233277.203125,280078.375,279254.03125,271183.1875,253343.171875,282881.0,254768.328125,255527.84375,212499.0,1.0,3
233894.5625,281020.375,280379.75,271487.25,254585.9375,283443.8125,255124.34375,256019.3125,212500.0,1.0,3
233731.21875,280487.125,279550.875,271163.6875,254144.4375,283288.625,254878.03125,255677.5,212501.0,1.0,3
233009.703125,279212.28125,277914.375,270658.8125,252630.6875,282633.1875,254368.59375,254973.875,212502.0,1.0,3
232721.546875,278958.375,277730.09375,270669.28125,252130.109375,282383.8125,254296.171875,254883.21875,212503.0,1.0,3
233271.671875,280076.3125,279245.625,271177.28125,253328.78125,282874.65625,254746.515625,255531.40625,212504.0,1.0,3
233897.421875,281030.46875,280379.9375,271484.84375,254578.15625,283433.625,255096.890625,256025.46875,212505.0,1.0,3
233739.171875,280504.21875,279564.71875,271166.5625,254150.34375,283290.125,254853.0,255683.3125,212506.0,1.0,3
233009.53125,279216.40625,277923.9375,270659.875,252636.140625,282637.28125,254349.71875,254982.984375,212507.0,1.0,3
232722.078125,278951.84375,277728.5,270668.8125,252128.21875,282388.28125,254276.59375,254885.265625,212508.0,1.0,3
233267.828125,280059.3125,279235.71875,271170.75,253313.140625,282868.3125,254718.078125,255525.6875,212509.0,1.0,3
233895.1875,281016.96875,280384.5,271483.75,254570.203125,283432.46875,255082.046875,256025.203125,212510.0,1.0,3
233739.53125,280495.375,279581.34375,271170.9375,254156.609375,283299.25,254857.109375,255691.984375,212511.0,1.0,3
233011.140625,279209.96875,277938.78125,270665.4375,252641.875,282642.5625,254353.296875,254986.125,212512.0,1.0,3
232714.578125,278933.34375,277725.0,270667.21875,252115.265625,282380.40625,254283.109375,254879.546875,212513.0,1.0,3
233259.328125,280040.46875,279230.0625,271174.15625,253299.71875,282872.96875,254744.09375,255524.796875,212514.0,1.0,3
233889.375,281002.46875,280386.1875,271487.59375,254565.453125,283433.0,255101.71875,256023.15625,212515.0,1.0,3
233741.328125,280491.4375,279590.21875,271172.4375,254160.53125,283293.09375,254863.1875,255683.859375,212516.0,1.0,3
233001.484375,279195.28125,277937.78125,270659.6875,252640.96875,282634.0625,254360.0,254970.65625,212517.0,1.0,3
232698.921875,278914.28125,277713.90625,270661.3125,252106.234375,282372.1875,254288.03125,254863.625,212518.0,1.0,3
233243.421875,280025.4375,279215.5,271163.25,253281.21875,282860.8125,254742.84375,255497.796875,212519.0,1.0,3
233880.265625,280999.78125,280383.6875,271479.125,254553.921875,283429.0625,255099.9375,256000.078125,212520.0,1.0,3
233735.328125,280500.625,279603.96875,271171.09375,254164.65625,283299.53125,254872.3125,255679.65625,212521.0,1.0,3
232998.796875,279210.0625,277951.65625,270662.75,252649.46875,282646.21875,254368.765625,254975.921875,212522.0,1.0,3
232689.1875,278916.0625,277708.46875,270654.0625,252098.09375,282375.5,254285.890625,254861.75,212523.0,1.0,3
233228.21875,280023.125,279205.03125,271157.59375,253270.125,282863.40625,254736.40625,255496.8125,212524.0,1.0,3
233869.265625,281009.09375,280385.125,271479.375,254550.96875,283426.125,255096.984375,256010.015625,212525.0,1.0,3
233736.21875,280522.71875,279623.28125,271180.125,254176.984375,283301.03125,254872.484375,255703.15625,212526.0,1.0,3
233010.0625,279230.78125,277969.4375,270668.5625,252664.9375,282640.875,254355.171875,254989.25,212527.0,1.0,3
232691.140625,278916.78125,277709.96875,270655.59375,252101.671875,282364.40625,254267.90625,254863.28125,212528.0,1.0,3
233216.40625,280007.375,279194.59375,271152.5,253258.953125,282849.8125,254718.53125,255486.53125,212529.0,1.0,3
233866.046875,281005.4375,280386.90625,271481.0,254551.515625,283426.3125,255088.9375,256010.28125,212530.0,1.0,3
233741.5,280528.4375,279631.59375,271181.125,254188.703125,283302.28125,254869.71875,255700.296875,212531.0,1.0,3
233007.203125,279227.21875,277971.9375,270663.71875,252673.78125,282647.3125,254365.8125,254984.78125,212532.0,1.0,3
232693.5625,278912.15625,277702.28125,270650.9375,252105.34375,282371.65625,254285.96875,254866.21875,212533.0,1.0,3
233221.78125,279997.375,279178.03125,271147.40625,253257.609375,282848.03125,254728.890625,255484.109375,212534.0,1.0,3
233864.609375,280990.3125,280373.6875,271476.625,254549.640625,283422.625,255098.59375,256000.796875,212535.0,1.0,3
233738.375,280517.0,279631.59375,271180.84375,254198.0,283307.5625,254883.5625,255695.203125,212536.0,1.0,3
233015.25,279223.0,277971.84375,270667.21875,252682.546875,282646.84375,254377.609375,254987.8125,212537.0,1.0,3
232685.609375,278885.5,277682.4375,270645.65625,252091.65625,282359.84375,254278.640625,254851.828125,212538.0,1.0,3
233205.234375,279966.875,279156.03125,271141.0625,253232.9375,282838.8125,254719.859375,255468.375,212539.0,1.0,3
233855.046875,280974.9375,280365.53125,271476.25,254534.796875,283416.125,255093.671875,255998.46875,212540.0,1.0,3
233743.375,280525.40625,279641.96875,271187.65625,254201.3125,283308.03125,254881.25,255702.890625,212541.0,1.0,3
233015.515625,279233.84375,277981.15625,270674.625,252692.734375,282657.75,254381.109375,254996.046875,212542.0,1.0,3
232682.828125,278889.78125,277677.15625,270644.40625,252087.546875,282360.84375,254275.15625,254845.578125,212543.0,1.0,3
233205.234375,279968.5,279147.90625,271136.59375,253223.1875,282827.28125,254704.671875,255466.0625,212544.0,1.0,3
233850.21875,280977.90625,280368.125,271473.84375,254532.375,283411.1875,255080.171875,256000.078125,212545.0,1.0,3
233736.765625,280534.875,279656.0,271187.1875,254209.078125,283311.78125,254875.96875,255705.671875,212546.0,1.0,3
233018.46875,279247.59375,277994.125,270670.0625,252698.203125,282651.0625,254365.90625,254991.125,212547.0,1.0,3
232681.484375,278892.03125,277677.15625,270639.40625,252085.75,282350.65625,254259.328125,254842.625,212548.0,1.0,3
233192.625,279959.28125,279136.46875,271133.65625,253214.4375,282819.6875,254699.296875,255462.484375,212549.0,1.0,3
233848.96875,280981.5625,280367.6875,271477.0625,254536.140625,283415.75,255096.53125,255998.390625,212550.0,1.0,3
233752.234375,280551.34375,279670.125,271193.5625,254228.484375,283321.4375,254900.640625,255711.921875,212551.0,1.0,3
233018.734375,279246.625,277998.75,270670.25,252713.390625,282659.09375,254381.109375,254996.84375,212552.0,1.0,3
232676.3125,278883.625,277668.9375,270637.53125,252092.640625,282361.8125,254280.25,254851.828125,212553.0,1.0,3
233188.875,279949.71875,279122.0625,271125.59375,253209.515625,282820.5625,254719.234375,255471.421875,212554.0,1.0,3
233844.3125,280972.71875,280358.03125,271466.25,254529.515625,283402.78125,255087.234375,255993.640625,212555.0,1.0,3
233739.984375,280539.8125,279670.03125,271183.1875,254230.71875,283314.46875,254885.359375,255701.640625,212556.0,1.0,3
233018.828125,279244.65625,278003.6875,270667.375,252725.546875,282662.5,254383.96875,254997.65625,212557.0,1.0,3
232674.96875,278875.21875,277655.53125,270626.25,252089.875,282354.125,254273.1875,254844.046875,212558.0,1.0,3
233182.53125,279933.8125,279102.03125,271116.21875,253199.59375,282813.40625,254708.0625,255454.609375,212559.0,1.0,3
233838.6875,280958.9375,280348.8125,271463.5625,254524.515625,283400.71875,255094.125,256001.96875,212560.0,1.0,3
233746.859375,280543.1875,279679.25,271188.71875,254237.515625,283310.78125,254891.53125,255723.375,212561.0,1.0,3
233030.71875,279253.6875,278013.875,270672.9375,252735.296875,282667.875,254389.5,255016.34375,212562.0,1.0,3
232667.984375,278863.15625,277648.1875,270627.6875,252081.640625,282354.125,254273.28125,254856.125,212563.0,1.0,3
233170.734375,279923.4375,279089.625,271115.21875,253182.15625,282808.9375,254699.484375,255450.140625,212564.0,1.0,3
233836.890625,280968.0625,280351.0625,271468.46875,254520.125,283401.0,255088.3125,255993.734375,212565.0,1.0,3
