FZ,C3,CZ,C4,PZ,PO7,OZ,PO8,Counter,Validation,Label
231894.53125,276719.78125,352204.40625,314906.59375,247729.046875,279692.5625,251877.4375,250659.265625,14966.0,1.0,3
231883.09375,276465.4375,351707.5,314696.75,247611.390625,279721.8125,251738.140625,250465.4375,14967.0,1.0,3
231305.96875,275374.125,350330.53125,314287.09375,246209.390625,279223.71875,251262.765625,249833.78125,14968.0,1.0,3
230963.265625,274950.96875,349969.25,314241.5,245452.03125,278884.53125,251103.984375,249633.40625,14969.0,1.0,3
231330.109375,275780.5625,351120.71875,314618.34375,246385.96875,279171.6875,251482.53125,250145.71875,14970.0,1.0,3
231895.78125,276707.8125,352189.40625,314895.875,247711.15625,279682.125,251876.359375,250656.59375,14971.0,1.0,3
231889.609375,276464.8125,351711.0625,314693.1875,247610.21875,279726.5625,251748.875,250473.84375,14972.0,1.0,3
231311.6875,275372.0625,350331.5,314280.21875,246213.5,279223.90625,251261.0625,249835.46875,14973.0,1.0,3
230963.453125,274939.0625,349950.0,314224.875,245442.734375,278882.0,251092.359375,249625.28125,14974.0,1.0,3
231323.84375,275762.78125,351090.75,314601.1875,246360.84375,279173.40625,251468.9375,250124.796875,14975.0,1.0,3
231890.953125,276694.84375,352169.8125,314882.28125,247695.609375,279671.9375,251856.515625,250640.21875,14976.0,1.0,3
231897.03125,276471.6875,351709.09375,314685.84375,247618.09375,279721.1875,251740.828125,250469.90625,14977.0,1.0,3
231323.671875,275384.21875,350331.78125,314274.84375,246229.78125,279233.21875,251264.109375,249835.828125,14978.0,1.0,3
230963.265625,274935.59375,349932.75,314216.09375,245443.09375,278881.75,251088.6875,249616.15625,14979.0,1.0,3
231320.8125,275755.375,351064.375,314588.5625,246351.109375,279157.75,251454.8125,250115.234375,14980.0,1.0,3
231892.75,276709.15625,352161.6875,314879.84375,247697.3125,279681.9375,251864.03125,250643.890625,14981.0,1.0,3
231896.234375,276491.375,351711.78125,314683.875,247632.125,279734.78125,251750.03125,250475.53125,14982.0,1.0,3
231318.578125,275398.90625,350327.125,314267.59375,246239.703125,279234.71875,251263.75,249840.65625,14983.0,1.0,3
230959.421875,274942.84375,349913.53125,314203.5,245439.328125,278878.96875,251086.09375,249614.734375,14984.0,1.0,3
231304.09375,275746.40625,351035.5,314572.46875,246331.796875,279150.875,251449.8125,250110.3125,14985.0,1.0,3
231869.859375,276694.59375,352137.53125,314863.21875,247681.484375,279672.46875,251852.859375,250634.59375,14986.0,1.0,3
231892.03125,276499.84375,351707.65625,314677.0,247638.828125,279731.46875,251740.109375,250474.828125,14987.0,1.0,3
231332.96875,275419.375,350333.125,314268.75,246263.125,279241.59375,251268.84375,249849.421875,14988.0,1.0,3
230961.125,274940.40625,349901.09375,314200.375,245445.328125,278877.71875,251083.953125,249617.5,14989.0,1.0,3
231304.171875,275739.71875,351017.09375,314568.53125,246330.359375,279151.3125,251452.125,250107.890625,14990.0,1.0,3
231884.875,276702.625,352131.53125,314863.5,247688.71875,279678.53125,251871.265625,250646.84375,14991.0,1.0,3
231912.140625,276514.78125,351713.5625,314677.8125,247661.453125,279738.96875,251760.859375,250497.0,14992.0,1.0,3
231336.453125,275421.59375,350327.65625,314260.53125,246281.453125,279247.875,251284.21875,249865.609375,14993.0,1.0,3
230958.796875,274936.46875,349878.9375,314185.4375,245445.59375,278887.46875,251098.4375,249627.78125,14994.0,1.0,3
231298.015625,275727.1875,350983.1875,314553.34375,246310.421875,279159.4375,251464.015625,250116.125,14995.0,1.0,3
231881.84375,276698.875,352110.28125,314854.8125,247674.328125,279684.1875,251883.078125,250657.75,14996.0,1.0,3
231904.546875,276513.625,351705.6875,314666.34375,247658.765625,279739.78125,251762.640625,250510.140625,14997.0,1.0,3
231338.328125,275425.4375,350320.59375,314244.875,246277.4375,279243.84375,251267.234375,249860.78125,14998.0,1.0,3
230959.0625,274929.96875,349854.53125,314163.625,245428.515625,278874.875,251079.21875,249608.296875,14999.0,1.0,3
231291.65625,275710.375,350947.96875,314526.15625,246282.4375,279140.03125,251437.28125,250091.53125,15000.0,1.0,3
231870.921875,276681.15625,352084.59375,314833.375,247652.515625,279674.6875,251861.53125,250644.609375,15001.0,1.0,3
231910.625,276520.0625,351705.6875,314661.25,247662.34375,279741.75,251759.6875,250513.265625,15002.0,1.0,3
231355.59375,275447.34375,350328.375,314245.34375,246299.34375,279258.3125,251283.515625,249867.296875,15003.0,1.0,3
230963.09375,274934.59375,349843.96875,314157.0,245433.515625,278879.34375,251077.78125,249609.28125,15004.0,1.0,3
231287.734375,275707.34375,350930.90625,314524.1875,246274.578125,279141.21875,251438.1875,250093.5,15005.0,1.0,3
231874.234375,276688.9375,352076.03125,314831.5625,247652.953125,279663.96875,251851.515625,250638.96875,15006.0,1.0,3
231915.09375,276534.375,351705.25,314655.53125,247677.90625,279737.375,251753.078125,250501.015625,15007.0,1.0,3
231350.046875,275450.65625,350325.25,314237.03125,246316.421875,279258.0625,251275.109375,249866.9375,15008.0,1.0,3
230961.65625,274934.34375,349832.1875,314150.21875,245441.65625,278884.96875,251082.25,249610.171875,15009.0,1.0,3
231288.078125,275703.5,350913.5625,314513.90625,246273.765625,279138.96875,251440.15625,250083.484375,15010.0,1.0,3
231867.078125,276681.8125,352058.3125,314814.84375,247645.625,279660.03125,251847.484375,250624.84375,15011.0,1.0,3
231912.234375,276538.03125,351702.75,314643.1875,247682.734375,279744.4375,251760.5,250497.078125,15012.0,1.0,3
231350.9375,275457.8125,350323.75,314229.15625,246329.46875,279268.15625,251291.828125,249871.59375,15013.0,1.0,3
230956.46875,274926.125,349808.75,314134.1875,245439.515625,278880.40625,251080.203125,249597.375,15014.0,1.0,3
231270.109375,275676.9375,350874.46875,314492.53125,246253.828125,279122.4375,251428.4375,250065.875,15015.0,1.0,3
231852.515625,276661.6875,352036.9375,314805.28125,247638.203125,279652.875,251856.15625,250625.390625,15016.0,1.0,3
231913.484375,276539.46875,351704.09375,314642.84375,247700.609375,279746.59375,251769.078125,250508.34375,15017.0,1.0,3
231361.125,275467.65625,350324.71875,314223.6875,246351.640625,279268.875,251290.03125,249878.484375,15018.0,1.0,3
230952.1875,274917.71875,349791.125,314123.21875,245444.25,278883.09375,251079.484375,249607.578125,15019.0,1.0,3
231261.171875,275660.9375,350848.375,314482.0,246243.28125,279127.15625,251430.21875,250070.875,15020.0,1.0,3
231847.59375,276654.0,352015.6875,314794.21875,247629.53125,279659.5,251851.421875,250613.40625,15021.0,1.0,3
231914.296875,276541.53125,351693.0,314632.46875,247707.5,279755.78125,251768.453125,250502.8125,15022.0,1.0,3
231363.1875,275468.53125,350315.40625,314215.46875,246365.3125,279284.0625,251292.359375,249879.1875,15023.0,1.0,3
230952.8125,274909.5625,349765.5625,314107.375,245443.890625,278884.59375,251068.3125,249597.109375,15024.0,1.0,3
231256.171875,275643.875,350807.78125,314456.875,246224.140625,279114.75,251408.671875,250053.984375,15025.0,1.0,3
231848.84375,276648.28125,351985.625,314777.21875,247617.109375,279649.21875,251843.734375,250620.28125,15026.0,1.0,3
231927.4375,276557.625,351689.78125,314627.71875,247715.28125,279763.375,251777.84375,250524.796875,15027.0,1.0,3
231366.40625,275480.625,350311.5625,314208.21875,246371.75,279288.5625,251302.015625,249896.71875,15028.0,1.0,3
230947.265625,274911.0,349749.65625,314099.25,245434.421875,278879.59375,251068.578125,249600.875,15029.0,1.0,3
231247.671875,275640.03125,350787.9375,314453.375,246205.375,279110.34375,251409.84375,250057.296875,15030.0,1.0,3
231838.203125,276644.6875,351975.09375,314774.28125,247603.421875,279640.90625,251840.609375,250611.53125,15031.0,1.0,3
231910.984375,276554.9375,351687.8125,314624.96875,247715.8125,279753.28125,251778.203125,250518.453125,15032.0,1.0,3
231366.859375,275491.6875,350317.375,314210.5625,246389.28125,279284.15625,251302.90625,249898.0625,15033.0,1.0,3
230948.25,274914.75,349738.3125,314094.6875,245444.609375,278880.3125,251070.0,249592.828125,15034.0,1.0,3
231230.421875,275622.15625,350755.21875,314438.1875,246192.765625,279096.15625,251399.5625,250033.59375,15035.0,1.0,3
231819.875,276632.4375,351949.875,314765.59375,247594.75,279631.0625,251836.046875,250605.625,15036.0,1.0,3
231916.4375,276571.375,351687.09375,314625.84375,247738.34375,279759.625,251781.140625,250524.53125,15037.0,1.0,3
231369.984375,275505.03125,350312.65625,314202.875,246413.15625,279291.6875,251303.171875,249897.15625,15038.0,1.0,3
230937.15625,274906.96875,349718.625,314081.0,245451.578125,278882.8125,251069.46875,249592.90625,15039.0,1.0,3
231218.171875,275615.875,350731.78125,314427.0,246188.921875,279102.65625,251398.125,250026.53125,15040.0,1.0,3
231816.484375,276640.125,351934.75,314757.09375,247593.6875,279634.90625,251830.046875,250602.40625,15041.0,1.0,3
231922.875,276594.90625,351688.8125,314622.1875,247749.515625,279767.59375,251784.453125,250530.34375,15042.0,1.0,3
231381.0625,275536.59375,350320.15625,314203.125,246433.8125,279311.71875,251324.375,249909.859375,15043.0,1.0,3
230947.265625,274935.0625,349711.84375,314078.78125,245460.078125,278904.90625,251088.875,249601.9375,15044.0,1.0,3
231226.65625,275634.125,350713.71875,314420.125,246183.828125,279117.34375,251406.984375,250030.109375,15045.0,1.0,3
231823.09375,276659.09375,351920.46875,314749.15625,247586.4375,279650.375,251849.28125,250605.265625,15046.0,1.0,3
231927.609375,276619.9375,351687.90625,314615.46875,247754.703125,279787.4375,251806.546875,250537.9375,15047.0,1.0,3
231393.671875,275565.625,350323.1875,314198.3125,246447.578125,279328.34375,251336.265625,249917.375,15048.0,1.0,3
230952.0,274949.09375,349698.59375,314069.125,245458.640625,278905.4375,251094.0625,249601.40625,15049.0,1.0,3
231223.078125,275637.625,350693.78125,314412.71875,246169.609375,279111.4375,251415.921875,250035.65625,15050.0,1.0,3
231824.078125,276665.34375,351913.75,314750.5,247579.90625,279644.375,251852.671875,250628.421875,15051.0,1.0,3
231937.53125,276640.9375,351697.65625,314619.6875,247763.734375,279785.84375,251808.5,250557.34375,15052.0,1.0,3
231401.453125,275587.09375,350330.4375,314195.4375,246458.21875,279331.65625,251332.953125,249918.4375,15053.0,1.0,3
230960.9375,274961.15625,349695.21875,314065.71875,245459.8125,278916.625,251086.90625,249598.8125,15054.0,1.0,3
231231.84375,275640.21875,350678.0625,314404.84375,246157.890625,279121.09375,251405.375,250029.21875,15055.0,1.0,3
231825.234375,276663.75,351901.6875,314738.40625,247567.390625,279650.75,251841.859375,250611.703125,15056.0,1.0,3
231943.96875,276649.875,351707.21875,314618.15625,247776.515625,279812.28125,251828.53125,250568.96875,15057.0,1.0,3
231419.328125,275604.625,350348.3125,314199.03125,246483.96875,279356.59375,251347.703125,249949.203125,15058.0,1.0,3
230970.875,274961.6875,349692.78125,314059.09375,245471.34375,278924.5625,251082.4375,249621.609375,15059.0,1.0,3
231220.21875,275614.53125,350655.0625,314392.84375,246144.65625,279119.46875,251401.25,250039.859375,15060.0,1.0,3
231812.71875,276641.46875,351886.84375,314729.03125,247554.078125,279657.53125,251844.890625,250610.8125,15061.0,1.0,3
231950.234375,276648.0,351710.4375,314611.5625,247782.328125,279806.65625,251816.640625,250569.421875,15062.0,1.0,3
231427.203125,275604.8125,350353.40625,314189.90625,246502.5625,279356.21875,251351.90625,249950.09375,15063.0,1.0,3
230968.453125,274948.1875,349679.28125,314042.125,245475.0,278922.59375,251084.125,249606.0625,15064.0,1.0,3
231214.765625,275595.6875,350631.28125,314373.375,246132.953125,279108.3125,251397.234375,250021.171875,15065.0,1.0,3
231816.5625,276637.8125,351877.8125,314722.3125,247555.328125,279653.6875,251858.65625,250614.390625,15066.0,1.0,3
231949.609375,276653.90625,351710.78125,314606.8125,247793.59375,279814.25,251838.015625,250571.203125,15067.0,1.0,3
231427.109375,275613.84375,350354.75,314184.71875,246513.5625,279366.78125,251369.609375,249954.921875,15068.0,1.0,3
230972.125,274951.15625,349671.875,314036.03125,245473.84375,278928.25,251092.0,249609.984375,15069.0,1.0,3
231210.390625,275590.75,350615.5625,314366.125,246117.65625,279110.53125,251396.875,250011.78125,15070.0,1.0,3
231803.421875,276630.46875,351858.75,314710.0625,247531.28125,279640.09375,251843.375,250599.28125,15071.0,1.0,3
231942.71875,276655.96875,351706.15625,314599.3125,247785.375,279800.5,251819.859375,250568.96875,15072.0,1.0,3
231430.953125,275623.9375,350354.9375,314183.28125,246518.109375,279361.3125,251358.703125,249954.734375,15073.0,1.0,3
230966.3125,274950.78125,349656.59375,314030.9375,245470.984375,278926.375,251092.265625,249606.953125,15074.0,1.0,3
231198.046875,275579.3125,350586.78125,314355.75,246100.3125,279101.25,251392.578125,250011.515625,15075.0,1.0,3
231801.546875,276631.1875,351839.0,314701.21875,247524.390625,279637.6875,251841.671875,250605.0,15076.0,1.0,3
231952.109375,276672.5,351706.3125,314594.46875,247801.640625,279811.75,251833.8125,250578.625,15077.0,1.0,3
231444.640625,275645.5625,350356.46875,314175.6875,246541.90625,279379.21875,251371.578125,249960.828125,15078.0,1.0,3
230975.25,274957.125,349637.53125,314012.875,245475.453125,278926.1875,251083.234375,249600.515625,15079.0,1.0,3
231197.15625,275572.0,350553.0625,314333.59375,246086.734375,279088.71875,251373.265625,249998.8125,15080.0,1.0,3
231790.46875,276614.5625,351810.125,314686.65625,247509.46875,279619.53125,251831.484375,250598.46875,15081.0,1.0,3
231947.28125,276668.5625,351695.3125,314588.21875,247803.609375,279805.21875,251841.40625,250586.40625,15082.0,1.0,3
231447.046875,275646.90625,350352.625,314172.03125,246554.421875,279381.53125,251379.796875,249970.390625,15083.0,1.0,3
230975.15625,274950.0625,349616.53125,314005.28125,245477.515625,278927.625,251090.390625,249598.453125,15084.0,1.0,3
231193.9375,275552.125,350517.125,314319.53125,246075.28125,279083.1875,251379.0,249985.59375,15085.0,1.0,3
231789.921875,276596.5,351776.34375,314669.3125,247496.9375,279614.15625,251828.890625,250582.109375,15086.0,1.0,3
231954.703125,276664.625,351678.6875,314575.96875,247805.671875,279801.125,251837.390625,250580.40625,15087.0,1.0,3
231449.734375,275642.34375,350340.90625,314159.25,246565.234375,279375.90625,251381.046875,249973.703125,15088.0,1.0,3
230966.484375,274935.5,349596.5,313990.09375,245477.15625,278924.21875,251089.5,249603.1875,15089.0,1.0,3
231188.484375,275540.53125,350493.59375,314307.90625,246061.6875,279082.46875,251373.359375,249988.53125,15090.0,1.0,3
231785.359375,276595.59375,351768.90625,314668.0625,247494.078125,279627.59375,251845.875,250596.6875,15091.0,1.0,3
231948.171875,276670.625,351684.5,314580.4375,247817.921875,279812.28125,251846.953125,250597.484375,15092.0,1.0,3
231455.09375,275657.1875,350348.84375,314161.46875,246581.6875,279381.09375,251369.15625,249984.78125,15093.0,1.0,3
230968.8125,274937.09375,349589.09375,313983.28125,245477.15625,278921.53125,251075.734375,249604.53125,15094.0,1.0,3
231177.9375,275524.5,350473.59375,314299.4375,246044.34375,279076.21875,251360.484375,249981.828125,15095.0,1.0,3
231781.703125,276586.21875,351755.0625,314659.75,247476.5625,279618.375,251826.125,250588.375,15096.0,1.0,3
231954.609375,276675.53125,351685.59375,314572.5625,247816.3125,279812.28125,251843.375,250601.15625,15097.0,1.0,3
231449.640625,275658.71875,350349.9375,314153.34375,246581.6875,279387.15625,251389.71875,249994.34375,15098.0,1.0,3
230965.859375,274935.5,349578.4375,313974.78125,245469.640625,278921.875,251078.765625,249599.53125,15099.0,1.0,3
231174.71875,275515.75,350448.46875,314283.96875,246024.859375,279068.0625,251351.09375,249966.1875,15100.0,1.0,3
231777.5,276579.5,351738.15625,314650.53125,247464.3125,279615.0625,251826.203125,250586.140625,15101.0,1.0,3
231953.625,276676.78125,351687.0,314568.09375,247823.375,279817.3125,251844.359375,250601.515625,15102.0,1.0,3
231467.609375,275676.0625,350359.40625,314151.28125,246610.46875,279400.5,251388.203125,249996.3125,15103.0,1.0,3
230980.875,274941.9375,349571.71875,313965.84375,245492.703125,278934.59375,251083.59375,249601.859375,15104.0,1.0,3
231167.75,275497.875,350421.0,314269.5625,246026.375,279066.46875,251356.015625,249971.640625,15105.0,1.0,3
231765.96875,276564.125,351709.0,314632.375,247458.671875,279606.21875,251816.109375,250571.921875,15106.0,1.0,3
231959.265625,276688.0625,351677.0,314556.84375,247838.296875,279815.15625,251842.21875,250597.3125,15107.0,1.0,3
231466.984375,275682.5,350349.5,314137.40625,246629.078125,279395.125,251386.328125,249993.453125,15108.0,1.0,3
230971.140625,274935.3125,349549.28125,313948.875,245496.46875,278932.25,251085.109375,249592.734375,15109.0,1.0,3
231165.234375,275496.96875,350392.75,314254.1875,246015.734375,279067.8125,251356.90625,249956.0,15110.0,1.0,3
231768.203125,276568.78125,351685.59375,314619.6875,247451.078125,279603.15625,251815.484375,250566.109375,15111.0,1.0,3
231959.359375,276695.3125,351668.78125,314545.46875,247842.0625,279810.0625,251841.140625,250595.609375,15112.0,1.0,3
231479.421875,275702.34375,350353.34375,314133.9375,246647.40625,279407.71875,251401.53125,250004.90625,15113.0,1.0,3
230974.171875,274940.6875,349533.5625,313940.46875,245500.671875,278937.34375,251087.703125,249598.09375,15114.0,1.0,3
231154.78125,275486.875,350360.3125,314241.3125,246000.453125,279064.03125,251345.28125,249949.203125,15115.0,1.0,3
231762.828125,276565.3125,351665.5625,314616.1875,247436.59375,279601.84375,251813.15625,250565.21875,15116.0,1.0,3
231970.609375,276712.65625,351669.21875,314553.875,247850.015625,279815.78125,251852.046875,250609.921875,15117.0,1.0,3
231490.6875,275724.53125,350356.71875,314141.09375,246663.21875,279416.3125,251420.484375,250026.265625,15118.0,1.0,3
230978.828125,274952.75,349521.9375,313938.59375,245499.765625,278936.90625,251090.75,249603.109375,15119.0,1.0,3
231154.515625,275485.96875,350339.1875,314234.25,245987.046875,279056.625,251343.859375,249944.109375,15120.0,1.0,3
231758.8125,276559.75,351646.96875,314605.125,247429.625,279590.46875,251809.671875,250565.125,15121.0,1.0,3
231965.4375,276713.09375,351662.96875,314543.6875,247861.015625,279816.75,251856.875,250617.0625,15122.0,1.0,3
231487.8125,275723.71875,350351.375,314125.71875,246679.9375,279416.84375,251417.171875,250020.015625,15123.0,1.0,3
230977.9375,274944.34375,349505.5625,313920.0625,245509.515625,278937.53125,251092.359375,249597.375,15124.0,1.0,3
231151.109375,275466.5,350306.3125,314215.21875,245978.71875,279051.8125,251347.875,249944.90625,15125.0,1.0,3
231748.078125,276537.125,351612.96875,314582.21875,247409.59375,279580.375,251805.734375,250554.125,15126.0,1.0,3
231965.875,276707.1875,351650.53125,314526.0,247859.046875,279814.0,251854.46875,250604.546875,15127.0,1.0,3
231493.984375,275725.6875,350349.84375,314115.59375,246697.90625,279422.84375,251415.03125,250020.453125,15128.0,1.0,3
230982.40625,274942.375,349496.4375,313912.21875,245525.078125,278948.34375,251099.59375,249607.75,15129.0,1.0,3
231146.546875,275450.3125,350280.09375,314200.375,245971.21875,279047.59375,251335.0,249932.484375,15130.0,1.0,3
231746.296875,276526.5,351594.03125,314572.65625,247403.609375,279583.21875,251799.296875,250543.484375,15131.0,1.0,3
231968.296875,276709.4375,351649.09375,314522.21875,247866.828125,279824.53125,251865.640625,250614.65625,15132.0,1.0,3
231509.015625,275740.875,350355.03125,314112.03125,246709.984375,279428.65625,251424.765625,250036.109375,15133.0,1.0,3
230988.125,274941.03125,349484.46875,313898.625,245519.0,278941.125,251085.03125,249602.390625,15134.0,1.0,3
231139.125,275434.75,350253.625,314181.15625,245946.71875,279037.40625,251320.25,249914.515625,15135.0,1.0,3
231747.8125,276524.96875,351575.875,314563.34375,247383.21875,279573.65625,251795.8125,250536.328125,15136.0,1.0,3
231978.9375,276728.28125,351652.40625,314521.0625,247869.328125,279820.59375,251860.0,250613.21875,15137.0,1.0,3
231511.6875,275758.21875,350361.03125,314108.71875,246722.046875,279435.25,251425.484375,250034.21875,15138.0,1.0,3
230992.234375,274955.34375,349477.15625,313894.59375,245524.453125,278954.34375,251098.796875,249603.734375,15139.0,1.0,3
231143.6875,275441.71875,350237.0,314176.84375,245941.359375,279039.46875,251333.484375,249927.734375,15140.0,1.0,3
231740.65625,276525.15625,351561.3125,314556.5625,247372.765625,279566.59375,251797.953125,250546.34375,15141.0,1.0,3
231969.1875,276729.625,351645.875,314513.5625,247866.28125,279813.46875,251856.515625,250621.09375,15142.0,1.0,3
231522.859375,275778.25,350362.8125,314104.25,246733.140625,279436.96875,251433.0,250046.109375,15143.0,1.0,3
230995.09375,274960.28125,349464.28125,313882.96875,245523.109375,278951.5625,251103.0,249606.0625,15144.0,1.0,3
231127.15625,275425.375,350204.5625,314160.84375,245919.171875,279040.34375,251339.5625,249912.28125,15145.0,1.0,3
231724.21875,276505.9375,351528.9375,314539.5625,247350.5,279560.4375,251807.4375,250532.21875,15146.0,1.0,3
231977.234375,276734.375,351635.96875,314505.5,247870.21875,279811.9375,251862.953125,250615.109375,15147.0,1.0,3
231527.0625,275778.6875,350358.78125,314099.5,246749.59375,279437.3125,251427.453125,250042.8125,15148.0,1.0,3
230995.359375,274951.875,349446.65625,313873.3125,245532.046875,278941.03125,251085.5625,249599.34375,15149.0,1.0,3
231125.09375,275407.125,350171.65625,314143.21875,245912.46875,279019.4375,251313.453125,249904.765625,15150.0,1.0,3
231716.609375,276484.5625,351499.78125,314522.40625,247336.640625,279547.5625,251783.203125,250520.59375,15151.0,1.0,3
231968.03125,276724.90625,351627.125,314495.75,247870.046875,279814.4375,251867.78125,250618.234375,15152.0,1.0,3
231531.71875,275788.25,350362.09375,314092.8125,246761.65625,279448.40625,251442.46875,250054.25,15153.0,1.0,3
231004.484375,274961.59375,349438.53125,313865.71875,245537.40625,278951.84375,251091.546875,249603.1875,15154.0,1.0,3
231120.71875,275399.15625,350146.09375,314132.9375,245898.703125,279017.1875,251299.421875,249896.1875,15155.0,1.0,3
231708.75,276476.6875,351477.625,314516.0625,247323.40625,279537.625,251771.484375,250522.296875,15156.0,1.0,3
231971.6875,276732.75,351618.09375,314490.9375,247868.703125,279806.125,251855.0,250612.59375,15157.0,1.0,3
231542.984375,275805.25,350359.78125,314089.21875,246774.171875,279452.53125,251434.703125,250047.90625,15158.0,1.0,3
231003.859375,274960.625,349424.65625,313856.3125,245540.1875,278960.0625,251092.453125,249596.9375,15159.0,1.0,3
231106.046875,275379.6875,350114.0625,314114.71875,245875.90625,279010.21875,251301.484375,249886.34375,15160.0,1.0,3
231703.828125,276466.5,351452.0625,314501.65625,247301.140625,279528.34375,251769.96875,250507.015625,15161.0,1.0,3
231964.0,276727.65625,351610.3125,314484.21875,247862.53125,279798.15625,251855.796875,250616.53125,15162.0,1.0,3
231535.109375,275804.4375,350357.09375,314084.125,246775.25,279443.84375,251434.15625,250053.8125,15163.0,1.0,3
230998.5,274958.46875,349411.0625,313848.46875,245536.15625,278953.28125,251092.71875,249599.078125,15164.0,1.0,3
231100.15625,275372.0,350091.09375,314105.59375,245863.84375,279003.15625,251296.46875,249883.125,15165.0,1.0,3
231686.65625,276446.75,351429.4375,314491.75,247286.484375,279516.71875,251756.734375,250501.015625,15166.0,1.0,3
231961.671875,276725.59375,351603.15625,314483.25,247869.234375,279798.0625,251855.265625,250618.234375,15167.0,1.0,3
231538.25,275808.46875,350354.40625,314080.8125,246793.765625,279449.03125,251444.078125,250062.921875,15168.0,1.0,3
230992.140625,274947.9375,349393.46875,313836.21875,245537.40625,278948.96875,251085.46875,249595.59375,15169.0,1.0,3
231084.765625,275344.28125,350059.90625,314090.03125,245848.28125,278997.53125,251283.59375,249865.609375,15170.0,1.0,3
231674.953125,276426.4375,351398.9375,314476.53125,247269.21875,279510.09375,251755.3125,250492.796875,15171.0,1.0,3
231958.8125,276721.84375,351588.21875,314465.28125,247867.453125,279789.59375,251849.546875,250614.921875,15172.0,1.0,3
231534.9375,275808.8125,350346.96875,314065.53125,246805.65625,279450.03125,251443.71875,250067.578125,15173.0,1.0,3
230985.703125,274942.46875,349376.1875,313820.5625,245547.515625,278950.9375,251083.140625,249598.453125,15174.0,1.0,3
231075.75,275331.125,350026.1875,314069.375,245842.109375,278988.125,251271.53125,249861.578125,15175.0,1.0,3
231670.296875,276419.9375,351369.8125,314458.75,247265.015625,279502.40625,251740.921875,250482.25,15176.0,1.0,3
231954.875,276727.03125,351578.125,314458.46875,247880.765625,279794.78125,251858.9375,250622.34375,15177.0,1.0,3
231541.546875,275826.09375,350346.71875,314062.6875,246832.203125,279459.21875,251461.25,250081.875,15178.0,1.0,3
230989.734375,274949.34375,349359.9375,313812.25,245560.65625,278957.75,251095.03125,249600.953125,15179.0,1.0,3
231066.796875,275320.9375,349987.5625,314053.125,245827.625,278985.1875,251271.4375,249847.90625,15180.0,1.0,3
231655.8125,276404.46875,351335.375,314443.71875,247244.8125,279492.65625,251741.359375,250475.09375,15181.0,1.0,3
231946.921875,276721.03125,351563.375,314450.15625,247879.15625,279787.4375,251850.171875,250625.390625,15182.0,1.0,3
231534.671875,275825.375,350337.15625,314051.3125,246836.671875,279456.53125,251448.203125,250079.28125,15183.0,1.0,3
230985.0,274946.75,349340.625,313795.53125,245556.1875,278950.15625,251079.75,249591.21875,15184.0,1.0,3
231066.09375,275315.9375,349962.4375,314041.21875,245815.5625,278975.625,251263.03125,249852.90625,15185.0,1.0,3
231653.140625,276398.46875,351316.15625,314437.65625,247234.0,279488.8125,251735.1875,250475.53125,15186.0,1.0,3
231950.859375,276728.125,351560.21875,314443.8125,247879.421875,279790.9375,251850.890625,250617.421875,15187.0,1.0,3
231547.1875,275842.25,350343.125,314049.28125,246849.015625,279466.46875,251455.53125,250081.25,15188.0,1.0,3
230997.328125,274954.46875,349339.625,313795.625,245566.828125,278959.8125,251090.03125,249600.421875,15189.0,1.0,3
231061.703125,275297.875,349939.5625,314030.84375,245801.78125,278967.75,251251.765625,249840.84375,15190.0,1.0,3
231639.71875,276374.5,351287.0,314421.03125,247206.1875,279472.71875,251722.234375,250464.265625,15191.0,1.0,3
231948.71875,276721.59375,351551.84375,314439.25,247872.453125,279789.3125,251863.40625,250633.515625,15192.0,1.0,3
231556.125,275844.3125,350346.0,314050.78125,246863.671875,279466.1875,251469.296875,250107.359375,15193.0,1.0,3
231000.640625,274947.03125,349324.96875,313788.03125,245571.03125,278954.53125,251085.203125,249614.734375,15194.0,1.0,3
231059.296875,275279.90625,349913.28125,314018.875,245793.46875,278968.375,251253.109375,249845.9375,15195.0,1.0,3
231638.296875,276359.84375,351267.875,314412.78125,247201.1875,279477.8125,251730.546875,250466.328125,15196.0,1.0,3
231951.75,276721.125,351547.09375,314435.78125,247883.09375,279795.65625,251869.125,250636.375,15197.0,1.0,3
231560.6875,275853.34375,350346.71875,314047.46875,246882.71875,279479.15625,251471.078125,250109.0625,15198.0,1.0,3
231004.03125,274953.65625,349322.5625,313787.03125,245585.953125,278968.1875,251092.796875,249618.578125,15199.0,1.0,3
231063.046875,275285.875,349898.96875,314021.1875,245791.78125,278976.4375,251260.265625,249847.453125,15200.0,1.0,3
231645.09375,276371.1875,351258.5,314418.78125,247199.578125,279481.40625,251735.015625,250472.859375,15201.0,1.0,3
231968.296875,276747.34375,351557.90625,314443.71875,247899.90625,279799.875,251878.421875,250647.828125,15202.0,1.0,3
231580.0,275882.59375,350364.59375,314054.375,246912.140625,279492.5625,251491.828125,250121.3125,15203.0,1.0,3
231013.609375,274966.78125,349322.8125,313785.78125,245604.28125,278977.5,251100.671875,249615.078125,15204.0,1.0,3
231059.921875,275280.0625,349881.15625,314011.28125,245792.484375,278977.40625,251266.515625,249839.9375,15205.0,1.0,3
231642.578125,276370.3125,351240.0625,314408.6875,247195.90625,279484.71875,251742.875,250469.1875,15206.0,1.0,3
231963.90625,276752.6875,351549.40625,314436.5625,247903.03125,279802.625,251881.1875,250645.5,15207.0,1.0,3
231580.71875,275893.9375,350363.53125,314048.09375,246926.171875,279491.15625,251489.328125,250123.546875,15208.0,1.0,3
231013.515625,274972.25,349307.8125,313772.375,245608.046875,278975.8125,251100.3125,249612.578125,15209.0,1.0,3
231045.515625,275266.75,349845.78125,313991.40625,245771.296875,278963.71875,251249.625,249823.140625,15210.0,1.0,3
231625.234375,276353.59375,351206.625,314393.65625,247171.140625,279467.375,251729.109375,250452.5625,15211.0,1.0,3
231956.671875,276748.40625,351532.6875,314428.8125,247898.203125,279790.75,251868.953125,250641.65625,15212.0,1.0,3
231576.515625,275898.21875,350352.4375,314040.78125,246929.921875,279488.71875,251480.46875,250119.34375,15213.0,1.0,3
231004.21875,274968.5,349286.96875,313763.0625,245601.875,278973.03125,251094.953125,249613.46875,15214.0,1.0,3
231041.328125,275255.21875,349814.5625,313976.65625,245753.78125,278959.4375,251238.8125,249815.53125,15215.0,1.0,3
231620.046875,276333.75,351176.6875,314375.875,247150.9375,279456.0,251707.390625,250436.828125,15216.0,1.0,3
231955.859375,276739.03125,351524.46875,314420.5625,247895.703125,279791.0,251868.046875,250641.75,15217.0,1.0,3
231589.296875,275904.9375,350360.9375,314038.8125,246947.984375,279491.6875,251476.1875,250129.078125,15218.0,1.0,3
231015.84375,274966.4375,349282.59375,313753.78125,245614.21875,278963.46875,251073.84375,249605.96875,15219.0,1.0,3
231042.84375,275235.90625,349790.6875,313964.0625,245744.296875,278944.78125,251225.484375,249805.078125,15220.0,1.0,3
231621.21875,276320.25,351158.78125,314370.6875,247142.0,279453.0625,251719.09375,250447.828125,15221.0,1.0,3
231961.3125,276745.1875,351521.6875,314417.4375,247897.9375,279796.1875,251884.140625,250654.984375,15222.0,1.0,3
231596.09375,275919.875,350363.6875,314033.0,246959.78125,279501.6875,251495.40625,250137.484375,15223.0,1.0,3
231018.96875,274976.1875,349274.625,313743.6875,245624.9375,278972.9375,251084.21875,249606.6875,15224.0,1.0,3
231039.078125,275241.0,349773.78125,313957.0,245747.609375,278957.03125,251238.71875,249812.234375,15225.0,1.0,3
231616.75,276325.15625,351141.0,314363.8125,247141.109375,279456.8125,251718.734375,250448.171875,15226.0,1.0,3
231965.15625,276755.8125,351517.6875,314411.1875,247913.40625,279792.28125,251881.28125,250652.65625,15227.0,1.0,3
231596.984375,275928.09375,350364.25,314026.90625,246987.234375,279505.09375,251497.109375,250142.9375,15228.0,1.0,3
231017.359375,274976.0,349266.84375,313737.0625,245642.640625,278980.09375,251087.625,249614.1875,15229.0,1.0,3
231034.171875,275228.5625,349749.125,313945.65625,245745.109375,278953.28125,251232.453125,249808.109375,15230.0,1.0,3
231607.984375,276310.125,351113.03125,314348.59375,247128.859375,279451.90625,251714.984375,250437.8125,15231.0,1.0,3
231966.5,276757.78125,351504.53125,314397.96875,247915.375,279795.03125,251872.515625,250647.28125,15232.0,1.0,3
231610.671875,275941.96875,350367.09375,314019.0625,247007.984375,279514.75,251497.90625,250155.453125,15233.0,1.0,3
231024.875,274979.5625,349257.8125,313722.21875,245650.953125,278985.8125,251086.453125,249617.046875,15234.0,1.0,3
231033.8125,275217.40625,349724.25,313922.3125,245728.296875,278946.46875,251212.15625,249786.390625,15235.0,1.0,3
231604.671875,276297.15625,351091.03125,314330.09375,247105.34375,279438.65625,251687.453125,250420.46875,15236.0,1.0,3
231966.328125,276757.4375,351507.65625,314393.75,247909.296875,279796.375,251871.359375,250654.53125,15237.0,1.0,3
231612.625,275951.0625,350379.96875,314017.78125,247015.046875,279526.28125,251508.71875,250162.875,15238.0,1.0,3
231032.109375,274991.125,349262.21875,313722.03125,245655.25,278999.75,251104.875,249630.828125,15239.0,1.0,3
231029.875,275213.03125,349708.15625,313916.0625,245716.9375,278950.0625,251229.859375,249802.296875,15240.0,1.0,3
231589.390625,276284.65625,351069.125,314318.75,247085.5,279432.65625,251703.28125,250420.109375,15241.0,1.0,3
231953.71875,276753.40625,351494.53125,314386.78125,247902.578125,279794.78125,251887.359375,250651.21875,15242.0,1.0,3
231617.109375,275962.0625,350373.34375,314012.78125,247021.296875,279528.0625,251525.890625,250159.9375,15243.0,1.0,3
231032.015625,274996.28125,349248.09375,313710.40625,245658.46875,279002.0,251119.0,249620.8125,15244.0,1.0,3
231017.0,275203.0,349678.40625,313900.5,245704.328125,278943.15625,251232.8125,249786.03125,15245.0,1.0,3
231584.296875,276278.5625,351043.8125,314310.15625,247077.890625,279420.59375,251693.703125,250412.953125,15246.0,1.0,3
231962.921875,276765.84375,351489.34375,314385.09375,247915.546875,279790.65625,251885.578125,250660.078125,15247.0,1.0,3
231625.5,275975.84375,350376.03125,314012.25,247042.84375,279521.8125,251517.671875,250170.84375,15248.0,1.0,3
231037.296875,274995.75,349235.375,313708.0,245671.703125,278995.65625,251107.203125,249624.203125,15249.0,1.0,3
231021.03125,275192.8125,349651.3125,313895.9375,245702.546875,278942.625,251226.734375,249784.59375,15250.0,1.0,3
231590.375,276272.03125,351019.21875,314307.90625,247072.53125,279427.75,251703.0,250421.71875,15251.0,1.0,3
231975.890625,276770.75,351478.78125,314381.6875,247917.875,279790.46875,251877.625,250663.375,15252.0,1.0,3
231647.59375,275996.3125,350378.1875,314010.375,247064.125,279537.53125,251515.96875,250180.765625,15253.0,1.0,3
231050.0,275007.65625,349225.375,313697.28125,245683.328125,279007.28125,251098.890625,249622.328125,15254.0,1.0,3
231012.0,275180.75,349618.21875,313874.65625,245683.234375,278938.53125,251203.21875,249767.53125,15255.0,1.0,3
231581.34375,276266.59375,350990.09375,314289.0625,247044.71875,279424.71875,251687.890625,250405.4375,15256.0,1.0,3
231975.4375,276780.5,351468.15625,314374.96875,247906.875,279799.5,251894.609375,250664.90625,15257.0,1.0,3
231654.46875,276015.09375,350373.1875,314007.4375,247065.015625,279548.28125,251536.171875,250182.46875,15258.0,1.0,3
231055.890625,275023.03125,349212.5,313694.0625,245682.609375,279019.0,251119.53125,249632.96875,15259.0,1.0,3
231021.921875,275193.34375,349594.25,313866.6875,245668.390625,278944.78125,251219.765625,249773.875,15260.0,1.0,3
231582.234375,276268.5625,350966.46875,314279.9375,247023.71875,279429.625,251700.59375,250407.5,15261.0,1.0,3
231973.65625,276793.75,351459.90625,314365.9375,247898.828125,279804.78125,251904.53125,250668.390625,15262.0,1.0,3
231652.59375,276035.21875,350380.15625,313999.90625,247071.09375,279554.8125,251550.921875,250194.359375,15263.0,1.0,3
231054.375,275036.53125,349214.5625,313684.03125,245683.5,279020.40625,251122.484375,249635.5625,15264.0,1.0,3
231015.65625,275193.4375,349580.9375,313854.1875,245652.203125,278939.21875,251209.125,249765.921875,15265.0,1.0,3
231574.09375,276266.15625,350948.59375,314266.96875,246999.578125,279415.15625,251680.46875,250396.0625,15266.0,1.0,3
231968.921875,276798.03125,351461.34375,314364.875,247894.453125,279800.21875,251892.375,250670.53125,15267.0,1.0,3
231659.390625,276054.59375,350393.90625,314005.28125,247090.40625,279564.625,251546.640625,250207.140625,15268.0,1.0,3
231067.78125,275060.84375,349221.09375,313684.75,245703.984375,279036.875,251131.25,249649.15625,15269.0,1.0,3
231015.390625,275196.46875,349569.5,313849.25,245658.203125,278950.0625,251213.328125,249769.84375,15270.0,1.0,3
231565.875,276259.625,350933.3125,314260.0,247001.984375,279417.65625,251676.90625,250394.625,15271.0,1.0,3
231964.984375,276799.1875,351460.90625,314355.65625,247911.609375,279806.65625,251890.40625,250673.03125,15272.0,1.0,3
231660.015625,276059.625,350401.4375,313999.46875,247119.640625,279572.78125,251549.21875,250220.28125,15273.0,1.0,3
231066.984375,275056.65625,349218.40625,313678.21875,245726.234375,279043.125,251130.4375,249653.265625,15274.0,1.0,3
231014.859375,275187.625,349553.9375,313839.875,245663.390625,278954.34375,251214.3125,249767.703125,15275.0,1.0,3
231565.15625,276255.875,350919.53125,314253.375,247002.96875,279423.28125,251690.84375,250401.15625,15276.0,1.0,3
231970.34375,276808.5625,351458.5,314351.90625,247921.0,279811.5625,251905.875,250679.203125,15277.0,1.0,3
231667.890625,276072.65625,350407.25,313990.875,247136.09375,279580.375,251555.484375,250214.734375,15278.0,1.0,3
231071.453125,275062.375,349217.59375,313668.46875,245737.421875,279051.0,251136.53125,249648.4375,15279.0,1.0,3
231006.1875,275176.625,349535.34375,313826.03125,245655.421875,278957.5625,251220.203125,249754.828125,15280.0,1.0,3
231550.671875,276237.34375,350896.3125,314236.84375,246985.265625,279421.75,251689.234375,250380.3125,15281.0,1.0,3
231961.59375,276800.25,351447.3125,314340.71875,247909.640625,279804.875,251904.0,250673.3125,15282.0,1.0,3
231669.578125,276077.0625,350406.78125,313987.9375,247140.390625,279581.53125,251567.640625,250218.765625,15283.0,1.0,3
231070.015625,275058.0,349202.84375,313659.4375,245733.75,279041.0625,251133.75,249648.703125,15284.0,1.0,3
231002.078125,275160.28125,349503.59375,313811.53125,245634.59375,278937.71875,251201.609375,249751.78125,15285.0,1.0,3
231550.5,276225.375,350865.90625,314223.875,246961.84375,279402.71875,251669.75,250381.84375,15286.0,1.0,3
231966.765625,276804.71875,351434.53125,314333.75,247906.15625,279802.8125,251899.515625,250675.71875,15287.0,1.0,3
231687.546875,276100.90625,350410.90625,313983.90625,247158.09375,279590.65625,251574.53125,250227.96875,15288.0,1.0,3
231085.84375,275079.0,349200.4375,313648.09375,245748.6875,279052.5,251138.9375,249652.8125,15289.0,1.0,3
230998.671875,275159.8125,349477.9375,313792.75,245625.828125,278934.5,251193.75,249740.609375,15290.0,1.0,3
231547.8125,276225.5625,350844.4375,314211.4375,246951.375,279400.21875,251668.3125,250366.734375,15291.0,1.0,3
231976.78125,276820.46875,351435.25,314330.625,247916.0,279808.0,251909.71875,250674.640625,15292.0,1.0,3
231689.078125,276112.625,350414.125,313978.46875,247175.53125,279592.09375,251578.8125,250233.515625,15293.0,1.0,3
231082.09375,275082.75,349193.8125,313642.90625,245763.96875,279054.21875,251146.359375,249662.203125,15294.0,1.0,3
230996.265625,275157.84375,349460.34375,313782.21875,245628.875,278936.28125,251204.03125,249748.21875,15295.0,1.0,3
231537.53125,276212.21875,350820.84375,314196.53125,246945.03125,279393.40625,251670.1875,250362.53125,15296.0,1.0,3
231965.25,276808.125,351421.90625,314320.0,247920.015625,279803.34375,251916.15625,250680.453125,15297.0,1.0,3
231686.484375,276112.8125,350413.9375,313972.8125,247198.859375,279604.0625,251597.421875,250246.828125,15298.0,1.0,3
231076.90625,275072.5625,349180.5625,313629.78125,245778.0,279052.5,251144.125,249655.140625,15299.0,1.0,3
230992.140625,275137.90625,349432.4375,313770.125,245627.890625,278926.90625,251193.03125,249735.515625,15300.0,1.0,3
231526.0,276186.21875,350786.15625,314178.90625,246927.6875,279379.65625,251652.140625,250353.671875,15301.0,1.0,3
231958.1875,276797.21875,351402.4375,314304.34375,247906.421875,279797.625,251903.375,250676.703125,15302.0,1.0,3
231695.15625,276117.71875,350409.125,313964.59375,247199.390625,279600.125,251587.21875,250254.4375,15303.0,1.0,3
231089.515625,275075.59375,349171.8125,313621.28125,245778.625,279057.4375,251135.984375,249658.8125,15304.0,1.0,3
230989.375,275117.25,349401.0625,313752.53125,245605.71875,278925.46875,251185.875,249730.78125,15305.0,1.0,3
231526.171875,276168.5,350758.0625,314169.0625,246904.4375,279381.1875,251660.265625,250358.6875,15306.0,1.0,3
231963.90625,276792.9375,351390.375,314298.0,247899.984375,279795.84375,251904.890625,250679.921875,15307.0,1.0,3
231709.015625,276129.25,350413.78125,313958.78125,247208.875,279607.90625,251597.421875,250256.765625,15308.0,1.0,3
231106.859375,275089.90625,349177.28125,313620.5625,245787.75,279075.9375,251165.765625,249678.828125,15309.0,1.0,3
230998.578125,275118.6875,349392.28125,313748.21875,245594.984375,278929.40625,251195.265625,249736.140625,15310.0,1.0,3
231522.953125,276157.59375,350741.96875,314158.25,246878.25,279369.90625,251652.40625,250353.3125,15311.0,1.0,3
231972.40625,276798.28125,351391.96875,314297.625,247893.28125,279791.8125,251915.4375,250686.984375,15312.0,1.0,3
231718.84375,276139.09375,350421.09375,313961.375,247218.625,279606.46875,251609.75,250264.984375,15313.0,1.0,3
231113.65625,275090.71875,349169.3125,313609.84375,245791.234375,279058.40625,251147.15625,249666.578125,15314.0,1.0,3
230992.765625,275105.8125,349366.71875,313731.59375,245586.140625,278914.8125,251180.6875,249720.9375,15315.0,1.0,3
231519.921875,276151.875,350716.40625,314145.125,246870.640625,279362.3125,251645.25,250335.171875,15316.0,1.0,3
231976.34375,276805.28125,351383.375,314293.09375,247900.53125,279796.5625,251915.703125,250681.171875,15317.0,1.0,3
231735.03125,276162.0,350429.40625,313959.6875,247243.5625,279617.03125,251603.578125,250267.9375,15318.0,1.0,3
231125.1875,275109.21875,349175.84375,313612.78125,245817.875,279082.375,251161.734375,249676.6875,15319.0,1.0,3
230993.578125,275108.21875,349354.90625,313729.375,245592.84375,278927.25,251183.90625,249719.875,15320.0,1.0,3
231511.609375,276143.21875,350696.5625,314139.125,246864.390625,279358.09375,251635.140625,250330.78125,15321.0,1.0,3
231971.328125,276805.0,351373.28125,314283.0625,247899.546875,279787.625,251901.84375,250680.8125,15322.0,1.0,3
231734.765625,276170.46875,350432.28125,313953.59375,247261.0,279619.875,251608.953125,250281.4375,15323.0,1.0,3
231125.0,275116.09375,349164.9375,313598.03125,245831.828125,279080.0625,251155.296875,249680.796875,15324.0,1.0,3
230990.8125,275107.0625,349325.78125,313709.0625,245586.765625,278925.46875,251177.921875,249708.34375,15325.0,1.0,3
231508.296875,276141.78125,350673.6875,314129.90625,246859.203125,279372.0625,251651.953125,250326.40625,15326.0,1.0,3
231966.765625,276808.40625,351362.5625,314279.9375,247904.640625,279796.75,251915.703125,250679.296875,15327.0,1.0,3
231732.96875,276181.125,350426.28125,313950.375,247271.640625,279618.625,251611.71875,250277.765625,15328.0,1.0,3
231126.796875,275122.375,349154.65625,313595.53125,245838.625,279072.71875,251155.390625,249677.84375,15329.0,1.0,3
230989.828125,275096.0625,349301.1875,313703.96875,245581.21875,278909.8125,251174.15625,249711.734375,15330.0,1.0,3
231496.9375,276117.8125,350637.8125,314116.21875,246833.546875,279341.5625,251629.328125,250321.671875,15331.0,1.0,3
231959.984375,276797.65625,351343.96875,314272.15625,247889.53125,279776.96875,251902.03125,250676.703125,15332.0,1.0,3
231739.859375,276190.0625,350430.21875,313947.15625,247282.640625,279620.25,251612.703125,250277.765625,15333.0,1.0,3
231133.953125,275133.28125,349155.375,313587.65625,245848.546875,279080.9375,251161.734375,249681.328125,15334.0,1.0,3
230986.96875,275096.96875,349284.65625,313690.84375,245572.015625,278916.34375,251182.03125,249710.21875,15335.0,1.0,3
231492.203125,276113.0,350615.75,314103.8125,246820.140625,279342.28125,251630.40625,250315.953125,15336.0,1.0,3
231961.765625,276799.09375,351334.65625,314262.21875,247890.515625,279780.28125,251901.765625,250683.40625,15337.0,1.0,3
231748.078125,276202.3125,350430.3125,313937.96875,247295.328125,279632.9375,251620.84375,250292.078125,15338.0,1.0,3
231141.28125,275137.125,349147.6875,313579.25,245862.9375,279097.40625,251166.125,249689.03125,15339.0,1.0,3
230983.46875,275079.8125,349256.75,313677.78125,245567.8125,278915.625,251170.234375,249706.375,15340.0,1.0,3
231491.125,276101.71875,350587.21875,314090.40625,246810.5625,279348.28125,251630.59375,250312.8125,15341.0,1.0,3
231967.40625,276802.59375,351320.28125,314253.5625,247893.109375,279787.09375,251910.78125,250673.9375,15342.0,1.0,3
231764.359375,276216.0625,350432.28125,313939.90625,247320.0,279641.0,251637.203125,250296.28125,15343.0,1.0,3
231151.296875,275139.78125,349140.625,313573.09375,245881.09375,279100.25,251175.0625,249689.03125,15344.0,1.0,3
230985.703125,275069.34375,349233.96875,313660.53125,245564.59375,278913.9375,251167.375,249690.359375,15345.0,1.0,3
231493.359375,276088.59375,350563.96875,314071.15625,246795.546875,279334.21875,251618.609375,250292.078125,15346.0,1.0,3
231967.40625,276793.28125,351311.6875,314238.375,247890.421875,279776.0,251904.078125,250672.328125,15347.0,1.0,3
231757.828125,276209.375,350428.53125,313923.03125,247324.921875,279634.90625,251628.890625,250299.765625,15348.0,1.0,3
231151.203125,275141.40625,349134.8125,313560.125,245884.125,279099.625,251176.3125,249694.390625,15349.0,1.0,3
230987.234375,275067.28125,349213.5625,313647.90625,245553.6875,278911.25,251163.796875,249690.28125,15350.0,1.0,3
231478.96875,276072.5625,350533.3125,314058.46875,246773.90625,279327.15625,251609.9375,250293.140625,15351.0,1.0,3
231956.3125,276794.90625,351301.40625,314239.4375,247887.109375,279783.59375,251912.578125,250682.0625,15352.0,1.0,3
231760.15625,276230.90625,350436.84375,313927.75,247341.5625,279645.46875,251631.84375,250307.453125,15353.0,1.0,3
231150.75,275157.21875,349135.25,313558.96875,245897.1875,279103.75,251167.734375,249697.875,15354.0,1.0,3
230973.90625,275067.65625,349196.125,313643.0,245550.828125,278913.5625,251158.078125,249696.984375,15355.0,1.0,3
231465.5625,276070.0625,350511.84375,314048.8125,246760.765625,279322.4375,251602.328125,250282.421875,15356.0,1.0,3
231955.6875,276800.8125,351289.5,314227.375,247883.890625,279775.28125,251906.234375,250671.609375,15357.0,1.0,3
231769.453125,276247.71875,350440.3125,313923.90625,247360.328125,279650.65625,251642.484375,250313.078125,15358.0,1.0,3
231158.265625,275169.375,349129.15625,313547.6875,245914.171875,279104.5625,251170.3125,249692.78125,15359.0,1.0,3
230972.75,275059.875,349168.15625,313621.53125,245545.375,278899.53125,251146.71875,249677.84375,15360.0,1.0,3
231465.828125,276062.03125,350486.90625,314035.5,246758.53125,279321.53125,251603.578125,250280.1875,15361.0,1.0,3
231949.96875,276793.8125,351275.03125,314218.6875,247886.125,279771.96875,251904.703125,250678.484375,15362.0,1.0,3
231762.390625,276247.09375,350434.0625,313914.71875,247367.296875,279647.96875,251646.046875,250321.671875,15363.0,1.0,3
231159.25,275173.5,349124.0625,313543.84375,245926.421875,279110.71875,251178.28125,249701.09375,15364.0,1.0,3
230973.109375,275054.0625,349147.9375,313615.65625,245541.25,278894.1875,251143.671875,249677.9375,15365.0,1.0,3
231454.65625,276043.0625,350456.0625,314020.5625,246733.765625,279300.15625,251589.109375,250275.265625,15366.0,1.0,3
231942.625,276784.625,351258.03125,314206.625,247870.84375,279760.15625,251896.84375,250677.234375,15367.0,1.0,3
231772.84375,276258.09375,350435.0625,313907.90625,247377.234375,279650.28125,251649.90625,250337.578125,15368.0,1.0,3
231174.0,275181.46875,349119.0625,313532.21875,245936.96875,279113.9375,251183.109375,249717.09375,15369.0,1.0,3
230969.4375,275036.53125,349118.0,313592.03125,245532.5,278892.21875,251138.21875,249672.75,15370.0,1.0,3
231442.765625,276013.03125,350419.65625,313999.09375,246714.28125,279293.1875,251583.296875,250260.421875,15371.0,1.0,3
231954.34375,276777.28125,351245.0625,314200.375,247870.484375,279766.15625,251907.21875,250677.953125,15372.0,1.0,3
231788.671875,276257.125,350431.375,313902.71875,247389.65625,279650.5625,251648.015625,250337.140625,15373.0,1.0,3
231172.921875,275165.53125,349105.375,313518.71875,245942.515625,279109.71875,251172.734375,249710.03125,15374.0,1.0,3
230962.015625,275015.25,349093.0625,313578.71875,245525.078125,278888.375,251130.0,249669.359375,15375.0,1.0,3
231442.671875,276001.9375,350394.71875,313988.65625,246701.9375,279287.21875,251572.65625,250258.71875,15376.0,1.0,3
231945.40625,276769.78125,351228.625,314186.96875,247860.828125,279756.40625,251892.375,250675.453125,15377.0,1.0,3
231782.765625,276265.6875,350436.21875,313897.53125,247399.40625,279659.3125,251653.03125,250347.328125,15378.0,1.0,3
231174.453125,275183.4375,349110.65625,313523.09375,245962.1875,279136.03125,251197.046875,249738.203125,15379.0,1.0,3
230958.625,275019.1875,349076.6875,313573.71875,245521.046875,278896.9375,251141.0,249676.59375,15380.0,1.0,3
231436.671875,276000.34375,350374.59375,313980.25,246690.671875,279287.375,251573.71875,250256.40625,15381.0,1.0,3
231933.15625,276765.40625,351212.8125,314176.21875,247852.6875,279747.21875,251887.28125,250671.078125,15382.0,1.0,3
231775.984375,276268.8125,350428.34375,313888.96875,247404.140625,279656.1875,251651.421875,250342.5,15383.0,1.0,3
231175.25,275188.6875,349096.8125,313508.25,245963.796875,279124.84375,251176.40625,249717.90625,15384.0,1.0,3
230958.984375,275019.28125,349058.8125,313563.78125,245518.640625,278899.96875,251132.328125,249665.515625,15385.0,1.0,3
231419.875,275983.53125,350346.09375,313970.59375,246672.515625,279277.375,251569.609375,250256.84375,15386.0,1.0,3
231921.71875,276764.15625,351199.65625,314173.1875,247846.078125,279748.09375,251894.15625,250679.125,15387.0,1.0,3
231780.8125,276285.53125,350433.71875,313884.59375,247417.375,279660.9375,251644.171875,250345.0,15388.0,1.0,3
231181.78125,275199.6875,349098.21875,313498.0625,245976.671875,279131.0,251173.359375,249718.0,15389.0,1.0,3
230956.46875,275008.09375,349032.78125,313539.03125,245507.375,278884.4375,251114.703125,249647.8125,15390.0,1.0,3
231414.5,275968.59375,350313.71875,313940.5625,246650.53125,279264.40625,251550.921875,250228.953125,15391.0,1.0,3
231923.40625,276756.375,351184.46875,314150.28125,247838.75,279743.71875,251888.703125,250664.8125,15392.0,1.0,3
231789.75,276287.6875,350433.4375,313871.71875,247430.0625,279663.78125,251655.890625,250349.734375,15393.0,1.0,3
231184.90625,275197.28125,349090.625,313483.78125,245986.40625,279122.78125,251175.140625,249724.78125,15394.0,1.0,3
230950.65625,274998.09375,349011.25,313525.53125,245498.34375,278880.5,251118.109375,249654.328125,15395.0,1.0,3
231405.03125,275951.34375,350289.21875,313931.96875,246629.78125,279259.59375,251549.578125,250228.234375,15396.0,1.0,3
231922.78125,276755.46875,351172.125,314149.84375,247828.28125,279736.21875,251878.15625,250669.1875,15397.0,1.0,3
231800.390625,276303.6875,350435.6875,313877.4375,247435.515625,279661.71875,251651.953125,250367.4375,15398.0,1.0,3
231199.578125,275212.65625,349093.21875,313491.71875,245996.875,279135.40625,251185.15625,249737.390625,15399.0,1.0,3
230956.734375,274994.59375,348995.5,313530.875,245494.40625,278889.15625,251127.765625,249665.953125,15400.0,1.0,3
231407.4375,275943.03125,350262.9375,313931.875,246612.4375,279256.4375,251544.3125,250226.984375,15401.0,1.0,3
231925.5625,276752.4375,351154.9375,314147.15625,247816.3125,279730.21875,251873.234375,250659.8125,15402.0,1.0,3
231807.1875,276310.84375,350436.125,313879.40625,247446.078125,279668.71875,251660.0,250369.953125,15403.0,1.0,3
231204.578125,275215.53125,349090.09375,313491.90625,246009.5625,279139.25,251186.328125,249746.953125,15404.0,1.0,3
230952.359375,274981.625,348970.90625,313514.34375,245483.234375,278871.8125,251104.421875,249648.171875,15405.0,1.0,3
231399.578125,275928.1875,350236.125,313914.34375,246594.5625,279246.53125,251532.5,250212.953125,15406.0,1.0,3
231926.453125,276751.09375,351148.6875,314142.96875,247819.4375,279737.46875,251879.234375,250667.3125,15407.0,1.0,3
231818.359375,276325.6875,350444.4375,313876.53125,247470.390625,279678.53125,251671.09375,250380.59375,15408.0,1.0,3
231215.75,275233.03125,349093.5,313483.9375,246034.15625,279150.15625,251195.984375,249754.734375,15409.0,1.0,3
230953.078125,274983.0625,348957.15625,313505.3125,245494.046875,278886.65625,251119.71875,249652.8125,15410.0,1.0,3
231399.484375,275923.4375,350214.40625,313904.4375,246597.953125,279249.21875,251544.578125,250217.78125,15411.0,1.0,3
231928.59375,276751.625,351129.28125,314125.0,247821.84375,279730.5625,251876.71875,250667.765625,15412.0,1.0,3
231811.5625,276326.59375,350431.90625,313857.21875,247479.234375,279674.53125,251663.046875,250373.796875,15413.0,1.0,3
231205.46875,275230.53125,349075.96875,313464.0,246042.03125,279150.875,251198.296875,249745.796875,15414.0,1.0,3
230943.953125,274971.4375,348923.1875,313480.0,245483.59375,278874.25,251107.203125,249635.203125,15415.0,1.0,3
231381.328125,275898.40625,350168.96875,313870.90625,246562.734375,279223.46875,251511.5,250183.4375,15416.0,1.0,3
231911.15625,276737.5,351105.59375,314103.71875,247798.515625,279716.09375,251865.640625,250651.40625,15417.0,1.0,3
231811.03125,276333.65625,350431.125,313849.875,247479.515625,279673.0,251663.125,250374.953125,15418.0,1.0,3
231214.765625,275237.53125,349071.15625,313454.96875,246045.25,279144.78125,251181.40625,249731.9375,15419.0,1.0,3
230951.46875,274968.75,348904.5,313470.625,245473.75,278869.75,251095.3125,249622.421875,15420.0,1.0,3
231393.234375,275901.09375,350154.5625,313872.34375,246557.28125,279228.1875,251518.734375,250182.375,15421.0,1.0,3
231927.171875,276748.9375,351102.46875,314111.84375,247803.875,279724.59375,251874.75,250648.546875,15422.0,1.0,3
231826.140625,276352.59375,350440.5,313856.59375,247494.4375,279678.53125,251672.421875,250377.546875,15423.0,1.0,3
231233.1875,275259.96875,349082.40625,313461.15625,246064.46875,279158.90625,251201.796875,249752.953125,15424.0,1.0,3
230951.5625,274972.4375,348895.90625,313467.5,245473.484375,278881.3125,251110.15625,249635.734375,15425.0,1.0,3
231373.28125,275885.28125,350127.21875,313860.78125,246533.578125,279224.0,251517.671875,250184.78125,15426.0,1.0,3
231912.5,276740.0,351086.46875,314105.0625,247788.859375,279720.125,251878.78125,250656.40625,15427.0,1.0,3
231822.734375,276355.8125,350437.8125,313854.625,247499.171875,279683.71875,251685.84375,250390.953125,15428.0,1.0,3
231231.9375,275263.53125,349077.3125,313456.6875,246074.203125,279163.5625,251212.96875,249760.90625,15429.0,1.0,3
230950.125,274964.375,348875.78125,313458.28125,245471.703125,278878.96875,251115.0625,249632.96875,15430.0,1.0,3
231374.8125,275874.71875,350108.09375,313853.90625,246527.5,279223.5625,251527.59375,250174.234375,15431.0,1.0,3
231917.0625,276738.75,351076.90625,314098.625,247791.625,279723.59375,251890.21875,250647.015625,15432.0,1.0,3
231835.4375,276365.21875,350438.28125,313845.15625,247518.484375,279681.40625,251679.84375,250387.203125,15433.0,1.0,3
231232.734375,275258.71875,349064.25,313438.625,246085.65625,279150.59375,251197.234375,249756.171875,15434.0,1.0,3
230941.453125,274944.53125,348842.53125,313433.6875,245460.4375,278858.84375,251092.53125,249623.75,15435.0,1.0,3
231366.3125,275851.65625,350068.21875,313829.0625,246502.5625,279201.65625,251497.28125,250167.0,15436.0,1.0,3
231915.453125,276725.0625,351051.875,314081.625,247777.328125,279706.0625,251870.375,250651.9375,15437.0,1.0,3
231845.890625,276369.5,350432.8125,313840.21875,247529.671875,279685.4375,251689.0625,250404.28125,15438.0,1.0,3
231253.84375,275270.875,349062.75,313437.625,246105.6875,279167.65625,251202.953125,249763.765625,15439.0,1.0,3
230956.65625,274945.0625,348824.46875,313428.78125,245466.0625,278873.0625,251091.109375,249622.140625,15440.0,1.0,3
231363.71875,275839.5,350038.875,313819.3125,246491.46875,279204.25,251493.34375,250160.203125,15441.0,1.0,3
231902.3125,276711.46875,351028.625,314069.21875,247763.203125,279699.8125,251854.375,250642.8125,15442.0,1.0,3
231845.8125,276379.0625,350431.84375,313834.0625,247531.640625,279686.59375,251681.8125,250404.453125,15443.0,1.0,3
231254.828125,275284.46875,349062.84375,313435.75,246112.203125,279175.4375,251212.4375,249774.3125,15444.0,1.0,3
230949.328125,274948.90625,348810.4375,313423.875,245458.203125,278872.625,251092.453125,249616.875,15445.0,1.0,3
231353.171875,275840.3125,350020.28125,313813.59375,246474.484375,279203.625,251498.078125,250152.59375,15446.0,1.0,3
231906.328125,276728.03125,351026.125,314068.21875,247760.15625,279705.1875,251869.21875,250642.28125,15447.0,1.0,3
231840.703125,276391.59375,350438.34375,313829.6875,247538.703125,279692.5625,251697.734375,250405.53125,15448.0,1.0,3
231244.546875,275295.28125,349066.6875,313425.84375,246116.765625,279179.28125,251226.640625,249775.21875,15449.0,1.0,3
230938.0625,274948.03125,348795.9375,313408.84375,245448.0,278869.3125,251103.171875,249617.3125,15450.0,1.0,3
231346.90625,275832.96875,349999.375,313799.375,246459.5625,279194.5,251502.375,250150.8125,15451.0,1.0,3
231891.84375,276722.5625,351010.8125,314057.03125,247751.3125,279698.75,251880.75,250642.8125,15452.0,1.0,3
231841.6875,276408.9375,350440.6875,313830.03125,247555.234375,279703.21875,251720.34375,250419.03125,15453.0,1.0,3
231257.859375,275317.90625,349069.28125,313428.96875,246142.421875,279188.40625,251237.203125,249788.984375,15454.0,1.0,3
230946.8125,274958.5625,348783.0625,313404.375,245462.484375,278871.03125,251104.515625,249623.84375,15455.0,1.0,3
231341.28125,275829.5625,349975.40625,313789.09375,246460.0,279193.40625,251501.84375,250148.046875,15456.0,1.0,3
231887.640625,276719.25,350995.53125,314046.40625,247749.96875,279690.0625,251871.359375,250639.78125,15457.0,1.0,3
231844.375,276413.40625,350442.28125,313824.125,247569.1875,279698.9375,251715.171875,250425.734375,15458.0,1.0,3
231268.421875,275329.34375,349073.46875,313423.78125,246160.671875,279199.40625,251248.46875,249799.53125,15459.0,1.0,3
230952.359375,274958.125,348773.40625,313397.3125,245462.671875,278881.21875,251105.59375,249626.4375,15460.0,1.0,3
231337.53125,275815.625,349952.4375,313781.03125,246441.671875,279190.03125,251496.390625,250156.0,15461.0,1.0,3
231896.59375,276726.0625,350985.53125,314049.34375,247746.84375,279706.53125,251890.046875,250656.046875,15462.0,1.0,3
231874.140625,276444.875,350447.75,313827.0,247585.453125,279721.375,251733.765625,250435.75,15463.0,1.0,3
231291.296875,275351.875,349071.84375,313419.9375,246178.015625,279215.9375,251255.875,249805.25,15464.0,1.0,3
230960.3125,274963.75,348750.96875,313387.9375,245463.375,278896.21875,251119.09375,249630.375,15465.0,1.0,3
231336.0,275815.09375,349922.84375,313766.46875,246424.328125,279196.8125,251498.625,250140.171875,15466.0,1.0,3
231896.765625,276732.125,350966.03125,314035.6875,247732.703125,279704.65625,251882.625,250635.390625,15467.0,1.0,3
231874.234375,276462.3125,350443.8125,313820.65625,247585.375,279725.3125,251737.515625,250436.015625,15468.0,1.0,3
231291.65625,275372.25,349068.1875,313413.3125,246178.640625,279222.46875,251261.421875,249800.515625,15469.0,1.0,3
230952.71875,274970.375,348730.40625,313371.5625,245445.953125,278893.09375,251109.515625,249607.578125,15470.0,1.0,3
231324.109375,275814.8125,349898.53125,313751.8125,246400.546875,279192.96875,251493.171875,250130.25,15471.0,1.0,3
231883.171875,276733.5625,350954.9375,314026.1875,247721.984375,279705.375,251882.359375,250643.71875,15472.0,1.0,3
231872.984375,276479.8125,350450.4375,313816.8125,247596.984375,279738.34375,251743.328125,250449.96875,15473.0,1.0,3
231287.734375,275384.875,349069.1875,313402.84375,246192.578125,279237.21875,251259.640625,249810.078125,15474.0,1.0,3
230945.03125,274969.5625,348718.78125,313359.75,245449.96875,278906.78125,251115.953125,249621.078125,15475.0,1.0,3
231316.15625,275807.03125,349879.46875,313738.84375,246395.1875,279202.8125,251499.421875,250135.703125,15476.0,1.0,3
231883.171875,276733.65625,350944.9375,314015.75,247724.9375,279714.3125,251887.984375,250644.703125,15477.0,1.0,3
231871.015625,276480.71875,350448.0,313804.90625,247612.09375,279745.5,251749.140625,250452.46875,15478.0,1.0,3
231297.734375,275388.78125,349070.59375,313396.3125,246214.84375,279246.71875,251272.421875,249817.765625,15479.0,1.0,3
230944.21875,274950.25,348700.0,313347.6875,245452.296875,278899.625,251107.015625,249613.46875,15480.0,1.0,3
231305.78125,275774.75,349849.15625,313726.5,246379.0,279189.03125,251487.453125,250123.28125,15481.0,1.0,3
231873.609375,276706.84375,350927.84375,314007.25,247709.546875,279702.6875,251881.640625,250641.390625,15482.0,1.0,3
231876.203125,276473.03125,350459.09375,313802.6875,247618.265625,279744.25,251751.015625,250454.265625,15483.0,1.0,3
231293.8125,275378.0625,349081.4375,313394.09375,246222.53125,279246.4375,251274.84375,249822.78125,15484.0,1.0,3
230935.828125,274937.46875,348695.8125,313341.34375,245442.375,278898.65625,251109.796875,249610.25,15485.0,1.0,3
231305.609375,275771.46875,349842.375,313719.625,246362.8125,279189.3125,251494.59375,250116.390625,15486.0,1.0,3
231878.4375,276715.5,350930.1875,314005.625,247701.6875,279713.15625,251904.53125,250645.765625,15487.0,1.0,3
231882.90625,276492.78125,350470.8125,313805.09375,247622.828125,279754.28125,251771.21875,250466.859375,15488.0,1.0,3
231303.8125,275399.25,349088.03125,313392.46875,246231.125,279251.1875,251286.640625,249834.40625,15489.0,1.0,3
230939.75,274944.1875,348683.9375,313334.625,245437.90625,278902.125,251110.953125,249612.578125,15490.0,1.0,3
231301.5,275765.65625,349818.125,313711.65625,246342.875,279185.71875,251486.90625,250110.046875,15491.0,1.0,3
231877.09375,276714.96875,350912.40625,313996.59375,247683.8125,279698.03125,251882.53125,250628.609375,15492.0,1.0,3
231894.0,276510.75,350472.5,313808.21875,247631.59375,279756.15625,251768.1875,250470.703125,15493.0,1.0,3
231314.375,275418.125,349088.9375,313391.0625,246244.984375,279265.65625,251286.90625,249831.1875,15494.0,1.0,3
230947.796875,274948.1875,348662.65625,313320.0625,245434.140625,278901.5,251101.125,249594.703125,15495.0,1.0,3
231305.078125,275756.15625,349787.28125,313691.8125,246328.390625,279173.75,251471.703125,250093.5,15496.0,1.0,3
231881.921875,276714.0625,350894.0625,313986.3125,247682.28125,279695.78125,251877.4375,250635.3125,15497.0,1.0,3
231898.015625,276512.375,350461.6875,313793.65625,247641.25,279749.875,251765.140625,250473.125,15498.0,1.0,3
231317.40625,275413.90625,349072.75,313369.15625,246253.296875,279248.65625,251280.5625,249828.765625,15499.0,1.0,3
230940.015625,274933.71875,348636.8125,313296.28125,245433.25,278888.4375,251093.609375,249593.0,15500.0,1.0,3
231282.09375,275729.4375,349747.40625,313661.96875,246311.234375,279159.71875,251459.1875,250079.375,15501.0,1.0,3
231860.28125,276688.5,350861.25,313957.90625,247669.5,279684.09375,251872.96875,250619.65625,15502.0,1.0,3
231891.21875,276502.34375,350448.0,313773.4375,247649.390625,279749.875,251767.734375,250472.3125,15503.0,1.0,3
231321.4375,275414.09375,349067.5625,313360.9375,246274.125,279257.6875,251287.984375,249841.015625,15504.0,1.0,3
230946.015625,274927.625,348619.375,313286.90625,245441.484375,278886.03125,251099.6875,249601.140625,15505.0,1.0,3
231270.734375,275704.125,349717.5625,313650.5,246299.6875,279148.34375,251456.6875,250081.15625,15506.0,1.0,3
231848.390625,276671.6875,350844.71875,313954.3125,247661.625,279676.9375,251872.96875,250626.375,15507.0,1.0,3
231889.875,276506.65625,350454.34375,313777.1875,247659.21875,279746.3125,251766.125,250481.890625,15508.0,1.0,3
231320.71875,275418.46875,349069.71875,313358.5,246286.1875,279256.8125,251288.0625,249844.859375,15509.0,1.0,3
230934.296875,274915.5625,348598.8125,313277.9375,245433.25,278884.0625,251091.28125,249599.4375,15510.0,1.0,3
231271.984375,275702.4375,349692.96875,313646.5,246284.140625,279145.84375,251452.84375,250083.671875,15511.0,1.0,3
231853.21875,276678.21875,350832.0,313951.09375,247654.84375,279674.6875,251877.4375,250630.65625,15512.0,1.0,3
231892.203125,276518.71875,350451.59375,313775.21875,247669.953125,279753.65625,251776.59375,250488.765625,15513.0,1.0,3
231320.984375,275432.34375,349065.5,313355.8125,246299.78125,279262.8125,251290.03125,249852.546875,15514.0,1.0,3
230929.828125,274921.375,348580.65625,313271.96875,245430.65625,278885.6875,251096.203125,249602.03125,15515.0,1.0,3
231261.34375,275699.125,349669.71875,313639.15625,246270.546875,279137.53125,251442.203125,250078.390625,15516.0,1.0,3
231851.265625,276682.5,350819.40625,313948.40625,247649.109375,279667.625,251863.140625,250633.4375,15517.0,1.0,3
231897.65625,276529.1875,350450.59375,313770.40625,247677.546875,279745.875,251762.1875,250486.53125,15518.0,1.0,3
231328.765625,275440.1875,349061.5,313346.34375,246310.25,279257.4375,251277.15625,249848.265625,15519.0,1.0,3
230938.0625,274917.34375,348562.875,313256.40625,245433.703125,278879.0625,251073.3125,249582.359375,15520.0,1.0,3
231269.484375,275684.46875,349642.625,313618.5,246263.671875,279131.71875,251427.546875,250057.109375,15521.0,1.0,3
231854.921875,276665.0,350795.28125,313927.59375,247644.015625,279660.5625,251851.953125,250612.78125,15522.0,1.0,3
231908.125,276530.4375,350446.03125,313761.375,247693.453125,279758.46875,251774.4375,250492.34375,15523.0,1.0,3
231345.21875,275448.25,349063.0,313341.78125,246337.15625,279280.15625,251292.625,249857.109375,15524.0,1.0,3
230949.671875,274914.40625,348548.125,313246.21875,245446.578125,278893.375,251088.515625,249598.640625,15525.0,1.0,3
231257.328125,275662.5625,349614.8125,313602.6875,246253.921875,279138.25,251437.109375,250063.546875,15526.0,1.0,3
231851.171875,276659.96875,350781.5,313918.09375,247644.5625,279664.9375,251860.453125,250614.296875,15527.0,1.0,3
231912.765625,276539.09375,350446.59375,313755.84375,247711.796875,279759.53125,251781.328125,250505.484375,15528.0,1.0,3
231356.921875,275463.34375,349064.625,313335.8125,246362.640625,279288.46875,251306.3125,249866.5,15529.0,1.0,3
230943.515625,274911.53125,348529.15625,313236.125,245449.078125,278898.1875,251091.734375,249589.6875,15530.0,1.0,3
231250.09375,275655.5,349584.875,313594.90625,246237.828125,279123.875,251426.65625,250052.375,15531.0,1.0,3
231837.84375,276651.75,350751.71875,313906.40625,247618.984375,279642.875,251841.765625,250602.5,15532.0,1.0,3
231909.46875,276551.8125,350435.84375,313748.0625,247703.03125,279751.59375,251771.765625,250494.765625,15533.0,1.0,3
231353.0,275481.78125,349061.5,313334.0,246363.890625,279288.71875,251309.078125,249871.328125,15534.0,1.0,3
230932.515625,274919.75,348514.125,313233.0625,245441.921875,278897.84375,251092.796875,249595.140625,15535.0,1.0,3
231237.5625,275655.5,349555.09375,313581.65625,246219.9375,279117.78125,251420.390625,250039.328125,15536.0,1.0,3
231828.109375,276653.90625,350729.46875,313897.90625,247609.234375,279648.15625,251851.0625,250597.3125,15537.0,1.0,3
231897.296875,276555.46875,350427.625,313744.03125,247707.9375,279760.09375,251780.96875,250498.78125,15538.0,1.0,3
231345.84375,275486.34375,349051.65625,313326.40625,246373.71875,279292.125,251306.484375,249873.296875,15539.0,1.0,3
230935.375,274917.0,348489.8125,313217.34375,245440.859375,278887.28125,251076.359375,249580.3125,15540.0,1.0,3
231234.0,275641.625,349525.5,313569.34375,246210.5625,279113.03125,251418.328125,250035.03125,15541.0,1.0,3
231820.953125,276643.53125,350709.53125,313888.96875,247602.796875,279643.21875,251847.21875,250599.546875,15542.0,1.0,3
231900.609375,276560.375,350427.1875,313738.5,247720.015625,279764.8125,251784.09375,250506.03125,15543.0,1.0,3
231355.234375,275492.5,349051.46875,313316.5,246386.515625,279296.9375,251309.53125,249877.859375,15544.0,1.0,3
230938.328125,274910.03125,348475.5,313204.09375,245440.140625,278888.1875,251078.140625,249582.71875,15545.0,1.0,3
231234.171875,275624.375,349499.59375,313550.1875,246195.625,279106.5,251406.71875,250027.4375,15546.0,1.0,3
231827.75,276630.46875,350691.5625,313872.40625,247595.46875,279638.75,251839.625,250593.109375,15547.0,1.0,3
231909.28125,276554.03125,350422.25,313727.65625,247726.984375,279761.59375,251786.421875,250510.765625,15548.0,1.0,3
231367.75,275490.90625,349051.5625,313310.59375,246404.65625,279299.1875,251316.765625,249886.96875,15549.0,1.0,3
230947.0,274900.0,348460.125,313191.59375,245446.65625,278892.03125,251081.984375,249585.21875,15550.0,1.0,3
231237.03125,275610.25,349480.8125,313541.4375,246188.203125,279114.125,251419.671875,250034.5,15551.0,1.0,3
231820.953125,276615.8125,350678.59375,313864.71875,247583.671875,279637.6875,251844.53125,250594.265625,15552.0,1.0,3
231916.609375,276561.53125,350426.03125,313727.59375,247732.984375,279760.4375,251788.84375,250518.453125,15553.0,1.0,3
231380.359375,275507.53125,349057.28125,313310.75,246418.78125,279301.78125,251320.875,249898.59375,15554.0,1.0,3
230948.15625,274904.03125,348449.21875,313184.78125,245446.21875,278890.78125,251080.28125,249578.96875,15555.0,1.0,3
231222.640625,275597.5625,349449.4375,313526.40625,246169.78125,279095.34375,251406.890625,250021.078125,15556.0,1.0,3
231805.84375,276610.71875,350657.40625,313857.125,247571.953125,279625.4375,251846.59375,250595.515625,15557.0,1.0,3
231906.875,276570.03125,350422.96875,313723.28125,247738.078125,279760.0,251799.390625,250518.09375,15558.0,1.0,3
231367.65625,275514.84375,349053.1875,313302.90625,246427.1875,279305.1875,251327.140625,249896.1875,15559.0,1.0,3
230932.421875,274899.75,348431.875,313174.5,245444.34375,278888.8125,251076.171875,249571.546875,15560.0,1.0,3
231202.078125,275585.65625,349420.0,313512.09375,246149.40625,279079.25,251380.6875,249997.125,15561.0,1.0,3
231798.15625,276608.03125,350636.65625,313844.875,247553.359375,279605.0625,251815.65625,250580.40625,15562.0,1.0,3
231907.9375,276575.9375,350420.75,313716.21875,247740.671875,279745.6875,251776.234375,250515.765625,15563.0,1.0,3
231380.625,275526.65625,349058.8125,313294.5,246439.34375,279295.6875,251310.234375,249894.296875,15564.0,1.0,3
230937.96875,274899.125,348421.15625,313158.5,245440.671875,278880.75,251066.609375,249568.234375,15565.0,1.0,3
231204.484375,275578.78125,349404.8125,313499.5,246141.09375,279088.1875,251397.0625,249995.15625,15566.0,1.0,3
231804.859375,276606.96875,350628.34375,313836.46875,247554.34375,279615.6875,251832.46875,250574.6875,15567.0,1.0,3
231926.265625,276589.71875,350423.34375,313708.53125,247755.515625,279758.375,251791.875,250520.15625,15568.0,1.0,3
231389.5625,275534.09375,349057.90625,313284.65625,246458.296875,279307.5,251325.625,249902.265625,15569.0,1.0,3
230933.046875,274886.40625,348399.15625,313143.5625,245438.609375,278873.875,251065.0,249567.96875,15570.0,1.0,3
231196.171875,275552.84375,349369.9375,313482.4375,246117.3125,279072.28125,251385.4375,249990.953125,15571.0,1.0,3
231794.671875,276581.75,350600.53125,313818.34375,247529.578125,279598.0625,251820.671875,250568.96875,15572.0,1.0,3
231919.828125,276579.78125,350415.1875,313701.375,247753.453125,279747.5625,251788.296875,250524.359375,15573.0,1.0,3
231394.125,275537.75,349059.34375,313286.625,246473.859375,279309.125,251331.703125,249914.953125,15574.0,1.0,3
230946.8125,274892.0625,348387.8125,313142.78125,245450.859375,278882.625,251075.09375,249583.34375,15575.0,1.0,3
231193.765625,275540.4375,349339.71875,313472.9375,246112.125,279066.46875,251375.6875,249989.34375,15576.0,1.0,3
231789.125,276577.375,350580.4375,313817.0625,247530.921875,279601.65625,251830.234375,250577.90625,15577.0,1.0,3
231919.296875,276588.8125,350413.78125,313701.75,247772.5,279759.375,251805.46875,250542.140625,15578.0,1.0,3
231397.96875,275550.625,349058.8125,313278.3125,246499.078125,279317.34375,251334.109375,249913.703125,15579.0,1.0,3
230943.234375,274894.28125,348373.84375,313131.0625,245463.828125,278888.625,251072.515625,249570.828125,15580.0,1.0,3
231189.109375,275537.84375,349316.9375,313459.4375,246108.0,279064.9375,251374.875,249979.328125,15581.0,1.0,3
231783.9375,276576.03125,350563.78125,313805.46875,247522.875,279591.625,251824.6875,250571.46875,15582.0,1.0,3
231920.640625,276600.875,350416.8125,313700.75,247780.625,279762.40625,251814.046875,250543.125,15583.0,1.0,3
231411.734375,275576.71875,349070.4375,313286.0,246520.0,279334.15625,251356.90625,249932.65625,15584.0,1.0,3
230949.046875,274904.3125,348369.21875,313129.71875,245469.46875,278890.6875,251083.328125,249584.15625,15585.0,1.0,3
231180.078125,275528.96875,349298.5,313452.9375,246097.015625,279062.96875,251383.90625,249981.390625,15586.0,1.0,3
231772.3125,276565.75,350545.375,313795.96875,247507.9375,279586.375,251820.21875,250557.875,15587.0,1.0,3
231926.09375,276611.6875,350414.75,313694.3125,247782.421875,279757.40625,251804.84375,250534.8125,15588.0,1.0,3
231422.46875,275590.59375,349072.40625,313280.46875,246530.453125,279334.0625,251353.6875,249929.703125,15589.0,1.0,3
230953.609375,274905.625,348359.03125,313119.625,245470.53125,278897.75,251084.125,249573.25,15590.0,1.0,3
231172.578125,275515.125,349271.875,313435.5,246078.328125,279063.875,251375.78125,249965.296875,15591.0,1.0,3
231774.90625,276567.90625,350532.6875,313790.875,247503.46875,279601.03125,251835.421875,250568.34375,15592.0,1.0,3
231933.609375,276619.9375,350415.375,313690.3125,247792.53125,279766.34375,251814.234375,250555.5625,15593.0,1.0,3
231426.046875,275592.5625,349069.625,313269.375,246541.0,279338.34375,251355.84375,249939.625,15594.0,1.0,3
230942.96875,274888.65625,348336.65625,313101.375,245462.9375,278891.5,251073.9375,249566.984375,15595.0,1.0,3
231165.328125,275496.53125,349240.21875,313420.65625,246061.421875,279048.03125,251361.734375,249953.84375,15596.0,1.0,3
231771.15625,276548.21875,350506.75,313775.3125,247487.375,279574.1875,251804.9375,250552.421875,15597.0,1.0,3
231937.171875,276615.90625,350411.25,313682.59375,247800.75,279762.84375,251805.640625,250546.34375,15598.0,1.0,3
231429.265625,275596.5,349069.90625,313265.875,246555.21875,279343.34375,251355.921875,249945.890625,15599.0,1.0,3
230950.9375,274895.0,348327.53125,313101.09375,245468.5625,278902.3125,251079.03125,249578.34375,15600.0,1.0,3
231165.78125,275488.75,349217.3125,313415.1875,246048.015625,279049.125,251355.21875,249951.171875,15601.0,1.0,3
231756.390625,276532.03125,350480.28125,313765.3125,247465.734375,279562.21875,251795.90625,250542.953125,15602.0,1.0,3
231924.296875,276612.3125,350399.90625,313675.53125,247791.359375,279750.78125,251800.90625,250544.734375,15603.0,1.0,3
231421.03125,275598.8125,349064.15625,313257.3125,246557.90625,279334.9375,251350.828125,249946.25,15604.0,1.0,3
230934.296875,274885.15625,348303.75,313084.375,245458.015625,278884.59375,251063.203125,249579.953125,15605.0,1.0,3
231137.703125,275467.375,349177.8125,313393.46875,246018.6875,279027.21875,251333.578125,249942.578125,15606.0,1.0,3
231738.96875,276524.625,350456.25,313753.15625,247450.546875,279563.65625,251798.578125,250536.328125,15607.0,1.0,3
231917.15625,276620.65625,350394.71875,313672.6875,247800.390625,279763.03125,251820.046875,250557.796875,15608.0,1.0,3
231423.796875,275614.28125,349066.84375,313256.125,246581.234375,279348.90625,251370.859375,249957.6875,15609.0,1.0,3
230942.796875,274890.34375,348293.84375,313071.59375,245471.703125,278886.3125,251062.046875,249558.9375,15610.0,1.0,3
231138.421875,275457.46875,349156.53125,313375.6875,246016.453125,279018.90625,251330.265625,249927.46875,15611.0,1.0,3
231729.3125,276512.09375,350438.8125,313736.34375,247442.859375,279550.40625,251798.3125,250537.671875,15612.0,1.0,3
231916.890625,276625.125,350396.25,313658.8125,247809.515625,279759.90625,251824.234375,250559.765625,15613.0,1.0,3
231435.421875,275629.3125,349070.59375,313239.0625,246597.15625,279344.59375,251362.015625,249951.796875,15614.0,1.0,3
230950.84375,274894.5625,348283.90625,313056.40625,245481.078125,278891.21875,251063.65625,249561.078125,15615.0,1.0,3
231146.1875,275456.03125,349135.96875,313362.625,246015.828125,279028.71875,251340.546875,249930.609375,15616.0,1.0,3
231738.78125,276509.96875,350419.125,313723.90625,247440.4375,279557.3125,251794.5625,250528.46875,15617.0,1.0,3
231926.71875,276627.25,350387.65625,313650.96875,247816.21875,279764.46875,251815.390625,250550.453125,15618.0,1.0,3
231447.3125,275634.21875,349071.5,313239.78125,246614.40625,279360.6875,251370.046875,249957.421875,15619.0,1.0,3
230956.921875,274890.96875,348270.875,313053.4375,245484.484375,278893.28125,251059.453125,249563.046875,15620.0,1.0,3
231142.4375,275439.5625,349107.34375,313355.28125,245998.03125,279016.46875,251322.578125,249920.5,15621.0,1.0,3
231739.234375,276503.6875,350400.96875,313722.21875,247430.78125,279551.65625,251786.0625,250525.515625,15622.0,1.0,3
231933.421875,276635.5625,350385.59375,313654.0,247825.34375,279768.75,251827.8125,250563.421875,15623.0,1.0,3
231448.84375,275644.5,349069.09375,313237.4375,246628.984375,279366.78125,251384.625,249972.625,15624.0,1.0,3
230941.28125,274886.25,348247.4375,313040.125,245481.0,278897.84375,251065.265625,249566.625,15625.0,1.0,3
231122.59375,275425.1875,349068.71875,313334.28125,245976.125,279007.625,251314.078125,249907.890625,15626.0,1.0,3
231719.828125,276489.84375,350362.53125,313700.125,247402.4375,279531.03125,251772.75,250512.1875,15627.0,1.0,3
231926.0,276641.03125,350370.21875,313641.3125,247815.6875,279756.25,251815.125,250560.828125,15628.0,1.0,3
231452.234375,275659.4375,349065.6875,313229.84375,246633.09375,279363.375,251371.9375,249970.75,15629.0,1.0,3
230947.53125,274893.75,348238.21875,313031.625,245481.984375,278889.25,251057.9375,249556.609375,15630.0,1.0,3
231124.5625,275422.0625,349048.96875,313325.6875,245967.546875,279002.625,251313.734375,249899.125,15631.0,1.0,3
231721.265625,276488.40625,350349.125,313695.125,247396.71875,279533.0,251784.1875,250515.5,15632.0,1.0,3
231936.828125,276655.0625,350375.15625,313640.40625,247831.140625,279767.9375,251837.828125,250572.8125,15633.0,1.0,3
231464.484375,275675.96875,349072.84375,313227.78125,246659.640625,279375.28125,251394.109375,249989.25,15634.0,1.0,3
230957.015625,274901.71875,348232.875,313023.78125,245496.015625,278901.40625,251068.75,249562.609375,15635.0,1.0,3
231125.359375,275420.53125,349031.625,313316.03125,245962.71875,279012.8125,251325.4375,249901.09375,15636.0,1.0,3
231711.96875,276480.4375,350332.125,313683.875,247383.84375,279533.0625,251781.421875,250503.515625,15637.0,1.0,3
231927.171875,276650.78125,350369.78125,313631.03125,247828.828125,279760.625,251822.0,250560.46875,15638.0,1.0,3
231471.09375,275691.34375,349079.71875,313224.65625,246673.421875,279377.5,251394.375,249986.65625,15639.0,1.0,3
230958.703125,274907.15625,348228.65625,313022.875,245501.921875,278910.09375,251080.203125,249572.703125,15640.0,1.0,3
231113.296875,275401.9375,349006.3125,313308.1875,245947.609375,279003.25,251313.734375,249895.109375,15641.0,1.0,3
231708.125,276467.75,350312.75,313681.34375,247371.59375,279520.8125,251768.265625,250503.515625,15642.0,1.0,3
231935.296875,276656.125,350369.34375,313635.59375,247835.171875,279762.84375,251825.84375,250571.03125,15643.0,1.0,3
231478.34375,275695.46875,349080.0,313225.65625,246685.75,279379.75,251387.21875,249983.4375,15644.0,1.0,3
230959.15625,274901.09375,348211.0625,313016.4375,245504.234375,278905.96875,251064.015625,249562.609375,15645.0,1.0,3
231107.84375,275387.09375,348980.3125,313297.875,245934.828125,279000.5625,251305.59375,249886.796875,15646.0,1.0,3
231709.90625,276461.0625,350299.0625,313675.90625,247369.625,279523.875,251769.171875,250503.875,15647.0,1.0,3
231938.34375,276657.46875,350366.5625,313630.40625,247845.0,279761.0625,251824.6875,250581.03125,15648.0,1.0,3
231480.84375,275701.28125,349080.96875,313222.4375,246699.078125,279390.03125,251391.0625,250002.125,15649.0,1.0,3
230956.828125,274895.625,348197.1875,313006.6875,245503.171875,278906.96875,251051.765625,249563.5,15650.0,1.0,3
231100.15625,275373.875,348950.0,313284.03125,245915.78125,278991.1875,251284.140625,249878.75,15651.0,1.0,3
231698.015625,276449.6875,350268.46875,313658.125,247339.046875,279506.6875,251751.640625,250494.3125,15652.0,1.0,3
231938.078125,276665.0625,350361.03125,313621.71875,247839.734375,279759.09375,251823.890625,250579.421875,15653.0,1.0,3
231488.0,275718.0,349085.625,313215.28125,246711.5,279393.5,251395.359375,250006.78125,15654.0,1.0,3
230969.890625,274914.40625,348192.28125,312996.78125,245509.421875,278912.15625,251062.046875,249568.59375,15655.0,1.0,3
231106.3125,275378.59375,348932.375,313271.78125,245908.1875,278991.09375,251293.171875,249878.203125,15656.0,1.0,3
231693.015625,276450.15625,350254.625,313649.875,247331.625,279508.75,251763.71875,250496.546875,15657.0,1.0,3
231938.34375,276678.03125,350363.6875,313615.8125,247845.546875,279762.59375,251838.375,250583.984375,15658.0,1.0,3
231493.09375,275734.625,349095.8125,313212.5,246727.78125,279398.0625,251412.96875,250020.90625,15659.0,1.0,3
230974.09375,274924.875,348193.25,312992.46875,245521.234375,278917.15625,251082.4375,249581.734375,15660.0,1.0,3
231105.515625,275378.875,348916.375,313263.03125,245902.640625,278989.65625,251303.0,249869.09375,15661.0,1.0,3
231697.296875,276449.4375,350238.09375,313644.875,247328.59375,279509.84375,251771.484375,250487.15625,15662.0,1.0,3
231949.703125,276687.875,350361.1875,313617.25,247861.453125,279773.125,251852.140625,250583.0,15663.0,1.0,3
231498.28125,275740.34375,349090.71875,313211.15625,246750.3125,279408.25,251429.15625,250020.546875,15664.0,1.0,3
230968.09375,274914.5,348170.8125,312983.8125,245529.984375,278918.21875,251083.953125,249580.65625,15665.0,1.0,3
231088.703125,275354.375,348879.375,313246.3125,245893.34375,278984.46875,251284.578125,249858.8125,15666.0,1.0,3
231681.921875,276431.46875,350209.65625,313631.90625,247318.40625,279505.625,251758.703125,250485.28125,15667.0,1.0,3
231942.546875,276681.625,350346.71875,313606.6875,247861.453125,279755.4375,251826.296875,250587.390625,15668.0,1.0,3
231508.109375,275750.625,349089.65625,313203.375,246766.75,279397.34375,251399.828125,250010.625,15669.0,1.0,3
230977.3125,274918.25,348159.5625,312973.0625,245540.8125,278916.4375,251062.21875,249559.296875,15670.0,1.0,3
231096.21875,275352.6875,348855.125,313239.25,245885.65625,278980.625,251280.828125,249857.28125,15671.0,1.0,3
231690.0625,276437.4375,350191.15625,313624.9375,247307.046875,279501.78125,251759.421875,250480.71875,15672.0,1.0,3
231955.5,276705.40625,350350.1875,313608.5,247867.09375,279776.09375,251849.546875,250584.609375,15673.0,1.0,3
231524.296875,275781.46875,349099.9375,313208.21875,246781.859375,279427.3125,251431.921875,250032.078125,15674.0,1.0,3
230985.078125,274938.4375,348152.40625,312970.5625,245536.25,278933.6875,251083.953125,249581.296875,15675.0,1.0,3
231095.140625,275358.21875,348831.4375,313226.46875,245859.8125,278982.0625,251288.6875,249858.625,15676.0,1.0,3
231687.109375,276440.5,350168.25,313611.8125,247280.765625,279500.09375,251759.59375,250472.671875,15677.0,1.0,3
231961.59375,276726.3125,350347.875,313602.15625,247863.953125,279779.3125,251855.53125,250593.828125,15678.0,1.0,3
231536.90625,275816.0625,349103.96875,313200.96875,246789.109375,279433.75,251437.28125,250039.328125,15679.0,1.0,3
230995.71875,274965.0,348145.0625,312958.40625,245538.3125,278938.96875,251083.140625,249575.203125,15680.0,1.0,3
231088.34375,275363.65625,348807.84375,313213.5,245846.671875,278984.03125,251285.125,249852.546875,15681.0,1.0,3
231669.40625,276438.78125,350146.96875,313602.5,247265.46875,279497.65625,251756.46875,250478.84375,15682.0,1.0,3
231948.0,276731.59375,350342.96875,313595.25,247864.40625,279783.40625,251856.78125,250605.890625,15683.0,1.0,3
231532.171875,275827.25,349108.4375,313197.3125,246806.546875,279442.59375,251444.359375,250063.1875,15684.0,1.0,3
230990.453125,274967.6875,348141.59375,312952.5,245553.0625,278945.40625,251082.515625,249599.53125,15685.0,1.0,3
231082.09375,275349.71875,348791.65625,313200.09375,245849.265625,278984.75,251273.859375,249852.734375,15686.0,1.0,3
231676.109375,276429.03125,350135.0,313594.0,247268.953125,279502.6875,251757.8125,250483.40625,15687.0,1.0,3
231962.484375,276733.03125,350346.71875,313595.71875,247880.5,279797.625,251872.34375,250620.203125,15688.0,1.0,3
231550.765625,275835.28125,349124.78125,313202.59375,246839.53125,279473.34375,251468.671875,250071.59375,15689.0,1.0,3
230999.125,274959.1875,348143.8125,312951.4375,245576.03125,278966.15625,251094.5,249593.359375,15690.0,1.0,3
231078.15625,275327.5625,348775.46875,313195.15625,245845.515625,278996.8125,251277.703125,249855.953125,15691.0,1.0,3
231664.046875,276406.59375,350117.65625,313581.65625,247252.78125,279499.5625,251740.375,250471.421875,15692.0,1.0,3
231956.046875,276726.59375,350345.71875,313584.09375,247882.5625,279786.90625,251851.515625,250610.28125,15693.0,1.0,3
231543.515625,275830.03125,349123.96875,313188.8125,246847.046875,279462.34375,251454.453125,250071.234375,15694.0,1.0,3
230991.34375,274949.71875,348128.78125,312937.75,245571.296875,278962.5625,251088.0625,249592.46875,15695.0,1.0,3
231070.46875,275313.6875,348747.65625,313178.4375,245824.5,278986.34375,251269.734375,249836.90625,15696.0,1.0,3
231651.875,276393.5625,350097.4375,313569.40625,247229.796875,279496.59375,251746.28125,250460.703125,15697.0,1.0,3
231950.859375,276728.28125,350342.6875,313579.4375,247872.359375,279798.78125,251866.984375,250610.09375,15698.0,1.0,3
231551.921875,275848.53125,349129.0,313186.75,246849.375,279470.3125,251458.828125,250072.3125,15699.0,1.0,3
230996.703125,274959.625,348123.34375,312929.09375,245568.25,278963.09375,251086.453125,249590.046875,15700.0,1.0,3
231063.5,275308.875,348725.59375,313163.78125,245807.0625,278979.28125,251261.15625,249833.234375,15701.0,1.0,3
231645.359375,276391.03125,350071.0625,313553.40625,247212.359375,279479.6875,251731.4375,250455.421875,15702.0,1.0,3
231949.34375,276736.34375,350329.0,313566.46875,247869.59375,279787.0,251856.875,250613.578125,15703.0,1.0,3
231553.265625,275860.3125,349123.625,313176.9375,246857.59375,279470.125,251454.90625,250079.203125,15704.0,1.0,3
230999.390625,274970.09375,348113.0625,312919.78125,245574.875,278966.3125,251083.78125,249590.234375,15705.0,1.0,3
231062.328125,275308.78125,348704.75,313153.3125,245802.328125,278972.125,251254.984375,249828.40625,15706.0,1.0,3
231645.09375,276392.375,350055.0625,313548.3125,247209.234375,279473.625,251734.125,250456.3125,15707.0,1.0,3
231954.875,276746.96875,350329.09375,313564.78125,247882.640625,279781.4375,251865.1875,250619.9375,15708.0,1.0,3
231559.96875,275875.34375,349130.34375,313173.875,246881.109375,279466.46875,251466.875,250087.0625,15709.0,1.0,3
230998.234375,274972.59375,348103.65625,312908.0625,245581.21875,278958.53125,251093.078125,249592.828125,15710.0,1.0,3
231055.984375,275302.78125,348680.25,313141.34375,245790.609375,278969.46875,251263.03125,249828.234375,15711.0,1.0,3
231629.0,276377.625,350029.9375,313535.34375,247191.890625,279473.53125,251736.359375,250452.734375,15712.0,1.0,3
231947.546875,276744.65625,350318.28125,313555.90625,247882.109375,279785.75,251872.25,250616.171875,15713.0,1.0,3
231563.90625,275880.34375,349126.5,313167.96875,246894.15625,279476.40625,251484.671875,250096.09375,15714.0,1.0,3
231003.328125,274971.53125,348088.90625,312897.4375,245589.625,278961.21875,251100.671875,249595.328125,15715.0,1.0,3
231048.734375,275279.34375,348646.09375,313119.15625,245777.828125,278956.21875,251244.4375,249810.96875,15716.0,1.0,3
231630.328125,276358.6875,350000.4375,313518.90625,247177.140625,279459.84375,251717.21875,250435.125,15717.0,1.0,3
231948.890625,276737.3125,350306.9375,313548.9375,247882.109375,279787.78125,251866.265625,250619.75,15718.0,1.0,3
231563.375,275877.40625,349118.96875,313155.09375,246899.609375,279476.21875,251464.203125,250090.015625,15719.0,1.0,3
231005.921875,274965.4375,348070.5,312882.78125,245584.0,278958.46875,251076.703125,249590.5,15720.0,1.0,3
231051.15625,275266.03125,348615.53125,313103.53125,245754.671875,278950.40625,251235.859375,249810.265625,15721.0,1.0,3
231628.015625,276344.03125,349971.90625,313502.53125,247150.484375,279448.75,251710.609375,250430.125,15722.0,1.0,3
231950.140625,276728.28125,350291.5625,313534.90625,247865.5625,279771.25,251848.5625,250614.03125,15723.0,1.0,3
231571.953125,275881.6875,349118.09375,313149.21875,246897.203125,279473.96875,251460.09375,250096.8125,15724.0,1.0,3
231011.546875,274965.28125,348066.5625,312876.875,245581.046875,278962.84375,251078.140625,249592.90625,15725.0,1.0,3
231049.546875,275258.0,348600.0625,313094.65625,245738.484375,278948.71875,251232.375,249804.53125,15726.0,1.0,3
231622.46875,276337.03125,349955.5625,313493.59375,247129.296875,279442.25,251703.28125,250430.828125,15727.0,1.0,3
231955.421875,276744.125,350296.46875,313538.3125,247869.59375,279781.34375,251874.125,250635.484375,15728.0,1.0,3
231580.890625,275901.1875,349127.375,313151.625,246918.125,279485.15625,251487.984375,250115.046875,15729.0,1.0,3
231009.484375,274967.78125,348055.21875,312867.9375,245593.734375,278963.03125,251086.8125,249593.09375,15730.0,1.0,3
231040.25,275242.875,348569.84375,313079.5625,245734.375,278937.8125,251227.890625,249793.625,15731.0,1.0,3
231612.1875,276317.28125,349929.90625,313481.09375,247127.6875,279433.84375,251702.203125,250424.21875,15732.0,1.0,3
231960.875,276737.9375,350288.875,313525.96875,247883.453125,279774.90625,251861.4375,250626.453125,15733.0,1.0,3
231591.265625,275903.96875,349129.4375,313140.71875,246947.359375,279487.46875,251478.6875,250115.046875,15734.0,1.0,3
231013.15625,274961.0625,348045.90625,312853.90625,245614.5625,278967.125,251084.9375,249593.265625,15735.0,1.0,3
231029.96875,275222.125,348545.625,313062.84375,245733.296875,278938.96875,251226.921875,249790.5,15736.0,1.0,3
231603.0625,276307.09375,349908.15625,313467.59375,247121.25,279440.8125,251705.78125,250418.859375,15737.0,1.0,3
231950.140625,276741.25,350278.75,313516.21875,247886.671875,279781.28125,251872.078125,250629.140625,15738.0,1.0,3
231589.828125,275918.0,349130.15625,313139.71875,246965.59375,279498.5625,251498.625,250124.078125,15739.0,1.0,3
231016.375,274969.90625,348034.28125,312851.40625,245623.328125,278972.03125,251092.171875,249599.890625,15740.0,1.0,3
231026.390625,275218.65625,348513.34375,313051.3125,245718.640625,278938.6875,251222.265625,249776.546875,15741.0,1.0,3
231601.453125,276305.3125,349878.84375,313457.3125,247102.21875,279436.96875,251704.609375,250400.96875,15742.0,1.0,3
231950.234375,276742.59375,350264.28125,313507.71875,247879.515625,279772.25,251867.78125,250619.65625,15743.0,1.0,3
231593.5,275927.46875,349124.53125,313127.125,246965.328125,279486.9375,251485.390625,250115.3125,15744.0,1.0,3
231018.078125,274982.875,348024.46875,312838.53125,245620.109375,278969.53125,251088.875,249587.453125,15745.0,1.0,3
231018.171875,275216.5,348485.25,313034.3125,245696.640625,278925.03125,251217.796875,249760.546875,15746.0,1.0,3
231583.390625,276290.28125,349845.5,313435.65625,247068.953125,279410.3125,251683.421875,250382.015625,15747.0,1.0,3
231932.171875,276736.5,350246.5,313491.53125,247858.0625,279755.59375,251850.96875,250603.5625,15748.0,1.0,3
231589.75,275938.375,349117.625,313116.46875,246962.5625,279487.21875,251488.421875,250111.46875,15749.0,1.0,3
231015.125,274982.15625,348005.875,312819.46875,245611.078125,278963.5625,251083.140625,249577.71875,15750.0,1.0,3
231011.734375,275204.09375,348455.5,313012.3125,245679.203125,278916.15625,251200.265625,249748.921875,15751.0,1.0,3
231570.34375,276270.71875,349814.28125,313415.09375,247049.015625,279398.78125,251673.0625,250375.21875,15752.0,1.0,3
231938.703125,276737.78125,350234.59375,313476.71875,247860.109375,279756.6875,251854.640625,250602.5,15753.0,1.0,3
231598.953125,275942.03125,349112.4375,313102.90625,246977.046875,279492.3125,251489.328125,250113.625,15754.0,1.0,3
231015.65625,274975.46875,347994.0625,312804.71875,245623.59375,278965.0625,251078.671875,249578.78125,15755.0,1.0,3
231006.546875,275184.9375,348433.84375,312997.125,245678.859375,278915.4375,251197.671875,249748.390625,15756.0,1.0,3
231574.0,276257.84375,349801.34375,313403.3125,247049.1875,279399.59375,251671.09375,250376.5625,15757.0,1.0,3
231940.125,276730.625,350236.21875,313468.84375,247872.90625,279753.03125,251851.25,250610.984375,15758.0,1.0,3
231603.25,275946.15625,349125.6875,313099.6875,247005.921875,279498.75,251495.9375,250122.828125,15759.0,1.0,3
231021.65625,274977.53125,347997.09375,312799.53125,245648.0,278977.5,251090.484375,249587.28125,15760.0,1.0,3
231000.90625,275169.65625,348414.625,312985.9375,245678.765625,278907.6875,251198.484375,249751.609375,15761.0,1.0,3
231553.625,276233.875,349769.3125,313388.1875,247034.703125,279378.75,251658.921875,250362.609375,15762.0,1.0,3
231929.21875,276722.125,350219.03125,313459.4375,247872.09375,279743.09375,251846.5,250595.515625,15763.0,1.0,3
231597.703125,275942.65625,349116.03125,313088.84375,247011.90625,279488.5625,251486.90625,250112.8125,15764.0,1.0,3
231013.6875,274970.0,347978.0625,312787.8125,245643.1875,278973.21875,251084.21875,249578.34375,15765.0,1.0,3
230992.859375,275154.09375,348382.71875,312971.5625,245659.90625,278903.65625,251192.140625,249739.09375,15766.0,1.0,3
231544.859375,276220.1875,349740.71875,313374.4375,247014.765625,279372.59375,251657.765625,250353.5,15767.0,1.0,3
231930.5625,276730.78125,350213.21875,313455.6875,247872.90625,279755.4375,251862.59375,250602.671875,15768.0,1.0,3
231610.9375,275965.5625,349119.4375,313086.53125,247029.25,279497.59375,251489.0625,250122.5625,15769.0,1.0,3
231026.484375,274985.3125,347967.9375,312777.1875,245656.140625,278964.8125,251064.90625,249569.75,15770.0,1.0,3
230987.3125,275155.0,348353.375,312953.75,245652.75,278896.5,251171.921875,249720.671875,15771.0,1.0,3
231534.21875,276219.65625,349713.96875,313362.34375,247000.734375,279372.0625,251645.15625,250347.953125,15772.0,1.0,3
231931.8125,276742.0625,350202.84375,313446.125,247868.78125,279743.8125,251844.984375,250596.953125,15773.0,1.0,3
231618.0,275984.0625,349124.25,313080.71875,247041.59375,279500.8125,251497.546875,250125.859375,15774.0,1.0,3
231019.5,274987.34375,347961.5,312764.3125,245658.375,278971.15625,251076.171875,249574.046875,15775.0,1.0,3
230976.046875,275142.125,348330.75,312937.3125,245635.21875,278890.875,251173.8125,249712.0,15776.0,1.0,3
231538.515625,276215.1875,349695.84375,313353.21875,246988.390625,279363.5625,251643.1875,250339.109375,15777.0,1.0,3
231926.0,276731.96875,350193.65625,313441.03125,247870.046875,279743.625,251850.078125,250606.78125,15778.0,1.0,3
231615.140625,275984.25,349123.4375,313079.1875,247058.21875,279506.0,251503.09375,250137.578125,15779.0,1.0,3
231031.046875,274995.125,347960.625,312764.75,245679.75,278975.1875,251082.171875,249586.03125,15780.0,1.0,3
230986.609375,275141.3125,348319.0625,312935.4375,245649.796875,278894.1875,251173.71875,249717.015625,15781.0,1.0,3
231528.5,276197.21875,349672.6875,313341.4375,246987.328125,279359.71875,251642.03125,250337.40625,15782.0,1.0,3
231929.125,276732.9375,350184.71875,313431.28125,247879.15625,279744.96875,251853.5625,250603.65625,15783.0,1.0,3
231619.609375,275988.96875,349122.90625,313071.78125,247079.0625,279510.625,251506.9375,250146.875,15784.0,1.0,3
231033.546875,274994.96875,347949.25,312756.8125,245696.203125,278982.96875,251089.578125,249594.25,15785.0,1.0,3
230984.71875,275128.4375,348291.5,312921.84375,245642.640625,278897.5625,251170.9375,249712.984375,15786.0,1.0,3
231523.5,276177.625,349645.125,313325.25,246971.328125,279357.75,251628.796875,250325.328125,15787.0,1.0,3
231919.5625,276719.4375,350171.75,313421.0,247871.5625,279742.09375,251845.703125,250605.171875,15788.0,1.0,3
231627.828125,276001.6875,349126.9375,313068.84375,247089.25,279518.21875,251509.4375,250151.609375,15789.0,1.0,3
231042.21875,275001.84375,347944.34375,312747.5,245700.125,278985.46875,251080.375,249590.046875,15790.0,1.0,3
230976.046875,275114.59375,348265.9375,312903.4375,245626.1875,278886.65625,251162.984375,249704.140625,15791.0,1.0,3
231512.859375,276167.71875,349625.28125,313317.46875,246953.703125,279356.125,251646.953125,250343.578125,15792.0,1.0,3
231916.890625,276720.96875,350166.375,313413.75,247865.390625,279738.875,251841.234375,250599.015625,15793.0,1.0,3
231628.28125,276000.78125,349124.53125,313054.25,247091.75,279510.28125,251496.390625,250134.625,15794.0,1.0,3
231034.703125,274995.125,347933.4375,312728.625,245696.015625,278980.0,251072.421875,249580.390625,15795.0,1.0,3
230963.53125,275099.75,348239.3125,312883.125,245607.78125,278878.625,251148.328125,249685.265625,15796.0,1.0,3
231504.453125,276153.03125,349593.90625,313294.5,246930.109375,279340.75,251617.71875,250303.34375,15797.0,1.0,3
231920.1875,276723.90625,350149.84375,313401.96875,247859.484375,279732.09375,251841.140625,250596.59375,15798.0,1.0,3
231636.140625,276013.9375,349117.625,313050.15625,247098.640625,279511.34375,251508.640625,250149.828125,15799.0,1.0,3
231042.9375,274997.8125,347917.25,312721.40625,245697.71875,278977.3125,251075.1875,249577.71875,15800.0,1.0,3
230970.15625,275090.4375,348209.0,312871.875,245594.1875,278868.96875,251146.0,249681.15625,15801.0,1.0,3
231514.28125,276145.0,349567.25,313287.34375,246919.203125,279334.875,251620.125,250305.84375,15802.0,1.0,3
231928.5,276720.25,350136.875,313396.96875,247864.5,279727.53125,251841.9375,250601.515625,15803.0,1.0,3
231639.453125,276015.625,349115.59375,313044.34375,247115.359375,279509.75,251505.0625,250157.25,15804.0,1.0,3
231042.9375,275000.59375,347910.46875,312713.96875,245712.5625,278978.65625,251070.1875,249585.671875,15805.0,1.0,3
230960.5,275079.28125,348185.84375,312859.34375,245589.71875,278860.65625,251132.5,249674.0,15806.0,1.0,3
231502.921875,276132.40625,349540.53125,313272.21875,246903.453125,279312.96875,251596.515625,250290.375,15807.0,1.0,3
231924.390625,276721.40625,350129.0,313389.625,247863.15625,279718.875,251838.28125,250598.921875,15808.0,1.0,3
231649.734375,276034.9375,349119.25,313043.0,247133.234375,279514.03125,251509.796875,250163.328125,15809.0,1.0,3
231049.453125,275010.15625,347901.0,312708.78125,245726.0625,278982.25,251073.9375,249589.25,15810.0,1.0,3
230955.9375,275072.375,348157.75,312849.4375,245581.578125,278863.3125,251133.75,249668.46875,15811.0,1.0,3
231486.125,276115.40625,349506.90625,313260.96875,246880.578125,279307.9375,251595.625,250286.0,15812.0,1.0,3
231914.640625,276714.96875,350109.0625,313381.125,247849.296875,279712.96875,251838.640625,250601.421875,15813.0,1.0,3
231639.359375,276027.6875,349111.28125,313034.3125,247129.484375,279514.84375,251514.796875,250166.453125,15814.0,1.0,3
231044.546875,275000.9375,347888.65625,312694.03125,245717.484375,278972.9375,251060.4375,249580.3125,15815.0,1.0,3
230950.65625,275055.5625,348130.03125,312827.96875,245559.234375,278840.0,251109.171875,249655.234375,15816.0,1.0,3
231477.453125,276096.0,349481.0,313238.96875,246855.0,279289.71875,251573.546875,250271.875,15817.0,1.0,3
231912.140625,276708.4375,350099.59375,313367.8125,247840.453125,279702.15625,251822.453125,250601.609375,15818.0,1.0,3
231649.109375,276037.0,349114.6875,313028.40625,247140.390625,279512.34375,251510.6875,250174.953125,15819.0,1.0,3
231051.609375,275007.5625,347882.46875,312682.5,245723.828125,278977.5,251062.40625,249574.3125,15820.0,1.0,3
230940.734375,275038.75,348106.25,312808.375,245542.78125,278836.9375,251106.578125,249639.40625,15821.0,1.0,3
231470.03125,276076.5,349453.8125,313222.875,246833.359375,279278.1875,251567.375,250260.96875,15822.0,1.0,3
231902.75,276693.25,350082.96875,313353.5,247827.484375,279694.0,251824.421875,250593.5625,15823.0,1.0,3
231651.4375,276037.53125,349112.09375,313017.40625,247144.859375,279513.75,251516.234375,250175.75,15824.0,1.0,3
231046.234375,274997.375,347870.125,312671.59375,245726.234375,278975.8125,251062.859375,249577.890625,15825.0,1.0,3
230935.90625,275023.5625,348077.90625,312797.125,245532.9375,278831.59375,251101.390625,249635.5625,15826.0,1.0,3
231461.359375,276062.28125,349424.75,313210.0,246818.703125,279270.40625,251564.875,250251.125,15827.0,1.0,3
231901.421875,276695.9375,350070.1875,313343.40625,247827.125,279685.0625,251813.515625,250578.625,15828.0,1.0,3
231650.890625,276042.96875,349109.0625,313009.03125,247158.53125,279506.34375,251506.671875,250167.265625,15829.0,1.0,3
231052.046875,275006.5,347863.15625,312662.90625,245738.671875,278974.90625,251063.125,249582.71875,15830.0,1.0,3
230932.78125,275022.5,348055.5625,312783.0,245529.71875,278829.875,251097.984375,249632.96875,15831.0,1.0,3
231449.90625,276054.15625,349394.875,313192.75,246806.640625,279263.59375,251552.625,250239.765625,15832.0,1.0,3
231887.203125,276692.875,350056.3125,313330.6875,247824.625,279684.71875,251814.234375,250582.015625,15833.0,1.0,3
231654.03125,276065.59375,349114.25,313005.53125,247175.34375,279518.21875,251519.8125,250179.328125,15834.0,1.0,3
231054.28125,275024.09375,347864.0625,312658.375,245756.09375,278986.71875,251075.28125,249585.765625,15835.0,1.0,3
230922.140625,275017.21875,348035.28125,312770.03125,245522.5625,278823.625,251097.984375,249625.90625,15836.0,1.0,3
231438.375,276046.28125,349371.8125,313178.4375,246788.296875,279256.71875,251550.921875,250230.109375,15837.0,1.0,3
231880.40625,276686.96875,350037.46875,313315.15625,247814.15625,279671.46875,251801.53125,250567.359375,15838.0,1.0,3
231640.890625,276053.09375,349094.46875,312981.21875,247174.09375,279500.34375,251501.390625,250166.71875,15839.0,1.0,3
231038.375,275002.5625,347829.8125,312624.75,245743.046875,278961.6875,251050.15625,249572.265625,15840.0,1.0,3
230899.796875,274981.8125,347983.25,312732.65625,245486.890625,278797.96875,251065.890625,249606.6875,15841.0,1.0,3
231404.765625,275998.09375,349315.59375,313138.21875,246739.21875,279221.3125,251515.34375,250211.34375,15842.0,1.0,3
231860.109375,276662.5625,350004.71875,313286.625,247780.546875,279648.15625,251786.515625,250556.984375,15843.0,1.0,3
231631.5,276042.53125,349078.03125,312960.125,247155.140625,279489.4375,251491.921875,250154.125,15844.0,1.0,3
231030.5,274989.875,347809.6875,312605.875,245725.96875,278953.0,251038.09375,249555.265625,15845.0,1.0,3
230886.640625,274959.46875,347949.96875,312712.1875,245463.296875,278787.875,251052.65625,249578.96875,15846.0,1.0,3
231395.90625,275979.78125,349282.5,313124.25,246714.640625,279212.28125,251507.390625,250187.921875,15847.0,1.0,3
231862.96875,276659.96875,349990.59375,313279.28125,247775.265625,279647.96875,251781.59375,250549.75,15848.0,1.0,3
231636.765625,276048.0,349073.65625,312954.375,247165.0625,279486.3125,251488.34375,250157.15625,15849.0,1.0,3
231029.078125,274988.96875,347795.5625,312593.625,245731.421875,278942.09375,251024.671875,249550.796875,15850.0,1.0,3
230868.765625,274941.5,347912.59375,312688.9375,245443.984375,278762.3125,251024.671875,249566.0,15851.0,1.0,3
231382.234375,275967.4375,349247.71875,313101.71875,246692.546875,279190.65625,251484.40625,250177.28125,15852.0,1.0,3
231855.640625,276657.75,349972.53125,313264.4375,247768.109375,279633.9375,251771.84375,250547.0625,15853.0,1.0,3
231635.875,276057.375,349070.53125,312943.5625,247176.234375,279485.59375,251493.25,250157.515625,15854.0,1.0,3
231031.578125,275002.375,347789.5,312583.4375,245746.71875,278951.84375,251042.109375,249556.875,15855.0,1.0,3
230876.71875,274948.71875,347898.9375,312677.9375,245452.921875,278770.15625,251037.8125,249569.84375,15856.0,1.0,3
231377.578125,275956.25,349224.65625,313085.71875,246688.609375,279188.15625,251490.578125,250173.34375,15857.0,1.0,3
231838.46875,276644.25,349954.5,313248.53125,247765.171875,279630.96875,251783.5625,250541.703125,15858.0,1.0,3
231627.296875,276059.875,349067.03125,312931.5,247188.765625,279482.84375,251492.28125,250151.53125,15859.0,1.0,3
231029.515625,275002.71875,347782.34375,312569.84375,245758.0625,278943.15625,251030.75,249549.453125,15860.0,1.0,3
230862.328125,274932.09375,347872.65625,312661.65625,245443.09375,278760.15625,251033.078125,249556.796875,15861.0,1.0,3
231360.859375,275940.6875,349196.59375,313072.9375,246670.5625,279182.96875,251489.5,250161.09375,15862.0,1.0,3
231839.90625,276646.46875,349942.875,313239.96875,247763.28125,279624.90625,251772.5625,250531.15625,15863.0,1.0,3
231641.59375,276071.78125,349066.21875,312927.375,247203.421875,279486.125,251495.40625,250159.125,15864.0,1.0,3
231039.53125,275004.96875,347775.625,312563.3125,245769.15625,278955.875,251041.125,249555.984375,15865.0,1.0,3
230863.40625,274918.0625,347845.5625,312648.0,245435.84375,278761.21875,251028.34375,249552.671875,15866.0,1.0,3
231358.625,275922.5625,349162.875,313056.84375,246649.546875,279170.96875,251478.953125,250158.234375,15867.0,1.0,3
231841.515625,276641.28125,349927.84375,313233.4375,247752.203125,279630.625,251782.671875,250544.03125,15868.0,1.0,3
231646.34375,276078.3125,349064.71875,312922.1875,247208.875,279501.0625,251506.40625,250165.828125,15869.0,1.0,3
231041.40625,275006.21875,347762.9375,312551.4375,245767.8125,278955.5,251033.96875,249554.921875,15870.0,1.0,3
230866.078125,274909.65625,347818.8125,312631.4375,245417.96875,278747.28125,251017.609375,249546.421875,15871.0,1.0,3
231348.25,275901.71875,349129.0,313039.25,246621.375,279148.8125,251463.484375,250143.296875,15872.0,1.0,3
231830.0625,276627.78125,349904.3125,313217.15625,247734.5,279604.6875,251763.0,250525.78125,15873.0,1.0,3
231652.0625,276087.15625,349061.21875,312912.625,247212.09375,279483.8125,251499.609375,250161.984375,15874.0,1.0,3
231040.421875,275017.84375,347760.625,312546.4375,245778.984375,278954.625,251046.3125,249558.765625,15875.0,1.0,3
230845.515625,274905.8125,347799.875,312623.21875,245409.109375,278749.78125,251024.9375,249539.625,15876.0,1.0,3
231333.0625,275899.9375,349109.6875,313030.75,246607.171875,279146.75,251458.75,250124.34375,15877.0,1.0,3
231820.234375,276633.78125,349898.0625,313214.90625,247732.078125,279599.15625,251756.921875,250513.265625,15878.0,1.0,3
231638.921875,276094.46875,349062.84375,312913.625,247223.09375,279480.0625,251497.640625,250161.453125,15879.0,1.0,3
231033.0,275020.78125,347751.9375,312539.8125,245786.328125,278949.34375,251035.765625,249552.859375,15880.0,1.0,3
230841.9375,274897.3125,347775.28125,312612.3125,245409.828125,278748.71875,251017.609375,249528.265625,15881.0,1.0,3
231323.9375,275888.125,349078.84375,313017.6875,246596.609375,279142.28125,251449.1875,250112.28125,15882.0,1.0,3
231815.234375,276635.46875,349878.3125,313200.96875,247728.515625,279594.5,251751.90625,250509.78125,15883.0,1.0,3
231640.890625,276110.5,349057.375,312901.46875,247235.703125,279491.59375,251506.671875,250167.703125,15884.0,1.0,3
231037.390625,275036.8125,347741.75,312525.6875,245794.640625,278962.125,251038.796875,249548.65625,15885.0,1.0,3
230841.3125,274903.03125,347744.78125,312588.625,245391.140625,278740.21875,250996.515625,249507.796875,15886.0,1.0,3
231315.0,275881.78125,349043.59375,312996.6875,246571.40625,279136.5625,251445.0625,250102.359375,15887.0,1.0,3
231803.0625,276631.375,349856.6875,313187.375,247712.859375,279598.6875,251761.921875,250510.40625,15888.0,1.0,3
231642.140625,276122.03125,349050.59375,312892.59375,247234.71875,279495.96875,251508.546875,250160.5625,15889.0,1.0,3
231039.171875,275044.5625,347731.5625,312518.34375,245793.65625,278967.125,251048.015625,249547.21875,15890.0,1.0,3
230829.875,274892.75,347719.21875,312581.21875,245374.59375,278748.09375,251015.28125,249510.75,15891.0,1.0,3
231299.53125,275867.65625,349011.40625,312984.0625,246542.34375,279130.46875,251445.25,250094.21875,15892.0,1.0,3
231803.15625,276635.03125,349844.0625,313182.65625,247700.703125,279598.53125,251769.25,250511.484375,15893.0,1.0,3
231647.140625,276138.46875,349057.09375,312894.75,247245.171875,279509.5625,251533.40625,250178.625,15894.0,1.0,3
231042.578125,275061.84375,347734.40625,312516.125,245805.28125,278973.75,251057.84375,249560.1875,15895.0,1.0,3
230824.859375,274894.375,347704.1875,312570.9375,245368.796875,278740.9375,251005.546875,249512.0,15896.0,1.0,3
231289.15625,275857.375,348990.40625,312974.9375,246529.203125,279128.59375,251444.0,250096.1875,15897.0,1.0,3
231795.296875,276631.375,349832.625,313173.53125,247694.984375,279593.78125,251759.6875,250510.046875,15898.0,1.0,3
231646.15625,276143.65625,349060.875,312887.78125,247257.515625,279507.15625,251519.90625,250184.25,15899.0,1.0,3
231043.5625,275061.375,347734.34375,312507.875,245823.328125,278978.21875,251046.40625,249572.609375,15900.0,1.0,3
230818.25,274880.96875,347682.84375,312552.40625,245367.0,278737.8125,250992.21875,249505.296875,15901.0,1.0,3
231274.9375,275840.9375,348960.46875,312948.5625,246507.5625,279109.8125,251410.640625,250072.046875,15902.0,1.0,3
231779.640625,276621.09375,349814.75,313152.6875,247680.5,279580.71875,251725.09375,250492.078125,15903.0,1.0,3
231639.546875,276149.1875,349055.21875,312873.75,247260.28125,279505.34375,251497.90625,250180.765625,15904.0,1.0,3
231043.640625,275071.40625,347728.78125,312496.09375,245834.25,278987.0625,251038.171875,249572.4375,15905.0,1.0,3
230812.265625,274874.25,347663.0625,312536.78125,245365.296875,278748.53125,250985.0625,249508.515625,15906.0,1.0,3
231271.90625,275830.90625,348941.0625,312937.21875,246502.109375,279120.5625,251406.53125,250067.03125,15907.0,1.0,3
231783.21875,276620.09375,349810.8125,313144.75,247686.046875,279592.4375,251738.234375,250495.296875,15908.0,1.0,3
231650.8125,276159.65625,349065.25,312868.1875,247279.0625,279520.5625,251519.546875,250193.375,15909.0,1.0,3
231049.8125,275074.09375,347730.5625,312484.90625,245841.3125,278993.3125,251052.296875,249573.15625,15910.0,1.0,3
230815.203125,274868.8125,347647.53125,312520.59375,245353.046875,278747.28125,250994.09375,249490.09375,15911.0,1.0,3
231259.734375,275815.53125,348914.15625,312922.125,246477.96875,279118.125,251427.90625,250065.875,15912.0,1.0,3
231767.484375,276609.5625,349791.0625,313132.3125,247667.984375,279588.25,251754.234375,250494.484375,15913.0,1.0,3
231641.59375,276157.6875,349057.28125,312854.78125,247278.796875,279510.28125,251526.875,250183.890625,15914.0,1.0,3
231042.21875,275073.625,347718.6875,312469.71875,245849.265625,278991.4375,251057.40625,249565.640625,15915.0,1.0,3
230797.6875,274855.75,347620.5,312502.25,245346.53125,278737.09375,250989.0,249484.734375,15916.0,1.0,3
231246.0625,275804.28125,348886.78125,312903.59375,246466.265625,279102.5,251417.0,250053.0,15917.0,1.0,3
231769.1875,276614.375,349780.5,313124.09375,247675.671875,279577.96875,251747.078125,250495.921875,15918.0,1.0,3
231647.328125,276176.375,349060.3125,312852.1875,247300.421875,279516.8125,251533.671875,250199.890625,15919.0,1.0,3
231046.6875,275093.40625,347720.375,312467.65625,245866.515625,278998.875,251071.078125,249576.8125,15920.0,1.0,3
230801.796875,274864.25,347608.34375,312500.1875,245351.796875,278741.5625,250987.75,249484.90625,15921.0,1.0,3
231235.78125,275792.03125,348860.84375,312894.84375,246451.59375,279084.625,251385.171875,250043.703125,15922.0,1.0,3
231763.28125,276615.0,349770.84375,313118.8125,247670.9375,279565.71875,251726.4375,250492.796875,15923.0,1.0,3
231649.5625,276189.4375,349066.3125,312853.1875,247315.625,279511.09375,251519.1875,250205.34375,15924.0,1.0,3
231050.984375,275102.5,347719.125,312465.15625,245882.96875,278996.375,251054.1875,249580.65625,15925.0,1.0,3
230795.0,274853.875,347582.15625,312485.8125,245346.796875,278720.53125,250964.328125,249486.421875,15926.0,1.0,3
231231.40625,275779.3125,348832.59375,312883.21875,246442.921875,279072.71875,251385.4375,250049.515625,15927.0,1.0,3
231762.203125,276608.21875,349756.4375,313111.125,247670.390625,279562.75,251738.40625,250494.046875,15928.0,1.0,3
231654.75,276186.46875,349062.5625,312842.0,247326.09375,279503.65625,251514.265625,250195.96875,15929.0,1.0,3
231054.109375,275092.3125,347711.09375,312448.25,245888.78125,278983.59375,251040.40625,249564.296875,15930.0,1.0,3
230792.5,274834.03125,347559.625,312466.5,245333.296875,278715.09375,250960.125,249466.140625,15931.0,1.0,3
231225.953125,275755.8125,348803.5625,312863.375,246412.171875,279063.40625,251376.3125,250023.859375,15932.0,1.0,3
231758.8125,276592.75,349739.09375,313098.0625,247643.03125,279552.84375,251727.140625,250481.796875,15933.0,1.0,3
231664.3125,276195.25,349067.5625,312841.125,247319.921875,279510.90625,251528.84375,250211.34375,15934.0,1.0,3
231068.859375,275103.59375,347715.71875,312450.125,245887.625,278995.65625,251053.90625,249585.765625,15935.0,1.0,3
230805.734375,274833.40625,347549.25,312462.46875,245316.046875,278719.65625,250958.609375,249466.140625,15936.0,1.0,3
231240.25,275752.3125,348791.65625,312860.15625,246392.140625,279066.46875,251375.328125,250024.65625,15937.0,1.0,3
231764.984375,276586.9375,349729.09375,313091.4375,247628.375,279549.09375,251725.984375,250487.34375,15938.0,1.0,3
231668.0625,276195.6875,349067.3125,312837.1875,247320.453125,279510.0,251530.546875,250218.140625,15939.0,1.0,3
231078.25,275114.03125,347715.90625,312444.84375,245895.390625,278998.96875,251060.890625,249589.875,15940.0,1.0,3
230804.84375,274830.09375,347529.78125,312450.84375,245310.046875,278714.8125,250955.03125,249465.328125,15941.0,1.0,3
231219.15625,275733.71875,348758.65625,312842.375,246370.78125,279054.46875,251366.484375,250015.359375,15942.0,1.0,3
231753.890625,276585.78125,349715.9375,313084.5625,247623.71875,279549.625,251726.96875,250484.75,15943.0,1.0,3
231668.15625,276208.21875,349068.0,312832.0,247337.359375,279518.40625,251530.453125,250222.609375,15944.0,1.0,3
231064.5625,275111.53125,347703.9375,312430.71875,245908.546875,279000.46875,251051.765625,249590.046875,15945.0,1.0,3
230787.859375,274818.46875,347501.6875,312432.0625,245310.765625,278707.9375,250941.078125,249456.484375,15946.0,1.0,3
231204.671875,275717.1875,348727.46875,312823.6875,246361.203125,279037.9375,251349.40625,250001.140625,15947.0,1.0,3
231738.0625,276572.375,349692.53125,313066.5,247617.203125,279528.0625,251708.734375,250475.453125,15948.0,1.0,3
231662.515625,276209.71875,349062.1875,312821.53125,247351.03125,279515.8125,251535.453125,250224.296875,15949.0,1.0,3
231076.453125,275120.65625,347700.28125,312424.03125,245933.484375,279000.21875,251057.84375,249589.78125,15950.0,1.0,3
230780.703125,274799.5,347476.03125,312415.71875,245311.65625,278695.78125,250937.953125,249451.203125,15951.0,1.0,3
231199.296875,275702.53125,348700.375,312812.21875,246351.375,279031.5,251351.90625,250011.25,15952.0,1.0,3
231736.109375,276567.09375,349676.15625,313056.21875,247610.484375,279523.875,251713.203125,250483.140625,15953.0,1.0,3
231660.015625,276207.59375,349051.03125,312804.1875,247347.984375,279499.09375,251516.953125,250203.5625,15954.0,1.0,3
231069.3125,275112.96875,347684.625,312402.65625,245925.171875,278985.53125,251038.171875,249566.71875,15955.0,1.0,3
230768.453125,274787.0,347449.375,312395.40625,245286.453125,278688.71875,250922.21875,249429.03125,15956.0,1.0,3
231182.9375,275683.125,348666.9375,312794.0,246319.640625,279025.15625,251333.046875,249979.59375,15957.0,1.0,3
231727.609375,276557.78125,349653.625,313043.4375,247591.265625,279521.0,251701.046875,250457.828125,15958.0,1.0,3
231662.34375,276214.03125,349047.28125,312802.75,247350.140625,279505.90625,251520.265625,250215.8125,15959.0,1.0,3
231071.546875,275117.53125,347677.03125,312399.875,245924.546875,278991.34375,251038.4375,249580.578125,15960.0,1.0,3
230771.84375,274784.84375,347430.15625,312390.84375,245275.625,278691.84375,250932.859375,249437.875,15961.0,1.0,3
231175.609375,275668.0,348640.1875,312783.1875,246296.296875,279017.46875,251335.1875,249975.65625,15962.0,1.0,3
231721.078125,276547.875,349637.0,313036.09375,247578.125,279512.25,251693.4375,250456.046875,15963.0,1.0,3
231664.9375,276221.34375,349050.21875,312802.40625,247363.109375,279504.03125,251521.78125,250223.59375,15964.0,1.0,3
231064.65625,275120.40625,347674.15625,312395.6875,245939.390625,278989.40625,251044.4375,249593.890625,15965.0,1.0,3
230758.96875,274775.28125,347408.25,312380.65625,245276.34375,278687.09375,250926.15625,249437.875,15966.0,1.0,3
231165.59375,275658.8125,348611.3125,312775.5625,246291.296875,279008.875,251327.3125,249973.25,15967.0,1.0,3
231715.359375,276545.4375,349619.21875,313034.6875,247580.890625,279505.34375,251699.078125,250469.015625,15968.0,1.0,3
231670.828125,276231.625,349050.59375,312801.3125,247384.296875,279507.0625,251530.359375,250233.0625,15969.0,1.0,3
231084.765625,275141.21875,347680.6875,312395.3125,245974.171875,279000.375,251052.84375,249600.6875,15970.0,1.0,3
230768.453125,274779.9375,347396.28125,312370.84375,245294.578125,278691.84375,250925.078125,249433.328125,15971.0,1.0,3
231159.0625,275646.5625,348590.59375,312760.09375,246293.96875,279020.78125,251334.5625,249970.65625,15972.0,1.0,3
231716.703125,276543.65625,349611.78125,313019.5625,247590.90625,279515.375,251702.203125,250464.984375,15973.0,1.0,3
231672.625,276235.65625,349048.6875,312786.03125,247401.015625,279510.28125,251523.125,250227.078125,15974.0,1.0,3
231087.09375,275147.84375,347675.3125,312379.6875,245988.203125,279010.59375,251050.328125,249593.265625,15975.0,1.0,3
230761.296875,274770.375,347375.4375,312350.53125,245289.390625,278695.0625,250916.765625,249420.984375,15976.0,1.0,3
231146.1875,275628.6875,348558.3125,312734.0,246265.0,279004.40625,251314.4375,249950.984375,15977.0,1.0,3
231704.1875,276534.8125,349590.5,313000.6875,247564.625,279503.9375,251691.65625,250453.1875,15978.0,1.0,3
231668.78125,276239.84375,349043.78125,312774.3125,247392.421875,279504.1875,251524.640625,250229.40625,15979.0,1.0,3
231085.9375,275148.28125,347668.09375,312367.25,245979.796875,279004.15625,251047.03125,249594.875,15980.0,1.0,3
230762.015625,274762.78125,347353.8125,312336.40625,245269.1875,278683.25,250903.796875,249413.109375,15981.0,1.0,3
231142.265625,275611.15625,348526.375,312717.28125,246234.515625,278983.65625,251293.515625,249928.8125,15982.0,1.0,3
231693.984375,276513.8125,349565.46875,312985.6875,247538.703125,279482.75,251676.0,250434.140625,15983.0,1.0,3
231663.59375,276236.5625,349039.84375,312767.0,247385.546875,279502.84375,251530.09375,250229.046875,15984.0,1.0,3
231084.0625,275151.5,347666.28125,312358.125,245981.5,279003.6875,251046.578125,249593.0,15985.0,1.0,3
230753.875,274753.90625,347332.1875,312320.3125,245256.765625,278675.84375,250898.515625,249406.40625,15986.0,1.0,3
231128.140625,275594.15625,348497.0625,312704.125,246212.609375,278976.53125,251290.84375,249931.765625,15987.0,1.0,3
231686.484375,276512.1875,349550.09375,312978.71875,247531.640625,279487.375,251682.0,250443.4375,15988.0,1.0,3
231669.5,276251.3125,349041.71875,312765.375,247405.296875,279515.375,251539.65625,250231.90625,15989.0,1.0,3
231089.59375,275158.84375,347663.625,312357.5,246009.390625,279011.65625,251055.609375,249598.640625,15990.0,1.0,3
230750.84375,274746.03125,347312.78125,312313.59375,245269.90625,278677.4375,250903.96875,249401.484375,15991.0,1.0,3
231119.375,275578.78125,348464.6875,312688.5,246209.03125,278963.71875,251280.734375,249915.140625,15992.0,1.0,3
231684.875,276505.125,349529.625,312967.34375,247537.171875,279474.15625,251670.640625,250432.625,15993.0,1.0,3
231671.1875,276257.375,349036.625,312760.03125,247428.375,279511.09375,251537.875,250245.21875,15994.0,1.0,3
231089.0625,275169.5625,347657.8125,312349.90625,246033.984375,279017.8125,251063.203125,249613.921875,15995.0,1.0,3
230752.265625,274750.59375,347293.71875,312302.53125,245282.515625,278683.1875,250901.390625,249413.65625,15996.0,1.0,3
231118.921875,275576.71875,348440.28125,312676.96875,246212.4375,278965.6875,251275.375,249922.203125,15997.0,1.0,3
231678.96875,276501.65625,349512.09375,312956.8125,247537.171875,279478.4375,251670.734375,250438.4375,15998.0,1.0,3
231672.796875,276261.21875,349034.40625,312751.78125,247438.5625,279518.875,251540.203125,250248.890625,15999.0,1.0,3
231100.953125,275178.34375,347658.0625,312338.46875,246047.65625,279026.6875,251065.796875,249611.421875,16000.0,1.0,3
230751.734375,274741.5625,347277.1875,312286.4375,245276.171875,278679.96875,250895.578125,249403.375,16001.0,1.0,3
231115.796875,275559.65625,348418.125,312663.8125,246193.921875,278958.53125,251270.71875,249909.234375,16002.0,1.0,3
231681.5625,276493.6875,349498.6875,312947.0625,247526.1875,279472.28125,251668.9375,250429.5,16003.0,1.0,3
231678.796875,276264.4375,349037.15625,312746.59375,247442.046875,279520.90625,251544.671875,250255.421875,16004.0,1.0,3
231102.125,275175.65625,347657.8125,312333.53125,246049.71875,279023.8125,251057.21875,249616.78125,16005.0,1.0,3
230744.40625,274728.6875,347258.59375,312275.875,245259.265625,278673.6875,250883.6875,249396.21875,16006.0,1.0,3
231098.625,275538.90625,348389.3125,312649.5,246159.5,278945.3125,251254.265625,249897.25,16007.0,1.0,3
231667.609375,276480.4375,349484.21875,312939.28125,247500.78125,279466.375,251664.375,250428.515625,16008.0,1.0,3
231682.546875,276275.4375,349041.625,312749.1875,247443.296875,279523.6875,251552.796875,250260.0625,16009.0,1.0,3
231115.078125,275194.15625,347663.15625,312334.875,246063.21875,279030.59375,251065.0,249617.140625,16010.0,1.0,3
230746.8125,274732.0,347245.625,312268.71875,245263.109375,278673.875,250892.0,249392.015625,16011.0,1.0,3
231088.265625,275528.90625,348363.9375,312637.8125,246152.359375,278944.5,251263.484375,249888.40625,16012.0,1.0,3
