FZ,C3,CZ,C4,PZ,PO7,OZ,PO8,Counter,Validation,Label
252294.25,266499.59375,290425.09375,326207.53125,276322.1875,253216.3125,242353.71875,239169.75,19619.0,1.0,3
251604.65625,266284.3125,290116.625,325946.03125,276627.09375,252953.0,242548.890625,238974.046875,19620.0,1.0,3
251221.90625,266249.78125,290050.65625,325857.4375,276974.34375,252846.796875,242744.515625,238899.125,19621.0,1.0,3
251698.0,266457.84375,290334.875,326074.0625,276885.375,253056.1875,242676.390625,239057.375,19622.0,1.0,3
252377.3125,266636.75,290589.9375,326285.78125,276490.46875,253289.71875,242430.78125,239220.890625,19623.0,1.0,3
252303.203125,266510.21875,290431.96875,326188.84375,276321.9375,253209.421875,242343.25,239162.875,19624.0,1.0,3
251613.234375,266295.9375,290126.1875,325937.09375,276642.09375,252950.0625,242546.390625,238978.34375,19625.0,1.0,3
251229.59375,266268.125,290060.9375,325853.84375,277003.84375,252843.484375,242752.109375,238905.296875,19626.0,1.0,3
251690.046875,266467.3125,290335.84375,326064.3125,276915.59375,253043.484375,242685.6875,239058.984375,19627.0,1.0,3
252364.53125,266639.0625,290591.1875,326279.0625,276520.40625,253280.234375,242448.84375,239231.265625,19628.0,1.0,3
252306.328125,266519.4375,290440.28125,326186.875,276341.25,253203.53125,242367.390625,239175.84375,19629.0,1.0,3
251630.5,266316.21875,290141.21875,325935.21875,276651.125,252940.3125,242570.078125,238988.96875,19630.0,1.0,3
251240.765625,266283.59375,290078.8125,325851.0625,277010.90625,252835.34375,242781.890625,238920.765625,19631.0,1.0,3
251692.359375,266478.84375,290346.5,326050.46875,276911.5625,253025.6875,242703.65625,239060.859375,19632.0,1.0,3
252364.078125,266648.0,290592.4375,326251.4375,276496.09375,253248.234375,242447.234375,239215.890625,19633.0,1.0,3
252303.640625,266521.40625,290433.40625,326152.125,276297.875,253164.0,242348.4375,239155.546875,19634.0,1.0,3
251617.4375,266303.0625,290126.375,325903.28125,276601.34375,252903.828125,242546.296875,238968.953125,19635.0,1.0,3
251226.734375,266277.40625,290068.25,325825.78125,276971.375,252806.203125,242756.765625,238901.171875,19636.0,1.0,3
251686.203125,266488.875,290346.84375,326034.53125,276892.34375,253008.609375,242687.296875,239053.53125,19637.0,1.0,3
252362.65625,266660.96875,290600.0625,326244.28125,276484.21875,253240.359375,242432.484375,239211.953125,19638.0,1.0,3
252315.171875,266542.40625,290453.4375,326157.125,276293.40625,253170.890625,242338.515625,239158.578125,19639.0,1.0,3
251633.984375,266327.3125,290150.15625,325907.3125,276596.59375,252917.6875,242539.140625,238975.296875,19640.0,1.0,3
251233.265625,266289.65625,290083.28125,325819.34375,276962.0,252811.75,242744.6875,238903.40625,19641.0,1.0,3
251689.234375,266494.84375,290362.5,326029.8125,276887.53125,253009.6875,242684.609375,239058.796875,19642.0,1.0,3
252373.734375,266671.0,290622.59375,326245.90625,276485.09375,253245.546875,242445.8125,239230.015625,19643.0,1.0,3
252331.359375,266548.9375,290475.3125,326155.34375,276287.59375,253173.484375,242347.546875,239177.0,19644.0,1.0,3
251659.640625,266341.15625,290171.0,325904.1875,276593.65625,252920.90625,242550.59375,238996.3125,19645.0,1.0,3
251257.84375,266309.15625,290105.625,325819.6875,276974.25,252824.171875,242772.328125,238924.421875,19646.0,1.0,3
251697.375,266506.9375,290373.65625,326015.9375,276904.6875,253017.015625,242708.578125,239064.703125,19647.0,1.0,3
252375.609375,266676.1875,290626.4375,326224.96875,276503.4375,253249.75,242465.125,239232.15625,19648.0,1.0,3
252330.015625,266544.9375,290468.4375,326130.84375,276299.84375,253174.90625,242358.8125,239176.46875,19649.0,1.0,3
251641.21875,266314.4375,290147.84375,325873.96875,276595.15625,252915.28125,242553.1875,238985.21875,19650.0,1.0,3
251242.109375,266289.125,290082.03125,325793.9375,276981.65625,252823.71875,242789.390625,238921.46875,19651.0,1.0,3
251678.234375,266489.65625,290345.34375,325993.6875,276911.21875,253021.9375,242730.65625,239069.0,19652.0,1.0,3
252354.875,266659.71875,290594.6875,326201.46875,276499.3125,253256.546875,242475.140625,239226.53125,19653.0,1.0,3
252317.765625,266536.78125,290450.21875,326117.875,276292.96875,253194.5,242367.9375,239176.375,19654.0,1.0,3
251641.9375,266322.46875,290137.8125,325868.0625,276586.9375,252940.484375,242556.765625,238991.03125,19655.0,1.0,3
251232.71875,266289.40625,290059.0625,325777.0625,276962.625,252833.828125,242765.796875,238903.953125,19656.0,1.0,3
251665.453125,266487.15625,290322.4375,325978.84375,276900.40625,253028.015625,242703.828125,239047.265625,19657.0,1.0,3
252355.40625,266667.0625,290582.78125,326200.5625,276502.1875,253273.078125,242461.984375,239225.90625,19658.0,1.0,3
252336.8125,266554.75,290445.46875,326123.78125,276295.5625,253215.6875,242352.015625,239177.453125,19659.0,1.0,3
251661.25,266335.4375,290138.875,325872.1875,276585.875,252967.046875,242539.5,238986.734375,19660.0,1.0,3
251247.125,266301.375,290063.25,325776.34375,276953.9375,252856.890625,242754.078125,238903.328125,19661.0,1.0,3
251665.984375,266486.09375,290322.25,325968.5625,276878.9375,253039.109375,242691.59375,239042.359375,19662.0,1.0,3
252346.921875,266651.5,290581.53125,326186.0,276472.6875,253273.703125,242446.4375,239213.921875,19663.0,1.0,3
252334.3125,266533.75,290445.65625,326109.375,276264.96875,253205.765625,242335.03125,239168.5,19664.0,1.0,3
251677.53125,266322.03125,290139.96875,325864.03125,276565.75,252940.671875,242522.34375,238987.28125,19665.0,1.0,3
251257.046875,266281.25,290059.3125,325768.28125,276959.21875,252820.0625,242736.296875,238908.78125,19666.0,1.0,3
251658.578125,266454.53125,290306.78125,325955.9375,276901.375,252991.546875,242675.3125,239045.484375,19667.0,1.0,3
252346.203125,266624.75,290566.0625,326179.375,276501.1875,253224.359375,242436.78125,239225.640625,19668.0,1.0,3
252349.15625,266518.375,290439.125,326111.34375,276291.96875,253166.234375,242339.140625,239192.28125,19669.0,1.0,3
251677.796875,266296.625,290127.28125,325855.71875,276577.625,252907.3125,242536.203125,239003.90625,19670.0,1.0,3
251243.90625,266249.15625,290039.375,325750.59375,276957.53125,252779.734375,242757.296875,238915.390625,19671.0,1.0,3
251651.859375,266437.71875,290292.75,325936.625,276902.625,252951.03125,242709.921875,239049.0625,19672.0,1.0,3
252340.921875,266615.8125,290560.625,326158.8125,276508.78125,253191.8125,242477.1875,239222.78125,19673.0,1.0,3
252347.90625,266513.8125,290435.53125,326091.75,276298.40625,253141.390625,242369.90625,239189.515625,19674.0,1.0,3
251679.671875,266298.78125,290123.5,325838.90625,276579.78125,252882.734375,242552.46875,239002.65625,19675.0,1.0,3
251230.578125,266244.78125,290030.25,325733.6875,276954.03125,252756.125,242766.78125,238912.359375,19676.0,1.0,3
251622.71875,266425.84375,290277.5625,325921.1875,276897.0,252932.359375,242706.609375,239043.78125,19677.0,1.0,3
252326.265625,266623.34375,290552.03125,326150.15625,276506.1875,253186.265625,242464.765625,239220.984375,19678.0,1.0,3
252332.25,266519.34375,290424.8125,326075.84375,276281.0625,253136.46875,242345.046875,239179.6875,19679.0,1.0,3
251658.578125,266294.125,290105.375,325815.21875,276549.375,252873.875,242517.6875,238984.0625,19680.0,1.0,3
251216.28125,266249.15625,290015.5,325709.28125,276930.09375,252752.5625,242734.40625,238894.03125,19681.0,1.0,3
251616.8125,266442.65625,290271.3125,325903.03125,276884.5625,252940.40625,242691.765625,239030.8125,19682.0,1.0,3
252318.21875,266635.125,290546.0625,326134.84375,276490.65625,253198.34375,242460.46875,239214.546875,19683.0,1.0,3
252336.359375,266533.375,290424.09375,326068.78125,276262.5625,253159.265625,242343.53125,239182.71875,19684.0,1.0,3
251673.953125,266314.4375,290111.96875,325815.03125,276537.21875,252908.484375,242521.09375,238997.015625,19685.0,1.0,3
251219.21875,266258.90625,290015.5,325704.375,276926.9375,252790.28125,242741.828125,238906.625,19686.0,1.0,3
251609.21875,266443.8125,290261.5625,325884.96875,276889.65625,252972.671875,242697.21875,239039.21875,19687.0,1.0,3
252309.28125,266629.15625,290531.21875,326113.21875,276500.9375,253229.09375,242458.953125,239219.90625,19688.0,1.0,3
252329.578125,266518.5625,290401.9375,326046.53125,276270.625,253186.984375,242332.171875,239184.78125,19689.0,1.0,3
251677.4375,266301.03125,290092.65625,325799.5,276553.3125,252943.34375,242518.859375,239008.015625,19690.0,1.0,3
251223.703125,266246.03125,289997.1875,325692.03125,276950.28125,252827.03125,242749.875,238923.53125,19691.0,1.0,3
251603.9375,266428.25,290240.71875,325873.78125,276916.125,253007.28125,242709.203125,239048.703125,19692.0,1.0,3
252307.046875,266615.46875,290509.03125,326096.15625,276518.0,253255.203125,242469.40625,239220.453125,19693.0,1.0,3
252344.140625,266514.78125,290392.0,326035.25,276283.65625,253215.234375,242350.59375,239187.90625,19694.0,1.0,3
251693.96875,266298.59375,290086.40625,325791.53125,276558.40625,252972.140625,242542.28125,239011.78125,19695.0,1.0,3
251240.0625,266251.03125,289994.9375,325685.84375,276954.125,252855.734375,242774.640625,238926.03125,19696.0,1.0,3
251611.359375,266430.65625,290235.625,325861.53125,276919.875,253027.390625,242725.109375,239044.671875,19697.0,1.0,3
252295.59375,266604.90625,290498.84375,326078.625,276515.21875,253268.96875,242470.9375,239210.703125,19698.0,1.0,3
252327.875,266505.40625,290379.84375,326022.65625,276273.75,253228.375,242342.359375,239180.578125,19699.0,1.0,3
251676.71875,266290.65625,290069.15625,325779.5625,276541.0625,252977.328125,242523.140625,238999.96875,19700.0,1.0,3
251215.921875,266240.03125,289969.28125,325665.03125,276933.03125,252845.53125,242747.015625,238902.078125,19701.0,1.0,3
251591.78125,266428.15625,290218.71875,325848.40625,276909.4375,253017.109375,242714.65625,239036.625,19702.0,1.0,3
252293.359375,266616.34375,290498.21875,326080.125,276514.4375,253268.875,242480.40625,239218.484375,19703.0,1.0,3
252347.09375,266530.78125,290397.71875,326026.5,276275.1875,253232.84375,242349.78125,239187.90625,19704.0,1.0,3
251696.125,266311.21875,290089.53125,325776.5,276537.40625,252973.75,242523.5,239003.28125,19705.0,1.0,3
251232.1875,266258.28125,289990.84375,325661.625,276931.15625,252838.5625,242750.59375,238907.4375,19706.0,1.0,3
251595.359375,266435.21875,290234.03125,325837.3125,276907.09375,253003.78125,242716.53125,239031.4375,19707.0,1.0,3
252288.625,266612.15625,290504.84375,326061.8125,276509.15625,253246.171875,242469.5,239206.234375,19708.0,1.0,3
252339.5,266518.1875,290395.03125,326009.40625,276261.125,253206.296875,242337.0,239180.3125,19709.0,1.0,3
251702.5625,266311.03125,290098.03125,325772.59375,276537.6875,252963.90625,242524.3125,239013.65625,19710.0,1.0,3
251235.59375,266258.28125,289996.8125,325655.90625,276942.5,252831.234375,242760.4375,238923.984375,19711.0,1.0,3
251578.1875,266418.59375,290220.6875,325816.84375,276911.40625,252978.9375,242715.453125,239037.796875,19712.0,1.0,3
252281.109375,266605.1875,290494.8125,326045.28125,276516.9375,253219.703125,242472.0,239213.390625,19713.0,1.0,3
252348.609375,266517.375,290393.53125,325997.96875,276272.84375,253186.71875,242343.890625,239190.765625,19714.0,1.0,3
251704.171875,266296.28125,290079.78125,325748.25,276530.15625,252931.015625,242517.515625,239004.71875,19715.0,1.0,3
251222.4375,266229.5,289967.40625,325627.90625,276926.15625,252793.859375,242746.484375,238902.78125,19716.0,1.0,3
251571.84375,266402.125,290203.25,325806.09375,276916.3125,252963.109375,242722.875,239028.765625,19717.0,1.0,3
252283.171875,266597.3125,290485.875,326040.53125,276532.9375,253222.296875,242483.890625,239211.875,19718.0,1.0,3
252358.453125,266513.28125,290385.46875,325991.09375,276283.9375,253199.046875,242352.203125,239191.484375,19719.0,1.0,3
251705.6875,266277.96875,290057.96875,325729.03125,276522.90625,252933.78125,242513.125,238996.671875,19720.0,1.0,3
251219.671875,266209.5625,289938.0,325604.5,276911.21875,252791.359375,242739.515625,238892.859375,19721.0,1.0,3
251569.25,266390.15625,290175.09375,325783.5625,276903.625,252964.53125,242718.3125,239018.75,19722.0,1.0,3
252280.03125,266588.1875,290464.0625,326024.78125,276522.375,253235.4375,242488.359375,239209.1875,19723.0,1.0,3
252359.96875,266504.40625,290369.375,325985.09375,276272.75,253222.03125,242361.40625,239194.703125,19724.0,1.0,3
251728.3125,266288.78125,290060.46875,325739.0625,276526.75,252978.75,242532.4375,239013.65625,19725.0,1.0,3
251244.609375,266228.78125,289945.3125,325611.375,276926.78125,252841.609375,242762.125,238911.453125,19726.0,1.0,3
251564.96875,266389.25,290160.0,325767.40625,276906.21875,252993.78125,242724.671875,239020.453125,19727.0,1.0,3
252277.984375,266591.3125,290449.5,326007.4375,276524.53125,253260.75,242485.421875,239205.25,19728.0,1.0,3
252365.515625,266514.78125,290357.59375,325970.09375,276272.65625,253251.359375,242347.109375,239195.328125,19729.0,1.0,3
251725.171875,266291.53125,290040.8125,325720.09375,276518.53125,253005.046875,242512.5,239009.71875,19730.0,1.0,3
251230.40625,266223.59375,289922.96875,325591.875,276921.40625,252868.34375,242742.453125,238904.3125,19731.0,1.0,3
251560.9375,266395.0,290153.09375,325760.875,276921.9375,253032.84375,242717.6875,239026.4375,19732.0,1.0,3
252271.28125,266588.71875,290437.15625,325993.25,276532.5,253287.5625,242477.71875,239204.984375,19733.0,1.0,3
252363.09375,266504.5,290346.40625,325953.09375,276269.28125,253269.59375,242338.96875,239189.6875,19734.0,1.0,3
251728.21875,266278.84375,290032.9375,325707.5,276512.375,253019.96875,242504.640625,239011.953125,19735.0,1.0,3
251234.515625,266211.875,289916.09375,325581.25,276917.65625,252877.015625,242739.515625,238909.84375,19736.0,1.0,3
251561.203125,266385.25,290147.5625,325751.75,276926.875,253033.296875,242727.53125,239034.9375,19737.0,1.0,3
252268.859375,266576.75,290432.21875,325985.8125,276539.375,253279.96875,242483.265625,239216.515625,19738.0,1.0,3
252359.4375,266487.6875,290337.0,325939.15625,276265.59375,253248.3125,242325.015625,239185.84375,19739.0,1.0,3
251726.609375,266260.25,290023.65625,325691.65625,276503.6875,252989.21875,242489.078125,239003.375,19740.0,1.0,3
251224.59375,266187.84375,289903.84375,325566.21875,276909.34375,252839.734375,242727.96875,238901.171875,19741.0,1.0,3
251547.34375,266361.09375,290137.28125,325739.0625,276925.53125,252997.265625,242726.359375,239028.765625,19742.0,1.0,3
252255.0,266551.375,290421.40625,325970.4375,276532.5625,253241.25,242482.375,239202.75,19743.0,1.0,3
252368.1875,266477.78125,290341.03125,325937.09375,276262.125,253221.140625,242336.546875,239186.75,19744.0,1.0,3
251742.4375,266255.875,290030.09375,325691.21875,276495.75,252962.296875,242498.734375,239008.640625,19745.0,1.0,3
251237.015625,266182.03125,289908.125,325559.53125,276898.4375,252802.53125,242734.0625,238900.46875,19746.0,1.0,3
251546.1875,266350.1875,290132.0,325723.03125,276911.21875,252949.25,242726.453125,239014.09375,19747.0,1.0,3
252268.59375,266559.6875,290429.28125,325969.28125,276533.75,253206.828125,242501.421875,239209.546875,19748.0,1.0,3
252380.4375,266481.1875,290348.09375,325932.53125,276260.78125,253188.40625,242346.5625,239194.96875,19749.0,1.0,3
251744.484375,266249.875,290027.75,325677.71875,276489.40625,252931.09375,242496.234375,239005.0625,19750.0,1.0,3
251235.234375,266182.28125,289900.0,325544.5,276898.15625,252778.21875,242737.546875,238899.296875,19751.0,1.0,3
251537.515625,266349.5625,290113.9375,325702.40625,276912.125,252920.109375,242727.796875,239013.734375,19752.0,1.0,3
252265.46875,266566.5625,290416.78125,325953.09375,276542.78125,253186.625,242501.15625,239203.734375,19753.0,1.0,3
252389.46875,266495.9375,290344.875,325926.1875,276272.65625,253184.5625,242350.859375,239195.140625,19754.0,1.0,3
251769.875,266272.9375,290032.125,325679.15625,276501.1875,252933.78125,242504.640625,239015.078125,19755.0,1.0,3
251250.703125,266195.625,289900.25,325538.5,276905.125,252776.421875,242736.5625,238899.296875,19756.0,1.0,3
251534.390625,266349.5625,290108.3125,325686.9375,276919.625,252916.265625,242721.53125,239005.515625,19757.0,1.0,3
252246.59375,266547.6875,290401.21875,325928.5,276540.96875,253177.15625,242485.421875,239191.921875,19758.0,1.0,3
252390.453125,266492.71875,290336.84375,325909.71875,276268.03125,253183.234375,242337.625,239192.5625,19759.0,1.0,3
251768.09375,266264.1875,290022.40625,325664.5,276493.3125,252939.6875,242494.09375,239019.109375,19760.0,1.0,3
251251.5,266189.8125,289892.125,325528.6875,276907.46875,252794.671875,242738.890625,238914.140625,19761.0,1.0,3
251536.359375,266349.9375,290103.5625,325678.625,276932.0625,252943.890625,242733.703125,239019.203125,19762.0,1.0,3
252248.296875,266552.0,290396.65625,325916.15625,276551.09375,253205.84375,242495.515625,239201.234375,19763.0,1.0,3
252384.375,266486.625,290322.8125,325889.875,276264.34375,253202.8125,242340.75,239195.140625,19764.0,1.0,3
251763.0,266255.6875,290006.375,325644.28125,276486.4375,252958.1875,242487.46875,239013.65625,19765.0,1.0,3
251234.78125,266173.71875,289866.375,325500.6875,276896.1875,252803.421875,242715.1875,238890.53125,19766.0,1.0,3
251514.71875,266331.6875,290069.0625,325647.0625,276920.96875,252943.53125,242707.59375,238993.0,19767.0,1.0,3
252227.015625,266530.34375,290362.84375,325889.0,276541.0625,253207.1875,242475.9375,239181.5625,19768.0,1.0,3
252366.671875,266460.6875,290290.96875,325867.15625,276246.46875,253204.421875,242311.15625,239175.484375,19769.0,1.0,3
251759.515625,266241.75,289978.21875,325624.96875,276463.65625,252961.140625,242464.5,239000.0625,19770.0,1.0,3
251228.96875,266163.78125,289841.6875,325484.78125,276877.40625,252810.40625,242714.5625,238889.375,19771.0,1.0,3
251500.765625,266323.5625,290053.15625,325638.90625,276914.78125,252956.40625,242725.03125,238999.96875,19772.0,1.0,3
252213.78125,266524.34375,290348.09375,325879.34375,276535.625,253214.078125,242488.28125,239187.015625,19773.0,1.0,3
252365.6875,266461.6875,290279.09375,325853.9375,276238.4375,253209.515625,242318.9375,239179.765625,19774.0,1.0,3
251751.28125,266232.96875,289961.875,325608.0625,276447.8125,252959.265625,242466.1875,239002.65625,19775.0,1.0,3
251211.984375,266149.125,289820.15625,325464.40625,276862.40625,252800.125,242708.9375,238886.515625,19776.0,1.0,3
251482.53125,266309.0625,290030.0,325616.03125,276905.84375,252939.6875,242715.28125,238993.984375,19777.0,1.0,3
252205.03125,266522.75,290335.59375,325864.65625,276536.78125,253201.28125,242483.265625,239187.109375,19778.0,1.0,3
252369.453125,266472.15625,290282.375,325853.9375,276251.3125,253210.046875,242320.8125,239191.03125,19779.0,1.0,3
251764.609375,266247.5625,289971.6875,325610.9375,276461.84375,252963.5625,242469.59375,239015.890625,19780.0,1.0,3
251222.53125,266160.65625,289831.875,325465.8125,276873.84375,252799.84375,242714.828125,238897.0625,19781.0,1.0,3
251485.65625,266319.53125,290044.5625,325617.46875,276921.0625,252936.015625,242728.515625,239004.984375,19782.0,1.0,3
252211.203125,266532.84375,290355.625,325869.75,276555.71875,253202.71875,242505.078125,239198.71875,19783.0,1.0,3
252382.859375,266480.90625,290306.25,325860.375,276263.0,253215.328125,242347.8125,239206.5,19784.0,1.0,3
251758.078125,266230.84375,289974.65625,325602.15625,276448.28125,252953.0,242475.046875,239017.671875,19785.0,1.0,3
251224.328125,266156.375,289837.0625,325459.5625,276868.3125,252792.515625,242721.53125,238904.9375,19786.0,1.0,3
251477.796875,266311.84375,290039.03125,325599.5625,276916.75,252919.65625,242726.015625,239002.125,19787.0,1.0,3
252189.65625,266514.71875,290339.4375,325840.0,276545.625,253175.890625,242494.359375,239185.21875,19788.0,1.0,3
252362.203125,266460.625,290285.4375,325827.46875,276244.5,253185.375,242327.4375,239189.421875,19789.0,1.0,3
251753.15625,266225.90625,289964.90625,325579.375,276437.28125,252933.25,242457.515625,239008.375,19790.0,1.0,3
251200.359375,266134.53125,289811.21875,325424.0625,276845.6875,252761.671875,242692.84375,238878.734375,19791.0,1.0,3
251440.421875,266280.71875,290003.0,325559.53125,276891.0,252884.875,242698.921875,238971.546875,19792.0,1.0,3
252168.375,266498.78125,290314.84375,325813.4375,276529.71875,253158.015625,242480.140625,239172.171875,19793.0,1.0,3
252357.5625,266453.625,290271.03125,325808.53125,276229.65625,253180.71875,242317.78125,239182.359375,19794.0,1.0,3
251770.78125,266236.90625,289963.03125,325574.0,276432.875,252946.84375,242463.59375,239014.09375,19795.0,1.0,3
251222.796875,266152.0625,289815.0625,325425.40625,276852.84375,252788.046875,242713.765625,238898.40625,19796.0,1.0,3
251457.5,266296.8125,290006.65625,325557.5625,276904.25,252914.5625,242720.109375,238986.921875,19797.0,1.0,3
252179.453125,266508.90625,290317.15625,325807.625,276543.03125,253188.0625,242496.6875,239180.03125,19798.0,1.0,3
252369.53125,266459.90625,290274.6875,325802.4375,276240.84375,253212.546875,242328.859375,239192.203125,19799.0,1.0,3
251775.78125,266228.15625,289957.65625,325556.40625,276428.59375,252966.421875,242460.65625,239016.0625,19800.0,1.0,3
251225.03125,266141.4375,289804.5,325405.28125,276846.9375,252799.578125,242705.171875,238892.59375,19801.0,1.0,3
251445.78125,266278.65625,289987.4375,325534.75,276897.53125,252913.9375,242704.90625,238973.15625,19802.0,1.0,3
252165.78125,266489.03125,290298.75,325788.84375,276537.84375,253182.953125,242481.125,239168.6875,19803.0,1.0,3
252369.171875,266448.4375,290265.40625,325795.75,276237.0,253215.140625,242317.421875,239188.265625,19804.0,1.0,3
251775.96875,266218.40625,289947.5625,325548.78125,276416.875,252968.65625,242448.75,239008.640625,19805.0,1.0,3
251216.1875,266125.25,289793.0625,325395.1875,276836.28125,252800.296875,242697.9375,238887.234375,19806.0,1.0,3
251431.65625,266261.3125,289978.5,325527.0625,276895.75,252916.53125,242713.484375,238976.640625,19807.0,1.0,3
252147.453125,266466.4375,290286.9375,325779.09375,276536.0625,253184.03125,242490.953125,239172.703125,19808.0,1.0,3
252357.28125,266428.0625,290250.28125,325780.09375,276228.59375,253211.5625,242320.453125,239188.359375,19809.0,1.0,3
251777.578125,266208.125,289938.96875,325540.3125,276413.75,252968.03125,242456.0,239016.78125,19810.0,1.0,3
251213.765625,266115.3125,289782.96875,325385.625,276838.25,252795.65625,242705.171875,238896.890625,19811.0,1.0,3
251423.25,266252.28125,289966.875,325518.9375,276908.09375,252911.15625,242728.15625,238996.03125,19812.0,1.0,3
252143.78125,266466.96875,290280.40625,325775.625,276553.5,253178.765625,242511.078125,239195.78125,19813.0,1.0,3
252357.015625,266430.65625,290243.40625,325772.84375,276238.15625,253198.34375,242329.484375,239199.703125,19814.0,1.0,3
251784.8125,266212.25,289933.25,325531.71875,276423.84375,252951.84375,242455.90625,239024.296875,19815.0,1.0,3
251215.5625,266111.125,289773.75,325371.5,276843.71875,252771.421875,242696.5,238895.015625,19816.0,1.0,3
251420.65625,266247.375,289957.21875,325499.625,276913.71875,252881.484375,242717.875,238986.921875,19817.0,1.0,3
252139.9375,266460.15625,290270.59375,325752.625,276556.34375,253143.359375,242489.265625,239178.34375,19818.0,1.0,3
252368.640625,266430.3125,290248.5,325762.75,276243.25,253170.0,242309.546875,239196.578125,19819.0,1.0,3
251793.578125,266203.03125,289939.5,325520.4375,276413.125,252921.71875,242434.90625,239018.390625,19820.0,1.0,3
251218.953125,266099.5,289772.84375,325351.5625,276818.21875,252729.390625,242676.828125,238883.203125,19821.0,1.0,3
251412.875,266228.59375,289953.625,325474.84375,276884.5625,252833.015625,242703.65625,238970.015625,19822.0,1.0,3
252141.015625,266450.15625,290274.6875,325733.15625,276532.125,253102.3125,242495.78125,239174.234375,19823.0,1.0,3
252376.953125,266424.84375,290255.125,325747.53125,276214.28125,253136.734375,242323.5,239201.140625,19824.0,1.0,3
251803.140625,266199.8125,289949.4375,325510.53125,276391.40625,252899.890625,242448.84375,239027.421875,19825.0,1.0,3
251236.65625,266112.375,289796.09375,325352.8125,276828.0625,252732.265625,242707.140625,238900.640625,19826.0,1.0,3
251430.21875,266255.5,289976.4375,325473.6875,276916.125,252843.03125,242739.78125,238986.5625,19827.0,1.0,3
252138.0625,266461.3125,290279.625,325716.96875,276558.25,253097.125,242512.765625,239171.71875,19828.0,1.0,3
252363.28125,266422.25,290252.625,325727.25,276234.3125,253128.15625,242328.78125,239194.875,19829.0,1.0,3
251788.75,266193.09375,289937.09375,325486.84375,276400.4375,252886.125,242446.25,239021.875,19830.0,1.0,3
251212.4375,266100.40625,289765.96875,325319.65625,276823.15625,252710.09375,242698.921875,238895.546875,19831.0,1.0,3
251390.0,266232.0,289930.3125,325435.875,276900.9375,252817.90625,242725.734375,238977.703125,19832.0,1.0,3
252114.640625,266457.3125,290252.15625,325699.4375,276562.34375,253105.171875,242517.953125,239179.5,19833.0,1.0,3
252363.453125,266439.0625,290234.375,325719.90625,276242.0,253159.453125,242341.46875,239210.078125,19834.0,1.0,3
251805.5625,266224.40625,289922.25,325485.65625,276405.8125,252935.65625,242463.15625,239043.328125,19835.0,1.0,3
251221.375,266128.5625,289751.65625,325323.65625,276825.65625,252771.6875,242716.796875,238919.421875,19836.0,1.0,3
251391.0625,266262.5625,289919.75,325441.78125,276911.3125,252892.828125,242745.40625,238995.234375,19837.0,1.0,3
252105.15625,266483.15625,290233.40625,325697.84375,276564.3125,253179.5625,242522.15625,239185.21875,19838.0,1.0,3
252356.125,266460.875,290212.1875,325714.90625,276232.25,253234.640625,242331.453125,239210.96875,19839.0,1.0,3
251808.78125,266248.625,289904.03125,325483.71875,276394.1875,253013.625,242447.421875,239045.21875,19840.0,1.0,3
251227.359375,266151.53125,289736.375,325322.59375,276820.65625,252850.1875,242697.578125,238917.890625,19841.0,1.0,3
251394.1875,266285.09375,289907.15625,325442.21875,276912.46875,252964.1875,242728.875,239001.140625,19842.0,1.0,3
252122.421875,266518.375,290231.875,325704.8125,276574.0625,253247.59375,242516.265625,239198.1875,19843.0,1.0,3
252385.71875,266501.375,290225.4375,325730.375,276246.03125,253304.828125,242331.359375,239234.21875,19844.0,1.0,3
251829.0625,266273.75,289911.0,325488.4375,276390.78125,253068.078125,242439.90625,239059.875,19845.0,1.0,3
251233.703125,266161.53125,289737.53125,325316.34375,276812.78125,252887.5625,242689.796875,238925.046875,19846.0,1.0,3
251393.5625,266284.21875,289900.4375,325424.25,276905.75,252983.21875,242719.921875,238998.8125,19847.0,1.0,3
252113.296875,266504.6875,290215.25,325675.125,276555.71875,253244.734375,242500.171875,239192.5625,19848.0,1.0,3
252378.390625,266486.28125,290210.40625,325700.0625,276222.0625,253288.109375,242318.578125,239228.59375,19849.0,1.0,3
251831.125,266267.5,289910.53125,325470.21875,276379.78125,253052.6875,242437.578125,239063.8125,19850.0,1.0,3
251242.734375,266169.9375,289742.90625,325300.15625,276811.4375,252868.515625,242697.75,238931.046875,19851.0,1.0,3
251388.5625,266291.625,289905.53125,325410.03125,276913.8125,252955.78125,242740.578125,239004.796875,19852.0,1.0,3
252110.875,266519.625,290235.4375,325677.8125,276587.84375,253225.875,242532.796875,239205.703125,19853.0,1.0,3
252387.5,266512.28125,290237.3125,325708.65625,276260.0625,253271.109375,242343.96875,239239.046875,19854.0,1.0,3
251841.046875,266293.15625,289929.21875,325470.125,276402.84375,253027.65625,242453.671875,239068.734375,19855.0,1.0,3
251238.0,266181.5625,289744.59375,325289.59375,276816.4375,252824.078125,242700.171875,238925.9375,19856.0,1.0,3
251377.390625,266301.65625,289901.96875,325396.1875,276914.78125,252905.34375,242738.4375,238990.3125,19857.0,1.0,3
252108.46875,266540.4375,290233.65625,325660.1875,276583.09375,253177.5,242533.78125,239188.796875,19858.0,1.0,3
252393.9375,266535.8125,290242.4375,325694.15625,276245.125,253229.546875,242345.5,239227.6875,19859.0,1.0,3
251841.5,266305.5,289933.78125,325456.78125,276376.125,252985.015625,242444.828125,239058.796875,19860.0,1.0,3
251232.1875,266189.25,289753.09375,325279.5,276790.15625,252788.234375,242689.890625,238917.984375,19861.0,1.0,3
251385.703125,266328.28125,289925.03125,325395.625,276904.875,252886.125,242743.890625,238996.75,19862.0,1.0,3
252111.6875,266564.6875,290253.0625,325655.46875,276570.3125,253159.625,242537.890625,239197.734375,19863.0,1.0,3
252389.828125,266546.96875,290251.625,325680.9375,276220.46875,253210.859375,242333.515625,239231.53125,19864.0,1.0,3
251843.015625,266310.9375,289941.46875,325449.5625,276350.71875,252979.296875,242432.75,239065.59375,19865.0,1.0,3
251240.859375,266201.59375,289764.28125,325276.09375,276777.1875,252798.0625,242683.0,238924.609375,19866.0,1.0,3
251380.15625,266332.03125,289923.40625,325379.09375,276890.90625,252890.875,242731.90625,238993.796875,19867.0,1.0,3
252099.53125,266561.375,290250.125,325635.875,276556.71875,253166.78125,242523.0625,239189.25,19868.0,1.0,3
252388.21875,266545.375,290256.1875,325667.875,276210.8125,253232.140625,242327.609375,239228.765625,19869.0,1.0,3
251867.15625,266331.25,289955.96875,325444.625,276353.0625,253013.796875,242440.53125,239074.0,19870.0,1.0,3
251269.46875,266227.15625,289774.28125,325268.40625,276785.6875,252835.25,242700.171875,238939.625,19871.0,1.0,3
251387.578125,266338.125,289920.65625,325363.375,276902.625,252925.640625,242745.40625,239001.140625,19872.0,1.0,3
252105.6875,266561.8125,290243.125,325620.40625,276575.59375,253200.578125,242532.4375,239197.03125,19873.0,1.0,3
252418.625,266563.15625,290258.78125,325660.90625,276237.71875,253273.078125,242345.046875,239245.03125,19874.0,1.0,3
251879.5,266324.96875,289938.0,325418.875,276353.6875,253035.265625,242437.84375,239070.421875,19875.0,1.0,3
251257.40625,266195.96875,289736.8125,325231.65625,276769.59375,252838.125,242684.796875,238923.078125,19876.0,1.0,3
251366.296875,266304.15625,289878.8125,325329.65625,276890.375,252921.796875,242737.0,238989.15625,19877.0,1.0,3
252093.0,266542.15625,290206.40625,325592.875,276571.1875,253205.84375,242539.59375,239186.5625,19878.0,1.0,3
252402.96875,266543.59375,290222.3125,325637.125,276230.28125,253286.5,242351.9375,239237.53125,19879.0,1.0,3
251871.453125,266313.53125,289913.9375,325409.59375,276354.65625,253067.453125,242453.859375,239077.75,19880.0,1.0,3
251257.84375,266196.40625,289721.4375,325228.34375,276777.1875,252881.921875,242707.234375,238931.9375,19881.0,1.0,3
251373.359375,266320.59375,289871.03125,325328.21875,276904.96875,252968.46875,242759.984375,238994.96875,19882.0,1.0,3
252088.703125,266547.0625,290195.46875,325588.21875,276578.1875,253236.78125,242547.375,239192.828125,19883.0,1.0,3
252400.015625,266542.96875,290214.09375,325632.125,276230.5625,253305.53125,242345.671875,239238.6875,19884.0,1.0,3
251875.46875,266314.78125,289908.5,325406.53125,276350.28125,253075.21875,242435.703125,239074.359375,19885.0,1.0,3
251261.15625,266200.4375,289717.34375,325225.75,276772.53125,252877.640625,242688.8125,238930.859375,19886.0,1.0,3
251367.546875,266319.78125,289865.125,325322.78125,276895.375,252956.21875,242750.0625,238996.84375,19887.0,1.0,3
252081.015625,266543.9375,290194.78125,325583.46875,276563.6875,253225.421875,242545.3125,239195.0625,19888.0,1.0,3
252405.5625,266546.34375,290221.78125,325627.03125,276205.15625,253292.484375,242340.21875,239237.171875,19889.0,1.0,3
251893.796875,266319.96875,289920.375,325397.53125,276313.96875,253056.453125,242430.078125,239073.640625,19890.0,1.0,3
251280.109375,266198.84375,289730.3125,325216.65625,276743.5,252851.625,242692.03125,238935.15625,19891.0,1.0,3
251377.828125,266307.0,289876.375,325313.375,276890.84375,252920.109375,242755.6875,239001.3125,19892.0,1.0,3
252091.03125,266528.84375,290201.46875,325570.53125,276578.96875,253178.21875,242543.625,239191.921875,19893.0,1.0,3
252402.265625,266510.59375,290210.15625,325602.0,276213.75,253219.703125,242318.140625,239226.171875,19894.0,1.0,3
251888.34375,266281.53125,289906.6875,325374.71875,276327.5625,252980.546875,242402.796875,239065.15625,19895.0,1.0,3
251259.453125,266151.4375,289708.9375,325186.4375,276748.84375,252773.75,242660.734375,238918.609375,19896.0,1.0,3
251351.28125,266261.40625,289849.3125,325277.875,276888.78125,252841.78125,242734.859375,238979.140625,19897.0,1.0,3
252064.5625,266488.78125,290177.5,325538.25,276569.6875,253108.75,242543.171875,239176.015625,19898.0,1.0,3
252392.515625,266487.6875,290201.21875,325583.03125,276206.6875,253177.15625,242344.953125,239226.171875,19899.0,1.0,3
251881.640625,266259.4375,289894.8125,325353.25,276308.625,252943.34375,242432.484375,239062.828125,19900.0,1.0,3
251250.34375,266132.03125,289694.53125,325164.53125,276727.03125,252735.484375,242684.875,238910.921875,19901.0,1.0,3
251341.0,266249.875,289834.625,325256.625,276871.96875,252811.75,242755.78125,238966.890625,19902.0,1.0,3
252051.0625,266480.28125,290157.9375,325517.9375,276554.3125,253084.875,242551.671875,239163.3125,19903.0,1.0,3
252391.53125,266493.96875,290191.1875,325578.28125,276196.84375,253171.609375,242345.578125,239223.21875,19904.0,1.0,3
251892.453125,266275.09375,289890.78125,325358.71875,276298.0625,252954.890625,242423.640625,239069.625,19905.0,1.0,3
251263.03125,266151.8125,289689.625,325168.375,276719.71875,252757.5625,242668.703125,238919.328125,19906.0,1.0,3
251331.515625,266252.75,289823.0,325251.78125,276865.0,252833.5625,242734.953125,238973.0625,19907.0,1.0,3
252039.71875,266481.4375,290151.5,325513.75,276551.875,253112.0625,242535.921875,239171.71875,19908.0,1.0,3
252387.6875,266494.9375,290185.375,325568.09375,276185.40625,253196.90625,242326.890625,239223.046875,19909.0,1.0,3
251892.8125,266271.96875,289884.09375,325342.53125,276274.5625,252978.84375,242406.109375,239060.859375,19910.0,1.0,3
251270.453125,266155.8125,289688.625,325158.8125,276697.71875,252789.84375,242672.8125,238921.03125,19911.0,1.0,3
251335.0,266258.71875,289819.09375,325244.4375,276845.5,252867.890625,242750.59375,238980.921875,19912.0,1.0,3
252043.734375,266487.875,290146.21875,325506.59375,276537.21875,253147.28125,242549.875,239179.140625,19913.0,1.0,3
252406.28125,266512.46875,290188.5,325566.9375,276186.40625,253242.6875,242343.25,239239.40625,19914.0,1.0,3
251910.96875,266286.53125,289882.125,325339.03125,276284.28125,253023.8125,242419.875,239080.625,19915.0,1.0,3
251270.546875,266149.125,289667.96875,325142.15625,276710.9375,252815.5,242668.96875,238930.421875,19916.0,1.0,3
251340.015625,266257.75,289796.28125,325226.65625,276877.78125,252883.71875,242743.984375,238986.65625,19917.0,1.0,3
252041.140625,266481.4375,290116.28125,325479.59375,276570.125,253152.203125,242543.796875,239177.890625,19918.0,1.0,3
252383.390625,266475.09375,290143.53125,325527.25,276194.71875,253232.3125,242328.59375,239229.125,19919.0,1.0,3
251899.25,266252.90625,289847.25,325311.15625,276285.375,253021.9375,242410.765625,239075.34375,19920.0,1.0,3
251266.796875,266130.875,289643.84375,325120.625,276706.75,252819.96875,242661.375,238918.34375,19921.0,1.0,3
251322.9375,266239.15625,289774.46875,325199.46875,276866.25,252886.125,242743.0,238971.265625,19922.0,1.0,3
252019.859375,266463.125,290097.3125,325456.15625,276553.3125,253152.65625,242548.265625,239167.515625,19923.0,1.0,3
252377.765625,266473.3125,290142.5625,325524.75,276182.28125,253244.109375,242337.984375,239228.671875,19924.0,1.0,3
251896.484375,266252.03125,289845.0,325307.84375,276265.0625,253030.796875,242412.375,239073.203125,19925.0,1.0,3
251258.109375,266122.125,289635.15625,325114.46875,276684.9375,252823.640625,242667.171875,238920.765625,19926.0,1.0,3
251310.15625,266231.5625,289762.125,325195.8125,276850.875,252884.15625,242745.859375,238969.65625,19927.0,1.0,3
252014.5,266467.59375,290093.28125,325460.09375,276551.09375,253157.484375,242551.125,239173.25,19928.0,1.0,3
252386.609375,266491.28125,290146.9375,325530.46875,276184.25,253253.40625,242341.296875,239244.5,19929.0,1.0,3
251908.015625,266269.5625,289854.125,325311.0625,276265.875,253036.515625,242402.359375,239082.9375,19930.0,1.0,3
251264.828125,266137.0625,289647.96875,325115.78125,276689.75,252826.5,242656.453125,238929.78125,19931.0,1.0,3
251309.796875,266240.40625,289773.75,325192.9375,276858.375,252883.71875,242746.65625,238980.75,19932.0,1.0,3
252013.15625,266474.28125,290104.1875,325452.40625,276554.84375,253151.484375,242558.1875,239177.359375,19933.0,1.0,3
252381.0625,266484.125,290151.0625,325512.3125,276173.25,253236.15625,242332.703125,239231.53125,19934.0,1.0,3
251914.8125,266262.3125,289856.375,325295.59375,276246.21875,253018.71875,242399.40625,239075.171875,19935.0,1.0,3
251287.078125,266140.4375,289652.0625,325105.34375,276676.15625,252815.3125,242662.984375,238929.515625,19936.0,1.0,3
251312.921875,266228.34375,289760.53125,325172.46875,276844.15625,252863.328125,242749.171875,238972.25,19937.0,1.0,3
252008.515625,266450.0625,290085.0625,325430.96875,276550.1875,253128.328125,242554.703125,239159.296875,19938.0,1.0,3
252395.46875,266471.0625,290145.78125,325506.6875,276189.4375,253228.46875,242341.828125,239229.296875,19939.0,1.0,3
251931.984375,266249.625,289849.3125,325288.09375,276262.5625,253011.75,242406.015625,239074.359375,19940.0,1.0,3
251279.3125,266106.46875,289634.28125,325090.125,276688.6875,252801.015625,242663.609375,238919.15625,19941.0,1.0,3
251305.5,266203.65625,289752.46875,325162.46875,276873.21875,252856.171875,242758.734375,238966.625,19942.0,1.0,3
252005.734375,266437.1875,290083.28125,325424.6875,276585.0625,253124.3125,242567.765625,239167.875,19943.0,1.0,3
252399.125,266471.15625,290146.75,325500.5,276214.46875,253226.953125,242352.640625,239242.265625,19944.0,1.0,3
251929.46875,266243.625,289841.0625,325274.84375,276266.59375,253005.84375,242404.859375,239080.625,19945.0,1.0,3
251279.03125,266108.53125,289616.5625,325070.375,276678.40625,252792.875,242656.0,238920.578125,19946.0,1.0,3
251290.921875,266199.28125,289725.90625,325136.90625,276854.875,252844.828125,242748.546875,238962.25,19947.0,1.0,3
251983.828125,266432.0,290060.75,325406.71875,276572.1875,253127.34375,242570.34375,239167.15625,19948.0,1.0,3
252383.296875,266467.0625,290126.46875,325488.0,276197.3125,253238.84375,242354.875,239242.796875,19949.0,1.0,3
251922.328125,266238.71875,289823.28125,325268.21875,276246.28125,253023.28125,242405.484375,239085.71875,19950.0,1.0,3
251269.03125,266095.21875,289600.46875,325064.9375,276663.03125,252812.453125,242653.234375,238925.5,19951.0,1.0,3
251279.75,266186.9375,289709.125,325130.90625,276846.9375,252862.609375,242742.109375,238963.671875,19952.0,1.0,3
251978.640625,266422.875,290043.65625,325396.09375,276565.21875,253140.3125,242560.96875,239167.515625,19953.0,1.0,3
252387.328125,266462.3125,290115.90625,325479.59375,276193.46875,253251.359375,242339.328125,239242.4375,19954.0,1.0,3
251948.78125,266258.09375,289832.03125,325272.96875,276257.5625,253051.796875,242400.921875,239100.015625,19955.0,1.0,3
251280.734375,266103.15625,289594.9375,325052.75,276659.71875,252826.578125,242643.84375,238924.78125,19956.0,1.0,3
251277.34375,266182.28125,289692.75,325108.65625,276839.0625,252866.375,242733.421875,238955.0,19957.0,1.0,3
251971.140625,266415.375,290023.375,325372.75,276558.25,253137.90625,242551.9375,239158.84375,19958.0,1.0,3
252381.421875,266449.78125,290094.1875,325455.53125,276180.84375,253250.90625,242337.890625,239241.8125,19959.0,1.0,3
251949.234375,266242.375,289810.59375,325249.71875,276239.9375,253049.65625,242397.4375,239096.984375,19960.0,1.0,3
251293.875,266102.71875,289589.46875,325047.40625,276662.3125,252833.015625,242651.890625,238936.3125,19961.0,1.0,3
251287.359375,266188.09375,289693.1875,325108.1875,276859.71875,252874.59375,242748.890625,238970.46875,19962.0,1.0,3
251974.453125,266416.96875,290024.1875,325368.625,276581.40625,253142.015625,242565.875,239165.734375,19963.0,1.0,3
252389.46875,266453.0,290100.25,325453.125,276203.65625,253253.40625,242345.140625,239244.859375,19964.0,1.0,3
251946.734375,266229.3125,289803.15625,325235.6875,276244.6875,253037.671875,242387.0625,239088.84375,19965.0,1.0,3
251285.296875,266082.15625,289575.71875,325029.34375,276662.125,252815.9375,242641.25,238930.421875,19966.0,1.0,3
251267.5,266163.78125,289671.125,325081.375,276854.0,252849.46875,242738.078125,238961.625,19967.0,1.0,3
251954.6875,266400.25,290001.84375,325342.0,276574.0625,253116.890625,242556.140625,239153.75,19968.0,1.0,3
252383.21875,266452.375,290088.03125,325438.28125,276198.375,253239.015625,242340.671875,239240.65625,19969.0,1.0,3
251958.078125,266248.09375,289811.5625,325236.75,276247.28125,253040.796875,242394.390625,239101.0,19970.0,1.0,3
251291.015625,266096.1875,289580.1875,325023.25,276658.1875,252816.03125,242643.21875,238932.03125,19971.0,1.0,3
251260.0,266166.1875,289666.46875,325069.40625,276850.0625,252844.015625,242737.984375,238953.125,19972.0,1.0,3
251956.5625,266409.65625,290006.125,325340.21875,276586.40625,253121.09375,242571.421875,239159.296875,19973.0,1.0,3
252391.625,266460.875,290090.6875,325432.375,276205.0,253237.765625,242351.296875,239243.515625,19974.0,1.0,3
251961.578125,266242.625,289797.0,325219.59375,276235.9375,253027.21875,242391.171875,239093.84375,19975.0,1.0,3
251282.4375,266079.75,289552.03125,324997.96875,276636.03125,252792.078125,242627.125,238918.875,19976.0,1.0,3
251255.703125,266160.21875,289646.96875,325054.09375,276843.1875,252830.34375,242736.828125,238951.515625,19977.0,1.0,3
251952.546875,266405.625,289987.4375,325325.46875,276583.28125,253109.734375,242572.671875,239160.015625,19978.0,1.0,3
252393.046875,266457.65625,290077.65625,325418.78125,276203.46875,253230.609375,242348.984375,239246.203125,19979.0,1.0,3
251966.21875,266237.09375,289790.90625,325207.875,276235.65625,253023.453125,242386.265625,239098.234375,19980.0,1.0,3
251288.515625,266074.46875,289552.03125,324991.875,276646.75,252796.1875,242631.234375,238930.328125,19981.0,1.0,3
251251.6875,266148.75,289640.71875,325039.25,276856.84375,252828.734375,242738.4375,238958.046875,19982.0,1.0,3
251932.96875,266381.21875,289972.40625,325302.3125,276590.875,253097.671875,242568.46875,239161.078125,19983.0,1.0,3
252385.09375,266442.5625,290070.65625,325406.1875,276212.6875,253229.359375,242351.484375,239253.890625,19984.0,1.0,3
251971.5,266225.90625,289785.5625,325199.46875,276239.21875,253024.984375,242384.46875,239101.1875,19985.0,1.0,3
251296.296875,266062.9375,289546.75,324985.09375,276648.09375,252797.703125,242639.015625,238935.59375,19986.0,1.0,3
251250.515625,266134.28125,289632.5,325026.9375,276860.34375,252822.375,242747.46875,238953.125,19987.0,1.0,3
251934.03125,266374.96875,289966.34375,325286.28125,276598.75,253089.796875,242577.0625,239145.4375,19988.0,1.0,3
252385.984375,266433.4375,290063.59375,325389.1875,276217.96875,253220.6875,242354.078125,239237.796875,19989.0,1.0,3
251972.390625,266214.75,289775.90625,325184.375,276240.03125,253020.59375,242384.390625,239096.71875,19990.0,1.0,3
251291.734375,266050.6875,289531.09375,324966.5625,276649.0,252793.328125,242632.21875,238933.71875,19991.0,1.0,3
251237.28125,266121.59375,289611.375,325007.15625,276865.15625,252817.546875,242742.8125,238950.4375,19992.0,1.0,3
251913.65625,266358.96875,289941.84375,325265.71875,276602.9375,253085.421875,242571.0625,239141.6875,19993.0,1.0,3
252369.796875,266418.9375,290042.78125,325368.46875,276213.84375,253218.546875,242345.5,239231.71875,19994.0,1.0,3
251977.75,266219.84375,289773.03125,325172.5625,276239.6875,253029.359375,242382.421875,239094.75,19995.0,1.0,3
251299.515625,266059.875,289533.15625,324954.5,276648.71875,252802.0,242631.0625,238928.0,19996.0,1.0,3
251222.71875,266117.46875,289599.5,324983.65625,276854.25,252813.359375,242735.9375,238939.625,19997.0,1.0,3
251888.609375,266349.03125,289920.5625,325235.6875,276585.9375,253071.46875,242563.734375,239126.84375,19998.0,1.0,3
252351.296875,266411.53125,290021.3125,325341.375,276196.84375,253202.71875,242338.34375,239222.0625,19999.0,1.0,3
251954.328125,266201.40625,289738.53125,325143.6875,276205.875,253007.71875,242364.796875,239080.34375,20000.0,1.0,3
251286.09375,266050.0625,289498.03125,324932.15625,276619.46875,252786.4375,242614.875,238914.765625,20001.0,1.0,3
251218.515625,266117.75,289575.8125,324973.625,276848.375,252806.640625,242732.890625,238941.046875,20002.0,1.0,3
251891.03125,266353.875,289913.59375,325240.4375,276598.1875,253075.9375,242571.953125,239147.5,20003.0,1.0,3
252362.5625,266416.90625,290024.625,325349.59375,276208.5625,253215.234375,242344.78125,239239.765625,20004.0,1.0,3
251976.859375,266209.1875,289750.6875,325152.53125,276221.1875,253029.265625,242372.765625,239103.234375,20005.0,1.0,3
251296.734375,266043.71875,289497.84375,324929.1875,276623.3125,252793.6875,242612.90625,238931.484375,20006.0,1.0,3
251216.90625,266101.46875,289565.15625,324959.96875,276847.5625,252804.140625,242725.734375,238939.796875,20007.0,1.0,3
251885.3125,266338.21875,289899.53125,325223.53125,276604.09375,253075.21875,242568.65625,239133.015625,20008.0,1.0,3
252365.328125,266410.53125,290016.84375,325339.125,276220.46875,253222.921875,242348.53125,239236.09375,20009.0,1.0,3
251987.140625,266204.90625,289747.90625,325145.125,276227.4375,253036.59375,242375.890625,239102.078125,20010.0,1.0,3
251301.84375,266036.375,289496.3125,324920.96875,276627.875,252799.9375,242621.3125,238927.109375,20011.0,1.0,3
251219.5,266101.90625,289564.28125,324951.28125,276860.0,252815.140625,242752.296875,238944.09375,20012.0,1.0,3
251884.59375,266341.0,289898.125,325210.125,276616.1875,253081.03125,242590.5625,239142.046875,20013.0,1.0,3
252356.390625,266403.21875,290012.03125,325323.75,276224.03125,253219.890625,242360.78125,239241.8125,20014.0,1.0,3
251979.546875,266195.6875,289740.84375,325131.4375,276226.28125,253037.234375,242388.046875,239111.015625,20015.0,1.0,3
251299.15625,266037.0,289489.53125,324905.96875,276629.0625,252804.59375,242628.90625,238934.609375,20016.0,1.0,3
251195.625,266090.1875,289544.0625,324922.3125,276855.34375,252805.21875,242740.9375,238934.609375,20017.0,1.0,3
251852.40625,266322.9375,289870.03125,325177.125,276610.0,253066.109375,242576.96875,239126.03125,20018.0,1.0,3
252339.671875,266396.875,289987.625,325294.25,276216.53125,253212.28125,242345.3125,239227.0625,20019.0,1.0,3
251974.796875,266196.25,289718.84375,325105.78125,276212.5,253032.40625,242366.59375,239095.546875,20020.0,1.0,3
251282.609375,266020.28125,289455.46875,324877.53125,276603.375,252792.515625,242606.5625,238917.8125,20021.0,1.0,3
251188.828125,266086.71875,289518.3125,324909.71875,276842.09375,252804.59375,242733.515625,238930.765625,20022.0,1.0,3
251859.734375,266338.3125,289856.1875,325177.3125,276608.46875,253078.71875,242583.9375,239134.984375,20023.0,1.0,3
252349.953125,266409.90625,289978.59375,325295.78125,276212.84375,253225.34375,242351.484375,239235.375,20024.0,1.0,3
251979.8125,266196.0625,289706.15625,325100.875,276196.75,253037.859375,242364.09375,239097.0625,20025.0,1.0,3
251298.625,266032.53125,289450.53125,324874.9375,276597.21875,252802.53125,242609.421875,238923.078125,20026.0,1.0,3
251194.453125,266094.03125,289506.78125,324894.96875,276836.5625,252803.0625,242730.65625,238927.109375,20027.0,1.0,3
251841.40625,266322.9375,289829.1875,325148.25,276590.875,253057.4375,242566.953125,239115.484375,20028.0,1.0,3
252328.5,266389.25,289949.34375,325266.96875,276189.6875,253200.21875,242327.171875,239213.828125,20029.0,1.0,3
251980.25,266192.46875,289693.90625,325090.03125,276186.9375,253028.375,242346.921875,239092.859375,20030.0,1.0,3
251304.4375,266029.21875,289448.21875,324873.0625,276596.25,252797.4375,242597.4375,238926.390625,20031.0,1.0,3
251187.21875,266079.125,289503.46875,324891.46875,276838.96875,252793.6875,242722.25,238929.078125,20032.0,1.0,3
251836.40625,266310.0625,289834.625,325150.75,276608.75,253056.890625,242573.5625,239126.84375,20033.0,1.0,3
252336.359375,266383.0,289967.5,325275.75,276217.78125,253209.609375,242339.5,239228.3125,20034.0,1.0,3
251989.46875,266182.8125,289707.15625,325089.25,276205.625,253030.796875,242350.40625,239101.8125,20035.0,1.0,3
251294.953125,266006.15625,289444.90625,324859.46875,276600.875,252789.5625,242595.390625,238928.09375,20036.0,1.0,3
251169.0625,266055.59375,289492.9375,324873.78125,276844.25,252781.34375,242725.46875,238928.453125,20037.0,1.0,3
251814.5,266289.84375,289819.0,325129.65625,276608.9375,253039.46875,242574.640625,239119.0625,20038.0,1.0,3
252314.28125,266362.875,289945.40625,325255.28125,276206.40625,253190.296875,242339.859375,239225.28125,20039.0,1.0,3
251974.890625,266166.375,289684.4375,325075.21875,276185.84375,253013.984375,242355.15625,239105.65625,20040.0,1.0,3
251294.5,266003.03125,289429.90625,324851.15625,276585.59375,252781.515625,242606.203125,238936.671875,20041.0,1.0,3
251169.0625,266058.71875,289483.96875,324868.21875,276840.0625,252779.203125,242741.390625,238938.453125,20042.0,1.0,3
251804.21875,266285.5625,289805.84375,325118.75,276606.875,253029.453125,242580.453125,239125.5,20043.0,1.0,3
252317.59375,266368.625,289940.125,325247.3125,276213.125,253185.015625,242340.3125,239223.21875,20044.0,1.0,3
251997.25,266184.78125,289691.40625,325073.15625,276201.15625,253018.359375,242346.296875,239100.640625,20045.0,1.0,3
251320.96875,266023.15625,289440.34375,324848.65625,276605.875,252782.78125,242590.5625,238932.375,20046.0,1.0,3
251183.015625,266068.28125,289484.875,324854.1875,276856.6875,252767.03125,242720.640625,238926.65625,20047.0,1.0,3
251821.03125,266296.09375,289807.71875,325104.25,276624.40625,253021.046875,242566.421875,239111.640625,20048.0,1.0,3
252348.171875,266391.5,289957.40625,325244.8125,276225.90625,253185.90625,242342.8125,239235.296875,20049.0,1.0,3
252020.40625,266195.4375,289706.4375,325067.15625,276189.6875,253012.734375,242353.265625,239115.671875,20050.0,1.0,3
251323.65625,266010.34375,289437.9375,324827.8125,276567.90625,252762.65625,242588.765625,238924.515625,20051.0,1.0,3
251169.609375,266043.0,289472.625,324828.25,276815.90625,252742.71875,242718.859375,238909.84375,20052.0,1.0,3
251804.03125,266272.78125,289796.28125,325082.8125,276593.5625,252999.3125,242576.609375,239100.46875,20053.0,1.0,3
252335.65625,266371.65625,289948.28125,325227.65625,276205.53125,253171.421875,242348.625,239219.640625,20054.0,1.0,3
252016.734375,266180.3125,289697.03125,325054.8125,276181.03125,253003.96875,242346.65625,239102.515625,20055.0,1.0,3
251318.375,265998.375,289425.78125,324819.6875,276575.65625,252759.890625,242584.296875,238931.21875,20056.0,1.0,3
251163.078125,266039.3125,289461.28125,324827.28125,276842.09375,252747.28125,242725.46875,238932.203125,20057.0,1.0,3
251801.890625,266280.28125,289791.625,325086.8125,276637.8125,253010.859375,242586.0,239125.859375,20058.0,1.0,3
252331.984375,266376.125,289938.15625,325221.5625,276241.90625,253179.65625,242349.96875,239240.5625,20059.0,1.0,3
252008.234375,266176.21875,289676.75,325036.59375,276194.0,253010.671875,242344.234375,239114.40625,20060.0,1.0,3
251313.109375,265997.03125,289408.96875,324805.1875,276579.96875,252770.890625,242585.109375,238935.953125,20061.0,1.0,3
251159.140625,266048.28125,289448.125,324810.03125,276844.4375,252765.96875,242735.03125,238932.921875,20062.0,1.0,3
251792.6875,266292.15625,289773.5625,325062.6875,276627.96875,253033.03125,242596.640625,239123.625,20063.0,1.0,3
252332.25,266398.75,289926.71875,325204.5625,276228.78125,253213.71875,242363.109375,239242.265625,20064.0,1.0,3
252019.78125,266211.96875,289677.09375,325032.125,276183.875,253059.84375,242363.46875,239130.421875,20065.0,1.0,3
251324.90625,266039.6875,289411.90625,324802.5,276575.03125,252828.109375,242598.0625,238954.546875,20066.0,1.0,3
251150.296875,266075.0,289439.71875,324799.5625,276838.78125,252808.609375,242727.796875,238936.671875,20067.0,1.0,3
251782.21875,266322.3125,289766.0625,325057.21875,276635.21875,253074.6875,242582.421875,239130.0625,20068.0,1.0,3
252334.9375,266440.6875,289924.65625,325203.25,276241.46875,253258.0625,242344.421875,239254.421875,20069.0,1.0,3
252040.609375,266262.40625,289681.21875,325035.59375,276198.65625,253107.046875,242338.703125,239139.71875,20070.0,1.0,3
251348.953125,266087.6875,289413.53125,324803.59375,276584.6875,252872.53125,242582.6875,238964.203125,20071.0,1.0,3
251171.578125,266121.125,289443.40625,324801.71875,276850.78125,252855.015625,242726.546875,238951.96875,20072.0,1.0,3
251790.265625,266351.53125,289762.65625,325048.46875,276633.78125,253106.25,242580.71875,239131.84375,20073.0,1.0,3
252333.765625,266451.84375,289918.5,325190.71875,276223.59375,253280.234375,242342.0,239253.796875,20074.0,1.0,3
252047.484375,266273.03125,289683.1875,325027.625,276177.0,253131.640625,242338.78125,239148.03125,20075.0,1.0,3
251349.484375,266086.0,289409.78125,324787.3125,276557.78125,252879.0625,242568.828125,238961.53125,20076.0,1.0,3
251166.46875,266119.625,289432.84375,324779.0,276830.46875,252847.0625,242720.375,238949.375,20077.0,1.0,3
251781.859375,266350.90625,289753.53125,325027.28125,276628.15625,253096.6875,242583.859375,239135.15625,20078.0,1.0,3
252335.46875,266458.5625,289918.9375,325176.0625,276233.25,253272.640625,242346.03125,239254.609375,20079.0,1.0,3
252049.453125,266272.78125,289682.09375,325013.25,276184.875,253115.09375,242335.921875,239143.46875,20080.0,1.0,3
251361.296875,266095.375,289417.8125,324785.0625,276576.84375,252873.171875,242581.53125,238971.1875,20081.0,1.0,3
251166.921875,266123.8125,289440.0,324772.375,276851.3125,252837.046875,242730.03125,238953.921875,20082.0,1.0,3
251781.5,266359.65625,289768.84375,325022.1875,276651.5,253086.046875,242599.859375,239141.6875,20083.0,1.0,3
252341.28125,266472.6875,289945.78125,325177.125,276249.5,253266.46875,242369.71875,239270.875,20084.0,1.0,3
252055.265625,266286.625,289708.125,325012.34375,276184.875,253106.96875,242357.65625,239154.734375,20085.0,1.0,3
251355.65625,266103.0625,289434.71875,324772.125,276560.75,252855.28125,242595.03125,238968.140625,20086.0,1.0,3
251157.53125,266132.75,289456.96875,324761.375,276837.8125,252820.59375,242745.40625,238948.46875,20087.0,1.0,3
251763.53125,266363.15625,289781.25,325013.4375,276643.25,253073.609375,242610.578125,239132.296875,20088.0,1.0,3
252322.0625,266475.8125,289949.875,325164.0625,276234.21875,253251.984375,242368.375,239254.609375,20089.0,1.0,3
252056.96875,266306.75,289720.46875,325007.0,276168.875,253102.3125,242355.234375,239151.96875,20090.0,1.0,3
251367.109375,266130.15625,289452.34375,324773.46875,276553.3125,252859.671875,242593.6875,238976.734375,20091.0,1.0,3
251164.859375,266156.09375,289477.8125,324764.875,276843.4375,252831.859375,242754.984375,238960.1875,20092.0,1.0,3
251767.203125,266386.75,289797.8125,325009.59375,276646.75,253080.40625,242617.828125,239141.859375,20093.0,1.0,3
252333.234375,266501.5625,289964.1875,325157.46875,276232.875,253254.3125,242362.21875,239255.671875,20094.0,1.0,3
252066.359375,266320.0625,289731.8125,324997.34375,276160.71875,253102.140625,242341.46875,239146.953125,20095.0,1.0,3
251374.171875,266135.34375,289460.5625,324764.5,276539.71875,252857.25,242580.0,238973.59375,20096.0,1.0,3
251165.765625,266157.6875,289478.71875,324752.34375,276829.9375,252822.46875,242738.53125,238959.65625,20097.0,1.0,3
251763.09375,266380.15625,289797.71875,324995.375,276640.65625,253069.859375,242609.25,239141.6875,20098.0,1.0,3
252341.1875,266500.125,289980.90625,325154.5,276241.5625,253259.40625,242376.875,239272.9375,20099.0,1.0,3
252079.046875,266314.4375,289744.78125,324992.40625,276165.125,253105.796875,242351.125,239163.140625,20100.0,1.0,3
251376.765625,266116.65625,289457.0625,324744.40625,276533.03125,252846.34375,242576.609375,238971.8125,20101.0,1.0,3
251158.875,266134.09375,289466.8125,324725.625,276824.3125,252806.640625,242738.25,238946.953125,20102.0,1.0,3
251752.0,266358.5,289784.9375,324971.59375,276641.5625,253054.125,242617.734375,239132.5625,20103.0,1.0,3
252328.5,266474.03125,289964.09375,325132.4375,276241.5625,253237.046875,242379.5625,239265.59375,20104.0,1.0,3
252081.109375,266298.53125,289735.84375,324981.3125,276172.625,253095.78125,242364.09375,239166.53125,20105.0,1.0,3
251375.421875,266097.96875,289440.8125,324730.53125,276536.25,252833.375,242586.625,238975.296875,20106.0,1.0,3
251141.890625,266109.0625,289439.90625,324703.71875,276824.3125,252786.4375,242743.625,238941.5,20107.0,1.0,3
251737.078125,266345.375,289760.6875,324949.9375,276644.5,253038.5625,242625.78125,239125.5,20108.0,1.0,3
252317.328125,266465.71875,289941.125,325109.4375,276235.84375,253230.796875,242385.453125,239259.875,20109.0,1.0,3
252059.734375,266278.21875,289703.5625,324945.21875,276144.1875,253083.8125,242344.78125,239145.53125,20110.0,1.0,3
251360.578125,266089.40625,289419.15625,324702.375,276518.625,252840.171875,242575.359375,238962.6875,20111.0,1.0,3
251139.46875,266123.09375,289427.5625,324683.34375,276824.21875,252804.765625,242741.203125,238938.1875,20112.0,1.0,3
251729.921875,266358.40625,289743.1875,324928.40625,276647.1875,253051.53125,242616.03125,239119.953125,20113.0,1.0,3
252311.953125,266479.375,289927.875,325095.0625,276242.8125,253251.171875,242374.375,239256.03125,20114.0,1.0,3
252065.015625,266293.5,289695.875,324941.53125,276147.5,253110.984375,242337.265625,239149.375,20115.0,1.0,3
251369.609375,266103.34375,289415.6875,324702.71875,276510.21875,252866.28125,242570.796875,238967.515625,20116.0,1.0,3
251135.71875,266122.375,289419.15625,324674.46875,276803.3125,252824.890625,242738.078125,238936.140625,20117.0,1.0,3
251724.734375,266352.15625,289736.46875,324915.34375,276622.96875,253066.015625,242619.796875,239113.25,20118.0,1.0,3
252311.515625,266466.34375,289919.65625,325076.53125,276207.6875,253245.640625,242371.953125,239243.703125,20119.0,1.0,3
252087.28125,266293.875,289701.59375,324933.84375,276125.25,253105.09375,242341.734375,239152.765625,20120.0,1.0,3
251397.765625,266103.6875,289420.0625,324693.0,276505.03125,252849.203125,242569.375,238973.953125,20121.0,1.0,3
251158.875,266115.59375,289421.65625,324664.28125,276821.09375,252791.359375,242729.40625,238944.09375,20122.0,1.0,3
251732.875,266332.59375,289733.96875,324908.375,276662.65625,253027.03125,242608.625,239128.453125,20123.0,1.0,3
252318.484375,266444.59375,289915.46875,325067.78125,276254.4375,253209.515625,242356.21875,239251.390625,20124.0,1.0,3
252094.4375,266269.09375,289692.84375,324915.53125,276156.875,253068.875,242322.875,239148.125,20125.0,1.0,3
251387.75,266062.9375,289399.9375,324668.75,276513.53125,252809.6875,242561.859375,238967.78125,20126.0,1.0,3
251138.40625,266073.125,289399.5,324639.25,276819.9375,252757.375,242743.796875,238935.953125,20127.0,1.0,3
251713.828125,266299.9375,289712.59375,324876.90625,276651.40625,252996.640625,242634.1875,239108.15625,20128.0,1.0,3
252311.59375,266429.59375,289904.09375,325046.875,276240.5625,253193.328125,242403.15625,239243.609375,20129.0,1.0,3
252097.5625,266265.53125,289689.875,324907.375,276144.46875,253058.59375,242366.140625,239150.4375,20130.0,1.0,3
251389.09375,266061.78125,289393.25,324661.0625,276502.625,252794.21875,242579.5625,238959.296875,20131.0,1.0,3
251125.796875,266070.15625,289382.0625,324629.15625,276811.4375,252735.03125,242740.578125,238923.078125,20132.0,1.0,3
251692.28125,266299.40625,289691.5,324869.65625,276648.71875,252972.140625,242622.75,239100.109375,20133.0,1.0,3
252297.296875,266442.09375,289890.6875,325045.25,276246.75,253177.59375,242378.84375,239242.265625,20134.0,1.0,3
252083.34375,266274.75,289673.625,324901.125,276141.15625,253050.09375,242332.265625,239146.15625,20135.0,1.0,3
251384.8125,266078.75,289384.125,324657.3125,276497.15625,252801.640625,242552.65625,238962.15625,20136.0,1.0,3
251123.734375,266090.5625,289376.6875,324622.96875,276805.0,252747.734375,242725.109375,238924.421875,20137.0,1.0,3
251689.78125,266316.40625,289684.625,324855.0,276637.09375,252981.4375,242613.359375,239097.421875,20138.0,1.0,3
252284.859375,266435.59375,289869.5,325012.71875,276207.9375,253169.109375,242361.140625,239227.953125,20139.0,1.0,3
252072.53125,266255.6875,289650.5625,324869.5625,276086.625,253036.25,242317.59375,239133.375,20140.0,1.0,3
251382.21875,266063.65625,289367.3125,324628.96875,276445.40625,252786.703125,242547.640625,238953.921875,20141.0,1.0,3
251121.6875,266078.84375,289360.96875,324596.875,276768.625,252736.015625,242724.671875,238920.9375,20142.0,1.0,3
251686.28125,266307.90625,289671.125,324839.78125,276625.5625,252981.171875,242620.15625,239101.359375,20143.0,1.0,3
252292.015625,266437.90625,289870.65625,325019.78125,276226.90625,253190.5625,242378.578125,239250.21875,20144.0,1.0,3
252088.171875,266262.21875,289654.5625,324881.1875,276118.0,253064.3125,242326.359375,239161.265625,20145.0,1.0,3
251394.375,266061.84375,289360.78125,324633.71875,276475.34375,252808.4375,242547.375,238972.25,20146.0,1.0,3
251130.890625,266076.59375,289356.9375,324606.0,276811.53125,252764.09375,242738.609375,238947.578125,20147.0,1.0,3
251684.59375,266293.875,289657.4375,324839.15625,276660.6875,252999.234375,242629.53125,239120.671875,20148.0,1.0,3
252290.40625,266420.03125,289852.875,325006.0,276248.09375,253200.65625,242382.5,239246.734375,20149.0,1.0,3
252098.90625,266251.40625,289642.6875,324865.90625,276128.625,253080.5,242338.25,239157.234375,20150.0,1.0,3
251400.625,266046.65625,289347.90625,324616.8125,276472.9375,252826.3125,242559.890625,238969.9375,20151.0,1.0,3
251114.078125,266046.375,289327.625,324572.90625,276785.5,252762.65625,242736.5625,238921.296875,20152.0,1.0,3
251667.421875,266272.40625,289633.75,324811.625,276639.25,253003.515625,242636.875,239096.0,20153.0,1.0,3
252283.078125,266411.78125,289841.0,324996.15625,276237.09375,253217.375,242399.578125,239245.75,20154.0,1.0,3
252096.046875,266249.15625,289632.40625,324860.1875,276112.53125,253095.703125,242344.515625,239154.015625,20155.0,1.0,3
251401.609375,266053.0,289338.78125,324613.40625,276460.5,252842.59375,242555.875,238965.015625,20156.0,1.0,3
251111.21875,266049.96875,289316.15625,324565.59375,276781.75,252772.9375,242723.5,238916.203125,20157.0,1.0,3
251659.734375,266275.8125,289620.96875,324799.46875,276635.65625,253006.109375,242618.265625,239089.109375,20158.0,1.0,3
252294.34375,266434.9375,289843.84375,324992.0625,276237.0,253230.34375,242388.5,239248.078125,20159.0,1.0,3
252123.671875,266282.6875,289650.8125,324868.0625,276121.03125,253129.765625,242348.625,239168.6875,20160.0,1.0,3
251421.90625,266077.3125,289353.28125,324616.1875,276462.5625,252873.96875,242566.15625,238981.203125,20161.0,1.0,3
251124.1875,266076.96875,289327.15625,324563.53125,276781.125,252799.40625,242743.0,238933.09375,20162.0,1.0,3
251655.4375,266288.875,289616.21875,324781.875,276624.75,253020.15625,242630.609375,239088.21875,20163.0,1.0,3
252269.578125,266419.5,289819.4375,324958.0,276206.6875,253221.765625,242379.015625,239229.296875,20164.0,1.0,3
252109.09375,266267.3125,289627.125,324834.53125,276085.90625,253112.59375,242328.421875,239155.8125,20165.0,1.0,3
251419.59375,266067.84375,289331.09375,324585.78125,276431.71875,252853.578125,242547.109375,238972.796875,20166.0,1.0,3
251119.09375,266063.375,289305.0,324536.96875,276765.40625,252783.765625,242728.875,238926.5625,20167.0,1.0,3
251650.609375,266276.0,289601.1875,324764.96875,276631.8125,253010.5,242629.890625,239096.0,20168.0,1.0,3
252271.28125,266412.15625,289812.90625,324948.4375,276227.25,253220.59375,242383.484375,239239.859375,20169.0,1.0,3
252101.765625,266246.46875,289609.875,324815.375,276092.4375,253101.875,242318.046875,239147.5,20170.0,1.0,3
251409.578125,266041.46875,289311.6875,324569.34375,276437.1875,252843.921875,242537.359375,238960.71875,20171.0,1.0,3
251111.40625,266043.53125,289289.34375,324525.71875,276776.03125,252779.5625,242730.65625,238915.75,20172.0,1.0,3
251649.546875,266268.84375,289593.96875,324756.03125,276647.46875,253012.734375,242636.609375,239081.78125,20173.0,1.0,3
252280.84375,266414.46875,289815.0625,324944.21875,276242.09375,253231.0625,242397.609375,239233.6875,20174.0,1.0,3
252117.234375,266248.71875,289615.21875,324814.03125,276097.78125,253118.5,242333.0625,239151.25,20175.0,1.0,3
251418.6875,266037.71875,289309.28125,324560.84375,276427.625,252854.484375,242539.0625,238959.734375,20176.0,1.0,3
251099.78125,266027.0625,289273.0625,324507.375,276757.25,252777.59375,242721.8125,238910.203125,20177.0,1.0,3
251622.890625,266243.96875,289574.71875,324742.34375,276632.0,253015.859375,242632.046875,239083.125,20178.0,1.0,3
252266.1875,266404.1875,289803.4375,324935.1875,276233.5,253242.859375,242389.84375,239235.734375,20179.0,1.0,3
252126.703125,266262.5625,289616.5625,324816.09375,276099.40625,253140.40625,242324.75,239155.71875,20180.0,1.0,3
251425.9375,266047.1875,289315.625,324568.1875,276438.53125,252886.390625,242543.34375,238971.8125,20181.0,1.0,3
251103.53125,266032.53125,289279.5,324511.9375,276775.3125,252812.90625,242734.40625,238918.703125,20182.0,1.0,3
251626.921875,266250.78125,289578.21875,324738.6875,276652.21875,253039.28125,242636.328125,239084.1875,20183.0,1.0,3
252273.25,266413.6875,289811.03125,324937.0625,276254.96875,253268.25,242396.984375,239243.609375,20184.0,1.0,3
252136.890625,266271.59375,289623.09375,324816.71875,276109.5,253163.828125,242332.078125,239164.296875,20185.0,1.0,3
251428.34375,266047.65625,289307.40625,324554.84375,276429.40625,252891.046875,242536.640625,238967.96875,20186.0,1.0,3
251090.125,266021.34375,289259.65625,324488.4375,276758.96875,252801.90625,242725.46875,238913.875,20187.0,1.0,3
251605.015625,266233.96875,289551.125,324709.71875,276634.40625,253019.703125,242629.1875,239073.203125,20188.0,1.0,3
252258.3125,266399.5625,289786.28125,324907.75,276240.5625,253247.6875,242390.46875,239230.546875,20189.0,1.0,3
252125.8125,266253.0,289597.625,324786.59375,276089.65625,253141.75,242323.234375,239156.4375,20190.0,1.0,3
251426.5625,266033.4375,289289.0,324531.96875,276417.6875,252874.859375,242533.875,238971.90625,20191.0,1.0,3
251087.34375,266006.78125,289244.625,324468.65625,276757.875,252787.328125,242723.234375,238912.078125,20192.0,1.0,3
251591.34375,266213.5,289537.71875,324690.75,276639.34375,253004.6875,242637.234375,239071.953125,20193.0,1.0,3
252240.609375,266374.96875,289772.6875,324888.15625,276235.3125,253226.40625,242398.515625,239233.421875,20194.0,1.0,3
252122.59375,266236.375,289593.78125,324773.1875,276086.34375,253122.4375,242325.5625,239155.265625,20195.0,1.0,3
251427.90625,266018.21875,289288.90625,324522.75,276415.625,252859.03125,242538.875,238966.796875,20196.0,1.0,3
251082.4375,265991.125,289238.84375,324455.0625,276753.78125,252765.96875,242729.765625,238905.375,20197.0,1.0,3
251600.359375,266219.40625,289536.8125,324682.0,276645.0625,252988.953125,242652.609375,239072.75,20198.0,1.0,3
252256.078125,266389.09375,289775.1875,324880.28125,276242.375,253217.46875,242413.703125,239229.296875,20199.0,1.0,3
252123.75,266233.34375,289585.625,324756.375,276075.0,253105.890625,242325.015625,239144.546875,20200.0,1.0,3
251413.0625,266001.6875,289266.28125,324495.84375,276387.65625,252831.59375,242524.390625,238948.203125,20201.0,1.0,3
251076.703125,265992.21875,289226.21875,324437.65625,276741.53125,252752.109375,242728.609375,238895.90625,20202.0,1.0,3
251585.53125,266215.90625,289523.78125,324661.875,276640.21875,252974.109375,242646.34375,239060.59375,20203.0,1.0,3
252250.4375,266391.5,289769.71875,324868.21875,276245.75,253208.703125,242408.703125,239225.546875,20204.0,1.0,3
252136.71875,266246.03125,289594.21875,324760.40625,276086.78125,253115.640625,242335.203125,239158.671875,20205.0,1.0,3
251440.859375,266022.0625,289280.5,324507.125,276405.4375,252850.359375,242541.109375,238970.828125,20206.0,1.0,3
251087.96875,265996.15625,289219.875,324431.90625,276743.5,252750.953125,242728.515625,238901.0,20207.0,1.0,3
251585.078125,266210.71875,289505.53125,324647.65625,276632.90625,252962.484375,242639.640625,239056.03125,20208.0,1.0,3
252247.765625,266379.0625,289747.1875,324849.4375,276231.625,253192.890625,242396.90625,239218.125,20209.0,1.0,3
252152.359375,266244.34375,289578.5625,324745.84375,276074.28125,253107.859375,242327.171875,239159.390625,20210.0,1.0,3
251461.078125,266023.21875,289270.3125,324494.78125,276396.40625,252847.328125,242532.625,238977.625,20211.0,1.0,3
251094.140625,265985.6875,289208.78125,324416.375,276739.09375,252745.140625,242716.53125,238901.53125,20212.0,1.0,3
251567.015625,266176.125,289485.5,324625.40625,276625.46875,252947.734375,242627.65625,239046.640625,20213.0,1.0,3
252223.890625,266337.0625,289727.625,324829.34375,276223.84375,253177.953125,242387.25,239209.359375,20214.0,1.0,3
252135.28125,266204.625,289559.34375,324728.75,276060.96875,253091.859375,242310.09375,239147.046875,20215.0,1.0,3
251444.890625,265984.875,289248.84375,324478.9375,276380.6875,252828.734375,242512.765625,238959.296875,20216.0,1.0,3
251088.25,265962.78125,289198.875,324413.5,276741.78125,252740.21875,242719.125,238903.328125,20217.0,1.0,3
251573.28125,266175.21875,289487.5625,324631.21875,276648.8125,252955.953125,242650.109375,239067.5625,20218.0,1.0,3
252229.34375,266337.5,289725.46875,324827.90625,276241.125,253181.796875,242397.890625,239219.28125,20219.0,1.0,3
252142.078125,266204.46875,289559.1875,324724.28125,276073.125,253097.125,242312.953125,239146.0625,20220.0,1.0,3
251456.0625,265993.0,289249.28125,324472.5,276392.46875,252838.5625,242520.734375,238957.421875,20221.0,1.0,3
251084.046875,265964.03125,289184.8125,324394.28125,276744.46875,252737.984375,242721.0,238892.140625,20222.0,1.0,3
251561.5625,266174.34375,289466.46875,324607.34375,276647.375,252949.078125,242650.546875,239049.59375,20223.0,1.0,3
252225.234375,266343.5,289712.96875,324814.03125,276243.96875,253184.03125,242408.171875,239210.96875,20224.0,1.0,3
252143.0625,266211.0625,289546.125,324713.03125,276068.03125,253099.09375,242315.8125,239146.953125,20225.0,1.0,3
251448.90625,265984.6875,289231.125,324460.53125,276378.09375,252835.609375,242512.234375,238958.125,20226.0,1.0,3
251083.78125,265962.15625,289174.1875,324388.46875,276739.5625,252745.40625,242724.125,238895.546875,20227.0,1.0,3
251561.5625,266176.5625,289457.4375,324601.53125,276648.34375,252953.8125,242649.296875,239049.953125,20228.0,1.0,3
252234.171875,266356.1875,289713.84375,324816.09375,276254.96875,253198.421875,242410.9375,239222.78125,20229.0,1.0,3
252161.03125,266227.25,289551.5,324715.34375,276077.40625,253117.515625,242320.734375,239163.40625,20230.0,1.0,3
251471.078125,266004.46875,289238.125,324462.21875,276388.0,252855.640625,242518.9375,238975.125,20231.0,1.0,3
251092.0,265974.0625,289174.46875,324385.4375,276751.1875,252755.5,242718.3125,238907.34375,20232.0,1.0,3
251561.5625,266181.125,289456.28125,324598.125,276668.03125,252965.078125,242648.21875,239064.171875,20233.0,1.0,3
252236.140625,266356.09375,289706.96875,324805.65625,276265.4375,253195.03125,242398.953125,239224.390625,20234.0,1.0,3
252158.0,266216.25,289541.125,324701.84375,276073.375,253105.984375,242302.125,239161.0,20235.0,1.0,3
251473.140625,265996.3125,289228.1875,324448.0,276378.34375,252843.921875,242506.0625,238977.171875,20236.0,1.0,3
251091.375,265966.5625,289164.0,324371.84375,276742.6875,252743.53125,242716.359375,238913.421875,20237.0,1.0,3
251553.515625,266171.8125,289443.84375,324583.65625,276660.875,252949.875,242651.53125,239067.46875,20238.0,1.0,3
252227.015625,266345.28125,289701.0625,324796.15625,276265.53125,253192.4375,242413.171875,239233.421875,20239.0,1.0,3
252173.90625,266225.5625,289548.09375,324704.625,276086.25,253122.25,242326.53125,239181.375,20240.0,1.0,3
251485.390625,265996.9375,289227.65625,324443.71875,276384.875,252851.796875,242522.515625,238989.25,20241.0,1.0,3
251090.125,265956.625,289154.53125,324359.21875,276747.0625,252742.0,242730.5625,238923.078125,20242.0,1.0,3
251546.453125,266160.375,289430.6875,324567.375,276669.71875,252946.75,242660.65625,239073.109375,20243.0,1.0,3
252229.96875,266346.15625,289696.5,324783.28125,276281.875,253197.53125,242422.828125,239234.3125,20244.0,1.0,3
252153.96875,266199.46875,289525.03125,324672.96875,276073.65625,253105.265625,242311.078125,239158.578125,20245.0,1.0,3
251464.734375,265973.0,289202.34375,324413.40625,276365.46875,252835.875,242503.203125,238967.25,20246.0,1.0,3
251066.078125,265935.96875,289126.8125,324325.625,276729.625,252730.296875,242712.15625,238894.46875,20247.0,1.0,3
251508.640625,266129.4375,289387.5,324522.84375,276638.0,252924.75,242636.78125,239035.203125,20248.0,1.0,3
252191.96875,266317.46875,289648.65625,324741.4375,276239.9375,253169.734375,242392.703125,239205.15625,20249.0,1.0,3
252151.46875,266208.21875,289505.625,324661.15625,276057.65625,253111.34375,242303.921875,239160.90625,20250.0,1.0,3
251467.515625,265982.65625,289188.9375,324409.3125,276355.90625,252855.8125,242504.640625,238979.765625,20251.0,1.0,3
251064.546875,265940.53125,289107.75,324319.96875,276716.65625,252747.453125,242710.359375,238898.234375,20252.0,1.0,3
251504.609375,266139.8125,289379.375,324525.34375,276644.0625,252949.421875,242648.671875,239045.484375,20253.0,1.0,3
252200.90625,266339.71875,289651.8125,324748.34375,276257.03125,253206.03125,242418.453125,239224.03125,20254.0,1.0,3
252174.890625,266233.25,289510.625,324662.9375,276067.125,253146.125,242319.296875,239173.78125,20255.0,1.0,3
251487.09375,266000.15625,289190.5625,324404.125,276360.8125,252883.09375,242508.578125,238981.828125,20256.0,1.0,3
251074.296875,265950.71875,289111.34375,324311.59375,276728.75,252769.453125,242715.1875,238904.390625,20257.0,1.0,3
251515.703125,266153.78125,289384.5625,324516.15625,276661.6875,252965.515625,242653.59375,239055.859375,20258.0,1.0,3
252208.953125,266341.6875,289652.5,324735.71875,276268.03125,253212.203125,242412.09375,239231.359375,20259.0,1.0,3
252181.328125,266226.46875,289513.5,324653.125,276070.96875,253149.078125,242309.546875,239184.234375,20260.0,1.0,3
251493.25,265990.6875,289193.40625,324395.09375,276360.65625,252881.296875,242495.515625,238990.578125,20261.0,1.0,3
251072.515625,265933.8125,289102.40625,324295.75,276724.96875,252755.140625,242700.796875,238903.40625,20262.0,1.0,3
251503.09375,266128.46875,289366.9375,324497.90625,276662.75,252945.234375,242645.0,239047.8125,20263.0,1.0,3
252192.328125,266315.6875,289640.625,324723.65625,276277.6875,253197.09375,242412.640625,239228.859375,20264.0,1.0,3
252166.9375,266201.0625,289495.96875,324638.625,276071.875,253130.296875,242309.640625,239184.15625,20265.0,1.0,3
251488.421875,265972.53125,289172.3125,324382.75,276356.625,252860.296875,242497.390625,238994.78125,20266.0,1.0,3
251062.3125,265918.71875,289085.40625,324289.40625,276731.5,252739.59375,242711.609375,238912.71875,20267.0,1.0,3
251474.84375,266103.625,289341.65625,324482.875,276664.1875,252922.421875,242655.109375,239053.34375,20268.0,1.0,3
252168.1875,266295.75,289607.625,324699.25,276266.3125,253164.546875,242413.171875,239221.078125,20269.0,1.0,3
252158.453125,266192.21875,289474.5,324622.28125,276064.4375,253106.15625,242310.171875,239177.09375,20270.0,1.0,3
251479.75,265960.1875,289154.59375,324367.28125,276353.0625,252840.078125,242499.625,238991.390625,20271.0,1.0,3
251064.1875,265920.3125,289071.46875,324275.09375,276733.21875,252721.359375,242715.640625,238912.625,20272.0,1.0,3
251491.203125,266125.59375,289343.15625,324482.53125,276687.6875,252915.8125,242664.765625,239062.296875,20273.0,1.0,3
252170.96875,266301.90625,289602.71875,324691.375,276285.90625,253146.21875,242406.5625,239222.0625,20274.0,1.0,3
252149.421875,266177.09375,289452.15625,324597.875,276056.75,253065.484375,242275.21875,239156.078125,20275.0,1.0,3
251480.109375,265951.25,289133.0625,324342.875,276334.4375,252796.09375,242459.21875,238966.0,20276.0,1.0,3
251056.0625,265901.1875,289049.71875,324245.0625,276709.96875,252672.71875,242678.171875,238883.828125,20277.0,1.0,3
251468.671875,266093.5,289316.875,324440.3125,276653.71875,252857.515625,242632.3125,239026.703125,20278.0,1.0,3
252162.375,266281.1875,289594.84375,324664.8125,276256.65625,253106.609375,242399.578125,239204.359375,20279.0,1.0,3
252165.859375,266178.25,289467.34375,324590.34375,276037.53125,253050.90625,242293.375,239164.65625,20280.0,1.0,3
251489.859375,265942.15625,289143.25,324330.34375,276309.3125,252782.5,242479.78125,238976.640625,20281.0,1.0,3
251055.796875,265887.6875,289048.03125,324225.46875,276686.1875,252651.875,242691.5,238888.65625,20282.0,1.0,3
251468.140625,266086.4375,289309.0,324424.3125,276645.21875,252839.640625,242643.125,239029.484375,20283.0,1.0,3
252170.875,266289.84375,289592.0,324659.46875,276268.5625,253099.625,242412.28125,239215.53125,20284.0,1.0,3
252178.296875,266190.875,289462.34375,324587.21875,276060.0625,253049.75,242298.828125,239178.875,20285.0,1.0,3
251499.34375,265954.21875,289130.75,324323.65625,276334.8125,252781.25,242474.953125,238988.265625,20286.0,1.0,3
251049.703125,265892.96875,289029.15625,324216.90625,276715.25,252654.65625,242692.03125,238907.4375,20287.0,1.0,3
251447.125,266082.875,289281.5625,324406.625,276668.84375,252843.296875,242645.09375,239040.828125,20288.0,1.0,3
252152.984375,266289.75,289562.5625,324635.59375,276282.15625,253110.453125,242419.078125,239219.734375,20289.0,1.0,3
252167.390625,266195.96875,289438.90625,324568.90625,276058.90625,253073.25,242311.078125,239188.4375,20290.0,1.0,3
251492.09375,265963.78125,289113.03125,324313.90625,276322.1875,252814.6875,242488.8125,238998.09375,20291.0,1.0,3
251039.515625,265902.1875,289010.40625,324209.21875,276699.15625,252690.234375,242704.8125,238907.796875,20292.0,1.0,3
251436.21875,266098.78125,289261.625,324398.65625,276652.375,252875.84375,242655.5625,239042.0,20293.0,1.0,3
252150.578125,266316.65625,289549.78125,324636.40625,276271.25,253148.8125,242420.859375,239222.59375,20294.0,1.0,3
252168.28125,266221.71875,289431.21875,324574.71875,276052.8125,253119.484375,242302.046875,239191.296875,20295.0,1.0,3
251494.78125,265987.8125,289105.34375,324318.65625,276319.0625,252861.453125,242472.1875,239004.625,20296.0,1.0,3
251038.984375,265928.0,289000.125,324207.34375,276693.25,252730.828125,242683.71875,238914.859375,20297.0,1.0,3
251436.84375,266130.875,289260.03125,324402.59375,276657.84375,252922.34375,242641.96875,239053.53125,20298.0,1.0,3
252145.65625,266340.625,289548.09375,324635.5,276270.53125,253187.609375,242405.484375,239229.296875,20299.0,1.0,3
252169.078125,266241.9375,289431.21875,324572.28125,276039.0625,253149.96875,242285.859375,239195.421875,20300.0,1.0,3
251510.15625,266014.28125,289117.875,324325.34375,276307.8125,252896.234375,242471.734375,239016.328125,20301.0,1.0,3
251060.703125,265955.46875,289015.3125,324213.3125,276683.3125,252760.875,242694.265625,238925.9375,20302.0,1.0,3
251438.265625,266135.71875,289260.28125,324393.21875,276641.75,252930.46875,242648.21875,239053.078125,20303.0,1.0,3
252142.265625,266335.4375,289541.125,324619.5,276250.0625,253181.0,242405.3125,239226.796875,20304.0,1.0,3
252184.28125,266248.625,289435.96875,324565.40625,276025.8125,253145.40625,242288.265625,239200.78125,20305.0,1.0,3
251520.078125,266012.40625,289119.46875,324312.84375,276295.90625,252881.921875,242465.65625,239017.5,20306.0,1.0,3
251065.4375,265954.9375,289017.46875,324202.0625,276689.5,252745.40625,242689.796875,238926.125,20307.0,1.0,3
251444.53125,266144.125,289267.4375,324384.1875,276665.0625,252915.71875,242651.984375,239058.625,20308.0,1.0,3
252155.859375,266353.59375,289559.34375,324620.84375,276287.59375,253172.953125,242418.453125,239243.25,20309.0,1.0,3
252189.734375,266253.90625,289450.28125,324561.84375,276053.09375,253127.265625,242293.90625,239213.5625,20310.0,1.0,3
251530.265625,266020.5625,289131.53125,324306.40625,276308.78125,252852.59375,242467.09375,239028.21875,20311.0,1.0,3
251059.28125,265951.0,289020.40625,324184.8125,276682.96875,252701.6875,242688.546875,238926.390625,20312.0,1.0,3
251424.6875,266130.0,289268.96875,324366.5625,276650.9375,252872.1875,242657.515625,239055.578125,20313.0,1.0,3
252135.5625,266337.9375,289564.09375,324603.40625,276264.53125,253132.0,242425.515625,239239.046875,20314.0,1.0,3
252188.578125,266259.0,289462.09375,324549.125,276024.03125,253096.234375,242299.453125,239206.5,20315.0,1.0,3
251525.71875,266026.28125,289140.46875,324297.90625,276275.34375,252832.75,242474.6875,239019.375,20316.0,1.0,3
251046.765625,265954.3125,289030.0625,324182.21875,276659.71875,252694.796875,242699.640625,238925.5,20317.0,1.0,3
251410.828125,266143.75,289278.625,324363.34375,276636.1875,252866.015625,242662.0,239053.265625,20318.0,1.0,3
252128.140625,266364.84375,289577.21875,324601.15625,276253.625,253134.234375,242426.234375,239237.34375,20319.0,1.0,3
252182.578125,266280.375,289479.0625,324552.1875,276010.0,253112.421875,242303.03125,239217.953125,20320.0,1.0,3
251522.84375,266047.0,289156.84375,324296.03125,276257.125,252853.765625,242473.4375,239031.890625,20321.0,1.0,3
251052.125,265985.25,289046.4375,324173.0,276644.78125,252716.34375,242700.4375,238934.96875,20322.0,1.0,3
251416.8125,266173.0,289293.1875,324350.03125,276630.84375,252893.453125,242671.03125,239060.046875,20323.0,1.0,3
252132.421875,266385.78125,289588.78125,324583.8125,276247.625,253160.34375,242433.296875,239243.34375,20324.0,1.0,3
252194.65625,266297.625,289490.6875,324535.375,276003.46875,253137.8125,242301.59375,239227.515625,20325.0,1.0,3
251540.375,266058.0,289166.15625,324276.875,276250.84375,252877.71875,242464.5,239039.484375,20326.0,1.0,3
251067.5,265991.59375,289049.28125,324151.8125,276642.28125,252738.875,242691.046875,238929.078125,20327.0,1.0,3
251424.765625,266173.0,289288.625,324329.1875,276634.15625,252911.78125,242667.71875,239053.703125,20328.0,1.0,3
252146.46875,266386.3125,289590.65625,324574.0,276266.84375,253187.15625,242441.515625,239245.21875,20329.0,1.0,3
252225.953125,266310.59375,289499.71875,324529.5625,276027.25,253169.546875,242315.71875,239228.234375,20330.0,1.0,3
251574.171875,266074.71875,289173.84375,324271.34375,276273.28125,252909.203125,242484.78125,239043.96875,20331.0,1.0,3
251076.4375,265990.875,289045.4375,324143.6875,276664.375,252761.859375,242708.9375,238938.8125,20332.0,1.0,3
251409.390625,266156.1875,289270.3125,324310.5,276652.125,252921.171875,242678.265625,239056.203125,20333.0,1.0,3
252119.828125,266360.9375,289558.625,324544.03125,276268.90625,253180.375,242442.59375,239237.703125,20334.0,1.0,3
252204.765625,266289.3125,289469.9375,324502.46875,276020.28125,253164.8125,242314.921875,239224.5625,20335.0,1.0,3
251557.453125,266053.90625,289148.34375,324253.1875,276265.59375,252913.671875,242486.125,239045.125,20336.0,1.0,3
251048.8125,265960.5625,289012.53125,324116.5,276642.09375,252757.203125,242703.5625,238931.21875,20337.0,1.0,3
251377.65625,266129.09375,289241.34375,324286.625,276627.71875,252918.21875,242675.5,239045.75,20338.0,1.0,3
252102.203125,266351.90625,289545.9375,324533.75,276253.34375,253189.125,242448.3125,239231.890625,20339.0,1.0,3
252196.359375,266285.65625,289461.4375,324497.53125,276005.15625,253176.796875,242318.84375,239222.234375,20340.0,1.0,3
251547.96875,266046.46875,289135.03125,324244.53125,276245.125,252913.671875,242473.4375,239039.578125,20341.0,1.0,3
251054.265625,265974.6875,289011.90625,324119.1875,276641.03125,252762.75,242697.21875,238934.171875,20342.0,1.0,3
251386.953125,266151.71875,289241.0625,324288.59375,276632.28125,252917.6875,242671.46875,239052.546875,20343.0,1.0,3
252112.765625,266369.40625,289549.34375,324535.0,276255.0625,253187.609375,242438.75,239238.6875,20344.0,1.0,3
252212.0,266299.59375,289473.625,324499.96875,275994.25,253170.625,242303.109375,239226.078125,20345.0,1.0,3
251562.90625,266058.0,289152.46875,324241.40625,276219.5625,252898.5625,242463.15625,239035.46875,20346.0,1.0,3
251056.234375,265972.71875,289023.53125,324105.84375,276604.8125,252736.1875,242696.6875,238923.890625,20347.0,1.0,3
251385.609375,266146.15625,289256.0,324275.46875,276609.75,252885.953125,242678.53125,239043.328125,20348.0,1.0,3
252108.5625,266356.625,289560.25,324521.96875,276243.6875,253145.765625,242443.75,239238.515625,20349.0,1.0,3
252217.984375,266287.34375,289480.84375,324486.46875,275995.34375,253126.8125,242301.140625,239223.484375,20350.0,1.0,3
251577.921875,266047.0,289155.78125,324232.375,276238.34375,252859.671875,242459.3125,239039.578125,20351.0,1.0,3
251058.65625,265948.3125,289014.25,324091.1875,276632.1875,252692.828125,242683.71875,238929.515625,20352.0,1.0,3
251369.34375,266106.375,289233.46875,324250.5,276632.4375,252838.125,242664.3125,239037.34375,20353.0,1.0,3
252100.6875,266331.25,289551.3125,324504.4375,276272.65625,253118.234375,242451.890625,239236.453125,20354.0,1.0,3
252211.28125,266261.59375,289475.5,324468.3125,276011.25,253105.625,242317.6875,239226.34375,20355.0,1.0,3
251568.53125,266016.96875,289144.78125,324208.125,276231.90625,252836.59375,242477.375,239037.609375,20356.0,1.0,3
251043.71875,265916.65625,288991.8125,324057.75,276614.21875,252663.328125,242692.84375,238910.828125,20357.0,1.0,3
251357.359375,266088.3125,289212.625,324223.6875,276626.71875,252813.53125,242677.1875,239022.59375,20358.0,1.0,3
252090.5,266318.0,289527.96875,324481.8125,276267.5,253093.546875,242458.5,239224.5625,20359.0,1.0,3
252209.5,266257.46875,289454.46875,324456.15625,276003.1875,253094.0,242314.734375,239223.21875,20360.0,1.0,3
251565.140625,266011.96875,289123.3125,324201.34375,276223.3125,252834.0,242457.078125,239035.921875,20361.0,1.0,3
251046.765625,265925.59375,288980.625,324062.9375,276619.125,252679.328125,242681.578125,238920.578125,20362.0,1.0,3
251357.265625,266101.03125,289203.0625,324225.5625,276637.8125,252841.875,242670.9375,239028.9375,20363.0,1.0,3
252079.046875,266317.5625,289508.125,324470.71875,276266.6875,253120.640625,242440.078125,239216.78125,20364.0,1.0,3
252202.171875,266251.40625,289435.78125,324443.0,275993.625,253124.21875,242292.390625,239214.015625,20365.0,1.0,3
251569.34375,266012.9375,289111.59375,324191.40625,276209.71875,252871.28125,242446.25,239035.828125,20366.0,1.0,3
251050.96875,265931.5,288973.03125,324051.3125,276605.53125,252714.828125,242678.265625,238921.03125,20367.0,1.0,3
251360.671875,266108.53125,289202.0,324218.40625,276630.21875,252878.703125,242685.953125,239041.09375,20368.0,1.0,3
252093.171875,266336.59375,289517.96875,324471.96875,276266.59375,253160.609375,242467.625,239243.15625,20369.0,1.0,3
252223.625,266277.0625,289448.21875,324444.78125,275995.875,253164.28125,242311.609375,239235.5625,20370.0,1.0,3
251588.390625,266032.09375,289116.6875,324185.78125,276210.4375,252904.375,242454.125,239046.109375,20371.0,1.0,3
251063.65625,265940.25,288970.875,324042.71875,276615.625,252748.0,242690.96875,238933.90625,20372.0,1.0,3
251345.28125,266092.6875,289174.46875,324194.0,276638.0625,252888.0,242680.328125,239039.765625,20373.0,1.0,3
252062.328125,266302.625,289476.46875,324442.125,276272.3125,253155.25,242452.78125,239231.984375,20374.0,1.0,3
252206.90625,266248.71875,289412.8125,324423.34375,276003.65625,253158.90625,242304.640625,239233.421875,20375.0,1.0,3
251579.09375,266008.21875,289085.3125,324169.34375,276216.875,252897.578125,242453.5,239046.640625,20376.0,1.0,3
251050.15625,265916.21875,288940.84375,324028.25,276618.3125,252733.78125,242692.65625,238934.609375,20377.0,1.0,3
251330.53125,266071.4375,289149.6875,324177.90625,276639.40625,252874.59375,242687.203125,239034.390625,20378.0,1.0,3
252065.90625,266303.625,289469.3125,324433.25,276281.34375,253156.140625,242470.21875,239232.078125,20379.0,1.0,3
252216.65625,266254.53125,289411.03125,324416.4375,276004.625,253168.03125,242322.34375,239234.75,20380.0,1.0,3
251583.46875,266005.34375,289078.4375,324162.0,276208.125,252907.3125,242460.65625,239047.984375,20381.0,1.0,3
251053.46875,265920.78125,288933.3125,324022.15625,276610.28125,252744.6875,242696.6875,238930.59375,20382.0,1.0,3
251328.5625,266080.90625,289142.09375,324173.53125,276637.53125,252883.796875,242691.5,239032.34375,20383.0,1.0,3
252054.375,266306.75,289458.0625,324427.625,276276.96875,253160.15625,242470.3125,239228.671875,20384.0,1.0,3
252202.515625,266248.4375,289398.25,324408.3125,275991.5625,253164.71875,242307.765625,239227.609375,20385.0,1.0,3
251581.5,266008.9375,289071.90625,324156.5625,276189.25,252905.890625,242444.28125,239040.921875,20386.0,1.0,3
251045.0625,265916.46875,288926.0,324011.96875,276588.625,252741.375,242678.171875,238922.8125,20387.0,1.0,3
251314.53125,266074.09375,289137.25,324161.65625,276622.34375,252880.859375,242675.21875,239027.15625,20388.0,1.0,3
252046.328125,266303.78125,289458.78125,324417.34375,276261.6875,253161.859375,242457.4375,239226.53125,20389.0,1.0,3
252213.15625,266259.28125,289411.125,324407.875,275980.21875,253178.046875,242306.25,239239.046875,20390.0,1.0,3
251595.09375,266018.3125,289086.03125,324156.625,276181.65625,252917.421875,242441.96875,239055.046875,20391.0,1.0,3
251055.875,265924.875,288934.65625,324006.78125,276589.53125,252748.984375,242681.75,238933.546875,20392.0,1.0,3
251321.15625,266082.34375,289140.3125,324155.21875,276633.53125,252884.4375,242686.484375,239036.265625,20393.0,1.0,3
252046.953125,266303.4375,289452.4375,324401.96875,276271.5,253154.4375,242460.109375,239224.03125,20394.0,1.0,3
252214.328125,266252.90625,289399.6875,324381.6875,275977.71875,253162.9375,242294.796875,239223.21875,20395.0,1.0,3
251597.0625,266005.8125,289068.34375,324127.21875,276169.9375,252900.515625,242430.078125,239039.9375,20396.0,1.0,3
251043.453125,265895.375,288906.25,323971.375,276573.15625,252726.625,242670.84375,238916.375,20397.0,1.0,3
251299.609375,266047.90625,289108.90625,324117.21875,276623.25,252863.78125,242678.53125,239016.328125,20398.0,1.0,3
252038.640625,266284.3125,289432.9375,324377.03125,276278.125,253149.515625,242467.09375,239216.34375,20399.0,1.0,3
252223.625,266247.03125,289388.40625,324370.6875,275994.0,253173.65625,242314.921875,239232.34375,20400.0,1.0,3
251607.25,265999.53125,289056.0,324117.3125,276184.34375,252914.65625,242444.203125,239046.203125,20401.0,1.0,3
251044.609375,265886.34375,288887.8125,323963.0625,276585.6875,252737.265625,242674.0625,238917.625,20402.0,1.0,3
251297.015625,266043.96875,289087.03125,324111.125,276637.0,252873.25,242682.828125,239020.53125,20403.0,1.0,3
252032.65625,266279.375,289405.3125,324365.75,276284.46875,253156.140625,242460.46875,239215.359375,20404.0,1.0,3
252221.921875,266242.71875,289368.1875,324362.53125,275999.875,253187.25,242303.65625,239228.3125,20405.0,1.0,3
251609.75,265996.15625,289039.28125,324109.6875,276186.9375,252932.703125,242433.5625,239044.59375,20406.0,1.0,3
251047.921875,265887.0625,288873.6875,323951.8125,276589.09375,252754.171875,242668.4375,238919.953125,20407.0,1.0,3
251279.9375,266026.4375,289060.46875,324085.75,276627.78125,252871.46875,242668.96875,239008.828125,20408.0,1.0,3
252024.515625,266272.59375,289392.53125,324352.71875,276283.5,253163.5625,242461.453125,239216.34375,20409.0,1.0,3
252207.34375,266223.9375,289347.46875,324348.25,275981.65625,253188.140625,242293.28125,239227.0625,20410.0,1.0,3
251600.359375,265978.09375,289019.5,324097.0,276164.5625,252930.921875,242422.921875,239041.640625,20411.0,1.0,3
251037.453125,265871.15625,288854.5625,323935.875,276568.34375,252748.703125,242657.34375,238908.0625,20412.0,1.0,3
251270.1875,266019.46875,289046.78125,324073.40625,276622.875,252870.03125,242664.859375,238999.796875,20413.0,1.0,3
252005.734375,266255.34375,289373.21875,324336.34375,276280.0,253153.28125,242451.96875,239204.265625,20414.0,1.0,3
252212.09375,266226.0,289343.25,324340.46875,275989.4375,253180.640625,242288.71875,239223.671875,20415.0,1.0,3
251620.9375,265992.65625,289023.28125,324093.59375,276176.75,252929.140625,242423.09375,239053.265625,20416.0,1.0,3
251050.875,265875.25,288856.875,323934.0,276583.90625,252749.25,242666.546875,238934.609375,20417.0,1.0,3
251270.984375,266012.875,289042.75,324065.4375,276636.03125,252863.6875,242680.953125,239024.921875,20418.0,1.0,3
252001.984375,266245.3125,289363.375,324320.15625,276282.9375,253136.640625,242461.359375,239208.109375,20419.0,1.0,3
252211.640625,266217.875,289334.6875,324322.40625,275983.625,253165.609375,242300.875,239221.515625,20420.0,1.0,3
251618.875,265977.375,289016.65625,324078.6875,276164.9375,252914.734375,242439.28125,239049.0625,20421.0,1.0,3
251044.171875,265858.8125,288845.0,323915.5,276567.53125,252723.234375,242672.0,238919.15625,20422.0,1.0,3
251262.046875,265999.625,289032.21875,324047.8125,276627.25,252838.5625,242689.171875,239013.296875,20423.0,1.0,3
251991.34375,266231.71875,289361.59375,324309.78125,276281.6875,253119.484375,242479.15625,239217.59375,20424.0,1.0,3
252207.34375,266205.0,289337.34375,324313.71875,275977.28125,253152.734375,242310.71875,239232.078125,20425.0,1.0,3
251625.3125,265974.5,289022.5625,324072.5,276160.1875,252906.6875,242440.359375,239058.09375,20426.0,1.0,3
251051.140625,265864.0,288853.03125,323907.71875,276569.5,252720.09375,242678.09375,238924.875,20427.0,1.0,3
251260.703125,266006.78125,289036.6875,324038.4375,276637.8125,252833.640625,242694.984375,239012.9375,20428.0,1.0,3
251992.78125,266242.0,289361.6875,324298.71875,276293.3125,253110.546875,242479.25,239212.84375,20429.0,1.0,3
252209.59375,266208.75,289331.53125,324303.34375,275980.03125,253141.03125,242302.84375,239228.9375,20430.0,1.0,3
251615.65625,265959.9375,288999.84375,324050.34375,276142.59375,252881.921875,242414.609375,239042.078125,20431.0,1.0,3
251040.859375,265845.3125,288826.84375,323885.375,276549.125,252696.859375,242656.625,238908.59375,20432.0,1.0,3
251252.75,265990.96875,289014.875,324020.8125,276626.375,252818.453125,242687.46875,239003.015625,20433.0,1.0,3
251988.296875,266230.46875,289344.96875,324285.28125,276286.15625,253104.28125,242477.546875,239208.015625,20434.0,1.0,3
252218.265625,266208.84375,289323.84375,324295.03125,275975.03125,253144.96875,242303.296875,239232.4375,20435.0,1.0,3
251616.109375,265947.875,288980.875,324036.03125,276119.6875,252876.828125,242405.84375,239040.203125,20436.0,1.0,3
251029.59375,265824.5625,288799.21875,323866.875,276524.53125,252685.046875,242644.109375,238901.796875,20437.0,1.0,3
251240.421875,265975.75,288988.5,324002.59375,276611.78125,252807.09375,242677.8125,238994.96875,20438.0,1.0,3
251975.703125,266215.625,289319.46875,324267.59375,276278.84375,253095.078125,242468.421875,239199.0,20439.0,1.0,3
252204.9375,266187.03125,289302.125,324279.5625,275968.34375,253139.15625,242289.25,239222.234375,20440.0,1.0,3
251630.5,265952.5,288983.5625,324035.5,276135.34375,252893.28125,242405.578125,239048.703125,20441.0,1.0,3
251049.53125,265839.15625,288805.03125,323865.0,276545.53125,252703.828125,242649.75,238917.1875,20442.0,1.0,3
251239.34375,265972.90625,288981.53125,323989.09375,276625.75,252813.265625,242680.40625,239000.59375,20443.0,1.0,3
251969.078125,266208.75,289315.4375,324254.90625,276291.8125,253100.4375,242474.15625,239205.609375,20444.0,1.0,3
252208.609375,266186.65625,289301.875,324270.375,275976.1875,253148.625,242297.296875,239231.0,20445.0,1.0,3
251633.171875,265947.59375,288976.25,324024.21875,276133.46875,252901.59375,242413.171875,239053.96875,20446.0,1.0,3
251042.109375,265825.09375,288791.4375,323847.65625,276538.84375,252705.265625,242647.515625,238910.75,20447.0,1.0,3
251229.59375,265965.46875,288971.0625,323973.25,276627.25,252819.15625,242683.625,238997.203125,20448.0,1.0,3
251953.796875,266198.75,289302.75,324235.84375,276290.46875,253106.515625,242474.953125,239198.640625,20449.0,1.0,3
252211.546875,266193.03125,289297.65625,324258.90625,275974.78125,253161.6875,242303.5625,239232.34375,20450.0,1.0,3
251647.3125,265963.875,288982.6875,324021.0,276136.5,252926.71875,242425.0625,239062.015625,20451.0,1.0,3
251047.296875,265835.125,288793.59375,323844.53125,276547.25,252730.921875,242662.078125,238924.78125,20452.0,1.0,3
251218.515625,265961.71875,288958.34375,323956.90625,276629.40625,252829.0,242685.859375,239002.828125,20453.0,1.0,3
251946.734375,266200.15625,289285.21875,324214.40625,276293.6875,253109.28125,242470.65625,239193.71875,20454.0,1.0,3
252202.703125,266188.28125,289281.375,324239.78125,275981.65625,253165.96875,242293.375,239225.28125,20455.0,1.0,3
251633.890625,265947.59375,288957.375,323996.875,276131.59375,252917.15625,242398.78125,239052.1875,20456.0,1.0,3
251027.984375,265812.15625,288756.84375,323813.75,276527.5625,252708.921875,242630.25,238907.890625,20457.0,1.0,3
251195.984375,265936.59375,288923.21875,323931.6875,276615.8125,252806.5625,242662.4375,238985.21875,20458.0,1.0,3
251942.078125,266188.09375,289273.0625,324210.5625,276300.03125,253101.234375,242468.421875,239194.4375,20459.0,1.0,3
252214.0625,266185.96875,289280.125,324243.1875,275988.625,253161.6875,242297.390625,239234.671875,20460.0,1.0,3
251658.484375,265955.65625,288967.9375,324006.0625,276144.28125,252919.484375,242405.578125,239063.90625,20461.0,1.0,3
251050.6875,265823.40625,288775.25,323825.75,276550.90625,252713.578125,242643.671875,238919.421875,20462.0,1.0,3
251207.609375,265943.65625,288936.46875,323938.3125,276638.53125,252806.375,242679.34375,238991.84375,20463.0,1.0,3
251941.28125,266188.53125,289276.8125,324209.03125,276309.875,253094.53125,242481.21875,239200.609375,20464.0,1.0,3
252218.078125,266190.78125,289287.03125,324240.0625,275991.40625,253153.984375,242303.109375,239239.3125,20465.0,1.0,3
251651.953125,265947.875,288962.28125,323994.4375,276129.25,252904.375,242409.421875,239063.359375,20466.0,1.0,3
251041.9375,265814.5625,288761.21875,323808.21875,276530.78125,252698.28125,242648.21875,238917.546875,20467.0,1.0,3
251195.078125,265937.125,288918.125,323915.25,276625.28125,252787.78125,242683.71875,238986.296875,20468.0,1.0,3
251925.09375,266180.59375,289254.75,324181.21875,276300.5625,253076.65625,242481.921875,239189.78125,20469.0,1.0,3
252200.015625,266179.34375,289263.25,324213.40625,275980.21875,253139.59375,242296.859375,239227.515625,20470.0,1.0,3
251647.484375,265946.875,288947.0,323975.40625,276125.5,252899.09375,242403.15625,239058.0,20471.0,1.0,3
251045.5,265825.375,288754.875,323792.84375,276541.25,252702.21875,242648.40625,238919.234375,20472.0,1.0,3
251197.328125,265953.84375,288915.34375,323901.90625,276645.9375,252799.5,242692.484375,238994.515625,20473.0,1.0,3
251933.765625,266204.28125,289259.21875,324171.21875,276326.125,253094.625,242496.859375,239200.609375,20474.0,1.0,3
252214.234375,266198.75,289270.5625,324203.125,275995.59375,253156.3125,242305.703125,239237.609375,20475.0,1.0,3
251653.65625,265949.75,288943.0625,323956.1875,276120.15625,252908.03125,242401.1875,239058.890625,20476.0,1.0,3
251037.640625,265808.03125,288735.28125,323768.875,276520.96875,252701.953125,242637.9375,238907.078125,20477.0,1.0,3
251189.625,265938.375,288897.5625,323884.21875,276631.09375,252800.65625,242686.84375,238988.265625,20478.0,1.0,3
251928.84375,266190.25,289243.125,324156.0,276311.84375,253093.90625,242488.1875,239200.6875,20479.0,1.0,3
252218.890625,266188.28125,289255.375,324187.5625,275977.28125,253158.015625,242289.875,239231.265625,20480.0,1.0,3
251664.03125,265939.5625,288927.15625,323941.53125,276098.0625,252908.75,242381.4375,239050.390625,20481.0,1.0,3
251049.359375,265802.84375,288727.875,323761.71875,276511.46875,252708.125,242629.71875,238909.046875,20482.0,1.0,3
251188.109375,265926.21875,288887.90625,323871.34375,276630.375,252802.890625,242679.15625,238981.828125,20483.0,1.0,3
251928.84375,266184.15625,289235.0625,324142.5,276319.53125,253097.3125,242480.9375,239190.5,20484.0,1.0,3
252222.640625,266184.625,289250.71875,324179.53125,275990.21875,253166.234375,242290.0625,239232.15625,20485.0,1.0,3
251663.9375,265931.21875,288921.6875,323936.25,276109.40625,252917.328125,242383.9375,239061.21875,20486.0,1.0,3
251042.734375,265791.59375,288720.4375,323754.3125,276523.53125,252714.921875,242630.171875,238919.15625,20487.0,1.0,3
251170.671875,265909.6875,288870.46875,323860.53125,276641.125,252804.671875,242678.625,238987.90625,20488.0,1.0,3
251906.234375,266163.96875,289211.75,324128.03125,276326.03125,253092.484375,242480.5,239189.0625,20489.0,1.0,3
252207.53125,266169.59375,289234.71875,324169.875,275992.8125,253165.703125,242292.296875,239232.78125,20490.0,1.0,3
251661.34375,265928.1875,288909.90625,323929.28125,276106.90625,252918.765625,242386.359375,239063.90625,20491.0,1.0,3
251036.125,265786.3125,288698.71875,323738.65625,276511.125,252703.828125,242632.9375,238917.546875,20492.0,1.0,3
251149.390625,265898.15625,288846.96875,323838.78125,276630.84375,252787.421875,242686.21875,238980.65625,20493.0,1.0,3
251879.671875,266151.25,289188.65625,324105.75,276316.65625,253074.328125,242479.421875,239179.140625,20494.0,1.0,3
252203.6875,266176.5625,289220.78125,324156.0,275988.71875,253149.96875,242284.0625,239226.0,20495.0,1.0,3
251670.28125,265942.0625,288904.09375,323921.21875,276112.53125,252907.234375,242372.671875,239057.375,20496.0,1.0,3
251042.640625,265799.28125,288695.15625,323732.125,276526.84375,252692.03125,242613.796875,238908.6875,20497.0,1.0,3
251157.625,265912.28125,288843.90625,323832.96875,276655.5,252772.046875,242669.6875,238979.3125,20498.0,1.0,3
251892.640625,266166.65625,289191.25,324105.125,276348.40625,253059.671875,242474.59375,239189.0625,20499.0,1.0,3
252220.3125,266188.375,289226.84375,324154.9375,276010.4375,253136.921875,242280.765625,239240.03125,20500.0,1.0,3
251681.453125,265937.84375,288903.71875,323912.46875,276109.3125,252885.6875,242364.625,239068.1875,20501.0,1.0,3
251045.421875,265783.96875,288688.96875,323714.875,276506.46875,252665.03125,242609.0625,238908.78125,20502.0,1.0,3
251158.34375,265901.5625,288840.25,323814.65625,276631.46875,252744.6875,242676.296875,238972.53125,20503.0,1.0,3
251887.546875,266153.5,289188.40625,324082.53125,276317.90625,253030.796875,242484.34375,239178.25,20504.0,1.0,3
252217.71875,266175.40625,289229.71875,324135.09375,275979.15625,253114.203125,242298.46875,239232.875,20505.0,1.0,3
251698.625,265947.59375,288918.84375,323904.15625,276096.1875,252877.015625,242392.078125,239071.046875,20506.0,1.0,3
251054.625,265792.90625,288696.03125,323703.4375,276507.28125,252655.015625,242625.609375,238912.890625,20507.0,1.0,3
251157.71875,265908.96875,288840.25,323801.59375,276651.03125,252738.25,242693.828125,238981.203125,20508.0,1.0,3
251896.84375,266173.25,289192.15625,324079.5625,276358.40625,253036.328125,242508.125,239196.21875,20509.0,1.0,3
252232.5625,266199.71875,289230.59375,324133.03125,276023.59375,253124.40625,242303.5625,239247.984375,20510.0,1.0,3
251695.234375,265952.15625,288895.0625,323885.09375,276113.25,252879.6875,242370.796875,239067.65625,20511.0,1.0,3
251052.390625,265802.125,288670.90625,323689.40625,276518.0,252670.03125,242621.21875,238918.25,20512.0,1.0,3
251142.6875,265913.34375,288802.78125,323781.5625,276651.65625,252754.96875,242690.875,238980.296875,20513.0,1.0,3
251868.3125,266172.625,289143.875,324047.03125,276338.65625,253053.140625,242499.1875,239182.984375,20514.0,1.0,3
252210.75,266206.96875,289186.34375,324102.46875,275988.1875,253152.203125,242311.421875,239244.953125,20515.0,1.0,3
251692.28125,265975.75,288869.5,323870.34375,276083.75,252927.796875,242393.421875,239080.4375,20516.0,1.0,3
251052.921875,265832.34375,288651.875,323680.375,276493.59375,252727.796875,242638.5625,238930.859375,20517.0,1.0,3
251142.0625,265952.25,288790.1875,323777.8125,276638.53125,252815.234375,242704.28125,238993.625,20518.0,1.0,3
251868.765625,266216.96875,289138.875,324050.59375,276341.59375,253118.234375,242506.25,239202.5625,20519.0,1.0,3
252218.078125,266249.6875,289186.4375,324111.75,275999.875,253224.0,242304.015625,239263.984375,20520.0,1.0,3
251713.109375,266020.28125,288874.6875,323883.59375,276099.40625,253004.0625,242378.84375,239099.578125,20521.0,1.0,3
251063.65625,265865.96875,288649.625,323685.28125,276506.65625,252789.390625,242617.46875,238946.5,20522.0,1.0,3
251136.34375,265970.46875,288781.0625,323772.0,276646.75,252859.484375,242679.25,238999.25,20523.0,1.0,3
251874.671875,266239.5,289139.3125,324050.25,276351.875,253161.59375,242498.109375,239208.5625,20524.0,1.0,3
252229.34375,266265.78125,289193.0625,324112.75,275999.71875,253260.03125,242299.890625,239269.71875,20525.0,1.0,3
251713.015625,266014.125,288875.125,323875.90625,276079.09375,253018.0,242367.9375,239102.4375,20526.0,1.0,3
251072.0625,265862.3125,288651.59375,323677.3125,276479.8125,252791.796875,242614.15625,238949.375,20527.0,1.0,3
251150.828125,265968.875,288786.34375,323767.1875,276629.75,252861.546875,242690.421875,239006.046875,20528.0,1.0,3
251880.125,266229.0625,289143.6875,324042.71875,276342.3125,253157.03125,242507.765625,239214.734375,20529.0,1.0,3
252249.46875,266270.4375,289212.0,324115.0625,276007.21875,253256.546875,242313.390625,239286.703125,20530.0,1.0,3
251745.921875,266033.96875,288903.8125,323888.15625,276103.78125,253019.703125,242388.671875,239129.53125,20531.0,1.0,3
251088.328125,265869.0,288669.40625,323677.3125,276506.46875,252781.796875,242628.46875,238967.703125,20532.0,1.0,3
251146.53125,265966.28125,288795.0,323758.0625,276659.28125,252837.765625,242696.421875,239009.359375,20533.0,1.0,3
251871.359375,266228.0625,289153.0,324035.40625,276374.9375,253127.078125,242509.546875,239213.203125,20534.0,1.0,3
252241.234375,266270.96875,289217.90625,324101.03125,276024.375,253222.921875,242307.859375,239275.25,20535.0,1.0,3
251736.984375,266032.71875,288900.6875,323865.875,276094.40625,252979.375,242375.265625,239105.65625,20536.0,1.0,3
251081.09375,265872.9375,288668.59375,323659.34375,276491.8125,252743.25,242619.171875,238947.21875,20537.0,1.0,3
251136.53125,265977.1875,288797.78125,323739.1875,276642.0,252800.5625,242699.359375,239002.5625,20538.0,1.0,3
251854.90625,266235.9375,289150.9375,324008.59375,276341.25,253084.796875,242511.796875,239202.84375,20539.0,1.0,3
252228.890625,266274.90625,289213.4375,324075.71875,275981.375,253181.265625,242295.875,239260.0625,20540.0,1.0,3
251742.171875,266048.4375,288912.03125,323856.3125,276063.625,252958.90625,242366.953125,239104.9375,20541.0,1.0,3
251085.46875,265892.875,288686.90625,323657.03125,276469.90625,252735.75,242617.109375,238955.1875,20542.0,1.0,3
251132.046875,265992.46875,288810.3125,323731.15625,276624.84375,252790.015625,242690.0625,239003.453125,20543.0,1.0,3
251853.828125,266257.375,289168.09375,324002.6875,276336.0625,253081.21875,242503.65625,239202.921875,20544.0,1.0,3
252230.5,266297.4375,289238.65625,324074.90625,275981.03125,253185.640625,242298.828125,239270.78125,20545.0,1.0,3
251746.1875,266068.75,288930.1875,323847.46875,276052.5625,252957.46875,242366.0625,239109.671875,20546.0,1.0,3
251087.078125,265904.5,288694.25,323639.25,276452.125,252731.0,242612.90625,238946.328125,20547.0,1.0,3
251127.578125,265995.0625,288812.28125,323711.46875,276610.71875,252786.4375,242692.578125,238993.625,20548.0,1.0,3
251853.75,266258.71875,289173.65625,323987.03125,276332.21875,253084.703125,242518.046875,239205.34375,20549.0,1.0,3
252246.328125,266307.0,289256.71875,324071.15625,275988.71875,253207.09375,242327.609375,239288.3125,20550.0,1.0,3
251773.546875,266080.90625,288957.46875,323852.28125,276067.40625,252987.421875,242397.171875,239130.421875,20551.0,1.0,3
251118.640625,265920.875,288720.53125,323641.46875,276477.5,252756.046875,242638.921875,238967.96875,20552.0,1.0,3
251131.15625,265989.09375,288814.875,323697.4375,276629.59375,252790.734375,242709.015625,238998.71875,20553.0,1.0,3
251842.578125,266241.125,289166.59375,323970.65625,276350.8125,253083.546875,242533.25,239206.953125,20554.0,1.0,3
252237.484375,266289.5625,289243.3125,324049.71875,275999.09375,253199.5,242328.5,239281.515625,20555.0,1.0,3
251754.953125,266049.96875,288931.0,323822.6875,276065.6875,252977.234375,242391.53125,239124.609375,20556.0,1.0,3
251088.59375,265880.1875,288680.03125,323604.71875,276461.84375,252746.390625,242634.90625,238957.234375,20557.0,1.0,3
251106.125,265959.5,288781.875,323671.5,276625.46875,252797.609375,242714.296875,238993.890625,20558.0,1.0,3
251829.421875,266226.8125,289143.625,323955.125,276353.75,253101.234375,242541.296875,239204.625,20559.0,1.0,3
252240.703125,266288.78125,289232.46875,324045.0625,276003.09375,253229.71875,242341.015625,239288.21875,20560.0,1.0,3
251781.78125,266072.9375,288938.25,323831.03125,276072.5,253021.9375,242401.90625,239136.671875,20561.0,1.0,3
251108.265625,265902.53125,288691.21875,323617.4375,276471.34375,252786.34375,242635.171875,238968.859375,20562.0,1.0,3
251114.4375,265977.625,288789.125,323679.125,276636.125,252824.890625,242710.984375,239001.40625,20563.0,1.0,3
251830.5,266238.875,289141.65625,323951.28125,276358.3125,253115.015625,242525.640625,239197.734375,20564.0,1.0,3
252235.78125,266292.09375,289224.6875,324032.53125,275991.21875,253231.0625,242308.828125,239270.15625,20565.0,1.0,3
251763.453125,266054.96875,288914.46875,323803.375,276031.625,253003.34375,242354.34375,239108.6875,20566.0,1.0,3
251096.640625,265886.625,288670.03125,323587.84375,276419.125,252768.203125,242598.875,238944.09375,20567.0,1.0,3
251106.03125,265967.8125,288776.875,323656.84375,276587.75,252812.640625,242694.453125,238986.296875,20568.0,1.0,3
251827.8125,266236.03125,289142.53125,323941.625,276321.5,253107.328125,242532.171875,239202.125,20569.0,1.0,3
252245.53125,266292.0,289230.4375,324026.0,275963.6875,253216.578125,242316.703125,239278.921875,20570.0,1.0,3
251784.359375,266056.75,288927.34375,323805.34375,276025.5625,252984.75,242359.625,239118.265625,20571.0,1.0,3
251119.359375,265890.28125,288681.71875,323591.40625,276437.71875,252739.59375,242599.9375,238951.875,20572.0,1.0,3
251120.078125,265965.5625,288780.25,323652.03125,276623.9375,252770.796875,242688.1875,238990.140625,20573.0,1.0,3
251815.65625,266204.46875,289120.8125,323917.125,276347.25,253040.796875,242507.765625,239190.3125,20574.0,1.0,3
252240.96875,266263.65625,289213.09375,324010.46875,275988.71875,253163.734375,242309.734375,239277.765625,20575.0,1.0,3
251788.296875,266033.875,288915.0,323794.1875,276042.4375,252948.0,242373.484375,239129.703125,20576.0,1.0,3
251113.1875,265859.96875,288660.8125,323568.96875,276436.1875,252701.5,242621.84375,238956.34375,20577.0,1.0,3
251107.203125,265935.71875,288756.75,323624.03125,276617.15625,252732.265625,242720.375,238986.65625,20578.0,1.0,3
251816.375,266192.65625,289111.875,323898.0625,276353.0625,253016.21875,242549.4375,239195.59375,20579.0,1.0,3
252240.796875,266250.875,289200.84375,323990.25,275989.59375,253136.921875,242336.109375,239281.6875,20580.0,1.0,3
251791.515625,266022.34375,288899.15625,323774.6875,276033.25,252917.421875,242378.390625,239127.015625,20581.0,1.0,3
251117.03125,265849.0625,288649.28125,323559.65625,276433.34375,252676.921875,242617.46875,238963.140625,20582.0,1.0,3
251106.296875,265929.625,288742.625,323617.78125,276620.65625,252712.671875,242702.765625,238988.265625,20583.0,1.0,3
251809.671875,266193.28125,289093.46875,323892.09375,276357.25,253006.03125,242525.375,239189.6875,20584.0,1.0,3
252231.9375,266251.84375,289184.65625,323984.15625,275987.375,253139.6875,242308.03125,239273.828125,20585.0,1.0,3
251774.796875,266013.84375,288876.1875,323760.21875,276009.71875,252916.078125,242340.3125,239113.875,20586.0,1.0,3
251108.984375,265851.03125,288636.0625,323549.90625,276408.84375,252687.90625,242594.046875,238955.453125,20587.0,1.0,3
251100.21875,265937.125,288740.84375,323611.15625,276603.125,252734.9375,242701.421875,238992.90625,20588.0,1.0,3
251801.265625,266197.5,289094.25,323879.125,276332.21875,253022.390625,242529.3125,239190.3125,20589.0,1.0,3
252232.65625,266258.03125,289189.03125,323970.21875,275953.9375,253148.71875,242307.765625,239270.609375,20590.0,1.0,3
251789.015625,266027.78125,288889.59375,323754.75,275989.4375,252936.828125,242348.4375,239120.3125,20591.0,1.0,3
251114.53125,265857.03125,288639.8125,323537.21875,276394.1875,252700.703125,242592.609375,238957.765625,20592.0,1.0,3
251091.734375,265933.5625,288725.1875,323587.90625,276592.65625,252732.171875,242692.484375,238989.875,20593.0,1.0,3
251778.734375,266181.65625,289062.15625,323850.25,276328.375,253013.984375,242514.296875,239182.71875,20594.0,1.0,3
252217.984375,266247.1875,289162.46875,323950.5625,275964.3125,253151.578125,242297.921875,239269.453125,20595.0,1.0,3
251792.234375,266029.40625,288872.4375,323744.125,276009.0,252952.734375,242348.0,239127.46875,20596.0,1.0,3
251113.546875,265852.375,288613.4375,323521.75,276408.3125,252715.890625,242592.25,238958.21875,20597.0,1.0,3
251078.765625,265919.53125,288693.53125,323568.59375,276604.28125,252746.296875,242695.609375,238984.5,20598.0,1.0,3
251770.421875,266168.78125,289036.40625,323834.15625,276342.125,253029.265625,242522.703125,239183.4375,20599.0,1.0,3
252224.34375,266241.375,289145.21875,323943.03125,275975.125,253173.484375,242311.78125,239278.390625,20600.0,1.0,3
251802.6875,266023.40625,288853.03125,323735.34375,276003.28125,252969.1875,242355.328125,239134.53125,20601.0,1.0,3
251116.9375,265840.5,288588.46875,323508.34375,276391.03125,252722.78125,242591.453125,238959.203125,20602.0,1.0,3
251076.890625,265909.59375,288671.0,323559.125,276595.25,252755.0625,242697.40625,238984.5,20603.0,1.0,3
251765.6875,266164.21875,289018.34375,323832.34375,276341.15625,253044.015625,242525.734375,239181.734375,20604.0,1.0,3
252209.140625,266231.0,289120.09375,323933.21875,275961.96875,253181.265625,242295.25,239263.984375,20605.0,1.0,3
251799.5625,266023.21875,288839.28125,323735.53125,275991.75,252986.078125,242333.78125,239123.796875,20606.0,1.0,3
251121.0625,265853.375,288588.84375,323517.28125,276392.5625,252749.515625,242576.609375,238956.609375,20607.0,1.0,3
251076.703125,265928.0,288673.5,323565.375,276603.375,252778.65625,242686.21875,238985.40625,20608.0,1.0,3
251762.109375,266180.78125,289019.0625,323830.65625,276344.46875,253060.109375,242518.9375,239184.515625,20609.0,1.0,3
252217.984375,266251.125,289131.8125,323934.28125,275963.3125,253200.484375,242298.90625,239274.1875,20610.0,1.0,3
251803.859375,266028.59375,288850.34375,323732.21875,275983.34375,253000.65625,242337.53125,239133.015625,20611.0,1.0,3
251114.703125,265844.34375,288587.0625,323504.6875,276370.40625,252747.09375,242569.71875,238953.65625,20612.0,1.0,3
251065.359375,265915.0625,288663.0625,323546.25,276576.375,252763.28125,242680.40625,238977.796875,20613.0,1.0,3
251760.671875,266179.25,289014.0625,323817.6875,276331.5,253048.84375,242521.625,239182.984375,20614.0,1.0,3
252231.21875,266262.5625,289133.875,323928.125,275964.40625,253194.40625,242305.171875,239276.15625,20615.0,1.0,3
251810.390625,266028.15625,288839.625,323715.78125,275975.5625,252981.078125,242332.53125,239129.796875,20616.0,1.0,3
251113.28125,265834.0625,288567.28125,323479.28125,276361.8125,252720.8125,242564.625,238946.0625,20617.0,1.0,3
251060.703125,265905.03125,288645.15625,323523.28125,276584.4375,252736.90625,242677.640625,238966.4375,20618.0,1.0,3
251750.65625,266162.96875,288994.84375,323792.03125,276343.03125,253015.046875,242519.5625,239168.234375,20619.0,1.0,3
252216.46875,266236.8125,289111.59375,323899.40625,275968.40625,253155.25,242296.140625,239263.71875,20620.0,1.0,3
251817.09375,266020.375,288830.34375,323698.96875,275984.5,252955.0625,242331.453125,239129.796875,20621.0,1.0,3
251132.5,265842.1875,288565.59375,323470.96875,276377.09375,252705.703125,242571.25,238956.34375,20622.0,1.0,3
251055.796875,265893.25,288629.34375,323501.0,276588.375,252714.015625,242679.0625,238967.421875,20623.0,1.0,3
251736.359375,266145.1875,288979.28125,323772.28125,276347.3125,253000.75,242519.65625,239167.34375,20624.0,1.0,3
252206.28125,266219.46875,289089.96875,323877.96875,275956.53125,253141.390625,242288.359375,239258.359375,20625.0,1.0,3
251817.359375,266009.65625,288812.28125,323680.09375,275963.15625,252943.703125,242313.03125,239117.71875,20626.0,1.0,3
251126.15625,265825.8125,288551.5625,323455.96875,276357.96875,252699.890625,242557.484375,238946.15625,20627.0,1.0,3
251044.078125,265879.1875,288616.46875,323491.1875,276573.53125,252709.546875,242673.078125,238962.25,20628.0,1.0,3
251727.59375,266139.90625,288966.84375,323763.0625,276335.625,252999.59375,242518.5,239162.6875,20629.0,1.0,3
252211.546875,266228.6875,289091.5,323879.65625,275957.40625,253161.765625,242298.109375,239263.71875,20630.0,1.0,3
251821.296875,266013.40625,288813.4375,323682.78125,275961.53125,252974.28125,242321.078125,239126.65625,20631.0,1.0,3
251119.359375,265816.6875,288541.90625,323449.875,276349.46875,252727.34375,242557.125,238948.5625,20632.0,1.0,3
251037.375,265874.46875,288607.875,323483.5,276581.03125,252743.796875,242676.65625,238965.46875,20633.0,1.0,3
251722.671875,266143.5625,288959.0625,323753.84375,276349.90625,253035.703125,242525.015625,239166.359375,20634.0,1.0,3
252205.296875,266228.6875,289080.9375,323867.125,275962.0625,253188.765625,242298.28125,239259.34375,20635.0,1.0,3
251817.453125,266011.625,288798.78125,323667.9375,275961.53125,252997.34375,242316.875,239120.140625,20636.0,1.0,3
251130.171875,265832.25,288536.1875,323443.875,276364.03125,252762.5625,242568.203125,238951.609375,20637.0,1.0,3
251039.0625,265883.21875,288596.625,323472.40625,276596.40625,252775.359375,242692.21875,238966.171875,20638.0,1.0,3
251711.859375,266135.875,288940.46875,323735.4375,276361.28125,253059.9375,242537.8125,239162.25,20639.0,1.0,3
252208.421875,266228.34375,289073.6875,323854.875,275983.4375,253221.140625,242312.5,239265.515625,20640.0,1.0,3
251826.75,266007.6875,288790.28125,323651.03125,275976.5625,253023.453125,242321.625,239121.390625,20641.0,1.0,3
251128.75,265812.78125,288515.25,323417.5,276363.96875,252769.90625,242560.609375,238944.0,20642.0,1.0,3
251038.09375,265869.375,288577.03125,323447.5625,276599.375,252777.5,242689.359375,238955.984375,20643.0,1.0,3
251707.921875,266122.46875,288923.75,323713.8125,276372.28125,253062.171875,242538.96875,239158.140625,20644.0,1.0,3
252206.1875,266214.75,289061.8125,323838.78125,275994.875,253229.0,242318.484375,239262.296875,20645.0,1.0,3
251838.09375,266007.5,288787.9375,323643.53125,275986.75,253037.765625,242331.359375,239126.75,20646.0,1.0,3
251141.265625,265815.53125,288514.90625,323410.34375,276370.84375,252780.71875,242567.9375,238949.71875,20647.0,1.0,3
251018.59375,265847.5625,288554.25,323420.0,276584.78125,252760.78125,242676.203125,238943.28125,20648.0,1.0,3
251688.515625,266104.3125,288901.9375,323690.65625,276355.375,253035.796875,242527.703125,239145.4375,20649.0,1.0,3
252199.75,266208.03125,289046.25,323822.78125,275977.71875,253201.375,242309.90625,239259.796875,20650.0,1.0,3
251836.578125,265996.78125,288776.15625,323633.96875,275969.9375,253016.3125,242323.671875,239131.578125,20651.0,1.0,3
251135.09375,265799.0,288497.09375,323396.9375,276352.34375,252757.734375,242555.875,238948.109375,20652.0,1.0,3
251017.171875,265840.75,288542.34375,323413.5,276579.25,252747.375,242678.53125,238946.6875,20653.0,1.0,3
251680.75,266092.625,288884.6875,323678.21875,276346.0625,253018.09375,242529.21875,239143.203125,20654.0,1.0,3
252202.25,266202.40625,289037.75,323815.1875,275972.25,253186.796875,242307.140625,239260.5,20655.0,1.0,3
251847.21875,265996.3125,288771.40625,323629.65625,275960.375,253002.984375,242323.046875,239132.203125,20656.0,1.0,3
251145.46875,265798.375,288498.625,323399.53125,276351.0,252749.421875,242562.296875,238954.640625,20657.0,1.0,3
251026.109375,265842.625,288541.0,323414.65625,276585.9375,252733.421875,242686.140625,238952.9375,20658.0,1.0,3
251679.9375,266090.5625,288879.875,323672.78125,276356.53125,252999.234375,242535.75,239143.46875,20659.0,1.0,3
252189.296875,266185.40625,289022.03125,323800.0,275969.03125,253159.359375,242307.671875,239248.796875,20660.0,1.0,3
251837.390625,265975.125,288751.125,323610.90625,275948.21875,252972.765625,242315.546875,239117.8125,20661.0,1.0,3
251146.453125,265790.78125,288477.96875,323380.21875,276340.53125,252724.578125,242559.359375,238939.09375,20662.0,1.0,3
251007.953125,265822.5,288514.46875,323390.34375,276577.625,252710.53125,242682.28125,238938.453125,20663.0,1.0,3
251667.953125,266075.53125,288860.46875,323658.1875,276360.75,252987.25,242537.71875,239140.96875,20664.0,1.0,3
252197.875,266186.40625,289014.875,323790.5,275979.875,253157.5625,242308.921875,239251.296875,20665.0,1.0,3
251860.90625,265988.71875,288754.78125,323608.46875,275960.5625,252983.140625,242320.734375,239127.375,20666.0,1.0,3
251160.390625,265794.25,288476.375,323374.78125,276349.21875,252734.21875,242564.1875,238954.828125,20667.0,1.0,3
