FZ,C3,CZ,C4,PZ,PO7,OZ,PO8,Counter,Validation,Label
231069.578125,272107.03125,319505.15625,292618.40625,241631.75,276048.34375,247703.65625,244126.390625,112155.0,1.0,2
231720.1875,273005.65625,320424.625,292826.90625,243115.640625,276665.15625,248105.1875,244632.703125,112156.0,1.0,2
231385.53125,272259.0,319527.59375,292492.71875,242646.609375,276421.0,247834.984375,244261.65625,112157.0,1.0,2
230523.46875,270899.65625,318057.5625,292082.25,240875.015625,275650.5,247256.0,243526.203125,112158.0,1.0,2
230331.078125,270812.21875,318045.9375,292161.09375,240242.015625,275420.25,247172.21875,243439.5625,112159.0,1.0,2
231068.234375,272113.71875,319507.90625,292618.59375,241622.546875,276050.21875,247701.5,244124.875,112160.0,1.0,2
231714.375,273011.28125,320433.375,292826.28125,243110.015625,276665.96875,248109.109375,244633.6875,112161.0,1.0,2
231381.328125,272269.65625,319543.25,292493.25,242650.640625,276425.03125,247836.875,244262.015625,112162.0,1.0,2
230528.296875,270913.09375,318070.0625,292084.03125,240882.171875,275654.78125,247253.75,243526.015625,112163.0,1.0,2
230331.421875,270811.875,318045.40625,292160.8125,240242.640625,275418.125,247163.1875,243435.8125,112164.0,1.0,2
231063.9375,272101.5625,319502.65625,292614.75,241619.6875,276044.9375,247687.921875,244117.0,112165.0,1.0,2
231713.484375,273003.40625,320438.5625,292828.0625,243118.5,276669.28125,248114.125,244636.8125,112166.0,1.0,2
231391.890625,272272.5,319556.28125,292501.8125,242671.921875,276434.84375,247853.953125,244271.234375,112167.0,1.0,2
230537.6875,270909.875,318075.53125,292083.9375,240901.5625,275659.875,247260.734375,243528.890625,112168.0,1.0,2
230323.203125,270788.1875,318038.15625,292148.75,240245.328125,275415.875,247156.921875,243432.234375,112169.0,1.0,2
231047.84375,272074.65625,319493.625,292605.28125,241613.078125,276038.59375,247678.53125,244113.15625,112170.0,1.0,2
231710.0,272994.125,320438.75,292820.28125,243118.6875,276665.71875,248102.234375,244627.25,112171.0,1.0,2
231390.8125,272267.78125,319558.0625,292490.84375,242676.296875,276431.5625,247840.09375,244267.109375,112172.0,1.0,2
230534.921875,270900.5625,318074.71875,292072.5,240904.34375,275663.53125,247259.75,243526.640625,112173.0,1.0,2
230320.078125,270775.84375,318031.53125,292141.15625,240239.515625,275420.96875,247167.296875,243429.015625,112174.0,1.0,2
231050.796875,272070.90625,319484.9375,292600.34375,241602.078125,276047.53125,247693.90625,244115.390625,112175.0,1.0,2
231714.203125,272998.3125,320435.4375,292816.71875,243109.390625,276669.625,248112.0625,244638.328125,112176.0,1.0,2
231403.0625,272287.4375,319569.4375,292492.53125,242683.71875,276440.84375,247847.953125,244278.46875,112177.0,1.0,2
230548.328125,270921.84375,318085.28125,292075.96875,240914.09375,275674.71875,247267.4375,243533.4375,112178.0,1.0,2
230331.875,270791.5625,318032.625,292144.1875,240237.546875,275424.75,247171.765625,243429.015625,112179.0,1.0,2
231052.9375,272075.0,319480.5625,292602.78125,241592.0625,276042.96875,247694.796875,244111.015625,112180.0,1.0,2
231708.75,272998.21875,320431.21875,292820.28125,243099.734375,276657.65625,248103.125,244629.21875,112181.0,1.0,2
231402.796875,272292.90625,319571.9375,292497.34375,242680.59375,276435.46875,247849.03125,244272.296875,112182.0,1.0,2
230553.25,270931.40625,318091.34375,292084.21875,240917.484375,275677.3125,247280.84375,243537.015625,112183.0,1.0,2
230329.640625,270790.875,318028.78125,292147.6875,240236.109375,275416.25,247170.078125,243435.625,112184.0,1.0,2
231043.828125,272069.375,319470.71875,292602.9375,241584.734375,276026.09375,247676.203125,244102.421875,112185.0,1.0,2
231708.828125,273005.5625,320431.59375,292822.09375,243105.265625,276658.1875,248094.890625,244622.234375,112186.0,1.0,2
231402.796875,272303.625,319576.9375,292500.21875,242697.21875,276442.1875,247845.453125,244274.265625,112187.0,1.0,2
230543.859375,270929.71875,318086.4375,292082.5,240930.1875,275671.59375,247266.453125,243534.609375,112188.0,1.0,2
230310.59375,270773.59375,318009.28125,292140.96875,240235.75,275408.90625,247156.296875,243423.203125,112189.0,1.0,2
231028.796875,272050.96875,319448.09375,292590.96875,241575.78125,276016.15625,247667.0,244088.03125,112190.0,1.0,2
231701.953125,272991.96875,320416.65625,292813.59375,243098.75,276652.75,248099.09375,244618.3125,112191.0,1.0,2
231400.109375,272293.34375,319572.21875,292494.21875,242701.6875,276440.3125,247849.828125,244273.546875,112192.0,1.0,2
230540.015625,270918.4375,318081.34375,292073.5625,240932.5,275668.46875,247266.09375,243530.671875,112193.0,1.0,2
230309.53125,270762.4375,318002.75,292132.9375,240227.53125,275406.0625,247155.40625,243414.796875,112194.0,1.0,2
231028.625,272040.5,319442.03125,292586.5,241563.890625,276018.03125,247671.734375,244089.109375,112195.0,1.0,2
231699.09375,272984.90625,320419.34375,292810.46875,243095.4375,276660.59375,248105.1875,244624.828125,112196.0,1.0,2
231408.34375,272302.5625,319581.6875,292491.1875,242709.734375,276454.34375,247858.328125,244282.3125,112197.0,1.0,2
230550.296875,270928.8125,318085.28125,292070.53125,240940.109375,275682.0625,247274.59375,243540.953125,112198.0,1.0,2
230311.84375,270764.03125,317990.9375,292125.25,240218.953125,275412.9375,247161.9375,243422.21875,112199.0,1.0,2
231024.421875,272034.0625,319426.84375,292578.4375,241544.40625,276018.9375,247674.234375,244087.40625,112200.0,1.0,2
231699.625,272986.15625,320413.0,292805.53125,243082.921875,276661.21875,248109.65625,244628.328125,112201.0,1.0,2
231419.15625,272317.5,319589.375,292492.78125,242712.78125,276462.40625,247868.4375,244295.09375,112202.0,1.0,2
230560.671875,270940.4375,318091.8125,292067.03125,240945.640625,275692.0625,247287.015625,243548.546875,112203.0,1.0,2
230321.6875,270769.40625,317991.75,292124.71875,240220.015625,275415.0,247170.4375,243429.375,112204.0,1.0,2
231030.953125,272034.96875,319422.90625,292578.625,241542.625,276018.03125,247672.8125,244087.765625,112205.0,1.0,2
231702.671875,272983.125,320408.78125,292805.4375,243082.03125,276651.5,248094.1875,244615.359375,112206.0,1.0,2
231423.890625,272316.9375,319590.96875,292495.46875,242723.421875,276452.03125,247856.265625,244296.53125,112207.0,1.0,2
230559.328125,270932.125,318084.65625,292064.28125,240952.625,275672.40625,247262.609375,243539.4375,112208.0,1.0,2
230305.5,270742.03125,317968.40625,292111.65625,240213.140625,275393.25,247139.765625,243399.59375,112209.0,1.0,2
231008.328125,272004.125,319399.125,292567.0,241528.84375,275998.625,247650.09375,244065.0625,112210.0,1.0,2
231695.59375,272975.625,320406.1875,292805.90625,243080.0625,276653.71875,248094.359375,244615.0,112211.0,1.0,2
231421.484375,272313.0,319597.25,292498.34375,242727.703125,276465.0,247862.890625,244289.734375,112212.0,1.0,2
230556.015625,270924.4375,318091.8125,292071.875,240961.203125,275689.03125,247273.96875,243544.984375,112213.0,1.0,2
230300.21875,270732.21875,317970.75,292120.0625,240213.765625,275399.53125,247143.078125,243412.203125,112214.0,1.0,2
231013.609375,272005.625,319403.40625,292577.8125,241524.296875,276002.46875,247659.21875,244077.21875,112215.0,1.0,2
231702.21875,272982.84375,320412.0,292814.3125,243077.734375,276654.71875,248102.859375,244624.484375,112216.0,1.0,2
231427.015625,272327.5,319606.09375,292501.8125,242730.84375,276465.15625,247866.546875,244295.453125,112217.0,1.0,2
230563.53125,270945.09375,318103.0625,292076.53125,240969.15625,275698.0625,247281.03125,243546.765625,112218.0,1.0,2
230302.015625,270745.4375,317971.46875,292121.5,240211.53125,275405.15625,247145.484375,243406.21875,112219.0,1.0,2
231013.609375,272016.0,319399.90625,292578.4375,241514.984375,275999.4375,247652.6875,244072.203125,112220.0,1.0,2
231703.46875,273001.4375,320419.6875,292821.09375,243077.921875,276656.40625,248105.09375,244630.28125,112221.0,1.0,2
231430.78125,272353.34375,319623.15625,292514.0,242745.765625,276469.90625,247872.0,244312.453125,112222.0,1.0,2
230563.984375,270965.84375,318113.25,292078.65625,240980.25,275695.28125,247281.828125,243549.984375,112223.0,1.0,2
230298.703125,270757.59375,317973.59375,292115.21875,240210.0,275405.0625,247147.359375,243402.015625,112224.0,1.0,2
231005.203125,272017.34375,319395.53125,292566.90625,241504.171875,275998.5625,247652.609375,244062.375,112225.0,1.0,2
231708.390625,273009.21875,320419.96875,292811.53125,243072.90625,276659.71875,248108.578125,244620.8125,112226.0,1.0,2
231453.046875,272373.1875,319637.1875,292512.1875,242757.65625,276482.6875,247883.1875,244308.15625,112227.0,1.0,2
230587.140625,270981.65625,318126.03125,292082.40625,240994.46875,275711.28125,247301.59375,243566.171875,112228.0,1.0,2
230319.625,270765.28125,317974.59375,292118.8125,240215.8125,275411.25,247158.453125,243419.0,112229.0,1.0,2
231018.078125,272014.03125,319391.0625,292567.625,241498.546875,275998.90625,247647.78125,244058.53125,112230.0,1.0,2
231710.984375,272997.4375,320419.78125,292813.84375,243068.609375,276658.375,248101.875,244619.828125,112231.0,1.0,2
231450.09375,272357.1875,319634.6875,292508.25,242757.125,276472.84375,247867.453125,244300.109375,112232.0,1.0,2
230598.40625,270976.375,318124.71875,292079.46875,241002.59375,275705.21875,247286.5625,243552.75,112233.0,1.0,2
230322.75,270748.9375,317964.40625,292115.15625,240215.375,275407.3125,247153.984375,243405.328125,112234.0,1.0,2
231014.140625,271995.1875,319378.5625,292568.625,241492.1875,275992.28125,247649.390625,244065.328125,112235.0,1.0,2
231706.0625,272983.03125,320413.53125,292816.53125,243062.53125,276654.09375,248100.625,244627.875,112236.0,1.0,2
231447.5,272356.09375,319638.8125,292515.40625,242761.5,276484.21875,247882.640625,244315.9375,112237.0,1.0,2
230590.359375,270971.65625,318121.5625,292081.625,241004.203125,275711.375,247291.75,243559.109375,112238.0,1.0,2
230310.78125,270734.8125,317953.40625,292115.21875,240204.734375,275404.4375,247147.09375,243405.234375,112239.0,1.0,2
230995.8125,271977.65625,319367.0,292567.8125,241474.671875,275994.25,247655.375,244067.46875,112240.0,1.0,2
231698.90625,272984.90625,320411.5625,292817.0,243052.25,276662.84375,248117.25,244628.59375,112241.0,1.0,2
231449.015625,272366.21875,319647.03125,292515.40625,242760.78125,276489.40625,247883.0,244315.75,112242.0,1.0,2
230581.40625,270972.0,318127.375,292080.375,241002.15625,275714.5,247289.515625,243564.203125,112243.0,1.0,2
230300.40625,270734.8125,317951.53125,292111.28125,240199.015625,275411.875,247147.90625,243405.5,112244.0,1.0,2
230994.46875,271985.78125,319365.59375,292563.6875,241465.90625,275996.03125,247647.6875,244056.390625,112245.0,1.0,2
231696.40625,272994.03125,320416.46875,292817.6875,243051.359375,276661.9375,248107.765625,244626.171875,112246.0,1.0,2
231440.703125,272377.03125,319654.09375,292517.65625,242771.609375,276490.09375,247887.828125,244324.25,112247.0,1.0,2
230581.671875,270990.25,318135.15625,292080.4375,241017.625,275718.875,247302.65625,243570.8125,112248.0,1.0,2
230296.375,270743.375,317946.78125,292106.75,240205.09375,275406.59375,247150.140625,243404.875,112249.0,1.0,2
230983.65625,271986.6875,319354.84375,292563.6875,241469.578125,275990.78125,247651.53125,244065.0625,112250.0,1.0,2
231686.484375,272995.90625,320406.71875,292815.375,243053.59375,276654.71875,248100.890625,244623.140625,112251.0,1.0,2
231445.984375,272393.40625,319659.09375,292520.25,242785.015625,276502.1875,247891.859375,244327.015625,112252.0,1.0,2
230584.1875,270999.625,318140.53125,292086.0,241033.796875,275738.1875,247305.34375,243577.96875,112253.0,1.0,2
230295.046875,270741.34375,317944.5625,292112.1875,240213.5,275412.5625,247147.90625,243407.109375,112254.0,1.0,2
230972.484375,271971.84375,319344.3125,292562.25,241462.953125,275987.1875,247646.078125,244063.71875,112255.0,1.0,2
231679.515625,272989.375,320398.875,292813.6875,243047.34375,276657.65625,248107.421875,244635.03125,112256.0,1.0,2
231455.09375,272400.1875,319659.8125,292522.46875,242792.53125,276507.46875,247891.3125,244333.1875,112257.0,1.0,2
230590.078125,270996.9375,318134.375,292080.90625,241039.078125,275726.75,247296.21875,243579.578125,112258.0,1.0,2
230286.1875,270719.96875,317922.8125,292099.21875,240201.515625,275403.625,247140.484375,243394.421875,112259.0,1.0,2
230971.578125,271953.0625,319321.5,292551.09375,241446.859375,275979.40625,247635.34375,244044.671875,112260.0,1.0,2
231685.9375,272978.46875,320388.65625,292806.34375,243041.078125,276647.375,248091.671875,244617.59375,112261.0,1.0,2
231451.515625,272387.59375,319657.125,292518.0,242792.96875,276500.125,247894.359375,244337.75,112262.0,1.0,2
230598.046875,271000.96875,318140.53125,292085.71875,241049.1875,275738.65625,247310.171875,243590.03125,112263.0,1.0,2
230293.25,270720.9375,317924.15625,292100.5625,240205.625,275408.65625,247141.90625,243400.140625,112264.0,1.0,2
230971.046875,271950.46875,319317.3125,292548.0625,241442.484375,275980.03125,247638.03125,244047.265625,112265.0,1.0,2
231677.8125,272974.34375,320389.5625,292805.1875,243040.71875,276653.71875,248098.75,244627.703125,112266.0,1.0,2
231445.53125,272390.09375,319665.1875,292517.375,242801.734375,276507.625,247895.515625,244346.421875,112267.0,1.0,2
230595.0,271004.375,318144.375,292081.34375,241056.875,275741.15625,247307.671875,243586.734375,112268.0,1.0,2
230286.28125,270718.8125,317923.53125,292099.59375,240206.4375,275413.03125,247147.09375,243407.296875,112269.0,1.0,2
230957.8125,271943.75,319314.71875,292548.75,241436.140625,275984.4375,247646.25,244056.390625,112270.0,1.0,2
231679.0625,272979.53125,320392.34375,292807.5,243038.671875,276657.84375,248104.828125,244620.625,112271.0,1.0,2
231465.375,272407.34375,319677.96875,292526.21875,242815.421875,276513.53125,247898.03125,244338.828125,112272.0,1.0,2
230606.09375,271014.5625,318158.84375,292092.15625,241073.671875,275750.53125,247315.625,243591.828125,112273.0,1.0,2
230292.53125,270722.71875,317924.78125,292103.25,240210.71875,275412.75,247144.5,243400.234375,112274.0,1.0,2
230960.9375,271944.125,319311.3125,292550.03125,241431.578125,275977.375,247631.5,244041.0,112275.0,1.0,2
231683.0,272984.625,320397.25,292815.03125,243038.21875,276651.40625,248099.09375,244623.578125,112276.0,1.0,2
231460.1875,272411.28125,319684.78125,292527.65625,242819.890625,276507.0,247900.96875,244346.15625,112277.0,1.0,2
230605.90625,271018.03125,318161.53125,292087.25,241078.234375,275742.21875,247315.453125,243594.0625,112278.0,1.0,2
230290.921875,270717.71875,317920.21875,292096.8125,240206.15625,275402.90625,247139.859375,243400.046875,112279.0,1.0,2
230952.8125,271927.65625,319303.0,292543.75,241416.28125,275963.15625,247625.328125,244037.96875,112280.0,1.0,2
231675.3125,272967.90625,320395.8125,292808.84375,243026.59375,276640.65625,248097.21875,244620.28125,112281.0,1.0,2
231471.453125,272416.375,319698.0,292530.09375,242822.203125,276515.5,247909.375,244350.890625,112282.0,1.0,2
230615.03125,271020.1875,318167.96875,292090.46875,241081.546875,275741.59375,247311.0625,243596.296875,112283.0,1.0,2
230286.09375,270700.28125,317908.15625,292090.71875,240195.796875,275382.71875,247124.828125,243388.78125,112284.0,1.0,2
230946.8125,271910.875,319285.5625,292537.9375,241399.75,275944.625,247611.390625,244022.953125,112285.0,1.0,2
231672.71875,272963.28125,320384.8125,292807.15625,243020.0625,276628.40625,248082.109375,244609.71875,112286.0,1.0,2
231472.625,272417.8125,319694.59375,292530.09375,242826.59375,276502.09375,247897.75,244348.484375,112287.0,1.0,2
230617.4375,271021.0,318167.625,292089.5625,241087.171875,275742.125,247312.40625,243596.296875,112288.0,1.0,2
230290.75,270702.15625,317909.6875,292094.21875,240197.484375,275398.8125,247137.625,243392.0,112289.0,1.0,2
230949.953125,271912.03125,319285.5625,292539.8125,241396.609375,275950.90625,247613.4375,244026.609375,112290.0,1.0,2
231676.296875,272969.625,320389.84375,292808.3125,243020.15625,276634.40625,248087.5625,244615.09375,112291.0,1.0,2
231478.34375,272431.375,319704.96875,292532.75,242838.75,276516.21875,247907.5,244354.375,112292.0,1.0,2
230617.890625,271032.71875,318173.15625,292089.5625,241102.28125,275749.0,247315.71875,243606.671875,112293.0,1.0,2
230281.453125,270702.625,317900.5625,292087.59375,240202.046875,275390.5,247128.859375,243394.234375,112294.0,1.0,2
230937.703125,271899.96875,319267.875,292527.03125,241390.890625,275940.6875,247606.46875,244015.796875,112295.0,1.0,2
231672.53125,272967.375,320384.46875,292804.28125,243021.859375,276635.84375,248095.703125,244620.0,112296.0,1.0,2
231485.3125,272439.96875,319710.53125,292532.125,242852.703125,276519.78125,247916.078125,244366.359375,112297.0,1.0,2
230624.5,271037.34375,318172.625,292081.78125,241113.109375,275750.625,247321.171875,243605.59375,112298.0,1.0,2
230286.546875,270702.71875,317891.8125,292079.125,240203.296875,275396.40625,247141.109375,243389.9375,112299.0,1.0,2
230946.90625,271906.75,319261.4375,292525.4375,241390.53125,275950.4375,247624.890625,244020.359375,112300.0,1.0,2
231679.234375,272968.28125,320375.96875,292796.6875,243019.703125,276629.75,248083.09375,244612.40625,112301.0,1.0,2
231485.3125,272435.40625,319701.21875,292520.0625,242854.484375,276509.5,247901.515625,244355.09375,112302.0,1.0,2
230622.984375,271032.25,318165.28125,292074.09375,241121.953125,275745.78125,247313.75,243602.203125,112303.0,1.0,2
230275.640625,270688.21875,317877.9375,292071.34375,240206.25,275388.0625,247130.109375,243388.96875,112304.0,1.0,2
230929.109375,271889.21875,319240.875,292515.59375,241381.6875,275933.71875,247608.796875,244014.453125,112305.0,1.0,2
231661.171875,272957.1875,320362.28125,292789.34375,243010.765625,276619.40625,248084.796875,244604.8125,112306.0,1.0,2
231469.484375,272431.9375,319703.0,292519.875,242856.0,276509.78125,247913.3125,244359.109375,112307.0,1.0,2
230617.703125,271035.5625,318169.0625,292076.15625,241125.171875,275749.90625,247328.59375,243605.328125,112308.0,1.0,2
230275.109375,270687.40625,317872.75,292068.84375,240197.9375,275389.25,247133.5,243380.015625,112309.0,1.0,2
230925.890625,271880.1875,319231.90625,292511.125,241367.015625,275933.09375,247605.3125,244001.40625,112310.0,1.0,2
231666.1875,272956.46875,320360.59375,292789.34375,243003.890625,276622.625,248084.96875,244602.84375,112311.0,1.0,2
231484.15625,272440.6875,319706.21875,292516.9375,242858.421875,276508.15625,247903.296875,244350.71875,112312.0,1.0,2
230623.4375,271035.03125,318166.375,292067.03125,241123.296875,275739.0,247309.375,243595.046875,112313.0,1.0,2
230272.78125,270678.375,317861.125,292062.75,240188.453125,275378.875,247122.234375,243377.515625,112314.0,1.0,2
230917.046875,271869.375,319216.09375,292507.0,241350.65625,275922.375,247593.328125,244002.203125,112315.0,1.0,2
231663.328125,272954.25,320353.8125,292790.0625,242991.90625,276614.84375,248075.671875,244609.453125,112316.0,1.0,2
231490.59375,272446.40625,319705.875,292520.96875,242853.6875,276511.9375,247905.0,244359.921875,112317.0,1.0,2
230633.796875,271043.15625,318169.78125,292074.375,241126.25,275753.125,247321.703125,243608.09375,112318.0,1.0,2
230275.734375,270674.8125,317855.40625,292065.0625,240182.734375,275385.21875,247126.890625,243379.9375,112319.0,1.0,2
230920.703125,271863.9375,319209.9375,292510.59375,241341.0,275921.65625,247594.84375,244010.15625,112320.0,1.0,2
231667.4375,272952.09375,320352.46875,292793.90625,242984.3125,276611.6875,248073.34375,244611.78125,112321.0,1.0,2
231496.484375,272454.8125,319715.78125,292524.96875,242860.03125,276518.09375,247904.640625,244353.578125,112322.0,1.0,2
230637.203125,271048.09375,318178.25,292076.15625,241134.46875,275760.8125,247319.03125,243598.0,112323.0,1.0,2
230281.71875,270676.34375,317854.6875,292063.375,240182.109375,275386.28125,247124.46875,243371.34375,112324.0,1.0,2
230924.46875,271860.78125,319204.21875,292506.46875,241331.4375,275921.46875,247594.125,243993.703125,112325.0,1.0,2
231663.953125,272948.96875,320351.28125,292792.125,242979.921875,276619.5625,248078.359375,244599.078125,112326.0,1.0,2
231496.3125,272456.59375,319724.1875,292531.40625,242867.625,276519.4375,247911.703125,244360.546875,112327.0,1.0,2
230645.25,271055.9375,318185.78125,292082.40625,241144.9375,275755.4375,247321.796875,243606.125,112328.0,1.0,2
230275.375,270668.46875,317851.375,292063.90625,240178.171875,275375.5625,247125.015625,243373.578125,112329.0,1.0,2
230914.453125,271844.875,319195.53125,292503.0625,241317.84375,275904.5,247587.6875,243985.65625,112330.0,1.0,2
231667.96875,272945.5625,320346.65625,292788.71875,242971.609375,276601.34375,248066.015625,244593.1875,112331.0,1.0,2
231508.03125,272465.625,319731.71875,292530.78125,242874.953125,276519.875,247915.453125,244363.140625,112332.0,1.0,2
230650.25,271062.03125,318191.9375,292082.40625,241156.203125,275764.46875,247332.53125,243609.703125,112333.0,1.0,2
230275.453125,270664.34375,317844.78125,292059.09375,240184.53125,275370.90625,247114.109375,243365.453125,112334.0,1.0,2
230906.578125,271833.96875,319178.53125,292495.84375,241312.484375,275898.59375,247578.84375,243979.5,112335.0,1.0,2
231656.703125,272936.4375,320334.40625,292783.625,242963.390625,276600.09375,248069.0625,244591.484375,112336.0,1.0,2
231499.078125,272460.96875,319721.6875,292526.15625,242868.875,276508.34375,247907.046875,244358.484375,112337.0,1.0,2
230642.203125,271055.78125,318181.375,292075.625,241152.453125,275747.9375,247319.03125,243607.03125,112338.0,1.0,2
230255.4375,270648.34375,317827.34375,292047.375,240166.203125,275356.78125,247105.078125,243364.734375,112339.0,1.0,2
230888.078125,271819.84375,319159.59375,292481.71875,241284.328125,275883.03125,247559.265625,243963.9375,112340.0,1.0,2
231650.71875,272930.28125,320327.6875,292778.0,242946.484375,276589.34375,248058.234375,244579.140625,112341.0,1.0,2
231498.375,272463.125,319728.125,292527.9375,242867.265625,276514.4375,247912.234375,244360.375,112342.0,1.0,2
230648.640625,271065.6875,318187.90625,292078.5625,241154.859375,275761.625,247327.421875,243607.828125,112343.0,1.0,2
230275.375,270664.875,317827.78125,292052.1875,240167.984375,275368.84375,247115.4375,243361.609375,112344.0,1.0,2
230899.796875,271824.84375,319156.5625,292490.28125,241284.234375,275891.25,247576.34375,243969.84375,112345.0,1.0,2
231652.953125,272932.96875,320325.8125,292783.5625,242946.390625,276597.5625,248070.671875,244588.71875,112346.0,1.0,2
231500.609375,272472.25,319730.625,292529.4375,242875.046875,276524.34375,247923.6875,244371.984375,112347.0,1.0,2
230647.84375,271073.3125,318191.40625,292078.40625,241162.015625,275769.21875,247334.40625,243615.421875,112348.0,1.0,2
230270.09375,270664.875,317826.4375,292050.5,240167.0,275375.21875,247118.484375,243367.0625,112349.0,1.0,2
230894.25,271824.59375,319153.96875,292486.625,241275.734375,275895.28125,247579.5625,243974.484375,112350.0,1.0,2
231649.109375,272937.4375,320330.8125,292781.75,242942.375,276599.1875,248070.671875,244591.671875,112351.0,1.0,2
231505.34375,272480.375,319747.34375,292531.5,242882.375,276526.0625,247926.546875,244379.40625,112352.0,1.0,2
230656.515625,271080.09375,318205.625,292083.125,241178.28125,275769.21875,247340.921875,243626.15625,112353.0,1.0,2
230262.765625,270653.34375,317822.40625,292047.5625,240170.578125,275361.0625,247108.03125,243355.796875,112354.0,1.0,2
230878.6875,271804.1875,319142.15625,292481.96875,241270.640625,275880.25,247565.34375,243953.296875,112355.0,1.0,2
231641.59375,272929.46875,320323.3125,292779.96875,242942.828125,276590.5,248066.015625,244583.890625,112356.0,1.0,2
231509.09375,272489.15625,319750.125,292532.9375,242896.78125,276524.25,247928.6875,244381.640625,112357.0,1.0,2
230659.28125,271086.34375,318210.09375,292078.9375,241194.28125,275771.90625,247340.390625,243623.75,112358.0,1.0,2
230260.890625,270648.53125,317816.25,292038.96875,240173.34375,275367.0625,247108.734375,243352.125,112359.0,1.0,2
230877.34375,271796.59375,319130.8125,292473.46875,241263.21875,275881.875,247562.125,243944.453125,112360.0,1.0,2
231635.703125,272917.75,320317.59375,292773.4375,242934.78125,276588.46875,248062.890625,244572.984375,112361.0,1.0,2
231507.578125,272482.625,319751.28125,292530.625,242896.234375,276526.9375,247928.0625,244377.53125,112362.0,1.0,2
230666.703125,271084.375,318211.875,292081.6875,241198.140625,275778.0625,247344.78125,243629.46875,112363.0,1.0,2
230263.84375,270640.125,317808.125,292036.375,240166.203125,275360.90625,247101.140625,243350.25,112364.0,1.0,2
230871.0,271778.625,319113.0,292463.28125,241242.03125,275864.78125,247547.015625,243940.515625,112365.0,1.0,2
231628.8125,272903.375,320304.71875,292766.375,242912.421875,276572.71875,248048.9375,244572.171875,112366.0,1.0,2
231506.0625,272482.09375,319750.75,292531.0625,242887.203125,276529.4375,247928.6875,244377.890625,112367.0,1.0,2
230664.5625,271086.34375,318211.4375,292081.0625,241194.203125,275780.65625,247342.71875,243624.734375,112368.0,1.0,2
230260.890625,270635.90625,317803.71875,292039.15625,240162.0,275360.90625,247107.671875,243352.65625,112369.0,1.0,2
230868.859375,271774.96875,319107.75,292471.875,241237.921875,275869.1875,247563.375,243950.171875,112370.0,1.0,2
231631.5,272910.4375,320307.21875,292776.3125,242918.140625,276583.4375,248069.59375,244582.28125,112371.0,1.0,2
231515.890625,272501.9375,319762.1875,292539.09375,242905.71875,276536.0625,247944.515625,244390.3125,112372.0,1.0,2
230668.140625,271099.21875,318219.84375,292084.46875,241210.109375,275783.625,247355.6875,243634.03125,112373.0,1.0,2
230259.90625,270642.4375,317806.59375,292040.125,240168.171875,275367.96875,247118.21875,243353.828125,112374.0,1.0,2
230863.40625,271776.46875,319105.84375,292470.4375,241231.390625,275865.25,247561.140625,243945.078125,112375.0,1.0,2
231631.40625,272919.09375,320309.09375,292777.5625,242912.59375,276581.3125,248070.046875,244580.75,112376.0,1.0,2
231517.953125,272511.78125,319770.59375,292541.0625,242910.1875,276537.5,247941.921875,244389.6875,112377.0,1.0,2
230672.609375,271107.28125,318226.625,292088.21875,241222.0,275788.1875,247352.015625,243635.015625,112378.0,1.0,2
230256.234375,270639.0625,317798.8125,292041.125,240170.484375,275367.4375,247110.078125,243351.140625,112379.0,1.0,2
230859.28125,271772.0,319093.875,292471.59375,241227.09375,275862.84375,247555.953125,243944.09375,112380.0,1.0,2
231630.609375,272916.6875,320304.34375,292780.5,242914.390625,276576.5625,248069.59375,244589.875,112381.0,1.0,2
231515.625,272509.625,319767.03125,292537.78125,242912.421875,276527.84375,247931.28125,244390.5,112382.0,1.0,2
230667.875,271108.6875,318221.71875,292082.34375,241224.859375,275782.28125,247343.96875,243633.40625,112383.0,1.0,2
230246.140625,270634.5625,317783.78125,292033.15625,240163.34375,275364.03125,247107.484375,243353.375,112384.0,1.0,2
230842.921875,271761.5625,319072.40625,292460.34375,241206.09375,275856.84375,247549.515625,243939.625,112385.0,1.0,2
231619.15625,272912.9375,320287.625,292769.25,242894.984375,276572.28125,248060.203125,244575.03125,112386.0,1.0,2
231516.25,272521.15625,319768.1875,292539.03125,242914.203125,276542.5,247944.96875,244393.1875,112387.0,1.0,2
230677.171875,271124.0,318225.46875,292082.25,241233.453125,275803.90625,247364.359375,243639.21875,112388.0,1.0,2
230255.96875,270648.15625,317786.03125,292032.15625,240165.296875,275385.3125,247136.453125,243364.28125,112389.0,1.0,2
230846.953125,271767.8125,319070.1875,292458.375,241201.171875,275868.0,247569.8125,243945.96875,112390.0,1.0,2
231621.578125,272924.03125,320290.21875,292767.1875,242892.75,276582.09375,248068.078125,244575.296875,112391.0,1.0,2
231519.921875,272539.21875,319779.8125,292538.46875,242920.640625,276552.6875,247956.234375,244401.3125,112392.0,1.0,2
230668.3125,271137.03125,318239.25,292083.21875,241237.109375,275810.71875,247373.46875,243649.5,112393.0,1.0,2
230240.40625,270651.84375,317786.9375,292027.53125,240157.078125,275380.21875,247117.140625,243350.609375,112394.0,1.0,2
230830.59375,271763.25,319061.4375,292452.65625,241183.921875,275855.9375,247545.484375,243926.125,112395.0,1.0,2
231609.328125,272920.96875,320284.6875,292768.0,242879.703125,276577.46875,248061.734375,244572.703125,112396.0,1.0,2
231520.71875,272550.5625,319784.28125,292541.78125,242921.453125,276558.40625,247951.578125,244403.640625,112397.0,1.0,2
230675.734375,271151.09375,318245.3125,292085.09375,241247.484375,275819.28125,247371.6875,243655.75,112398.0,1.0,2
230242.828125,270656.46875,317781.65625,292024.9375,240161.90625,275379.5,247109.984375,243352.84375,112399.0,1.0,2
230834.078125,271765.75,319057.5625,292452.375,241186.59375,275864.875,247544.515625,243930.046875,112400.0,1.0,2
231617.015625,272927.59375,320293.28125,292770.3125,242887.75,276590.4375,248063.609375,244578.15625,112401.0,1.0,2
231527.15625,272556.28125,319800.71875,292544.46875,242940.765625,276569.40625,247954.0,244411.15625,112402.0,1.0,2
230676.625,271149.375,318255.5,292083.84375,241263.9375,275821.96875,247363.1875,243656.109375,112403.0,1.0,2
230243.71875,270647.28125,317783.34375,292025.28125,240171.109375,275385.65625,247111.875,243354.453125,112404.0,1.0,2
230825.21875,271746.53125,319048.625,292446.84375,241181.40625,275863.09375,247546.125,243925.3125,112405.0,1.0,2
231608.703125,272913.375,320286.125,292764.78125,242879.609375,276582.28125,248060.125,244573.6875,112406.0,1.0,2
231531.0,272558.25,319806.90625,292550.46875,242946.21875,276573.25,247961.859375,244417.5,112407.0,1.0,2
230694.875,271160.8125,318265.53125,292096.28125,241281.1875,275838.25,247383.671875,243670.0625,112408.0,1.0,2
230254.1875,270641.09375,317777.4375,292023.6875,240170.484375,275383.34375,247113.75,243345.953125,112409.0,1.0,2
230826.125,271732.75,319038.0,292443.4375,241169.796875,275850.3125,247539.234375,243908.0625,112410.0,1.0,2
231609.40625,272905.6875,320283.09375,292767.0,242871.03125,276573.0,248060.5625,244565.203125,112411.0,1.0,2
231529.9375,272552.09375,319804.84375,292546.0,242937.90625,276555.71875,247949.25,244403.8125,112412.0,1.0,2
230693.703125,271153.75,318262.65625,292086.4375,241273.328125,275817.21875,247361.671875,243649.578125,112413.0,1.0,2
230248.546875,270632.25,317770.90625,292017.6875,240159.140625,275369.65625,247102.921875,243338.359375,112414.0,1.0,2
230822.71875,271728.21875,319030.03125,292440.65625,241153.96875,275843.25,247537.53125,243910.65625,112415.0,1.0,2
231609.0625,272910.15625,320280.75,292762.1875,242860.921875,276575.5,248057.796875,244557.0625,112416.0,1.0,2
231537.34375,272570.40625,319813.78125,292544.125,242943.625,276568.4375,247955.515625,244404.53125,112417.0,1.0,2
230706.140625,271176.84375,318274.375,292088.6875,241288.96875,275833.3125,247376.6875,243662.09375,112418.0,1.0,2
230255.4375,270644.15625,317774.125,292015.53125,240167.359375,275377.875,247100.15625,243343.359375,112419.0,1.0,2
230814.671875,271722.5625,319021.1875,292431.28125,241148.953125,275839.21875,247518.671875,243896.078125,112420.0,1.0,2
231598.859375,272902.90625,320272.71875,292757.1875,242857.890625,276568.0625,248043.21875,244549.90625,112421.0,1.0,2
231534.84375,272575.25,319818.0625,292546.96875,242954.71875,276575.65625,247960.703125,244406.140625,112422.0,1.0,2
230700.234375,271182.65625,318277.78125,292089.125,241300.5,275842.8125,247377.046875,243659.421875,112423.0,1.0,2
230244.609375,270642.96875,317768.875,292015.1875,240172.28125,275383.15625,247108.203125,243335.40625,112424.0,1.0,2
230806.8125,271720.59375,319013.84375,292435.40625,241146.640625,275844.40625,247528.0625,243901.0,112425.0,1.0,2
231591.703125,272900.15625,320267.96875,292759.75,242853.140625,276567.09375,248044.46875,244559.296875,112426.0,1.0,2
231527.515625,272573.46875,319817.34375,292545.53125,242955.34375,276569.0625,247948.1875,244404.71875,112427.0,1.0,2
230699.421875,271181.03125,318277.21875,292086.53125,241304.171875,275836.46875,247367.125,243660.484375,112428.0,1.0,2
230245.0625,270636.1875,317760.375,292011.34375,240167.1875,275376.1875,247099.265625,243341.21875,112429.0,1.0,2
230797.421875,271704.96875,318996.78125,292423.875,241127.140625,275830.5625,247515.0,243891.421875,112430.0,1.0,2
231589.5625,272897.1875,320261.34375,292755.375,242842.15625,276566.71875,248044.390625,244554.828125,112431.0,1.0,2
231531.359375,272576.21875,319818.6875,292549.125,242959.359375,276574.34375,247960.15625,244425.71875,112432.0,1.0,2
230699.15625,271180.3125,318274.09375,292088.5,241310.515625,275840.46875,247380.09375,243676.140625,112433.0,1.0,2
230236.296875,270624.84375,317745.4375,292005.4375,240158.59375,275372.0,247098.015625,243337.109375,112434.0,1.0,2
230797.953125,271693.59375,318981.5,292419.5625,241112.390625,275826.09375,247514.109375,243887.140625,112435.0,1.0,2
231593.671875,272886.125,320253.21875,292749.21875,242831.78125,276559.75,248044.46875,244552.953125,112436.0,1.0,2
231537.0,272574.25,319819.25,292540.375,242954.53125,276570.65625,247962.3125,244418.296875,112437.0,1.0,2
230705.59375,271181.75,318278.03125,292081.0,241310.609375,275839.6875,247381.875,243670.765625,112438.0,1.0,2
230237.546875,270619.375,317745.53125,292002.65625,240159.578125,275373.25,247108.734375,243344.171875,112439.0,1.0,2
230790.71875,271686.53125,318976.65625,292419.75,241109.890625,275830.46875,247528.6875,243895.453125,112440.0,1.0,2
231591.171875,272889.6875,320254.03125,292754.5,242832.578125,276566.0,248052.34375,244557.953125,112441.0,1.0,2
231542.53125,272582.84375,319827.375,292547.15625,242966.6875,276573.71875,247959.171875,244426.078125,112442.0,1.0,2
230709.703125,271185.78125,318284.75,292086.0,241324.46875,275843.25,247382.234375,243683.5625,112443.0,1.0,2
230235.765625,270615.4375,317740.625,292001.78125,240161.09375,275372.34375,247105.078125,243353.46875,112444.0,1.0,2
230785.34375,271676.15625,318959.6875,292412.875,241097.375,275816.34375,247507.765625,243882.21875,112445.0,1.0,2
231580.890625,272879.125,320240.25,292748.15625,242820.953125,276552.59375,248040.359375,244539.984375,112446.0,1.0,2
231533.6875,272581.15625,319828.8125,292547.4375,242967.59375,276572.09375,247960.609375,244416.609375,112447.0,1.0,2
230706.3125,271188.0,318286.09375,292086.875,241331.703125,275847.90625,247382.953125,243678.640625,112448.0,1.0,2
230231.390625,270611.59375,317730.15625,291996.59375,240157.25,275374.21875,247100.328125,243338.09375,112449.0,1.0,2
230780.25,271671.34375,318952.0,292410.28125,241086.46875,275824.75,247520.1875,243883.828125,112450.0,1.0,2
231581.421875,272879.40625,320236.78125,292744.375,242810.234375,276558.9375,248046.34375,244547.671875,112451.0,1.0,2
231538.6875,272585.4375,319827.28125,292538.40625,242964.546875,276571.8125,247953.546875,244412.140625,112452.0,1.0,2
230716.140625,271198.75,318289.75,292081.0625,241336.09375,275852.8125,247382.0625,243672.03125,112453.0,1.0,2
230239.515625,270618.5625,317731.03125,291994.34375,240160.203125,275378.78125,247100.25,243329.5,112454.0,1.0,2
230776.671875,271663.03125,318942.78125,292405.53125,241076.625,275812.59375,247505.96875,243869.875,112455.0,1.0,2
231574.359375,272873.25,320231.3125,292742.78125,242798.25,276545.71875,248033.125,244535.78125,112456.0,1.0,2
231549.421875,272602.875,319840.5,292548.6875,242969.90625,276573.78125,247962.578125,244422.234375,112457.0,1.0,2
230726.15625,271211.6875,318299.40625,292083.3125,241340.203125,275844.9375,247385.546875,243676.40625,112458.0,1.0,2
230238.984375,270614.625,317725.59375,291986.5625,240149.65625,275356.4375,247091.125,243322.265625,112459.0,1.0,2
230776.765625,271656.21875,318931.0625,292395.78125,241063.84375,275791.84375,247498.734375,243862.109375,112460.0,1.0,2
231576.328125,272869.125,320223.71875,292733.3125,242790.203125,276530.53125,248032.9375,244534.0,112461.0,1.0,2
231552.90625,272601.25,319839.34375,292540.28125,242970.984375,276570.03125,247968.65625,244420.265625,112462.0,1.0,2
230731.34375,271215.625,318304.9375,292085.0,241350.21875,275854.0625,247397.34375,243681.234375,112463.0,1.0,2
230238.890625,270611.78125,317724.53125,291989.53125,240155.46875,275361.875,247099.796875,243328.4375,112464.0,1.0,2
230765.234375,271643.625,318922.5625,292394.90625,241056.609375,275794.96875,247502.390625,243865.328125,112465.0,1.0,2
231565.15625,272860.09375,320219.5,292735.28125,242784.921875,276535.4375,248034.09375,244536.5,112466.0,1.0,2
231548.4375,272602.96875,319844.8125,292545.71875,242980.375,276577.46875,247976.4375,244433.140625,112467.0,1.0,2
230727.140625,271213.65625,318307.90625,292085.375,241364.609375,275857.5625,247407.0,243700.09375,112468.0,1.0,2
230231.828125,270600.875,317716.125,291981.65625,240157.703125,275362.6875,247101.046875,243334.328125,112469.0,1.0,2
230757.546875,271626.90625,318906.03125,292386.3125,241045.6875,275791.03125,247496.046875,243864.0625,112470.0,1.0,2
231561.765625,272850.34375,320211.46875,292731.59375,242778.9375,276539.0,248035.0,244538.015625,112471.0,1.0,2
231548.796875,272605.90625,319845.34375,292543.84375,242981.265625,276586.40625,247981.984375,244434.671875,112472.0,1.0,2
230725.09375,271216.34375,318301.8125,292078.46875,241363.171875,275857.5625,247396.453125,243688.46875,112473.0,1.0,2
230224.5,270593.28125,317700.65625,291972.4375,240144.296875,275361.96875,247089.703125,243317.171875,112474.0,1.0,2
230745.296875,271612.59375,318888.875,292378.09375,241024.5,275780.5625,247479.234375,243843.78125,112475.0,1.0,2
231557.015625,272844.4375,320202.4375,292727.59375,242762.578125,276525.78125,248024.0,244526.484375,112476.0,1.0,2
231548.96875,272602.6875,319843.375,292541.25,242974.375,276575.40625,247969.453125,244425.375,112477.0,1.0,2
230726.703125,271216.15625,318308.0,292081.0625,241367.46875,275862.84375,247396.1875,243685.078125,112478.0,1.0,2
230225.75,270595.3125,317707.8125,291980.84375,240152.421875,275367.78125,247098.8125,243325.484375,112479.0,1.0,2
230747.171875,271616.28125,318890.65625,292385.34375,241026.296875,275787.0,247493.28125,243853.515625,112480.0,1.0,2
231550.84375,272843.375,320198.21875,292727.5,242753.71875,276519.4375,248015.234375,244526.84375,112481.0,1.0,2
231549.328125,272611.71875,319851.96875,292544.21875,242979.203125,276574.96875,247964.453125,244426.0,112482.0,1.0,2
230727.5,271221.28125,318314.6875,292078.9375,241374.4375,275853.53125,247387.59375,243679.265625,112483.0,1.0,2
230222.171875,270587.71875,317698.40625,291970.125,240146.890625,275348.375,247079.5,243314.3125,112484.0,1.0,2
230742.4375,271603.9375,318875.46875,292376.375,241013.421875,275768.15625,247473.703125,243844.046875,112485.0,1.0,2
231555.859375,272842.3125,320191.53125,292724.53125,242751.9375,276512.71875,248016.40625,244518.625,112486.0,1.0,2
231553.71875,272616.375,319853.3125,292543.3125,242988.859375,276572.28125,247974.640625,244433.6875,112487.0,1.0,2
230734.5625,271233.59375,318315.5,292079.75,241391.515625,275859.96875,247398.859375,243693.75,112488.0,1.0,2
230229.0625,270598.375,317693.6875,291971.1875,240159.140625,275357.59375,247088.984375,243319.40625,112489.0,1.0,2
230736.625,271601.25,318863.375,292371.5625,241012.703125,275770.65625,247474.59375,243837.6875,112490.0,1.0,2
231550.5,272842.03125,320188.21875,292722.65625,242754.078125,276520.40625,248020.421875,244521.21875,112491.0,1.0,2
231564.171875,272629.875,319862.34375,292547.96875,243002.359375,276587.65625,247986.890625,244442.71875,112492.0,1.0,2
230753.078125,271247.65625,318330.34375,292086.4375,241411.453125,275878.46875,247413.34375,243705.46875,112493.0,1.0,2
230237.734375,270596.84375,317696.625,291972.0,240166.90625,275367.34375,247092.640625,243320.46875,112494.0,1.0,2
230749.9375,271598.65625,318857.9375,292373.15625,241012.703125,275774.59375,247477.625,243837.6875,112495.0,1.0,2
231562.109375,272833.8125,320179.53125,292722.75,242752.734375,276512.5625,248013.09375,244518.34375,112496.0,1.0,2
231569.265625,272622.71875,319859.28125,292544.375,243008.796875,276577.8125,247970.625,244435.734375,112497.0,1.0,2
230756.5625,271242.625,318328.03125,292081.96875,241420.21875,275868.625,247399.21875,243703.765625,112498.0,1.0,2
230233.96875,270585.40625,317687.78125,291966.53125,240165.65625,275354.09375,247086.921875,243325.578125,112499.0,1.0,2
230739.65625,271580.9375,318848.375,292367.8125,241001.265625,275761.4375,247474.5,243839.75,112500.0,1.0,2
231557.5625,272826.125,320182.40625,292723.5625,242744.78125,276509.25,248021.046875,244530.328125,112501.0,1.0,2
231571.0625,272625.65625,319870.8125,292547.4375,243010.328125,276581.9375,247973.390625,244440.5625,112502.0,1.0,2
230756.828125,271248.90625,318340.53125,292086.09375,241425.5,275879.09375,247402.796875,243700.28125,112503.0,1.0,2
230237.109375,270591.65625,317693.6875,291971.28125,240167.1875,275362.875,247088.09375,243320.390625,112504.0,1.0,2
230738.671875,271581.5625,318848.625,292372.09375,240997.234375,275762.78125,247472.171875,243831.609375,112505.0,1.0,2
231550.5,272825.6875,320179.8125,292725.34375,242736.640625,276503.6875,248014.078125,244515.578125,112506.0,1.0,2
231571.0625,272634.34375,319875.90625,292550.46875,243008.625,276576.125,247971.34375,244438.515625,112507.0,1.0,2
230764.421875,271260.5,318351.875,292087.59375,241432.5625,275877.21875,247405.03125,243707.25,112508.0,1.0,2
230240.0625,270592.09375,317697.0625,291969.84375,240171.109375,275363.75,247086.921875,243322.0,112509.0,1.0,2
230736.71875,271576.03125,318840.75,292366.28125,240987.84375,275756.15625,247466.015625,243827.953125,112510.0,1.0,2
231549.875,272823.875,320176.9375,292723.28125,242727.890625,276501.71875,248013.71875,244514.859375,112511.0,1.0,2
231571.140625,272636.125,319880.125,292552.25,243011.03125,276580.78125,247978.671875,244443.515625,112512.0,1.0,2
230773.546875,271271.78125,318355.5625,292094.5625,241442.390625,275887.875,247421.484375,243715.03125,112513.0,1.0,2
230252.75,270601.75,317694.65625,291974.875,240176.484375,275366.0,247095.234375,243327.265625,112514.0,1.0,2
230738.328125,271574.0625,318830.125,292364.9375,240982.125,275750.625,247464.9375,243827.0625,112515.0,1.0,2
231554.515625,272826.65625,320174.09375,292724.625,242729.578125,276501.09375,248017.375,244519.953125,112516.0,1.0,2
231584.5625,272651.0625,319888.15625,292556.53125,243025.609375,276586.125,247984.5625,244453.171875,112517.0,1.0,2
230784.546875,271285.1875,318362.4375,292097.71875,241457.6875,275890.46875,247422.921875,243724.421875,112518.0,1.0,2
230252.75,270604.09375,317689.375,291976.46875,240181.9375,275367.34375,247098.375,243336.125,112519.0,1.0,2
230731.609375,271565.5625,318816.90625,292365.9375,240978.546875,275751.78125,247467.171875,243830.09375,112520.0,1.0,2
231546.921875,272819.5,320165.59375,292726.3125,242726.1875,276500.125,248013.71875,244517.453125,112521.0,1.0,2
231586.171875,272656.0625,319890.65625,292562.71875,243035.796875,276587.5625,247982.875,244448.796875,112522.0,1.0,2
230789.28125,271290.28125,318365.65625,292098.0625,241473.59375,275890.53125,247417.109375,243714.578125,112523.0,1.0,2
230247.125,270595.875,317680.53125,291967.53125,240181.578125,275356.59375,247078.515625,243312.703125,112524.0,1.0,2
230723.921875,271555.1875,318806.15625,292357.6875,240966.21875,275738.1875,247454.203125,243813.109375,112525.0,1.0,2
231532.609375,272806.90625,320155.5,292718.375,242710.90625,276487.15625,248006.296875,244506.734375,112526.0,1.0,2
231582.140625,272659.03125,319897.8125,292562.71875,243035.53125,276589.25,247991.1875,244457.203125,112527.0,1.0,2
230788.75,271297.25,318375.65625,292102.34375,241479.234375,275894.375,247426.3125,243732.46875,112528.0,1.0,2
230248.453125,270596.84375,317679.46875,291965.90625,240181.484375,275356.34375,247081.203125,243313.6875,112529.0,1.0,2
230718.46875,271544.90625,318794.0,292352.25,240956.828125,275740.15625,247450.90625,243799.078125,112530.0,1.0,2
231545.9375,272816.46875,320160.21875,292722.5625,242711.703125,276507.90625,248016.9375,244507.4375,112531.0,1.0,2
231591.890625,272662.875,319900.5,292560.5625,243039.296875,276588.8125,247984.390625,244455.59375,112532.0,1.0,2
230789.46875,271290.375,318370.84375,292092.0,241480.75,275886.625,247413.609375,243720.125,112533.0,1.0,2
230243.625,270587.375,317673.375,291959.46875,240180.140625,275356.34375,247083.53125,243317.96875,112534.0,1.0,2
230718.828125,271540.09375,318788.5625,292348.75,240952.53125,275733.625,247449.375,243810.0625,112535.0,1.0,2
231542.359375,272805.46875,320146.8125,292713.1875,242703.125,276483.84375,247998.515625,244499.84375,112536.0,1.0,2
231592.96875,272661.96875,319897.09375,292557.4375,243041.96875,276587.75,247986.0,244456.84375,112537.0,1.0,2
230795.265625,271296.8125,318373.625,292093.0625,241489.875,275897.15625,247423.265625,243725.9375,112538.0,1.0,2
230237.46875,270578.96875,317665.25,291956.53125,240177.46875,275358.125,247080.578125,243314.3125,112539.0,1.0,2
230710.515625,271528.1875,318775.3125,292347.875,240941.171875,275732.84375,247448.9375,243807.65625,112540.0,1.0,2
231542.53125,272802.53125,320136.28125,292713.4375,242697.125,276482.25,248003.796875,244509.140625,112541.0,1.0,2
231592.34375,272660.53125,319893.09375,292555.8125,243042.859375,276586.75,247986.890625,244464.890625,112542.0,1.0,2
230795.984375,271295.75,318371.28125,292090.71875,241496.03125,275894.84375,247428.453125,243738.90625,112543.0,1.0,2
230243.0,270572.25,317656.21875,291952.96875,240179.609375,275355.0,247088.984375,243324.328125,112544.0,1.0,2
230704.171875,271508.71875,318754.5,292337.6875,240929.546875,275727.65625,247452.0625,243808.1875,112545.0,1.0,2
231519.203125,272780.4375,320118.9375,292704.0625,242678.359375,276477.0625,248002.625,244506.1875,112546.0,1.0,2
231586.875,272661.6875,319889.15625,292552.34375,243042.0625,276587.75,247992.265625,244464.609375,112547.0,1.0,2
230798.046875,271302.625,318369.15625,292083.75,241501.671875,275895.65625,247421.65625,243736.21875,112548.0,1.0,2
230237.109375,270573.34375,317643.0625,291940.53125,240177.828125,275349.90625,247074.234375,243315.828125,112549.0,1.0,2
230693.796875,271506.28125,318740.53125,292331.6875,240920.609375,275718.53125,247436.953125,243801.3125,112550.0,1.0,2
231527.0625,272790.625,320117.3125,292706.65625,242678.984375,276475.96875,247990.203125,244506.90625,112551.0,1.0,2
231596.8125,272676.90625,319896.40625,292556.53125,243046.265625,276592.9375,247987.78125,244471.6875,112552.0,1.0,2
230802.34375,271315.15625,318375.75,292087.0625,241505.328125,275902.15625,247423.453125,243734.875,112553.0,1.0,2
230239.078125,270578.875,317646.8125,291947.40625,240178.171875,275355.28125,247075.21875,243311.796875,112554.0,1.0,2
230690.84375,271504.59375,318735.8125,292330.78125,240910.515625,275713.25,247428.453125,243792.015625,112555.0,1.0,2
231523.5,272789.28125,320113.65625,292701.5625,242665.390625,276471.5,247987.609375,244494.921875,112556.0,1.0,2
231594.75,272676.53125,319900.40625,292552.78125,243042.328125,276593.65625,247986.453125,244459.34375,112557.0,1.0,2
230809.578125,271325.0625,318389.0,292090.65625,241516.0625,275915.65625,247432.296875,243740.6875,112558.0,1.0,2
230239.078125,270578.875,317646.09375,291939.09375,240173.4375,275351.78125,247072.4375,243307.0625,112559.0,1.0,2
230681.546875,271486.90625,318720.0625,292314.25,240886.1875,275696.34375,247417.015625,243773.59375,112560.0,1.0,2
231512.5,272770.25,320101.21875,292689.9375,242642.140625,276455.25,247977.953125,244481.96875,112561.0,1.0,2
231593.234375,272673.5,319906.0625,292553.15625,243040.625,276586.21875,247984.390625,244462.46875,112562.0,1.0,2
230813.59375,271324.1875,318393.09375,292090.90625,241521.421875,275906.0,247427.46875,243738.453125,112563.0,1.0,2
230239.96875,270569.59375,317641.8125,291941.15625,240174.515625,275348.84375,247075.21875,243308.234375,112564.0,1.0,2
230686.015625,271482.4375,318716.3125,292321.21875,240885.921875,275696.1875,247423.09375,243778.328125,112565.0,1.0,2
231519.015625,272771.21875,320101.3125,292697.71875,242647.328125,276455.78125,247981.171875,244488.21875,112566.0,1.0,2
231601.8125,272680.21875,319909.1875,292558.5,243051.625,276590.25,247989.671875,244467.5625,112567.0,1.0,2
230816.546875,271330.0,318400.25,292096.8125,241535.015625,275910.75,247434.0,243751.0625,112568.0,1.0,2
230239.96875,270572.875,317645.65625,291945.0,240184.171875,275354.09375,247085.765625,243323.78125,112569.0,1.0,2
230679.21875,271476.0625,318707.09375,292318.8125,240881.546875,275696.875,247423.453125,243784.140625,112570.0,1.0,2
231503.109375,272760.40625,320090.5,292694.59375,242635.625,276451.84375,247977.328125,244488.578125,112571.0,1.0,2
231586.609375,272678.6875,319907.46875,292558.96875,243048.046875,276592.46875,248000.484375,244476.953125,112572.0,1.0,2
230810.203125,271337.125,318403.65625,292097.0,241540.03125,275923.28125,247448.21875,243757.234375,112573.0,1.0,2
230233.890625,270571.8125,317641.625,291942.5,240180.234375,275351.6875,247070.921875,243319.046875,112574.0,1.0,2
230667.15625,271467.75,318698.4375,292314.34375,240863.65625,275687.59375,247405.921875,243771.359375,112575.0,1.0,2
231504.71875,272766.65625,320095.3125,292697.71875,242624.265625,276451.125,247972.859375,244485.0,112576.0,1.0,2
231605.484375,272697.65625,319929.28125,292570.9375,243052.96875,276597.125,247994.5,244488.40625,112577.0,1.0,2
230829.609375,271351.875,318426.375,292109.59375,241549.40625,275925.5,247441.515625,243770.28125,112578.0,1.0,2
230246.140625,270579.21875,317651.90625,291945.625,240180.0625,275360.71875,247074.140625,243311.171875,112579.0,1.0,2
230679.21875,271471.875,318703.96875,292317.125,240858.921875,275693.84375,247410.046875,243768.046875,112580.0,1.0,2
231510.890625,272764.53125,320097.1875,292697.28125,242618.625,276445.6875,247968.5625,244479.09375,112581.0,1.0,2
231607.359375,272698.71875,319933.3125,292566.375,243052.25,276594.4375,247987.25,244471.59375,112582.0,1.0,2
230834.171875,271360.46875,318429.21875,292105.3125,241552.984375,275928.46875,247442.046875,243759.640625,112583.0,1.0,2
230247.828125,270583.0,317645.84375,291945.4375,240177.828125,275356.25,247070.46875,243310.734375,112584.0,1.0,2
230679.671875,271467.84375,318691.8125,292318.4375,240852.9375,275687.875,247406.109375,243764.65625,112585.0,1.0,2
231515.890625,272768.28125,320095.0625,292701.90625,242618.71875,276451.5,247973.65625,244479.015625,112586.0,1.0,2
231617.375,272708.28125,319939.5,292569.875,243061.828125,276592.21875,247986.984375,244476.0625,112587.0,1.0,2
230843.828125,271365.21875,318434.5,292106.125,241567.03125,275919.59375,247434.359375,243763.75,112588.0,1.0,2
230249.984375,270576.375,317643.6875,291941.6875,240186.40625,275346.9375,247064.75,243313.140625,112589.0,1.0,2
230671.171875,271455.875,318680.28125,292309.0625,240844.703125,275676.78125,247395.640625,243758.84375,112590.0,1.0,2
231507.046875,272757.90625,320084.40625,292693.15625,242610.578125,276438.6875,247963.65625,244473.828125,112591.0,1.0,2
231618.0,272709.4375,319941.90625,292570.125,243070.140625,276595.875,247994.046875,244485.71875,112592.0,1.0,2
230842.125,271363.96875,318438.53125,292104.84375,241577.046875,275925.875,247443.75,243773.046875,112593.0,1.0,2
230246.5,270571.09375,317639.84375,291936.875,240189.796875,275350.34375,247070.65625,243310.015625,112594.0,1.0,2
230679.046875,271455.5,318679.375,292316.5,240852.390625,275683.5625,247404.671875,243763.046875,112595.0,1.0,2
231508.734375,272749.9375,320082.71875,292700.5625,242611.484375,276440.5,247961.765625,244476.0625,112596.0,1.0,2
231621.125,272710.4375,319944.0625,292574.15625,243074.78125,276597.9375,247990.46875,244485.8125,112597.0,1.0,2
230855.984375,271375.9375,318444.59375,292110.125,241594.296875,275936.0625,247449.109375,243780.03125,112598.0,1.0,2
230253.734375,270569.125,317638.34375,291940.71875,240197.578125,275359.75,247074.40625,243325.75,112599.0,1.0,2
230670.734375,271437.90625,318664.28125,292307.09375,240837.015625,275678.28125,247401.640625,243768.5,112600.0,1.0,2
231517.859375,272753.6875,320079.5,292696.8125,242604.234375,276445.6875,247979.03125,244489.203125,112601.0,1.0,2
231636.59375,272720.71875,319950.40625,292576.40625,243080.6875,276607.78125,248008.359375,244497.78125,112602.0,1.0,2
230862.953125,271377.5625,318447.375,292111.03125,241599.75,275936.15625,247450.546875,243778.15625,112603.0,1.0,2
230260.625,270574.6875,317637.34375,291945.4375,240204.640625,275365.71875,247091.390625,243329.328125,112604.0,1.0,2
230670.734375,271437.0,318655.34375,292310.59375,240836.484375,275682.5,247412.984375,243770.109375,112605.0,1.0,2
231507.84375,272748.15625,320068.5,292694.84375,242595.109375,276442.1875,247967.5,244482.953125,112606.0,1.0,2
231630.953125,272728.21875,319955.21875,292579.625,243083.015625,276617.96875,248007.640625,244504.140625,112607.0,1.0,2
230861.25,271389.1875,318456.9375,292114.0625,241610.828125,275945.1875,247454.75,243782.4375,112608.0,1.0,2
230260.265625,270580.9375,317636.90625,291940.25,240205.984375,275356.4375,247082.984375,243320.125,112609.0,1.0,2
230666.703125,271434.3125,318648.53125,292303.25,240830.046875,275669.1875,247396.1875,243745.875,112610.0,1.0,2
231505.4375,272744.65625,320062.0625,292692.625,242596.09375,276430.375,247958.46875,244463.984375,112611.0,1.0,2
231629.0,272724.65625,319950.75,292579.0625,243092.046875,276605.875,247999.234375,244490.90625,112612.0,1.0,2
230867.328125,271397.3125,318458.1875,292116.40625,241629.4375,275951.0625,247456.265625,243783.421875,112613.0,1.0,2
230256.859375,270580.5,317627.78125,291936.3125,240218.5,275366.53125,247078.34375,243318.6875,112614.0,1.0,2
230647.125,271422.53125,318626.1875,292295.125,240824.328125,275672.84375,247394.84375,243745.703125,112615.0,1.0,2
231486.125,272742.71875,320049.5625,292687.96875,242588.59375,276441.28125,247965.890625,244468.46875,112616.0,1.0,2
231626.671875,272747.8125,319955.3125,292578.625,243099.015625,276623.78125,248016.046875,244501.546875,112617.0,1.0,2
230862.421875,271415.71875,318458.1875,292113.0,241636.5,275961.90625,247462.25,243789.328125,112618.0,1.0,2
230247.5625,270587.1875,317618.84375,291932.46875,240217.875,275370.28125,247080.3125,243319.046875,112619.0,1.0,2
230645.6875,271429.21875,318614.375,292290.03125,240821.015625,275676.875,247397.703125,243742.828125,112620.0,1.0,2
231483.078125,272745.75,320037.9375,292680.5625,242582.421875,276439.25,247968.75,244464.96875,112621.0,1.0,2
231624.4375,272752.90625,319952.53125,292577.65625,243101.078125,276626.53125,248024.453125,244500.296875,112622.0,1.0,2
230867.6875,271431.90625,318465.78125,292118.1875,241650.0,275974.3125,247488.265625,243799.34375,112623.0,1.0,2
230248.546875,270600.59375,317624.21875,291937.5,240224.578125,275381.46875,247102.65625,243327.625,112624.0,1.0,2
230634.78125,271429.75,318610.90625,292293.0625,240811.171875,275677.65625,247405.484375,243743.1875,112625.0,1.0,2
231475.921875,272749.6875,320036.59375,292687.0,242570.625,276439.59375,247971.6875,244464.890625,112626.0,1.0,2
231624.25,272763.4375,319962.03125,292584.25,243098.828125,276629.6875,248025.609375,244506.640625,112627.0,1.0,2
230870.109375,271444.6875,318479.90625,292126.21875,241654.375,275981.90625,247488.546875,243811.3125,112628.0,1.0,2
230252.125,270607.5625,317628.125,291940.09375,240225.75,275384.9375,247096.21875,243335.046875,112629.0,1.0,2
230641.046875,271432.71875,318612.34375,292295.5625,240809.296875,275678.28125,247404.59375,243752.578125,112630.0,1.0,2
231480.3125,272749.5,320042.5625,292690.84375,242571.875,276444.6875,247976.171875,244478.46875,112631.0,1.0,2
231629.4375,272770.96875,319972.375,292590.0625,243108.84375,276642.625,248033.125,244518.53125,112632.0,1.0,2
230879.5,271453.53125,318489.75,292127.125,241670.46875,275984.875,247487.734375,243815.875,112633.0,1.0,2
230259.1875,270607.65625,317631.53125,291939.53125,240237.546875,275386.75,247096.484375,243338.0,112634.0,1.0,2
230638.453125,271420.28125,318597.125,292286.1875,240803.578125,275671.5,247385.359375,243740.953125,112635.0,1.0,2
231477.890625,272741.1875,320031.03125,292685.03125,242569.09375,276445.5,247971.15625,244474.71875,112636.0,1.0,2
231632.65625,272769.4375,319971.3125,292586.125,243114.21875,276630.03125,248023.90625,244524.609375,112637.0,1.0,2
230883.96875,271453.09375,318489.75,292123.625,241677.71875,275980.03125,247481.921875,243810.609375,112638.0,1.0,2
230258.203125,270599.09375,317623.3125,291934.28125,240236.375,275386.8125,247093.0,243320.03125,112639.0,1.0,2
230637.921875,271410.8125,318591.0625,292284.03125,240797.59375,275668.71875,247386.609375,243731.390625,112640.0,1.0,2
231478.609375,272733.0625,320024.96875,292678.125,242557.390625,276427.0,247956.40625,244456.484375,112641.0,1.0,2
231630.953125,272765.0625,319973.90625,292580.6875,243111.078125,276628.5,248024.171875,244507.984375,112642.0,1.0,2
230881.015625,271455.34375,318497.34375,292123.53125,241681.203125,275991.21875,247494.171875,243815.796875,112643.0,1.0,2
230258.734375,270605.25,317629.9375,291940.71875,240239.421875,275399.625,247114.640625,243344.609375,112644.0,1.0,2
230625.125,271403.21875,318584.71875,292284.03125,240782.03125,275669.53125,247400.296875,243739.609375,112645.0,1.0,2
231459.5625,272722.21875,320019.96875,292676.34375,242538.4375,276421.90625,247955.78125,244443.34375,112646.0,1.0,2
231634.796875,272776.78125,319983.84375,292586.75,243110.453125,276630.46875,248027.84375,244506.109375,112647.0,1.0,2
230888.078125,271464.1875,318508.875,292126.6875,241689.6875,275986.46875,247486.75,243814.53125,112648.0,1.0,2
230248.546875,270591.65625,317623.03125,291929.0,240232.1875,275376.1875,247082.28125,243322.078125,112649.0,1.0,2
230620.21875,271393.375,318575.9375,292275.09375,240771.390625,275653.71875,247378.21875,243723.34375,112650.0,1.0,2
231463.953125,272725.625,320017.28125,292675.1875,242536.46875,276416.09375,247951.84375,244447.71875,112651.0,1.0,2
231629.796875,272775.96875,319982.5,292583.71875,243114.390625,276625.46875,248020.15625,244514.0625,112652.0,1.0,2
230880.921875,271461.0625,318507.8125,292121.75,241693.890625,275985.3125,247484.875,243816.5,112653.0,1.0,2
230249.171875,270589.4375,317618.21875,291924.34375,240232.359375,275375.84375,247089.421875,243320.125,112654.0,1.0,2
230613.78125,271379.78125,318562.1875,292271.96875,240765.046875,275652.8125,247384.296875,243719.046875,112655.0,1.0,2
231453.9375,272710.78125,320003.15625,292672.15625,242525.640625,276412.0625,247950.6875,244444.328125,112656.0,1.0,2
231629.53125,272772.9375,319983.03125,292586.3125,243120.03125,276628.6875,248028.46875,244515.671875,112657.0,1.0,2
230893.265625,271469.71875,318514.78125,292125.875,241716.15625,275996.125,247500.78125,243825.359375,112658.0,1.0,2
230256.15625,270593.90625,317617.6875,291924.625,240248.90625,275383.34375,247093.984375,243326.5625,112659.0,1.0,2
230603.859375,271371.28125,318552.96875,292268.46875,240763.53125,275646.09375,247381.703125,243723.96875,112660.0,1.0,2
231439.625,272704.71875,319997.6875,292670.0,242523.0625,276411.59375,247956.5,244450.484375,112661.0,1.0,2
231624.609375,272782.59375,319982.75,292582.125,243123.15625,276638.53125,248036.34375,244513.609375,112662.0,1.0,2
230892.015625,271484.65625,318516.03125,292123.09375,241723.046875,276004.28125,247504.90625,243825.171875,112663.0,1.0,2
230244.96875,270593.1875,317610.4375,291919.0625,240249.609375,275381.90625,247096.40625,243327.53125,112664.0,1.0,2
230595.453125,271367.1875,318539.71875,292260.4375,240758.96875,275650.9375,247385.359375,243722.8125,112665.0,1.0,2
231442.765625,272708.0,319989.65625,292661.5,242519.03125,276416.53125,247956.671875,244448.25,112666.0,1.0,2
231628.359375,272785.625,319984.375,292578.09375,243124.3125,276634.78125,248030.25,244519.515625,112667.0,1.0,2
230894.609375,271485.46875,318521.6875,292123.09375,241729.390625,276003.90625,247502.75,243838.40625,112668.0,1.0,2
230251.5,270591.84375,317609.53125,291919.875,240246.75,275383.6875,247084.875,243333.4375,112669.0,1.0,2
230604.296875,271360.125,318532.3125,292257.375,240741.171875,275642.0,247364.625,243711.0,112670.0,1.0,2
231445.171875,272697.90625,319985.25,292661.40625,242502.9375,276409.28125,247942.8125,244441.546875,112671.0,1.0,2
231630.515625,272781.6875,319986.15625,292575.78125,243118.0625,276632.1875,248021.140625,244514.15625,112672.0,1.0,2
230899.25,271487.25,318524.96875,292117.28125,241726.96875,276002.84375,247494.171875,243828.578125,112673.0,1.0,2
230254.8125,270593.28125,317609.4375,291914.0625,240246.125,275388.78125,247096.84375,243328.515625,112674.0,1.0,2
230596.515625,271354.03125,318524.4375,292253.1875,240737.515625,275650.5625,247382.234375,243710.203125,112675.0,1.0,2
231437.65625,272689.875,319978.1875,292658.375,242497.578125,276404.625,247946.578125,244439.046875,112676.0,1.0,2
231637.3125,272789.71875,319996.4375,292585.34375,243133.25,276638.34375,248037.046875,244530.875,112677.0,1.0,2
230906.859375,271498.6875,318537.84375,292125.78125,241751.5625,276013.03125,247512.5,243842.609375,112678.0,1.0,2
230247.65625,270585.5,317605.34375,291913.625,240258.5625,275391.21875,247102.84375,243326.015625,112679.0,1.0,2
230588.296875,271340.1875,318512.5625,292248.53125,240737.15625,275641.1875,247375.703125,243704.125,112680.0,1.0,2
231438.109375,272686.46875,319970.6875,292654.09375,242498.921875,276397.65625,247938.4375,244432.78125,112681.0,1.0,2
231639.0,272792.6875,319994.90625,292581.9375,243142.90625,276639.0625,248029.8125,244521.296875,112682.0,1.0,2
230901.671875,271492.625,318534.28125,292121.75,241763.0,276013.75,247499.09375,243835.90625,112683.0,1.0,2
230246.40625,270581.90625,317598.09375,291908.96875,240265.078125,275384.5,247079.6875,243319.9375,112684.0,1.0,2
230588.03125,271337.59375,318502.625,292245.9375,240736.609375,275635.8125,247359.890625,243698.671875,112685.0,1.0,2
231429.96875,272682.25,319964.0625,292656.0625,242496.859375,276406.0625,247942.015625,244433.59375,112686.0,1.0,2
231635.4375,272795.53125,319994.5625,292584.4375,243143.1875,276644.5,248035.890625,244525.953125,112687.0,1.0,2
230913.734375,271508.96875,318539.90625,292128.46875,241768.640625,276021.625,247510.171875,243849.046875,112688.0,1.0,2
230254.984375,270593.625,317598.0,291912.09375,240263.828125,275392.46875,247093.0,243331.296875,112689.0,1.0,2
230585.875,271336.6875,318492.09375,292241.375,240722.484375,275634.65625,247359.703125,243698.75,112690.0,1.0,2
231428.8125,272679.5,319953.96875,292647.90625,242482.28125,276398.03125,247927.890625,244427.78125,112691.0,1.0,2
231640.4375,272801.90625,319994.5625,292580.25,243142.109375,276643.1875,248027.3125,244529.34375,112692.0,1.0,2
230920.359375,271520.59375,318545.71875,292124.625,241779.28125,276024.75,247506.515625,243844.671875,112693.0,1.0,2
230256.59375,270594.78125,317598.90625,291907.34375,240268.65625,275393.0,247086.75,243326.5625,112694.0,1.0,2
230588.03125,271334.1875,318486.4375,292239.5,240718.375,275634.9375,247360.421875,243699.46875,112695.0,1.0,2
231432.296875,272680.375,319952.1875,292651.75,242478.34375,276396.3125,247938.796875,244441.734375,112696.0,1.0,2
231647.5,272807.0625,319997.6875,292579.53125,243145.5,276641.375,248030.703125,244530.78125,112697.0,1.0,2
230921.15625,271517.375,318544.90625,292118.375,241785.53125,276021.625,247509.640625,243842.703125,112698.0,1.0,2
230262.40625,270592.09375,317598.375,291907.4375,240280.8125,275395.3125,247098.453125,243330.578125,112699.0,1.0,2
230588.109375,271321.03125,318478.5625,292238.53125,240720.25,275632.34375,247361.671875,243693.296875,112700.0,1.0,2
231436.5,272670.03125,319946.71875,292650.34375,242476.296875,276395.875,247935.671875,244426.34375,112701.0,1.0,2
231654.296875,272806.09375,320006.625,292585.59375,243156.40625,276649.4375,248041.703125,244535.703125,112702.0,1.0,2
230934.125,271524.09375,318559.125,292126.6875,241807.265625,276032.6875,247515.09375,243860.3125,112703.0,1.0,2
230265.71875,270592.28125,317599.0,291909.59375,240292.0,275399.25,247093.546875,243336.84375,112704.0,1.0,2
230579.359375,271314.0625,318470.1875,292235.21875,240717.578125,275625.8125,247352.015625,243691.515625,112705.0,1.0,2
231424.96875,272667.34375,319942.71875,292649.25,242473.078125,276396.78125,247932.453125,244426.078125,112706.0,1.0,2
231654.109375,272815.46875,320013.875,292592.21875,243163.65625,276653.71875,248042.0625,244538.46875,112707.0,1.0,2
230941.625,271539.375,318572.375,292137.21875,241821.390625,276039.9375,247521.53125,243865.40625,112708.0,1.0,2
230267.6875,270596.125,317601.59375,291915.0625,240297.53125,275405.78125,247097.734375,243338.890625,112709.0,1.0,2
230576.859375,271311.21875,318464.28125,292234.6875,240710.6875,275623.9375,247350.765625,243692.953125,112710.0,1.0,2
231420.671875,272667.5,319936.53125,292646.84375,242463.6875,276384.15625,247917.78125,244422.421875,112711.0,1.0,2
231653.578125,272827.0,320019.96875,292594.71875,243163.390625,276652.75,248034.375,244542.21875,112712.0,1.0,2
230946.90625,271560.125,318585.15625,292143.40625,241826.9375,276050.40625,247527.796875,243877.125,112713.0,1.0,2
230270.09375,270608.75,317606.3125,291914.15625,240293.875,275404.0,247093.8125,243336.5625,112714.0,1.0,2
230575.25,271311.21875,318458.1875,292232.25,240698.265625,275620.34375,247342.453125,243680.875,112715.0,1.0,2
231423.890625,272668.6875,319933.40625,292649.4375,242453.3125,276385.40625,247923.328125,244422.6875,112716.0,1.0,2
231661.8125,272834.875,320024.5,292596.15625,243162.046875,276656.84375,248046.0,244547.234375,112717.0,1.0,2
230953.25,271569.40625,318589.4375,292139.1875,241830.15625,276050.5,247529.40625,243871.046875,112718.0,1.0,2
230266.609375,270604.28125,317596.75,291903.4375,240289.40625,275397.03125,247090.765625,243328.96875,112719.0,1.0,2
230566.5625,271300.84375,318441.84375,292225.28125,240683.5,275611.5,247345.125,243681.234375,112720.0,1.0,2
231413.34375,272657.59375,319922.9375,292649.4375,242442.140625,276379.0625,247933.96875,244426.890625,112721.0,1.0,2
231658.859375,272833.0,320023.625,292600.53125,243167.59375,276657.375,248059.3125,244549.203125,112722.0,1.0,2
230957.28125,271567.53125,318591.3125,292140.96875,241844.8125,276051.75,247531.09375,243869.25,112723.0,1.0,2
230276.625,270606.40625,317599.4375,291908.0625,240306.125,275404.4375,247098.09375,243338.359375,112724.0,1.0,2
230574.265625,271296.28125,318437.375,292224.40625,240692.625,275616.78125,247350.578125,243682.03125,112725.0,1.0,2
231425.859375,272656.25,319920.53125,292645.15625,242449.828125,276382.375,247930.5625,244418.9375,112726.0,1.0,2
231661.53125,272825.9375,320024.0625,292594.28125,243174.390625,276653.8125,248043.9375,244539.8125,112727.0,1.0,2
230963.453125,271569.0625,318596.78125,292142.3125,241859.203125,276053.0,247535.125,243876.3125,112728.0,1.0,2
230280.375,270605.0625,317600.875,291908.625,240316.40625,275404.09375,247098.453125,243335.3125,112729.0,1.0,2
230570.140625,271287.4375,318430.65625,292221.34375,240690.21875,275609.1875,247344.953125,243668.625,112730.0,1.0,2
231415.84375,272643.375,319912.5625,292637.90625,242436.515625,276367.09375,247919.75,244406.59375,112731.0,1.0,2
231667.703125,272831.5625,320031.125,292595.0,243175.1875,276653.28125,248051.359375,244545.34375,112732.0,1.0,2
230966.125,271573.4375,318608.65625,292145.90625,241870.03125,276065.25,247549.96875,243887.140625,112733.0,1.0,2
230279.578125,270603.03125,317604.8125,291910.03125,240320.328125,275406.59375,247108.296875,243346.765625,112734.0,1.0,2
230567.015625,271281.96875,318427.78125,292222.875,240682.609375,275608.65625,247349.59375,243683.015625,112735.0,1.0,2
231412.453125,272639.34375,319912.5625,292639.875,242429.796875,276368.875,247925.46875,244415.625,112736.0,1.0,2
231667.265625,272833.1875,320035.875,292596.59375,243171.609375,276651.21875,248051.796875,244543.65625,112737.0,1.0,2
230972.125,271581.65625,318613.9375,292144.375,241866.0,276060.15625,247544.59375,243881.6875,112738.0,1.0,2
230281.625,270604.0,317604.28125,291908.25,240310.859375,275403.09375,247106.765625,243334.25,112739.0,1.0,2
230557.265625,271268.375,318416.96875,292216.96875,240664.46875,275599.34375,247339.671875,243661.828125,112740.0,1.0,2
231397.078125,272625.40625,319899.0625,292636.125,242410.9375,276357.34375,247912.515625,244403.90625,112741.0,1.0,2
231655.375,272828.625,320034.4375,292597.65625,243165.796875,276651.65625,248055.828125,244550.53125,112742.0,1.0,2
230965.6875,271585.875,318617.875,292144.90625,241872.625,276070.78125,247563.828125,243889.546875,112743.0,1.0,2
230272.78125,270605.0625,317596.75,291899.3125,240309.703125,275415.0,247114.109375,243332.8125,112744.0,1.0,2
230548.59375,271261.78125,318401.6875,292209.09375,240653.28125,275597.03125,247336.28125,243664.78125,112745.0,1.0,2
231392.515625,272621.03125,319886.46875,292631.75,242402.53125,276347.5,247914.46875,244411.421875,112746.0,1.0,2
231651.609375,272824.96875,320024.96875,292585.5,243164.109375,276636.1875,248040.625,244534.796875,112747.0,1.0,2
230965.0625,271581.40625,318609.03125,292133.375,241877.890625,276055.15625,247544.234375,243879.1875,112748.0,1.0,2
230273.046875,270595.25,317584.96875,291892.15625,240316.765625,275400.9375,247097.5625,243328.609375,112749.0,1.0,2
230538.40625,271242.0,318383.09375,292197.84375,240651.671875,275587.28125,247328.953125,243652.359375,112750.0,1.0,2
231377.140625,272603.0625,319872.875,292622.09375,242397.4375,276348.125,247916.265625,244403.1875,112751.0,1.0,2
231644.109375,272823.875,320020.9375,292583.375,243168.21875,276641.375,248050.1875,244544.28125,112752.0,1.0,2
230961.75,271585.34375,318612.40625,292133.8125,241889.25,276062.46875,247547.453125,243886.0625,112753.0,1.0,2
230262.3125,270589.25,317582.53125,291889.75,240324.265625,275406.3125,247101.046875,243334.875,112754.0,1.0,2
230527.953125,271235.5625,318371.8125,292192.65625,240645.6875,275587.0,247326.53125,243646.546875,112755.0,1.0,2
231381.96875,272606.53125,319867.15625,292622.4375,242392.078125,276349.125,247912.953125,244393.8125,112756.0,1.0,2
231652.0625,272829.78125,320025.9375,292590.4375,243172.59375,276649.25,248054.390625,244548.125,112757.0,1.0,2
230969.96875,271591.0625,318618.9375,292137.59375,241898.1875,276070.625,247552.015625,243891.34375,112758.0,1.0,2
230277.78125,270598.1875,317582.71875,291891.96875,240328.03125,275409.28125,247104.890625,243333.53125,112759.0,1.0,2
230537.875,271232.0,318364.21875,292192.375,240637.546875,275576.0,247328.59375,243647.078125,112760.0,1.0,2
231381.328125,272593.5625,319855.53125,292613.84375,242375.71875,276331.6875,247908.3125,244387.09375,112761.0,1.0,2
231651.796875,272821.65625,320018.15625,292577.1875,243162.9375,276632.34375,248047.953125,244541.5,112762.0,1.0,2
230969.53125,271590.78125,318617.53125,292129.625,241898.375,276061.84375,247551.75,243892.59375,112763.0,1.0,2
230270.546875,270594.53125,317579.0625,291885.0,240326.421875,275407.3125,247104.625,243335.234375,112764.0,1.0,2
230527.046875,271225.46875,318353.40625,292185.9375,240627.53125,275580.46875,247326.4375,243644.3125,112765.0,1.0,2
231377.671875,272594.375,319847.9375,292613.0625,242365.609375,276335.0,247905.265625,244387.8125,112766.0,1.0,2
231657.0625,272834.25,320026.46875,292586.3125,243163.203125,276646.21875,248058.15625,244553.9375,112767.0,1.0,2
230976.046875,271601.875,318625.84375,292140.53125,241903.640625,276075.0,247566.859375,243901.890625,112768.0,1.0,2
230275.546875,270595.40625,317574.75,291887.875,240321.765625,275401.9375,247105.34375,243338.09375,112769.0,1.0,2
230530.265625,271219.46875,318342.0625,292182.1875,240612.78125,275571.90625,247316.515625,243638.046875,112770.0,1.0,2
231376.59375,272589.1875,319841.9375,292610.8125,242355.15625,276334.90625,247900.890625,244381.375,112771.0,1.0,2
231658.5,272837.3125,320028.625,292585.78125,243163.125,276645.40625,248052.34375,244546.0625,112772.0,1.0,2
230984.453125,271611.625,318631.09375,292135.0,241909.28125,276070.78125,247555.328125,243891.96875,112773.0,1.0,2
230267.0625,270590.0625,317573.40625,291882.15625,240321.140625,275401.5,247100.25,243329.6875,112774.0,1.0,2
230512.484375,271205.34375,318336.875,292182.8125,240604.375,275567.25,247317.140625,243636.4375,112775.0,1.0,2
231358.984375,272577.75,319837.75,292613.75,242341.734375,276326.6875,247898.203125,244383.796875,112776.0,1.0,2
231653.765625,272839.4375,320032.375,292587.65625,243158.5625,276641.46875,248045.1875,244542.765625,112777.0,1.0,2
230980.96875,271615.375,318637.8125,292138.125,241914.1875,276075.4375,247555.953125,243890.71875,112778.0,1.0,2
230272.78125,270601.0625,317579.59375,291886.875,240330.078125,275419.625,247114.015625,243329.6875,112779.0,1.0,2
230512.5625,271207.0625,318328.1875,292178.25,240598.484375,275567.6875,247308.109375,243623.75,112780.0,1.0,2
231356.125,272575.25,319826.375,292606.0625,242329.84375,276318.4375,247880.046875,244361.171875,112781.0,1.0,2
231657.953125,272841.59375,320034.53125,292588.90625,243159.1875,276634.6875,248038.03125,244540.96875,112782.0,1.0,2
230990.359375,271620.125,318645.5,292141.59375,241920.90625,276070.78125,247550.046875,243902.0625,112783.0,1.0,2
230272.15625,270591.5625,317576.375,291883.5625,240326.59375,275401.125,247091.9375,243330.84375,112784.0,1.0,2
230512.03125,271197.75,318328.28125,292182.5625,240597.140625,275569.65625,247310.796875,243634.296875,112785.0,1.0,2
231358.53125,272571.40625,319826.5625,292608.40625,242329.75,276318.1875,247885.421875,244374.21875,112786.0,1.0,2
231662.078125,272846.78125,320041.78125,292588.28125,243171.25,276644.34375,248046.265625,244544.71875,112787.0,1.0,2
230997.25,271631.46875,318660.625,292145.1875,241943.15625,276084.75,247562.296875,243904.65625,112788.0,1.0,2
230283.859375,270601.5,317585.9375,291887.0625,240342.59375,275408.375,247096.671875,243328.4375,112789.0,1.0,2
230515.609375,271193.375,318321.125,292177.375,240592.9375,275561.78125,247301.328125,243617.390625,112790.0,1.0,2
231362.203125,272567.375,319824.34375,292608.84375,242328.953125,276324.71875,247888.09375,244366.359375,112791.0,1.0,2
231672.4375,272853.5625,320046.59375,292595.34375,243180.015625,276657.21875,248058.421875,244553.390625,112792.0,1.0,2
231005.640625,271638.625,318661.78125,292147.6875,241956.390625,276093.59375,247569.1875,243914.234375,112793.0,1.0,2
230281.359375,270595.40625,317577.1875,291880.96875,240348.953125,275411.3125,247094.875,243328.609375,112794.0,1.0,2
230504.078125,271174.59375,318301.09375,292167.34375,240585.34375,275556.625,247288.890625,243607.5625,112795.0,1.0,2
231356.84375,272553.59375,319808.3125,292601.875,242317.859375,276317.1875,247879.15625,244360.546875,112796.0,1.0,2
231674.328125,272851.875,320043.8125,292591.21875,243178.5,276650.5,248051.0,244555.359375,112797.0,1.0,2
231009.140625,271641.46875,318663.46875,292144.28125,241961.9375,276091.0,247560.0625,243911.90625,112798.0,1.0,2
230285.828125,270598.28125,317574.125,291878.84375,240350.90625,275414.28125,247095.78125,243330.84375,112799.0,1.0,2
230514.984375,271182.8125,318297.53125,292170.3125,240584.625,275570.03125,247312.046875,243623.75,112800.0,1.0,2
231356.84375,272555.75,319803.3125,292604.03125,242314.921875,276324.15625,247891.765625,244368.140625,112801.0,1.0,2
231665.921875,272848.46875,320038.90625,292587.84375,243174.109375,276645.40625,248044.109375,244550.0,112802.0,1.0,2
231015.03125,271649.96875,318669.09375,292141.53125,241966.046875,276090.0,247559.96875,243920.484375,112803.0,1.0,2
230296.203125,270607.75,317582.625,291881.96875,240358.875,275416.5,247103.109375,243344.53125,112804.0,1.0,2
230507.03125,271170.65625,318290.46875,292163.34375,240576.125,275551.6875,247298.640625,243618.375,112805.0,1.0,2
231339.40625,272537.5,319790.1875,292592.3125,242297.03125,276304.9375,247881.03125,244358.484375,112806.0,1.0,2
231659.125,272848.28125,320042.40625,292588.8125,243176.265625,276652.21875,248061.90625,244554.828125,112807.0,1.0,2
231014.140625,271654.625,318674.75,292146.0625,241980.171875,276096.4375,247576.15625,243920.84375,112808.0,1.0,2
230288.15625,270601.21875,317574.59375,291875.875,240362.09375,275413.28125,247106.765625,243334.515625,112809.0,1.0,2
230496.03125,271158.21875,318273.9375,292156.0,240568.625,275544.71875,247293.28125,243607.65625,112810.0,1.0,2
231341.640625,272536.71875,319781.6875,292590.15625,242292.75,276302.875,247876.921875,244355.546875,112811.0,1.0,2
231665.65625,272855.0,320040.34375,292586.6875,243175.1875,276647.90625,248055.46875,244557.25,112812.0,1.0,2
231023.625,271669.46875,318682.6875,292148.75,241988.140625,276106.03125,247584.5625,243939.171875,112813.0,1.0,2
230281.984375,270602.3125,317571.46875,291872.59375,240364.59375,275417.03125,247106.859375,243343.546875,112814.0,1.0,2
230484.671875,271152.96875,318262.40625,292146.875,240556.015625,275541.9375,247286.21875,243598.625,112815.0,1.0,2
231332.15625,272533.40625,319778.90625,292587.46875,242278.96875,276300.3125,247873.34375,244346.15625,112816.0,1.0,2
231662.875,272856.0625,320046.96875,292587.375,243170.09375,276643.625,248048.3125,244550.53125,112817.0,1.0,2
231017.625,271666.34375,318684.75,292143.84375,241984.109375,276093.59375,247565.96875,243923.25,112818.0,1.0,2
230284.9375,270604.0,317573.6875,291871.96875,240359.765625,275408.71875,247093.8125,243335.765625,112819.0,1.0,2
230491.734375,271155.0,318263.71875,292151.0,240549.84375,275535.96875,247273.15625,243595.84375,112820.0,1.0,2
231341.90625,272536.8125,319780.53125,292593.1875,242279.15625,276298.0625,247863.6875,244346.421875,112821.0,1.0,2
231669.671875,272865.90625,320057.875,292597.59375,243181.53125,276655.25,248055.109375,244561.09375,112822.0,1.0,2
231024.421875,271676.34375,318694.3125,292149.5625,241997.609375,276105.21875,247570.609375,243925.046875,112823.0,1.0,2
230299.6875,270615.34375,317580.21875,291876.59375,240374.6875,275420.8125,247097.46875,243335.671875,112824.0,1.0,2
230499.328125,271156.625,318265.15625,292157.25,240560.125,275545.96875,247287.015625,243605.234375,112825.0,1.0,2
231346.46875,272536.09375,319778.1875,292595.71875,242280.671875,276299.21875,247874.421875,244355.71875,112826.0,1.0,2
231677.71875,272866.0,320055.0,292593.5625,243181.984375,276649.34375,248056.0,244561.359375,112827.0,1.0,2
231031.21875,271676.78125,318700.9375,292150.1875,242007.625,276106.90625,247580.453125,243938.546875,112828.0,1.0,2
230291.109375,270600.875,317581.5625,291877.75,240377.640625,275421.53125,247112.9375,243351.765625,112829.0,1.0,2
230487.359375,271138.375,318254.6875,292152.34375,240548.0625,275539.625,247290.421875,243606.84375,112830.0,1.0,2
231329.75,272514.34375,319762.28125,292583.90625,242259.9375,276287.34375,247864.140625,244338.375,112831.0,1.0,2
231666.09375,272857.25,320053.40625,292591.9375,243176.984375,276650.40625,248060.65625,244563.328125,112832.0,1.0,2
231021.296875,271677.0625,318701.375,292148.75,242009.328125,276112.90625,247582.59375,243938.8125,112833.0,1.0,2
230287.265625,270603.71875,317575.3125,291872.3125,240375.234375,275420.875,247101.59375,243338.359375,112834.0,1.0,2
230480.109375,271131.21875,318240.3125,292145.53125,240539.375,275536.125,247286.84375,243601.484375,112835.0,1.0,2
231322.59375,272511.0625,319755.84375,292584.4375,242256.71875,276286.875,247872.546875,244353.125,112836.0,1.0,2
231662.515625,272857.3125,320053.125,292590.53125,243182.515625,276648.0,248058.234375,244560.28125,112837.0,1.0,2
231027.640625,271686.1875,318705.125,292150.375,242025.0625,276115.125,247586.796875,243939.171875,112838.0,1.0,2
230289.234375,270608.8125,317569.03125,291869.8125,240387.65625,275421.6875,247107.75,243341.046875,112839.0,1.0,2
230475.734375,271129.28125,318224.3125,292139.28125,240538.84375,275532.03125,247277.890625,243591.828125,112840.0,1.0,2
231310.96875,272505.875,319738.15625,292578.71875,242246.875,276281.78125,247857.4375,244335.328125,112841.0,1.0,2
231669.859375,272871.71875,320053.03125,292596.15625,243184.125,276652.84375,248063.0625,244569.765625,112842.0,1.0,2
231041.140625,271699.5,318710.78125,292155.5625,242034.171875,276123.625,247595.203125,243956.96875,112843.0,1.0,2
230297.28125,270611.25,317568.5,291867.46875,240387.75,275425.1875,247101.3125,243338.171875,112844.0,1.0,2
230477.15625,271125.34375,318220.71875,292139.71875,240532.3125,275534.71875,247282.546875,243590.65625,112845.0,1.0,2
231318.296875,272510.6875,319741.53125,292583.8125,242241.515625,276292.25,247882.375,244343.109375,112846.0,1.0,2
231677.09375,272886.03125,320063.6875,292602.78125,243187.796875,276672.59375,248088.640625,244578.875,112847.0,1.0,2
231044.0,271714.625,318721.84375,292161.1875,242044.28125,276135.78125,247609.78125,243962.421875,112848.0,1.0,2
230296.375,270619.03125,317568.6875,291870.34375,240394.984375,275426.625,247110.265625,243342.828125,112849.0,1.0,2
230465.8125,271117.09375,318205.625,292134.53125,240524.1875,275518.34375,247269.40625,243582.4375,112850.0,1.0,2
231309.546875,272501.125,319731.15625,292580.875,242234.1875,276278.21875,247863.609375,244329.078125,112851.0,1.0,2
231675.65625,272879.21875,320065.65625,292600.53125,243191.109375,276655.0625,248066.46875,244564.75,112852.0,1.0,2
231042.9375,271708.625,318728.375,292160.03125,242055.453125,276119.6875,247594.578125,243954.109375,112853.0,1.0,2
230293.515625,270616.15625,317577.4375,291877.59375,240409.03125,275433.21875,247121.96875,243353.203125,112854.0,1.0,2
230467.421875,271115.0625,318204.71875,292138.9375,240526.953125,275520.21875,247268.859375,243584.859375,112855.0,1.0,2
231304.171875,272492.71875,319718.5625,292574.34375,242228.28125,276262.125,247845.625,244324.609375,112856.0,1.0,2
231663.234375,272874.9375,320054.71875,292595.15625,243187.34375,276643.875,248053.234375,244564.3125,112857.0,1.0,2
231035.328125,271718.8125,318729.1875,292165.375,242061.71875,276130.6875,247599.046875,243961.171875,112858.0,1.0,2
230284.484375,270618.3125,317570.03125,291876.15625,240405.09375,275430.53125,247108.109375,243352.3125,112859.0,1.0,2
230454.90625,271110.65625,318194.625,292137.125,240511.484375,275522.28125,247268.78125,243584.671875,112860.0,1.0,2
231298.546875,272496.65625,319717.59375,292583.09375,242214.953125,276271.59375,247856.359375,244332.5625,112861.0,1.0,2
231671.28125,272896.84375,320067.78125,292607.5,243185.203125,276656.125,248064.953125,244575.125,112862.0,1.0,2
231056.609375,271748.40625,318746.8125,292172.4375,242068.15625,276144.09375,247607.625,243965.546875,112863.0,1.0,2
230300.578125,270639.5,317580.5625,291878.40625,240408.40625,275444.6875,247120.1875,243351.59375,112864.0,1.0,2
230457.765625,271119.6875,318195.78125,292136.6875,240505.3125,275538.71875,247287.640625,243585.5625,112865.0,1.0,2
231300.515625,272505.25,319715.78125,292583.09375,242206.546875,276279.09375,247873.171875,244337.484375,112866.0,1.0,2
231676.46875,272908.375,320070.03125,292605.28125,243185.46875,276667.125,248079.4375,244573.96875,112867.0,1.0,2
231066.359375,271767.375,318758.25,292174.5,242082.375,276165.5625,247632.21875,243977.96875,112868.0,1.0,2
230306.03125,270650.03125,317588.34375,291878.75,240424.21875,275454.25,247133.765625,243361.421875,112869.0,1.0,2
230461.15625,271122.125,318193.46875,292134.375,240512.109375,275535.875,247291.75,243585.921875,112870.0,1.0,2
231302.03125,272504.78125,319710.96875,292577.03125,242204.5,276279.5625,247876.65625,244328.984375,112871.0,1.0,2
231673.515625,272902.75,320067.0625,292599.90625,243185.734375,276656.9375,248070.9375,244572.0,112872.0,1.0,2
231064.203125,271760.3125,318753.40625,292166.625,242088.265625,276148.65625,247610.3125,243973.140625,112873.0,1.0,2
230308.359375,270644.9375,317579.6875,291870.53125,240426.1875,275443.59375,247114.90625,243353.46875,112874.0,1.0,2
230457.140625,271108.875,318176.90625,292122.21875,240502.90625,275518.53125,247260.1875,243572.875,112875.0,1.0,2
231286.65625,272485.3125,319694.34375,292565.46875,242193.328125,276262.125,247842.765625,244318.703125,112876.0,1.0,2
231672.09375,272905.6875,320068.78125,292598.03125,243191.1875,276660.25,248063.609375,244574.140625,112877.0,1.0,2
231063.21875,271767.0,318760.46875,292166.71875,242099.265625,276161.625,247616.21875,243982.984375,112878.0,1.0,2
230295.046875,270641.28125,317576.1875,291867.9375,240424.40625,275451.8125,247121.875,243365.0,112879.0,1.0,2
230445.953125,271102.90625,318170.21875,292118.90625,240489.3125,275524.6875,247272.359375,243577.96875,112880.0,1.0,2
231289.15625,272485.125,319692.625,292559.6875,242178.75,276262.125,247843.125,244317.453125,112881.0,1.0,2
231672.359375,272905.5,320073.5,292594.53125,243181.359375,276659.1875,248064.40625,244579.421875,112882.0,1.0,2
231067.25,271775.78125,318772.09375,292167.34375,242097.65625,276167.15625,247621.84375,243985.578125,112883.0,1.0,2
230304.421875,270647.4375,317580.65625,291865.59375,240420.109375,275456.125,247118.84375,243358.5625,112884.0,1.0,2
230448.90625,271099.03125,318159.9375,292114.15625,240472.421875,275520.21875,247260.734375,243571.265625,112885.0,1.0,2
231288.703125,272481.625,319682.71875,292559.21875,242158.71875,276259.25,247845.71875,244315.578125,112886.0,1.0,2
231671.1875,272905.6875,320069.3125,292593.125,243167.59375,276658.8125,248076.296875,244581.65625,112887.0,1.0,2
231064.921875,271773.34375,318771.46875,292164.9375,242087.203125,276166.46875,247627.03125,243987.625,112888.0,1.0,2
230312.203125,270657.8125,317590.84375,291872.84375,240422.171875,275477.9375,247136.359375,243362.40625,112889.0,1.0,2
230448.109375,271102.0,318163.0625,292114.78125,240467.59375,275529.59375,247268.6875,243569.921875,112890.0,1.0,2
231278.34375,272479.75,319682.96875,292555.8125,242148.4375,276254.96875,247838.484375,244307.171875,112891.0,1.0,2
231672.796875,272916.875,320082.1875,292598.03125,243171.4375,276663.90625,248070.765625,244574.5,112892.0,1.0,2
231076.640625,271795.96875,318790.25,292172.375,242102.578125,276171.71875,247629.09375,243989.78125,112893.0,1.0,2
230313.09375,270661.3125,317595.3125,291870.4375,240426.015625,275457.5625,247122.234375,243361.953125,112894.0,1.0,2
230441.9375,271088.3125,318156.4375,292108.34375,240457.390625,275508.34375,247246.78125,243554.359375,112895.0,1.0,2
231277.0,272468.21875,319678.0625,292554.9375,242140.125,276248.625,247830.703125,244303.59375,112896.0,1.0,2
231671.46875,272911.25,320084.6875,292600.53125,243170.09375,276662.3125,248072.90625,244580.9375,112897.0,1.0,2
231082.53125,271797.75,318800.96875,292178.0,242115.71875,276179.59375,247637.140625,243997.734375,112898.0,1.0,2
230306.21875,270650.03125,317589.78125,291866.0625,240430.125,275456.75,247114.28125,243357.046875,112899.0,1.0,2
230436.484375,271081.25,318144.09375,292107.28125,240456.953125,275514.15625,247251.515625,243557.40625,112900.0,1.0,2
231271.546875,272463.03125,319671.8125,292554.9375,242137.796875,276254.15625,247840.71875,244307.96875,112901.0,1.0,2
231676.109375,272918.3125,320088.625,292599.0,243175.90625,276666.15625,248077.46875,244580.75,112902.0,1.0,2
231085.484375,271799.90625,318802.0625,292170.3125,242124.203125,276176.46875,247630.875,243995.953125,112903.0,1.0,2
230305.765625,270647.375,317588.71875,291859.78125,240436.75,275455.75,247122.78125,243360.703125,112904.0,1.0,2
230427.90625,271068.46875,318134.625,292099.59375,240451.046875,275507.96875,247256.078125,243557.5,112905.0,1.0,2
231273.515625,272459.71875,319662.59375,292548.75,242132.796875,276253.0,247841.78125,244307.0,112906.0,1.0,2
231680.484375,272917.75,320086.90625,292593.8125,243176.171875,276667.03125,248076.03125,244584.953125,112907.0,1.0,2
231095.046875,271809.375,318807.6875,292171.1875,242131.71875,276186.46875,247637.046875,244006.859375,112908.0,1.0,2
230316.3125,270655.0625,317589.34375,291859.53125,240439.328125,275464.625,247126.4375,243369.03125,112909.0,1.0,2
230428.4375,271063.71875,318129.09375,292096.8125,240440.234375,275505.65625,247249.015625,243555.4375,112910.0,1.0,2
231268.140625,272452.65625,319660.1875,292548.40625,242115.1875,276248.0,247831.6875,244298.59375,112911.0,1.0,2
231682.8125,272923.21875,320092.28125,292599.90625,243169.015625,276669.71875,248071.46875,244588.171875,112912.0,1.0,2
231100.15625,271817.0625,318814.46875,292176.03125,242131.09375,276187.8125,247634.265625,244017.046875,112913.0,1.0,2
230318.015625,270652.90625,317587.90625,291858.09375,240432.71875,275460.40625,247112.859375,243360.34375,112914.0,1.0,2
230433.796875,271062.65625,318123.28125,292093.15625,240432.546875,275501.625,247242.578125,243545.6875,112915.0,1.0,2
231268.5,272448.90625,319650.4375,292541.78125,242105.53125,276232.625,247821.046875,244292.78125,112916.0,1.0,2
231683.078125,272922.40625,320090.75,292594.8125,243168.03125,276654.15625,248058.15625,244573.875,112917.0,1.0,2
231102.203125,271820.84375,318821.28125,292175.21875,242142.984375,276179.25,247623.640625,244003.1875,112918.0,1.0,2
230323.03125,270659.15625,317594.6875,291862.84375,240449.96875,275458.53125,247115.890625,243366.078125,112919.0,1.0,2
230428.078125,271056.03125,318114.96875,292093.15625,240430.9375,275492.6875,247235.25,243547.921875,112920.0,1.0,2
231267.609375,272447.3125,319646.21875,292546.1875,242103.375,276237.90625,247823.453125,244301.984375,112921.0,1.0,2
231687.90625,272925.1875,320095.15625,292600.8125,243176.984375,276662.3125,248064.234375,244583.625,112922.0,1.0,2
231112.84375,271828.53125,318830.65625,292180.3125,242159.890625,276189.25,247639.28125,244012.671875,112923.0,1.0,2
230325.265625,270656.3125,317597.65625,291864.71875,240461.234375,275465.5,247120.890625,243366.078125,112924.0,1.0,2
230431.5625,271050.84375,318116.21875,292097.25,240438.796875,275504.65625,247247.765625,243545.875,112925.0,1.0,2
231268.859375,272439.71875,319644.28125,292545.625,242104.71875,276242.625,247831.859375,244288.578125,112926.0,1.0,2
231693.09375,272928.3125,320096.21875,292598.03125,243178.671875,276664.625,248065.75,244577.1875,112927.0,1.0,2
231114.453125,271830.65625,318832.09375,292177.1875,242164.4375,276192.125,247636.234375,244011.6875,112928.0,1.0,2
230327.859375,270661.9375,317598.1875,291859.78125,240463.390625,275473.625,247129.484375,243372.515625,112929.0,1.0,2
230430.671875,271049.25,318105.75,292086.4375,240427.265625,275502.4375,247238.828125,243540.0625,112930.0,1.0,2
231259.921875,272431.84375,319628.34375,292536.875,242084.0625,276231.28125,247815.765625,244281.421875,112931.0,1.0,2
231685.046875,272928.75,320094.875,292598.75,243168.9375,276666.78125,248072.640625,244584.515625,112932.0,1.0,2
231111.0625,271837.375,318834.96875,292176.125,242159.96875,276194.71875,247633.46875,244012.125,112933.0,1.0,2
230330.09375,270664.71875,317592.90625,291855.59375,240454.53125,275467.90625,247118.125,243364.203125,112934.0,1.0,2
230424.953125,271042.1875,318098.0625,292085.1875,240407.859375,275496.4375,247237.65625,243538.1875,112935.0,1.0,2
231261.0,272432.90625,319631.125,292543.75,242070.125,276227.15625,247819.96875,244287.859375,112936.0,1.0,2
231697.03125,272939.75,320103.1875,292605.90625,243166.515625,276660.15625,248073.0,244585.40625,112937.0,1.0,2
231133.40625,271860.625,318852.9375,292189.34375,242174.28125,276197.5625,247651.4375,244029.03125,112938.0,1.0,2
230350.734375,270683.5625,317606.3125,291868.28125,240469.375,275470.15625,247138.59375,243388.0625,112939.0,1.0,2
230435.40625,271041.5625,318091.34375,292086.71875,240410.8125,275488.9375,247246.875,243539.96875,112940.0,1.0,2
231259.390625,272423.53125,319618.15625,292539.03125,242068.15625,276219.84375,247824.796875,244281.59375,112941.0,1.0,2
231696.9375,272942.15625,320105.59375,292604.8125,243178.765625,276667.75,248081.046875,244585.140625,112942.0,1.0,2
231136.0,271865.875,318862.40625,292190.15625,242197.171875,276212.9375,247662.96875,244029.109375,112943.0,1.0,2
230350.46875,270680.25,317607.84375,291868.03125,240488.78125,275470.25,247135.734375,243376.71875,112944.0,1.0,2
230424.953125,271029.40625,318087.15625,292087.96875,240418.328125,275482.9375,247232.75,243536.390625,112945.0,1.0,2
231251.703125,272412.875,319617.34375,292540.09375,242068.875,276214.5625,247810.5,244276.953125,112946.0,1.0,2
231699.359375,272943.78125,320116.59375,292611.53125,243186.984375,276670.875,248083.625,244595.859375,112947.0,1.0,2
231141.546875,271875.625,318876.34375,292194.71875,242212.640625,276211.59375,247659.03125,244039.578125,112948.0,1.0,2
230349.578125,270686.34375,317615.71875,291866.9375,240499.78125,275476.9375,247134.671875,243386.90625,112949.0,1.0,2
230426.296875,271032.875,318086.15625,292087.0625,240418.59375,275489.1875,247241.421875,243544.703125,112950.0,1.0,2
231253.3125,272415.21875,319613.40625,292541.0625,242063.859375,276218.5,247820.15625,244287.6875,112951.0,1.0,2
231700.34375,272947.0,320114.375,292611.25,243184.046875,276670.1875,248082.46875,244591.9375,112952.0,1.0,2
231149.765625,271881.625,318880.28125,292193.46875,242215.5,276218.59375,247660.109375,244029.828125,112953.0,1.0,2
230359.59375,270686.78125,317615.875,291864.25,240500.046875,275484.09375,247135.375,243375.90625,112954.0,1.0,2
230429.0625,271021.625,318075.4375,292080.0,240407.328125,275490.71875,247235.609375,243529.78125,112955.0,1.0,2
231246.953125,272400.625,319601.4375,292530.96875,242045.796875,276216.875,247812.8125,244270.0625,112956.0,1.0,2
231697.484375,272942.625,320118.40625,292610.375,243180.828125,276674.28125,248085.953125,244596.3125,112957.0,1.0,2
231157.640625,271890.84375,318895.84375,292199.1875,242229.796875,276230.75,247676.65625,244049.859375,112958.0,1.0,2
230363.34375,270695.65625,317623.9375,291864.09375,240511.84375,275499.21875,247152.546875,243386.28125,112959.0,1.0,2
230413.6875,271013.21875,318064.09375,292071.34375,240398.5625,275491.34375,247241.515625,243527.359375,112960.0,1.0,2
231238.90625,272399.90625,319593.40625,292527.9375,242036.953125,276220.1875,247812.28125,244265.5,112961.0,1.0,2
231700.609375,272950.5,320118.9375,292606.0,243180.546875,276675.71875,248082.203125,244589.421875,112962.0,1.0,2
231158.4375,271896.125,318897.4375,292194.71875,242235.515625,276228.15625,247668.15625,244041.0,112963.0,1.0,2
230358.15625,270690.375,317618.40625,291860.96875,240514.265625,275491.78125,247138.515625,243380.828125,112964.0,1.0,2
230418.6875,271011.78125,318058.375,292071.15625,240400.09375,275490.71875,247231.3125,243527.546875,112965.0,1.0,2
231243.921875,272392.6875,319584.90625,292525.25,242035.703125,276214.5625,247807.984375,244261.75,112966.0,1.0,2
231703.828125,272947.34375,320114.8125,292605.28125,243182.34375,276671.5,248082.734375,244591.390625,112967.0,1.0,2
231161.390625,271900.40625,318900.65625,292193.28125,242244.1875,276231.71875,247671.640625,244051.828125,112968.0,1.0,2
230362.09375,270695.46875,317619.09375,291859.0,240523.640625,275490.0,247137.078125,243383.953125,112969.0,1.0,2
230407.78125,271001.25,318045.84375,292062.03125,240392.84375,275474.71875,247217.1875,243511.984375,112970.0,1.0,2
231229.171875,272378.90625,319572.5625,292515.6875,242025.0625,276200.4375,247798.25,244250.484375,112971.0,1.0,2
231696.3125,272943.96875,320114.375,292606.34375,243185.46875,276670.25,248084.53125,244596.5,112972.0,1.0,2
231161.21875,271901.28125,318900.3125,292193.71875,242254.921875,276228.5,247667.71875,244048.515625,112973.0,1.0,2
230361.734375,270691.8125,317613.03125,291856.03125,240531.25,275492.40625,247141.015625,243376.0,112974.0,1.0,2
230407.875,270994.0,318037.09375,292062.125,240394.71875,275481.6875,247225.0625,243510.734375,112975.0,1.0,2
231223.890625,272370.875,319561.5625,292517.28125,242017.28125,276195.875,247798.515625,244252.8125,112976.0,1.0,2
231689.34375,272942.0,320109.0,292607.0625,243180.015625,276664.71875,248085.421875,244599.265625,112977.0,1.0,2
231159.609375,271906.75,318905.40625,292199.53125,242262.171875,276233.25,247678.078125,244057.453125,112978.0,1.0,2
230358.515625,270694.375,317615.0,291858.28125,240531.609375,275492.59375,247142.453125,243377.34375,112979.0,1.0,2
230401.25,270990.40625,318029.5,292062.3125,240381.046875,275472.5625,247221.75,243506.890625,112980.0,1.0,2
231219.953125,272369.34375,319560.59375,292522.21875,242005.484375,276196.125,247802.453125,244255.9375,112981.0,1.0,2
231689.515625,272945.46875,320117.125,292613.9375,243177.96875,276670.625,248091.140625,244602.21875,112982.0,1.0,2
231160.765625,271914.71875,318915.25,292202.75,242264.578125,276240.3125,247685.59375,244058.359375,112983.0,1.0,2
230367.28125,270705.65625,317624.03125,291861.5,240536.96875,275502.0625,247150.578125,243384.140625,112984.0,1.0,2
230407.515625,270992.84375,318030.65625,292061.40625,240377.375,275479.71875,247225.765625,243506.984375,112985.0,1.0,2
231226.125,272369.25,319555.125,292518.375,241994.390625,276191.84375,247796.09375,244245.921875,112986.0,1.0,2
231695.15625,272948.6875,320117.75,292609.28125,243173.484375,276667.125,248082.46875,244589.34375,112987.0,1.0,2
231170.875,271926.5,318923.90625,292202.65625,242271.546875,276246.65625,247683.359375,244059.25,112988.0,1.0,2
230368.625,270705.125,317621.875,291859.0,240541.34375,275500.03125,247145.75,243388.328125,112989.0,1.0,2
230399.296875,270978.78125,318012.5,292055.25,240371.46875,275469.34375,247217.28125,243506.359375,112990.0,1.0,2
231211.109375,272348.78125,319535.5625,292512.03125,241984.015625,276183.53125,247788.234375,244243.953125,112991.0,1.0,2
231699.71875,272949.25,320115.4375,292607.9375,243175.8125,276665.0625,248081.84375,244595.421875,112992.0,1.0,2
231189.296875,271938.3125,318936.6875,292208.03125,242292.65625,276251.125,247687.921875,244070.875,112993.0,1.0,2
230376.671875,270705.375,317627.96875,291861.75,240556.8125,275504.125,247147.90625,243393.875,112994.0,1.0,2
230401.796875,270973.59375,318012.0625,292057.375,240375.40625,275466.5625,247214.59375,243508.671875,112995.0,1.0,2
231224.15625,272352.96875,319540.28125,292518.625,241988.21875,276184.875,247793.15625,244253.34375,112996.0,1.0,2
231717.328125,272961.125,320127.15625,292619.125,243187.796875,276679.375,248092.75,244604.0,112997.0,1.0,2
231203.421875,271951.71875,318951.28125,292220.8125,242307.5,276264.90625,247701.5,244087.40625,112998.0,1.0,2
230384.453125,270713.4375,317635.8125,291870.0625,240566.828125,275510.375,247161.21875,243410.59375,112999.0,1.0,2
230399.203125,270969.21875,318004.90625,292053.1875,240370.046875,275463.0,247210.390625,243497.859375,113000.0,1.0,2
231217.71875,272345.75,319530.4375,292514.0,241977.21875,276178.96875,247778.75,244234.296875,113001.0,1.0,2
231710.53125,272956.75,320123.125,292615.71875,243182.609375,276671.875,248085.59375,244595.953125,113002.0,1.0,2
231191.25,271943.5,318940.90625,292206.4375,242302.671875,276252.03125,247680.140625,244063.453125,113003.0,1.0,2
230379.078125,270707.90625,317624.125,291859.53125,240561.46875,275502.96875,247143.078125,243387.359375,113004.0,1.0,2
230396.34375,270958.84375,317991.21875,292050.6875,240361.375,275459.4375,247210.21875,243495.53125,113005.0,1.0,2
231202.703125,272326.34375,319509.1875,292503.71875,241957.203125,276167.25,247781.4375,244233.234375,113006.0,1.0,2
231696.765625,272942.875,320108.03125,292605.28125,243168.21875,276659.90625,248078.53125,244595.234375,113007.0,1.0,2
231192.0625,271944.84375,318939.03125,292205.34375,242305.34375,276252.46875,247689.96875,244074.53125,113008.0,1.0,2
230374.875,270703.15625,317615.8125,291852.46875,240558.875,275503.3125,247151.03125,243390.484375,113009.0,1.0,2
230382.65625,270943.46875,317973.0625,292037.34375,240343.9375,275456.46875,247210.125,243489.90625,113010.0,1.0,2
231191.34375,272314.34375,319493.0,292494.21875,241938.25,276160.8125,247770.53125,244220.984375,113011.0,1.0,2
231688.453125,272937.0,320096.9375,292597.21875,243155.34375,276648.28125,248070.3125,244584.875,113012.0,1.0,2
231189.828125,271947.15625,318937.15625,292200.0,242305.796875,276249.6875,247691.40625,244074.171875,113013.0,1.0,2
230375.6875,270710.03125,317615.875,291848.34375,240564.78125,275507.0,247153.078125,243393.796875,113014.0,1.0,2
230377.921875,270944.5625,317964.9375,292031.90625,240339.375,275454.25,247203.78125,243489.453125,113015.0,1.0,2
231183.75,272313.1875,319487.0,292488.3125,241929.75,276157.875,247767.578125,244224.46875,113016.0,1.0,2
231683.171875,272940.28125,320101.6875,292590.53125,243154.8125,276647.1875,248067.0,244586.203125,113017.0,1.0,2
231186.609375,271951.90625,318946.0,292194.1875,242314.640625,276250.84375,247686.671875,244074.171875,113018.0,1.0,2
230374.53125,270708.0625,317617.5,291842.625,240576.484375,275506.53125,247148.25,243392.625,113019.0,1.0,2
230373.890625,270932.9375,317955.5625,292023.84375,240342.421875,275446.71875,247199.671875,243487.84375,113020.0,1.0,2
231177.046875,272298.34375,319470.375,292480.8125,241922.6875,276149.125,247763.375,244216.953125,113021.0,1.0,2
231682.8125,272933.78125,320094.0625,292592.65625,243156.328125,276646.3125,248069.5,244585.859375,113022.0,1.0,2
231190.265625,271953.15625,318945.375,292199.0,242325.640625,276252.28125,247692.296875,244080.34375,113023.0,1.0,2
230380.25,270709.9375,317616.34375,291848.34375,240585.515625,275508.0625,247156.484375,243401.921875,113024.0,1.0,2
230370.765625,270924.96875,317946.34375,292026.71875,240340.09375,275443.25,247201.0,243488.5625,113025.0,1.0,2
231173.90625,272293.53125,319467.40625,292486.53125,241919.375,276150.8125,247773.65625,244222.6875,113026.0,1.0,2
231691.75,272943.34375,320104.1875,292603.5625,243163.03125,276662.40625,248088.28125,244605.25,113027.0,1.0,2
231206.640625,271970.59375,318960.65625,292206.4375,242336.109375,276266.21875,247705.625,244089.640625,113028.0,1.0,2
230382.5625,270713.625,317617.5,291844.9375,240585.34375,275511.8125,247156.484375,243390.21875,113029.0,1.0,2
230367.8125,270918.1875,317934.4375,292022.0625,240327.21875,275444.9375,247198.234375,243478.375,113030.0,1.0,2
231172.21875,272282.09375,319452.75,292480.625,241901.9375,276143.125,247758.640625,244208.375,113031.0,1.0,2
231689.15625,272939.03125,320096.5,292594.71875,243152.84375,276649.875,248072.28125,244587.90625,113032.0,1.0,2
231202.703125,271965.65625,318959.5,292200.53125,242336.90625,276258.46875,247695.875,244086.25,113033.0,1.0,2
230381.40625,270710.5625,317616.15625,291843.53125,240586.953125,275506.53125,247151.203125,243395.484375,113034.0,1.0,2
230365.671875,270912.625,317927.90625,292017.34375,240322.125,275432.6875,247188.9375,243469.15625,113035.0,1.0,2
231170.875,272279.9375,319445.25,292475.90625,241896.765625,276137.3125,247756.046875,244200.515625,113036.0,1.0,2
231689.796875,272941.90625,320094.0625,292597.84375,243154.71875,276650.0625,248083.28125,244592.375,113037.0,1.0,2
231203.234375,271971.9375,318961.46875,292205.1875,242345.046875,276258.46875,247702.578125,244090.8125,113038.0,1.0,2
230385.515625,270715.03125,317617.5,291845.65625,240595.984375,275511.5625,247157.46875,243400.5,113039.0,1.0,2
230364.953125,270909.40625,317920.84375,292017.5,240321.40625,275431.96875,247195.375,243473.890625,113040.0,1.0,2
231162.921875,272271.4375,319438.625,292477.96875,241892.109375,276130.15625,247756.046875,244201.21875,113041.0,1.0,2
231686.65625,272938.15625,320095.875,292596.6875,243155.25,276644.5,248076.921875,244590.328125,113042.0,1.0,2
231212.796875,271981.75,318970.40625,292204.0,242361.046875,276263.46875,247703.203125,244091.25,113043.0,1.0,2
230394.109375,270721.21875,317618.84375,291841.28125,240612.421875,275512.4375,247153.078125,243398.34375,113044.0,1.0,2
230363.53125,270902.53125,317908.4375,292007.21875,240324.359375,275433.21875,247188.046875,243464.421875,113045.0,1.0,2
231152.1875,272256.6875,319420.125,292462.5625,241885.40625,276125.0625,247747.015625,244189.515625,113046.0,1.0,2
231692.296875,272945.46875,320096.21875,292596.0625,243166.34375,276653.53125,248082.5625,244594.96875,113047.0,1.0,2
231223.796875,272003.03125,318985.59375,292211.15625,242383.484375,276286.0,247719.921875,244108.421875,113048.0,1.0,2
230399.203125,270737.75,317630.90625,291848.09375,240630.21875,275537.03125,247171.6875,243416.40625,113049.0,1.0,2
230354.234375,270897.96875,317906.5625,292010.4375,240323.828125,275436.0,247189.390625,243476.578125,113050.0,1.0,2
231150.046875,272253.90625,319418.96875,292467.9375,241877.09375,276128.625,247749.25,244194.25,113051.0,1.0,2
231685.40625,272942.875,320097.125,292598.5625,243159.359375,276658.375,248082.03125,244588.796875,113052.0,1.0,2
231219.0625,272000.625,318985.25,292212.0625,242382.328125,276282.78125,247709.734375,244099.03125,113053.0,1.0,2
230397.40625,270732.3125,317627.25,291848.53125,240627.984375,275528.90625,247166.9375,243409.25,113054.0,1.0,2
230356.46875,270893.78125,317900.90625,292009.09375,240318.453125,275440.1875,247195.015625,243462.09375,113055.0,1.0,2
231147.71875,272247.9375,319411.1875,292466.875,241869.9375,276123.1875,247750.234375,244185.3125,113056.0,1.0,2
231687.203125,272943.25,320094.875,292599.1875,243157.75,276645.3125,248083.0,244592.296875,113057.0,1.0,2
231222.90625,272004.90625,318986.5,292212.25,242389.84375,276281.53125,247724.21875,244108.15625,113058.0,1.0,2
230393.5625,270732.03125,317623.03125,291843.53125,240634.0625,275529.34375,247176.59375,243412.203125,113059.0,1.0,2
230345.734375,270887.59375,317889.28125,292001.78125,240315.15625,275434.125,247195.734375,243466.296875,113060.0,1.0,2
231136.359375,272242.75,319398.9375,292460.0625,241861.625,276121.03125,247750.140625,244190.9375,113061.0,1.0,2
231674.234375,272936.71875,320087.1875,292588.71875,243149.265625,276638.0625,248076.296875,244587.375,113062.0,1.0,2
231217.71875,272006.25,318990.0,292205.34375,242391.171875,276276.15625,247716.703125,244099.03125,113063.0,1.0,2
230394.109375,270732.03125,317624.90625,291837.96875,240637.46875,275525.0625,247166.578125,243403.890625,113064.0,1.0,2
230346.1875,270879.09375,317883.3125,291998.375,240310.046875,275422.59375,247179.375,243453.15625,113065.0,1.0,2
231140.109375,272230.75,319391.96875,292458.5625,241851.515625,276110.75,247739.59375,244175.203125,113066.0,1.0,2
231684.875,272934.40625,320091.21875,292592.84375,243149.890625,276644.34375,248085.328125,244585.671875,113067.0,1.0,2
231234.703125,272013.40625,319004.8125,292216.0,242408.796875,276289.65625,247728.59375,244112.890625,113068.0,1.0,2
230407.0625,270733.71875,317633.3125,291846.125,240650.875,275527.46875,247165.6875,243413.453125,113069.0,1.0,2
230355.390625,270879.03125,317877.84375,292000.53125,240311.03125,275420.875,247180.171875,243459.140625,113070.0,1.0,2
231146.828125,272233.71875,319388.03125,292463.375,241854.734375,276112.71875,247742.453125,244181.203125,113071.0,1.0,2
231689.34375,272940.125,320094.6875,292600.625,243163.390625,276651.84375,248084.609375,244595.515625,113072.0,1.0,2
231238.828125,272024.6875,319009.75,292219.03125,242424.171875,276294.3125,247725.828125,244117.546875,113073.0,1.0,2
230411.890625,270745.875,317633.40625,291846.84375,240662.859375,275532.8125,247166.046875,243413.28125,113074.0,1.0,2
230354.671875,270876.78125,317872.5625,292001.875,240308.796875,275423.9375,247182.328125,243460.75,113075.0,1.0,2
231145.390625,272228.0,319382.03125,292463.03125,241843.203125,276107.625,247739.5,244182.453125,113076.0,1.0,2
231695.6875,272943.34375,320095.25,292603.03125,243155.875,276643.4375,248075.5,244593.0,113077.0,1.0,2
231242.3125,272022.875,319013.3125,292223.5,242424.078125,276286.875,247722.078125,244120.21875,113078.0,1.0,2
230414.3125,270740.15625,317636.375,291851.3125,240669.015625,275531.84375,247173.203125,243421.234375,113079.0,1.0,2
230356.375,270870.0625,317866.9375,292002.84375,240309.25,275421.34375,247189.46875,243461.46875,113080.0,1.0,2
231141.015625,272218.5,319374.875,292463.5625,241837.296875,276106.46875,247744.59375,244180.65625,113081.0,1.0,2
231696.765625,272943.15625,320098.8125,292607.5,243161.15625,276645.6875,248088.90625,244605.96875,113082.0,1.0,2
231254.28125,272037.28125,319027.1875,292231.09375,242441.609375,276297.78125,247744.0625,244147.484375,113083.0,1.0,2
230424.59375,270754.5625,317642.53125,291852.65625,240676.71875,275544.71875,247188.40625,243427.578125,113084.0,1.0,2
230360.484375,270873.125,317864.8125,292001.5,240305.671875,275432.34375,247199.21875,243457.359375,113085.0,1.0,2
231135.734375,272211.09375,319365.0625,292457.46875,241824.078125,276096.71875,247737.1875,244173.6875,113086.0,1.0,2
231690.5,272942.15625,320094.53125,292602.21875,243151.140625,276639.875,248080.953125,244596.765625,113087.0,1.0,2
231254.5625,272045.25,319029.9375,292225.46875,242441.515625,276299.59375,247738.609375,244133.359375,113088.0,1.0,2
230426.921875,270756.875,317645.40625,291846.5625,240678.5,275544.8125,247182.140625,243423.296875,113089.0,1.0,2
230354.046875,270862.84375,317854.875,291992.21875,240295.921875,275422.78125,247188.046875,243454.140625,113090.0,1.0,2
231137.25,272208.59375,319359.40625,292458.65625,241815.9375,276101.375,247742.28125,244180.03125,113091.0,1.0,2
231699.0,272946.1875,320094.15625,292601.59375,243146.40625,276638.78125,248076.75,244595.6875,113092.0,1.0,2
231263.59375,272052.75,319036.125,292226.4375,242447.78125,276301.1875,247740.40625,244131.3125,113093.0,1.0,2
230433.171875,270762.25,317649.40625,291851.65625,240691.375,275548.375,247192.421875,243430.359375,113094.0,1.0,2
230353.421875,270859.15625,317848.71875,291991.40625,240296.546875,275410.25,247176.421875,243454.59375,113095.0,1.0,2
231122.328125,272196.53125,319348.6875,292450.3125,241807.53125,276082.15625,247725.640625,244169.3125,113096.0,1.0,2
231683.703125,272943.25,320097.375,292602.0625,243150.421875,276636.28125,248082.828125,244595.234375,113097.0,1.0,2
231259.203125,272062.21875,319045.6875,292232.53125,242460.203125,276302.96875,247743.703125,244137.125,113098.0,1.0,2
230428.96875,270771.90625,317651.84375,291854.96875,240699.0625,275543.8125,247186.703125,243429.546875,113099.0,1.0,2
230343.40625,270860.5,317840.5625,291992.90625,240295.125,275407.375,247179.375,243446.1875,113100.0,1.0,2
231120.71875,272202.15625,319339.46875,292453.90625,241801.890625,276081.4375,247727.796875,244165.1875,113101.0,1.0,2
231690.859375,272958.25,320096.03125,292611.0,243149.078125,276639.78125,248085.953125,244606.859375,113102.0,1.0,2
231266.890625,272077.875,319051.125,292240.75,242469.59375,276317.46875,247751.75,244146.421875,113103.0,1.0,2
230432.546875,270782.1875,317656.125,291859.15625,240708.0,275559.125,247186.34375,243434.296875,113104.0,1.0,2
230341.796875,270860.5,317836.0,291994.53125,240293.78125,275412.65625,247168.1875,243447.703125,113105.0,1.0,2
231122.140625,272204.90625,319334.375,292457.03125,241795.8125,276087.0625,247724.390625,244166.09375,113106.0,1.0,2
231692.03125,272965.6875,320095.5,292611.71875,243148.453125,276646.125,248089.265625,244609.359375,113107.0,1.0,2
231271.8125,272092.28125,319059.46875,292244.0625,242476.828125,276322.375,247758.640625,244163.5,113108.0,1.0,2
230441.84375,270796.125,317660.9375,291863.09375,240716.140625,275566.4375,247193.40625,243440.90625,113109.0,1.0,2
230352.890625,270876.875,317835.84375,291997.21875,240294.765625,275427.3125,247187.15625,243449.9375,113110.0,1.0,2
231115.171875,272208.6875,319325.625,292449.6875,241782.9375,276092.15625,247729.3125,244157.59375,113111.0,1.0,2
231684.96875,272972.46875,320094.0625,292605.90625,243142.46875,276655.25,248095.078125,244600.15625,113112.0,1.0,2
231272.796875,272107.65625,319062.40625,292239.3125,242482.375,276333.03125,247769.015625,244159.203125,113113.0,1.0,2
230436.578125,270804.8125,317656.125,291853.71875,240713.015625,275568.59375,247202.078125,243446.1875,113114.0,1.0,2
230336.34375,270871.5,317820.375,291983.71875,240278.40625,275425.28125,247182.859375,243447.25,113115.0,1.0,2
231112.671875,272210.46875,319321.78125,292449.0,241777.578125,276097.625,247740.046875,244169.21875,113116.0,1.0,2
231684.15625,272973.1875,320099.625,292607.6875,243143.71875,276656.59375,248103.65625,244615.53125,113117.0,1.0,2
231271.71875,272112.90625,319075.28125,292241.28125,242492.203125,276339.5625,247775.796875,244175.65625,113118.0,1.0,2
230438.453125,270811.25,317667.125,291853.71875,240728.03125,275582.4375,247204.21875,243447.96875,113119.0,1.0,2
230340.28125,270869.8125,317821.53125,291980.40625,240285.90625,275426.4375,247170.875,243444.296875,113120.0,1.0,2
231102.125,272195.34375,319311.5,292437.1875,241767.03125,276083.5,247710.0,244152.671875,113121.0,1.0,2
231685.59375,272975.4375,320098.8125,292604.03125,243142.203125,276653.71875,248078.984375,244605.515625,113122.0,1.0,2
231281.921875,272125.34375,319079.3125,292238.53125,242498.109375,276342.0625,247755.515625,244164.921875,113123.0,1.0,2
230443.640625,270817.40625,317667.375,291851.375,240729.1875,275579.5,247188.671875,243446.546875,113124.0,1.0,2
230330.796875,270863.0,317813.125,291978.15625,240272.6875,275423.5625,247162.734375,243443.5,113125.0,1.0,2
231087.015625,272186.78125,319303.71875,292434.9375,241746.203125,276086.0,247704.09375,244150.625,113126.0,1.0,2
231677.1875,272973.71875,320101.125,292603.125,243126.1875,276659.53125,248079.4375,244607.578125,113127.0,1.0,2
231278.515625,272127.125,319088.96875,292240.75,242493.546875,276351.4375,247759.359375,244170.5625,113128.0,1.0,2
230446.578125,270820.8125,317675.15625,291854.59375,240730.0,275597.28125,247206.109375,243456.46875,113129.0,1.0,2
230328.75,270858.8125,317811.34375,291977.53125,240265.4375,275442.78125,247181.96875,243445.734375,113130.0,1.0,2
231086.296875,272179.71875,319294.875,292430.3125,241731.265625,276089.75,247715.984375,244147.40625,113131.0,1.0,2
231675.03125,272969.0,320092.46875,292597.59375,243114.21875,276658.375,248089.71875,244600.6875,113132.0,1.0,2
231275.203125,272126.4375,319085.375,292234.9375,242488.640625,276345.4375,247766.421875,244167.25,113133.0,1.0,2
230434.15625,270809.28125,317666.21875,291843.25,240720.15625,275579.6875,247196.8125,243442.15625,113134.0,1.0,2
230320.4375,270842.28125,317801.6875,291968.6875,240251.9375,275421.96875,247180.265625,243437.421875,113135.0,1.0,2
231086.109375,272169.25,319294.6875,292433.34375,241728.578125,276082.78125,247731.453125,244153.125,113136.0,1.0,2
231675.3125,272965.59375,320098.375,292599.8125,243116.890625,276650.25,248088.546875,244600.421875,113137.0,1.0,2
231285.84375,272134.65625,319102.375,292244.15625,242504.1875,276353.6875,247776.34375,244175.390625,113138.0,1.0,2
230452.046875,270822.15625,317684.46875,291858.28125,240741.703125,275598.625,247217.546875,243468.0,113139.0,1.0,2
230328.390625,270842.625,317800.25,291971.375,240257.03125,275419.625,247168.28125,243445.640625,113140.0,1.0,2
231081.203125,272159.15625,319280.65625,292423.6875,241719.015625,276070.625,247706.15625,244138.109375,113141.0,1.0,2
231674.40625,272964.0625,320095.59375,292596.34375,243120.109375,276651.9375,248087.921875,244598.375,113142.0,1.0,2
231285.046875,272137.0625,319105.9375,292243.625,242519.03125,276364.84375,247781.53125,244182.265625,113143.0,1.0,2
230442.828125,270813.40625,317675.625,291845.9375,240747.34375,275584.59375,247189.828125,243449.21875,113144.0,1.0,2
230315.25,270831.90625,317784.875,291960.65625,240254.796875,275411.3125,247153.265625,243428.484375,113145.0,1.0,2
231074.140625,272158.6875,319271.625,292421.71875,241716.609375,276073.21875,247705.078125,244137.828125,113146.0,1.0,2
231670.5625,272967.21875,320092.46875,292594.71875,243120.46875,276651.40625,248086.40625,244602.84375,113147.0,1.0,2
231285.671875,272142.34375,319103.0,292236.75,242524.125,276354.375,247772.5,244179.765625,113148.0,1.0,2
230436.03125,270812.5,317667.375,291838.875,240752.53125,275583.53125,247196.53125,243450.46875,113149.0,1.0,2
230301.296875,270822.40625,317767.96875,291950.90625,240244.25,275408.71875,247156.921875,243424.453125,113150.0,1.0,2
231067.515625,272150.84375,319254.625,292413.84375,241701.765625,276070.0625,247707.3125,244132.109375,113151.0,1.0,2
231672.09375,272966.40625,320086.28125,292591.84375,243114.921875,276652.28125,248087.203125,244599.625,113152.0,1.0,2
231290.40625,272146.53125,319104.34375,292237.375,242524.390625,276353.9375,247773.21875,244174.765625,113153.0,1.0,2
230449.09375,270820.8125,317675.25,291846.03125,240753.875,275582.1875,247199.21875,243454.234375,113154.0,1.0,2
230315.0625,270825.625,317774.40625,291960.28125,240242.28125,275401.9375,247155.765625,243428.03125,113155.0,1.0,2
231072.796875,272147.25,319256.96875,292418.59375,241687.90625,276054.15625,247694.53125,244124.953125,113156.0,1.0,2
231678.875,272968.53125,320097.65625,292600.09375,243107.515625,276644.4375,248083.90625,244598.640625,113157.0,1.0,2
231299.96875,272152.25,319122.9375,292246.03125,242530.203125,276358.59375,247777.328125,244181.828125,113158.0,1.0,2
230455.890625,270824.5625,317684.46875,291850.21875,240755.921875,275592.1875,247202.796875,243458.609375,113159.0,1.0,2
230324.1875,270827.6875,317775.5625,291965.75,240238.796875,275409.71875,247158.984375,243441.625,113160.0,1.0,2
231079.859375,272144.40625,319254.09375,292422.78125,241680.75,276054.15625,247693.8125,244139.265625,113161.0,1.0,2
231681.65625,272967.03125,320093.90625,292596.96875,243097.671875,276641.375,248073.984375,244593.359375,113162.0,1.0,2
231308.375,272160.5625,319127.3125,292244.96875,242533.609375,276358.6875,247774.828125,244185.3125,113163.0,1.0,2
230459.28125,270822.0625,317682.6875,291843.625,240762.546875,275585.5625,247192.25,243454.859375,113164.0,1.0,2
230310.515625,270803.1875,317753.125,291949.1875,240227.703125,275392.375,247140.125,243414.0,113165.0,1.0,2
231066.796875,272122.75,319232.90625,292410.375,241668.234375,276044.6875,247681.390625,244115.390625,113166.0,1.0,2
231683.078125,272963.8125,320089.15625,292597.75,243103.21875,276640.9375,248077.640625,244596.5,113167.0,1.0,2
231309.546875,272159.875,319128.75,292247.375,242547.90625,276363.59375,247779.296875,244187.359375,113168.0,1.0,2
230463.03125,270826.96875,317686.53125,291848.4375,240782.21875,275600.875,247206.90625,243462.8125,113169.0,1.0,2
230308.625,270805.96875,317751.6875,291948.5625,240240.21875,275406.21875,247152.28125,243420.4375,113170.0,1.0,2
231061.171875,272123.90625,319226.375,292404.0,241673.234375,276044.875,247679.609375,244111.546875,113171.0,1.0,2
231678.34375,272968.28125,320086.125,292590.59375,243109.921875,276636.125,248073.0,244590.765625,113172.0,1.0,2
231310.890625,272169.15625,319130.96875,292240.5,242564.09375,276361.1875,247775.890625,244186.65625,113173.0,1.0,2
230466.078125,270832.34375,317682.6875,291840.9375,240795.984375,275602.75,247209.59375,243462.71875,113174.0,1.0,2
230310.15625,270802.5625,317740.78125,291938.46875,240243.09375,275404.8125,247152.09375,243413.015625,113175.0,1.0,2
231056.703125,272113.71875,319215.46875,292397.3125,241667.96875,276043.4375,247684.96875,244112.171875,113176.0,1.0,2
231672.53125,272960.3125,320084.59375,292589.8125,243109.5625,276637.90625,248079.25,244597.75,113177.0,1.0,2
231311.328125,272175.5,319138.125,292244.25,242573.5625,276364.40625,247781.96875,244196.21875,113178.0,1.0,2
230464.46875,270840.84375,317687.9375,291839.6875,240800.359375,275594.59375,247206.109375,243467.109375,113179.0,1.0,2
230306.03125,270804.28125,317738.90625,291940.09375,240237.28125,275396.84375,247146.296875,243416.765625,113180.0,1.0,2
231052.140625,272114.0,319214.125,292401.34375,241658.671875,276044.59375,247683.625,244108.421875,113181.0,1.0,2
231677.625,272973.375,320088.71875,292593.65625,243106.4375,276644.6875,248081.9375,244593.1875,113182.0,1.0,2
231329.03125,272197.84375,319152.96875,292253.0,242581.4375,276375.59375,247789.21875,244197.828125,113183.0,1.0,2
230482.078125,270853.53125,317699.3125,291850.59375,240812.078125,275605.34375,247215.484375,243472.734375,113184.0,1.0,2
230311.578125,270798.625,317734.8125,291944.28125,240238.265625,275399.96875,247151.296875,243415.96875,113185.0,1.0,2
231056.96875,272105.6875,319205.625,292400.78125,241652.765625,276037.34375,247680.765625,244100.46875,113186.0,1.0,2
231685.046875,272970.15625,320086.21875,292594.09375,243104.921875,276636.8125,248081.75,244594.609375,113187.0,1.0,2
231329.65625,272197.59375,319158.59375,292254.53125,242590.375,276377.8125,247793.421875,244210.875,113188.0,1.0,2
230482.96875,270857.125,317703.96875,291848.25,240820.921875,275603.71875,247210.84375,243482.390625,113189.0,1.0,2
230312.125,270796.21875,317728.90625,291937.59375,240233.796875,275388.0,247139.5,243414.0,113190.0,1.0,2
231045.4375,272091.1875,319192.5,292391.78125,241636.9375,276021.15625,247665.75,244101.53125,113191.0,1.0,2
231677.625,272966.5,320086.46875,292591.3125,243099.640625,276629.9375,248063.96875,244595.78125,113192.0,1.0,2
231336.90625,272203.75,319164.5,292255.875,242595.921875,276372.28125,247779.375,244211.59375,113193.0,1.0,2
230489.140625,270858.71875,317705.28125,291850.84375,240827.546875,275607.40625,247206.640625,243478.1875,113194.0,1.0,2
