FZ,C3,CZ,C4,PZ,PO7,OZ,PO8,Counter,Validation,Label
224903.890625,248802.640625,250861.59375,259435.8125,219322.921875,246297.1875,205605.296875,233609.8125,140421.0,1.0,3
224937.15625,248937.375,251365.234375,259506.359375,219758.703125,246511.234375,205862.34375,233822.0625,140422.0,1.0,3
224958.34375,249113.15625,252016.921875,259570.828125,220365.5,246820.578125,206223.015625,234095.1875,140423.0,1.0,3
224925.53125,249073.09375,251892.1875,259531.75,220287.359375,246781.328125,206172.40625,234041.375,140424.0,1.0,3
224882.703125,248880.25,251187.21875,259438.765625,219656.765625,246461.4375,205793.0625,233741.953125,140425.0,1.0,3
224884.125,248788.609375,250839.421875,259413.28125,219315.5,246284.765625,205595.203125,233598.8125,140426.0,1.0,3
224929.015625,248920.578125,251346.8125,259493.3125,219749.125,246503.453125,205858.765625,233814.1875,140427.0,1.0,3
224958.78125,249101.359375,252008.234375,259571.265625,220355.21875,246816.28125,206219.796875,234092.609375,140428.0,1.0,3
224931.421875,249073.546875,251895.859375,259538.90625,220288.34375,246779.28125,206178.84375,234045.125,140429.0,1.0,3
224881.453125,248878.453125,251183.546875,259436.703125,219654.265625,246454.015625,205796.09375,233738.734375,140430.0,1.0,3
224878.3125,248784.671875,250828.25,259411.140625,219309.609375,246276.09375,205597.53125,233594.25,140431.0,1.0,3
224933.03125,248927.28125,251341.0,259505.90625,219750.296875,246499.078125,205868.34375,233814.453125,140432.0,1.0,3
224962.359375,249106.453125,252004.84375,259584.234375,220361.921875,246810.75,206229.8125,234092.15625,140433.0,1.0,3
224926.953125,249079.453125,251899.171875,259543.015625,220298.453125,246774.453125,206188.0625,234042.890625,140434.0,1.0,3
224876.796875,248887.484375,251195.984375,259446.359375,219668.484375,246454.734375,205812.640625,233747.9375,140435.0,1.0,3
224868.21875,248782.609375,250828.421875,259415.15625,219310.046875,246273.859375,205602.53125,233597.5625,140436.0,1.0,3
224917.203125,248925.484375,251332.765625,259498.84375,219744.296875,246501.21875,205867.53125,233816.0625,140437.0,1.0,3
224954.21875,249113.515625,252003.765625,259582.265625,220362.546875,246822.015625,206236.78125,234098.328125,140438.0,1.0,3
224914.96875,249072.828125,251893.796875,259536.3125,220294.421875,246779.453125,206184.84375,234037.34375,140439.0,1.0,3
224867.59375,248878.734375,251189.28125,259434.125,219664.546875,246460.625,205804.859375,233739.359375,140440.0,1.0,3
224873.84375,248784.21875,250825.125,259407.75,219310.671875,246282.96875,205599.484375,233595.671875,140441.0,1.0,3
224927.5,248921.203125,251323.109375,259496.703125,219739.03125,246501.75,205861.71875,233811.15625,140442.0,1.0,3
224960.84375,249107.796875,251999.296875,259580.296875,220361.296875,246821.5625,206234.015625,234093.9375,140443.0,1.0,3
224933.125,249090.4375,251916.59375,259546.5,220320.078125,246800.015625,206208.796875,234058.625,140444.0,1.0,3
224878.9375,248896.34375,251210.46875,259442.4375,219687.96875,246477.25,205825.953125,233755.8125,140445.0,1.0,3
224870.09375,248785.03125,250825.828125,259403.71875,219315.78125,246284.859375,205607.53125,233595.5,140446.0,1.0,3
224919.71875,248919.859375,251313.453125,259484.546875,219732.859375,246497.203125,205863.953125,233806.953125,140447.0,1.0,3
224961.015625,249112.265625,251997.421875,259576.625,220359.953125,246821.75,206239.109375,234095.734375,140448.0,1.0,3
224934.640625,249091.421875,251917.84375,259552.578125,220323.84375,246798.5,206207.90625,234057.640625,140449.0,1.0,3
224887.078125,248899.296875,251217.53125,259453.34375,219699.859375,246481.109375,205833.46875,233760.015625,140450.0,1.0,3
224883.421875,248793.609375,250834.5,259419.453125,219326.140625,246293.265625,205616.5625,233605.875,140451.0,1.0,3
224926.515625,248919.140625,251311.21875,259495.453125,219732.234375,246496.296875,205858.140625,233806.234375,140452.0,1.0,3
224960.03125,249103.40625,251988.9375,259581.640625,220356.109375,246818.078125,206228.640625,234089.828125,140453.0,1.0,3
224929.28125,249084.640625,251913.46875,259545.25,220318.5625,246798.140625,206201.921875,234048.34375,140454.0,1.0,3
224873.046875,248888.109375,251204.921875,259436.796875,219684.9375,246470.015625,205813.625,233740.25,140455.0,1.0,3
224870.265625,248788.703125,250818.0625,259409.0,219312.28125,246281.90625,205597.609375,233588.96875,140456.0,1.0,3
224921.140625,248923.171875,251298.265625,259496.078125,219724.90625,246491.390625,205852.953125,233799.796875,140457.0,1.0,3
224952.34375,249106.453125,251977.3125,259570.1875,220347.796875,246810.5625,206222.65625,234083.9375,140458.0,1.0,3
224924.453125,249086.875,251917.40625,259535.765625,220321.875,246799.921875,206202.71875,234052.90625,140459.0,1.0,3
224875.375,248895.53125,251222.53125,259434.828125,219701.921875,246484.671875,205826.859375,233757.5,140460.0,1.0,3
224876.265625,248788.609375,250828.34375,259407.5625,219321.765625,246289.328125,205603.515625,233597.90625,140461.0,1.0,3
224925.4375,248909.84375,251295.84375,259489.109375,219719.625,246489.953125,205842.046875,233796.125,140462.0,1.0,3
224961.734375,249095.984375,251984.453125,259570.546875,220350.484375,246814.40625,206217.109375,234084.828125,140463.0,1.0,3
224932.671875,249082.671875,251931.890625,259537.03125,220332.421875,246804.9375,206204.515625,234056.390625,140464.0,1.0,3
224880.546875,248893.65625,251232.28125,259435.8125,219706.21875,246485.578125,205828.8125,233755.09375,140465.0,1.0,3
224881.453125,248793.53125,250831.5625,259404.171875,219316.75,246288.875,205601.375,233590.140625,140466.0,1.0,3
224925.96875,248919.234375,251294.5,259481.953125,219710.59375,246488.171875,205842.046875,233789.515625,140467.0,1.0,3
224958.421875,249106.71875,251978.921875,259567.515625,220339.390625,246810.125,206218.09375,234079.1875,140468.0,1.0,3
224918.109375,249080.96875,251921.15625,259529.15625,220320.078125,246795.1875,206200.03125,234050.40625,140469.0,1.0,3
224865.71875,248889.90625,251224.59375,259431.171875,219701.46875,246479.3125,205825.953125,233753.296875,140470.0,1.0,3
224865.890625,248786.46875,250816.796875,259403.984375,219309.421875,246278.953125,205600.03125,233589.6875,140471.0,1.0,3
224916.046875,248908.5,251274.203125,259487.40625,219696.828125,246469.390625,205834.8125,233786.734375,140472.0,1.0,3
224950.015625,249092.5,251962.5625,259567.609375,220323.84375,246786.0625,206206.5625,234071.328125,140473.0,1.0,3
224930.984375,249079.625,251936.359375,259545.421875,220331.4375,246793.21875,206212.5625,234060.234375,140474.0,1.0,3
224880.734375,248883.375,251244.265625,259441.984375,219713.1875,246479.3125,205836.59375,233761.171875,140475.0,1.0,3
224869.375,248765.546875,250819.75,259396.75,219303.703125,246261.96875,205592.515625,233583.609375,140476.0,1.0,3
224918.015625,248895.359375,251272.0625,259475.421875,219693.078125,246457.765625,205829.171875,233781.734375,140477.0,1.0,3
224959.40625,249094.640625,251970.6875,259563.21875,220334.65625,246789.90625,206212.828125,234074.71875,140478.0,1.0,3
224937.234375,249091.703125,251947.625,259536.3125,220344.484375,246795.640625,206214.34375,234058.0,140479.0,1.0,3
224881.359375,248900.984375,251254.984375,259432.515625,219725.96875,246478.6875,205839.90625,233756.796875,140480.0,1.0,3
224878.9375,248789.59375,250830.75,259399.96875,219322.75,246270.453125,205602.796875,233586.375,140481.0,1.0,3
224921.953125,248906.171875,251271.890625,259477.296875,219696.375,246458.484375,205826.671875,233779.5,140482.0,1.0,3
224963.875,249098.9375,251974.890625,259574.21875,220336.984375,246792.15625,206213.0,234083.21875,140483.0,1.0,3
224936.078125,249090.796875,251955.484375,259553.296875,220348.6875,246794.109375,206217.390625,234069.359375,140484.0,1.0,3
224881.453125,248903.9375,251261.6875,259448.78125,219729.1875,246478.78125,205843.03125,233773.0625,140485.0,1.0,3
224874.75,248783.515625,250825.390625,259409.796875,219312.375,246266.96875,205597.53125,233596.75,140486.0,1.0,3
224918.015625,248897.6875,251260.4375,259482.125,219680.015625,246450.875,205821.9375,233787.09375,140487.0,1.0,3
224959.234375,249087.21875,251960.046875,259571.171875,220320.34375,246784.734375,206206.125,234085.09375,140488.0,1.0,3
224925.4375,249074.265625,251943.15625,259541.40625,220341.984375,246793.9375,206216.84375,234076.515625,140489.0,1.0,3
224875.1875,248887.40625,251257.3125,259440.015625,219727.40625,246484.140625,205850.453125,233786.109375,140490.0,1.0,3
224870.8125,248772.421875,250816.984375,259401.578125,219307.28125,246271.171875,205603.328125,233605.875,140491.0,1.0,3
224919.984375,248895.8125,251248.90625,259477.484375,219675.90625,246457.140625,205826.859375,233791.21875,140492.0,1.0,3
224961.640625,249091.703125,251954.15625,259566.0,220319.28125,246788.484375,206210.671875,234083.390625,140493.0,1.0,3
224940.1875,249094.375,251958.171875,259546.5,220354.5,246809.671875,206230.34375,234074.90625,140494.0,1.0,3
224896.109375,248915.65625,251281.359375,259452.796875,219751.09375,246503.1875,205868.15625,233787.640625,140495.0,1.0,3
224889.21875,248797.28125,250836.46875,259412.921875,219324.265625,246281.71875,205612.71875,233604.625,140496.0,1.0,3
224940.8125,248915.5625,251265.625,259494.734375,219684.40625,246463.3125,205831.6875,233791.125,140497.0,1.0,3
224978.8125,249106.453125,251967.65625,259579.140625,220324.375,246791.4375,206213.359375,234082.140625,140498.0,1.0,3
224942.78125,249100.015625,251962.46875,259541.140625,220353.15625,246802.25,206225.515625,234070.078125,140499.0,1.0,3
224886.984375,248907.515625,251276.265625,259435.546875,219744.296875,246491.734375,205853.765625,233774.9375,140500.0,1.0,3
224891.109375,248796.296875,250834.6875,259407.75,219325.703125,246281.640625,205610.9375,233603.28125,140501.0,1.0,3
224934.5625,248909.125,251251.046875,259481.40625,219681.09375,246457.765625,205827.84375,233786.46875,140502.0,1.0,3
224963.4375,249095.0,251944.859375,259555.625,220314.265625,246780.078125,206204.328125,234069.796875,140503.0,1.0,3
224933.9375,249093.03125,251953.25,259533.53125,220354.5,246796.890625,206221.046875,234066.671875,140504.0,1.0,3
224881.71875,248905.8125,251276.53125,259436.703125,219757.09375,246492.1875,205860.203125,233780.296875,140505.0,1.0,3
224869.28125,248778.0625,250815.109375,259392.8125,219317.390625,246267.0625,205600.390625,233591.65625,140506.0,1.0,3
224919.890625,248893.65625,251231.828125,259474.0,219666.25,246441.671875,205812.734375,233772.609375,140507.0,1.0,3
224964.859375,249092.40625,251944.046875,259568.40625,220313.203125,246774.359375,206200.75,234072.3125,140508.0,1.0,3
224935.71875,249093.484375,251964.4375,259540.515625,220361.921875,246800.90625,206226.40625,234074.453125,140509.0,1.0,3
224887.078125,248907.78125,251291.015625,259440.734375,219762.546875,246498.0,205865.390625,233788.796875,140510.0,1.0,3
224877.609375,248781.359375,250827.984375,259399.875,219319.625,246275.109375,205605.125,233599.25,140511.0,1.0,3
224931.34375,248901.265625,251240.140625,259485.890625,219669.203125,246455.4375,205820.140625,233784.0625,140512.0,1.0,3
224968.0,249095.09375,251944.859375,259573.59375,220310.78125,246786.25,206205.578125,234080.078125,140513.0,1.0,3
224946.890625,249106.1875,251979.1875,259552.40625,220374.265625,246824.25,206240.265625,234090.09375,140514.0,1.0,3
224896.640625,248925.484375,251310.59375,259455.125,219778.984375,246523.578125,205879.421875,233804.09375,140515.0,1.0,3
224884.125,248796.75,250836.46875,259406.484375,219324.890625,246290.671875,205611.5625,233604.265625,140516.0,1.0,3
224936.609375,248910.296875,251242.375,259487.3125,219665.796875,246466.0,205825.6875,233785.40625,140517.0,1.0,3
224965.40625,249094.203125,251939.75,259565.09375,220300.6875,246788.390625,206203.703125,234072.21875,140518.0,1.0,3
224929.453125,249090.890625,251970.953125,259536.9375,220359.15625,246813.34375,206232.671875,234075.34375,140519.0,1.0,3
224885.296875,248912.96875,251311.046875,259448.953125,219776.9375,246520.703125,205880.765625,233799.796875,140520.0,1.0,3
224870.890625,248780.5625,250827.359375,259398.53125,219320.515625,246285.21875,205605.65625,233598.0,140521.0,1.0,3
224909.171875,248883.46875,251210.640625,259457.28125,219644.078125,246446.6875,205804.59375,233763.859375,140522.0,1.0,3
224946.984375,249074.265625,251915.265625,259547.84375,220286.5625,246777.125,206188.0625,234055.5,140523.0,1.0,3
224929.546875,249091.515625,251967.921875,259538.984375,220367.46875,246817.71875,206231.59375,234073.203125,140524.0,1.0,3
224880.640625,248910.015625,251302.546875,259441.625,219778.09375,246515.53125,205869.953125,233786.5625,140525.0,1.0,3
224869.921875,248774.84375,250816.453125,259395.140625,219315.59375,246277.078125,205592.96875,233583.609375,140526.0,1.0,3
224917.125,248881.140625,251198.21875,259468.984375,219632.625,246438.546875,205787.6875,233752.671875,140527.0,1.0,3
224956.640625,249078.28125,251913.375,259559.5625,220284.3125,246774.71875,206179.46875,234058.0,140528.0,1.0,3
224930.890625,249091.78125,251970.875,259541.3125,220371.84375,246814.046875,206223.375,234077.671875,140529.0,1.0,3
224881.359375,248909.75,251309.53125,259448.0625,219784.171875,246512.125,205866.90625,233797.375,140530.0,1.0,3
224877.609375,248786.375,250826.109375,259405.59375,219322.296875,246280.296875,205599.21875,233597.90625,140531.0,1.0,3
224925.53125,248888.109375,251204.03125,259474.265625,219636.203125,246445.078125,205795.828125,233763.40625,140532.0,1.0,3
224960.3125,249071.40625,251908.109375,259555.703125,220275.921875,246769.53125,206173.3125,234053.796875,140533.0,1.0,3
224933.578125,249087.21875,251971.578125,259535.59375,220367.015625,246812.09375,206218.90625,234072.03125,140534.0,1.0,3
224883.765625,248909.578125,251315.6875,259440.828125,219784.0,246518.5625,205865.484375,233789.953125,140535.0,1.0,3
224875.375,248780.109375,250822.609375,259395.046875,219314.34375,246278.78125,205589.484375,233588.609375,140536.0,1.0,3
224921.40625,248881.046875,251193.921875,259467.5625,219626.015625,246436.046875,205781.4375,233754.734375,140537.0,1.0,3
224969.6875,249082.484375,251913.375,259560.8125,220280.390625,246773.90625,206175.0,234057.015625,140538.0,1.0,3
224944.296875,249099.203125,251985.890625,259542.125,220373.734375,246819.234375,206227.3125,234079.375,140539.0,1.0,3
224893.515625,248924.140625,251329.546875,259441.984375,219793.921875,246522.59375,205876.75,233800.0625,140540.0,1.0,3
224874.203125,248778.765625,250817.703125,259390.3125,219309.25,246271.0,205589.5625,233588.609375,140541.0,1.0,3
224912.921875,248871.75,251174.515625,259460.5,219607.0625,246419.765625,205772.3125,233743.921875,140542.0,1.0,3
224950.828125,249067.828125,251888.796875,259549.359375,220259.375,246754.59375,206161.0625,234044.046875,140543.0,1.0,3
224935.984375,249092.5,251975.34375,259541.40625,220369.171875,246805.5625,206219.078125,234075.609375,140544.0,1.0,3
224888.78125,248915.390625,251325.34375,259448.515625,219792.140625,246512.125,205868.15625,233796.046875,140545.0,1.0,3
224880.546875,248783.515625,250819.9375,259402.375,219316.578125,246270.28125,205585.8125,233589.0625,140546.0,1.0,3
224921.234375,248880.0625,251170.140625,259466.296875,219607.953125,246414.84375,205765.34375,233737.484375,140547.0,1.0,3
224961.015625,249074.984375,251890.578125,259561.078125,220262.234375,246750.578125,206158.46875,234038.78125,140548.0,1.0,3
224936.25,249095.8125,251979.09375,259539.171875,220374.796875,246805.46875,206220.875,234065.953125,140549.0,1.0,3
224877.421875,248912.96875,251322.125,259438.3125,219797.671875,246508.546875,205869.765625,233782.265625,140550.0,1.0,3
224861.6875,248774.296875,250807.421875,259388.078125,219310.953125,246260.890625,205583.046875,233571.09375,140551.0,1.0,3
224906.484375,248867.203125,251151.453125,259455.75,219593.203125,246402.515625,205755.328125,233721.109375,140552.0,1.0,3
224950.921875,249063.796875,251872.34375,259550.609375,220247.484375,246742.171875,206146.578125,234026.265625,140553.0,1.0,3
224929.640625,249091.609375,251974.09375,259533.625,220370.421875,246800.109375,206215.78125,234063.1875,140554.0,1.0,3
224883.421875,248915.125,251331.4375,259439.578125,219804.390625,246514.625,205873.34375,233792.828125,140555.0,1.0,3
224868.3125,248770.8125,250810.8125,259387.171875,219311.75,246263.75,205584.03125,233575.828125,140556.0,1.0,3
224911.046875,248862.8125,251147.515625,259453.15625,219588.828125,246406.8125,205758.015625,233721.75,140557.0,1.0,3
224948.765625,249058.4375,251864.828125,259540.59375,220239.703125,246740.296875,206146.03125,234022.859375,140558.0,1.0,3
224924.1875,249083.921875,251972.484375,259527.09375,220367.46875,246803.859375,206218.015625,234062.46875,140559.0,1.0,3
224874.03125,248908.859375,251332.6875,259436.984375,219804.921875,246523.484375,205883.359375,233796.21875,140560.0,1.0,3
224857.9375,248772.15625,250808.9375,259385.75,219312.90625,246274.484375,205594.390625,233584.40625,140561.0,1.0,3
224892.796875,248858.078125,251131.15625,259443.953125,219576.75,246405.203125,205752.828125,233720.140625,140562.0,1.0,3
224928.828125,249048.609375,251848.203125,259533.0,220226.03125,246735.90625,206144.0625,234019.28125,140563.0,1.0,3
224914.890625,249083.921875,251974.09375,259529.609375,220369.96875,246804.75,206230.4375,234068.1875,140564.0,1.0,3
224867.140625,248910.921875,251338.5,259435.453125,219807.25,246519.28125,205888.640625,233794.078125,140565.0,1.0,3
224861.0625,248771.984375,250815.828125,259383.953125,219314.4375,246271.625,205597.25,233579.3125,140566.0,1.0,3
224900.671875,248854.59375,251136.703125,259444.578125,219575.140625,246397.5,205754.171875,233714.859375,140567.0,1.0,3
224940.640625,249046.8125,251856.15625,259536.484375,220224.859375,246731.359375,206140.578125,234010.4375,140568.0,1.0,3
224928.390625,249086.6875,251988.578125,259529.609375,220375.609375,246805.65625,206227.578125,234060.234375,140569.0,1.0,3
224875.453125,248912.875,251349.484375,259430.71875,219814.484375,246521.328125,205885.5,233789.953125,140570.0,1.0,3
224859.625,248775.015625,250814.390625,259380.46875,219315.0625,246270.546875,205592.34375,233573.78125,140571.0,1.0,3
224902.453125,248864.609375,251132.671875,259442.515625,219576.75,246404.84375,205754.4375,233716.28125,140572.0,1.0,3
224955.03125,249075.25,251864.203125,259544.796875,220240.0625,246747.984375,206155.421875,234029.75,140573.0,1.0,3
224928.65625,249101.53125,251991.25,259528.625,220386.0625,246822.90625,206234.1875,234070.078125,140574.0,1.0,3
224868.65625,248916.1875,251349.3125,259424.1875,219819.21875,246527.0625,205887.296875,233789.0625,140575.0,1.0,3
224853.203125,248763.9375,250807.0625,259365.359375,219306.65625,246264.015625,205584.03125,233561.25,140576.0,1.0,3
224902.734375,248852.984375,251122.484375,259438.140625,219565.578125,246396.25,205743.96875,233700.546875,140577.0,1.0,3
224950.734375,249052.53125,251850.4375,259537.921875,220225.046875,246732.421875,206138.34375,234009.09375,140578.0,1.0,3
224953.59375,249106.0,252014.671875,259551.328125,220404.578125,246825.765625,206245.1875,234078.921875,140579.0,1.0,3
224891.734375,248924.59375,251377.390625,259447.703125,219843.28125,246528.84375,205896.234375,233797.46875,140580.0,1.0,3
224864.015625,248767.953125,250816.453125,259384.234375,219317.734375,246254.640625,205577.234375,233560.0,140581.0,1.0,3
224912.828125,248858.078125,251124.359375,259452.265625,219572.1875,246388.296875,205738.078125,233700.28125,140582.0,1.0,3
224951.453125,249057.984375,251848.203125,259538.09375,220229.328125,246725.8125,206132.09375,234002.65625,140583.0,1.0,3
224935.453125,249102.875,252005.296875,259536.046875,220404.578125,246813.15625,206234.546875,234067.296875,140584.0,1.0,3
224884.3125,248934.78125,251379.0,259441.09375,219856.59375,246537.875,205902.3125,233802.296875,140585.0,1.0,3
224870.09375,248790.84375,250828.703125,259394.234375,219342.15625,246281.28125,205598.59375,233578.953125,140586.0,1.0,3
224906.484375,248867.375,251116.140625,259455.21875,219572.640625,246398.046875,205741.203125,233703.859375,140587.0,1.0,3
224941.984375,249060.21875,251834.53125,259539.890625,220224.328125,246732.78125,206131.734375,234007.671875,140588.0,1.0,3
224924.09375,249094.203125,251991.96875,259534.4375,220398.671875,246823.265625,206236.875,234071.328125,140589.0,1.0,3
224876.796875,248923.34375,251373.265625,259444.40625,219856.0625,246550.84375,205909.46875,233809.71875,140590.0,1.0,3
224850.78125,248762.859375,250807.953125,259377.4375,219324.796875,246273.859375,205586.96875,233570.203125,140591.0,1.0,3
224892.265625,248843.5,251091.640625,259435.09375,219555.46875,246391.15625,205731.8125,233696.34375,140592.0,1.0,3
224942.421875,249052.265625,251822.359375,259536.125,220216.8125,246736.53125,206132.265625,234010.078125,140593.0,1.0,3
224912.828125,249087.765625,251981.421875,259517.796875,220391.15625,246822.71875,206226.40625,234066.859375,140594.0,1.0,3
224863.03125,248924.5,251367.109375,259422.046875,219851.671875,246548.0625,205898.734375,233804.984375,140595.0,1.0,3
224850.25,248771.53125,250811.890625,259370.1875,219329.28125,246277.34375,205591.71875,233580.296875,140596.0,1.0,3
224901.5625,248852.0,251100.765625,259436.53125,219558.96875,246397.234375,205739.765625,233713.25,140597.0,1.0,3
224954.046875,249057.90625,251836.3125,259541.3125,220223.875,246744.40625,206145.046875,234032.34375,140598.0,1.0,3
224935.453125,249103.59375,252010.390625,259543.640625,220412.625,246837.390625,206254.125,234101.71875,140599.0,1.0,3
224875.015625,248923.703125,251387.75,259448.421875,219865.53125,246558.171875,205922.78125,233835.921875,140600.0,1.0,3
224854.359375,248762.234375,250811.96875,259382.078125,219327.046875,246280.5625,205603.0625,233595.59375,140601.0,1.0,3
224897.359375,248842.78125,251085.921875,259439.84375,219546.625,246393.390625,205742.71875,233720.84375,140602.0,1.0,3
224955.203125,249053.34375,251825.140625,259551.953125,220216.375,246743.78125,206150.5,234041.546875,140603.0,1.0,3
224927.765625,249084.546875,251995.1875,259537.203125,220401.078125,246828.890625,206248.765625,234098.5,140604.0,1.0,3
224873.84375,248918.0625,251383.203125,259435.1875,219864.90625,246555.21875,205921.171875,233834.9375,140605.0,1.0,3
224856.0625,248771.984375,250816.09375,259376.890625,219335.359375,246291.734375,205608.875,233602.828125,140606.0,1.0,3
224900.046875,248854.328125,251088.421875,259438.046875,219554.046875,246405.375,205748.71875,233726.84375,140607.0,1.0,3
224938.40625,249051.46875,251810.828125,259528.703125,220209.484375,246740.734375,206141.03125,234030.015625,140608.0,1.0,3
224920.078125,249100.8125,252001.171875,259529.328125,220414.765625,246843.640625,206257.796875,234103.328125,140609.0,1.0,3
224872.78125,248937.734375,251399.828125,259437.96875,219890.75,246578.375,205941.65625,233849.765625,140610.0,1.0,3
224853.734375,248784.578125,250821.625,259372.34375,219349.75,246302.109375,205618.890625,233609.8125,140611.0,1.0,3
224895.9375,248850.390625,251078.140625,259432.859375,219549.03125,246403.046875,205741.640625,233723.265625,140612.0,1.0,3
224949.21875,249052.265625,251810.203125,259529.0625,220208.40625,246744.859375,206140.40625,234032.96875,140613.0,1.0,3
224937.78125,249111.28125,252018.703125,259539.625,220429.15625,246855.625,206271.296875,234115.578125,140614.0,1.0,3
224882.515625,248946.234375,251413.859375,259443.59375,219903.796875,246591.25,205950.5,233854.0625,140615.0,1.0,3
224865.359375,248792.546875,250832.625,259377.96875,219359.578125,246316.6875,205629.625,233616.953125,140616.0,1.0,3
224905.859375,248866.75,251085.03125,259439.921875,219558.328125,246420.03125,205757.5625,233733.8125,140617.0,1.0,3
224938.40625,249056.375,251803.59375,259529.0625,220205.375,246748.78125,206141.46875,234028.859375,140618.0,1.0,3
224918.46875,249110.46875,252013.609375,259529.96875,220427.1875,246858.75,206269.328125,234111.375,140619.0,1.0,3
224865.53125,248947.75,251414.125,259439.03125,219908.625,246592.5,205954.703125,233857.734375,140620.0,1.0,3
224839.96875,248782.171875,250817.96875,259371.984375,219356.28125,246307.203125,205623.8125,233607.5625,140621.0,1.0,3
224885.03125,248849.765625,251060.171875,259430.09375,219546.53125,246401.4375,205743.4375,233719.59375,140622.0,1.0,3
224926.515625,249039.390625,251779.265625,259520.65625,220188.921875,246723.3125,206125.296875,234016.96875,140623.0,1.0,3
224913.359375,249096.796875,252001.0,259526.65625,220415.5625,246835.25,206258.953125,234100.734375,140624.0,1.0,3
224864.90625,248932.640625,251410.46875,259436.625,219899.6875,246572.203125,205944.0625,233846.734375,140625.0,1.0,3
224854.8125,248778.421875,250824.671875,259374.484375,219351.890625,246301.390625,205615.578125,233604.703125,140626.0,1.0,3
224896.5625,248844.21875,251056.0625,259428.03125,219531.78125,246389.1875,205726.625,233702.96875,140627.0,1.0,3
224947.78125,249046.453125,251784.453125,259526.5625,220186.953125,246729.828125,206123.0625,234008.375,140628.0,1.0,3
224933.484375,249106.984375,252011.015625,259531.125,220423.609375,246851.421875,206260.828125,234098.859375,140629.0,1.0,3
224877.25,248946.234375,251419.859375,259434.75,219912.828125,246591.078125,205949.78125,233844.859375,140630.0,1.0,3
224863.5625,248795.578125,250836.03125,259382.53125,219369.421875,246322.578125,205631.859375,233607.03125,140631.0,1.0,3
224903.0,248860.125,251066.515625,259440.5625,219546.984375,246412.265625,205747.640625,233713.0625,140632.0,1.0,3
224942.15625,249050.296875,251787.5,259532.46875,220188.828125,246736.8125,206131.375,234011.421875,140633.0,1.0,3
224927.84375,249107.796875,252022.546875,259537.203125,220426.03125,246850.53125,206270.046875,234103.15625,140634.0,1.0,3
224884.3125,248956.25,251446.140625,259452.625,219925.34375,246598.046875,205969.90625,233861.03125,140635.0,1.0,3
224864.453125,248796.203125,250843.171875,259389.859375,219365.9375,246313.90625,205636.859375,233613.921875,140636.0,1.0,3
224897.8125,248856.28125,251050.515625,259437.515625,219526.15625,246393.65625,205737.890625,233709.9375,140637.0,1.0,3
224938.671875,249051.546875,251763.265625,259520.75,220170.59375,246718.828125,206122.875,234007.671875,140638.0,1.0,3
224925.796875,249112.53125,252005.921875,259523.171875,220422.0,246845.4375,206269.328125,234100.921875,140639.0,1.0,3
224877.6875,248957.765625,251431.125,259433.21875,219924.90625,246594.015625,205967.125,233856.125,140640.0,1.0,3
224856.6875,248789.328125,250822.609375,259365.90625,219356.8125,246301.75,205621.484375,233595.671875,140641.0,1.0,3
224891.28125,248843.765625,251028.96875,259413.28125,219507.640625,246375.78125,205715.265625,233681.515625,140642.0,1.0,3
224941.078125,249045.46875,251761.484375,259511.453125,220163.703125,246715.96875,206112.6875,233989.34375,140643.0,1.0,3
224941.53125,249114.234375,252024.0625,259534.515625,220430.046875,246854.46875,206270.484375,234095.828125,140644.0,1.0,3
224894.328125,248958.921875,251456.6875,259452.453125,219936.609375,246608.328125,205969.8125,233850.75,140645.0,1.0,3
224867.046875,248792.890625,250844.25,259377.078125,219367.71875,246313.46875,205624.703125,233588.890625,140646.0,1.0,3
224899.15625,248840.28125,251038.171875,259427.328125,219513.453125,246381.5,205717.953125,233679.625,140647.0,1.0,3
224936.609375,249031.171875,251753.34375,259516.734375,220158.703125,246712.671875,206105.984375,233986.921875,140648.0,1.0,3
224922.390625,249100.09375,252011.109375,259525.84375,220421.828125,246846.328125,206257.96875,234090.8125,140649.0,1.0,3
224871.078125,248943.109375,251438.0,259433.765625,219923.390625,246592.140625,205953.0,233849.140625,140650.0,1.0,3
224853.015625,248783.875,250832.71875,259370.28125,219362.359375,246311.3125,205625.15625,233606.3125,140651.0,1.0,3
224888.328125,248835.359375,251021.1875,259414.8125,219502.640625,246380.875,205715.0,233691.796875,140652.0,1.0,3
224937.0625,249030.90625,251743.59375,259512.703125,220152.53125,246714.453125,206103.125,233995.15625,140653.0,1.0,3
224937.234375,249111.90625,252021.203125,259531.75,220432.5625,246860.8125,206267.984375,234110.75,140654.0,1.0,3
224884.046875,248953.296875,251455.4375,259437.421875,219940.8125,246610.46875,205969.90625,233868.640625,140655.0,1.0,3
224860.171875,248781.453125,250839.15625,259376.0,219367.625,246315.4375,205624.703125,233611.328125,140656.0,1.0,3
224898.53125,248836.96875,251026.015625,259432.328125,219506.203125,246385.34375,205711.078125,233692.859375,140657.0,1.0,3
224942.421875,249034.125,251748.6875,259529.0625,220153.078125,246718.03125,206101.328125,233994.078125,140658.0,1.0,3
224935.359375,249115.03125,252031.484375,259541.9375,220435.78125,246867.078125,206273.171875,234111.109375,140659.0,1.0,3
224880.203125,248960.0,251466.609375,259445.03125,219947.078125,246616.828125,205978.390625,233865.0625,140660.0,1.0,3
224858.03125,248797.8125,250845.6875,259377.34375,219371.46875,246324.734375,205639.71875,233607.390625,140661.0,1.0,3
224898.34375,248851.734375,251022.4375,259424.734375,219501.296875,246390.53125,205723.234375,233689.46875,140662.0,1.0,3
224943.765625,249047.53125,251741.984375,259515.296875,220145.296875,246721.703125,206107.0625,233990.859375,140663.0,1.0,3
224932.59375,249116.28125,252023.171875,259525.765625,220427.453125,246860.09375,206270.40625,234105.921875,140664.0,1.0,3
224876.984375,248957.59375,251464.734375,259435.453125,219946.8125,246615.484375,205978.3125,233871.765625,140665.0,1.0,3
224861.515625,248793.078125,250849.4375,259377.96875,219377.734375,246333.140625,205641.609375,233621.15625,140666.0,1.0,3
224886.546875,248827.859375,251006.609375,259415.78125,219486.1875,246376.765625,205705.796875,233685.53125,140667.0,1.0,3
224935.265625,249021.515625,251729.03125,259517.796875,220131.515625,246701.21875,206091.40625,233991.84375,140668.0,1.0,3
224938.3125,249103.765625,252032.109375,259544.796875,220433.453125,246853.75,206269.15625,234117.71875,140669.0,1.0,3
224890.125,248958.65625,251490.125,259458.34375,219962.1875,246615.21875,205986.4375,233886.25,140670.0,1.0,3
224857.21875,248782.796875,250855.78125,259378.5,219371.390625,246311.9375,205634.53125,233613.921875,140671.0,1.0,3
224902.546875,248838.046875,251022.078125,259432.6875,219490.390625,246379.796875,205717.6875,233696.53125,140672.0,1.0,3
224952.265625,249038.234375,251740.828125,259530.859375,220135.1875,246710.515625,206110.0,234003.109375,140673.0,1.0,3
224930.796875,249106.71875,252022.71875,259525.140625,220420.84375,246846.234375,206274.15625,234110.484375,140674.0,1.0,3
224883.6875,248965.28125,251480.390625,259433.671875,219954.671875,246608.5,205991.71875,233880.265625,140675.0,1.0,3
224854.890625,248790.390625,250840.5,259355.703125,219365.21875,246305.234375,205636.421875,233610.875,140676.0,1.0,3
224884.21875,248823.5625,250979.703125,259395.046875,219468.125,246355.84375,205699.984375,233671.046875,140677.0,1.0,3
224930.359375,249021.78125,251694.515625,259492.953125,220110.515625,246687.984375,206087.03125,233970.296875,140678.0,1.0,3
224928.65625,249108.234375,252010.65625,259512.265625,220423.34375,246846.59375,206272.90625,234096.453125,140679.0,1.0,3
224890.65625,248971.4375,251489.5,259441.8125,219970.5,246623.890625,206001.28125,233875.515625,140680.0,1.0,3
224871.4375,248802.828125,250862.671875,259380.921875,219385.0625,246327.5,205650.0,233613.5625,140681.0,1.0,3
224911.484375,248847.171875,251011.078125,259436.359375,219490.125,246381.859375,205719.5625,233684.1875,140682.0,1.0,3
224954.765625,249041.453125,251725.09375,259530.40625,220128.578125,246705.953125,206099.28125,233978.703125,140683.0,1.0,3
224949.84375,249123.34375,252043.5625,259548.734375,220441.9375,246858.3125,206280.859375,234103.875,140684.0,1.0,3
224896.015625,248974.65625,251506.125,259453.875,219977.390625,246615.296875,205995.296875,233870.875,140685.0,1.0,3
224872.421875,248803.71875,250867.046875,259380.734375,219387.5625,246317.671875,205643.390625,233604.890625,140686.0,1.0,3
224902.09375,248837.15625,250994.1875,259414.625,219473.671875,246358.4375,205699.71875,233664.875,140687.0,1.0,3
224942.421875,249029.109375,251702.5625,259502.78125,220105.5,246678.875,206074.0625,233962.0625,140688.0,1.0,3
224934.375,249116.46875,252031.9375,259518.609375,220431.3125,246847.671875,206264.953125,234097.515625,140689.0,1.0,3
224885.921875,248980.109375,251510.0625,259429.921875,219983.015625,246620.75,205993.234375,233873.828125,140690.0,1.0,3
224848.8125,248800.5,250859.265625,259345.0625,219381.484375,246312.921875,205631.953125,233599.34375,140691.0,1.0,3
224893.34375,248842.34375,250991.6875,259399.0625,219469.828125,246360.9375,205692.921875,233666.578125,140692.0,1.0,3
224946.265625,249039.65625,251707.296875,259508.0625,220107.109375,246686.015625,206078.53125,233972.625,140693.0,1.0,3
224943.859375,249130.59375,252043.109375,259539.34375,220437.921875,246854.734375,206277.203125,234110.484375,140694.0,1.0,3
224885.375,248980.03125,251511.046875,259443.5,219981.59375,246621.65625,205995.5625,233878.203125,140695.0,1.0,3
224857.75,248800.9375,250860.34375,259366.890625,219382.734375,246319.1875,205639.09375,233608.640625,140696.0,1.0,3
224886.90625,248827.046875,250970.234375,259404.171875,219451.578125,246351.375,205683.890625,233658.265625,140697.0,1.0,3
224938.3125,249025.625,251687.890625,259506.09375,220088.78125,246672.875,206069.421875,233960.375,140698.0,1.0,3
224951.546875,249129.96875,252052.046875,259544.796875,220436.578125,246852.5,206277.46875,234108.0625,140699.0,1.0,3
224905.234375,248990.125,251545.375,259459.59375,219993.65625,246625.9375,206005.75,233884.375,140700.0,1.0,3
224870.09375,248805.234375,250889.765625,259378.59375,219386.40625,246312.84375,205636.234375,233605.0625,140701.0,1.0,3
224902.015625,248839.65625,250998.390625,259414.453125,219459.09375,246349.5,205687.46875,233663.359375,140702.0,1.0,3
224953.234375,249039.84375,251707.125,259510.734375,220095.3125,246675.390625,206070.484375,233962.96875,140703.0,1.0,3
224951.8125,249138.90625,252059.375,259534.078125,220442.65625,246855.890625,206277.375,234108.875,140704.0,1.0,3
224882.96875,248981.28125,251532.0625,259435.453125,219987.84375,246626.203125,205998.96875,233876.953125,140705.0,1.0,3
224845.859375,248799.421875,250866.515625,259355.171875,219377.109375,246317.671875,205637.3125,233605.0625,140706.0,1.0,3
224872.421875,248820.609375,250951.0,259390.046875,219428.78125,246341.984375,205673.4375,233650.75,140707.0,1.0,3
224917.03125,249005.0625,251649.0,259486.515625,220055.890625,246658.578125,206048.046875,233947.40625,140708.0,1.0,3
224918.90625,249105.828125,252007.796875,259514.21875,220412.4375,246841.328125,206259.140625,234098.5,140709.0,1.0,3
224869.734375,248971.0,251507.5625,259429.46875,219982.21875,246624.515625,205999.234375,233885.359375,140710.0,1.0,3
224844.171875,248790.390625,250855.421875,259357.859375,219374.421875,246316.421875,205635.875,233610.96875,140711.0,1.0,3
224877.0625,248814.984375,250947.15625,259396.390625,219421.359375,246336.796875,205667.796875,233650.03125,140712.0,1.0,3
224928.921875,249009.796875,251657.9375,259498.671875,220057.5,246658.9375,206050.375,233952.40625,140713.0,1.0,3
224924.546875,249105.640625,252023.265625,259518.34375,220413.15625,246833.359375,206255.65625,234099.3125,140714.0,1.0,3
224886.09375,248980.46875,251536.703125,259444.046875,219998.21875,246624.25,206006.46875,233894.828125,140715.0,1.0,3
224851.671875,248794.0625,250869.109375,259362.59375,219386.671875,246311.59375,205635.875,233613.734375,140716.0,1.0,3
224877.15625,248809.4375,250941.703125,259395.578125,219426.734375,246327.671875,205662.078125,233652.90625,140717.0,1.0,3
224927.046875,248998.53125,251650.078125,259499.296875,220057.5,246655.0,206044.734375,233951.15625,140718.0,1.0,3
224929.640625,249102.96875,252030.59375,259533.1875,220426.03125,246847.84375,206264.5,234105.390625,140719.0,1.0,3
224880.28125,248970.640625,251538.671875,259442.875,220004.03125,246630.859375,206006.734375,233891.171875,140720.0,1.0,3
224849.984375,248789.140625,250871.25,259363.484375,219388.546875,246317.9375,205637.578125,233607.125,140721.0,1.0,3
224889.3125,248819.09375,250948.671875,259406.578125,219428.78125,246341.625,205668.515625,233647.09375,140722.0,1.0,3
224939.734375,249011.046875,251653.296875,259502.953125,220051.859375,246658.3125,206044.828125,233945.703125,140723.0,1.0,3
224946.890625,249116.90625,252038.015625,259529.421875,220426.5625,246849.640625,206265.75,234103.59375,140724.0,1.0,3
224894.953125,248978.421875,251545.203125,259442.796875,220009.03125,246636.578125,206010.234375,233889.734375,140725.0,1.0,3
224858.203125,248791.46875,250871.796875,259357.234375,219391.40625,246318.375,205640.34375,233604.703125,140726.0,1.0,3
224888.328125,248808.984375,250933.484375,259384.140625,219417.515625,246330.359375,205658.671875,233633.5,140727.0,1.0,3
224933.03125,248993.4375,251628.265625,259477.21875,220037.203125,246643.109375,206026.140625,233922.546875,140728.0,1.0,3
224933.484375,249100.015625,252016.203125,259509.75,220415.84375,246835.421875,206252.96875,234084.375,140729.0,1.0,3
224895.9375,248980.75,251547.34375,259444.125,220017.265625,246641.59375,206018.28125,233890.28125,140730.0,1.0,3
224855.34375,248791.109375,250869.828125,259353.46875,219391.234375,246321.421875,205642.234375,233602.46875,140731.0,1.0,3
224891.28125,248817.484375,250930.796875,259395.3125,219418.6875,246333.046875,205667.4375,233646.109375,140732.0,1.0,3
224933.484375,249002.828125,251621.921875,259492.328125,220034.0625,246641.765625,206034.640625,233936.765625,140733.0,1.0,3
224931.421875,249101.53125,252011.546875,259526.921875,220413.609375,246830.859375,206254.125,234093.9375,140734.0,1.0,3
224889.5,248981.453125,251546.09375,259450.390625,220020.21875,246635.234375,206013.359375,233899.125,140735.0,1.0,3
224849.4375,248794.234375,250871.609375,259363.390625,219401.609375,246316.59375,205641.953125,233614.453125,140736.0,1.0,3
224875.90625,248801.578125,250913.546875,259396.203125,219407.78125,246310.78125,205647.59375,233630.8125,140737.0,1.0,3
224935.265625,248997.640625,251621.109375,259504.5625,220039.875,246638.453125,206030.078125,233934.890625,140738.0,1.0,3
224939.203125,249104.484375,252025.859375,259538.546875,220433.1875,246841.59375,206264.59375,234102.890625,140739.0,1.0,3
224883.953125,248971.71875,251551.28125,259450.203125,220029.953125,246631.9375,206016.578125,233891.96875,140740.0,1.0,3
224856.140625,248796.921875,250880.546875,259370.28125,219415.828125,246320.609375,205650.09375,233610.515625,140741.0,1.0,3
224889.671875,248809.796875,250917.921875,259396.921875,219423.421875,246325.09375,205662.96875,233637.34375,140742.0,1.0,3
224945.640625,249001.65625,251618.34375,259499.390625,220043.375,246648.03125,206039.828125,233931.84375,140743.0,1.0,3
224945.734375,249108.5,252029.875,259530.59375,220435.421875,246845.53125,206268.171875,234095.28125,140744.0,1.0,3
224887.703125,248971.984375,251559.6875,259439.21875,220032.734375,246636.84375,206020.515625,233890.546875,140745.0,1.0,3
224861.875,248796.921875,250886.625,259360.359375,219416.265625,246334.109375,205656.984375,233613.734375,140746.0,1.0,3
224897.546875,248819.0,250922.296875,259403.09375,219425.5625,246344.21875,205672.625,233644.671875,140747.0,1.0,3
224933.125,248994.875,251601.171875,259490.265625,220029.59375,246643.546875,206031.328125,233926.75,140748.0,1.0,3
224938.765625,249105.109375,252019.328125,259526.03125,220431.65625,246846.953125,206267.0,234095.46875,140749.0,1.0,3
224889.140625,248980.390625,251563.0,259444.40625,220042.5625,246645.34375,206026.140625,233893.765625,140750.0,1.0,3
224862.9375,248801.484375,250889.9375,259363.84375,219419.484375,246333.84375,205652.953125,233606.5,140751.0,1.0,3
224894.765625,248810.328125,250913.8125,259391.109375,219404.640625,246322.3125,205647.59375,233613.375,140752.0,1.0,3
224954.5,249005.859375,251615.921875,259500.8125,220026.375,246639.890625,206024.4375,233911.828125,140753.0,1.0,3
224964.0625,249126.65625,252051.515625,259543.015625,220442.296875,246849.1875,206272.453125,234092.328125,140754.0,1.0,3
224912.203125,248998.53125,251597.78125,259461.296875,220057.671875,246650.171875,206034.640625,233890.8125,140755.0,1.0,3
224862.9375,248797.453125,250900.125,259363.578125,219418.5,246313.828125,205642.765625,233589.15625,140756.0,1.0,3
224891.546875,248803.625,250916.21875,259396.65625,219406.515625,246305.78125,205639.8125,233608.109375,140757.0,1.0,3
224942.0625,248994.421875,251607.25,259501.0,220022.0,246621.828125,206014.15625,233906.71875,140758.0,1.0,3
224940.640625,249106.71875,252036.3125,259531.390625,220433.0,246835.0625,206256.1875,234082.5,140759.0,1.0,3
224896.46875,248990.21875,251597.953125,259457.546875,220061.421875,246652.578125,206031.59375,233900.28125,140760.0,1.0,3
224856.765625,248797.71875,250904.25,259367.78125,219424.671875,246327.328125,205649.734375,233610.25,140761.0,1.0,3
224884.484375,248801.390625,250909.34375,259390.046875,219397.046875,246310.78125,205642.046875,233621.609375,140762.0,1.0,3
224939.5625,248990.390625,251601.53125,259491.78125,220010.828125,246626.75,206017.921875,233916.734375,140763.0,1.0,3
224942.25,249101.796875,252037.125,259522.71875,220427.90625,246837.390625,206260.03125,234088.3125,140764.0,1.0,3
224901.390625,248987.1875,251605.828125,259452.890625,220064.296875,246656.78125,206041.609375,233904.84375,140765.0,1.0,3
224877.609375,248814.09375,250927.9375,259375.734375,219443.984375,246345.109375,205672.984375,233625.0,140766.0,1.0,3
224891.734375,248799.328125,250909.609375,259385.921875,219395.703125,246313.828125,205639.71875,233610.515625,140767.0,1.0,3
224942.25,248984.5,251593.390625,259482.9375,220003.765625,246626.5625,206005.84375,233902.34375,140768.0,1.0,3
224947.078125,249105.28125,252037.65625,259518.875,220425.9375,246839.796875,206252.25,234079.90625,140769.0,1.0,3
224906.578125,248995.21875,251613.953125,259445.921875,220068.9375,246659.109375,206034.28125,233898.765625,140770.0,1.0,3
224878.59375,248815.96875,250933.125,259368.21875,219447.5625,246348.78125,205665.921875,233616.328125,140771.0,1.0,3
224898.171875,248810.25,250915.859375,259392.546875,219402.765625,246322.21875,205643.296875,233617.3125,140772.0,1.0,3
224942.78125,248991.296875,251594.203125,259490.09375,220005.90625,246627.015625,206004.234375,233906.640625,140773.0,1.0,3
224946.71875,249106.0,252043.734375,259527.09375,220438.28125,246844.90625,206258.15625,234088.3125,140774.0,1.0,3
224887.34375,248977.53125,251608.140625,259440.734375,220071.171875,246647.671875,206027.84375,233893.40625,140775.0,1.0,3
224856.140625,248791.640625,250920.0625,259364.109375,219443.0,246327.859375,205653.046875,233609.984375,140776.0,1.0,3
224897.8125,248804.34375,250911.21875,259402.375,219407.234375,246313.546875,205639.71875,233621.703125,140777.0,1.0,3
224944.75,248986.015625,251583.203125,259494.203125,220001.4375,246609.578125,205994.484375,233900.90625,140778.0,1.0,3
224943.859375,249105.203125,252033.640625,259530.046875,220434.609375,246828.265625,206248.765625,234082.40625,140779.0,1.0,3
224891.8125,248987.1875,251611.09375,259442.15625,220081.546875,246650.078125,206032.125,233895.640625,140780.0,1.0,3
224860.4375,248808.453125,250923.90625,259364.203125,219454.09375,246337.6875,205660.28125,233609.8125,140781.0,1.0,3
224892.890625,248812.84375,250906.65625,259394.78125,219409.46875,246316.328125,205645.625,233619.90625,140782.0,1.0,3
224948.765625,248998.71875,251587.765625,259499.5625,220009.296875,246621.921875,206006.5625,233911.375,140783.0,1.0,3
224949.390625,249113.78125,252046.234375,259528.078125,220437.296875,246832.734375,206252.875,234086.609375,140784.0,1.0,3
224909.875,249005.953125,251641.21875,259456.46875,220094.234375,246661.609375,206046.703125,233910.296875,140785.0,1.0,3
224872.6875,248816.140625,250942.78125,259369.390625,219454.265625,246334.390625,205660.46875,233614.09375,140786.0,1.0,3
224903.890625,248810.0625,250909.25,259396.5625,219394.0,246300.859375,205629.0,233608.46875,140787.0,1.0,3
224954.9375,248993.34375,251581.0625,259494.375,219988.375,246602.15625,205985.90625,233895.453125,140788.0,1.0,3
224957.71875,249120.9375,252050.625,259535.328125,220437.03125,246828.625,206250.828125,234087.0625,140789.0,1.0,3
224911.84375,249014.890625,251646.953125,259462.28125,220103.53125,246658.9375,206048.046875,233915.125,140790.0,1.0,3
224879.21875,248825.703125,250948.671875,259377.515625,219467.9375,246339.578125,205670.03125,233624.734375,140791.0,1.0,3
224907.203125,248814.171875,250903.4375,259403.8125,219402.234375,246303.546875,205637.9375,233619.453125,140792.0,1.0,3
224956.640625,248994.6875,251569.609375,259498.578125,219990.265625,246599.203125,205989.84375,233900.46875,140793.0,1.0,3
224964.59375,249125.046875,252046.515625,259536.40625,220445.703125,246831.84375,206258.59375,234095.015625,140794.0,1.0,3
224916.765625,249015.609375,251645.78125,259463.796875,220116.234375,246661.53125,206054.21875,233921.125,140795.0,1.0,3
224875.1875,248827.3125,250943.765625,259371.53125,219476.625,246340.109375,205669.40625,233625.359375,140796.0,1.0,3
224906.03125,248822.84375,250898.078125,259399.0625,219406.171875,246307.109375,205638.921875,233618.125,140797.0,1.0,3
224955.125,249000.765625,251565.59375,259498.84375,219994.1875,246604.84375,205992.25,233900.90625,140798.0,1.0,3
224965.671875,249130.953125,252053.84375,259542.84375,220452.9375,246839.359375,206264.765625,234097.515625,140799.0,1.0,3
224914.96875,249021.0625,251657.046875,259462.015625,220122.5,246674.125,206062.53125,233923.71875,140800.0,1.0,3
224876.703125,248826.25,250951.1875,259373.765625,219483.234375,246348.953125,205679.25,233634.65625,140801.0,1.0,3
224897.546875,248805.765625,250885.5625,259394.953125,219394.984375,246298.4375,205629.265625,233617.84375,140802.0,1.0,3
224952.890625,248986.90625,251553.078125,259494.28125,219980.78125,246599.203125,205985.1875,233896.796875,140803.0,1.0,3
224968.53125,249121.015625,252052.140625,259541.140625,220449.546875,246841.328125,206263.96875,234099.75,140804.0,1.0,3
224911.484375,249006.484375,251660.09375,259458.53125,220119.546875,246667.421875,206056.0,233917.359375,140805.0,1.0,3
224881.0,248817.75,250964.59375,259376.265625,219483.046875,246346.28125,205675.046875,233623.484375,140806.0,1.0,3
224911.21875,248806.046875,250900.578125,259400.234375,219398.03125,246303.453125,205631.5,233609.171875,140807.0,1.0,3
224966.296875,248992.8125,251565.859375,259504.296875,219987.125,246606.1875,205988.59375,233899.296875,140808.0,1.0,3
224972.203125,249126.65625,252059.109375,259546.140625,220455.4375,246845.96875,206264.859375,234108.875,140809.0,1.0,3
224916.140625,249011.671875,251670.734375,259465.234375,220136.4375,246680.65625,206069.328125,233941.0625,140810.0,1.0,3
224874.390625,248817.671875,250958.25,259374.03125,219491.09375,246355.75,205682.015625,233641.546875,140811.0,1.0,3
224906.03125,248807.03125,250880.28125,259396.203125,219395.703125,246313.828125,205633.203125,233623.390625,140812.0,1.0,3
224965.21875,248993.078125,251546.453125,259500.015625,219981.671875,246621.03125,205995.03125,233918.96875,140813.0,1.0,3
224970.671875,249124.953125,252047.140625,259541.9375,220451.421875,246858.3125,206271.03125,234121.5625,140814.0,1.0,3
224916.40625,249014.984375,251672.96875,259462.8125,220139.921875,246694.515625,206075.578125,233954.109375,140815.0,1.0,3
224879.921875,248830.0,250973.984375,259379.40625,219500.046875,246371.578125,205692.65625,233661.125,140816.0,1.0,3
224901.125,248808.28125,250883.0625,259392.28125,219386.9375,246312.5625,205630.15625,233631.53125,140817.0,1.0,3
224957.4375,248990.3125,251537.96875,259489.375,219966.5625,246607.609375,205983.671875,233915.390625,140818.0,1.0,3
224966.5625,249123.796875,252044.359375,259536.40625,220446.59375,246851.34375,206268.4375,234125.5,140819.0,1.0,3
224918.375,249018.921875,251679.9375,259465.765625,220144.390625,246697.375,206082.46875,233964.84375,140820.0,1.0,3
224871.078125,248819.71875,250963.703125,259363.3125,219490.125,246361.75,205686.484375,233657.1875,140821.0,1.0,3
224893.078125,248795.140625,250867.5,259383.6875,219374.15625,246305.78125,205624.25,233628.046875,140822.0,1.0,3
224940.90625,248966.34375,251515.078125,259478.640625,219942.875,246595.90625,205968.03125,233898.5,140823.0,1.0,3
224960.84375,249110.5625,252036.3125,259537.296875,220433.546875,246851.34375,206261.546875,234115.671875,140824.0,1.0,3
224921.328125,249019.640625,251688.796875,259476.234375,220148.953125,246709.0,206088.8125,233966.984375,140825.0,1.0,3
224880.109375,248829.640625,250982.65625,259382.078125,219506.03125,246382.578125,205700.703125,233666.578125,140826.0,1.0,3
224889.40625,248793.171875,250865.078125,259378.859375,219371.03125,246304.96875,205619.15625,233619.015625,140827.0,1.0,3
224940.90625,248971.625,251513.28125,259477.296875,219945.375,246591.609375,205964.890625,233898.671875,140828.0,1.0,3
224958.421875,249120.75,252042.125,259534.078125,220446.859375,246849.640625,206265.9375,234120.765625,140829.0,1.0,3
224908.984375,249023.390625,251688.96875,259462.734375,220157.890625,246697.640625,206086.765625,233965.203125,140830.0,1.0,3
224875.375,248838.046875,250982.203125,259379.578125,219516.3125,246374.625,205702.125,233673.015625,140831.0,1.0,3
224897.0,248807.46875,250866.328125,259393.078125,219384.625,246309.171875,205628.546875,233630.8125,140832.0,1.0,3
224950.734375,248984.234375,251509.796875,259489.734375,219951.546875,246598.40625,205971.328125,233905.734375,140833.0,1.0,3
224963.25,249117.71875,252036.3125,259539.171875,220449.359375,246849.28125,206267.546875,234126.390625,140834.0,1.0,3
224917.921875,249015.515625,251690.75,259464.515625,220166.484375,246698.8125,206089.890625,233969.9375,140835.0,1.0,3
224882.515625,248830.0,250988.015625,259372.875,219524.546875,246374.96875,205702.578125,233669.890625,140836.0,1.0,3
224918.015625,248818.203125,250882.078125,259394.0625,219396.953125,246315.078125,205634.265625,233639.390625,140837.0,1.0,3
224961.640625,248980.921875,251514.0,259483.015625,219947.796875,246589.90625,205964.890625,233902.875,140838.0,1.0,3
224979.34375,249128.796875,252051.421875,259543.8125,220452.21875,246849.453125,206265.75,234121.75,140839.0,1.0,3
224930.359375,249034.125,251714.890625,259476.5,220175.59375,246705.78125,206094.890625,233971.71875,140840.0,1.0,3
224889.9375,248843.328125,251003.3125,259373.59375,219527.484375,246380.078125,205706.6875,233669.265625,140841.0,1.0,3
224916.40625,248817.9375,250879.484375,259391.203125,219387.84375,246313.109375,205633.828125,233631.0,140842.0,1.0,3
224958.34375,248975.734375,251502.828125,259478.640625,219935.625,246582.484375,205960.25,233889.921875,140843.0,1.0,3
224969.96875,249118.609375,252037.65625,259529.0625,220440.328125,246836.40625,206256.1875,234104.671875,140844.0,1.0,3
224926.421875,249027.859375,251709.625,259465.859375,220174.4375,246700.5,206091.59375,233961.265625,140845.0,1.0,3
224886.1875,248829.375,250995.4375,259370.015625,219528.390625,246373.28125,205705.265625,233662.640625,140846.0,1.0,3
224904.34375,248794.328125,250852.65625,259376.71875,219371.65625,246291.296875,205617.375,233610.15625,140847.0,1.0,3
224947.25,248960.453125,251477.171875,259467.203125,219915.34375,246567.109375,205946.296875,233876.859375,140848.0,1.0,3
224959.5,249108.234375,252019.59375,259522.1875,220425.5,246828.8125,206250.1875,234103.15625,140849.0,1.0,3
224923.46875,249034.203125,251712.84375,259468.71875,220181.59375,246706.40625,206104.90625,233974.40625,140850.0,1.0,3
224875.453125,248831.96875,250994.359375,259373.046875,219527.765625,246366.296875,205705.34375,233667.109375,140851.0,1.0,3
224887.53125,248789.046875,250842.640625,259376.359375,219362.171875,246280.734375,205606.828125,233606.3125,140852.0,1.0,3
224940.90625,248962.765625,251472.609375,259474.171875,219916.40625,246569.078125,205942.453125,233877.75,140853.0,1.0,3
224955.921875,249109.84375,252023.4375,259531.390625,220428.09375,246828.359375,206243.484375,234104.9375,140854.0,1.0,3
224910.6875,249017.046875,251710.875,259456.640625,220172.65625,246696.03125,206084.53125,233965.015625,140855.0,1.0,3
224874.109375,248823.921875,251002.765625,259367.0625,219526.5,246369.4375,205699.890625,233668.359375,140856.0,1.0,3
224905.59375,248798.984375,250859.09375,259380.921875,219364.40625,246291.015625,205613.34375,233618.03125,140857.0,1.0,3
224955.921875,248968.765625,251483.515625,259477.03125,219909.890625,246569.796875,205944.875,233881.328125,140858.0,1.0,3
224967.546875,249111.28125,252031.671875,259523.53125,220420.3125,246829.703125,206247.15625,234099.671875,140859.0,1.0,3
224929.640625,249034.5625,251728.9375,259462.734375,220177.75,246710.15625,206103.296875,233969.21875,140860.0,1.0,3
224886.359375,248842.515625,251012.875,259374.21875,219529.90625,246381.140625,205713.484375,233668.640625,140861.0,1.0,3
224902.015625,248799.328125,250845.6875,259376.1875,219351.453125,246290.84375,205612.09375,233604.625,140862.0,1.0,3
224955.828125,248972.34375,251468.578125,259473.90625,219900.234375,246570.0625,205945.5,233873.28125,140863.0,1.0,3
224967.90625,249118.34375,252024.421875,259528.703125,220422.90625,246831.9375,206251.71875,234101.359375,140864.0,1.0,3
224926.421875,249032.515625,251728.125,259464.0625,220186.515625,246717.140625,206107.0625,233974.3125,140865.0,1.0,3
224879.125,248834.65625,251009.65625,259368.40625,219533.75,246391.421875,205715.265625,233672.390625,140866.0,1.0,3
224890.03125,248790.21875,250832.71875,259372.25,219345.375,246298.53125,205607.625,233607.296875,140867.0,1.0,3
224953.875,248972.875,251459.734375,259479.265625,219896.921875,246583.203125,205945.5,233883.65625,140868.0,1.0,3
224975.0625,249130.140625,252030.765625,259536.75,220431.578125,246855.890625,206262.4375,234120.5,140869.0,1.0,3
224923.46875,249037.875,251731.890625,259461.125,220189.90625,246723.3125,206106.15625,233979.234375,140870.0,1.0,3
224884.3125,248844.578125,251019.671875,259371.796875,219542.953125,246391.25,205715.90625,233676.859375,140871.0,1.0,3
224904.6875,248800.859375,250847.203125,259381.640625,219354.484375,246291.828125,205610.21875,233614.546875,140872.0,1.0,3
224950.46875,248965.1875,251457.671875,259470.234375,219885.65625,246552.265625,205926.09375,233868.640625,140873.0,1.0,3
224973.265625,249123.890625,252035.515625,259538.28125,220426.484375,246827.46875,206249.03125,234109.859375,140874.0,1.0,3
224923.734375,249037.609375,251748.421875,259474.34375,220197.953125,246710.25,206105.984375,233980.75,140875.0,1.0,3
224874.828125,248838.765625,251026.375,259368.40625,219546.71875,246379.359375,205714.296875,233676.140625,140876.0,1.0,3
224882.609375,248783.0625,250830.75,259366.171875,219343.125,246274.65625,205595.375,233596.65625,140877.0,1.0,3
224939.828125,248953.921875,251443.1875,259465.859375,219881.265625,246552.625,205924.9375,233861.9375,140878.0,1.0,3
224965.9375,249117.625,252027.109375,259533.453125,220426.484375,246836.765625,206249.75,234107.71875,140879.0,1.0,3
224924.546875,249041.265625,251757.28125,259474.078125,220211.546875,246727.15625,206117.6875,233988.171875,140880.0,1.0,3
224884.578125,248850.390625,251043.890625,259379.84375,219565.75,246403.234375,205730.03125,233687.234375,140881.0,1.0,3
224897.0,248798.0,250843.890625,259377.515625,219355.921875,246293.96875,205607.09375,233608.46875,140882.0,1.0,3
224956.109375,248967.515625,251453.375,259479.53125,219888.34375,246568.1875,205930.390625,233869.703125,140883.0,1.0,3
224982.296875,249128.265625,252038.1875,259543.640625,220431.84375,246842.75,206253.0625,234108.96875,140884.0,1.0,3
224942.25,249055.125,251772.46875,259480.25,220219.5,246731.0,206123.234375,233989.25,140885.0,1.0,3
224892.796875,248847.171875,251049.078125,259375.734375,219561.28125,246390.265625,205722.515625,233674.890625,140886.0,1.0,3
224912.296875,248796.75,250848.09375,259382.265625,219350.109375,246280.296875,205601.375,233596.75,140887.0,1.0,3
224972.46875,248971.0,251459.640625,259482.671875,219883.328125,246558.265625,205930.46875,233862.375,140888.0,1.0,3
224998.921875,249137.828125,252053.921875,259543.90625,220440.0625,246849.90625,206262.796875,234113.171875,140889.0,1.0,3
224951.625,249063.625,251794.109375,259485.703125,220241.046875,246747.71875,206138.34375,233999.625,140890.0,1.0,3
224892.625,248859.859375,251060.703125,259380.5625,219581.9375,246409.046875,205736.46875,233683.296875,140891.0,1.0,3
224901.390625,248799.875,250836.828125,259379.84375,219354.75,246290.84375,205604.59375,233597.5625,140892.0,1.0,3
224942.953125,248952.84375,251420.21875,259467.46875,219867.0625,246546.375,205913.75,233849.59375,140893.0,1.0,3
224964.78125,249118.875,252012.890625,259528.4375,220420.125,246830.6875,206246.796875,234101.625,140894.0,1.0,3
224920.15625,249048.6875,251764.515625,259471.046875,220227.640625,246730.640625,206129.046875,233995.78125,140895.0,1.0,3
224876.078125,248853.875,251048.8125,259374.125,219578.984375,246397.953125,205736.734375,233691.25,140896.0,1.0,3
224903.53125,248807.03125,250839.78125,259384.5,219361.8125,246294.59375,205616.84375,233614.71875,140897.0,1.0,3
224949.578125,248959.546875,251425.9375,259467.828125,219870.1875,246552.359375,205922.34375,233855.578125,140898.0,1.0,3
224961.734375,249113.421875,252015.125,259524.15625,220414.5,246824.328125,206240.984375,234089.390625,140899.0,1.0,3
224929.90625,249055.578125,251783.296875,259475.875,220233.625,246734.75,206130.390625,233989.34375,140900.0,1.0,3
224878.140625,248854.046875,251060.96875,259370.1875,219579.796875,246402.421875,205735.21875,233679.625,140901.0,1.0,3
224888.421875,248788.515625,250827.796875,259368.578125,219341.609375,246279.84375,205595.46875,233588.96875,140902.0,1.0,3
224945.734375,248950.96875,251417.53125,259465.765625,219852.9375,246539.65625,205907.40625,233843.15625,140903.0,1.0,3
224965.9375,249111.71875,252017.453125,259525.84375,220412.171875,246823.53125,206243.671875,234093.140625,140904.0,1.0,3
224921.765625,249042.609375,251779.09375,259467.46875,220230.234375,246729.5625,206129.234375,233985.84375,140905.0,1.0,3
224883.6875,248849.84375,251066.421875,259378.234375,219588.015625,246410.65625,205744.953125,233688.296875,140906.0,1.0,3
224903.359375,248794.421875,250834.0625,259382.0,219348.140625,246289.6875,205606.734375,233597.90625,140907.0,1.0,3
224957.359375,248954.09375,251415.390625,259472.828125,219854.625,246542.25,205912.421875,233847.453125,140908.0,1.0,3
224970.40625,249110.109375,252012.265625,259524.234375,220408.78125,246818.53125,206239.375,234091.4375,140909.0,1.0,3
224937.421875,249054.59375,251793.84375,259480.875,220240.953125,246733.765625,206136.734375,233996.9375,140910.0,1.0,3
224890.5625,248857.546875,251076.625,259384.046875,219594.546875,246404.125,205742.09375,233691.609375,140911.0,1.0,3
224891.546875,248787.796875,250820.46875,259365.71875,219336.96875,246268.046875,205584.296875,233583.96875,140912.0,1.0,3
224940.28125,248945.6875,251394.90625,259457.453125,219839.515625,246526.875,205888.546875,233833.59375,140913.0,1.0,3
224975.59375,249121.640625,252017.546875,259538.984375,220417.265625,246830.234375,206238.578125,234100.015625,140914.0,1.0,3
224938.21875,249063.625,251803.859375,259488.390625,220253.46875,246752.09375,206139.78125,234000.515625,140915.0,1.0,3
224892.359375,248873.359375,251088.953125,259393.078125,219614.21875,246427.90625,205755.0625,233701.09375,140916.0,1.0,3
224893.078125,248797.09375,250825.03125,259371.4375,219346.34375,246281.640625,205596.0,233593.796875,140917.0,1.0,3
224941.265625,248946.953125,251392.140625,259460.21875,219834.25,246531.078125,205895.78125,233835.5625,140918.0,1.0,3
224966.75,249114.5,252006.0,259525.578125,220406.453125,246822.71875,206239.015625,234093.859375,140919.0,1.0,3
224922.84375,249047.53125,251789.375,259464.34375,220240.953125,246736.0,206135.125,233991.75,140920.0,1.0,3
224876.078125,248847.609375,251073.21875,259366.53125,219591.6875,246408.140625,205742.984375,233682.671875,140921.0,1.0,3
224884.21875,248776.71875,250807.78125,259355.0,219323.640625,246270.734375,205583.578125,233577.625,140922.0,1.0,3
224940.1875,248939.96875,251376.3125,259450.921875,219819.046875,246519.546875,205885.328125,233826.890625,140923.0,1.0,3
224967.546875,249113.515625,251999.65625,259527.8125,220397.78125,246815.484375,206231.6875,234090.546875,140924.0,1.0,3
224922.484375,249048.609375,251799.125,259475.6875,220245.875,246735.375,206135.671875,233998.546875,140925.0,1.0,3
224872.234375,248847.703125,251081.890625,259375.5625,219600.53125,246408.6875,205743.96875,233691.515625,140926.0,1.0,3
224888.0625,248784.765625,250815.734375,259367.15625,219333.75,246274.65625,205591.171875,233592.546875,140927.0,1.0,3
224940.28125,248942.828125,251375.421875,259451.546875,219824.328125,246518.828125,205890.6875,233837.96875,140928.0,1.0,3
224962.359375,249106.8125,251990.625,259518.421875,220396.609375,246806.8125,206228.46875,234091.96875,140929.0,1.0,3
224924.8125,249050.5625,251794.734375,259469.515625,220251.859375,246729.296875,206133.875,233999.4375,140930.0,1.0,3
224875.1875,248850.125,251077.96875,259370.90625,219610.375,246405.734375,205748.984375,233697.6875,140931.0,1.0,3
224876.359375,248772.609375,250787.03125,259345.15625,219324.625,246261.515625,205583.671875,233582.265625,140932.0,1.0,3
224931.609375,248927.1875,251344.390625,259445.734375,219808.046875,246505.59375,205876.390625,233823.125,140933.0,1.0,3
224974.78125,249110.296875,251990.453125,259533.625,220404.03125,246817.453125,206238.484375,234101.984375,140934.0,1.0,3
224935.625,249057.625,251807.078125,259481.5,220267.328125,246742.796875,206153.453125,234018.84375,140935.0,1.0,3
224881.1875,248857.0,251087.625,259373.328125,219616.359375,246409.21875,205754.96875,233707.609375,140936.0,1.0,3
224888.515625,248782.890625,250802.328125,259361.078125,219329.0,246260.625,205584.734375,233591.46875,140937.0,1.0,3
224939.828125,248934.421875,251355.125,259449.765625,219807.421875,246509.625,205877.09375,233827.59375,140938.0,1.0,3
224964.78125,249111.8125,251989.109375,259516.109375,220394.5625,246811.90625,206224.984375,234090.1875,140939.0,1.0,3
224928.390625,249065.59375,251815.125,259467.015625,220270.46875,246752.625,206148.453125,234008.828125,140940.0,1.0,3
224892.359375,248879.4375,251111.671875,259376.71875,219635.671875,246439.265625,205770.4375,233713.96875,140941.0,1.0,3
224895.578125,248795.21875,250814.296875,259358.75,219334.90625,246281.71875,205591.171875,233590.9375,140942.0,1.0,3
224946.71875,248937.015625,251357.09375,259447.53125,219803.75,246510.875,205873.078125,233822.421875,140943.0,1.0,3
224986.40625,249115.203125,252002.078125,259536.3125,220403.5,246816.109375,206234.28125,234098.859375,140944.0,1.0,3
224943.40625,249059.515625,251824.515625,259485.96875,220272.96875,246741.984375,206147.109375,234011.875,140945.0,1.0,3
224894.234375,248865.046875,251106.484375,259381.375,219628.609375,246417.625,205759.703125,233710.921875,140946.0,1.0,3
224903.53125,248786.46875,250800.796875,259368.21875,219329.28125,246269.390625,205588.5,233594.609375,140947.0,1.0,3
224942.875,248928.625,251329.640625,259451.109375,219791.234375,246503.1875,205869.40625,233824.5625,140948.0,1.0,3
224967.015625,249105.640625,251970.6875,259514.046875,220382.9375,246810.296875,206224.265625,234091.078125,140949.0,1.0,3
224939.734375,249072.390625,251829.0625,259477.21875,220283.6875,246766.484375,206166.15625,234025.8125,140950.0,1.0,3
224893.515625,248882.3125,251124.8125,259381.09375,219645.953125,246441.21875,205781.171875,233719.15625,140951.0,1.0,3
224900.765625,248803.8125,250818.234375,259365.0,219336.515625,246285.296875,205602.0,233591.75,140952.0,1.0,3
224951.71875,248945.78125,251350.75,259446.984375,219795.796875,246513.828125,205879.328125,233817.046875,140953.0,1.0,3
224979.34375,249117.0,251990.890625,259519.6875,220388.125,246809.5,206229.546875,234079.640625,140954.0,1.0,3
224951.8125,249079.0,251846.765625,259488.296875,220291.65625,246764.25,206168.484375,234019.46875,140955.0,1.0,3
224906.578125,248882.9375,251139.03125,259394.953125,219653.46875,246442.203125,205781.796875,233720.40625,140956.0,1.0,3
224908.359375,248794.421875,250814.21875,259371.265625,219331.59375,246277.96875,205593.5,233588.609375,140957.0,1.0,3
224954.9375,248928.625,251337.328125,259456.921875,219786.328125,246507.65625,205871.640625,233816.515625,140958.0,1.0,3
224986.328125,249106.53125,251989.90625,259538.90625,220390.53125,246821.03125,206230.703125,234091.703125,140959.0,1.0,3
224945.015625,249062.640625,251841.5,259488.828125,220290.40625,246766.046875,206163.03125,234022.859375,140960.0,1.0,3
224904.78125,248878.453125,251132.953125,259390.3125,219656.234375,246441.859375,205781.703125,233728.359375,140961.0,1.0,3
224900.671875,248783.0625,250791.40625,259357.046875,219322.21875,246265.8125,205585.28125,233589.234375,140962.0,1.0,3
224946.71875,248929.78125,251315.0625,259438.765625,219775.234375,246497.015625,205865.03125,233819.546875,140963.0,1.0,3
224981.9375,249118.421875,251977.21875,259519.953125,220385.53125,246810.921875,206232.84375,234097.25,140964.0,1.0,3
224941.625,249077.296875,251845.078125,259478.015625,220297.546875,246764.4375,206173.578125,234034.671875,140965.0,1.0,3
224895.484375,248886.953125,251141.625,259381.71875,219668.84375,246449.0,205791.8125,233737.390625,140966.0,1.0,3
224902.734375,248801.03125,250807.953125,259369.75,219341.515625,246281.71875,205597.4375,233602.203125,140967.0,1.0,3
224941.265625,248930.046875,251316.40625,259443.421875,219775.953125,246496.03125,205857.609375,233813.921875,140968.0,1.0,3
224974.703125,249107.515625,251977.484375,259523.34375,220384.453125,246809.046875,206220.6875,234093.234375,140969.0,1.0,3
224940.453125,249063.625,251847.84375,259483.5625,220299.515625,246761.578125,206166.953125,234031.359375,140970.0,1.0,3
224895.03125,248868.8125,251138.84375,259386.46875,219664.8125,246439.96875,205782.78125,233728.453125,140971.0,1.0,3
224888.25,248769.46875,250784.4375,259350.796875,219318.359375,246256.875,205573.46875,233576.90625,140972.0,1.0,3
224940.90625,248913.0625,251300.234375,259438.3125,219759.765625,246485.578125,205849.5625,233803.640625,140973.0,1.0,3
224970.765625,249093.484375,251958.359375,259515.65625,220362.734375,246802.875,206212.828125,234078.390625,140974.0,1.0,3
224938.3125,249064.875,251843.28125,259477.84375,220292.1875,246761.296875,206165.890625,234023.84375,140975.0,1.0,3
224894.59375,248881.671875,251142.421875,259376.71875,219666.609375,246444.09375,205788.140625,233730.328125,140976.0,1.0,3
224891.640625,248789.140625,250792.125,259352.125,219325.703125,246270.90625,205584.921875,233590.40625,140977.0,1.0,3
224935.453125,248920.03125,251296.734375,259436.4375,219757.265625,246485.84375,205842.765625,233805.15625,140978.0,1.0,3
224967.015625,249102.15625,251961.125,259513.421875,220367.109375,246794.921875,206205.578125,234082.234375,140979.0,1.0,3
224935.453125,249075.0625,251855.359375,259475.953125,220303.359375,246759.34375,206162.125,234032.609375,140980.0,1.0,3
224890.828125,248885.703125,251156.640625,259381.1875,219678.234375,246440.59375,205785.546875,233734.703125,140981.0,1.0,3
224891.109375,248787.625,250798.125,259354.546875,219329.28125,246260.0,205580.359375,233585.9375,140982.0,1.0,3
224945.375,248928.171875,251303.71875,259446.984375,219766.828125,246485.03125,205851.078125,233806.671875,140983.0,1.0,3
224983.640625,249113.515625,251977.75,259530.40625,220387.765625,246807.53125,206224.265625,234096.0,140984.0,1.0,3
224946.09375,249078.015625,251873.328125,259490.171875,220324.90625,246774.796875,206179.03125,234041.640625,140985.0,1.0,3
224897.8125,248886.5,251171.390625,259390.390625,219697.453125,246460.0,205797.890625,233740.15625,140986.0,1.0,3
224908.1875,248799.875,250817.078125,259371.078125,219352.703125,246292.0,205600.828125,233597.203125,140987.0,1.0,3
224953.421875,248930.859375,251304.96875,259449.9375,219770.671875,246500.328125,205857.4375,233805.609375,140988.0,1.0,3
224984.71875,249114.3125,251974.53125,259530.765625,220387.859375,246817.71875,206231.328125,234089.5625,140989.0,1.0,3
224941.890625,249080.25,251874.671875,259488.296875,220330.0,246787.5,206191.640625,234039.3125,140990.0,1.0,3
224887.96875,248885.25,251170.5,259384.5,219699.15625,246466.625,205808.53125,233738.1875,140991.0,1.0,3
224888.515625,248784.21875,250798.75,259355.96875,219337.140625,246276.359375,205595.296875,233587.625,140992.0,1.0,3
224935.359375,248915.296875,251288.515625,259434.75,219754.578125,246487.984375,205847.59375,233795.234375,140993.0,1.0,3
224970.140625,249102.25,251963.265625,259519.5,220372.921875,246805.46875,206215.6875,234076.0625,140994.0,1.0,3
224931.34375,249072.109375,251870.5625,259477.296875,220321.6875,246773.640625,206178.765625,234028.234375,140995.0,1.0,3
224873.3125,248873.359375,251162.625,259369.125,219688.953125,246449.359375,205796.015625,233726.921875,140996.0,1.0,3
224873.140625,248770.09375,250784.265625,259340.59375,219321.765625,246266.171875,205579.546875,233576.640625,140997.0,1.0,3
224931.34375,248909.65625,251275.109375,259431.078125,219743.140625,246483.25,205836.6875,233793.53125,140998.0,1.0,3
224970.046875,249101.796875,251956.296875,259520.390625,220370.15625,246806.640625,206214.25,234086.875,140999.0,1.0,3
224931.96875,249073.015625,251873.859375,259481.0625,220330.625,246783.03125,206185.109375,234043.875,141000.0,1.0,3
224886.546875,248883.734375,251176.046875,259383.953125,219709.515625,246467.953125,205809.953125,233745.875,141001.0,1.0,3
224891.109375,248783.78125,250792.75,259358.03125,219338.03125,246280.65625,205592.875,233594.96875,141002.0,1.0,3
224934.375,248912.4375,251268.671875,259429.5625,219741.171875,246482.625,205841.6875,233800.515625,141003.0,1.0,3
224957.4375,249082.75,251940.375,259502.25,220355.484375,246793.484375,206210.5,234073.640625,141004.0,1.0,3
224929.109375,249064.515625,251875.5625,259473.71875,220327.953125,246783.03125,206190.203125,234036.09375,141005.0,1.0,3
224888.15625,248888.296875,251189.90625,259388.4375,219719.265625,246480.65625,205823.453125,233748.921875,141006.0,1.0,3
224883.953125,248784.765625,250791.859375,259352.578125,219336.0625,246281.09375,205592.96875,233585.9375,141007.0,1.0,3
224935.265625,248914.9375,251263.578125,259433.765625,219741.4375,246486.828125,205838.203125,233793.984375,141008.0,1.0,3
224959.046875,249095.71875,251938.5,259506.8125,220356.921875,246798.671875,206204.953125,234071.5,141009.0,1.0,3
224919.453125,249071.3125,251874.046875,259468.09375,220329.65625,246780.96875,206184.921875,234036.0,141010.0,1.0,3
224872.421875,248879.71875,251181.5,259369.03125,219712.46875,246469.484375,205813.796875,233743.015625,141011.0,1.0,3
224875.640625,248775.203125,250784.625,259338.71875,219329.453125,246276.984375,205589.203125,233579.578125,141012.0,1.0,3
224935.265625,248911.8125,251262.59375,259431.25,219735.71875,246485.296875,205838.828125,233787.015625,141013.0,1.0,3
224970.40625,249097.15625,251946.640625,259514.21875,220358.078125,246800.28125,206209.15625,234069.171875,141014.0,1.0,3
224937.859375,249079.625,251895.5,259481.140625,220342.25,246791.609375,206195.125,234039.40625,141015.0,1.0,3
224891.375,248892.5,251205.28125,259386.28125,219725.078125,246477.703125,205822.203125,233741.046875,141016.0,1.0,3
224884.75,248786.1875,250794.09375,259347.21875,219328.46875,246274.03125,205587.6875,233571.09375,141017.0,1.0,3
224929.734375,248912.25,251254.453125,259429.921875,219722.484375,246475.296875,205830.34375,233775.65625,141018.0,1.0,3
224949.125,249084.8125,251926.4375,259503.234375,220339.125,246787.046875,206198.15625,234056.125,141019.0,1.0,3
224917.203125,249069.875,251879.40625,259465.234375,220331.34375,246785.4375,206194.3125,234035.828125,141020.0,1.0,3
224884.578125,248899.828125,251199.109375,259380.203125,219731.15625,246492.640625,205839.375,233757.59375,141021.0,1.0,3
224880.734375,248786.640625,250780.6875,259343.8125,219326.234375,246287.53125,205598.59375,233584.40625,141022.0,1.0,3
224927.671875,248907.15625,251232.09375,259416.234375,219707.375,246480.5625,205829.71875,233777.0,141023.0,1.0,3
224956.375,249090.625,251917.84375,259495.8125,220335.015625,246799.65625,206202.09375,234060.234375,141024.0,1.0,3
224933.484375,249086.875,251890.9375,259477.484375,220347.171875,246801.984375,206204.78125,234043.609375,141025.0,1.0,3
224881.984375,248894.640625,251203.484375,259383.328125,219732.5,246487.265625,205830.15625,233745.171875,141026.0,1.0,3
224882.078125,248782.609375,250783.984375,259345.421875,219329.90625,246280.46875,205589.125,233574.484375,141027.0,1.0,3
224935.09375,248912.96875,251237.90625,259429.203125,219715.25,246477.53125,205826.578125,233774.9375,141028.0,1.0,3
224966.109375,249098.84375,251928.40625,259511.453125,220344.3125,246796.171875,206200.578125,234061.21875,141029.0,1.0,3
224941.625,249093.3125,251906.765625,259489.375,220356.375,246802.078125,206203.875,234049.234375,141030.0,1.0,3
224894.59375,248906.984375,251221.1875,259395.671875,219744.75,246490.484375,205833.375,233760.28125,141031.0,1.0,3
224879.921875,248785.5625,250786.859375,259345.421875,219325.875,246271.984375,205581.25,233581.46875,141032.0,1.0,3
224930.984375,248911.09375,251234.78125,259431.171875,219705.046875,246464.828125,205813.53125,233778.515625,141033.0,1.0,3
224970.9375,249106.984375,251933.5,259520.65625,220343.859375,246790.453125,206197.71875,234074.28125,141034.0,1.0,3
224943.9375,249098.671875,251915.890625,259493.390625,220359.6875,246799.484375,206203.875,234058.0,141035.0,1.0,3
224896.46875,248913.328125,251232.90625,259386.90625,219752.34375,246499.078125,205839.109375,233769.484375,141036.0,1.0,3
224895.484375,248798.4375,250800.984375,259351.234375,219338.390625,246284.40625,205596.984375,233592.8125,141037.0,1.0,3
224943.765625,248916.90625,251235.046875,259428.65625,219704.515625,246465.1875,205818.53125,233779.953125,141038.0,1.0,3
224983.8125,249112.078125,251942.078125,259523.25,220352.890625,246801.625,206210.671875,234086.875,141039.0,1.0,3
224953.78125,249105.015625,251934.21875,259498.3125,220379.09375,246812.984375,206223.015625,234078.921875,141040.0,1.0,3
224902.28125,248919.5,251253.46875,259401.390625,219772.90625,246510.78125,205858.0625,233790.234375,141041.0,1.0,3
224887.703125,248793.703125,250803.296875,259357.046875,219341.609375,246287.796875,205601.09375,233604.265625,141042.0,1.0,3
224942.0625,248911.71875,251234.421875,259444.3125,219703.0,246471.890625,205823.015625,233797.203125,141043.0,1.0,3
224974.078125,249098.671875,251927.421875,259524.59375,220337.25,246796.703125,206203.171875,234089.46875,141044.0,1.0,3
224939.65625,249086.25,251917.40625,259484.453125,220363.53125,246808.875,206213.53125,234077.765625,141045.0,1.0,3
224892.359375,248901.4375,251237.46875,259384.671875,219762.546875,246504.265625,205850.28125,233788.4375,141046.0,1.0,3
224891.46875,248787.09375,250792.75,259349.265625,219339.109375,246290.484375,205600.828125,233607.484375,141047.0,1.0,3
224941.984375,248902.15625,251214.046875,259428.21875,219691.8125,246468.140625,205815.234375,233789.0625,141048.0,1.0,3
224967.09375,249081.421875,251906.5,259505.015625,220321.328125,246787.328125,206193.15625,234077.578125,141049.0,1.0,3
224946.796875,249085.890625,251922.953125,259492.859375,220370.953125,246813.609375,206223.1875,234084.203125,141050.0,1.0,3
224903.0,248912.171875,251252.03125,259398.09375,219779.890625,246515.703125,205866.109375,233802.75,141051.0,1.0,3
224892.890625,248791.296875,250795.890625,259357.40625,219345.640625,246295.3125,205603.6875,233615.53125,141052.0,1.0,3
224935.71875,248903.046875,251207.0625,259425.53125,219693.609375,246468.671875,205817.734375,233798.0,141053.0,1.0,3
224976.578125,249104.75,251915.609375,259519.046875,220341.1875,246804.9375,206208.359375,234100.203125,141054.0,1.0,3
224944.125,249101.625,251929.03125,259489.453125,220383.203125,246823.53125,206227.03125,234093.578125,141055.0,1.0,3
224909.515625,248932.1875,251269.734375,259406.21875,219796.875,246530.0,205874.6875,233815.625,141056.0,1.0,3
224891.375,248794.234375,250800.796875,259356.953125,219349.125,246296.5625,205608.703125,233613.203125,141057.0,1.0,3
224927.84375,248890.171875,251195.890625,259419.640625,219677.609375,246454.015625,205807.90625,233777.71875,141058.0,1.0,3
224969.515625,249084.0,251901.765625,259504.921875,220319.90625,246786.609375,206197.09375,234078.46875,141059.0,1.0,3
224944.296875,249091.34375,251929.65625,259486.875,220380.25,246820.671875,206230.34375,234088.84375,141060.0,1.0,3
224894.6875,248912.53125,251257.140625,259388.078125,219785.609375,246517.046875,205867.890625,233801.140625,141061.0,1.0,3
224881.625,248785.296875,250785.953125,259339.609375,219333.03125,246283.421875,205595.015625,233600.421875,141062.0,1.0,3
224929.453125,248898.9375,251193.5625,259418.296875,219670.984375,246461.796875,205805.578125,233780.390625,141063.0,1.0,3
224971.390625,249088.65625,251904.53125,259508.765625,220318.734375,246795.546875,206194.3125,234081.96875,141064.0,1.0,3
224956.8125,249104.921875,251948.703125,259492.234375,220391.34375,246835.0625,206234.28125,234096.171875,141065.0,1.0,3
224903.4375,248916.90625,251276.890625,259391.296875,219793.5625,246528.046875,205868.703125,233802.203125,141066.0,1.0,3
224897.09375,248792.265625,250807.234375,259353.46875,219342.5,246296.65625,205601.453125,233607.75,141067.0,1.0,3
224951.453125,248908.953125,251208.40625,259432.59375,219677.0625,246469.390625,205809.859375,233783.515625,141068.0,1.0,3
224989.0,249098.84375,251915.796875,259520.21875,220319.453125,246797.6875,206190.921875,234077.046875,141069.0,1.0,3
224959.046875,249104.03125,251954.328125,259492.046875,220390.53125,246832.828125,206227.390625,234088.765625,141070.0,1.0,3
224905.859375,248919.3125,251282.796875,259393.890625,219798.65625,246531.078125,205869.5,233804.265625,141071.0,1.0,3
224889.578125,248786.1875,250795.609375,259345.609375,219335.796875,246288.609375,205592.15625,233600.5,141072.0,1.0,3
224936.703125,248897.328125,251183.46875,259421.15625,219659.1875,246449.984375,205792.703125,233774.578125,141073.0,1.0,3
224973.359375,249087.671875,251893.0,259511.359375,220305.328125,246782.140625,206181.171875,234078.03125,141074.0,1.0,3
224939.46875,249093.65625,251935.109375,259482.671875,220379.09375,246818.53125,206224.171875,234090.546875,141075.0,1.0,3
224898.25,248925.9375,251279.9375,259394.15625,219801.34375,246531.890625,205882.46875,233818.484375,141076.0,1.0,3
224895.03125,248797.1875,250800.359375,259355.0,219341.078125,246299.34375,205610.75,233620.796875,141077.0,1.0,3
224939.65625,248891.421875,251177.109375,259423.5625,219649.890625,246446.859375,205790.203125,233774.9375,141078.0,1.0,3
224986.953125,249092.140625,251896.03125,259516.375,220302.46875,246777.3125,206178.578125,234073.828125,141079.0,1.0,3
224959.234375,249102.96875,251954.78125,259496.796875,220385.34375,246811.375,206220.421875,234088.578125,141080.0,1.0,3
224917.390625,248928.53125,251303.359375,259406.21875,219809.125,246525.09375,205873.171875,233812.484375,141081.0,1.0,3
224914.265625,248799.875,250814.125,259364.5625,219346.4375,246292.453125,205598.859375,233610.703125,141082.0,1.0,3
224953.875,248892.859375,251178.453125,259427.5,219649.703125,246439.265625,205781.171875,233767.875,141083.0,1.0,3
224990.53125,249085.96875,251891.03125,259521.109375,220297.640625,246767.65625,206168.828125,234067.296875,141084.0,1.0,3
224962.1875,249103.765625,251953.875,259494.109375,220390.796875,246812.171875,206218.28125,234087.234375,141085.0,1.0,3
224920.078125,248937.296875,251302.015625,259404.34375,219817.890625,246526.875,205873.078125,233812.765625,141086.0,1.0,3
224905.40625,248804.515625,250802.328125,259356.25,219346.0,246287.0,205593.859375,233606.40625,141087.0,1.0,3
224946.359375,248903.859375,251167.546875,259426.078125,219654.890625,246445.515625,205783.40625,233769.671875,141088.0,1.0,3
224986.234375,249092.234375,251883.515625,259516.28125,220304.796875,246779.90625,206174.109375,234070.703125,141089.0,1.0,3
224966.109375,249110.65625,251963.984375,259505.015625,220405.46875,246834.4375,206231.234375,234098.140625,141090.0,1.0,3
224926.328125,248939.53125,251318.203125,259417.125,219832.453125,246547.890625,205887.203125,233821.703125,141091.0,1.0,3
224921.0625,248807.296875,250817.96875,259370.453125,219360.828125,246308.09375,205609.328125,233618.828125,141092.0,1.0,3
224960.03125,248895.984375,251172.734375,259433.40625,219656.328125,246454.453125,205789.21875,233772.25,141093.0,1.0,3
224988.640625,249085.265625,251879.859375,259510.296875,220296.921875,246778.46875,206170.09375,234061.671875,141094.0,1.0,3
224970.671875,249111.71875,251968.359375,259498.40625,220407.796875,246833.546875,206234.8125,234090.375,141095.0,1.0,3
224929.640625,248945.34375,251329.90625,259415.15625,219843.359375,246550.296875,205894.265625,233820.71875,141096.0,1.0,3
224903.703125,248796.75,250812.953125,259356.515625,219354.21875,246296.484375,205597.609375,233604.703125,141097.0,1.0,3
224948.234375,248899.46875,251166.203125,259426.25,219649.078125,246447.125,205782.0625,233765.546875,141098.0,1.0,3
224993.46875,249104.125,251884.59375,259521.921875,220303.09375,246786.875,206175.0,234071.140625,141099.0,1.0,3
224968.0,249122.984375,251973.015625,259505.734375,220415.484375,246840.25,206236.96875,234095.90625,141100.0,1.0,3
224919.796875,248947.75,251327.5,259414.890625,219846.3125,246551.46875,205892.5625,233813.921875,141101.0,1.0,3
224906.921875,248809.265625,250814.125,259362.0625,219359.671875,246304.078125,205606.015625,233596.390625,141102.0,1.0,3
224942.953125,248896.25,251151.546875,259422.671875,219638.0,246441.140625,205776.609375,233738.8125,141103.0,1.0,3
224984.09375,249087.9375,251869.390625,259514.40625,220289.328125,246773.90625,206166.78125,234040.484375,141104.0,1.0,3
224971.484375,249118.609375,251978.921875,259505.109375,220419.59375,246842.21875,206243.484375,234084.734375,141105.0,1.0,3
224923.203125,248946.953125,251338.21875,259409.53125,219855.4375,246557.640625,205904.375,233810.96875,141106.0,1.0,3
224921.5,248816.859375,250825.828125,259369.65625,219373.796875,246315.4375,205621.9375,233609.171875,141107.0,1.0,3
224953.875,248901.078125,251151.90625,259423.03125,219639.0625,246439.53125,205784.109375,233748.46875,141108.0,1.0,3
224981.671875,249086.875,251862.0625,259505.46875,220283.25,246764.4375,206167.84375,234043.25,141109.0,1.0,3
224964.859375,249119.765625,251978.296875,259501.703125,220419.953125,246838.28125,206249.484375,234088.84375,141110.0,1.0,3
224916.578125,248947.390625,251340.375,259405.5,219857.140625,246559.59375,205912.140625,233815.53125,141111.0,1.0,3
224908.265625,248809.4375,250820.734375,259357.578125,219366.203125,246312.484375,205623.09375,233602.46875,141112.0,1.0,3
224953.421875,248900.359375,251152.4375,259428.125,219639.15625,246449.453125,205793.328125,233751.78125,141113.0,1.0,3
225002.140625,249102.25,251877.625,259525.21875,220298.890625,246786.6875,206189.046875,234061.046875,141114.0,1.0,3
224980.953125,249127.546875,251992.0625,259512.96875,220432.109375,246846.78125,206260.75,234097.96875,141115.0,1.0,3
224930.890625,248955.0,251354.40625,259418.65625,219868.484375,246558.96875,205918.046875,233822.765625,141116.0,1.0,3
224921.40625,248815.96875,250827.09375,259367.859375,219372.546875,246308.71875,205626.046875,233610.875,141117.0,1.0,3
224965.21875,248907.609375,251152.53125,259433.3125,219639.96875,246444.4375,205790.734375,233758.84375,141118.0,1.0,3
225007.6875,249102.78125,251872.796875,259529.25,220290.3125,246776.140625,206177.15625,234060.0625,141119.0,1.0,3
224978.90625,249122.984375,251990.71875,259509.390625,220432.109375,246841.40625,206249.296875,234100.015625,141120.0,1.0,3
224922.75,248953.390625,251354.9375,259410.25,219876.984375,246560.3125,205909.734375,233827.59375,141121.0,1.0,3
224904.609375,248812.484375,250819.9375,259355.96875,219373.0,246306.671875,205611.65625,233608.28125,141122.0,1.0,3
224948.234375,248899.5625,251137.328125,259422.765625,219629.234375,246437.921875,205768.921875,233749.375,141123.0,1.0,3
224995.984375,249101.078125,251863.21875,259521.828125,220282.796875,246777.9375,206161.59375,234053.0,141124.0,1.0,3
224975.328125,249136.75,251998.859375,259511.359375,220434.609375,246852.59375,206245.015625,234097.34375,141125.0,1.0,3
224920.609375,248960.171875,251364.421875,259415.609375,219876.09375,246564.078125,205905.4375,233822.59375,141126.0,1.0,3
224907.109375,248818.921875,250826.90625,259361.515625,219369.953125,246312.5625,205608.609375,233603.71875,141127.0,1.0,3
224948.953125,248903.578125,251132.671875,259422.140625,219619.046875,246441.5,205764.8125,233739.0,141128.0,1.0,3
224993.03125,249095.265625,251853.484375,259513.0625,220274.484375,246772.125,206155.78125,234043.15625,141129.0,1.0,3
224972.28125,249127.640625,251994.390625,259504.65625,220433.0,246848.65625,206244.5625,234096.625,141130.0,1.0,3
224927.21875,248959.90625,251373.453125,259416.140625,219886.546875,246574.4375,205916.265625,233833.328125,141131.0,1.0,3
224910.0625,248807.921875,250823.515625,259362.40625,219366.109375,246306.046875,205604.859375,233599.078125,141132.0,1.0,3
224939.921875,248877.65625,251113.453125,259410.328125,219598.203125,246413.421875,205741.921875,233717.984375,141133.0,1.0,3
224994.28125,249082.671875,251846.328125,259511.984375,220258.84375,246747.453125,206136.203125,234027.515625,141134.0,1.0,3
224990.53125,249137.109375,252015.65625,259524.953125,220439.890625,246841.765625,206247.875,234101.28125,141135.0,1.0,3
224931.6875,248960.359375,251386.59375,259421.59375,219887.0,246560.859375,205915.09375,233831.53125,141136.0,1.0,3
224905.3125,248802.734375,250822.078125,259357.234375,219358.78125,246284.3125,205597.53125,233594.0625,141137.0,1.0,3
224949.84375,248886.328125,251115.6875,259424.90625,219597.234375,246405.109375,205746.75,233727.203125,141138.0,1.0,3
224999.734375,249088.390625,251843.546875,259523.53125,220258.03125,246747.09375,206143.078125,234038.25,141139.0,1.0,3
224981.5,249128.359375,252002.515625,259511.8125,220433.265625,246836.5,206244.203125,234100.46875,141140.0,1.0,3
224932.328125,248961.34375,251384.359375,259417.390625,219894.234375,246563.71875,205918.40625,233838.0625,141141.0,1.0,3
224919.71875,248816.859375,250832.8125,259365.0,219378.8125,246306.3125,205616.203125,233612.578125,141142.0,1.0,3
224957.0,248889.90625,251112.109375,259417.671875,219601.78125,246417.4375,205754.96875,233732.109375,141143.0,1.0,3
224998.125,249082.75,251834.96875,259512.890625,220251.78125,246750.578125,206142.8125,234032.15625,141144.0,1.0,3
224980.328125,249127.640625,252007.265625,259509.125,220436.578125,246840.875,206249.5625,234099.484375,141145.0,1.0,3
224928.921875,248957.40625,251391.953125,259417.9375,219897.015625,246565.859375,205921.171875,233835.296875,141146.0,1.0,3
224912.828125,248806.046875,250829.765625,259362.859375,219372.453125,246299.421875,205609.765625,233602.109375,141147.0,1.0,3
224954.046875,248884.0,251104.0625,259425.0,219597.3125,246412.265625,205749.6875,233727.375,141148.0,1.0,3
224998.390625,249083.03125,251827.1875,259526.03125,220253.75,246745.65625,206141.125,234034.3125,141149.0,1.0,3
224975.5,249128.53125,252002.34375,259515.03125,220442.390625,246839.4375,206247.6875,234100.921875,141150.0,1.0,3
224924.09375,248962.5,251388.109375,259407.5625,219904.78125,246570.234375,205920.734375,233836.890625,141151.0,1.0,3
224913.71875,248818.640625,250829.859375,259358.65625,219382.921875,246312.296875,205611.921875,233608.375,141152.0,1.0,3
224961.5625,248896.4375,251106.03125,259421.15625,219602.59375,246423.875,205749.421875,233732.203125,141153.0,1.0,3
225005.453125,249090.359375,251830.59375,259515.03125,220253.75,246754.421875,206138.078125,234036.09375,141154.0,1.0,3
225000.1875,249148.46875,252031.671875,259526.5625,220466.265625,246861.265625,206263.78125,234120.671875,141155.0,1.0,3
224950.921875,248986.734375,251425.75,259436.265625,219936.171875,246592.40625,205942.8125,233863.8125,141156.0,1.0,3
224915.59375,248818.375,250835.84375,259362.40625,219384.4375,246307.5625,205610.40625,233609.0,141157.0,1.0,3
224956.375,248889.1875,251100.140625,259425.625,219596.0625,246416.734375,205745.40625,233729.34375,141158.0,1.0,3
224993.203125,249080.25,251822.625,259517.71875,220248.5625,246747.171875,206136.65625,234035.46875,141159.0,1.0,3
224973.53125,249130.859375,252016.5625,259515.203125,220452.671875,246849.453125,206254.390625,234113.609375,141160.0,1.0,3
224930.53125,248978.6875,251422.8125,259428.75,219936.171875,246596.171875,205946.484375,233867.921875,141161.0,1.0,3
224911.578125,248820.96875,250843.265625,259365.09375,219394.0,246319.0,205623.8125,233622.5,141162.0,1.0,3
224956.546875,248894.828125,251099.421875,259427.140625,219597.3125,246421.203125,205750.328125,233736.671875,141163.0,1.0,3
224997.671875,249088.390625,251824.0625,259512.34375,220248.5625,246754.15625,206140.046875,234038.875,141164.0,1.0,3
224976.3125,249131.125,252022.09375,259503.140625,220454.90625,246856.4375,206256.8125,234109.140625,141165.0,1.0,3
224933.296875,248977.078125,251428.265625,259412.921875,219932.328125,246594.015625,205938.4375,233853.890625,141166.0,1.0,3
224909.4375,248816.0625,250842.546875,259351.859375,219380.953125,246308.015625,205608.25,233605.0625,141167.0,1.0,3
224946.453125,248882.03125,251088.421875,259410.96875,219575.859375,246405.28125,205729.671875,233715.9375,141168.0,1.0,3
224994.734375,249084.8125,251815.03125,259508.765625,220233.71875,246744.5,206126.1875,234027.78125,141169.0,1.0,3
224975.953125,249137.5625,252022.640625,259504.390625,220453.65625,246851.6875,206255.65625,234107.359375,141170.0,1.0,3
224922.125,248968.9375,251423.515625,259415.15625,219930.71875,246586.328125,205940.75,233853.625,141171.0,1.0,3
224890.203125,248800.3125,250825.5625,259343.8125,219370.9375,246298.265625,205602.796875,233602.03125,141172.0,1.0,3
224925.25,248868.625,251063.5625,259394.328125,219559.234375,246391.25,205721.984375,233711.90625,141173.0,1.0,3
224972.828125,249068.984375,251790.359375,259492.859375,220215.5625,246729.296875,206118.5,234022.6875,141174.0,1.0,3
224957.53125,249125.3125,252008.78125,259498.046875,220444.53125,246845.609375,206250.734375,234109.140625,141175.0,1.0,3
224906.296875,248961.34375,251416.015625,259404.34375,219928.921875,246581.59375,205933.875,233852.640625,141176.0,1.0,3
224893.25,248802.640625,250826.453125,259345.78125,219378.265625,246302.734375,205609.421875,233609.359375,141177.0,1.0,3
224934.828125,248861.921875,251055.515625,259398.796875,219554.3125,246390.4375,205721.359375,233712.171875,141178.0,1.0,3
224982.75,249059.15625,251782.21875,259495.8125,220205.46875,246725.0,206112.15625,234016.78125,141179.0,1.0,3
224981.3125,249131.390625,252022.546875,259509.484375,220451.953125,246856.34375,206259.9375,234118.625,141180.0,1.0,3
224921.40625,248965.546875,251428.171875,259409.796875,219932.140625,246587.234375,205939.859375,233857.28125,141181.0,1.0,3
224896.015625,248799.15625,250827.4375,259336.21875,219375.046875,246298.71875,205605.296875,233602.921875,141182.0,1.0,3
224942.25,248867.90625,251057.484375,259394.515625,219557.53125,246390.890625,205720.375,233709.140625,141183.0,1.0,3
224993.65625,249068.546875,251787.859375,259502.0625,220213.515625,246726.96875,206115.375,234020.453125,141184.0,1.0,3
224975.765625,249124.515625,252016.921875,259498.84375,220451.0625,246841.5,206253.140625,234110.21875,141185.0,1.0,3
224916.9375,248959.46875,251427.984375,259401.65625,219938.578125,246576.5,205942.09375,233855.9375,141186.0,1.0,3
224891.546875,248799.15625,250827.265625,259336.03125,219379.078125,246292.625,205610.21875,233606.859375,141187.0,1.0,3
224935.546875,248866.75,251048.90625,259397.1875,219553.234375,246386.0625,205722.6875,233710.921875,141188.0,1.0,3
224986.859375,249071.046875,251778.734375,259502.78125,220210.5625,246722.40625,206116.359375,234022.421875,141189.0,1.0,3
224962.1875,249122.8125,252008.875,259497.59375,220446.5,246832.203125,206248.40625,234106.453125,141190.0,1.0,3
224904.78125,248950.078125,251420.125,259390.671875,219932.234375,246569.171875,205929.140625,233847.265625,141191.0,1.0,3
224889.5,248793.796875,250822.078125,259328.265625,219376.484375,246291.5625,205599.3125,233599.078125,141192.0,1.0,3
224937.953125,248866.390625,251043.0,259393.609375,219546.890625,246384.546875,205712.765625,233706.90625,141193.0,1.0,3
224978.90625,249062.015625,251763.71875,259482.125,220190.890625,246712.578125,206100.4375,234005.34375,141194.0,1.0,3
224976.484375,249126.921875,252024.515625,259502.515625,220454.375,246850.703125,206259.5,234113.25,141195.0,1.0,3
224916.671875,248955.703125,251438.625,259404.609375,219943.765625,246586.0625,205943.625,233854.6875,141196.0,1.0,3
224890.03125,248793.171875,250825.5625,259331.484375,219376.390625,246297.375,205606.28125,233599.078125,141197.0,1.0,3
224926.328125,248853.421875,251030.3125,259382.890625,219533.125,246374.703125,205709.015625,233696.703125,141198.0,1.0,3
224981.5,249053.96875,251762.28125,259496.078125,220187.140625,246710.609375,206102.140625,234004.453125,141199.0,1.0,3
224974.25,249124.859375,252024.6875,259503.140625,220450.796875,246841.140625,206252.875,234106.1875,141200.0,1.0,3
224919.890625,248964.375,251452.3125,259405.78125,219954.859375,246587.5,205953.1875,233859.515625,141201.0,1.0,3
224895.390625,248797.8125,250840.140625,259338.0,219383.984375,246296.484375,205614.6875,233603.71875,141202.0,1.0,3
224928.203125,248843.40625,251027.453125,259384.3125,219520.15625,246362.28125,205698.90625,233685.359375,141203.0,1.0,3
224981.859375,249049.578125,251758.53125,259486.875,220177.75,246701.21875,206097.484375,233999.34375,141204.0,1.0,3
224975.328125,249121.203125,252024.328125,259494.921875,220447.671875,246838.46875,206256.359375,234104.671875,141205.0,1.0,3
224931.6875,248973.140625,251463.578125,259409.078125,219956.90625,246592.765625,205960.875,233862.46875,141206.0,1.0,3
224902.8125,248806.125,250844.078125,259339.4375,219382.296875,246301.75,205615.765625,233600.5,141207.0,1.0,3
224942.6875,248862.1875,251031.5625,259394.421875,219524.09375,246374.265625,205706.515625,233685.71875,141208.0,1.0,3
224978.8125,249050.21875,251743.15625,259479.265625,220166.125,246699.96875,206089.53125,233982.625,141209.0,1.0,3
224975.765625,249128.359375,252026.390625,259499.734375,220451.328125,246845.96875,206258.875,234102.609375,141210.0,1.0,3
224923.734375,248974.9375,251466.796875,259410.15625,219966.296875,246601.359375,205962.484375,233858.625,141211.0,1.0,3
224902.453125,248813.015625,250850.875,259345.609375,219394.984375,246315.15625,205624.796875,233603.28125,141212.0,1.0,3
224934.46875,248859.6875,251023.328125,259390.75,219525.25,246378.109375,205707.859375,233688.21875,141213.0,1.0,3
224979.078125,249055.046875,251742.875,259484.625,220171.84375,246703.546875,206093.203125,233995.234375,141214.0,1.0,3
224968.0,249123.34375,252025.046875,259495.09375,220454.1875,246843.5625,206256.90625,234107.71875,141215.0,1.0,3
224929.28125,248975.015625,251478.234375,259417.390625,219982.390625,246608.328125,205972.59375,233878.65625,141216.0,1.0,3
224903.4375,248801.65625,250848.1875,259343.28125,219400.171875,246309.171875,205619.96875,233612.9375,141217.0,1.0,3
224942.15625,248846.71875,251014.65625,259392.546875,219515.6875,246362.640625,205692.03125,233685.625,141218.0,1.0,3
224994.453125,249048.875,251741.0,259497.59375,220163.53125,246691.921875,206085.15625,233991.21875,141219.0,1.0,3
224976.84375,249116.28125,252021.03125,259499.390625,220442.21875,246825.234375,206243.21875,234091.890625,141220.0,1.0,3
224929.28125,248970.015625,251472.25,259409.625,219969.078125,246582.578125,205953.71875,233855.5,141221.0,1.0,3
224901.46875,248804.515625,250841.65625,259335.59375,219387.296875,246286.1875,205604.234375,233590.40625,141222.0,1.0,3
224936.078125,248851.28125,251003.3125,259380.46875,219504.953125,246348.0625,205682.546875,233665.0625,141223.0,1.0,3
224995.265625,249057.1875,251737.25,259490.71875,220162.015625,246684.953125,206081.21875,233974.9375,141224.0,1.0,3
224989.71875,249136.578125,252040.78125,259508.0625,220462.0625,246830.421875,206250.640625,234089.03125,141225.0,1.0,3
224943.234375,248988.875,251497.015625,259420.96875,219992.859375,246592.234375,205963.921875,233852.984375,141226.0,1.0,3
224911.40625,248814.09375,250860.609375,259343.375,219402.953125,246295.140625,205612.1875,233584.328125,141227.0,1.0,3
224946.09375,248857.0,251015.015625,259389.859375,219511.9375,246357.265625,205686.390625,233660.5,141228.0,1.0,3
224990.4375,249052.625,251729.921875,259485.34375,220150.125,246688.078125,206072.546875,233967.078125,141229.0,1.0,3
224978.1875,249133.09375,252032.828125,259500.375,220453.65625,246845.078125,206251.625,234091.078125,141230.0,1.0,3
224929.8125,248986.640625,251493.96875,259418.5625,219993.125,246619.140625,205975.265625,233864.96875,141231.0,1.0,3
224910.5,248820.171875,250862.40625,259351.234375,219411.96875,246322.140625,205630.609375,233607.75,141232.0,1.0,3
224931.78125,248847.171875,250991.140625,259381.546875,219497.984375,246360.578125,205687.28125,233666.125,141233.0,1.0,3
224975.5,249036.984375,251703.625,259479.53125,220135.453125,246685.21875,206069.953125,233965.640625,141234.0,1.0,3
224971.03125,249117.453125,252018.25,259497.78125,220444.890625,246838.90625,206251.625,234092.953125,141235.0,1.0,3
224928.921875,248979.578125,251488.96875,259415.078125,219989.71875,246607.34375,205974.828125,233869.625,141236.0,1.0,3
224902.28125,248809.171875,250851.21875,259339.96875,219399.90625,246305.78125,205620.328125,233603.375,141237.0,1.0,3
224943.140625,248855.296875,250993.46875,259387.359375,219495.125,246351.375,205682.375,233669.96875,141238.0,1.0,3
224994.28125,249050.484375,251709.984375,259486.15625,220130.1875,246675.390625,206065.296875,233971.1875,141239.0,1.0,3
224979.96875,249120.75,252023.4375,259495.890625,220440.15625,246827.734375,206247.875,234094.125,141240.0,1.0,3
224923.640625,248966.703125,251484.40625,259398.71875,219975.0625,246590.984375,205964.890625,233856.125,141241.0,1.0,3
224901.65625,248799.328125,250843.53125,259330.21875,219385.421875,246297.734375,205615.765625,233588.53125,141242.0,1.0,3
224935.09375,248837.953125,250971.75,259374.578125,219474.921875,246343.140625,205673.78125,233650.9375,141243.0,1.0,3
224987.484375,249041.453125,251695.3125,259485.078125,220126.34375,246681.46875,206068.4375,233961.4375,141244.0,1.0,3
224995.703125,249144.71875,252039.71875,259515.203125,220466.0,246859.296875,206272.90625,234109.140625,141245.0,1.0,3
224935.265625,248987.265625,251503.71875,259415.25,220000.28125,246615.75,205983.671875,233872.65625,141246.0,1.0,3
224897.90625,248800.765625,250849.4375,259329.953125,219393.109375,246298.890625,205614.0625,233590.765625,141247.0,1.0,3
224944.21875,248850.125,250984.078125,259381.546875,219487.171875,246348.25,205680.21875,233659.421875,141248.0,1.0,3
224999.015625,249053.96875,251707.296875,259488.484375,220132.6875,246681.546875,206071.828125,233968.59375,141249.0,1.0,3
224992.9375,249140.515625,252040.96875,259508.6875,220460.625,246847.765625,206263.15625,234100.828125,141250.0,1.0,3
224937.5,248995.21875,251516.40625,259416.0625,220008.5,246614.9375,205985.375,233874.453125,141251.0,1.0,3
224908.890625,248820.34375,250866.609375,259340.859375,219409.5625,246310.953125,205627.03125,233603.375,141252.0,1.0,3
224929.28125,248839.84375,250967.015625,259370.640625,219469.203125,246335.09375,205664.578125,233647.0,141253.0,1.0,3
224978.546875,249032.234375,251679.765625,259467.375,220104.4375,246666.984375,206046.53125,233956.078125,141254.0,1.0,3
224978.0,249129.78125,252029.96875,259495.890625,220445.15625,246840.25,206249.03125,234102.703125,141255.0,1.0,3
224923.203125,248982.703125,251509.265625,259406.40625,219998.9375,246611.453125,205977.140625,233876.5,141256.0,1.0,3
224904.609375,248818.015625,250862.140625,259339.875,219403.125,246309.703125,205623.71875,233611.140625,141257.0,1.0,3
224933.03125,248844.3125,250968.171875,259370.015625,219468.75,246336.703125,205668.515625,233662.90625,141258.0,1.0,3
224976.125,249026.875,251675.640625,259461.390625,220100.5,246658.125,206049.203125,233961.0,141259.0,1.0,3
224975.59375,249115.75,252025.140625,259488.296875,220438.546875,246830.859375,206248.9375,234098.59375,141260.0,1.0,3
224922.671875,248973.5,251514.09375,259398.984375,220000.625,246607.34375,205983.046875,233876.234375,141261.0,1.0,3
224894.40625,248800.234375,250864.28125,259326.65625,219402.59375,246306.21875,205629.078125,233613.109375,141262.0,1.0,3
224922.125,248822.84375,250956.09375,259357.3125,219458.015625,246333.9375,205661.984375,233657.453125,141263.0,1.0,3
224970.5,249019.546875,251662.421875,259453.078125,220089.59375,246660.28125,206042.0625,233957.328125,141264.0,1.0,3
224979.265625,249130.59375,252033.71875,259490.171875,220451.328125,246851.78125,206261.8125,234114.234375,141265.0,1.0,3
224934.46875,248992.640625,251534.203125,259412.921875,220025.578125,246635.953125,206005.21875,233903.59375,141266.0,1.0,3
224901.203125,248807.375,250873.84375,259333.796875,219415.1875,246323.03125,205637.3125,233625.453125,141267.0,1.0,3
224939.03125,248844.484375,250968.625,259373.953125,219468.125,246351.8125,205674.5,233675.078125,141268.0,1.0,3
224986.859375,249037.0625,251675.46875,259468.1875,220099.15625,246673.421875,206056.09375,233978.875,141269.0,1.0,3
224976.75,249116.46875,252028.265625,259485.53125,220441.9375,246842.484375,206254.125,234116.390625,141270.0,1.0,3
224939.109375,248986.90625,251541.359375,259411.5,220023.96875,246633.984375,206002.890625,233907.625,141271.0,1.0,3
224907.375,248808.09375,250878.9375,259334.609375,219412.6875,246320.078125,205640.265625,233629.390625,141272.0,1.0,3
224926.6875,248820.703125,250945.640625,259358.125,219444.78125,246326.703125,205662.078125,233660.765625,141273.0,1.0,3
224972.640625,249007.03125,251646.953125,259454.140625,220070.640625,246645.796875,206039.375,233956.078125,141274.0,1.0,3
224980.0625,249119.765625,252032.109375,259495.1875,220448.921875,246844.09375,206266.734375,234119.328125,141275.0,1.0,3
224926.59375,248985.03125,251535.546875,259400.046875,220027.546875,246632.734375,206008.265625,233903.328125,141276.0,1.0,3
224887.53125,248801.921875,250864.90625,259311.1875,219415.90625,246323.296875,205639.09375,233620.265625,141277.0,1.0,3
224915.421875,248821.421875,250934.375,259348.375,219454.171875,246342.078125,205664.046875,233660.765625,141278.0,1.0,3
224963.34375,249011.59375,251638.28125,259450.65625,220084.046875,246661.25,206041.875,233960.015625,141279.0,1.0,3
224957.890625,249109.84375,252018.4375,259473.28125,220452.9375,246842.75,206257.96875,234113.4375,141280.0,1.0,3
224915.0625,248987.359375,251541.171875,259399.875,220044.53125,246640.6875,206015.234375,233910.21875,141281.0,1.0,3
224882.609375,248804.25,250869.546875,259314.9375,219427.171875,246331.078125,205647.765625,233629.75,141282.0,1.0,3
224906.484375,248813.8125,250918.8125,259334.25,219444.515625,246330.359375,205655.640625,233654.328125,141283.0,1.0,3
224954.84375,249002.015625,251617.890625,259426.609375,220066.875,246644.8125,206025.78125,233950.265625,141284.0,1.0,3
224963.875,249110.375,252016.28125,259464.96875,220450.171875,246841.140625,206253.953125,234116.5625,141285.0,1.0,3
224919.0,248982.703125,251540.375,259382.890625,220040.953125,246637.75,206009.515625,233911.109375,141286.0,1.0,3
224890.921875,248799.25,250873.046875,259312.875,219426.8125,246329.015625,205645.53125,233633.046875,141287.0,1.0,3
224933.484375,248828.84375,250940.453125,259362.859375,219459.546875,246351.015625,205675.671875,233679.09375,141288.0,1.0,3
224975.859375,249012.578125,251633.0,259455.9375,220077.875,246663.578125,206043.390625,233968.59375,141289.0,1.0,3
224973.09375,249113.78125,252027.90625,259486.328125,220460.625,246856.078125,206265.75,234125.0625,141290.0,1.0,3
224912.203125,248974.03125,251541.984375,259392.71875,220043.015625,246636.40625,206001.828125,233905.03125,141291.0,1.0,3
224880.734375,248797.640625,250871.703125,259312.703125,219424.21875,246323.203125,205631.234375,233622.046875,141292.0,1.0,3
224914.078125,248816.859375,250926.421875,259350.796875,219446.484375,246334.828125,205650.71875,233652.453125,141293.0,1.0,3
224971.125,249012.65625,251631.65625,259453.34375,220073.3125,246658.84375,206031.140625,233949.28125,141294.0,1.0,3
224976.84375,249122.1875,252035.78125,259480.34375,220462.328125,246860.015625,206261.734375,234110.484375,141295.0,1.0,3
224929.109375,248992.71875,251572.109375,259402.203125,220065.265625,246650.265625,206021.5,233908.328125,141296.0,1.0,3
224897.90625,248810.6875,250897.625,259320.578125,219445.0625,246333.140625,205652.0625,233626.34375,141297.0,1.0,3
224930.796875,248829.109375,250939.296875,259357.671875,219453.109375,246343.6875,205666.640625,233657.546875,141298.0,1.0,3
224977.375,249017.75,251630.234375,259457.625,220067.59375,246656.34375,206035.96875,233952.765625,141299.0,1.0,3
224964.78125,249117.453125,252028.984375,259478.109375,220455.625,246850.984375,206263.609375,234115.84375,141300.0,1.0,3
224912.921875,248990.75,251564.78125,259397.1875,220062.40625,246650.4375,206027.578125,233920.140625,141301.0,1.0,3
224872.234375,248800.3125,250877.25,259311.8125,219431.90625,246329.5625,205647.328125,233633.234375,141302.0,1.0,3
224902.453125,248811.234375,250902.1875,259344.890625,219429.234375,246330.453125,205652.0625,233658.265625,141303.0,1.0,3
224957.4375,249000.765625,251597.59375,259444.84375,220049.625,246651.515625,206029.53125,233956.4375,141304.0,1.0,3
224954.9375,249110.203125,252010.484375,259471.9375,220447.3125,246850.703125,206264.140625,234118.53125,141305.0,1.0,3
224911.75,248989.328125,251558.4375,259392.546875,220062.328125,246655.359375,206029.453125,233921.5625,141306.0,1.0,3
224880.90625,248805.0625,250880.8125,259309.484375,219436.109375,246333.765625,205652.0625,233630.8125,141307.0,1.0,3
224914.96875,248815.421875,250908.453125,259346.40625,219430.65625,246332.421875,205651.96875,233646.109375,141308.0,1.0,3
224962.71875,249001.21875,251598.046875,259439.578125,220045.421875,246644.0,206020.78125,233935.421875,141309.0,1.0,3
224970.5,249116.46875,252026.484375,259475.25,220457.859375,246854.828125,206264.671875,234111.921875,141310.0,1.0,3
224931.6875,249002.109375,251587.5,259403.546875,220086.8125,246668.859375,206038.65625,233925.328125,141311.0,1.0,3
224894.40625,248815.421875,250903.53125,259314.484375,219459.09375,246347.53125,205657.609375,233633.234375,141312.0,1.0,3
224918.1875,248814.171875,250910.328125,259340.859375,219437.546875,246331.96875,205647.0625,233642.265625,141313.0,1.0,3
224973.984375,249005.515625,251603.671875,259441.625,220054.1875,246651.78125,206020.953125,233942.578125,141314.0,1.0,3
224972.015625,249119.234375,252033.0,259469.96875,220468.59375,246862.421875,206266.203125,234118.4375,141315.0,1.0,3
224920.15625,248998.09375,251586.59375,259391.5625,220093.890625,246672.796875,206036.78125,233925.40625,141316.0,1.0,3
224891.8125,248817.578125,250903.078125,259314.484375,219467.859375,246359.859375,205661.890625,233640.03125,141317.0,1.0,3
224909.609375,248815.421875,250897.71875,259331.125,219434.953125,246336.890625,205647.0625,233641.28125,141318.0,1.0,3
224962.8125,249003.1875,251584.625,259434.296875,220047.296875,246647.578125,206022.203125,233940.703125,141319.0,1.0,3
224966.65625,249118.421875,252017.265625,259468.546875,220462.6875,246857.421875,206269.859375,234119.328125,141320.0,1.0,3
224919.0,248993.171875,251576.40625,259391.828125,220091.109375,246668.046875,206041.15625,233924.515625,141321.0,1.0,3
224889.765625,248810.328125,250893.25,259318.15625,219466.875,246352.625,205668.15625,233640.203125,141322.0,1.0,3
224916.40625,248815.875,250895.84375,259342.203125,219440.859375,246340.90625,205663.15625,233650.03125,141323.0,1.0,3
224960.03125,248997.46875,251579.453125,259435.015625,220041.765625,246639.078125,206021.765625,233933.71875,141324.0,1.0,3
224962.8125,249114.765625,252023.34375,259469.34375,220462.78125,246848.46875,206264.859375,234110.125,141325.0,1.0,3
224918.109375,249000.140625,251595.984375,259392.0,220102.203125,246665.109375,206042.5,233925.40625,141326.0,1.0,3
224887.4375,248816.40625,250910.234375,259312.34375,219473.046875,246349.859375,205664.765625,233639.390625,141327.0,1.0,3
224924.359375,248823.921875,250909.15625,259346.765625,219438.625,246338.40625,205656.625,233653.796875,141328.0,1.0,3
224974.609375,249002.109375,251588.46875,259445.03125,220037.203125,246642.921875,206016.578125,233939.890625,141329.0,1.0,3
224969.515625,249107.4375,252025.5,259471.484375,220457.59375,246850.078125,206259.765625,234114.5,141330.0,1.0,3
224919.53125,248986.828125,251598.125,259392.546875,220100.140625,246665.015625,206041.515625,233930.78125,141331.0,1.0,3
224892.265625,248807.921875,250917.03125,259312.34375,219477.0625,246351.640625,205672.171875,233651.734375,141332.0,1.0,3
224918.109375,248805.59375,250898.34375,259335.140625,219430.296875,246328.390625,205651.703125,233653.609375,141333.0,1.0,3
224977.296875,249000.234375,251583.921875,259441.09375,220038.890625,246639.359375,206024.796875,233950.265625,141334.0,1.0,3
224985.609375,249117.171875,252037.828125,259485.34375,220474.046875,246859.296875,206282.296875,234135.703125,141335.0,1.0,3
224931.96875,248997.015625,251612.078125,259403.890625,220115.703125,246673.234375,206061.28125,233948.390625,141336.0,1.0,3
224896.015625,248805.765625,250915.859375,259319.671875,219477.328125,246347.890625,205679.25,233655.84375,141337.0,1.0,3
224914.34375,248792.71875,250878.3125,259336.125,219413.578125,246316.0625,205648.671875,233647.171875,141338.0,1.0,3
224961.734375,248978.859375,251554.6875,259435.1875,220012.078125,246623.609375,206016.390625,233940.15625,141339.0,1.0,3
224968.625,249105.015625,252015.484375,259476.140625,220450.796875,246844.265625,206277.015625,234129.078125,141340.0,1.0,3
224930.359375,249001.125,251607.78125,259411.859375,220110.78125,246673.234375,206071.03125,233958.21875,141341.0,1.0,3
224895.84375,248813.28125,250914.265625,259332.46875,219475.90625,246348.25,205687.375,233664.796875,141342.0,1.0,3
224917.84375,248801.21875,250877.875,259345.6875,219412.0625,246312.125,205650.0,233649.140625,141343.0,1.0,3
224967.09375,248986.46875,251549.9375,259439.65625,220006.984375,246615.296875,206008.078125,233933.375,141344.0,1.0,3
224979.703125,249116.546875,252023.890625,259487.671875,220458.75,246844.265625,206272.453125,234126.84375,141345.0,1.0,3
224925.25,248994.78125,251611.71875,259397.640625,220112.296875,246666.890625,206057.4375,233940.4375,141346.0,1.0,3
224897.359375,248810.6875,250919.4375,259316.375,219479.296875,246350.921875,205679.25,233650.21875,141347.0,1.0,3
224932.5,248813.46875,250885.015625,259341.765625,219419.75,246327.953125,205651.609375,233646.8125,141348.0,1.0,3
224990.796875,249008.09375,251563.078125,259443.328125,220020.484375,246635.6875,206015.6875,233934.890625,141349.0,1.0,3
224995.984375,249130.234375,252039.0,259483.734375,220473.421875,246860.1875,206278.71875,234125.765625,141350.0,1.0,3
224942.6875,249009.625,251633.359375,259402.109375,220130.984375,246679.859375,206060.5625,233944.015625,141351.0,1.0,3
224899.953125,248812.75,250930.703125,259314.578125,219489.140625,246351.375,205674.328125,233649.328125,141352.0,1.0,3
224927.9375,248805.953125,250883.59375,259344.171875,219420.015625,246320.4375,205641.78125,233644.578125,141353.0,1.0,3
224985.703125,248995.140625,251556.46875,259454.0625,220016.28125,246627.734375,206005.578125,233938.46875,141354.0,1.0,3
224992.40625,249123.609375,252038.015625,259496.875,220472.796875,246858.84375,206279.34375,234135.25,141355.0,1.0,3
224934.46875,249001.84375,251631.84375,259409.796875,220132.421875,246681.734375,206070.578125,233952.859375,141356.0,1.0,3
224891.546875,248807.65625,250922.9375,259314.484375,219487.875,246350.296875,205680.3125,233650.65625,141357.0,1.0,3
224912.5625,248792.453125,250860.796875,259331.125,219401.875,246303.09375,205631.40625,233628.3125,141358.0,1.0,3
224972.375,248983.609375,251536.625,259438.40625,219998.3125,246613.25,205996.90625,233918.96875,141359.0,1.0,3
224990.96875,249124.15625,252033.640625,259494.46875,220473.234375,246861.625,206281.84375,234125.6875,141360.0,1.0,3
224936.796875,249012.84375,251638.546875,259409.796875,220145.03125,246694.0625,206078.890625,233944.71875,141361.0,1.0,3
224899.859375,248825.703125,250936.515625,259319.5,219507.8125,246370.234375,205695.515625,233648.609375,141362.0,1.0,3
224919.984375,248805.421875,250863.46875,259335.59375,219414.921875,246322.671875,205641.515625,233626.53125,141363.0,1.0,3
224972.375,248988.078125,251526.0625,259434.203125,219995.09375,246617.8125,205988.6875,233909.046875,141364.0,1.0,3
224986.40625,249122.546875,252027.734375,259485.703125,220466.359375,246859.203125,206269.421875,234118.53125,141365.0,1.0,3
224942.875,249020.171875,251651.15625,259419.0,220154.953125,246695.859375,206077.640625,233954.203125,141366.0,1.0,3
224910.234375,248833.046875,250948.765625,259327.8125,219512.734375,246370.0625,205694.625,233660.234375,141367.0,1.0,3
224930.078125,248809.703125,250863.65625,259341.671875,219401.34375,246308.09375,205633.015625,233629.390625,141368.0,1.0,3
224982.484375,248988.703125,251522.9375,259438.671875,219980.15625,246603.765625,205983.046875,233910.921875,141369.0,1.0,3
224989.359375,249121.734375,252020.21875,259476.859375,220450.796875,246839.171875,206260.5625,234115.40625,141370.0,1.0,3
224937.953125,249015.34375,251643.46875,259399.0625,220142.15625,246678.421875,206070.3125,233950.4375,141371.0,1.0,3
224895.84375,248824.640625,250938.125,259306.71875,219500.484375,246352.53125,205686.9375,233653.796875,141372.0,1.0,3
224917.03125,248805.59375,250854.796875,259319.859375,219395.796875,246298.890625,205632.390625,233628.3125,141373.0,1.0,3
224966.828125,248984.3125,251511.234375,259414.71875,219976.140625,246594.5625,205983.140625,233905.921875,141374.0,1.0,3
224985.25,249123.796875,252024.953125,259473.359375,220465.015625,246846.78125,206276.125,234120.9375,141375.0,1.0,3
224949.671875,249027.234375,251667.59375,259413.734375,220169.609375,246702.5625,206097.75,233965.203125,141376.0,1.0,3
224913.015625,248836.796875,250964.5,259326.46875,219525.25,246374.96875,205711.609375,233666.21875,141377.0,1.0,3
224932.765625,248808.1875,250867.765625,259339.4375,219403.84375,246308.453125,205642.859375,233629.109375,141378.0,1.0,3
224986.59375,248987.71875,251523.390625,259444.84375,219983.734375,246607.34375,205997.984375,233915.125,141379.0,1.0,3
225001.609375,249129.96875,252044.1875,259505.375,220476.09375,246863.5,206291.046875,234135.515625,141380.0,1.0,3
224944.03125,249019.90625,251674.9375,259419.09375,220166.125,246702.390625,206097.671875,233969.3125,141381.0,1.0,3
224902.8125,248821.328125,250959.40625,259329.875,219513.625,246366.21875,205699.453125,233662.109375,141382.0,1.0,3
224920.515625,248797.09375,250847.03125,259329.328125,219383.28125,246295.765625,205624.796875,233619.546875,141383.0,1.0,3
224971.125,248974.578125,251493.25,259427.6875,219952.890625,246583.734375,205969.640625,233895.015625,141384.0,1.0,3
224987.21875,249121.640625,252018.875,259482.671875,220449.28125,246836.9375,206267.546875,234117.453125,141385.0,1.0,3
224950.109375,249032.6875,251676.8125,259419.8125,220167.109375,246697.203125,206095.703125,233969.484375,141386.0,1.0,3
224904.515625,248840.828125,250966.375,259322.09375,219520.0625,246372.65625,205709.8125,233668.71875,141387.0,1.0,3
224913.546875,248805.234375,250846.75,259326.375,219380.6875,246299.34375,205631.234375,233624.109375,141388.0,1.0,3
224956.109375,248975.109375,251483.0625,259412.65625,219940.1875,246580.078125,205969.1875,233889.65625,141389.0,1.0,3
224966.65625,249112.4375,252002.96875,259461.5625,220432.5625,246831.9375,206262.4375,234104.3125,141390.0,1.0,3
224927.5,249021.78125,251662.6875,259400.765625,220153.96875,246691.203125,206092.125,233956.703125,141391.0,1.0,3
224884.578125,248824.375,250950.640625,259306.890625,219507.375,246363.4375,205702.3125,233656.125,141392.0,1.0,3
224905.765625,248796.203125,250833.703125,259319.59375,219371.46875,246294.6875,205627.03125,233613.296875,141393.0,1.0,3
224954.765625,248969.296875,251471.53125,259412.921875,219930.359375,246577.84375,205964.890625,233883.921875,141394.0,1.0,3
224971.484375,249115.390625,252002.15625,259468.359375,220431.484375,246833.8125,206264.234375,234104.21875,141395.0,1.0,3
224924.625,249019.1875,251663.21875,259402.28125,220154.953125,246689.875,206092.296875,233957.15625,141396.0,1.0,3
224884.125,248826.0625,250951.1875,259312.171875,219506.296875,246359.0625,205702.046875,233652.984375,141397.0,1.0,3
224909.078125,248798.0,250829.046875,259324.328125,219365.3125,246287.265625,205622.921875,233608.90625,141398.0,1.0,3
224963.796875,248974.578125,251470.015625,259419.359375,219931.4375,246577.21875,205969.015625,233889.828125,141399.0,1.0,3
224987.3125,249125.21875,252012.0,259482.21875,220442.484375,246836.859375,206273.078125,234115.140625,141400.0,1.0,3
224945.015625,249033.046875,251686.46875,259419.984375,220176.859375,246697.46875,206105.53125,233967.96875,141401.0,1.0,3
224912.03125,248844.21875,250981.84375,259328.609375,219536.703125,246374.96875,205719.125,233668.90625,141402.0,1.0,3
224925.4375,248803.53125,250839.609375,259323.078125,219379.25,246291.109375,205626.671875,233607.75,141403.0,1.0,3
224978.71875,248977.34375,251477.078125,259426.875,219939.125,246578.375,205967.40625,233881.421875,141404.0,1.0,3
224991.78125,249121.46875,252016.921875,259486.0625,220442.65625,246831.671875,206267.8125,234104.84375,141405.0,1.0,3
224946.0,249034.125,251696.65625,259420.34375,220182.125,246694.96875,206108.9375,233968.0625,141406.0,1.0,3
224902.1875,248839.390625,250982.296875,259323.34375,219533.21875,246364.421875,205715.71875,233665.859375,141407.0,1.0,3
224930.171875,248811.234375,250846.75,259336.484375,219378.265625,246290.671875,205629.171875,233619.453125,141408.0,1.0,3
224981.671875,248984.765625,251478.59375,259429.640625,219930.625,246572.46875,205965.171875,233889.734375,141409.0,1.0,3
224983.8125,249120.484375,252013.78125,259473.71875,220434.875,246825.671875,206261.28125,234107.890625,141410.0,1.0,3
224937.953125,249033.140625,251696.84375,259407.75,220183.828125,246700.953125,206107.765625,233973.421875,141411.0,1.0,3
224898.4375,248840.90625,250985.25,259322.265625,219538.21875,246377.84375,205720.546875,233673.90625,141412.0,1.0,3
224923.921875,248809.890625,250842.375,259338.984375,219378.359375,246303.453125,205636.328125,233625.0,141413.0,1.0,3
224971.84375,248983.6875,251466.609375,259424.734375,219923.5625,246576.328125,205962.484375,233883.21875,141414.0,1.0,3
224987.3125,249130.765625,252017.71875,259477.390625,220442.21875,246837.828125,206268.875,234109.59375,141415.0,1.0,3
224944.03125,249040.734375,251705.6875,259409.265625,220189.546875,246706.046875,206109.640625,233970.296875,141416.0,1.0,3
224913.1875,248860.578125,251000.359375,259327.09375,219553.234375,246390.53125,205732.265625,233679.71875,141417.0,1.0,3
224929.546875,248818.203125,250840.3125,259338.0,219379.515625,246304.96875,205635.515625,233620.984375,141418.0,1.0,3
224978.453125,248984.046875,251461.515625,259428.484375,219923.5625,246581.6875,205961.40625,233884.546875,141419.0,1.0,3
224999.375,249140.15625,252023.4375,259493.125,220449.453125,246846.515625,206270.578125,234116.921875,141420.0,1.0,3
224969.96875,249074.078125,251738.765625,259448.15625,220224.5,246736.265625,206136.734375,233997.921875,141421.0,1.0,3
224910.953125,248859.859375,251006.34375,259336.03125,219562.625,246396.4375,205737.09375,233680.34375,141422.0,1.0,3
224927.21875,248810.328125,250832.890625,259338.90625,219372.8125,246297.8125,205626.140625,233609.53125,141423.0,1.0,3
224973.265625,248972.609375,251446.3125,259424.109375,219906.390625,246563.0,205944.15625,233866.140625,141424.0,1.0,3
224991.859375,249124.421875,252011.640625,259481.0625,220436.3125,246832.65625,206257.796875,234097.78125,141425.0,1.0,3
224953.875,249048.15625,251724.828125,259425.4375,220206.359375,246717.5,206120.015625,233970.03125,141426.0,1.0,3
