FZ,C3,CZ,C4,PZ,PO7,OZ,PO8,Counter,Validation,Label
-638211.1875,-49983.421875,-45729.79296875,1946.0323486328125,-750000.125,12793.513671875,-750000.125,-750000.125,963039.0,1.0,1
-651216.9375,-7667.7216796875,4761.99462890625,11052.4013671875,-750000.125,-16129.82421875,-750000.125,-750000.125,963040.0,1.0,1
-654005.5625,4417.0625,22487.197265625,13234.111328125,-750000.125,-23630.443359375,-750000.125,-750000.125,963041.0,1.0,1
-643515.0,-36609.65625,-23004.05859375,5850.88232421875,-750000.125,-1045.346435546875,-750000.125,-750000.125,963042.0,1.0,1
-633362.375,-58547.26953125,-55353.65234375,-1387.5069580078125,-750000.125,21558.2578125,-750000.125,-750000.125,963043.0,1.0,1
-638279.0625,-50214.0,-45981.921875,1834.00537109375,-750000.125,12804.2421875,-750000.125,-750000.125,963044.0,1.0,1
-651258.0,-8204.07421875,4279.64404296875,10936.798828125,-750000.125,-16087.35546875,-750000.125,-750000.125,963045.0,1.0,1
-654128.9375,4405.97607421875,22527.4296875,13202.5498046875,-750000.125,-23809.2578125,-750000.125,-750000.125,963046.0,1.0,1
-643661.5,-36414.390625,-22768.11328125,5865.3662109375,-750000.125,-1307.8453369140625,-750000.125,-750000.125,963047.0,1.0,1
-633408.875,-58514.90234375,-55338.71875,-1423.0909423828125,-750000.125,21492.455078125,-750000.125,-750000.125,963048.0,1.0,1
-638206.4375,-50335.50390625,-46218.1328125,1753.807373046875,-750000.125,12984.21875,-750000.125,-750000.125,963049.0,1.0,1
-651152.8125,-8346.1416015625,3898.3232421875,10926.427734375,-750000.125,-15802.5048828125,-750000.125,-750000.125,963050.0,1.0,1
-654104.9375,4874.73681640625,22695.873046875,13326.46875,-750000.125,-23679.171875,-750000.125,-750000.125,963051.0,1.0,1
-643668.5,-35950.45703125,-22417.458984375,6048.1142578125,-750000.125,-1276.642333984375,-750000.125,-750000.125,963052.0,1.0,1
-633314.375,-58402.96484375,-55328.34765625,-1281.827880859375,-750000.125,21616.552734375,-750000.125,-750000.125,963053.0,1.0,1
-637992.0625,-50351.6875,-46444.3359375,1835.4359130859375,-750000.125,13451.99609375,-750000.125,-750000.125,963054.0,1.0,1
-650917.3125,-8133.53173828125,3613.025634765625,11025.04296875,-750000.125,-15232.8935546875,-750000.125,-750000.125,963055.0,1.0,1
-653951.8125,5746.36572265625,22936.556640625,13508.8583984375,-750000.125,-23289.087890625,-750000.125,-750000.125,963056.0,1.0,1
-643546.6875,-35263.54296875,-22026.83984375,6248.29638671875,-750000.125,-1015.8421020507812,-750000.125,-750000.125,963057.0,1.0,1
-633109.5,-58212.6171875,-55327.36328125,-1123.0411376953125,-750000.125,21840.6953125,-750000.125,-750000.125,963058.0,1.0,1
-637687.0,-50276.85546875,-46664.09765625,1964.9866943359375,-750000.125,14095.994140625,-750000.125,-750000.125,963059.0,1.0,1
-650610.125,-7669.509765625,3369.3916015625,11168.0947265625,-750000.125,-14470.251953125,-750000.125,-750000.125,963060.0,1.0,1
-653752.0625,6955.6845703125,23236.16015625,13733.6279296875,-750000.125,-22720.818359375,-750000.125,-750000.125,963061.0,1.0,1
-643401.4375,-34393.078125,-21567.736328125,6526.35205078125,-750000.125,-586.867431640625,-750000.125,-750000.125,963062.0,1.0,1
-632892.875,-57993.125,-55327.9921875,-893.26513671875,-750000.125,22157.017578125,-750000.125,-750000.125,963063.0,1.0,1
-637384.9375,-50188.609375,-46891.81640625,2142.727783203125,-750000.125,14883.669921875,-750000.125,-750000.125,963064.0,1.0,1
-650304.75,-7235.17041015625,3106.356201171875,11312.0400390625,-750000.125,-13524.8623046875,-750000.125,-750000.125,963065.0,1.0,1
-653567.875,8144.61865234375,23549.173828125,13939.353515625,-750000.125,-22034.88671875,-750000.125,-750000.125,963066.0,1.0,1
-643285.1875,-33516.80078125,-21068.3984375,6747.09814453125,-750000.125,-117.39136505126953,-750000.125,-750000.125,963067.0,1.0,1
-632721.3125,-57780.87109375,-55298.30859375,-762.3733520507812,-750000.125,22438.73828125,-750000.125,-750000.125,963068.0,1.0,1
-637130.875,-50147.39453125,-47129.7265625,2098.203125,-750000.125,15495.66015625,-750000.125,-750000.125,963069.0,1.0,1
-650061.25,-7094.8017578125,2698.1240234375,11408.8671875,-750000.125,-12878.5390625,-750000.125,-750000.125,963070.0,1.0,1
-653466.0625,8867.384765625,23676.48828125,14167.7880859375,-750000.125,-21644.267578125,-750000.125,-750000.125,963071.0,1.0,1
-643270.0,-32897.38671875,-20732.2265625,7035.07763671875,-750000.125,100.22522735595703,-750000.125,-750000.125,963072.0,1.0,1
-632658.1875,-57634.421875,-55273.00390625,-557.8101806640625,-750000.125,22547.546875,-750000.125,-750000.125,963073.0,1.0,1
-636997.1875,-50219.9921875,-47384.359375,2225.160888671875,-750000.125,15953.3349609375,-750000.125,-750000.125,963074.0,1.0,1
-649949.875,-7289.0830078125,2232.760498046875,11533.5009765625,-750000.125,-12304.546875,-750000.125,-750000.125,963075.0,1.0,1
-653489.5,9169.4013671875,23700.001953125,14370.294921875,-750000.125,-21348.509765625,-750000.125,-750000.125,963076.0,1.0,1
-643380.5,-32562.111328125,-20535.62109375,7286.1328125,-750000.125,192.13560485839844,-750000.125,-750000.125,963077.0,1.0,1
-632726.75,-57580.6875,-55270.6796875,-344.39569091796875,-750000.125,22584.47265625,-750000.125,-750000.125,963078.0,1.0,1
-637003.625,-50370.28515625,-47619.23046875,2454.668701171875,-750000.125,16383.1142578125,-750000.125,-750000.125,963079.0,1.0,1
-649976.3125,-7632.4951171875,1827.568115234375,11596.5322265625,-750000.125,-11702.390625,-750000.125,-750000.125,963080.0,1.0,1
-653658.8125,9253.98046875,23779.0390625,14451.119140625,-750000.125,-21060.171875,-750000.125,-750000.125,963081.0,1.0,1
-643634.3125,-32395.45703125,-20280.900390625,7367.224609375,-750000.125,252.7535400390625,-750000.125,-750000.125,963082.0,1.0,1
-632937.125,-57621.63671875,-55257.44921875,-331.69989013671875,-750000.125,22581.521484375,-750000.125,-750000.125,963083.0,1.0,1
-637146.5,-50643.2421875,-47864.1171875,2395.570556640625,-750000.125,16585.083984375,-750000.125,-750000.125,963084.0,1.0,1
-650142.625,-8428.9326171875,1319.46826171875,11461.349609375,-750000.125,-11517.9443359375,-750000.125,-750000.125,963085.0,1.0,1
-653955.0625,8730.591796875,23682.478515625,14336.3203125,-750000.125,-21220.478515625,-750000.125,-750000.125,963086.0,1.0,1
-644015.125,-32571.052734375,-20184.7890625,7276.6552734375,-750000.125,-110.50702667236328,-750000.125,-750000.125,963087.0,1.0,1
-633263.5,-57729.375,-55229.1953125,-492.811279296875,-750000.125,22367.5703125,-750000.125,-750000.125,963088.0,1.0,1
-637396.5625,-50998.3671875,-48105.96484375,2127.528564453125,-750000.125,16444.0,-750000.125,-750000.125,963089.0,1.0,1
-650393.0625,-9547.2353515625,686.019775390625,11170.3291015625,-750000.125,-11709.54296875,-750000.125,-750000.125,963090.0,1.0,1
-654333.6875,7755.876953125,23474.072265625,14105.203125,-750000.125,-21735.91015625,-750000.125,-750000.125,963091.0,1.0,1
-644481.375,-33007.44921875,-20181.5703125,7073.25439453125,-750000.125,-832.647216796875,-750000.125,-750000.125,963092.0,1.0,1
-633688.8125,-57912.74609375,-55196.921875,-742.4356079101562,-750000.125,21965.59765625,-750000.125,-750000.125,963093.0,1.0,1
-637745.625,-51471.6875,-48375.078125,1763.7315673828125,-750000.125,15950.0263671875,-750000.125,-750000.125,963094.0,1.0,1
-650746.3125,-11096.9267578125,-106.66252899169922,10770.412109375,-750000.125,-12374.10546875,-750000.125,-750000.125,963095.0,1.0,1
-654814.3125,6296.66552734375,23089.263671875,13759.376953125,-750000.125,-22748.98046875,-750000.125,-750000.125,963096.0,1.0,1
-645033.4375,-33697.22265625,-20333.5625,6782.9501953125,-750000.125,-1985.4608154296875,-750000.125,-750000.125,963097.0,1.0,1
-634163.375,-58154.68359375,-55176.8046875,-1068.8604736328125,-750000.125,21354.3203125,-750000.125,-750000.125,963098.0,1.0,1
-638096.1875,-51951.4453125,-48628.1875,1368.284423828125,-750000.125,15209.7373046875,-750000.125,-750000.125,963099.0,1.0,1
-651055.5625,-12576.791015625,-853.3002319335938,10333.837890625,-750000.125,-13265.939453125,-750000.125,-750000.125,963100.0,1.0,1
-655206.1875,4993.91650390625,22791.001953125,13393.7021484375,-750000.125,-23913.060546875,-750000.125,-750000.125,963101.0,1.0,1
-645464.3125,-34214.62109375,-20357.880859375,6499.26171875,-750000.125,-3208.995361328125,-750000.125,-750000.125,963102.0,1.0,1
-634489.375,-58311.32421875,-55120.8359375,-1358.807373046875,-750000.125,20753.23828125,-750000.125,-750000.125,963103.0,1.0,1
-638285.125,-52300.84765625,-48823.1875,1027.3756103515625,-750000.125,14558.0498046875,-750000.125,-750000.125,963104.0,1.0,1
-651198.8125,-13545.515625,-1437.1278076171875,10018.41015625,-750000.125,-13967.7841796875,-750000.125,-750000.125,963105.0,1.0,1
-655428.625,4368.3359375,22727.076171875,13218.2861328125,-750000.125,-24796.22265625,-750000.125,-750000.125,963106.0,1.0,1
-645717.5,-34350.33984375,-20133.826171875,6415.04052734375,-750000.125,-4126.75830078125,-750000.125,-750000.125,963107.0,1.0,1
-634647.125,-58373.90625,-55034.82421875,-1452.7740478515625,-750000.125,20320.6875,-750000.125,-750000.125,963108.0,1.0,1
-638310.0,-52532.859375,-48972.13671875,891.2088012695312,-750000.125,14160.45703125,-750000.125,-750000.125,963109.0,1.0,1
-651177.0625,-14074.357421875,-1823.0977783203125,9912.6416015625,-750000.125,-14381.470703125,-750000.125,-750000.125,963110.0,1.0,1
-655487.625,4325.42041015625,22866.103515625,13226.2431640625,-750000.125,-25380.49609375,-750000.125,-750000.125,963111.0,1.0,1
-645812.9375,-34152.6640625,-19703.869140625,6504.53662109375,-750000.125,-4764.85546875,-750000.125,-750000.125,963112.0,1.0,1
-634652.125,-58343.2421875,-54930.578125,-1375.43701171875,-750000.125,20065.51953125,-750000.125,-750000.125,963113.0,1.0,1
-638190.8125,-52644.9765625,-49089.53125,924.4682006835938,-750000.125,14036.359375,-750000.125,-750000.125,963114.0,1.0,1
-651024.625,-14196.041015625,-2062.619140625,9946.884765625,-750000.125,-14476.4208984375,-750000.125,-750000.125,963115.0,1.0,1
-655425.5,4784.078125,23151.3125,13338.9853515625,-750000.125,-25660.876953125,-750000.125,-750000.125,963116.0,1.0,1
-645794.25,-33669.953125,-19146.416015625,6664.12841796875,-750000.125,-5124.361328125,-750000.125,-750000.125,963117.0,1.0,1
-634560.4375,-58226.4765625,-54821.3203125,-1243.651123046875,-750000.125,19964.400390625,-750000.125,-750000.125,963118.0,1.0,1
-637982.0,-52679.84375,-49221.58203125,999.570068359375,-750000.125,14119.7763671875,-750000.125,-750000.125,963119.0,1.0,1
-650770.8125,-14143.7373046875,-2323.151123046875,10018.677734375,-750000.125,-14308.693359375,-750000.125,-750000.125,963120.0,1.0,1
-655264.5625,5645.60400390625,23501.876953125,13513.060546875,-750000.125,-25686.0,-750000.125,-750000.125,963121.0,1.0,1
-645678.625,-32885.05078125,-18452.70703125,6908.298828125,-750000.125,-5255.7001953125,-750000.125,-750000.125,963122.0,1.0,1
-634358.125,-58002.0625,-54676.03515625,-1033.1871337890625,-750000.125,20022.515625,-750000.125,-750000.125,963123.0,1.0,1
-637653.125,-52602.95703125,-49326.1015625,1154.601806640625,-750000.125,14499.3095703125,-750000.125,-750000.125,963124.0,1.0,1
-650416.9375,-13678.8212890625,-2432.94287109375,10205.44921875,-750000.125,-13809.712890625,-750000.125,-750000.125,963125.0,1.0,1
-655016.75,6933.2431640625,23991.828125,13813.021484375,-750000.125,-25362.078125,-750000.125,-750000.125,963126.0,1.0,1
-645492.375,-31895.2265625,-17630.07421875,7279.96337890625,-750000.125,-5045.23583984375,-750000.125,-750000.125,963127.0,1.0,1
-634111.625,-57752.6171875,-54525.3828125,-677.526123046875,-750000.125,20269.099609375,-750000.125,-750000.125,963128.0,1.0,1
-637310.25,-52504.33984375,-49416.7578125,1462.78759765625,-750000.125,15102.1806640625,-750000.125,-750000.125,963129.0,1.0,1
-650061.375,-13158.830078125,-2500.89208984375,10503.353515625,-750000.125,-13045.73046875,-750000.125,-750000.125,963130.0,1.0,1
-654780.1875,8326.47265625,24508.2421875,14191.48046875,-750000.125,-24810.974609375,-750000.125,-750000.125,963131.0,1.0,1
-645323.6875,-30819.837890625,-16772.123046875,7704.2890625,-750000.125,-4648.7158203125,-750000.125,-750000.125,963132.0,1.0,1
-633891.6875,-57500.40234375,-54375.44921875,-319.093505859375,-750000.125,20594.8984375,-750000.125,-750000.125,963133.0,1.0,1
-636991.5625,-52413.4140625,-49517.25390625,1750.767578125,-750000.125,15823.248046875,-750000.125,-750000.125,963134.0,1.0,1
-649729.375,-12619.2587890625,-2567.410888671875,10767.7294921875,-750000.125,-12157.29296875,-750000.125,-750000.125,963135.0,1.0,1
-654568.75,9714.873046875,25006.1484375,14529.70703125,-750000.125,-24143.908203125,-750000.125,-750000.125,963136.0,1.0,1
-645175.5625,-29744.541015625,-15928.658203125,8050.2939453125,-750000.125,-4151.7919921875,-750000.125,-750000.125,963137.0,1.0,1
-633687.8125,-57241.12109375,-54219.703125,-57.935726165771484,-750000.125,20937.1484375,-750000.125,-750000.125,963138.0,1.0,1
-636691.1875,-52326.0625,-49616.31640625,1948.267578125,-750000.125,16543.95703125,-750000.125,-750000.125,963139.0,1.0,1
-649416.0,-12173.8330078125,-2673.08984375,10973.9921875,-750000.125,-11251.064453125,-750000.125,-750000.125,963140.0,1.0,1
-654371.125,10984.36328125,25433.42578125,14824.03515625,-750000.125,-23465.66796875,-750000.125,-750000.125,963141.0,1.0,1
-645052.9375,-28697.048828125,-15151.2646484375,8405.150390625,-750000.125,-3635.019775390625,-750000.125,-750000.125,963142.0,1.0,1
-633515.375,-56987.7421875,-54078.796875,215.29200744628906,-750000.125,21276.89453125,-750000.125,-750000.125,963143.0,1.0,1
-636423.5625,-52267.0546875,-49759.9921875,2023.5482177734375,-750000.125,17145.21875,-750000.125,-750000.125,963144.0,1.0,1
-649137.5,-11952.9091796875,-2973.85498046875,11218.8779296875,-750000.125,-10581.673828125,-750000.125,-750000.125,963145.0,1.0,1
-654215.625,11889.3408203125,25645.587890625,15194.0908203125,-750000.125,-23039.822265625,-750000.125,-750000.125,963146.0,1.0,1
-644968.9375,-27879.33203125,-14645.8466796875,8799.9716796875,-750000.125,-3406.763671875,-750000.125,-750000.125,963147.0,1.0,1
-633384.1875,-56754.2109375,-53983.30859375,578.2843627929688,-750000.125,21414.40234375,-750000.125,-750000.125,963148.0,1.0,1
-636199.9375,-52211.44140625,-49902.328125,2477.10986328125,-750000.125,17738.5234375,-750000.125,-750000.125,963149.0,1.0,1
-648904.8125,-11648.74609375,-3176.2724609375,11473.0615234375,-750000.125,-9665.0732421875,-750000.125,-750000.125,963150.0,1.0,1
-654101.8125,12926.8193359375,25952.96875,15468.8388671875,-750000.125,-22364.173828125,-750000.125,-750000.125,963151.0,1.0,1
-644929.3125,-26976.232421875,-14001.0439453125,9093.2265625,-750000.125,-2948.821044921875,-750000.125,-750000.125,963152.0,1.0,1
-633299.625,-56526.22265625,-53850.8984375,792.5034790039062,-750000.125,21664.1171875,-750000.125,-750000.125,963153.0,1.0,1
-636019.75,-52184.9765625,-50038.67578125,2612.203857421875,-750000.125,18358.560546875,-750000.125,-750000.125,963154.0,1.0,1
-648709.0625,-11488.6181640625,-3426.075439453125,11597.8740234375,-750000.125,-8827.6875,-750000.125,-750000.125,963155.0,1.0,1
-654028.875,13781.28125,26208.2265625,15674.384765625,-750000.125,-21773.37109375,-750000.125,-750000.125,963156.0,1.0,1
-644933.5,-26159.947265625,-13413.7294921875,9344.28125,-750000.125,-2544.701416015625,-750000.125,-750000.125,963157.0,1.0,1
-633255.875,-56316.83203125,-53729.75,938.594482421875,-750000.125,21862.0625,-750000.125,-750000.125,963158.0,1.0,1
-635881.3125,-52215.5546875,-50223.8359375,2567.947265625,-750000.125,18740.150390625,-750000.125,-750000.125,963159.0,1.0,1
-648558.3125,-11722.0595703125,-3906.1015625,11671.4560546875,-750000.125,-8386.1064453125,-750000.125,-750000.125,963160.0,1.0,1
-654001.0625,14038.3271484375,26185.248046875,15818.8671875,-750000.125,-21630.947265625,-750000.125,-750000.125,963161.0,1.0,1
-644985.875,-25734.63671875,-13159.3662109375,9533.2880859375,-750000.125,-2607.197021484375,-750000.125,-750000.125,963162.0,1.0,1
-633269.3125,-56180.12890625,-53653.66796875,1122.95166015625,-750000.125,21809.849609375,-750000.125,-750000.125,963163.0,1.0,1
-635798.6875,-52271.8828125,-50384.3203125,2778.14306640625,-750000.125,19098.583984375,-750000.125,-750000.125,963164.0,1.0,1
-648463.625,-11852.5048828125,-4263.28271484375,11700.69140625,-750000.125,-7785.2021484375,-750000.125,-750000.125,963165.0,1.0,1
-654022.8125,14474.8115234375,26310.775390625,15908.8994140625,-750000.125,-21275.46484375,-750000.125,-750000.125,963166.0,1.0,1
-645077.25,-25209.998046875,-12696.595703125,9685.81640625,-750000.125,-2439.6484375,-750000.125,-750000.125,963167.0,1.0,1
-633305.9375,-56057.640625,-53533.859375,1245.5286865234375,-750000.125,21889.421875,-750000.125,-750000.125,963168.0,1.0,1
-635735.4375,-52342.69140625,-50517.08984375,2822.8466796875,-750000.125,19481.9609375,-750000.125,-750000.125,963169.0,1.0,1
-648371.9375,-12038.3818359375,-4614.83056640625,11697.8310546875,-750000.125,-7205.4873046875,-750000.125,-750000.125,963170.0,1.0,1
-654034.0,14900.9248046875,26439.701171875,15951.0107421875,-750000.125,-20952.4375,-750000.125,-750000.125,963171.0,1.0,1
-645155.0625,-24651.47265625,-12220.861328125,9745.5400390625,-750000.125,-2305.98486328125,-750000.125,-750000.125,963172.0,1.0,1
-633342.25,-55896.53125,-53397.9609375,1195.4608154296875,-750000.125,21915.619140625,-750000.125,-750000.125,963173.0,1.0,1
-635665.25,-52422.3515625,-50686.78515625,2588.600341796875,-750000.125,19631.806640625,-750000.125,-750000.125,963174.0,1.0,1
-648279.125,-12477.3701171875,-5179.7041015625,11607.0830078125,-750000.125,-6983.75830078125,-750000.125,-750000.125,963175.0,1.0,1
-654063.75,14885.0107421875,26325.08203125,15969.2490234375,-750000.125,-20985.607421875,-750000.125,-750000.125,963176.0,1.0,1
-645261.75,-24387.6328125,-12061.359375,9837.986328125,-750000.125,-2514.839599609375,-750000.125,-750000.125,963177.0,1.0,1
-633389.9375,-55774.66796875,-53324.828125,1314.9979248046875,-750000.125,21793.845703125,-750000.125,-750000.125,963178.0,1.0,1
-635613.8125,-52474.56640625,-50834.0390625,2745.509521484375,-750000.125,19867.3046875,-750000.125,-750000.125,963179.0,1.0,1
-648203.3125,-12650.73046875,-5539.5673828125,11601.181640625,-750000.125,-6530.19677734375,-750000.125,-750000.125,963180.0,1.0,1
-654087.375,15202.673828125,26410.64453125,16026.201171875,-750000.125,-20753.595703125,-750000.125,-750000.125,963181.0,1.0,1
-645355.625,-23933.0859375,-11651.607421875,9957.166015625,-750000.125,-2435.893310546875,-750000.125,-750000.125,963182.0,1.0,1
-633448.1875,-55654.7734375,-53200.015625,1405.3883056640625,-750000.125,21825.853515625,-750000.125,-750000.125,963183.0,1.0,1
-635568.125,-52553.51171875,-50963.5,2749.97998046875,-750000.125,20163.2421875,-750000.125,-750000.125,963184.0,1.0,1
-648125.875,-12930.931640625,-5913.19921875,11569.53125,-750000.125,-6033.18310546875,-750000.125,-750000.125,963185.0,1.0,1
-654118.75,15410.4560546875,26480.0234375,16053.0234375,-750000.125,-20489.845703125,-750000.125,-750000.125,963186.0,1.0,1
-645460.375,-23535.2265625,-11246.50390625,10016.80078125,-750000.125,-2379.298583984375,-750000.125,-750000.125,963187.0,1.0,1
-633509.5625,-55549.80859375,-53072.7890625,1413.077392578125,-750000.125,21818.701171875,-750000.125,-750000.125,963188.0,1.0,1
-635536.5,-52653.91796875,-51093.67578125,2675.146240234375,-750000.125,20367.625,-750000.125,-750000.125,963189.0,1.0,1
-648078.5625,-13317.974609375,-6322.146484375,11457.0576171875,-750000.125,-5684.13818359375,-750000.125,-750000.125,963190.0,1.0,1
-654180.6875,15401.873046875,26479.486328125,15992.8525390625,-750000.125,-20382.82421875,-750000.125,-750000.125,963191.0,1.0,1
-645603.8125,-23315.642578125,-10952.8916015625,9977.7294921875,-750000.125,-2483.189453125,-750000.125,-750000.125,963192.0,1.0,1
-633614.0625,-55468.5390625,-52955.48828125,1328.9454345703125,-750000.125,21721.158203125,-750000.125,-750000.125,963193.0,1.0,1
-635536.5,-52774.16796875,-51234.8515625,2502.412109375,-750000.125,20465.794921875,-750000.125,-750000.125,963194.0,1.0,1
-648050.0,-13799.6103515625,-6805.7490234375,11269.4814453125,-750000.125,-5470.90283203125,-750000.125,-750000.125,963195.0,1.0,1
-654262.3125,15342.0595703125,26430.759765625,15881.2724609375,-750000.125,-20415.7265625,-750000.125,-750000.125,963196.0,1.0,1
-645761.3125,-23081.396484375,-10686.548828125,9904.416015625,-750000.125,-2704.561279296875,-750000.125,-750000.125,963197.0,1.0,1
-633728.0625,-55394.15234375,-52856.24609375,1202.2557373046875,-750000.125,21574.708984375,-750000.125,-750000.125,963198.0,1.0,1
-635544.25,-52902.828125,-51393.546875,2304.822509765625,-750000.125,20481.798828125,-750000.125,-750000.125,963199.0,1.0,1
-648031.125,-14316.3828125,-7316.083984375,11049.7197265625,-750000.125,-5393.2080078125,-750000.125,-750000.125,963200.0,1.0,1
-654344.375,15185.41796875,26340.7265625,15735.8076171875,-750000.125,-20582.11328125,-750000.125,-750000.125,963201.0,1.0,1
-645915.4375,-22918.40625,-10482.96875,9812.416015625,-750000.125,-3034.383544921875,-750000.125,-750000.125,963202.0,1.0,1
-633839.6875,-55325.30859375,-52762.81640625,1085.4901123046875,-750000.125,21386.6875,-750000.125,-750000.125,963203.0,1.0,1
-635553.3125,-53036.48828125,-51552.06640625,2115.27978515625,-750000.125,20469.37109375,-750000.125,-750000.125,963204.0,1.0,1
-647998.75,-14876.9638671875,-7864.32763671875,10807.6943359375,-750000.125,-5333.75244140625,-750000.125,-750000.125,963205.0,1.0,1
-654426.0,14970.2158203125,26247.296875,15564.861328125,-750000.125,-20787.66015625,-750000.125,-750000.125,963206.0,1.0,1
-646081.875,-22785.369140625,-10246.30859375,9729.8046875,-750000.125,-3411.591552734375,-750000.125,-750000.125,963207.0,1.0,1
-633959.5,-55265.2265625,-52651.234375,1019.1502075195312,-750000.125,21186.68359375,-750000.125,-750000.125,963208.0,1.0,1
-635554.0,-53180.078125,-51706.5625,1951.3968505859375,-750000.125,20462.12890625,-750000.125,-750000.125,963209.0,1.0,1
-647969.75,-15451.9404296875,-8404.79296875,10594.90625,-750000.125,-5270.2734375,-750000.125,-750000.125,963210.0,1.0,1
-654507.9375,14781.0302734375,26162.44921875,15412.6904296875,-750000.125,-20981.046875,-750000.125,-750000.125,963211.0,1.0,1
-646235.375,-22618.8046875,-9996.2373046875,9627.1650390625,-750000.125,-3775.746337890625,-750000.125,-750000.125,963212.0,1.0,1
-634060.5625,-55198.171875,-52540.55078125,867.6053466796875,-750000.125,20979.705078125,-750000.125,-750000.125,963213.0,1.0,1
-635531.5,-53313.5625,-51859.89453125,1721.7996826171875,-750000.125,20462.93359375,-750000.125,-750000.125,963214.0,1.0,1
-647901.0,-15934.73828125,-8925.767578125,10363.07421875,-750000.125,-5170.673828125,-750000.125,-750000.125,963215.0,1.0,1
-654542.5,14789.255859375,26105.587890625,15280.3681640625,-750000.125,-21097.455078125,-750000.125,-750000.125,963216.0,1.0,1
-646336.8125,-22288.712890625,-9697.1708984375,9590.7763671875,-750000.125,-4014.105224609375,-750000.125,-750000.125,963217.0,1.0,1
-634110.6875,-55087.3984375,-52429.953125,833.7200927734375,-750000.125,20868.751953125,-750000.125,-750000.125,963218.0,1.0,1
-635465.875,-53388.39453125,-51997.1328125,1614.6007080078125,-750000.125,20554.396484375,-750000.125,-750000.125,963219.0,1.0,1
-647803.625,-16202.3330078125,-9346.1591796875,10287.8828125,-750000.125,-4958.2431640625,-750000.125,-750000.125,963220.0,1.0,1
-654549.0625,14999.630859375,26144.478515625,15319.349609375,-750000.125,-21077.517578125,-750000.125,-750000.125,963221.0,1.0,1
-646411.6875,-21843.466796875,-9284.8251953125,9707.4521484375,-750000.125,-4146.33837890625,-750000.125,-750000.125,963222.0,1.0,1
-634141.0,-54945.6875,-52286.9921875,949.14453125,-750000.125,20804.55859375,-750000.125,-750000.125,963223.0,1.0,1
-635389.6875,-53454.734375,-52118.01171875,1656.1749267578125,-750000.125,20752.25390625,-750000.125,-750000.125,963224.0,1.0,1
-647693.75,-16429.60546875,-9706.916015625,10271.07421875,-750000.125,-4601.419921875,-750000.125,-750000.125,963225.0,1.0,1
-654546.0,15290.4716796875,26226.197265625,15355.1123046875,-750000.125,-20962.62890625,-750000.125,-750000.125,963226.0,1.0,1
-646489.9375,-21367.732421875,-8809.5380859375,9760.828125,-750000.125,-4236.90771484375,-750000.125,-750000.125,963227.0,1.0,1
-634179.9375,-54798.5234375,-52120.0703125,946.0152587890625,-750000.125,20737.412109375,-750000.125,-750000.125,963228.0,1.0,1
-635313.5,-53527.06640625,-52239.515625,1559.6153564453125,-750000.125,20899.775390625,-750000.125,-750000.125,963229.0,1.0,1
-647585.5625,-16745.390625,-10125.6982421875,10153.861328125,-750000.125,-4301.2802734375,-750000.125,-750000.125,963230.0,1.0,1
-654553.8125,15452.923828125,26244.16796875,15307.7265625,-750000.125,-20890.298828125,-750000.125,-750000.125,963231.0,1.0,1
-646576.625,-20937.595703125,-8412.83984375,9809.1083984375,-750000.125,-4297.16796875,-750000.125,-750000.125,963232.0,1.0,1
-634233.3125,-54666.109375,-51975.5859375,986.6954345703125,-750000.125,20701.740234375,-750000.125,-750000.125,963233.0,1.0,1
-635265.5625,-53606.81640625,-52362.18359375,1553.893310546875,-750000.125,21098.6171875,-750000.125,-750000.125,963234.0,1.0,1
-647504.125,-17023.1796875,-10530.0859375,10123.6416015625,-750000.125,-3895.194091796875,-750000.125,-750000.125,963235.0,1.0,1
-654575.4375,15675.9052734375,26278.232421875,15369.6865234375,-750000.125,-20680.998046875,-750000.125,-750000.125,963236.0,1.0,1
-646677.1875,-20499.412109375,-8020.7001953125,9925.0693359375,-750000.125,-4263.81884765625,-750000.125,-750000.125,963237.0,1.0,1
-634309.1875,-54529.40625,-51832.0,1082.539794921875,-750000.125,20695.123046875,-750000.125,-750000.125,963238.0,1.0,1
-635231.4375,-53683.4375,-52486.546875,1571.8641357421875,-750000.125,21321.59765625,-750000.125,-750000.125,963239.0,1.0,1
-647432.375,-17337.712890625,-10934.1162109375,10138.21484375,-750000.125,-3475.3388671875,-750000.125,-750000.125,963240.0,1.0,1
-654604.9375,15860.26171875,26306.037109375,15455.8740234375,-750000.125,-20490.29296875,-750000.125,-750000.125,963241.0,1.0,1
-646787.4375,-20036.55078125,-7610.76953125,10075.98828125,-750000.125,-4254.341796875,-750000.125,-750000.125,963242.0,1.0,1
-634390.1875,-54388.234375,-51690.734375,1213.8785400390625,-750000.125,20691.45703125,-750000.125,-750000.125,963243.0,1.0,1
-635208.8125,-53754.515625,-52613.05859375,1629.5316162109375,-750000.125,21537.873046875,-750000.125,-750000.125,963244.0,1.0,1
-647369.6875,-17641.427734375,-11347.5341796875,10153.861328125,-750000.125,-3041.357421875,-750000.125,-750000.125,963245.0,1.0,1
-654653.125,15995.6240234375,26329.283203125,15529.814453125,-750000.125,-20278.755859375,-750000.125,-750000.125,963246.0,1.0,1
-646921.5,-19645.57421875,-7183.76171875,10198.20703125,-750000.125,-4246.1162109375,-750000.125,-750000.125,963247.0,1.0,1
-634495.8125,-54266.8203125,-51521.30859375,1293.3614501953125,-750000.125,20652.56640625,-750000.125,-750000.125,963248.0,1.0,1
-635200.0625,-53844.90625,-52717.12890625,1626.760009765625,-750000.125,21719.90625,-750000.125,-750000.125,963249.0,1.0,1
-647324.6875,-17993.513671875,-11730.822265625,10121.5859375,-750000.125,-2660.483642578125,-750000.125,-750000.125,963250.0,1.0,1
-654707.1875,16039.5234375,26329.91015625,15563.0732421875,-750000.125,-20110.669921875,-750000.125,-750000.125,963251.0,1.0,1
-647052.0,-19333.27734375,-6836.41552734375,10293.9619140625,-750000.125,-4243.166015625,-750000.125,-750000.125,963252.0,1.0,1
-634595.1875,-54169.6328125,-51388.09375,1378.83447265625,-750000.125,20628.873046875,-750000.125,-750000.125,963253.0,1.0,1
-635202.875,-53935.03125,-52823.1640625,1639.09814453125,-750000.125,21882.626953125,-750000.125,-750000.125,963254.0,1.0,1
-647299.0625,-18340.322265625,-12110.98046875,10112.64453125,-750000.125,-2325.38623046875,-750000.125,-750000.125,963255.0,1.0,1
-654785.375,16098.978515625,26347.701171875,15630.12890625,-750000.125,-19996.9453125,-750000.125,-750000.125,963256.0,1.0,1
-647210.0625,-18991.384765625,-6427.64697265625,10408.671875,-750000.125,-4316.65869140625,-750000.125,-750000.125,963257.0,1.0,1
-634728.75,-54061.453125,-51220.45703125,1451.61181640625,-750000.125,20561.013671875,-750000.125,-750000.125,963258.0,1.0,1
-635230.875,-54043.125,-52932.5078125,1641.4227294921875,-750000.125,22026.662109375,-750000.125,-750000.125,963259.0,1.0,1
-647275.4375,-18806.9375,-12575.3603515625,10061.951171875,-750000.125,-1950.8603515625,-750000.125,-750000.125,963260.0,1.0,1
-654873.25,16027.095703125,26313.63671875,15649.26171875,-750000.125,-19833.59765625,-750000.125,-750000.125,963261.0,1.0,1
-647397.8125,-18698.486328125,-6049.36572265625,10497.005859375,-750000.125,-4375.845703125,-750000.125,-750000.125,963262.0,1.0,1
-634886.3125,-53953.5390625,-51048.97265625,1524.6572265625,-750000.125,20488.056640625,-750000.125,-750000.125,963263.0,1.0,1
-635263.0625,-54167.7578125,-53062.05859375,1622.557861328125,-750000.125,22174.80859375,-750000.125,-750000.125,963264.0,1.0,1
-647265.3125,-19304.666015625,-13059.0517578125,9993.912109375,-750000.125,-1617.0146484375,-750000.125,-750000.125,963265.0,1.0,1
-654963.5625,15925.439453125,26253.109375,15632.005859375,-750000.125,-19758.228515625,-750000.125,-750000.125,963266.0,1.0,1
-647568.0,-18468.263671875,-5742.431640625,10501.2080078125,-750000.125,-4528.642578125,-750000.125,-750000.125,963267.0,1.0,1
-635030.0,-53856.44140625,-50901.71875,1479.238525390625,-750000.125,20353.947265625,-750000.125,-750000.125,963268.0,1.0,1
-635292.0625,-54263.421875,-53165.68359375,1497.2093505859375,-750000.125,22219.87109375,-750000.125,-750000.125,963269.0,1.0,1
-647248.875,-19732.03125,-13497.056640625,9848.7158203125,-750000.125,-1449.0189208984375,-750000.125,-750000.125,963270.0,1.0,1
-655043.5625,15816.2744140625,26196.06640625,15565.5771484375,-750000.125,-19811.783203125,-750000.125,-750000.125,963271.0,1.0,1
-647731.6875,-18239.0234375,-5386.05517578125,10492.892578125,-750000.125,-4772.00830078125,-750000.125,-750000.125,963272.0,1.0,1
-635168.125,-53756.484375,-50717.18359375,1453.757568359375,-750000.125,20190.064453125,-750000.125,-750000.125,963273.0,1.0,1
-635315.0,-54373.21484375,-53255.1796875,1385.093017578125,-750000.125,22247.85546875,-750000.125,-750000.125,963274.0,1.0,1
-647226.625,-20213.578125,-13940.2470703125,9699.4951171875,-750000.125,-1305.1630859375,-750000.125,-750000.125,963275.0,1.0,1
-655124.375,15700.9384765625,26146.71484375,15491.63671875,-750000.125,-19894.931640625,-750000.125,-750000.125,963276.0,1.0,1
-647893.9375,-17973.12890625,-5001.06884765625,10528.3876953125,-750000.125,-5012.423828125,-750000.125,-750000.125,963277.0,1.0,1
-635297.875,-53665.55859375,-50540.3359375,1514.911865234375,-750000.125,20059.708984375,-750000.125,-750000.125,963278.0,1.0,1
-635326.8125,-54483.2734375,-53352.1875,1376.5992431640625,-750000.125,22320.900390625,-750000.125,-750000.125,963279.0,1.0,1
-647197.9375,-20608.130859375,-14351.3408203125,9680.09375,-750000.125,-1077.890625,-750000.125,-750000.125,963280.0,1.0,1
-655196.8125,15732.5888671875,26144.478515625,15572.103515625,-750000.125,-19854.966796875,-750000.125,-750000.125,963281.0,1.0,1
-648047.9375,-17623.814453125,-4566.640625,10675.5517578125,-750000.125,-5139.560546875,-750000.125,-750000.125,963282.0,1.0,1
-635428.0,-53547.5390625,-50346.94921875,1643.3897705078125,-750000.125,19977.453125,-750000.125,-750000.125,963283.0,1.0,1
-635341.0625,-54577.77734375,-53444.8125,1412.63037109375,-750000.125,22460.912109375,-750000.125,-750000.125,963284.0,1.0,1
-647159.1875,-20973.984375,-14739.0986328125,9670.169921875,-750000.125,-747.084716796875,-750000.125,-750000.125,963285.0,1.0,1
-655261.875,15827.986328125,26155.20703125,15609.4755859375,-750000.125,-19755.814453125,-750000.125,-750000.125,963286.0,1.0,1
-648197.25,-17196.271484375,-4087.240234375,10765.3154296875,-750000.125,-5237.19287109375,-750000.125,-750000.125,963287.0,1.0,1
-635543.8125,-53394.83203125,-50131.12109375,1696.67626953125,-750000.125,19894.751953125,-750000.125,-750000.125,963288.0,1.0,1
-635335.25,-54645.27734375,-53523.40234375,1409.5904541015625,-750000.125,22583.578125,-750000.125,-750000.125,963289.0,1.0,1
-647107.0625,-21281.275390625,-15096.369140625,9652.0205078125,-750000.125,-440.5082092285156,-750000.125,-750000.125,963290.0,1.0,1
-655311.25,15934.9169921875,26185.248046875,15675.1005859375,-750000.125,-19668.28515625,-750000.125,-750000.125,963291.0,1.0,1
-648336.625,-16779.0078125,-3585.041259765625,10894.0615234375,-750000.125,-5357.35595703125,-750000.125,-750000.125,963292.0,1.0,1
-635659.4375,-53248.3828125,-49913.50390625,1815.22998046875,-750000.125,19811.87109375,-750000.125,-750000.125,963293.0,1.0,1
-635336.8125,-54721.8125,-53599.6640625,1426.3095703125,-750000.125,22698.107421875,-750000.125,-750000.125,963294.0,1.0,1
-647065.75,-21578.375,-15435.5791015625,9635.033203125,-750000.125,-165.31350708007812,-750000.125,-750000.125,963295.0,1.0,1
-655367.1875,16085.7470703125,26216.18359375,15729.7275390625,-750000.125,-19601.498046875,-750000.125,-750000.125,963296.0,1.0,1
-648470.375,-16323.1220703125,-3073.990966796875,11023.5234375,-750000.125,-5455.5244140625,-750000.125,-750000.125,963297.0,1.0,1
-635772.9375,-53095.58984375,-49677.828125,1927.614501953125,-750000.125,19739.541015625,-750000.125,-750000.125,963298.0,1.0,1
-635335.9375,-54794.85546875,-53665.2890625,1474.947021484375,-750000.125,22800.658203125,-750000.125,-750000.125,963299.0,1.0,1
-647010.6875,-21936.986328125,-15812.1611328125,9633.8701171875,-750000.125,106.93074798583984,-750000.125,-750000.125,963300.0,1.0,1
-655413.375,16142.0732421875,26214.037109375,15775.146484375,-750000.125,-19555.005859375,-750000.125,-750000.125,963301.0,1.0,1
-648605.125,-15916.3203125,-2592.802490234375,11129.6494140625,-750000.125,-5625.39794921875,-750000.125,-750000.125,963302.0,1.0,1
-635884.4375,-52947.88671875,-49450.1953125,2025.2469482421875,-750000.125,19622.865234375,-750000.125,-750000.125,963303.0,1.0,1
-635330.5625,-54873.89453125,-53740.12109375,1466.18505859375,-750000.125,22880.85546875,-750000.125,-750000.125,963304.0,1.0,1
-646967.625,-22270.384765625,-16181.5009765625,9592.0283203125,-750000.125,325.7990417480469,-750000.125,-750000.125,963305.0,1.0,1
-655468.6875,16197.05859375,26202.771484375,15811.892578125,-750000.125,-19545.796875,-750000.125,-750000.125,963306.0,1.0,1
-648747.6875,-15566.2919921875,-2162.03955078125,11208.4169921875,-750000.125,-5837.560546875,-750000.125,-750000.125,963307.0,1.0,1
-636011.125,-52829.87109375,-49244.5625,2059.13232421875,-750000.125,19468.458984375,-750000.125,-750000.125,963308.0,1.0,1
-635356.0625,-54966.51953125,-53811.73828125,1414.6866455078125,-750000.125,22877.994140625,-750000.125,-750000.125,963309.0,1.0,1
-646948.0,-22713.75390625,-16570.421875,9493.412109375,-750000.125,377.565673828125,-750000.125,-750000.125,963310.0,1.0,1
-655543.25,16043.009765625,26124.36328125,15751.0068359375,-750000.125,-19734.4453125,-750000.125,-750000.125,963311.0,1.0,1
-648912.5625,-15358.8681640625,-1853.49609375,11198.58203125,-750000.125,-6242.48486328125,-750000.125,-750000.125,963312.0,1.0,1
-636175.8125,-52719.09375,-49062.70703125,2038.92626953125,-750000.125,19213.560546875,-750000.125,-750000.125,963313.0,1.0,1
-635409.5,-55065.22265625,-53899.625,1300.7822265625,-750000.125,22774.998046875,-750000.125,-750000.125,963314.0,1.0,1
-646952.125,-23218.27734375,-17041.5078125,9340.794921875,-750000.125,251.0548095703125,-750000.125,-750000.125,963315.0,1.0,1
-655652.25,15761.109375,26001.875,15669.556640625,-750000.125,-20113.888671875,-750000.125,-750000.125,963316.0,1.0,1
-649122.25,-15255.6923828125,-1550.853515625,11176.3193359375,-750000.125,-6860.37646484375,-750000.125,-750000.125,963317.0,1.0,1
-636379.125,-52646.49609375,-48860.9140625,1995.2061767578125,-750000.125,18826.78515625,-750000.125,-750000.125,963318.0,1.0,1
-635504.1875,-55195.48828125,-53974.01171875,1158.7144775390625,-750000.125,22537.623046875,-750000.125,-750000.125,963319.0,1.0,1
-647001.125,-23873.630859375,-17556.9375,9135.0693359375,-750000.125,-112.1163558959961,-750000.125,-750000.125,963320.0,1.0,1
-655796.375,15191.5869140625,25781.486328125,15503.5283203125,-750000.125,-20728.29296875,-750000.125,-750000.125,963321.0,1.0,1
-649369.875,-15386.494140625,-1410.0374755859375,11092.1875,-750000.125,-7705.80908203125,-750000.125,-750000.125,963322.0,1.0,1
-636631.25,-52659.4609375,-48711.96484375,1943.17138671875,-750000.125,18313.5,-750000.125,-750000.125,963323.0,1.0,1
-635656.9375,-55368.58203125,-54053.13671875,1038.8197021484375,-750000.125,22168.103515625,-750000.125,-750000.125,963324.0,1.0,1
-647105.5,-24620.626953125,-18087.48046875,8965.642578125,-750000.125,-703.36474609375,-750000.125,-750000.125,963325.0,1.0,1
-655993.3125,14457.9140625,25538.03125,15395.5244140625,-750000.125,-21560.314453125,-750000.125,-750000.125,963326.0,1.0,1
-649665.9375,-15657.9345703125,-1352.548828125,11037.560546875,-750000.125,-8777.2626953125,-750000.125,-750000.125,963327.0,1.0,1
-636928.375,-52712.30078125,-48607.71484375,1877.457275390625,-750000.125,17654.83984375,-750000.125,-750000.125,963328.0,1.0,1
-635849.6875,-55561.87890625,-54158.28125,903.3681640625,-750000.125,21650.705078125,-750000.125,-750000.125,963329.0,1.0,1
-647250.3125,-25405.53125,-18674.078125,8780.8388671875,-750000.125,-1518.309326171875,-750000.125,-750000.125,963330.0,1.0,1
-656229.75,13606.580078125,25244.5078125,15285.2861328125,-750000.125,-22590.193359375,-750000.125,-750000.125,963331.0,1.0,1
-650002.25,-16034.1591796875,-1345.1280517578125,11006.8935546875,-750000.125,-10041.923828125,-750000.125,-750000.125,963332.0,1.0,1
-637263.375,-52794.9140625,-48516.33984375,1884.8780517578125,-750000.125,16861.083984375,-750000.125,-750000.125,963333.0,1.0,1
-636065.0625,-55778.9609375,-54284.1640625,809.6696166992188,-750000.125,21035.49609375,-750000.125,-750000.125,963334.0,1.0,1
-647413.5625,-26287.9765625,-19321.83203125,8615.3466796875,-750000.125,-2481.669677734375,-750000.125,-750000.125,963335.0,1.0,1
-656488.4375,12637.7666015625,24880.0859375,15130.9697265625,-750000.125,-23834.828125,-750000.125,-750000.125,963336.0,1.0,1
-650359.5,-16487.98828125,-1497.2093505859375,10893.97265625,-750000.125,-11538.5078125,-750000.125,-750000.125,963337.0,1.0,1
-637624.75,-52905.95703125,-48514.5546875,1750.409912109375,-750000.125,15862.4970703125,-750000.125,-750000.125,963338.0,1.0,1
-636335.5,-56025.6328125,-54476.74609375,541.3592529296875,-750000.125,20109.5078125,-750000.125,-750000.125,963339.0,1.0,1
-647650.125,-27362.6484375,-20243.70703125,8266.837890625,-750000.125,-3899.1279296875,-750000.125,-750000.125,963340.0,1.0,1
-656832.875,11076.0947265625,24162.59375,14821.8896484375,-750000.125,-25547.6875,-750000.125,-750000.125,963341.0,1.0,1
-650827.125,-17526.181640625,-2352.118896484375,10615.380859375,-750000.125,-13569.4765625,-750000.125,-750000.125,963342.0,1.0,1
-638105.875,-53174.0859375,-48794.3984375,1479.59619140625,-750000.125,14377.8046875,-750000.125,-750000.125,963343.0,1.0,1
-636696.375,-56341.2421875,-54779.2109375,164.3300323486328,-750000.125,18733.712890625,-750000.125,-750000.125,963344.0,1.0,1
-647932.5625,-28573.220703125,-21319.36328125,7852.97265625,-750000.125,-5725.35498046875,-750000.125,-750000.125,963345.0,1.0,1
-657167.25,9431.453125,23393.42578125,14497.2529296875,-750000.125,-27529.482421875,-750000.125,-750000.125,963346.0,1.0,1
-651231.0,-18416.228515625,-3000.22998046875,10392.578125,-750000.125,-15718.9990234375,-750000.125,-750000.125,963347.0,1.0,1
-638477.3125,-53361.0390625,-48925.55859375,1314.3720703125,-750000.125,12751.759765625,-750000.125,-750000.125,963348.0,1.0,1
-636918.8125,-56580.4921875,-54954.62890625,20.56360626220703,-750000.125,17481.2109375,-750000.125,-750000.125,963349.0,1.0,1
-648051.875,-29319.5,-21968.099609375,7831.2470703125,-750000.125,-6965.51904296875,-750000.125,-750000.125,963350.0,1.0,1
-657335.25,8798.3623046875,23150.685546875,14649.6025390625,-750000.125,-28694.90234375,-750000.125,-750000.125,963351.0,1.0,1
-651476.375,-18470.3203125,-2770.18603515625,10621.37109375,-750000.125,-17003.77734375,-750000.125,-750000.125,963352.0,1.0,1
-638702.1875,-53352.0078125,-48791.35546875,1539.409423828125,-750000.125,11554.6005859375,-750000.125,-750000.125,963353.0,1.0,1
-636981.9375,-56728.28125,-55046.5390625,163.52537536621094,-750000.125,16580.97265625,-750000.125,-750000.125,963354.0,1.0,1
-648008.3125,-29641.0078125,-22262.96484375,7919.759765625,-750000.125,-7607.64013671875,-750000.125,-750000.125,963355.0,1.0,1
-657339.625,8966.537109375,23231.0625,14844.419921875,-750000.125,-29397.552734375,-750000.125,-750000.125,963356.0,1.0,1
-651551.5,-17933.7890625,-2131.641357421875,10962.5478515625,-750000.125,-17807.27734375,-750000.125,-750000.125,963357.0,1.0,1
-638774.5625,-53202.16015625,-48518.48828125,1907.9449462890625,-750000.125,10838.71875,-750000.125,-750000.125,963358.0,1.0,1
-636959.8125,-56802.04296875,-55102.59765625,479.9366760253906,-750000.125,16205.6416015625,-750000.125,-750000.125,963359.0,1.0,1
-647931.0625,-29737.4765625,-22418.98046875,8194.2392578125,-750000.125,-7692.8447265625,-750000.125,-750000.125,963360.0,1.0,1
-657345.875,9484.7392578125,23480.6875,15111.3896484375,-750000.125,-29543.732421875,-750000.125,-750000.125,963361.0,1.0,1
-651663.625,-17177.94140625,-1246.959228515625,11288.16796875,-750000.125,-18132.09375,-750000.125,-750000.125,963362.0,1.0,1
-638896.5625,-53030.76953125,-48179.546875,2267.71875,-750000.125,10490.568359375,-750000.125,-750000.125,963363.0,1.0,1
-636973.875,-56882.2421875,-55156.8671875,779.8076782226562,-750000.125,16096.7431640625,-750000.125,-750000.125,963364.0,1.0,1
-647883.25,-29817.228515625,-22563.55078125,8505.3759765625,-750000.125,-7628.5615234375,-750000.125,-750000.125,963365.0,1.0,1
-657379.75,10032.1787109375,23722.35546875,15491.9052734375,-750000.125,-29636.0,-750000.125,-750000.125,963366.0,1.0,1
-651790.0625,-16433.091796875,-460.26715087890625,11609.3173828125,-750000.125,-18539.96875,-750000.125,-750000.125,963367.0,1.0,1
-639029.6875,-52847.125,-47873.68359375,2413.54150390625,-750000.125,9936.333984375,-750000.125,-750000.125,963368.0,1.0,1
-636990.125,-56970.12890625,-55227.05078125,742.1673583984375,-750000.125,15734.109375,-750000.125,-750000.125,963369.0,1.0,1
-647813.25,-30056.927734375,-22858.7734375,8306.6240234375,-750000.125,-7824.72021484375,-750000.125,-750000.125,963370.0,1.0,1
-657374.5625,10250.4208984375,23771.88671875,15300.126953125,-750000.125,-30032.966796875,-750000.125,-750000.125,963371.0,1.0,1
-651894.0,-15937.7783203125,91.01630401611328,11464.8359375,-750000.125,-19257.458984375,-750000.125,-750000.125,963372.0,1.0,1
-639166.375,-52688.875,-47618.96484375,2208.262939453125,-750000.125,9014.90625,-750000.125,-750000.125,963373.0,1.0,1
-637003.9375,-57049.1640625,-55313.23828125,428.5276794433594,-750000.125,15027.3466796875,-750000.125,-750000.125,963374.0,1.0,1
-647735.625,-30292.6953125,-23169.4609375,7975.5498046875,-750000.125,-8289.279296875,-750000.125,-750000.125,963375.0,1.0,1
-657349.1875,10422.08203125,23799.958984375,15017.6015625,-750000.125,-30548.48828125,-750000.125,-750000.125,963376.0,1.0,1
-651956.6875,-15455.427734375,608.5933227539062,11166.57421875,-750000.125,-20041.6484375,-750000.125,-750000.125,963377.0,1.0,1
-639230.3125,-52544.39453125,-47377.7421875,1810.4019775390625,-750000.125,8092.13671875,-750000.125,-750000.125,963378.0,1.0,1
-636935.4375,-57132.58203125,-55395.76171875,-42.64712905883789,-750000.125,14375.7490234375,-750000.125,-750000.125,963379.0,1.0,1
-647581.9375,-30529.4453125,-23522.171875,7530.30322265625,-750000.125,-8613.111328125,-750000.125,-750000.125,963380.0,1.0,1
-657257.0,10633.5302734375,23771.70703125,14695.646484375,-750000.125,-30874.64453125,-750000.125,-750000.125,963381.0,1.0,1
-651962.25,-14939.19140625,1033.00830078125,10847.3017578125,-750000.125,-20585.15234375,-750000.125,-750000.125,963382.0,1.0,1
-639252.25,-52382.56640625,-47187.75390625,1385.62939453125,-750000.125,7423.8193359375,-750000.125,-750000.125,963383.0,1.0,1
-636858.375,-57188.19140625,-55490.98046875,-579.0890502929688,-750000.125,13954.10546875,-750000.125,-750000.125,963384.0,1.0,1
-647431.625,-30758.326171875,-23898.12890625,7052.33349609375,-750000.125,-8756.7880859375,-750000.125,-750000.125,963385.0,1.0,1
-657175.3125,10762.6337890625,23694.1015625,14369.400390625,-750000.125,-31036.91796875,-750000.125,-750000.125,963386.0,1.0,1
-651985.3125,-14501.09765625,1336.1873779296875,10572.3759765625,-750000.125,-20970.85546875,-750000.125,-750000.125,963387.0,1.0,1
-639303.8125,-52229.32421875,-47060.16796875,1041.4124755859375,-750000.125,6914.73583984375,-750000.125,-750000.125,963388.0,1.0,1
-636801.9375,-57260.34375,-55633.94140625,-1072.97314453125,-750000.125,13647.88671875,-750000.125,-750000.125,963389.0,1.0,1
-647292.8125,-31118.904296875,-24413.73828125,6601.90087890625,-750000.125,-8926.03515625,-750000.125,-750000.125,963390.0,1.0,1
-657094.3125,10671.70703125,23462.359375,14126.6611328125,-750000.125,-31295.841796875,-750000.125,-750000.125,963391.0,1.0,1
-652007.3125,-14174.046875,1478.1656494140625,10359.498046875,-750000.125,-21460.89453125,-750000.125,-750000.125,963392.0,1.0,1
-639343.6875,-52047.55859375,-46933.390625,751.8233032226562,-750000.125,6306.58984375,-750000.125,-750000.125,963393.0,1.0,1
-636724.875,-57277.95703125,-55735.5078125,-1399.7557373046875,-750000.125,13344.349609375,-750000.125,-750000.125,963394.0,1.0,1
-647138.5625,-31369.69140625,-24875.16796875,6339.49169921875,-750000.125,-8919.77734375,-750000.125,-750000.125,963395.0,1.0,1
-657000.25,10746.1826171875,23285.421875,14036.7177734375,-750000.125,-31328.564453125,-750000.125,-750000.125,963396.0,1.0,1
-652011.6875,-13716.103515625,1710.713134765625,10307.015625,-750000.125,-21758.171875,-750000.125,-750000.125,963397.0,1.0,1
-639366.875,-51829.2265625,-46779.69921875,620.752685546875,-750000.125,5847.30615234375,-750000.125,-750000.125,963398.0,1.0,1
-636622.9375,-57284.6640625,-55841.8125,-1604.676513671875,-750000.125,13152.392578125,-750000.125,-750000.125,963399.0,1.0,1
-646944.8125,-31547.431640625,-25330.787109375,6198.4072265625,-750000.125,-8774.9375,-750000.125,-750000.125,963400.0,1.0,1
-656869.0,10954.5009765625,23133.431640625,14074.9833984375,-750000.125,-31172.1015625,-750000.125,-750000.125,963401.0,1.0,1
-651976.0,-13184.6689453125,1953.1849365234375,10309.6083984375,-750000.125,-21898.541015625,-750000.125,-750000.125,963402.0,1.0,1
-639344.3125,-51593.8203125,-46637.0078125,418.4246826171875,-750000.125,5469.02490234375,-750000.125,-750000.125,963403.0,1.0,1
-636475.0625,-57278.2265625,-55947.671875,-1942.724365234375,-750000.125,12973.7578125,-750000.125,-750000.125,963404.0,1.0,1
-646707.0,-31755.662109375,-25813.31640625,5890.400390625,-750000.125,-8659.6923828125,-750000.125,-750000.125,963405.0,1.0,1
-656683.1875,11057.05078125,22888.09765625,13890.0009765625,-750000.125,-31124.08984375,-750000.125,-750000.125,963406.0,1.0,1
-651866.1875,-12776.8837890625,2012.8193359375,10038.8837890625,-750000.125,-22225.771484375,-750000.125,-750000.125,963407.0,1.0,1
-639214.875,-51352.77734375,-46545.72265625,-135.183349609375,-750000.125,4841.298828125,-750000.125,-750000.125,963408.0,1.0,1
-636211.875,-57219.6640625,-56025.0078125,-2667.367919921875,-750000.125,12507.4111328125,-750000.125,-750000.125,963409.0,1.0,1
-646372.875,-32047.12890625,-26382.927734375,5200.8935546875,-750000.125,-8835.82421875,-750000.125,-750000.125,963410.0,1.0,1
-656412.8125,10859.55078125,22455.994140625,13348.5517578125,-750000.125,-31375.32421875,-750000.125,-750000.125,963411.0,1.0,1
-651671.5625,-12638.302734375,1794.84521484375,9404.8994140625,-750000.125,-22850.814453125,-750000.125,-750000.125,963412.0,1.0,1
-638997.875,-51132.390625,-46518.36328125,-1018.4349365234375,-750000.125,3888.577880859375,-750000.125,-750000.125,963413.0,1.0,1
-635870.125,-57144.91796875,-56100.2890625,-3669.888427734375,-750000.125,11686.744140625,-750000.125,-750000.125,963414.0,1.0,1
-645990.9375,-32535.111328125,-27148.251953125,4230.9169921875,-750000.125,-9514.3330078125,-750000.125,-750000.125,963415.0,1.0,1
-656129.75,9994.1806640625,21633.091796875,12360.9619140625,-750000.125,-32514.1015625,-750000.125,-750000.125,963416.0,1.0,1
-651475.125,-13023.2001953125,939.4885864257812,8346.9462890625,-750000.125,-24425.00390625,-750000.125,-750000.125,963417.0,1.0,1
-638766.5625,-50999.3515625,-46723.46484375,-2108.216552734375,-750000.125,2279.60986328125,-750000.125,-750000.125,963418.0,1.0,1
-635511.4375,-57075.09375,-56233.05859375,-4640.580078125,-750000.125,10552.974609375,-750000.125,-750000.125,963419.0,1.0,1
-645584.125,-32717.232421875,-27776.87109375,3707.796875,-750000.125,-9906.5615234375,-750000.125,-750000.125,963420.0,1.0,1
-655812.4375,10383.6376953125,21399.91796875,12541.20703125,-750000.125,-32231.396484375,-750000.125,-750000.125,963421.0,1.0,1
-651235.4375,-12028.279296875,1482.18896484375,8918.6142578125,-750000.125,-23881.41015625,-750000.125,-750000.125,963422.0,1.0,1
-638504.8125,-50560.2734375,-46424.75390625,-1459.1219482421875,-750000.125,2991.5576171875,-750000.125,-750000.125,963423.0,1.0,1
-635126.125,-56930.96875,-56273.37890625,-3963.322021484375,-750000.125,11696.2216796875,-750000.125,-750000.125,963424.0,1.0,1
-645160.8125,-32391.076171875,-27875.041015625,4498.15478515625,-750000.125,-8407.1171875,-750000.125,-750000.125,963425.0,1.0,1
-655488.5625,11724.65234375,21716.59765625,13326.46875,-750000.125,-30712.4609375,-750000.125,-750000.125,963426.0,1.0,1
-650976.375,-10387.6611328125,2509.654052734375,9809.3759765625,-750000.125,-22491.935546875,-750000.125,-750000.125,963427.0,1.0,1
-638211.6875,-49978.68359375,-45990.05859375,-512.7490234375,-750000.125,4481.078125,-750000.125,-750000.125,963428.0,1.0,1
-634722.9375,-56777.09765625,-56332.56640625,-3134.876953125,-750000.125,13444.396484375,-750000.125,-750000.125,963429.0,1.0,1
-644729.5625,-32073.4140625,-28015.23046875,5231.91796875,-750000.125,-6681.92041015625,-750000.125,-750000.125,963430.0,1.0,1
-655166.5,13047.9658203125,21984.103515625,14203.55078125,-750000.125,-29192.36328125,-750000.125,-750000.125,963431.0,1.0,1
-650752.8125,-8732.7373046875,3517.7177734375,10812.880859375,-750000.125,-21089.140625,-750000.125,-750000.125,963432.0,1.0,1
-637990.875,-49375.80859375,-45531.04296875,527.0541381835938,-750000.125,5978.19775390625,-750000.125,-750000.125,963433.0,1.0,1
-634401.8125,-56635.30078125,-56377.00390625,-2118.67724609375,-750000.125,15279.474609375,-750000.125,-750000.125,963434.0,1.0,1
-644369.1875,-31630.134765625,-28002.267578125,6281.376953125,-750000.125,-4575.13427734375,-750000.125,-750000.125,963435.0,1.0,1
-654904.5625,14704.4091796875,22467.884765625,15234.681640625,-750000.125,-27165.5078125,-750000.125,-750000.125,963436.0,1.0,1
-650587.3125,-6765.7841796875,4848.451171875,11942.0009765625,-750000.125,-19250.75390625,-750000.125,-750000.125,963437.0,1.0,1
-637820.9375,-48678.16796875,-44940.41796875,1646.250732421875,-750000.125,7839.11474609375,-750000.125,-750000.125,963438.0,1.0,1
-634113.8125,-56490.81640625,-56411.515625,-1135.200439453125,-750000.125,17361.8515625,-750000.125,-750000.125,963439.0,1.0,1
-644029.8125,-31250.421875,-28035.884765625,7122.42822265625,-750000.125,-2457.976806640625,-750000.125,-750000.125,963440.0,1.0,1
-654655.5625,16161.2060546875,22847.865234375,16034.7841796875,-750000.125,-25283.04296875,-750000.125,-750000.125,963441.0,1.0,1
-650434.875,-4899.77099609375,6066.97900390625,12832.94140625,-750000.125,-17566.146484375,-750000.125,-750000.125,963442.0,1.0,1
-637669.0,-47979.8984375,-44340.85546875,2533.25732421875,-750000.125,9509.7734375,-750000.125,-750000.125,963443.0,1.0,1
-633849.125,-56367.078125,-56435.20703125,-352.44232177734375,-750000.125,19235.107421875,-750000.125,-750000.125,963444.0,1.0,1
-643716.5,-31000.708984375,-28114.3828125,7792.35498046875,-750000.125,-526.24951171875,-750000.125,-750000.125,963445.0,1.0,1
-654441.25,17321.44140625,23137.185546875,16682.001953125,-750000.125,-23593.4296875,-750000.125,-750000.125,963446.0,1.0,1
-650325.5625,-3287.852294921875,7133.87255859375,13561.9658203125,-750000.125,-16097.1904296875,-750000.125,-750000.125,963447.0,1.0,1
-637570.9375,-47337.33203125,-43795.921875,3250.12255859375,-750000.125,10883.869140625,-750000.125,-750000.125,963448.0,1.0,1
-633647.125,-56267.30078125,-56462.921875,95.1290283203125,-750000.125,20758.87109375,-750000.125,-750000.125,963449.0,1.0,1
-643456.4375,-30894.939453125,-28283.36328125,8193.970703125,-750000.125,933.6771240234375,-750000.125,-750000.125,963450.0,1.0,1
-654268.125,18002.36328125,23244.1171875,17176.779296875,-750000.125,-22415.849609375,-750000.125,-750000.125,963451.0,1.0,1
-650256.0625,-2121.359375,7864.7744140625,14104.30859375,-750000.125,-15203.7470703125,-750000.125,-750000.125,963452.0,1.0,1
-637516.5625,-46823.33203125,-43370.43359375,3738.642333984375,-750000.125,11515.708984375,-750000.125,-750000.125,963453.0,1.0,1
-633486.75,-56197.02734375,-56490.55078125,552.8927612304688,-750000.125,21472.0703125,-750000.125,-750000.125,963454.0,1.0,1
-643242.125,-30905.669921875,-28491.412109375,8479.984375,-750000.125,2052.69482421875,-750000.125,-750000.125,963455.0,1.0,1
-654140.5625,18392.982421875,23290.162109375,17366.322265625,-750000.125,-21511.9453125,-750000.125,-750000.125,963456.0,1.0,1
-650238.75,-1189.6492919921875,8508.5947265625,14325.591796875,-750000.125,-14601.6796875,-750000.125,-750000.125,963457.0,1.0,1
-637517.3125,-46389.2578125,-42979.09765625,3894.478759765625,-750000.125,11880.310546875,-750000.125,-750000.125,963458.0,1.0,1
-633379.25,-56164.39453125,-56524.61328125,476.18157958984375,-750000.125,21838.728515625,-750000.125,-750000.125,963459.0,1.0,1
-643075.5625,-31157.6171875,-28877.650390625,8408.5478515625,-750000.125,2500.266357421875,-750000.125,-750000.125,963460.0,1.0,1
-654043.0,18285.78515625,23061.994140625,17384.115234375,-750000.125,-21275.28515625,-750000.125,-750000.125,963461.0,1.0,1
-650236.875,-830.5908813476562,8715.302734375,14405.1630859375,-750000.125,-14607.669921875,-750000.125,-750000.125,963462.0,1.0,1
-637532.3125,-46142.05078125,-42773.73046875,3993.4521484375,-750000.125,11791.08203125,-750000.125,-750000.125,963463.0,1.0,1
-633294.3125,-56150.17578125,-56565.203125,592.5894775390625,-750000.125,22014.501953125,-750000.125,-750000.125,963464.0,1.0,1
-642927.1875,-31344.2109375,-29190.486328125,8384.9443359375,-750000.125,3055.483642578125,-750000.125,-750000.125,963465.0,1.0,1
-653960.75,18354.716796875,22953.990234375,17355.236328125,-750000.125,-20796.154296875,-750000.125,-750000.125,963466.0,1.0,1
-650249.625,-211.89454650878906,9148.033203125,14478.923828125,-750000.125,-14306.5478515625,-750000.125,-750000.125,963467.0,1.0,1
-637555.4375,-45794.79296875,-42461.25390625,4102.439453125,-750000.125,11965.873046875,-750000.125,-750000.125,963468.0,1.0,1
-633210.3125,-56127.109375,-56602.48828125,640.6010131835938,-750000.125,22362.564453125,-750000.125,-750000.125,963469.0,1.0,1
-642783.375,-31516.408203125,-29466.306640625,8387.2685546875,-750000.125,3729.254638671875,-750000.125,-750000.125,963470.0,1.0,1
-653874.75,18437.328125,22880.23046875,17375.978515625,-750000.125,-20242.009765625,-750000.125,-750000.125,963471.0,1.0,1
-650259.75,467.06207275390625,9624.7509765625,14574.5,-750000.125,-13942.6611328125,-750000.125,-750000.125,963472.0,1.0,1
-637586.75,-45418.2109375,-42118.64453125,4177.98828125,-750000.125,12173.744140625,-750000.125,-750000.125,963473.0,1.0,1
-633133.6875,-56095.4609375,-56628.953125,640.243408203125,-750000.125,22696.498046875,-750000.125,-750000.125,963474.0,1.0,1
-642632.375,-31673.40625,-29754.732421875,8368.404296875,-750000.125,4419.4765625,-750000.125,-750000.125,963475.0,1.0,1
-653785.5,18527.451171875,22794.041015625,17440.26171875,-750000.125,-19635.560546875,-750000.125,-750000.125,963476.0,1.0,1
-650273.625,1153.9759521484375,10111.03515625,14730.158203125,-750000.125,-13539.078125,-750000.125,-750000.125,963477.0,1.0,1
-637622.5,-45044.9375,-41765.21875,4320.681640625,-750000.125,12388.767578125,-750000.125,-750000.125,963478.0,1.0,1
-633065.0625,-56077.9375,-56652.82421875,552.7139892578125,-750000.125,22934.232421875,-750000.125,-750000.125,963479.0,1.0,1
-642495.5,-31939.83984375,-30129.6171875,8314.759765625,-750000.125,4845.0537109375,-750000.125,-750000.125,963480.0,1.0,1
-653707.75,18394.681640625,22564.98046875,17523.857421875,-750000.125,-19318.078125,-750000.125,-750000.125,963481.0,1.0,1
-650292.1875,1480.7584228515625,10354.4912109375,14867.30859375,-750000.125,-13456.734375,-750000.125,-750000.125,963482.0,1.0,1
-637661.3125,-44793.5234375,-41518.8125,4449.427734375,-750000.125,12334.408203125,-750000.125,-750000.125,963483.0,1.0,1
-633000.6875,-56059.16015625,-56666.94921875,588.566162109375,-750000.125,23049.208984375,-750000.125,-750000.125,963484.0,1.0,1
-642362.0625,-32204.841796875,-30475.80078125,8324.7734375,-750000.125,5248.9052734375,-750000.125,-750000.125,963485.0,1.0,1
-653628.4375,18263.87890625,22352.998046875,17616.3046875,-750000.125,-18977.2578125,-750000.125,-750000.125,963486.0,1.0,1
-650317.875,1903.38525390625,10667.326171875,15041.6513671875,-750000.125,-13333.173828125,-750000.125,-750000.125,963487.0,1.0,1
-637706.75,-44499.015625,-41225.46875,4614.65185546875,-750000.125,12329.4912109375,-750000.125,-750000.125,963488.0,1.0,1
-632934.1875,-56047.62890625,-56686.9765625,685.57275390625,-750000.125,23194.763671875,-750000.125,-750000.125,963489.0,1.0,1
-642224.75,-32453.3046875,-30823.951171875,8389.3251953125,-750000.125,5719.0068359375,-750000.125,-750000.125,963490.0,1.0,1
-653556.8125,18191.90625,22161.48828125,17752.91796875,-750000.125,-18584.939453125,-750000.125,-750000.125,963491.0,1.0,1
-650348.4375,2387.4345703125,11013.2412109375,15277.5078125,-750000.125,-13147.8330078125,-750000.125,-750000.125,963492.0,1.0,1
-637756.4375,-44191.9921875,-40917.10546875,4897.35693359375,-750000.125,12388.41015625,-750000.125,-750000.125,963493.0,1.0,1
-632869.125,-56044.9453125,-56715.85546875,982.5827026367188,-750000.125,23477.37890625,-750000.125,-750000.125,963494.0,1.0,1
-642090.875,-32624.072265625,-31071.25,8544.4462890625,-750000.125,6495.14892578125,-750000.125,-750000.125,963495.0,1.0,1
-653486.625,18265.66796875,22114.28125,17863.783203125,-750000.125,-17913.76171875,-750000.125,-750000.125,963496.0,1.0,1
-650379.5625,3034.02587890625,11554.869140625,15443.9833984375,-750000.125,-12705.537109375,-750000.125,-750000.125,963497.0,1.0,1
-637801.5,-43814.515625,-40516.65234375,5018.32470703125,-750000.125,12613.89453125,-750000.125,-750000.125,963498.0,1.0,1
-632809.3125,-56031.80078125,-56727.8359375,990.1823120117188,-750000.125,23763.125,-750000.125,-750000.125,963499.0,1.0,1
-641963.125,-32846.875,-31358.873046875,8495.541015625,-750000.125,7180.81103515625,-750000.125,-750000.125,963500.0,1.0,1
-653419.8125,18237.7734375,21986.875,17839.375,-750000.125,-17328.146484375,-750000.125,-750000.125,963501.0,1.0,1
-650418.1875,3639.579345703125,12017.908203125,15490.2958984375,-750000.125,-12352.2001953125,-750000.125,-750000.125,963502.0,1.0,1
-637857.8125,-43440.6171875,-40143.46484375,5044.5205078125,-750000.125,12778.0458984375,-750000.125,-750000.125,963503.0,1.0,1
-632748.3125,-56010.16796875,-56740.17578125,794.2022094726562,-750000.125,23935.76953125,-750000.125,-750000.125,963504.0,1.0,1
-641833.3125,-33125.375,-31741.087890625,8328.70703125,-750000.125,7615.23974609375,-750000.125,-750000.125,963505.0,1.0,1
-653356.125,18069.955078125,21724.01953125,17822.208984375,-750000.125,-16977.134765625,-750000.125,-750000.125,963506.0,1.0,1
-650456.6875,4008.025634765625,12286.576171875,15566.91796875,-750000.125,-12213.0830078125,-750000.125,-750000.125,963507.0,1.0,1
-637912.9375,-43170.33984375,-39858.2578125,5130.708984375,-750000.125,12775.54296875,-750000.125,-750000.125,963508.0,1.0,1
-632694.9375,-56009.00390625,-56755.73046875,898.361328125,-750000.125,24105.015625,-750000.125,-750000.125,963509.0,1.0,1
-641710.75,-33356.8515625,-32025.3125,8311.0048828125,-750000.125,8279.3544921875,-750000.125,-750000.125,963510.0,1.0,1
-653288.875,18004.509765625,21589.908203125,17793.77734375,-750000.125,-16358.52734375,-750000.125,-750000.125,963511.0,1.0,1
-650492.3125,4520.7744140625,12708.1298828125,15610.9951171875,-750000.125,-11832.208984375,-750000.125,-750000.125,963512.0,1.0,1
-637976.5625,-42813.33984375,-39494.10546875,5165.04150390625,-750000.125,12932.630859375,-750000.125,-750000.125,963513.0,1.0,1
-632650.0625,-55996.6640625,-56773.61328125,817.7162475585938,-750000.125,24308.685546875,-750000.125,-750000.125,963514.0,1.0,1
-641596.125,-33602.62890625,-32359.158203125,8189.5009765625,-750000.125,8911.283203125,-750000.125,-750000.125,963515.0,1.0,1
-653227.4375,17932.8046875,21412.79296875,17772.05078125,-750000.125,-15748.771484375,-750000.125,-750000.125,963516.0,1.0,1
-650540.375,5076.349609375,13127.984375,15693.25,-750000.125,-11432.2021484375,-750000.125,-750000.125,963517.0,1.0,1
-638049.8125,-42460.08984375,-39130.57421875,5243.54052734375,-750000.125,13116.80859375,-750000.125,-750000.125,963518.0,1.0,1
-632616.1875,-55993.4453125,-56791.13671875,685.3045043945312,-750000.125,24459.60546875,-750000.125,-750000.125,963519.0,1.0,1
-641493.25,-33905.98828125,-32726.44140625,8054.3173828125,-750000.125,9303.958984375,-750000.125,-750000.125,963520.0,1.0,1
-653176.3125,17683.181640625,21123.830078125,17728.421875,-750000.125,-15466.513671875,-750000.125,-750000.125,963521.0,1.0,1
-650596.1875,5334.37841796875,13330.9384765625,15732.5,-750000.125,-11367.1142578125,-750000.125,-750000.125,963522.0,1.0,1
-638131.8125,-42235.14453125,-38870.7578125,5299.95654296875,-750000.125,13068.88671875,-750000.125,-750000.125,963523.0,1.0,1
-632591.5625,-55999.6171875,-56801.953125,777.7513427734375,-750000.125,24555.44921875,-750000.125,-750000.125,963524.0,1.0,1
-641400.25,-34181.62890625,-33025.0625,8022.130859375,-750000.125,9833.4267578125,-750000.125,-750000.125,963525.0,1.0,1
-653141.9375,17511.51953125,20929.458984375,17639.818359375,-750000.125,-15017.064453125,-750000.125,-750000.125,963526.0,1.0,1
-650662.1875,5704.52294921875,13647.88671875,15709.0751953125,-750000.125,-11126.251953125,-750000.125,-750000.125,963527.0,1.0,1
-638214.9375,-41960.39453125,-38563.64453125,5270.8994140625,-750000.125,13153.8232421875,-750000.125,-750000.125,963528.0,1.0,1
-632576.5,-56001.31640625,-56809.28515625,654.1015014648438,-750000.125,24676.953125,-750000.125,-750000.125,963529.0,1.0,1
-641313.4375,-34472.5625,-33352.828125,7836.34326171875,-750000.125,10317.833984375,-750000.125,-750000.125,963530.0,1.0,1
-653104.5,17286.662109375,20680.103515625,17487.46875,-750000.125,-14589.6103515625,-750000.125,-750000.125,963531.0,1.0,1
-650731.4375,6037.74267578125,13927.1044921875,15652.7490234375,-750000.125,-10932.775390625,-750000.125,-750000.125,963532.0,1.0,1
-638311.6875,-41661.6875,-38253.13671875,5252.4814453125,-750000.125,13191.642578125,-750000.125,-750000.125,963533.0,1.0,1
-632563.625,-55987.90234375,-56821.4453125,541.0016479492188,-750000.125,24773.69140625,-750000.125,-750000.125,963534.0,1.0,1
-641233.6875,-34748.11328125,-33715.73046875,7646.0849609375,-750000.125,10772.021484375,-750000.125,-750000.125,963535.0,1.0,1
-653072.75,17093.54296875,20412.59765625,17363.103515625,-750000.125,-14164.30078125,-750000.125,-750000.125,963536.0,1.0,1
-650802.5625,6366.3134765625,14178.337890625,15627.0888671875,-750000.125,-10712.6552734375,-750000.125,-750000.125,963537.0,1.0,1
-638416.75,-41391.58984375,-37960.23828125,5259.00830078125,-750000.125,13248.1474609375,-750000.125,-750000.125,963538.0,1.0,1
-632561.1875,-55991.48046875,-56836.19921875,452.84637451171875,-750000.125,24884.64453125,-750000.125,-750000.125,963539.0,1.0,1
-641156.4375,-35041.9921875,-34053.2421875,7470.84765625,-750000.125,11247.755859375,-750000.125,-750000.125,963540.0,1.0,1
-653048.25,16852.232421875,20150.3671875,17189.029296875,-750000.125,-13775.4697265625,-750000.125,-750000.125,963541.0,1.0,1
-650882.75,6654.74072265625,14432.611328125,15541.2578125,-750000.125,-10522.0390625,-750000.125,-750000.125,963542.0,1.0,1
-638516.5,-41158.68359375,-37674.8515625,5213.052734375,-750000.125,13325.7529296875,-750000.125,-750000.125,963543.0,1.0,1
-632563.3125,-56014.7265625,-56850.4140625,228.5242462158203,-750000.125,24938.2890625,-750000.125,-750000.125,963544.0,1.0,1
-641097.3125,-35414.73046875,-34434.3828125,7213.712890625,-750000.125,11495.591796875,-750000.125,-750000.125,963545.0,1.0,1
-653036.125,16439.9765625,19777.896484375,17049.375,-750000.125,-13616.4150390625,-750000.125,-750000.125,963546.0,1.0,1
-650965.4375,6701.85791015625,14511.2001953125,15507.9091796875,-750000.125,-10553.689453125,-750000.125,-750000.125,963547.0,1.0,1
-638627.0,-41012.50390625,-37470.734375,5272.8662109375,-750000.125,13225.8857421875,-750000.125,-750000.125,963548.0,1.0,1
-632573.375,-56031.53515625,-56855.8671875,318.199462890625,-750000.125,24998.103515625,-750000.125,-750000.125,963549.0,1.0,1
-641029.625,-35725.2421875,-34752.4921875,7178.48681640625,-750000.125,12044.998046875,-750000.125,-750000.125,963550.0,1.0,1
-653008.6875,16193.03515625,19526.306640625,16921.076171875,-750000.125,-13104.560546875,-750000.125,-750000.125,963551.0,1.0,1
-651056.375,7066.638671875,14845.671875,15474.91796875,-750000.125,-10259.09375,-750000.125,-750000.125,963552.0,1.0,1
-638746.8125,-40703.6015625,-37105.86328125,5273.044921875,-750000.125,13362.4990234375,-750000.125,-750000.125,963553.0,1.0,1
-632583.4375,-56029.12109375,-56850.6796875,253.1111602783203,-750000.125,25121.39453125,-750000.125,-750000.125,963554.0,1.0,1
-640969.125,-35988.1875,-35055.31640625,7057.6083984375,-750000.125,12612.732421875,-750000.125,-750000.125,963555.0,1.0,1
-652998.375,15993.6572265625,19296.529296875,16853.484375,-750000.125,-12522.7890625,-750000.125,-750000.125,963556.0,1.0,1
-651148.75,7403.255859375,15142.681640625,15514.615234375,-750000.125,-9881.259765625,-750000.125,-750000.125,963557.0,1.0,1
-638872.1875,-40408.91796875,-36784.8046875,5386.50244140625,-750000.125,13549.9853515625,-750000.125,-750000.125,963558.0,1.0,1
-632605.25,-56032.875,-56869.90234375,304.6095886230469,-750000.125,25278.662109375,-750000.125,-750000.125,963559.0,1.0,1
-640912.5,-36242.99609375,-35373.9609375,7028.8193359375,-750000.125,13246.6279296875,-750000.125,-750000.125,963560.0,1.0,1
-652984.5,15829.595703125,19068.185546875,16837.48046875,-750000.125,-11907.400390625,-750000.125,-750000.125,963561.0,1.0,1
-651248.5,7802.0107421875,15474.2919921875,15575.1435546875,-750000.125,-9496.2734375,-750000.125,-750000.125,963562.0,1.0,1
-639000.1875,-40104.0390625,-36434.86328125,5463.03466796875,-750000.125,13731.1240234375,-750000.125,-750000.125,963563.0,1.0,1
-632625.625,-56038.8671875,-56874.91015625,327.5871887207031,-750000.125,25417.51171875,-750000.125,-750000.125,963564.0,1.0,1
-640855.75,-36507.375,-35661.94140625,6983.84765625,-750000.125,13873.013671875,-750000.125,-750000.125,963565.0,1.0,1
-652974.3125,15608.939453125,18837.873046875,16762.2890625,-750000.125,-11326.4345703125,-750000.125,-750000.125,963566.0,1.0,1
-651351.0625,8146.40673828125,15791.7763671875,15571.208984375,-750000.125,-9167.5234375,-750000.125,-750000.125,963567.0,1.0,1
-639131.6875,-39819.546875,-36071.87109375,5494.595703125,-750000.125,13884.994140625,-750000.125,-750000.125,963568.0,1.0,1
-632653.625,-56058.98046875,-56869.3671875,184.26779174804688,-750000.125,25464.5390625,-750000.125,-750000.125,963569.0,1.0,1
-640816.25,-36931.609375,-36068.20703125,6772.22119140625,-750000.125,14143.2900390625,-750000.125,-750000.125,963570.0,1.0,1
-652977.125,15086.265625,18385.47265625,16627.28515625,-750000.125,-11175.1572265625,-750000.125,-750000.125,963571.0,1.0,1
-651462.125,8108.40869140625,15803.3095703125,15514.16796875,-750000.125,-9283.57421875,-750000.125,-750000.125,963572.0,1.0,1
-639282.375,-39699.91796875,-35879.0234375,5540.01416015625,-750000.125,13703.4970703125,-750000.125,-750000.125,963573.0,1.0,1
-632691.5625,-56079.3671875,-56874.1953125,239.0742645263672,-750000.125,25444.51171875,-750000.125,-750000.125,963574.0,1.0,1
-640771.0,-37243.73046875,-36398.38671875,6677.62890625,-750000.125,14563.4140625,-750000.125,-750000.125,963575.0,1.0,1
-652976.5,14765.65234375,18077.82421875,16407.076171875,-750000.125,-10786.1474609375,-750000.125,-750000.125,963576.0,1.0,1
-651573.75,8294.822265625,16031.38671875,15376.0341796875,-750000.125,-9154.291015625,-750000.125,-750000.125,963577.0,1.0,1
-639420.75,-39487.48828125,-35573.0703125,5462.85595703125,-750000.125,13712.0810546875,-750000.125,-750000.125,963578.0,1.0,1
-632723.4375,-56111.734375,-56878.6640625,98.43708801269531,-750000.125,25477.771484375,-750000.125,-750000.125,963579.0,1.0,1
-640729.6875,-37590.62890625,-36746.359375,6436.22998046875,-750000.125,14916.03515625,-750000.125,-750000.125,963580.0,1.0,1
-652970.1875,14397.5634765625,17728.599609375,16155.2158203125,-750000.125,-10475.1005859375,-750000.125,-750000.125,963581.0,1.0,1
-651669.9375,8448.333984375,16186.240234375,15221.3603515625,-750000.125,-9069.533203125,-750000.125,-750000.125,963582.0,1.0,1
-639550.6875,-39280.0625,-35318.6171875,5414.93408203125,-750000.125,13720.4853515625,-750000.125,-750000.125,963583.0,1.0,1
-632751.0,-56137.125,-56899.140625,26.28565216064453,-750000.125,25520.775390625,-750000.125,-750000.125,963584.0,1.0,1
-640678.125,-37917.76953125,-37092.453125,6267.33984375,-750000.125,15270.8017578125,-750000.125,-750000.125,963585.0,1.0,1
-652960.375,14040.2041015625,17393.4140625,15938.224609375,-750000.125,-10199.1904296875,-750000.125,-750000.125,963586.0,1.0,1
-651772.4375,8616.0615234375,16374.888671875,15097.7099609375,-750000.125,-9035.1123046875,-750000.125,-750000.125,963587.0,1.0,1
-639689.0,-39051.80859375,-35024.46875,5382.65771484375,-750000.125,13684.0068359375,-750000.125,-750000.125,963588.0,1.0,1
-632777.375,-56144.1875,-56900.9296875,-56.41580581665039,-750000.125,25546.615234375,-750000.125,-750000.125,963589.0,1.0,1
-640614.25,-38266.45703125,-37464.56640625,6069.75048828125,-750000.125,15606.6142578125,-750000.125,-750000.125,963590.0,1.0,1
-652930.8125,13620.7958984375,16991.88671875,15684.130859375,-750000.125,-9925.248046875,-750000.125,-750000.125,963591.0,1.0,1
-651864.1875,8824.111328125,16545.56640625,14950.5458984375,-750000.125,-9006.0546875,-750000.125,-750000.125,963592.0,1.0,1
-639821.125,-38786.984375,-34728.7109375,5350.203125,-750000.125,13654.591796875,-750000.125,-750000.125,963593.0,1.0,1
-632796.875,-56138.9140625,-56900.48046875,-217.97422790527344,-750000.125,25541.876953125,-750000.125,-750000.125,963594.0,1.0,1
-640551.375,-38622.83203125,-37881.37890625,5790.08544921875,-750000.125,15732.857421875,-750000.125,-750000.125,963595.0,1.0,1
-652906.75,13124.140625,16488.525390625,15540.3642578125,-750000.125,-9873.3916015625,-750000.125,-750000.125,963596.0,1.0,1
-651957.875,8882.8515625,16590.716796875,14937.7607421875,-750000.125,-9156.34765625,-750000.125,-750000.125,963597.0,1.0,1
-639950.4375,-38599.9453125,-34495.62890625,5435.67626953125,-750000.125,13491.06640625,-750000.125,-750000.125,963598.0,1.0,1
-632809.125,-56142.578125,-56898.24609375,-98.3476791381836,-750000.125,25517.37890625,-750000.125,-750000.125,963599.0,1.0,1
-640474.9375,-38933.07421875,-38221.12890625,5801.9765625,-750000.125,16159.2392578125,-750000.125,-750000.125,963600.0,1.0,1
-652871.625,12784.662109375,16139.6591796875,15382.560546875,-750000.125,-9433.9560546875,-750000.125,-750000.125,963601.0,1.0,1
-652041.0,9181.4716796875,16861.708984375,14903.96484375,-750000.125,-8952.41015625,-750000.125,-750000.125,963602.0,1.0,1
-640067.0,-38290.59765625,-34125.5703125,5545.46826171875,-750000.125,13596.1201171875,-750000.125,-750000.125,963603.0,1.0,1
-632814.6875,-56140.1640625,-56887.60546875,-50.69375991821289,-750000.125,25601.779296875,-750000.125,-750000.125,963604.0,1.0,1
-640400.375,-39215.06640625,-38520.55078125,5731.34521484375,-750000.125,16617.271484375,-750000.125,-750000.125,963605.0,1.0,1
-652834.3125,12487.919921875,15844.34765625,15286.0009765625,-750000.125,-8977.17578125,-750000.125,-750000.125,963606.0,1.0,1
-652120.875,9505.9287109375,17164.3515625,14913.3525390625,-750000.125,-8718.4326171875,-750000.125,-750000.125,963607.0,1.0,1
-640177.5,-37963.63671875,-33740.67578125,5645.42529296875,-750000.125,13730.498046875,-750000.125,-750000.125,963608.0,1.0,1
-632816.875,-56128.54296875,-56869.45703125,-72.77728271484375,-750000.125,25649.701171875,-750000.125,-750000.125,963609.0,1.0,1
-640323.3125,-39531.65625,-38861.7265625,5591.69140625,-750000.125,16867.1640625,-750000.125,-750000.125,963610.0,1.0,1
-652797.1875,12017.818359375,15406.87890625,15217.158203125,-750000.125,-8770.8251953125,-750000.125,-750000.125,963611.0,1.0,1
-652197.9375,9582.55078125,17254.474609375,14939.28125,-750000.125,-8748.65234375,-750000.125,-750000.125,963612.0,1.0,1
-640289.6875,-37761.0390625,-33486.58203125,5770.7734375,-750000.125,13643.05859375,-750000.125,-750000.125,963613.0,1.0,1
-632822.0625,-56119.33203125,-56856.4921875,74.02898406982422,-750000.125,25640.4921875,-750000.125,-750000.125,963614.0,1.0,1
-640249.8125,-39788.96875,-39154.35546875,5629.15283203125,-750000.125,17312.232421875,-750000.125,-750000.125,963615.0,1.0,1
-652761.8125,11752.9052734375,15107.3662109375,15116.1279296875,-750000.125,-8234.919921875,-750000.125,-750000.125,963616.0,1.0,1
-652279.4375,9914.2509765625,17545.404296875,14937.0458984375,-750000.125,-8457.7216796875,-750000.125,-750000.125,963617.0,1.0,1
-640406.75,-37431.6640625,-33112.6796875,5827.90478515625,-750000.125,13772.162109375,-750000.125,-750000.125,963618.0,1.0,1
-632828.875,-56102.5234375,-56848.53515625,67.85990142822266,-750000.125,25702.361328125,-750000.125,-750000.125,963619.0,1.0,1
-640172.6875,-40041.98828125,-39461.203125,5522.580078125,-750000.125,17730.119140625,-750000.125,-750000.125,963620.0,1.0,1
-652725.4375,11478.158203125,14783.98046875,14990.33203125,-750000.125,-7758.4697265625,-750000.125,-750000.125,963621.0,1.0,1
-652365.625,10266.693359375,17833.83203125,14905.7529296875,-750000.125,-8221.8662109375,-750000.125,-750000.125,963622.0,1.0,1
-640525.5625,-37102.82421875,-32719.916015625,5831.0341796875,-750000.125,13864.7880859375,-750000.125,-750000.125,963623.0,1.0,1
-632835.6875,-56093.2265625,-56826.80859375,-1.430511713027954,-750000.125,25729.09375,-750000.125,-750000.125,963624.0,1.0,1
-640096.4375,-40320.94140625,-39751.328125,5362.54150390625,-750000.125,18064.0546875,-750000.125,-750000.125,963625.0,1.0,1
-652686.1875,11103.54296875,14435.115234375,14791.22265625,-750000.125,-7391.4541015625,-750000.125,-750000.125,963626.0,1.0,1
-652444.4375,10473.759765625,18061.998046875,14796.7666015625,-750000.125,-8108.6767578125,-750000.125,-750000.125,963627.0,1.0,1
-640641.0625,-36835.41015625,-32360.58984375,5792.32080078125,-750000.125,13870.0625,-750000.125,-750000.125,963628.0,1.0,1
-632846.125,-56092.33203125,-56800.79296875,-102.10277557373047,-750000.125,25733.296875,-750000.125,-750000.125,963629.0,1.0,1
-640025.625,-40606.953125,-40039.84375,5171.7470703125,-750000.125,18360.974609375,-750000.125,-750000.125,963630.0,1.0,1
-652645.125,10724.814453125,14082.2255859375,14595.8681640625,-750000.125,-7029.08740234375,-750000.125,-750000.125,963631.0,1.0,1
-652519.0,10691.3759765625,18282.923828125,14703.0673828125,-750000.125,-7986.189453125,-750000.125,-750000.125,963632.0,1.0,1
-640754.4375,-36561.375,-32018.607421875,5781.4130859375,-750000.125,13898.94140625,-750000.125,-750000.125,963633.0,1.0,1
-632854.5625,-56087.94921875,-56782.5546875,-180.5126953125,-750000.125,25744.740234375,-750000.125,-750000.125,963634.0,1.0,1
-639948.875,-40882.953125,-40339.08984375,5019.03955078125,-750000.125,18659.68359375,-750000.125,-750000.125,963635.0,1.0,1
-652598.4375,10378.8984375,13720.8427734375,14480.8916015625,-750000.125,-6628.09716796875,-750000.125,-750000.125,963636.0,1.0,1
-652593.4375,10960.3125,18510.91015625,14684.3818359375,-750000.125,-7826.15087890625,-750000.125,-750000.125,963637.0,1.0,1
-640869.0,-36260.34375,-31669.205078125,5793.0361328125,-750000.125,13928.087890625,-750000.125,-750000.125,963638.0,1.0,1
-632861.0,-56074.80859375,-56765.1171875,-230.938232421875,-750000.125,25749.568359375,-750000.125,-750000.125,963639.0,1.0,1
-639870.1875,-41137.8515625,-40627.78515625,4890.74072265625,-750000.125,18991.205078125,-750000.125,-750000.125,963640.0,1.0,1
-652550.8125,10063.8291015625,13378.32421875,14359.029296875,-750000.125,-6168.9921875,-750000.125,-750000.125,963641.0,1.0,1
-652660.3125,11255.1767578125,18768.58203125,14662.923828125,-750000.125,-7607.01416015625,-750000.125,-750000.125,963642.0,1.0,1
-640975.8125,-35944.01953125,-31280.8203125,5815.8349609375,-750000.125,13985.1298828125,-750000.125,-750000.125,963643.0,1.0,1
-632867.25,-56061.39453125,-56736.5078125,-288.3375244140625,-750000.125,25764.052734375,-750000.125,-750000.125,963644.0,1.0,1
-639794.5625,-41377.73046875,-40879.734375,4764.58740234375,-750000.125,19291.880859375,-750000.125,-750000.125,963645.0,1.0,1
-652504.375,9759.8447265625,13076.486328125,14249.3271484375,-750000.125,-5755.6640625,-750000.125,-750000.125,963646.0,1.0,1
-652730.0,11520.08984375,19031.080078125,14630.916015625,-750000.125,-7441.96875,-750000.125,-750000.125,963647.0,1.0,1
-641084.875,-35648.88671875,-30891.095703125,5812.794921875,-750000.125,14009.1796875,-750000.125,-750000.125,963648.0,1.0,1
-632874.0,-56047.08984375,-56695.55859375,-419.944580078125,-750000.125,25750.552734375,-750000.125,-750000.125,963649.0,1.0,1
-639712.875,-41667.05078125,-41172.71875,4513.08544921875,-750000.125,19417.67578125,-750000.125,-750000.125,963650.0,1.0,1
-652447.125,9277.2265625,12634.0107421875,14158.2216796875,-750000.125,-5592.58544921875,-750000.125,-750000.125,963651.0,1.0,1
-652790.0625,11578.2939453125,19117.08984375,14635.744140625,-750000.125,-7525.11767578125,-750000.125,-750000.125,963652.0,1.0,1
-641191.0,-35452.19140625,-30627.970703125,5861.3427734375,-750000.125,13850.125,-750000.125,-750000.125,963653.0,1.0,1
-632881.6875,-56033.58984375,-56668.11328125,-380.7843322753906,-750000.125,25676.166015625,-750000.125,-750000.125,963654.0,1.0,1
-639635.8125,-41897.09375,-41420.64453125,4541.78515625,-750000.125,19699.3984375,-750000.125,-750000.125,963655.0,1.0,1
-652390.5625,8980.3056640625,12322.78515625,14057.1025390625,-750000.125,-5133.03369140625,-750000.125,-750000.125,963656.0,1.0,1
-652850.4375,11883.529296875,19386.83203125,14614.46484375,-750000.125,-7323.5048828125,-750000.125,-750000.125,963657.0,1.0,1
-641297.6875,-35114.94921875,-30220.095703125,5870.64111328125,-750000.125,13889.1064453125,-750000.125,-750000.125,963658.0,1.0,1
-632885.5625,-56008.734375,-56625.82421875,-514.1795654296875,-750000.125,25667.671875,-750000.125,-750000.125,963659.0,1.0,1
-639549.9375,-42189.546875,-41736.69921875,4271.68701171875,-750000.125,19810.798828125,-750000.125,-750000.125,963660.0,1.0,1
-652332.75,8483.7392578125,11833.6396484375,13958.3076171875,-750000.125,-4977.46533203125,-750000.125,-750000.125,963661.0,1.0,1
-652907.875,11933.9541015625,19431.53515625,14600.607421875,-750000.125,-7427.12744140625,-750000.125,-750000.125,963662.0,1.0,1
-641395.75,-34928.4453125,-29998.544921875,5892.27783203125,-750000.125,13701.3515625,-750000.125,-750000.125,963663.0,1.0,1
-632886.5625,-55994.1640625,-56609.10546875,-520.4380493164062,-750000.125,25583.181640625,-750000.125,-750000.125,963664.0,1.0,1
-639465.8125,-42404.12109375,-41981.5859375,4251.7490234375,-750000.125,20051.75,-750000.125,-750000.125,963665.0,1.0,1
-652267.0,8183.51025390625,11519.732421875,13794.9609375,-750000.125,-4585.1474609375,-750000.125,-750000.125,963666.0,1.0,1
-652954.0625,12202.6220703125,19658.271484375,14514.240234375,-750000.125,-7276.56591796875,-750000.125,-750000.125,963667.0,1.0,1
-641483.1875,-34630.8125,-29630.994140625,5851.06103515625,-750000.125,13725.759765625,-750000.125,-750000.125,963668.0,1.0,1
-632881.8125,-55984.7734375,-56574.859375,-632.4649658203125,-750000.125,25585.23828125,-750000.125,-750000.125,963669.0,1.0,1
-639377.25,-42638.3671875,-42220.92578125,4069.4482421875,-750000.125,20298.423828125,-750000.125,-750000.125,963670.0,1.0,1
-652191.125,7844.8369140625,11188.3896484375,13622.583984375,-750000.125,-4198.9990234375,-750000.125,-750000.125,963671.0,1.0,1
-652995.6875,12425.8720703125,19892.427734375,14414.998046875,-750000.125,-7153.45263671875,-750000.125,-750000.125,963672.0,1.0,1
-641573.6875,-34348.64453125,-29243.32421875,5735.279296875,-750000.125,13690.0869140625,-750000.125,-750000.125,963673.0,1.0,1
-632877.4375,-55956.43359375,-56521.0390625,-816.1963500976562,-750000.125,25552.693359375,-750000.125,-750000.125,963674.0,1.0,1
-639281.625,-42869.21875,-42457.9453125,3821.88037109375,-750000.125,20460.609375,-750000.125,-750000.125,963675.0,1.0,1
-652110.3125,7448.49560546875,10813.4169921875,13365.5390625,-750000.125,-3928.274658203125,-750000.125,-750000.125,963676.0,1.0,1
-653030.75,12584.30078125,20039.412109375,14239.224609375,-750000.125,-7128.150390625,-750000.125,-750000.125,963677.0,1.0,1
-641661.3125,-34081.13671875,-28921.99609375,5623.16259765625,-750000.125,13624.8193359375,-750000.125,-750000.125,963678.0,1.0,1
-632871.4375,-55927.46484375,-56477.5859375,-1025.3192138671875,-750000.125,25510.13671875,-750000.125,-750000.125,963679.0,1.0,1
-639191.4375,-43136.0078125,-42747.80078125,3464.788818359375,-750000.125,20490.91796875,-750000.125,-750000.125,963680.0,1.0,1
-652034.5,6942.8994140625,10317.029296875,13197.3642578125,-750000.125,-3877.3125,-750000.125,-750000.125,963681.0,1.0,1
-653066.6875,12604.328125,20055.05859375,14183.4345703125,-750000.125,-7303.56689453125,-750000.125,-750000.125,963682.0,1.0,1
-641743.3125,-33915.5546875,-28725.48046875,5600.36376953125,-750000.125,13396.9208984375,-750000.125,-750000.125,963683.0,1.0,1
-632861.6875,-55903.234375,-56453.08984375,-1084.77490234375,-750000.125,25412.326171875,-750000.125,-750000.125,963684.0,1.0,1
-639093.375,-43343.07421875,-42992.421875,3409.982177734375,-750000.125,20670.08984375,-750000.125,-750000.125,963685.0,1.0,1
-651948.8125,6608.427734375,9957.61328125,13006.3017578125,-750000.125,-3525.943115234375,-750000.125,-750000.125,963686.0,1.0,1
-653091.6875,12822.8388671875,20223.322265625,14062.6455078125,-750000.125,-7187.06982421875,-750000.125,-750000.125,963687.0,1.0,1
-641826.0,-33613.71875,-28391.09765625,5524.45751953125,-750000.125,13385.2978515625,-750000.125,-750000.125,963688.0,1.0,1
-632858.3125,-55868.9921875,-56414.8203125,-1228.9884033203125,-750000.125,25401.23828125,-750000.125,-750000.125,963689.0,1.0,1
-638997.0,-43545.04296875,-43230.77734375,3189.68359375,-750000.125,20853.552734375,-750000.125,-750000.125,963690.0,1.0,1
-651863.8125,6267.51904296875,9600.7900390625,12806.7451171875,-750000.125,-3206.6708984375,-750000.125,-750000.125,963691.0,1.0,1
-653119.6875,13018.908203125,20404.4609375,13948.830078125,-750000.125,-7109.017578125,-750000.125,-750000.125,963692.0,1.0,1
-641902.5,-33340.22265625,-28045.5390625,5447.12060546875,-750000.125,13349.4462890625,-750000.125,-750000.125,963693.0,1.0,1
-632846.875,-55848.4296875,-56372.53125,-1367.390380859375,-750000.125,25377.814453125,-750000.125,-750000.125,963694.0,1.0,1
-638896.0625,-43775.53515625,-43467.44140625,2983.24267578125,-750000.125,21032.814453125,-750000.125,-750000.125,963695.0,1.0,1
-651771.8125,5864.29345703125,9211.869140625,12593.7783203125,-750000.125,-2898.30615234375,-750000.125,-750000.125,963696.0,1.0,1
-653146.0625,13220.9677734375,20569.505859375,13818.3857421875,-750000.125,-7048.578125,-750000.125,-750000.125,963697.0,1.0,1
-641982.4375,-33044.28515625,-27687.28515625,5380.244140625,-750000.125,13306.5302734375,-750000.125,-750000.125,963698.0,1.0,1
-632840.4375,-55822.859375,-56322.10546875,-1493.4542236328125,-750000.125,25353.853515625,-750000.125,-750000.125,963699.0,1.0,1
-638799.5625,-43995.4765625,-43703.83203125,2787.799072265625,-750000.125,21210.376953125,-750000.125,-750000.125,963700.0,1.0,1
-651683.8125,5511.314453125,8834.9296875,12424.3515625,-750000.125,-2556.503173828125,-750000.125,-750000.125,963701.0,1.0,1
-653175.3125,13437.154296875,20754.490234375,13740.154296875,-750000.125,-6945.4921875,-750000.125,-750000.125,963702.0,1.0,1
-642068.5625,-32735.47265625,-27322.7734375,5325.794921875,-750000.125,13267.638671875,-750000.125,-750000.125,963703.0,1.0,1
-632831.1875,-55780.74609375,-56276.8671875,-1644.3731689453125,-750000.125,25325.2421875,-750000.125,-750000.125,963704.0,1.0,1
-638697.5625,-44244.296875,-43985.91015625,2452.075927734375,-750000.125,21262.947265625,-750000.125,-750000.125,963705.0,1.0,1
-651592.1875,4972.45849609375,8317.0849609375,12226.94140625,-750000.125,-2481.31201171875,-750000.125,-750000.125,963706.0,1.0,1
-653201.625,13442.9658203125,20753.953125,13667.82421875,-750000.125,-7131.5478515625,-750000.125,-750000.125,963707.0,1.0,1
-642143.5,-32556.837890625,-27121.697265625,5305.49951171875,-750000.125,13024.541015625,-750000.125,-750000.125,963708.0,1.0,1
-632824.0625,-55749.3671875,-56242.98046875,-1719.47509765625,-750000.125,25215.98828125,-750000.125,-750000.125,963709.0,1.0,1
-638602.6875,-44455.83203125,-44234.4609375,2321.18408203125,-750000.125,21282.080078125,-750000.125,-750000.125,963710.0,1.0,1
-651501.375,4503.787109375,7846.89306640625,12077.0947265625,-750000.125,-2401.73974609375,-750000.125,-750000.125,963711.0,1.0,1
-653230.1875,13465.853515625,20802.412109375,13600.58984375,-750000.125,-7300.884765625,-750000.125,-750000.125,963712.0,1.0,1
-642224.8125,-32375.69921875,-26866.171875,5276.8896484375,-750000.125,12790.9208984375,-750000.125,-750000.125,963713.0,1.0,1
-632814.3125,-55727.91015625,-56200.69140625,-1787.0667724609375,-750000.125,25115.583984375,-750000.125,-750000.125,963714.0,1.0,1
-638507.75,-44662.36328125,-44446.1796875,2294.09375,-750000.125,21411.2734375,-750000.125,-750000.125,963715.0,1.0,1
-651426.0,4152.1494140625,7505.71630859375,11910.9765625,-750000.125,-2111.07763671875,-750000.125,-750000.125,963716.0,1.0,1
-653263.0,13688.3876953125,20983.818359375,13475.2412109375,-750000.125,-7254.84033203125,-750000.125,-750000.125,963717.0,1.0,1
-642307.25,-32063.66796875,-26500.318359375,5189.2705078125,-750000.125,12728.9619140625,-750000.125,-750000.125,963718.0,1.0,1
-632812.25,-55690.71484375,-56145.26171875,-1956.2247314453125,-750000.125,25084.55859375,-750000.125,-750000.125,963719.0,1.0,1
-638409.125,-44894.5546875,-44702.23828125,1955.598876953125,-750000.125,21459.462890625,-750000.125,-750000.125,963720.0,1.0,1
-651331.75,3644.318115234375,6998.8681640625,11706.1455078125,-750000.125,-2017.1109619140625,-750000.125,-750000.125,963721.0,1.0,1
-653293.0,13762.6845703125,21032.009765625,13411.583984375,-750000.125,-7407.4580078125,-750000.125,-750000.125,963722.0,1.0,1
-642397.375,-31828.52734375,-26226.107421875,5189.091796875,-750000.125,12516.8876953125,-750000.125,-750000.125,963723.0,1.0,1
-632814.5,-55661.92578125,-56103.328125,-2007.8126220703125,-750000.125,24999.443359375,-750000.125,-750000.125,963724.0,1.0,1
-638317.75,-45097.59765625,-44930.76171875,1927.3463134765625,-750000.125,21603.9453125,-750000.125,-750000.125,963725.0,1.0,1
-651238.875,3282.93505859375,6616.02734375,11563.630859375,-750000.125,-1668.334228515625,-750000.125,-750000.125,963726.0,1.0,1
-653319.25,13986.2021484375,21205.01171875,13335.7666015625,-750000.125,-7300.16943359375,-750000.125,-750000.125,963727.0,1.0,1
-642480.875,-31501.119140625,-25867.318359375,5182.1181640625,-750000.125,12514.9208984375,-750000.125,-750000.125,963728.0,1.0,1
-632813.125,-55627.86328125,-56065.2421875,-2067.268310546875,-750000.125,24999.623046875,-750000.125,-750000.125,963729.0,1.0,1
-638219.0625,-45316.375,-45187.00390625,1709.5509033203125,-750000.125,21691.83203125,-750000.125,-750000.125,963730.0,1.0,1
-651148.5625,2821.2373046875,6149.32275390625,11465.998046875,-750000.125,-1530.46875,-750000.125,-750000.125,963731.0,1.0,1
-653347.5,14045.8369140625,21285.74609375,13357.939453125,-750000.125,-7411.57080078125,-750000.125,-750000.125,963732.0,1.0,1
-642566.5625,-31297.8984375,-25571.291015625,5213.052734375,-750000.125,12308.5693359375,-750000.125,-750000.125,963733.0,1.0,1
-632809.375,-55604.078125,-56008.19921875,-2095.6103515625,-750000.125,24904.94140625,-750000.125,-750000.125,963734.0,1.0,1
-638123.125,-45519.8671875,-45391.56640625,1715.8094482421875,-750000.125,21814.9453125,-750000.125,-750000.125,963735.0,1.0,1
-651055.5625,2460.569580078125,5791.962890625,11384.7275390625,-750000.125,-1202.881591796875,-750000.125,-750000.125,963736.0,1.0,1
-653374.6875,14265.8671875,21468.76171875,13335.7666015625,-750000.125,-7319.66015625,-750000.125,-750000.125,963737.0,1.0,1
-642648.875,-30981.93359375,-25207.671875,5213.41064453125,-750000.125,12272.7177734375,-750000.125,-750000.125,963738.0,1.0,1
-632808.875,-55555.62109375,-55959.91796875,-2159.1787109375,-750000.125,24890.634765625,-750000.125,-750000.125,963739.0,1.0,1
-638031.3125,-45696.265625,-45606.234375,1581.698974609375,-750000.125,21964.43359375,-750000.125,-750000.125,963740.0,1.0,1
-650972.3125,2112.59765625,5406.08251953125,11233.9873046875,-750000.125,-882.7151489257812,-750000.125,-750000.125,963741.0,1.0,1
-653399.375,14475.9736328125,21605.912109375,13257.7138671875,-750000.125,-7232.7568359375,-750000.125,-750000.125,963742.0,1.0,1
-642723.875,-30666.68359375,-24881.78515625,5174.33984375,-750000.125,12241.603515625,-750000.125,-750000.125,963743.0,1.0,1
-632807.625,-55513.0625,-55917.62890625,-2255.380615234375,-750000.125,24870.876953125,-750000.125,-750000.125,963744.0,1.0,1
-637943.3125,-45858.8984375,-45809.9921875,1420.5875244140625,-750000.125,22108.201171875,-750000.125,-750000.125,963745.0,1.0,1
-650887.8125,1791.894775390625,5039.3349609375,11077.435546875,-750000.125,-561.7440795898438,-750000.125,-750000.125,963746.0,1.0,1
-653428.9375,14700.83203125,21752.62890625,13182.7021484375,-750000.125,-7125.02099609375,-750000.125,-750000.125,963747.0,1.0,1
-642808.75,-30349.2890625,-24538.908203125,5142.60009765625,-750000.125,12239.1005859375,-750000.125,-750000.125,963748.0,1.0,1
-632813.0625,-55472.83203125,-55866.9375,-2341.39013671875,-750000.125,24856.572265625,-750000.125,-750000.125,963749.0,1.0,1
-637853.4375,-46037.0859375,-46016.5234375,1266.986328125,-750000.125,22265.46875,-750000.125,-750000.125,963750.0,1.0,1
-650794.5,1425.6837158203125,4656.4052734375,10920.0791015625,-750000.125,-195.35426330566406,-750000.125,-750000.125,963751.0,1.0,1
-653455.0625,14872.3154296875,21908.64453125,13114.57421875,-750000.125,-6991.71533203125,-750000.125,-750000.125,963752.0,1.0,1
-642896.75,-30043.0703125,-24169.30078125,5142.06396484375,-750000.125,12252.421875,-750000.125,-750000.125,963753.0,1.0,1
-632823.625,-55434.7421875,-55807.48046875,-2399.0576171875,-750000.125,24851.564453125,-750000.125,-750000.125,963754.0,1.0,1
-637768.6875,-46260.24609375,-46249.16015625,1032.20361328125,-750000.125,22355.58984375,-750000.125,-750000.125,963755.0,1.0,1
-650704.125,871.8074951171875,4147.67919921875,10761.8291015625,-750000.125,-21.189455032348633,-750000.125,-750000.125,963756.0,1.0,1
-653478.6875,14868.2919921875,21913.47265625,13076.486328125,-750000.125,-7079.6025390625,-750000.125,-750000.125,963757.0,1.0,1
-642986.75,-29845.212890625,-23918.513671875,5162.0908203125,-750000.125,12059.302734375,-750000.125,-750000.125,963758.0,1.0,1
-632839.25,-55384.67578125,-55740.24609375,-2441.4365234375,-750000.125,24763.587890625,-750000.125,-750000.125,963759.0,1.0,1
-637682.0625,-46430.02734375,-46445.9453125,1013.159912109375,-750000.125,22476.736328125,-750000.125,-750000.125,963760.0,1.0,1
-650606.8125,514.6265869140625,3751.159423828125,10657.3125,-750000.125,386.5957946777344,-750000.125,-750000.125,963761.0,1.0,1
-653501.375,15097.173828125,22070.11328125,13022.484375,-750000.125,-6889.79150390625,-750000.125,-750000.125,963762.0,1.0,1
-643070.375,-29493.576171875,-23549.53125,5138.30859375,-750000.125,12091.2216796875,-750000.125,-750000.125,963763.0,1.0,1
-632848.875,-55328.6171875,-55679.09375,-2531.29052734375,-750000.125,24759.744140625,-750000.125,-750000.125,963764.0,1.0,1
-637593.8125,-46616.44140625,-46667.046875,746.995361328125,-750000.125,22563.283203125,-750000.125,-750000.125,963765.0,1.0,1
-650510.375,50.425537109375,3273.63671875,10493.5185546875,-750000.125,569.2542724609375,-750000.125,-750000.125,963766.0,1.0,1
-653521.5,15132.400390625,22101.49609375,13002.7255859375,-750000.125,-6948.35302734375,-750000.125,-750000.125,963767.0,1.0,1
-643155.1875,-29288.4765625,-23302.857421875,5162.80615234375,-750000.125,11927.6064453125,-750000.125,-750000.125,963768.0,1.0,1
-632860.375,-55287.578125,-55632.0625,-2554.357421875,-750000.125,24684.373046875,-750000.125,-750000.125,963769.0,1.0,1
-637508.5,-46772.63671875,-46852.4765625,759.6911010742188,-750000.125,22674.7734375,-750000.125,-750000.125,963770.0,1.0,1
-650425.25,-275.9099426269531,2924.144775390625,10394.4560546875,-750000.125,937.5216064453125,-750000.125,-750000.125,963771.0,1.0,1
-653545.5625,15311.03515625,22264.3046875,12929.2333984375,-750000.125,-6791.97998046875,-750000.125,-750000.125,963772.0,1.0,1
-643231.5625,-28989.767578125,-22915.814453125,5134.9111328125,-750000.125,11960.6875,-750000.125,-750000.125,963773.0,1.0,1
-632863.8125,-55255.390625,-55557.58984375,-2625.704345703125,-750000.125,24676.1484375,-750000.125,-750000.125,963774.0,1.0,1
-637425.625,-46958.24609375,-47022.88671875,630.2297973632812,-750000.125,22811.38671875,-750000.125,-750000.125,963775.0,1.0,1
-650337.625,-683.4269409179688,2559.185546875,10243.447265625,-750000.125,1282.185546875,-750000.125,-750000.125,963776.0,1.0,1
-653572.75,15473.1298828125,22408.697265625,12848.3193359375,-750000.125,-6677.44970703125,-750000.125,-750000.125,963777.0,1.0,1
-643324.25,-28677.826171875,-22545.669921875,5105.22802734375,-750000.125,11955.3232421875,-750000.125,-750000.125,963778.0,1.0,1
-632882.0,-55206.93359375,-55488.921875,-2705.634033203125,-750000.125,24662.111328125,-750000.125,-750000.125,963779.0,1.0,1
-637340.375,-47140.3671875,-47229.41796875,475.10870361328125,-750000.125,22950.50390625,-750000.125,-750000.125,963780.0,1.0,1
-650243.375,-1068.7711181640625,2136.55859375,10104.419921875,-750000.125,1676.649169921875,-750000.125,-750000.125,963781.0,1.0,1
-653597.25,15653.9111328125,22532.794921875,12804.0634765625,-750000.125,-6503.1064453125,-750000.125,-750000.125,963782.0,1.0,1
-643414.75,-28368.8359375,-22183.123046875,5086.1845703125,-750000.125,11966.4091796875,-750000.125,-750000.125,963783.0,1.0,1
-632895.3125,-55156.41796875,-55418.6484375,-2787.17333984375,-750000.125,24642.62109375,-750000.125,-750000.125,963784.0,1.0,1
-637255.125,-47313.4609375,-47423.16015625,317.7524108886719,-750000.125,23075.31640625,-750000.125,-750000.125,963785.0,1.0,1
-650154.1875,-1470.744873046875,1720.6373291015625,9934.2783203125,-750000.125,2036.780517578125,-750000.125,-750000.125,963786.0,1.0,1
-653621.0,15790.078125,22637.669921875,12719.3056640625,-750000.125,-6365.86669921875,-750000.125,-750000.125,963787.0,1.0,1
-643497.875,-28073.076171875,-21844.896484375,5050.68994140625,-750000.125,11970.3427734375,-750000.125,-750000.125,963788.0,1.0,1
-632912.1875,-55110.28515625,-55354.6328125,-2878.0107421875,-750000.125,24625.275390625,-750000.125,-750000.125,963789.0,1.0,1
-637170.8125,-47512.48046875,-47645.515625,51.945457458496094,-750000.125,23137.900390625,-750000.125,-750000.125,963790.0,1.0,1
-650057.25,-2017.1109619140625,1187.771728515625,9745.8974609375,-750000.125,2219.61767578125,-750000.125,-750000.125,963791.0,1.0,1
-653649.0,15746.447265625,22637.400390625,12690.1591796875,-750000.125,-6426.75244140625,-750000.125,-750000.125,963792.0,1.0,1
-643593.3125,-27887.19921875,-21588.388671875,5075.27685546875,-750000.125,11796.8046875,-750000.125,-750000.125,963793.0,1.0,1
-632925.8125,-55073.89453125,-55295.4453125,-2902.150634765625,-750000.125,24532.650390625,-750000.125,-750000.125,963794.0,1.0,1
-637082.125,-47699.69921875,-47844.5390625,51.49842071533203,-750000.125,23221.765625,-750000.125,-750000.125,963795.0,1.0,1
-649967.125,-2444.2080078125,770.33056640625,9650.58984375,-750000.125,2587.527587890625,-750000.125,-750000.125,963796.0,1.0,1
-653682.6875,15875.4609375,22771.154296875,12609.7822265625,-750000.125,-6301.314453125,-750000.125,-750000.125,963797.0,1.0,1
-643692.625,-27605.478515625,-21205.01171875,5022.794921875,-750000.125,11768.9990234375,-750000.125,-750000.125,963798.0,1.0,1
-632947.8125,-55024.27734375,-55213.73046875,-3015.876220703125,-750000.125,24501.625,-750000.125,-750000.125,963799.0,1.0,1
-637002.5,-47874.30859375,-48026.83984375,-136.43505859375,-750000.125,23320.470703125,-750000.125,-750000.125,963800.0,1.0,1
-649875.3125,-2884.269287109375,327.22955322265625,9455.771484375,-750000.125,2923.69775390625,-750000.125,-750000.125,963801.0,1.0,1
-653709.25,16049.0,22873.703125,12514.4736328125,-750000.125,-6190.89697265625,-750000.125,-750000.125,963802.0,1.0,1
-643782.0625,-27243.73828125,-20836.744140625,5019.03955078125,-750000.125,11774.810546875,-750000.125,-750000.125,963803.0,1.0,1
-632970.0625,-54962.94140625,-55142.828125,-3061.563232421875,-750000.125,24494.919921875,-750000.125,-750000.125,963804.0,1.0,1
-636919.4375,-48064.65625,-48246.51171875,-349.9389343261719,-750000.125,23399.23828125,-750000.125,-750000.125,963805.0,1.0,1
-649781.0,-3396.928955078125,-191.8673858642578,9284.021484375,-750000.125,3143.37060546875,-750000.125,-750000.125,963806.0,1.0,1
-653737.6875,16052.21875,22865.388671875,12487.3837890625,-750000.125,-6217.00390625,-750000.125,-750000.125,963807.0,1.0,1
-643881.4375,-27037.20703125,-20603.03515625,5037.45751953125,-750000.125,11635.0673828125,-750000.125,-750000.125,963808.0,1.0,1
-632994.4375,-54918.59765625,-55091.77734375,-3091.5146484375,-750000.125,24416.509765625,-750000.125,-750000.125,963809.0,1.0,1
-636843.5,-48215.57421875,-48435.16015625,-364.6016845703125,-750000.125,23471.2109375,-750000.125,-750000.125,963810.0,1.0,1
-649693.375,-3760.189453125,-599.6526489257812,9218.6640625,-750000.125,3529.966552734375,-750000.125,-750000.125,963811.0,1.0,1
-653766.3125,16188.654296875,22976.96875,12456.5380859375,-750000.125,-6021.91796875,-750000.125,-750000.125,963812.0,1.0,1
-643970.5,-26739.21484375,-20240.578125,5038.3515625,-750000.125,11668.1474609375,-750000.125,-750000.125,963813.0,1.0,1
-633020.75,-54869.78125,-55013.09765625,-3147.036376953125,-750000.125,24406.408203125,-750000.125,-750000.125,963814.0,1.0,1
-636774.0625,-48385.89453125,-48607.984375,-496.8345947265625,-750000.125,23578.23046875,-750000.125,-750000.125,963815.0,1.0,1
-649606.4375,-4200.69775390625,-1018.703125,9055.67578125,-750000.125,3881.872314453125,-750000.125,-750000.125,963816.0,1.0,1
-653793.3125,16265.9912109375,23065.03515625,12364.1806640625,-750000.125,-5896.21142578125,-750000.125,-750000.125,963817.0,1.0,1
-644062.75,-26486.728515625,-19892.607421875,5006.52294921875,-750000.125,11662.068359375,-750000.125,-750000.125,963818.0,1.0,1
-633047.9375,-54829.81640625,-54931.0234375,-3234.386962890625,-750000.125,24391.296875,-750000.125,-750000.125,963819.0,1.0,1
-636704.3125,-48553.265625,-48769.80859375,-665.4561767578125,-750000.125,23680.69140625,-750000.125,-750000.125,963820.0,1.0,1
-649525.0,-4634.05322265625,-1425.057861328125,8874.6259765625,-750000.125,4251.83837890625,-750000.125,-750000.125,963821.0,1.0,1
-653823.0625,16382.845703125,23161.50390625,12267.7998046875,-750000.125,-5735.54736328125,-750000.125,-750000.125,963822.0,1.0,1
-644160.5,-26169.06640625,-19521.8359375,4951.4482421875,-750000.125,11669.0419921875,-750000.125,-750000.125,963823.0,1.0,1
-633084.75,-54764.90625,-54840.1875,-3329.158447265625,-750000.125,24369.21484375,-750000.125,-750000.125,963824.0,1.0,1
-636635.8125,-48725.91015625,-48956.84765625,-920.6237182617188,-750000.125,23713.234375,-750000.125,-750000.125,963825.0,1.0,1
-649436.0625,-5185.6943359375,-1952.112060546875,8642.7939453125,-750000.125,4377.18701171875,-750000.125,-750000.125,963826.0,1.0,1
-653845.3125,16263.4873046875,23084.078125,12195.380859375,-750000.125,-5839.25927734375,-750000.125,-750000.125,963827.0,1.0,1
-644255.1875,-26057.84375,-19360.9921875,4936.87451171875,-750000.125,11472.3466796875,-750000.125,-750000.125,963828.0,1.0,1
-633119.375,-54721.90234375,-54778.94140625,-3391.832763671875,-750000.125,24270.59765625,-750000.125,-750000.125,963829.0,1.0,1
-636568.25,-48874.328125,-49124.48828125,-974.178466796875,-750000.125,23745.689453125,-750000.125,-750000.125,963830.0,1.0,1
-649350.9375,-5598.3076171875,-2379.119873046875,8549.2744140625,-750000.125,4737.4970703125,-750000.125,-750000.125,963831.0,1.0,1
-653877.875,16367.736328125,23181.80078125,12124.212890625,-750000.125,-5653.8291015625,-750000.125,-750000.125,963832.0,1.0,1
-644352.1875,-25756.005859375,-18998.447265625,4928.2021484375,-750000.125,11523.9345703125,-750000.125,-750000.125,963833.0,1.0,1
-633154.3125,-54671.56640625,-54706.61328125,-3432.9599609375,-750000.125,24273.19140625,-750000.125,-750000.125,963834.0,1.0,1
-636506.75,-49057.25390625,-49320.46875,-1165.777587890625,-750000.125,23805.861328125,-750000.125,-750000.125,963835.0,1.0,1
-649267.4375,-6163.001953125,-2896.965087890625,8354.27734375,-750000.125,4905.31396484375,-750000.125,-750000.125,963836.0,1.0,1
-653903.375,16259.6435546875,23137.54296875,12091.5791015625,-750000.125,-5738.14013671875,-750000.125,-750000.125,963837.0,1.0,1
-644452.4375,-25583.5390625,-18757.31640625,4972.90576171875,-750000.125,11329.7421875,-750000.125,-750000.125,963838.0,1.0,1
-633195.625,-54616.578125,-54618.90234375,-3427.86376953125,-750000.125,24176.54296875,-750000.125,-750000.125,963839.0,1.0,1
-636436.4375,-49214.1640625,-49484.171875,-1155.94287109375,-750000.125,23836.52734375,-750000.125,-750000.125,963840.0,1.0,1
-649178.1875,-6593.49658203125,-3324.062255859375,8320.9287109375,-750000.125,5255.52099609375,-750000.125,-750000.125,963841.0,1.0,1
-653932.9375,16359.779296875,23208.890625,12048.126953125,-750000.125,-5572.64794921875,-750000.125,-750000.125,963842.0,1.0,1
-644552.0,-25298.8671875,-18424.72265625,4941.07666015625,-750000.125,11332.3349609375,-750000.125,-750000.125,963843.0,1.0,1
-633232.0,-54556.5,-54536.3828125,-3514.946044921875,-750000.125,24152.669921875,-750000.125,-750000.125,963844.0,1.0,1
-636372.0625,-49376.4375,-49663.61328125,-1389.83154296875,-750000.125,23869.96484375,-750000.125,-750000.125,963845.0,1.0,1
-649094.25,-7150.7705078125,-3853.61962890625,8090.97412109375,-750000.125,5417.1689453125,-750000.125,-750000.125,963846.0,1.0,1
-653960.6875,16254.099609375,23155.3359375,11985.7216796875,-750000.125,-5645.24609375,-750000.125,-750000.125,963847.0,1.0,1
-644648.375,-25124.078125,-18207.375,4947.96142578125,-750000.125,11158.169921875,-750000.125,-750000.125,963848.0,1.0,1
-633273.5625,-54503.8359375,-54465.03515625,-3547.57958984375,-750000.125,24065.140625,-750000.125,-750000.125,963849.0,1.0,1
-636315.375,-49512.87109375,-49816.05078125,-1423.9849853515625,-750000.125,23890.70703125,-750000.125,-750000.125,963850.0,1.0,1
-649019.9375,-7519.03759765625,-4244.41748046875,8034.02197265625,-750000.125,5732.2392578125,-750000.125,-750000.125,963851.0,1.0,1
-653991.625,16360.13671875,23251.716796875,11950.94140625,-750000.125,-5493.25439453125,-750000.125,-750000.125,963852.0,1.0,1
-644750.0625,-24828.140625,-17834.279296875,4965.12744140625,-750000.125,11170.5087890625,-750000.125,-750000.125,963853.0,1.0,1
-633318.1875,-54454.39453125,-54376.96875,-3572.613525390625,-750000.125,24059.41796875,-750000.125,-750000.125,963854.0,1.0,1
-636258.25,-49679.52734375,-49985.20703125,-1589.74560546875,-750000.125,23942.7421875,-750000.125,-750000.125,963855.0,1.0,1
-648935.1875,-8094.103515625,-4749.83544921875,7842.33349609375,-750000.125,5912.03662109375,-750000.125,-750000.125,963856.0,1.0,1
-654021.375,16201.349609375,23209.873046875,11905.5234375,-750000.125,-5557.8955078125,-750000.125,-750000.125,963857.0,1.0,1
-644850.0625,-24673.197265625,-17600.658203125,5009.29443359375,-750000.125,11011.6318359375,-750000.125,-750000.125,963858.0,1.0,1
-633363.8125,-54402.00390625,-54292.2109375,-3563.047119140625,-750000.125,23986.462890625,-750000.125,-750000.125,963859.0,1.0,1
-636201.0625,-49825.70703125,-50131.56640625,-1601.63671875,-750000.125,23978.953125,-750000.125,-750000.125,963860.0,1.0,1
-648864.1875,-8474.798828125,-5135.17919921875,7799.14990234375,-750000.125,6270.46923828125,-750000.125,-750000.125,963861.0,1.0,1
-654058.1875,16344.3115234375,23291.501953125,11853.48828125,-750000.125,-5363.1669921875,-750000.125,-750000.125,963862.0,1.0,1
-644960.4375,-24345.25390625,-17234.626953125,5021.3642578125,-750000.125,11065.90234375,-750000.125,-750000.125,963863.0,1.0,1
-633414.75,-54345.40625,-54205.75390625,-3590.226806640625,-750000.125,23991.828125,-750000.125,-750000.125,963864.0,1.0,1
-636143.8125,-49978.859375,-50300.45703125,-1706.779296875,-750000.125,24073.3671875,-750000.125,-750000.125,963865.0,1.0,1
-648786.125,-8884.6396484375,-5567.9091796875,7686.4970703125,-750000.125,6670.47607421875,-750000.125,-750000.125,963866.0,1.0,1
-654101.5,16458.6640625,23385.826171875,11838.4677734375,-750000.125,-5153.6865234375,-750000.125,-750000.125,963867.0,1.0,1
-645071.3125,-24030.541015625,-16852.0546875,5047.7392578125,-750000.125,11123.2119140625,-750000.125,-750000.125,963868.0,1.0,1
-633469.1875,-54290.69140625,-54120.37109375,-3601.044921875,-750000.125,24000.5,-750000.125,-750000.125,963869.0,1.0,1
-636098.6875,-50140.5078125,-50471.8515625,-1847.7740478515625,-750000.125,24123.880859375,-750000.125,-750000.125,963870.0,1.0,1
-648717.75,-9415.001953125,-6065.72705078125,7538.61767578125,-750000.125,6880.8505859375,-750000.125,-750000.125,963871.0,1.0,1
-654139.1875,16314.44921875,23348.90234375,11867.525390625,-750000.125,-5150.9150390625,-750000.125,-750000.125,963872.0,1.0,1
-645182.3125,-23890.88671875,-16613.248046875,5098.5224609375,-750000.125,10972.650390625,-750000.125,-750000.125,963873.0,1.0,1
-633528.25,-54241.515625,-54031.859375,-3607.57177734375,-750000.125,23911.5390625,-750000.125,-750000.125,963874.0,1.0,1
-636050.375,-50290.4453125,-50617.49609375,-1870.3046875,-750000.125,24129.423828125,-750000.125,-750000.125,963875.0,1.0,1
-648646.875,-9881.6171875,-6484.15185546875,7467.8076171875,-750000.125,7172.7646484375,-750000.125,-750000.125,963876.0,1.0,1
-654179.4375,16292.8134765625,23395.392578125,11764.0810546875,-750000.125,-5048.72265625,-750000.125,-750000.125,963877.0,1.0,1
-645289.875,-23659.412109375,-16266.4384765625,5047.29248046875,-750000.125,10937.9609375,-750000.125,-750000.125,963878.0,1.0,1
-633582.75,-54198.06640625,-53933.33203125,-3700.8232421875,-750000.125,23878.90625,-750000.125,-750000.125,963879.0,1.0,1
-636000.3125,-50449.41015625,-50762.87109375,-2098.203125,-750000.125,24137.11328125,-750000.125,-750000.125,963880.0,1.0,1
-648576.5,-10444.61328125,-6983.93701171875,7230.78955078125,-750000.125,7288.01025390625,-750000.125,-750000.125,963881.0,1.0,1
-654218.625,16137.6923828125,23316.8046875,11715.7119140625,-750000.125,-5147.96484375,-750000.125,-750000.125,963882.0,1.0,1
-645400.0625,-23511.0859375,-16080.4716796875,5068.30322265625,-750000.125,10756.017578125,-750000.125,-750000.125,963883.0,1.0,1
-633645.0625,-54137.71484375,-53855.7265625,-3708.4228515625,-750000.125,23786.369140625,-750000.125,-750000.125,963884.0,1.0,1
-635961.875,-50584.859375,-50913.1640625,-2124.220458984375,-750000.125,24131.5703125,-750000.125,-750000.125,963885.0,1.0,1
-648514.1875,-10876.9853515625,-7419.974609375,7187.5166015625,-750000.125,7574.47021484375,-750000.125,-750000.125,963886.0,1.0,1
-654262.0625,16153.9638671875,23336.83203125,11660.369140625,-750000.125,-5014.47998046875,-750000.125,-750000.125,963887.0,1.0,1
-645516.875,-23265.216796875,-15780.6005859375,5078.85302734375,-750000.125,10746.1826171875,-750000.125,-750000.125,963888.0,1.0,1
-633714.125,-54080.5859375,-53772.12890625,-3731.758056640625,-750000.125,23779.6640625,-750000.125,-750000.125,963889.0,1.0,1
-635925.6875,-50730.23828125,-51075.16796875,-2288.2822265625,-750000.125,24171.35546875,-750000.125,-750000.125,963890.0,1.0,1
-648448.8125,-11419.685546875,-7940.85986328125,6994.12939453125,-750000.125,7775.6357421875,-750000.125,-750000.125,963891.0,1.0,1
-654311.5,16007.515625,23288.640625,11660.01171875,-750000.125,-5024.85107421875,-750000.125,-750000.125,963892.0,1.0,1
-645640.8125,-23084.2578125,-15524.8076171875,5143.40478515625,-750000.125,10607.8701171875,-750000.125,-750000.125,963893.0,1.0,1
-633787.5625,-54022.828125,-53679.68359375,-3702.968994140625,-750000.125,23708.5859375,-750000.125,-750000.125,963894.0,1.0,1
-635887.5,-50876.953125,-51223.67578125,-2287.38818359375,-750000.125,24188.5234375,-750000.125,-750000.125,963895.0,1.0,1
-648374.1875,-11869.40234375,-8371.4443359375,6970.34716796875,-750000.125,8106.888671875,-750000.125,-750000.125,963896.0,1.0,1
-654348.3125,16046.0498046875,23348.990234375,11614.6826171875,-750000.125,-4862.57763671875,-750000.125,-750000.125,963897.0,1.0,1
-645754.875,-22788.677734375,-15129.5390625,5172.37255859375,-750000.125,10635.0498046875,-750000.125,-750000.125,963898.0,1.0,1
-633853.6875,-53965.25,-53560.1484375,-3703.058349609375,-750000.125,23713.234375,-750000.125,-750000.125,963899.0,1.0,1
-635844.375,-51027.9609375,-51357.875,-2366.78173828125,-750000.125,24257.90234375,-750000.125,-750000.125,963900.0,1.0,1
-648298.0,-12307.9443359375,-8785.666015625,6871.19482421875,-750000.125,8472.5634765625,-750000.125,-750000.125,963901.0,1.0,1
-654376.5,16100.140625,23406.390625,11587.14453125,-750000.125,-4666.68701171875,-750000.125,-750000.125,963902.0,1.0,1
-645859.4375,-22487.375,-14743.658203125,5183.19091796875,-750000.125,10652.7529296875,-750000.125,-750000.125,963903.0,1.0,1
-633915.375,-53893.1875,-53441.32421875,-3730.148681640625,-750000.125,23712.162109375,-750000.125,-750000.125,963904.0,1.0,1
-635789.125,-51175.3046875,-51505.484375,-2529.85986328125,-750000.125,24294.380859375,-750000.125,-750000.125,963905.0,1.0,1
-648209.375,-12841.1669921875,-9297.87890625,6668.68798828125,-750000.125,8671.494140625,-750000.125,-750000.125,963906.0,1.0,1
-654401.5,15965.8515625,23363.20703125,11585.177734375,-750000.125,-4676.7900390625,-750000.125,-750000.125,963907.0,1.0,1
-645963.75,-22315.267578125,-14464.7978515625,5240.6796875,-750000.125,10518.0166015625,-750000.125,-750000.125,963908.0,1.0,1
-633976.0625,-53841.51171875,-53334.484375,-3709.2275390625,-750000.125,23640.099609375,-750000.125,-750000.125,963909.0,1.0,1
-635744.1875,-51316.56640625,-51633.0703125,-2537.906494140625,-750000.125,24302.875,-750000.125,-750000.125,963910.0,1.0,1
-648131.5,-13294.2822265625,-9710.134765625,6655.09814453125,-750000.125,9003.0146484375,-750000.125,-750000.125,963911.0,1.0,1
-654435.5,15973.451171875,23422.037109375,11556.6572265625,-750000.125,-4487.873046875,-750000.125,-750000.125,963912.0,1.0,1
-646077.75,-22030.23828125,-14080.34765625,5274.4755859375,-750000.125,10550.0234375,-750000.125,-750000.125,963913.0,1.0,1
-634044.75,-53764.80078125,-53219.23828125,-3705.2041015625,-750000.125,23651.1875,-750000.125,-750000.125,963914.0,1.0,1
-635699.3125,-51450.58984375,-51770.84375,-2602.7265625,-750000.125,24371.26953125,-750000.125,-750000.125,963915.0,1.0,1
-648050.0625,-13715.9248046875,-10127.21875,6549.8662109375,-750000.125,9380.580078125,-750000.125,-750000.125,963916.0,1.0,1
-654463.75,16047.7490234375,23468.259765625,11498.095703125,-750000.125,-4275.79931640625,-750000.125,-750000.125,963917.0,1.0,1
-646186.375,-21689.6875,-13697.9541015625,5274.4755859375,-750000.125,10590.7939453125,-750000.125,-750000.125,963918.0,1.0,1
-634109.75,-53673.42578125,-53099.87890625,-3731.31103515625,-750000.125,23661.826171875,-750000.125,-750000.125,963919.0,1.0,1
-635641.625,-51585.94921875,-51926.32421875,-2775.729248046875,-750000.125,24410.251953125,-750000.125,-750000.125,963920.0,1.0,1
-647960.0,-14247.62890625,-10669.8291015625,6319.82177734375,-750000.125,9576.203125,-750000.125,-750000.125,963921.0,1.0,1
-654487.4375,15935.7216796875,23391.81640625,11471.18359375,-750000.125,-4300.83349609375,-750000.125,-750000.125,963922.0,1.0,1
-646285.5,-21476.8984375,-13451.81640625,5312.38427734375,-750000.125,10439.5166015625,-750000.125,-750000.125,963923.0,1.0,1
-634162.5,-53590.1875,-52999.02734375,-3727.1982421875,-750000.125,23582.07421875,-750000.125,-750000.125,963924.0,1.0,1
-635588.125,-51697.44140625,-52060.078125,-2803.53466796875,-750000.125,24408.375,-750000.125,-750000.125,963925.0,1.0,1
-647866.25,-14622.154296875,-11096.2109375,6296.30810546875,-750000.125,9906.6513671875,-750000.125,-750000.125,963926.0,1.0,1
-654503.25,16005.1015625,23429.099609375,11425.1396484375,-750000.125,-4086.52490234375,-750000.125,-750000.125,963927.0,1.0,1
-646381.125,-21154.49609375,-13054.4921875,5322.48681640625,-750000.125,10485.9189453125,-750000.125,-750000.125,963928.0,1.0,1
-634216.0,-53520.44921875,-52870.8203125,-3750.265380859375,-750000.125,23589.228515625,-750000.125,-750000.125,963929.0,1.0,1
-635522.875,-51824.84765625,-52179.61328125,-2897.948486328125,-750000.125,24460.677734375,-750000.125,-750000.125,963930.0,1.0,1
-647772.8125,-15016.9755859375,-11478.873046875,6177.93310546875,-750000.125,10272.0576171875,-750000.125,-750000.125,963931.0,1.0,1
-654520.0,16069.6533203125,23497.40625,11373.1044921875,-750000.125,-3853.44091796875,-750000.125,-750000.125,963932.0,1.0,1
-646469.5,-20815.5546875,-12636.6044921875,5347.07373046875,-750000.125,10568.3525390625,-750000.125,-750000.125,963933.0,1.0,1
-634259.5625,-53439.625,-52746.8125,-3744.0068359375,-750000.125,23618.642578125,-750000.125,-750000.125,963934.0,1.0,1
-635456.1875,-51951.8046875,-52309.07421875,-2983.510986328125,-750000.125,24525.9453125,-750000.125,-750000.125,963935.0,1.0,1
-647676.5,-15395.1669921875,-11881.3828125,6063.76025390625,-750000.125,10630.84765625,-750000.125,-750000.125,963936.0,1.0,1
-654530.5625,16159.5078125,23553.017578125,11353.8818359375,-750000.125,-3636.181884765625,-750000.125,-750000.125,963937.0,1.0,1
-646555.5625,-20480.009765625,-12227.5673828125,5359.32275390625,-750000.125,10612.4296875,-750000.125,-750000.125,963938.0,1.0,1
-634306.25,-53339.66796875,-52611.984375,-3767.9677734375,-750000.125,23619.537109375,-750000.125,-750000.125,963939.0,1.0,1
-635383.25,-52069.015625,-52441.12890625,-3079.981201171875,-750000.125,24562.421875,-750000.125,-750000.125,963940.0,1.0,1
-647564.6875,-15821.2802734375,-12327.255859375,5933.3154296875,-750000.125,10939.5703125,-750000.125,-750000.125,963941.0,1.0,1
-654531.5,16193.482421875,23546.9375,11283.8759765625,-750000.125,-3485.888916015625,-750000.125,-750000.125,963942.0,1.0,1
-646639.0625,-20148.48828125,-11886.4794921875,5345.55419921875,-750000.125,10605.0087890625,-750000.125,-750000.125,963943.0,1.0,1
-634351.5625,-53231.0390625,-52487.890625,-3806.05517578125,-750000.125,23604.78515625,-750000.125,-750000.125,963944.0,1.0,1
-635315.8125,-52174.96484375,-52574.34375,-3241.003173828125,-750000.125,24574.224609375,-750000.125,-750000.125,963945.0,1.0,1
-647455.3125,-16326.6982421875,-12866.3798828125,5704.2548828125,-750000.125,11119.3671875,-750000.125,-750000.125,963946.0,1.0,1
-654530.25,16050.4306640625,23444.208984375,11256.517578125,-750000.125,-3491.342529296875,-750000.125,-750000.125,963947.0,1.0,1
-646721.9375,-19940.9765625,-11643.560546875,5387.12841796875,-750000.125,10452.8388671875,-750000.125,-750000.125,963948.0,1.0,1
-634398.625,-53142.79296875,-52375.234375,-3793.27001953125,-750000.125,23524.5859375,-750000.125,-750000.125,963949.0,1.0,1
-635250.375,-52284.66796875,-52698.0859375,-3273.457763671875,-750000.125,24555.984375,-750000.125,-750000.125,963950.0,1.0,1
-647350.5625,-16716.333984375,-13289.54296875,5683.8701171875,-750000.125,11410.119140625,-750000.125,-750000.125,963951.0,1.0,1
-654529.625,16088.16015625,23449.931640625,11212.8876953125,-750000.125,-3298.670654296875,-750000.125,-750000.125,963952.0,1.0,1
-646800.6875,-19619.37890625,-11267.42578125,5412.07275390625,-750000.125,10489.673828125,-750000.125,-750000.125,963953.0,1.0,1
-634442.5625,-53057.94921875,-52239.875,-3803.5517578125,-750000.125,23533.2578125,-750000.125,-750000.125,963954.0,1.0,1
-635182.4375,-52407.6015625,-52816.28125,-3419.012451171875,-750000.125,24583.880859375,-750000.125,-750000.125,963955.0,1.0,1
-647243.25,-17239.54296875,-13778.0625,5451.412109375,-750000.125,11620.046875,-750000.125,-750000.125,963956.0,1.0,1
-654528.6875,15887.083984375,23341.123046875,11143.5966796875,-750000.125,-3265.590087890625,-750000.125,-750000.125,963957.0,1.0,1
-646877.3125,-19472.3046875,-11060.5380859375,5420.8349609375,-750000.125,10395.5283203125,-750000.125,-750000.125,963958.0,1.0,1
-634483.625,-52986.6015625,-52138.484375,-3805.07177734375,-750000.125,23471.92578125,-750000.125,-750000.125,963959.0,1.0,1
-635118.9375,-52510.59765625,-52924.8203125,-3456.205810546875,-750000.125,24569.93359375,-750000.125,-750000.125,963960.0,1.0,1
-647146.0625,-17627.123046875,-14169.12890625,5430.9375,-750000.125,11925.908203125,-750000.125,-750000.125,963961.0,1.0,1
-654533.375,15921.86328125,23355.697265625,11090.8466796875,-750000.125,-3044.84423828125,-750000.125,-750000.125,963962.0,1.0,1
-646960.25,-19153.03125,-10699.7802734375,5421.5498046875,-750000.125,10454.2685546875,-750000.125,-750000.125,963963.0,1.0,1
-634540.375,-52889.7734375,-52008.578125,-3824.7412109375,-750000.125,23484.62109375,-750000.125,-750000.125,963964.0,1.0,1
-635069.125,-52609.83984375,-53035.86328125,-3556.341552734375,-750000.125,24606.6796875,-750000.125,-750000.125,963965.0,1.0,1
-647060.5625,-17982.158203125,-14565.9169921875,5303.35400390625,-750000.125,12254.12109375,-750000.125,-750000.125,963966.0,1.0,1
-654541.625,15902.4619140625,23341.123046875,11027.2783203125,-750000.125,-2796.114013671875,-750000.125,-750000.125,963967.0,1.0,1
-647043.875,-18916.640625,-10396.6015625,5394.19140625,-750000.125,10529.37109375,-750000.125,-750000.125,963968.0,1.0,1
-634601.125,-52803.13671875,-51889.30859375,-3879.458251953125,-750000.125,23489.896484375,-750000.125,-750000.125,963969.0,1.0,1
-635026.5625,-52709.88671875,-53144.046875,-3720.760986328125,-750000.125,24618.66015625,-750000.125,-750000.125,963970.0,1.0,1
-646973.0,-18491.419921875,-15057.7451171875,5048.0078125,-750000.125,12440.6240234375,-750000.125,-750000.125,963971.0,1.0,1
-654550.0625,15674.2060546875,23207.28125,10949.3154296875,-750000.125,-2763.48046875,-750000.125,-750000.125,963972.0,1.0,1
-647136.0625,-18764.111328125,-10200.7109375,5388.0224609375,-750000.125,10411.2646484375,-750000.125,-750000.125,963973.0,1.0,1
-634667.6875,-52714.4453125,-51772.72265625,-3901.363037109375,-750000.125,23413.095703125,-750000.125,-750000.125,963974.0,1.0,1
-634978.375,-52811.98828125,-53255.1796875,-3793.27001953125,-750000.125,24587.45703125,-750000.125,-750000.125,963975.0,1.0,1
-646882.9375,-18897.775390625,-15482.0703125,4999.72802734375,-750000.125,12731.375,-750000.125,-750000.125,963976.0,1.0,1
-654560.3125,15621.9033203125,23169.4609375,10866.435546875,-750000.125,-2531.111572265625,-750000.125,-750000.125,963977.0,1.0,1
-647228.3125,-18505.099609375,-9889.3955078125,5357.9814453125,-750000.125,10476.3525390625,-750000.125,-750000.125,963978.0,1.0,1
-634734.75,-52616.45703125,-51641.11328125,-3945.8876953125,-750000.125,23420.6953125,-750000.125,-750000.125,963979.0,1.0,1
-634935.5625,-52916.953125,-53369.08203125,-3952.056884765625,-750000.125,24600.8671875,-750000.125,-750000.125,963980.0,1.0,1
-646795.5625,-19424.29296875,-15995.982421875,4734.18896484375,-750000.125,12909.1162109375,-750000.125,-750000.125,963981.0,1.0,1
