FZ,C3,CZ,C4,PZ,PO7,OZ,PO8,Counter,Validation,Label
220261.15625,232205.21875,263426.59375,258591.71875,209322.484375,224160.375,225040.328125,209044.34375,113151.0,1.0,4
219935.0,231552.109375,263063.5,258059.9375,208801.421875,223930.0625,223462.203125,208553.3125,113152.0,1.0,4
219716.5,231046.15625,262747.09375,257627.65625,208322.828125,223778.34375,221866.828125,208164.84375,113153.0,1.0,4
219927.859375,231419.953125,262933.3125,257913.75,208571.015625,223922.5625,222509.125,208444.25,113154.0,1.0,4
220258.484375,232126.90625,263342.0,258496.0625,209178.28125,224147.859375,224438.703125,208972.546875,113155.0,1.0,4
220262.140625,232211.5625,263421.5,258581.796875,209326.328125,224152.609375,225043.09375,209036.75,113156.0,1.0,4
219935.8125,231561.046875,263061.34375,258050.546875,208811.609375,223930.0625,223476.15625,208544.375,113157.0,1.0,4
219721.40625,231066.359375,262748.78125,257620.046875,208335.078125,223778.875,221874.15625,208160.109375,113158.0,1.0,4
219930.453125,231433.734375,262934.59375,257906.234375,208577.375,223921.3125,222502.328125,208439.953125,113159.0,1.0,4
220261.875,232134.59375,263345.9375,258491.59375,209180.15625,224152.609375,224430.75,208970.3125,113160.0,1.0,4
220266.703125,232222.296875,263428.5625,258586.0,209329.28125,224159.75,225044.34375,209037.453125,113161.0,1.0,4
219939.125,231573.375,263070.03125,258058.40625,208814.125,223935.4375,223485.09375,208548.21875,113162.0,1.0,4
219724.09375,231069.9375,262758.90625,257627.46875,208338.390625,223786.21875,221879.78125,208163.765625,113163.0,1.0,4
219933.046875,231425.859375,262940.21875,257905.265625,208576.296875,223925.0625,222494.015625,208439.140625,113164.0,1.0,4
220265.359375,232131.015625,263354.15625,258491.859375,209187.03125,224156.359375,224430.5625,208976.75,113165.0,1.0,4
220269.921875,232227.84375,263437.21875,258589.40625,209344.578125,224165.921875,225060.0,209045.5,113166.0,1.0,4
219942.25,231579.015625,263074.3125,258060.5625,208830.21875,223941.0625,223503.0625,208551.078125,113167.0,1.0,4
219724.1875,231069.21875,262752.71875,257621.75,208344.28125,223785.59375,221883.1875,208159.65625,113168.0,1.0,4
219926.0625,231415.40625,262927.6875,257895.609375,208573.34375,223925.953125,222482.03125,208428.0625,113169.0,1.0,4
220258.921875,232119.5625,263340.03125,258480.765625,209178.71875,224151.171875,224410.71875,208959.765625,113170.0,1.0,4
220274.84375,232226.859375,263433.03125,258589.484375,209341.171875,224164.84375,225059.640625,209040.046875,113171.0,1.0,4
219952.890625,231586.078125,263077.1875,258067.078125,208833.609375,223942.5,223519.875,208556.890625,113172.0,1.0,4
219732.046875,231072.796875,262757.46875,257627.296875,208345.625,223787.90625,221895.078125,208168.875,113173.0,1.0,4
219930.453125,231412.0,262926.1875,257896.40625,208570.578125,223924.796875,222475.78125,208434.140625,113174.0,1.0,4
220258.921875,232114.65625,263333.34375,258481.03125,209176.671875,224154.296875,224404.46875,208966.640625,113175.0,1.0,4
220271.4375,232221.21875,263423.71875,258587.515625,209337.78125,224165.484375,225058.390625,209045.5,113176.0,1.0,4
219952.703125,231585.625,263073.6875,258069.765625,208833.96875,223948.390625,223525.40625,208560.734375,113177.0,1.0,4
219732.046875,231073.59375,262757.28125,257630.0625,208348.3125,223798.90625,221898.921875,208167.078125,113178.0,1.0,4
219933.9375,231423.359375,262931.0,257898.828125,208573.796875,223934.1875,222471.21875,208431.640625,113179.0,1.0,4
220267.515625,232131.453125,263342.375,258482.375,209177.5625,224160.296875,224392.84375,208961.640625,113180.0,1.0,4
220283.875,232241.609375,263441.0625,258595.296875,209347.34375,224175.765625,225064.546875,209046.3125,113181.0,1.0,4
219962.28125,231603.328125,263089.34375,258077.359375,208846.65625,223956.890625,223540.34375,208565.390625,113182.0,1.0,4
219737.78125,231087.453125,262765.59375,257634.53125,208359.390625,223802.125,221905.09375,208169.9375,113183.0,1.0,4
219928.75,231418.0,262929.5625,257895.421875,208576.75,223932.21875,222458.96875,208432.53125,113184.0,1.0,4
220258.921875,232119.921875,263339.25,258477.90625,209181.578125,224153.3125,224380.40625,208962.71875,113185.0,1.0,4
220278.15625,232237.59375,263438.375,258595.21875,209356.546875,224167.984375,225066.515625,209047.03125,113186.0,1.0,4
219959.5,231599.578125,263087.09375,258081.125,208857.578125,223947.59375,223550.796875,208566.90625,113187.0,1.0,4
219731.421875,231072.875,262759.6875,257628.546875,208361.546875,223788.265625,221903.03125,208163.765625,113188.0,1.0,4
219925.265625,231405.75,262921.71875,257883.796875,208573.4375,223919.703125,222444.921875,208415.28125,113189.0,1.0,4
220255.890625,232107.234375,263330.65625,258468.96875,209176.390625,224146.96875,224368.078125,208944.828125,113190.0,1.0,4
220281.734375,232234.28125,263434.09375,258591.8125,209352.34375,224165.296875,225066.15625,209039.6875,113191.0,1.0,4
219960.671875,231600.375,263084.5,258075.75,208851.40625,223943.390625,223556.53125,208561.1875,113192.0,1.0,4
219730.890625,231073.78125,262759.4375,257625.234375,208355.46875,223784.515625,221903.75,208162.078125,113193.0,1.0,4
219922.21875,231398.140625,262919.46875,257876.015625,208560.5625,223913.96875,222431.25,208413.390625,113194.0,1.0,4
220260.0,232112.421875,263334.84375,258467.0,209166.390625,224145.1875,224360.03125,208947.15625,113195.0,1.0,4
220286.109375,232241.15625,263441.0625,258595.84375,209349.84375,224167.265625,225073.21875,209047.65625,113196.0,1.0,4
219966.921875,231607.984375,263091.21875,258083.625,208851.140625,223946.25,223570.5625,208571.375,113197.0,1.0,4
219733.578125,231073.953125,262759.4375,257628.71875,208352.59375,223787.734375,221911.4375,208163.234375,113198.0,1.0,4
219927.765625,231401.1875,262919.75,257877.453125,208561.1875,223921.390625,222432.328125,208411.4375,113199.0,1.0,4
220267.953125,232116.703125,263336.09375,258471.03125,209170.40625,224155.640625,224360.5625,208953.140625,113200.0,1.0,4
220287.984375,232245.640625,263439.46875,258596.90625,209350.828125,224173.078125,225077.515625,209051.5,113201.0,1.0,4
219963.4375,231611.828125,263091.65625,258085.234375,208852.65625,223952.6875,223584.0625,208573.34375,113202.0,1.0,4
219728.921875,231072.171875,262757.90625,257627.65625,208347.6875,223787.28125,221910.28125,208167.4375,113203.0,1.0,4
219919.0,231390.984375,262907.65625,257869.9375,208544.5625,223911.46875,222402.375,208407.671875,113204.0,1.0,4
220259.828125,232109.640625,263321.875,258464.671875,209157.4375,224148.578125,224332.21875,208945.09375,113205.0,1.0,4
220286.640625,232244.46875,263432.84375,258598.609375,209350.296875,224175.140625,225074.296875,209053.28125,113206.0,1.0,4
219966.5625,231613.078125,263084.34375,258086.578125,208857.65625,223955.28125,223589.78125,208577.375,113207.0,1.0,4
219733.390625,231078.0625,262752.46875,257628.28125,208358.328125,223793.984375,221918.765625,208169.046875,113208.0,1.0,4
219913.8125,231381.421875,262901.15625,257865.46875,208550.09375,223913.96875,222402.375,208404.8125,113209.0,1.0,4
220252.765625,232095.875,263317.59375,258455.46875,209157.890625,224144.109375,224328.734375,208941.53125,113210.0,1.0,4
220279.046875,232239.46875,263429.90625,258591.09375,209352.625,224169.40625,225081.1875,209047.109375,113211.0,1.0,4
219957.53125,231608.078125,263081.75,258081.03125,208859.53125,223949.296875,223600.25,208574.15625,113212.0,1.0,4
219724.0,231069.390625,262753.625,257623.625,208359.390625,223785.5,221922.796875,208168.15625,113213.0,1.0,4
219906.671875,231378.390625,262905.15625,257860.46875,208550.90625,223909.59375,222399.953125,208405.796875,113214.0,1.0,4
220239.703125,232083.453125,263312.78125,258445.71875,209151.625,224138.03125,224316.9375,208937.234375,113215.0,1.0,4
220279.671875,232239.828125,263430.25,258592.703125,209357.0,224165.828125,225086.375,209051.765625,113216.0,1.0,4
219964.515625,231618.265625,263085.0625,258086.9375,208868.65625,223947.765625,223617.5,208581.578125,113217.0,1.0,4
219730.265625,231079.140625,262757.375,257625.59375,208365.5625,223792.03125,221936.828125,208167.703125,113218.0,1.0,4
219911.140625,231378.65625,262901.59375,257854.75,208549.46875,223909.140625,222388.6875,208395.34375,113219.0,1.0,4
220251.5,232090.59375,263312.15625,258440.359375,209153.6875,224137.140625,224305.484375,208928.734375,113220.0,1.0,4
220288.609375,232246.796875,263433.46875,258592.890625,209361.015625,224168.703125,225089.765625,209054.4375,113221.0,1.0,4
219966.5625,231619.78125,263086.75,258087.375,208869.46875,223949.65625,223625.90625,208580.953125,113222.0,1.0,4
219730.4375,231075.296875,262750.125,257621.125,208357.875,223788.09375,221932.265625,208164.125,113223.0,1.0,4
219911.3125,231374.1875,262889.96875,257849.203125,208536.515625,223911.65625,222376.0,208392.65625,113224.0,1.0,4
220247.65625,232086.578125,263303.90625,258437.40625,209140.1875,224146.515625,224296.015625,208932.140625,113225.0,1.0,4
220289.421875,232250.8125,263430.15625,258591.90625,209350.375,224177.1875,225088.96875,209057.484375,113226.0,1.0,4
219973.453125,231631.3125,263086.40625,258089.890625,208864.015625,223958.5,223634.84375,208586.484375,113227.0,1.0,4
219729.546875,231074.671875,262744.21875,257619.15625,208349.46875,223788.359375,221932.265625,208165.109375,113228.0,1.0,4
219913.109375,231370.078125,262889.53125,257848.65625,208534.8125,223910.578125,222370.625,208396.40625,113229.0,1.0,4
220253.921875,232086.9375,263301.875,258436.78125,209137.59375,224144.109375,224286.71875,208933.65625,113230.0,1.0,4
220296.296875,232251.890625,263431.25,258594.765625,209351.09375,224178.078125,225093.875,209061.953125,113231.0,1.0,4
219982.03125,231636.5,263095.5,258096.671875,208872.40625,223963.859375,223653.359375,208595.078125,113232.0,1.0,4
219739.109375,231084.234375,262754.25,257623.359375,208357.515625,223794.890625,221946.03125,208169.3125,113233.0,1.0,4
219906.125,231366.40625,262883.09375,257838.203125,208524.4375,223903.515625,222355.875,208385.234375,113234.0,1.0,4
220243.90625,232078.625,263294.96875,258426.859375,209131.78125,224135.890625,224272.234375,208924.171875,113235.0,1.0,4
220290.40625,232251.53125,263426.3125,258586.8125,209353.328125,224174.234375,225090.921875,209052.203125,113236.0,1.0,4
219975.15625,231637.484375,263091.5,258090.859375,208877.328125,223960.46875,223658.546875,208589.4375,113237.0,1.0,4
219729.546875,231079.140625,262749.34375,257616.5625,208361.546875,223789.703125,221946.390625,208165.734375,113238.0,1.0,4
219907.921875,231365.328125,262886.3125,257837.046875,208534.546875,223907.265625,222349.625,208384.078125,113239.0,1.0,4
220250.34375,232078.890625,263298.90625,258429.453125,209143.765625,224143.484375,224267.484375,208924.265625,113240.0,1.0,4
220293.265625,232248.3125,263426.3125,258589.9375,209359.234375,224174.5,225094.5,209057.390625,113241.0,1.0,4
219983.203125,231640.34375,263095.0625,258097.65625,208883.234375,223959.9375,223669.265625,208600.4375,113242.0,1.0,4
219737.59375,231083.15625,262754.875,257621.65625,208368.15625,223791.125,221953.1875,208173.078125,113243.0,1.0,4
219902.46875,231355.40625,262883.09375,257828.09375,208530.703125,223900.921875,222334.6875,208380.046875,113244.0,1.0,4
220242.484375,232068.078125,263297.5625,258420.875,209137.859375,224136.0625,224249.875,208919.171875,113245.0,1.0,4
220295.3125,232251.0,263432.84375,258593.25,209362.984375,224174.6875,225099.421875,209058.109375,113246.0,1.0,4
219985.515625,231647.859375,263098.1875,258098.5625,208887.703125,223962.078125,223684.921875,208598.46875,113247.0,1.0,4
219737.859375,231085.578125,262752.90625,257619.15625,208365.75,223790.859375,221960.4375,208171.8125,113248.0,1.0,4
219907.109375,231357.203125,262879.40625,257826.484375,208524.265625,223903.96875,222333.34375,208380.140625,113249.0,1.0,4
220249.546875,232071.375,263290.78125,258416.84375,209128.828125,224137.046875,224243.078125,208918.71875,113250.0,1.0,4
220299.078125,232253.671875,263425.96875,258588.78125,209356.109375,224171.828125,225099.78125,209060.875,113251.0,1.0,4
219991.78125,231653.484375,263098.0,258101.6875,208889.484375,223960.828125,223696.453125,208606.96875,113252.0,1.0,4
219740.28125,231086.03125,262748.625,257616.203125,208362.609375,223788.0,221958.90625,208170.125,113253.0,1.0,4
219905.5,231352.546875,262873.5,257820.671875,208515.5,223901.28125,222315.46875,208377.09375,113254.0,1.0,4
220250.53125,232071.296875,263290.6875,258417.46875,209124.359375,224141.15625,224230.828125,208923.828125,113255.0,1.0,4
220301.9375,232258.421875,263429.4375,258595.390625,209359.0625,224179.0625,225104.96875,209065.890625,113256.0,1.0,4
219987.21875,231652.234375,263097.375,258105.34375,208888.59375,223961.625,223706.1875,208606.0625,113257.0,1.0,4
219733.84375,231082.265625,262748.875,257621.75,208362.34375,223789.78125,221969.015625,208172.796875,113258.0,1.0,4
219899.6875,231347.1875,262875.03125,257826.40625,208517.015625,223904.046875,222313.40625,208376.921875,113259.0,1.0,4
220241.84375,232064.671875,263289.78125,258417.65625,209123.203125,224140.4375,224221.265625,208917.734375,113260.0,1.0,4
220299.421875,232263.0625,263433.46875,258600.3125,209364.15625,224185.140625,225110.6875,209069.28125,113261.0,1.0,4
219988.828125,231659.84375,263101.15625,258112.953125,208897.171875,223971.546875,223723.890625,208611.4375,113262.0,1.0,4
219732.234375,231085.484375,262751.84375,257625.953125,208369.59375,223794.703125,221978.84375,208174.6875,113263.0,1.0,4
219892.09375,231340.921875,262872.34375,257819.875,208517.828125,223904.671875,222305.1875,208372.625,113264.0,1.0,4
220236.75,232057.875,263284.4375,258409.25,209120.875,224141.609375,224206.421875,208912.203125,113265.0,1.0,4
220290.9375,232254.9375,263428.65625,258591.546875,209359.5,224182.015625,225103.171875,209064.734375,113266.0,1.0,4
219984.359375,231657.15625,263104.375,258108.75,208896.546875,223969.3125,223728.8125,208614.46875,113267.0,1.0,4
219732.328125,231086.46875,262751.90625,257619.953125,208367.53125,223789.96875,221981.53125,208175.75,113268.0,1.0,4
219886.015625,231333.59375,262863.3125,257804.40625,208506.734375,223893.5,222290.4375,208364.40625,113269.0,1.0,4
220225.125,232048.765625,263275.5,258393.421875,209110.328125,224130.421875,224191.671875,208901.296875,113270.0,1.0,4
220283.96875,232255.015625,263424.34375,258585.375,209357.171875,224174.78125,225102.109375,209058.203125,113271.0,1.0,4
219974.796875,231659.390625,263101.40625,258103.734375,208899.5,223962.171875,223738.46875,208608.03125,113272.0,1.0,4
219719.09375,231085.578125,262749.15625,257610.390625,208368.25,223782.8125,221985.109375,208165.921875,113273.0,1.0,4
219879.390625,231336.359375,262862.6875,257793.953125,208502.171875,223886.703125,222279.703125,208356.359375,113274.0,1.0,4
220226.65625,232054.75,263281.375,258391.0,209110.765625,224127.65625,224183.71875,208904.421875,113275.0,1.0,4
220294.78125,232269.0625,263437.03125,258591.453125,209367.8125,224182.828125,225114.796875,209069.5625,113276.0,1.0,4
219991.953125,231680.21875,263116.15625,258114.375,208912.28125,223976.03125,223759.125,208621.71875,113277.0,1.0,4
219736.875,231108.203125,262767.3125,257626.046875,208383.625,223803.46875,222006.390625,208183.796875,113278.0,1.0,4
219887.4375,231346.640625,262871.71875,257805.921875,208514.703125,223902.4375,222288.734375,208369.3125,113279.0,1.0,4
220225.765625,232052.609375,263277.90625,258392.96875,209111.84375,224131.859375,224179.609375,208910.234375,113280.0,1.0,4
220301.125,232276.296875,263440.625,258599.5,209373.8125,224191.40625,225127.3125,209082.34375,113281.0,1.0,4
220000.71875,231691.84375,263122.15625,258125.375,208921.234375,223987.46875,223783.53125,208637.265625,113282.0,1.0,4
219736.609375,231102.390625,262759.875,257623.890625,208381.203125,223803.203125,222009.96875,208186.21875,113283.0,1.0,4
219880.828125,231325.28125,262855.0,257790.734375,208499.765625,223893.953125,222266.734375,208358.859375,113284.0,1.0,4
220224.6875,232039.375,263262.96875,258376.875,209096.46875,224123.90625,224155.015625,208895.921875,113285.0,1.0,4
220293.96875,232262.53125,263420.5,258578.671875,209351.90625,224170.578125,225105.859375,209059.359375,113286.0,1.0,4
219989.984375,231671.1875,263097.84375,258103.734375,208895.484375,223958.765625,223765.65625,208616.078125,113287.0,1.0,4
219733.390625,231087.09375,262741.375,257608.6875,208359.21875,223776.28125,221993.78125,208169.765625,113288.0,1.0,4
219887.53125,231322.140625,262849.375,257789.296875,208489.390625,223882.953125,222254.484375,208349.203125,113289.0,1.0,4
220234.78125,232039.8125,263264.59375,258382.515625,209095.484375,224123.90625,224148.84375,208893.421875,113290.0,1.0,4
220306.3125,232260.65625,263422.5625,258586.625,209351.015625,224171.734375,225107.5625,209064.453125,113291.0,1.0,4
220009.484375,231681.46875,263107.65625,258120.90625,208905.5,223967.078125,223783.078125,208623.859375,113292.0,1.0,4
219747.078125,231096.03125,262753.53125,257624.609375,208373.796875,223793.640625,222013.71875,208179.515625,113293.0,1.0,4
219886.734375,231314.28125,262850.625,257788.3125,208488.671875,223884.5625,222247.25,208349.375,113294.0,1.0,4
220224.859375,232024.53125,263256.1875,258374.203125,209084.84375,224117.640625,224128.90625,208886.71875,113295.0,1.0,4
220301.390625,232261.1875,263420.59375,258590.390625,209356.109375,224176.65625,225110.234375,209065.4375,113296.0,1.0,4
220003.3125,231686.296875,263109.625,258129.671875,208916.671875,223979.15625,223801.859375,208634.59375,113297.0,1.0,4
219735.359375,231093.71875,262748.25,257624.703125,208371.828125,223793.1875,222015.234375,208181.125,113298.0,1.0,4
219883.328125,231317.40625,262849.1875,257790.015625,208487.78125,223891.984375,222242.875,208350.28125,113299.0,1.0,4
220231.21875,232037.84375,263267.875,258383.40625,209092.53125,224130.875,224131.5,208890.5625,113300.0,1.0,4
220302.46875,232269.59375,263431.59375,258594.5,209360.84375,224183.625,225116.859375,209066.96875,113301.0,1.0,4
219998.671875,231686.390625,263112.21875,258125.28125,208918.015625,223981.203125,223811.609375,208632.4375,113302.0,1.0,4
219735.09375,231094.15625,262747.625,257622.015625,208376.203125,223797.203125,222025.796875,208183.796875,113303.0,1.0,4
219871.4375,231307.3125,262831.75,257776.421875,208478.21875,223886.53125,222226.15625,208344.015625,113304.0,1.0,4
220215.65625,232023.375,263242.84375,258366.0625,209077.875,224124.171875,224108.34375,208884.75,113305.0,1.0,4
220291.734375,232260.109375,263410.5,258583.59375,209351.28125,224182.90625,225111.21875,209067.3125,113306.0,1.0,4
219999.921875,231687.28125,263104.53125,258123.765625,208917.203125,223985.328125,223820.359375,208638.703125,113307.0,1.0,4
219733.578125,231091.65625,262745.03125,257618.4375,208372.265625,223800.078125,222028.828125,208184.6875,113308.0,1.0,4
219872.15625,231305.34375,262837.65625,257775.34375,208478.3125,223894.75,222224.359375,208343.578125,113309.0,1.0,4
220215.75,232020.78125,263246.15625,258361.859375,209077.875,224133.203125,224100.828125,208881.0,113310.0,1.0,4
220302.640625,232272.640625,263423.09375,258587.875,209365.5,224197.75,225119.984375,209072.59375,113311.0,1.0,4
220002.59375,231698.109375,263115.1875,258124.3125,208930.4375,223992.921875,223834.046875,208642.640625,113312.0,1.0,4
219733.484375,231099.53125,262751.375,257613.515625,208384.78125,223804.0,222038.3125,208182.015625,113313.0,1.0,4
219867.328125,231300.15625,262836.6875,257758.984375,208481.53125,223898.234375,222215.78125,208337.40625,113314.0,1.0,4
220208.140625,232011.921875,263243.5625,258344.0625,209074.734375,224135.53125,224087.96875,208875.0,113315.0,1.0,4
220297.90625,232274.78125,263421.5,258576.609375,209358.34375,224200.96875,225119.8125,209072.6875,113316.0,1.0,4
219998.390625,231705.890625,263110.625,258120.109375,208918.09375,223999.0,223843.25,208643.078125,113317.0,1.0,4
219728.828125,231105.96875,262742.625,257607.984375,208365.125,223814.640625,222038.3125,208178.796875,113318.0,1.0,4
219863.75,231314.109375,262829.09375,257757.296875,208462.03125,223906.46875,222208.71875,208334.453125,113319.0,1.0,4
220209.046875,232032.578125,263238.21875,258347.546875,209060.875,224141.34375,224085.90625,208875.359375,113320.0,1.0,4
220299.34375,232291.953125,263416.75,258582.6875,209352.96875,224200.53125,225132.859375,209073.84375,113321.0,1.0,4
220003.5,231714.640625,263107.59375,258128.0625,208923.90625,223993.015625,223869.546875,208647.734375,113322.0,1.0,4
219732.046875,231103.640625,262736.53125,257613.609375,208373.078125,223801.046875,222060.75,208185.765625,113323.0,1.0,4
219868.046875,231297.921875,262818.0,257755.6875,208468.921875,223886.53125,222214.4375,208331.328125,113324.0,1.0,4
220216.28125,232009.0625,263227.9375,258345.671875,209067.671875,224123.09375,224085.71875,208870.71875,113325.0,1.0,4
220309.890625,232269.859375,263411.84375,258585.46875,209361.734375,224190.6875,225145.015625,209077.515625,113326.0,1.0,4
220020.125,231708.5625,263109.46875,258137.265625,208934.46875,223992.46875,223892.96875,208656.765625,113327.0,1.0,4
219743.859375,231101.3125,262736.46875,257619.78125,208376.65625,223803.46875,222079.171875,208191.84375,113328.0,1.0,4
219867.6875,231287.28125,262808.25,257754.15625,208456.21875,223884.828125,222210.59375,208332.390625,113329.0,1.0,4
220215.296875,232008.34375,263217.8125,258345.140625,209050.875,224119.515625,224075.265625,208870.453125,113330.0,1.0,4
220315.34375,232291.40625,263409.15625,258595.125,209356.546875,224194.171875,225146.625,209082.78125,113331.0,1.0,4
220022.625,231735.828125,263107.3125,258148.71875,208934.1875,223995.875,223902.796875,208662.390625,113332.0,1.0,4
219746.984375,231122.5,262738.0625,257633.546875,208377.984375,223808.921875,222081.671875,208199.71875,113333.0,1.0,4
219871.265625,231307.390625,262812.90625,257766.234375,208456.046875,223893.953125,222199.234375,208338.46875,113334.0,1.0,4
220216.109375,232021.3125,263221.5,258353.546875,209047.375,224129.53125,224057.46875,208876.4375,113335.0,1.0,4
220316.15625,232299.28125,263414.78125,258605.84375,209353.328125,224202.578125,225140.640625,209093.78125,113336.0,1.0,4
220027.09375,231744.59375,263118.125,258164.09375,208938.484375,224006.6875,223910.40625,208678.671875,113337.0,1.0,4
219748.421875,231127.78125,262745.65625,257645.359375,208382.734375,223813.65625,222084.890625,208209.546875,113338.0,1.0,4
219872.953125,231308.640625,262815.9375,257774.09375,208456.9375,223896.1875,222185.109375,208341.609375,113339.0,1.0,4
220216.8125,232022.5625,263222.03125,258361.6875,209048.1875,224129.359375,224038.703125,208876.796875,113340.0,1.0,4
220316.15625,232307.59375,263415.15625,258618.375,209362.625,224204.1875,225136.703125,209092.984375,113341.0,1.0,4
220027.28125,231755.5,263117.25,258176.703125,208945.8125,224008.75,223915.3125,208676.796875,113342.0,1.0,4
219750.734375,231139.125,262745.9375,257655.640625,208385.6875,223818.578125,222087.21875,208210.890625,113343.0,1.0,4
219870.640625,231308.734375,262814.78125,257779.28125,208457.828125,223898.953125,222178.046875,208344.109375,113344.0,1.0,4
220216.1875,232016.390625,263222.1875,258365.078125,209051.234375,224137.140625,224032.890625,208880.453125,113345.0,1.0,4
220319.546875,232299.28125,263418.09375,258620.421875,209361.203125,224211.4375,225135.09375,209095.9375,113346.0,1.0,4
220029.15625,231745.21875,263124.21875,258178.3125,208948.671875,224016.609375,223923.1875,208682.953125,113347.0,1.0,4
219754.578125,231133.5,262759.34375,257660.90625,208396.40625,223831.90625,222098.65625,208217.0625,113348.0,1.0,4
219867.328125,231294.4375,262822.1875,257776.25,208460.515625,223907.265625,222171.34375,208342.9375,113349.0,1.0,4
220204.296875,231999.578125,263222.8125,258356.9375,209048.28125,224138.296875,224018.40625,208876.34375,113350.0,1.0,4
220305.515625,232290.15625,263420.78125,258615.953125,209363.609375,224214.921875,225133.125,209092.796875,113351.0,1.0,4
220019.765625,231748.984375,263129.21875,258176.78125,208955.46875,224022.15625,223931.3125,208676.875,113352.0,1.0,4
219742.328125,231134.03125,262757.28125,257653.578125,208397.296875,223829.390625,222099.109375,208204.8125,113353.0,1.0,4
219854.265625,231294.34375,262817.71875,257764.625,208456.9375,223899.046875,222158.375,208325.953125,113354.0,1.0,4
220197.234375,232002.625,263220.9375,258343.359375,209041.84375,224131.765625,223998.375,208860.796875,113355.0,1.0,4
220312.125,232304.1875,263430.78125,258612.375,209368.703125,224212.59375,225131.515625,209093.6875,113356.0,1.0,4
220030.40625,231762.65625,263146.03125,258180.625,208967.71875,224021.703125,223946.609375,208690.296875,113357.0,1.0,4
219748.765625,231137.25,262772.40625,257655.09375,208404.8125,223825.8125,222109.109375,208217.0625,113358.0,1.0,4
219865.8125,231297.296875,262832.21875,257764.703125,208461.671875,223896.546875,222157.03125,208337.21875,113359.0,1.0,4
220209.3125,232003.96875,263235.25,258346.21875,209052.84375,224130.515625,223999.453125,208868.5625,113360.0,1.0,4
220316.328125,232299.09375,263432.125,258607.8125,209369.875,224201.234375,225131.78125,209091.375,113361.0,1.0,4
220030.046875,231757.5625,263140.21875,258174.8125,208964.953125,224004.8125,223952.234375,208684.75,113362.0,1.0,4
219750.203125,231136.453125,262761.75,257645.265625,208401.328125,223806.421875,222109.828125,208207.765625,113363.0,1.0,4
219865.53125,231292.015625,262821.3125,257753.53125,208456.765625,223879.375,222147.921875,208325.953125,113364.0,1.0,4
220208.0625,231998.875,263225.15625,258335.484375,209041.921875,224115.5,223982.453125,208859.265625,113365.0,1.0,4
220317.578125,232302.234375,263428.90625,258604.234375,209364.6875,224196.59375,225129.375,209089.5,113366.0,1.0,4
220040.0625,231775.171875,263147.46875,258182.6875,208968.53125,224007.140625,223967.265625,208691.28125,113367.0,1.0,4
219756.640625,231149.953125,262768.71875,257655.8125,208404.640625,223811.6875,222125.296875,208217.0625,113368.0,1.0,4
219862.671875,231292.640625,262819.25,257756.578125,208455.15625,223882.0625,222144.609375,208331.046875,113369.0,1.0,4
220205.640625,232002.09375,263221.84375,258336.921875,209040.859375,224114.609375,223973.078125,208864.359375,113370.0,1.0,4
220319.71875,232310.625,263429.53125,258610.40625,209369.0625,224202.140625,225134.65625,209099.0625,113371.0,1.0,4
220038.71875,231773.65625,263144.34375,258183.9375,208971.03125,224014.109375,223977.71875,208695.921875,113372.0,1.0,4
219754.046875,231142.078125,262761.5625,257649.546875,208405.171875,223812.859375,222125.125,208213.9375,113373.0,1.0,4
219857.671875,231279.765625,262808.78125,257745.21875,208450.046875,223879.46875,222128.78125,208322.109375,113374.0,1.0,4
220202.6875,231987.875,263214.875,258327.703125,209037.8125,224117.015625,223960.203125,208853.28125,113375.0,1.0,4
220318.921875,232303.65625,263424.8125,258605.3125,209370.40625,224200.796875,225129.28125,209091.734375,113376.0,1.0,4
220041.046875,231775.625,263140.75,258181.34375,208976.484375,224013.484375,223981.296875,208694.5,113377.0,1.0,4
219754.859375,231141.015625,262758.96875,257647.765625,208412.140625,223820.546875,222129.40625,208213.390625,113378.0,1.0,4
219858.828125,231276.640625,262807.25,257743.15625,208453.8125,223887.421875,222118.59375,208318.171875,113379.0,1.0,4
220199.46875,231979.46875,263208.0,258321.53125,209031.5625,224116.21875,223939.71875,208850.6875,113380.0,1.0,4
220318.5625,232292.578125,263422.65625,258604.421875,209369.609375,224205.4375,225126.25,209097.359375,113381.0,1.0,4
220037.828125,231760.15625,263138.25,258179.296875,208974.34375,224012.859375,223987.109375,208696.546875,113382.0,1.0,4
219752.171875,231129.296875,262757.46875,257645.359375,208405.265625,223816.078125,222133.796875,208217.6875,113383.0,1.0,4
219847.65625,231255.0,262798.21875,257728.234375,208434.59375,223881.515625,222105.625,208313.890625,113384.0,1.0,4
220191.609375,231966.328125,263203.15625,258311.078125,209018.140625,224116.65625,223928.375,208847.46875,113385.0,1.0,4
220315.4375,232293.734375,263418.53125,258600.125,209359.40625,224206.875,225124.90625,209093.78125,113386.0,1.0,4
220036.21875,231769.359375,263136.28125,258181.703125,208969.953125,224017.6875,223997.84375,208695.296875,113387.0,1.0,4
219750.03125,231140.390625,262753.875,257648.84375,208402.484375,223818.125,222139.0625,208213.484375,113388.0,1.0,4
219847.390625,231267.875,262792.5,257731.359375,208431.71875,223881.15625,222099.1875,208308.25,113389.0,1.0,4
220184.984375,231968.5625,263190.5625,258308.75,209012.15625,224113.4375,223915.859375,208839.59375,113390.0,1.0,4
220308.734375,232293.375,263407.8125,258598.34375,209355.921875,224199.984375,225123.921875,209090.390625,113391.0,1.0,4
220038.1875,231776.0625,263136.375,258185.546875,208973.4375,224014.46875,224014.828125,208705.21875,113392.0,1.0,4
219746.0,231136.625,262752.90625,257645.890625,208398.109375,223811.421875,222150.6875,208218.84375,113393.0,1.0,4
219840.5,231256.171875,262790.0,257722.234375,208427.796875,223874.1875,222098.921875,208307.71875,113394.0,1.0,4
220182.75,231959.984375,263188.84375,258297.75,209008.765625,224105.65625,223909.859375,208838.703125,113395.0,1.0,4
220308.015625,232293.734375,263407.1875,258589.765625,209356.640625,224191.3125,225124.8125,209093.515625,113396.0,1.0,4
220035.859375,231781.515625,263136.625,258178.578125,208978.53125,224007.140625,224026.0,208707.09375,113397.0,1.0,4
219741.265625,231142.890625,262757.375,257638.640625,208410.171875,223806.421875,222162.046875,208217.78125,113398.0,1.0,4
219829.953125,231253.03125,262786.96875,257708.734375,208429.578125,223861.140625,222087.484375,208299.765625,113399.0,1.0,4
220177.921875,231962.03125,263188.40625,258289.265625,209012.515625,224097.265625,223897.53125,208832.53125,113400.0,1.0,4
220309.4375,232302.3125,263413.0,258588.5,209366.46875,224192.125,225125.703125,209088.421875,113401.0,1.0,4
220038.265625,231788.859375,263141.90625,258179.375,208990.078125,224006.515625,224037.171875,208698.78125,113402.0,1.0,4
219742.515625,231140.390625,262755.6875,257638.203125,208414.015625,223796.40625,222164.546875,208211.96875,113403.0,1.0,4
219841.9375,231256.4375,262796.90625,257720.90625,208443.34375,223862.65625,222090.4375,208302.53125,113404.0,1.0,4
220187.765625,231959.4375,263194.75,258297.3125,209021.640625,224096.640625,223890.640625,208829.5,113405.0,1.0,4
220318.203125,232298.46875,263417.5625,258597.984375,209378.8125,224190.15625,225128.03125,209088.859375,113406.0,1.0,4
220047.484375,231790.375,263143.625,258192.4375,209003.125,224005.4375,224045.3125,208705.046875,113407.0,1.0,4
219748.421875,231140.921875,262751.84375,257643.75,208421.890625,223802.125,222165.53125,208214.828125,113408.0,1.0,4
219835.859375,231245.078125,262776.6875,257707.765625,208430.5625,223858.359375,222066.5625,208293.5,113409.0,1.0,4
220183.203125,231954.171875,263179.375,258288.8125,209009.65625,224101.734375,223871.5,208831.46875,113410.0,1.0,4
220315.4375,232298.390625,263405.84375,258593.953125,209367.546875,224197.3125,225122.75,209098.4375,113411.0,1.0,4
220048.28125,231795.203125,263136.8125,258190.46875,208994.8125,224014.015625,224056.046875,208715.328125,113412.0,1.0,4
219753.421875,231147.265625,262749.15625,257647.140625,208415.90625,223812.234375,222182.515625,208223.3125,113413.0,1.0,4
219835.3125,231236.765625,262769.71875,257706.5,208420.375,223869.09375,222064.765625,208298.0625,113414.0,1.0,4
220181.5,231937.890625,263169.625,258283.265625,208999.8125,224104.140625,223858.28125,208828.0625,113415.0,1.0,4
220321.0625,232289.890625,263404.875,258596.28125,209365.046875,224201.234375,225121.78125,209095.21875,113416.0,1.0,4
220054.8125,231793.234375,263141.125,258196.8125,208998.46875,224021.53125,224064.890625,208717.015625,113417.0,1.0,4
219754.859375,231144.9375,262751.90625,257649.90625,208418.578125,223816.875,222182.703125,208221.0,113418.0,1.0,4
219835.046875,231233.359375,262770.0625,257701.671875,208417.59375,223869.1875,222047.34375,208287.953125,113419.0,1.0,4
220180.421875,231938.15625,263170.25,258278.078125,208997.140625,224104.765625,223839.5,208819.578125,113420.0,1.0,4
220319.28125,232293.90625,263406.28125,258591.640625,209364.421875,224202.046875,225112.390625,209093.421875,113421.0,1.0,4
220057.9375,231804.671875,263146.75,258196.28125,209003.296875,224021.796875,224069.359375,208721.40625,113422.0,1.0,4
219762.8125,231159.421875,262759.625,257649.828125,208425.015625,223816.4375,222189.21875,208223.140625,113423.0,1.0,4
219841.484375,231243.921875,262777.21875,257701.234375,208422.96875,223869.09375,222047.875,208289.84375,113424.0,1.0,4
220183.296875,231942.359375,263171.59375,258272.453125,208995.4375,224099.40625,223828.953125,208818.59375,113425.0,1.0,4
220326.15625,232302.234375,263410.03125,258593.6875,209371.21875,224200.25,225117.65625,209096.5625,113426.0,1.0,4
220059.46875,231805.21875,263146.84375,258196.640625,209008.125,224013.390625,224080.625,208716.578125,113427.0,1.0,4
219761.28125,231152.0,262761.5,257650.71875,208428.859375,223809.453125,222199.859375,208220.28125,113428.0,1.0,4
219835.671875,231227.015625,262775.53125,257696.9375,208423.59375,223858.90625,222041.609375,208282.78125,113429.0,1.0,4
220174.4375,231921.359375,263169.09375,258266.8125,208992.21875,224086.171875,223812.40625,208811.171875,113430.0,1.0,4
220325.171875,232295.078125,263415.15625,258592.0,209369.875,224191.3125,225109.34375,209092.171875,113431.0,1.0,4
220064.203125,231810.21875,263158.8125,258201.640625,209012.0625,224010.890625,224088.5,208719.609375,113432.0,1.0,4
219763.875,231155.140625,262766.6875,257650.0,208429.671875,223800.78125,222202.546875,208223.3125,113433.0,1.0,4
219846.140625,231235.609375,262782.9375,257698.546875,208424.84375,223854.34375,222034.546875,208284.296875,113434.0,1.0,4
220189.453125,231934.234375,263178.5625,258272.28125,208997.765625,224088.59375,223806.59375,208809.921875,113435.0,1.0,4
220331.796875,232302.9375,263420.6875,258595.484375,209375.421875,224190.15625,225109.703125,209089.5,113436.0,1.0,4
220072.25,231817.375,263168.65625,258208.96875,209024.140625,224014.203125,224102.53125,208724.53125,113437.0,1.0,4
219772.46875,231162.5625,262773.8125,257653.75,208438.609375,223801.859375,222212.109375,208222.953125,113438.0,1.0,4
219840.328125,231230.859375,262777.75,257689.78125,208420.90625,223847.8125,222026.0625,208279.203125,113439.0,1.0,4
220188.296875,231933.15625,263174.71875,258264.140625,208992.578125,224086.890625,223796.5,208809.65625,113440.0,1.0,4
220333.671875,232305.171875,263416.65625,258591.453125,209368.171875,224188.8125,225106.9375,209088.421875,113441.0,1.0,4
220069.828125,231820.0625,263161.6875,258207.453125,209017.078125,224014.203125,224110.40625,208722.203125,113442.0,1.0,4
219768.53125,231165.15625,262769.90625,257655.546875,208438.515625,223807.765625,222222.9375,208223.3125,113443.0,1.0,4
219835.3125,231228.453125,262769.0,257685.046875,208415.984375,223848.703125,222018.71875,208271.15625,113444.0,1.0,4
220174.265625,231922.875,263158.625,258250.546875,208979.609375,224085.8125,223780.9375,208796.953125,113445.0,1.0,4
220320.53125,232297.40625,263399.125,258575.546875,209359.234375,224188.984375,225103.71875,209085.015625,113446.0,1.0,4
220056.15625,231809.859375,263141.46875,258190.46875,209007.0625,224005.53125,224115.40625,208720.6875,113447.0,1.0,4
219758.421875,231153.96875,262752.90625,257641.859375,208430.109375,223802.578125,222231.421875,208225.734375,113448.0,1.0,4
219828.25,231215.3125,262756.46875,257674.859375,208409.109375,223851.65625,222018.015625,208273.921875,113449.0,1.0,4
220171.578125,231910.984375,263149.59375,258246.078125,208979.515625,224090.203125,223774.40625,208801.515625,113450.0,1.0,4
220325.625,232299.8125,263401.28125,258582.96875,209369.15625,224199.453125,225112.5625,209096.203125,113451.0,1.0,4
220064.828125,231821.390625,263150.21875,258201.90625,209024.859375,224021.078125,224139.375,208735.625,113452.0,1.0,4
219758.15625,231156.828125,262756.5625,257642.84375,208440.84375,223809.546875,222241.625,208229.484375,113453.0,1.0,4
219821.28125,231205.296875,262753.53125,257663.859375,208407.859375,223848.96875,222004.0625,208272.3125,113454.0,1.0,4
220157.984375,231894.984375,263142.375,258230.515625,208972.1875,224080.09375,223751.34375,208795.515625,113455.0,1.0,4
220312.84375,232285.6875,263393.9375,258569.734375,209363.34375,224187.828125,225097.546875,209092.359375,113456.0,1.0,4
220061.703125,231819.703125,263149.25,258198.609375,209024.140625,224019.921875,224141.15625,208738.390625,113457.0,1.0,4
219759.234375,231157.375,262753.71875,257642.671875,208438.875,223811.515625,222245.015625,208233.15625,113458.0,1.0,4
219819.671875,231206.015625,262749.34375,257663.6875,208406.953125,223852.546875,221998.515625,208268.921875,113459.0,1.0,4
220156.640625,231895.6875,263141.8125,258231.234375,208968.703125,224086.359375,223743.921875,208789.890625,113460.0,1.0,4
220315.4375,232290.0625,263396.625,258573.84375,209362.0,224194.09375,225102.546875,209085.921875,113461.0,1.0,4
220063.3125,231823.90625,263151.3125,258201.828125,209024.859375,224017.78125,224154.484375,208734.375,113462.0,1.0,4
219760.21875,231161.03125,262757.375,257645.53125,208441.375,223810.078125,222257.4375,208234.140625,113463.0,1.0,4
219818.515625,231201.53125,262748.25,257661.0,208404.640625,223851.484375,221996.90625,208269.359375,113464.0,1.0,4
220164.25,231899.265625,263139.59375,258230.515625,208970.9375,224088.765625,223739.359375,208795.515625,113465.0,1.0,4
220327.328125,232304.375,263395.375,258576.078125,209369.34375,224199.71875,225107.828125,209099.0625,113466.0,1.0,4
220076.53125,231839.71875,263150.6875,258207.1875,209034.953125,224026.625,224169.953125,208744.03125,113467.0,1.0,4
219768.359375,231170.15625,262754.96875,257646.25,208445.3125,223814.015625,222264.140625,208238.875,113468.0,1.0,4
219820.65625,231198.5,262740.125,257650.625,208393.28125,223846.390625,221977.515625,208265.609375,113469.0,1.0,4
220159.859375,231882.546875,263128.15625,258213.4375,208951.8125,224077.234375,223709.40625,208781.75,113470.0,1.0,4
220323.75,232292.65625,263389.46875,258567.9375,209357.171875,224193.734375,225092.453125,209087.25,113471.0,1.0,4
220075.546875,231837.9375,263154.53125,258209.875,209035.140625,224027.96875,224172.71875,208744.828125,113472.0,1.0,4
219765.21875,231166.21875,262756.65625,257650.1875,208445.046875,223815.265625,222268.53125,208235.75,113473.0,1.0,4
219817.890625,231200.640625,262742.71875,257658.046875,208399.09375,223848.625,221980.1875,208264.0,113474.0,1.0,4
220162.09375,231896.3125,263136.46875,258226.046875,208962.09375,224082.953125,223712.71875,208788.28125,113475.0,1.0,4
220324.546875,232296.5,263397.4375,258576.96875,209365.5,224195.703125,225100.5,209094.953125,113476.0,1.0,4
220075.375,231837.046875,263159.4375,258215.859375,209040.9375,224024.75,224189.609375,208749.921875,113477.0,1.0,4
219766.296875,231168.90625,262762.375,257654.921875,208454.53125,223810.359375,222283.640625,208240.84375,113478.0,1.0,4
219819.84375,231199.125,262745.03125,257657.78125,208404.8125,223845.9375,221980.375,208262.65625,113479.0,1.0,4
220156.5625,231884.515625,263132.15625,258222.390625,208965.390625,224079.46875,223706.1875,208781.75,113480.0,1.0,4
220320.796875,232289.171875,263393.0625,258578.046875,209369.34375,224191.21875,225101.921875,209089.9375,113481.0,1.0,4
220076.53125,231840.625,263159.625,258223.28125,209047.375,224021.171875,224203.5625,208750.375,113482.0,1.0,4
219763.703125,231166.40625,262757.46875,257657.0625,208453.265625,223804.625,222294.28125,208238.609375,113483.0,1.0,4
219811.0,231183.125,262738.0625,257655.90625,208400.4375,223838.78125,221978.3125,208259.625,113484.0,1.0,4
220153.15625,231872.453125,263124.9375,258215.953125,208958.953125,224070.703125,223696.71875,208778.796875,113485.0,1.0,4
220319.90625,232288.28125,263387.5,258570.0,209365.3125,224187.296875,225098.890625,209089.671875,113486.0,1.0,4
220077.609375,231843.5625,263159.71875,258220.859375,209053.28125,224025.640625,224215.453125,208759.140625,113487.0,1.0,4
219765.9375,231168.375,262759.96875,257657.59375,208459.625,223811.15625,222304.296875,208248.265625,113488.0,1.0,4
219811.625,231185.71875,262738.25,257652.328125,208399.265625,223841.90625,221971.421875,208266.140625,113489.0,1.0,4
220147.34375,231870.125,263121.25,258211.484375,208950.375,224069.28125,223678.65625,208789.171875,113490.0,1.0,4
220320.078125,232295.4375,263389.84375,258576.53125,209365.765625,224192.484375,225097.359375,209100.40625,113491.0,1.0,4
220081.90625,231855.1875,263162.65625,258228.203125,209056.046875,224034.046875,224228.59375,208762.703125,113492.0,1.0,4
219766.75,231174.09375,262757.1875,257659.125,208460.328125,223814.546875,222315.828125,208247.546875,113493.0,1.0,4
219807.609375,231179.546875,262729.84375,257647.046875,208394.0,223843.703125,221964.640625,208256.21875,113494.0,1.0,4
220151.109375,231871.546875,263118.125,258207.546875,208948.59375,224082.421875,223670.875,208775.859375,113495.0,1.0,4
220321.6875,232296.59375,263388.84375,258576.4375,209365.140625,224204.640625,225099.25,209098.609375,113496.0,1.0,4
220083.953125,231859.484375,263161.9375,258229.71875,209053.015625,224037.265625,224236.828125,208767.8125,113497.0,1.0,4
219772.46875,231184.90625,262762.90625,257664.484375,208459.171875,223821.078125,222323.0625,208254.609375,113498.0,1.0,4
219808.3125,231182.9375,262729.84375,257644.8125,208384.34375,223844.6875,221953.8125,208254.15625,113499.0,1.0,4
220144.21875,231858.5,263107.75,258198.78125,208931.78125,224075.4375,223643.703125,208768.703125,113500.0,1.0,4
220323.390625,232290.96875,263382.34375,258572.40625,209356.375,224199.09375,225081.546875,209095.484375,113501.0,1.0,4
220085.390625,231857.25,263156.84375,258228.28125,209052.203125,224034.3125,224235.484375,208764.40625,113502.0,1.0,4
219763.609375,231174.359375,262750.84375,257653.9375,208452.296875,223813.65625,222317.703125,208245.40625,113503.0,1.0,4
219797.59375,231171.40625,262715.34375,257629.703125,208375.3125,223834.21875,221937.28125,208245.046875,113504.0,1.0,4
220142.875,231859.84375,263103.8125,258193.15625,208931.515625,224070.609375,223634.84375,208763.875,113505.0,1.0,4
220326.875,232295.171875,263385.0,258571.96875,209362.28125,224198.5625,225087.265625,209094.671875,113506.0,1.0,4
220085.03125,231854.03125,263156.84375,258228.015625,209057.9375,224034.5,224249.34375,208766.109375,113507.0,1.0,4
219773.625,231176.6875,262757.1875,257662.609375,208466.421875,223820.359375,222337.015625,208251.921875,113508.0,1.0,4
219811.171875,231173.46875,262723.5,257639.453125,208386.75,223842.359375,221946.390625,208246.65625,113509.0,1.0,4
220147.171875,231849.5625,263103.28125,258191.359375,208931.25,224072.140625,223625.90625,208758.15625,113510.0,1.0,4
220327.0625,232291.765625,263381.96875,258568.03125,209361.296875,224197.65625,225083.515625,209089.21875,113511.0,1.0,4
220089.5,231865.75,263163.8125,258232.046875,209065.171875,224038.78125,224264.546875,208767.890625,113512.0,1.0,4
219769.78125,231182.578125,262762.75,257660.28125,208469.09375,223818.9375,222348.09375,208250.671875,113513.0,1.0,4
219805.359375,231175.515625,262729.3125,257634.71875,208390.421875,223841.015625,221945.765625,208247.28125,113514.0,1.0,4
220141.71875,231851.34375,263106.96875,258185.8125,208937.140625,224068.296875,223621.703125,208759.3125,113515.0,1.0,4
220323.5625,232292.21875,263384.5625,258562.84375,209367.28125,224198.5625,225088.25,209090.75,113516.0,1.0,4
220091.5625,231873.25,263169.0,258234.640625,209075.640625,224041.921875,224281.796875,208776.5625,113517.0,1.0,4
219777.921875,231195.546875,262766.9375,257666.984375,208478.671875,223821.078125,222361.421875,208260.953125,113518.0,1.0,4
219803.9375,231172.390625,262720.625,257630.59375,208384.25,223832.53125,221932.0,208237.53125,113519.0,1.0,4
220145.46875,231849.828125,263104.625,258185.546875,208931.328125,224062.75,223602.65625,208749.125,113520.0,1.0,4
220335.28125,232300.265625,263388.6875,258570.890625,209365.5,224190.515625,225075.8125,209092.359375,113521.0,1.0,4
220099.875,231875.75,263168.65625,258237.40625,209070.09375,224029.40625,224276.34375,208780.5,113522.0,1.0,4
219783.46875,231194.75,262764.34375,257667.4375,208473.921875,223815.265625,222361.875,208258.015625,113523.0,1.0,4
219811.796875,231176.6875,262721.15625,257629.796875,208382.28125,223835.65625,221934.0625,208234.3125,113524.0,1.0,4
220143.859375,231845.265625,263095.5,258175.984375,208922.75,224063.90625,223595.859375,208745.546875,113525.0,1.0,4
220325.984375,232290.609375,263374.65625,258557.84375,209357.453125,224191.140625,225073.046875,209086.28125,113526.0,1.0,4
220096.828125,231879.515625,263165.25,258236.0625,209075.453125,224036.546875,224296.015625,208777.28125,113527.0,1.0,4
219770.59375,231182.3125,262752.90625,257656.625,208472.40625,223810.890625,222373.40625,208253.71875,113528.0,1.0,4
219798.03125,231155.3125,262705.53125,257614.6875,208377.1875,223826.890625,221924.046875,208236.28125,113529.0,1.0,4
220129.109375,231827.296875,263077.8125,258160.78125,208913.625,224049.609375,223572.265625,208738.921875,113530.0,1.0,4
220312.125,232274.0625,263359.34375,258545.953125,209347.96875,224177.546875,225055.796875,209073.671875,113531.0,1.0,4
220084.046875,231866.8125,263153.0,258227.03125,209068.296875,224024.296875,224288.328125,208765.21875,113532.0,1.0,4
219765.578125,231183.125,262750.9375,257657.59375,208470.171875,223808.203125,222372.6875,208248.359375,113533.0,1.0,4
219784.265625,231144.046875,262696.3125,257608.515625,208364.578125,223819.921875,221907.765625,208223.765625,113534.0,1.0,4
220122.578125,231818.09375,263072.34375,258158.734375,208904.0625,224050.40625,223560.1875,208732.9375,113535.0,1.0,4
220320.890625,232281.9375,263367.84375,258557.75,209349.578125,224188.8125,225063.84375,209083.6875,113536.0,1.0,4
220102.203125,231888.0,263169.8125,258246.703125,209079.921875,224040.75,224312.109375,208781.75,113537.0,1.0,4
219780.0625,231200.46875,262764.78125,257672.53125,208483.765625,223821.53125,222393.25,208259.53125,113538.0,1.0,4
219800.265625,231158.09375,262705.34375,257615.40625,208373.703125,223834.3125,221910.71875,208229.484375,113539.0,1.0,4
220133.671875,231828.28125,263077.4375,258159.4375,208907.546875,224061.40625,223552.40625,208735.890625,113540.0,1.0,4
220324.90625,232289.171875,263369.375,258560.796875,209353.515625,224199.453125,225063.84375,209089.3125,113541.0,1.0,4
220101.578125,231887.5625,263166.78125,258247.234375,209078.859375,224047.015625,224320.859375,208790.421875,113542.0,1.0,4
219783.46875,231203.5,262765.59375,257675.296875,208484.46875,223828.40625,222405.59375,208269.453125,113543.0,1.0,4
219800.984375,231156.390625,262705.6875,257613.171875,208369.59375,223833.0625,221909.03125,208231.1875,113544.0,1.0,4
220135.453125,231821.390625,263078.625,258156.140625,208903.34375,224056.3125,223543.109375,208733.65625,113545.0,1.0,4
220328.671875,232283.453125,263369.53125,258554.078125,209349.484375,224187.921875,225055.078125,209082.515625,113546.0,1.0,4
220105.234375,231887.828125,263169.4375,258245.265625,209081.890625,224042.359375,224325.609375,208785.328125,113547.0,1.0,4
219783.1875,231200.28125,262763.0,257670.125,208482.859375,223821.625,222407.46875,208264.09375,113548.0,1.0,4
219797.40625,231150.578125,262697.03125,257606.453125,208359.65625,223825.546875,221897.84375,208225.109375,113549.0,1.0,4
220133.671875,231820.859375,263069.59375,258153.359375,208894.046875,224058.453125,223531.046875,208737.59375,113550.0,1.0,4
220327.140625,232288.28125,263362.5625,258556.046875,209343.765625,224198.734375,225058.734375,209092.71875,113551.0,1.0,4
220106.84375,231897.390625,263165.78125,258250.546875,209076.796875,224047.546875,224340.359375,208791.40625,113552.0,1.0,4
219779.703125,231198.59375,262756.40625,257668.328125,208471.328125,223820.09375,222411.40625,208262.65625,113553.0,1.0,4
219789.71875,231143.515625,262690.9375,257599.75,208348.9375,223824.921875,221889.796875,208218.40625,113554.0,1.0,4
220125.71875,231813.890625,263067.34375,258140.125,208884.75,224055.5,223517.546875,208722.828125,113555.0,1.0,4
220324.546875,232286.765625,263367.75,258545.859375,209344.65625,224197.9375,225052.21875,209081.53125,113556.0,1.0,4
220103.453125,231897.125,263173.375,258241.703125,209087.53125,224052.5625,224346.96875,208786.9375,113557.0,1.0,4
219779.890625,231203.953125,262769.90625,257664.125,208492.609375,223830.015625,222428.390625,208265.875,113558.0,1.0,4
219789.0,231141.90625,262701.9375,257591.0,208367.984375,223834.40625,221894.0,208220.90625,113559.0,1.0,4
220120.078125,231803.0625,263067.71875,258127.609375,208893.0625,224060.953125,223505.65625,208717.828125,113560.0,1.0,4
220325.0,232287.03125,263370.25,258539.328125,209349.21875,224204.90625,225049.796875,209079.5625,113561.0,1.0,4
220114.453125,231913.125,263180.1875,258241.15625,209090.390625,224064.8125,224360.65625,208790.609375,113562.0,1.0,4
219788.015625,231222.640625,262770.53125,257660.8125,208481.4375,223843.609375,222441.796875,208262.125,113563.0,1.0,4
219790.609375,231154.15625,262694.78125,257584.5625,208343.84375,223844.328125,221891.765625,208210.0,113564.0,1.0,4
220124.90625,231819.25,263060.71875,258124.03125,208867.140625,224064.890625,223500.015625,208710.59375,113565.0,1.0,4
220330.546875,232299.640625,263359.96875,258537.71875,209326.6875,224203.5625,225054.890625,209077.875,113566.0,1.0,4
220113.828125,231912.59375,263164.625,258240.71875,209070.265625,224053.546875,224377.28125,208792.84375,113567.0,1.0,4
219783.109375,231203.6875,262751.75,257660.1875,208469.1875,223822.875,222457.890625,208267.03125,113568.0,1.0,4
219784.359375,231126.53125,262677.53125,257581.875,208336.5,223817.765625,221898.390625,208215.71875,113569.0,1.0,4
220122.046875,231787.78125,263049.90625,258122.515625,208865.34375,224045.40625,223505.296875,208720.234375,113570.0,1.0,4
220328.671875,232274.421875,263356.40625,258543.71875,209331.96875,224191.5,225068.9375,209092.796875,113571.0,1.0,4
220114.796875,231900.515625,263167.5,258256.984375,209083.6875,224049.515625,224405.171875,208813.3125,113572.0,1.0,4
219783.46875,231200.28125,262754.875,257674.859375,208477.0625,223823.5,222479.4375,208285.015625,113573.0,1.0,4
219784.171875,231127.59375,262673.15625,257587.78125,208330.25,223822.953125,221897.21875,208226.09375,113574.0,1.0,4
220114.796875,231793.953125,263037.125,258125.640625,208854.4375,224049.25,223492.875,208723.546875,113575.0,1.0,4
220318.390625,232280.859375,263342.0,258546.75,209324.640625,224195.96875,225061.25,209096.015625,113576.0,1.0,4
220112.921875,231915.8125,263159.96875,258264.859375,209081.171875,224062.03125,224409.203125,208822.4375,113577.0,1.0,4
219789.546875,231225.765625,262753.1875,257687.640625,208478.21875,223839.140625,222486.5,208292.15625,113578.0,1.0,4
219787.3125,231144.046875,262673.15625,257601.09375,208336.6875,223838.421875,221898.828125,208228.859375,113579.0,1.0,4
220117.578125,231801.09375,263037.5,258137.09375,208860.875,224067.390625,223487.140625,208725.703125,113580.0,1.0,4
220320.34375,232284.171875,263341.1875,258555.515625,209327.5,224210.71875,225057.84375,209096.203125,113581.0,1.0,4
220116.234375,231922.421875,263163.90625,258277.8125,209089.5,224071.953125,224418.5,208827.265625,113582.0,1.0,4
219788.828125,231226.84375,262754.4375,257696.5,208483.765625,223844.328125,222491.15625,208299.578125,113583.0,1.0,4
219785.421875,231139.765625,262672.0,257603.6875,208335.34375,223837.984375,221887.828125,208229.125,113584.0,1.0,4
220116.234375,231797.171875,263036.0625,258137.71875,208857.75,224062.03125,223467.296875,208724.71875,113585.0,1.0,4
220327.859375,232293.90625,263347.0,258566.25,209332.140625,224206.875,225050.25,209105.59375,113586.0,1.0,4
220121.421875,231932.265625,263164.625,258283.984375,209091.453125,224063.203125,224417.15625,208829.765625,113587.0,1.0,4
219797.765625,231242.3125,262760.5,257705.703125,208494.84375,223842.984375,222498.9375,208303.96875,113588.0,1.0,4
219791.515625,231151.5625,262677.1875,257610.03125,208344.640625,223839.234375,221881.390625,208239.234375,113589.0,1.0,4
220120.34375,231800.390625,263039.46875,258140.75,208861.953125,224065.34375,223453.53125,208733.828125,113590.0,1.0,4
220332.78125,232297.578125,263350.9375,258568.390625,209335.1875,224210.890625,225045.234375,209107.203125,113591.0,1.0,4
220122.5,231931.453125,263169.71875,258287.65625,209096.46875,224068.46875,224426.546875,208835.75,113592.0,1.0,4
219795.53125,231230.328125,262760.5,257704.09375,208492.703125,223840.484375,222501.703125,208299.140625,113593.0,1.0,4
219791.0625,231141.90625,262677.0,257607.265625,208340.078125,223836.453125,221874.6875,208224.84375,113594.0,1.0,4
220116.5,231790.28125,263036.9375,258132.171875,208853.375,224059.078125,223438.59375,208714.609375,113595.0,1.0,4
220332.328125,232294.0,263354.34375,258563.109375,209332.5,224209.640625,225040.5,209094.765625,113596.0,1.0,4
220127.859375,231938.78125,263180.0,258286.3125,209099.234375,224074.015625,224438.171875,208825.65625,113597.0,1.0,4
219798.21875,231241.40625,262769.96875,257697.390625,208490.90625,223842.359375,222509.65625,208289.484375,113598.0,1.0,4
219792.84375,231145.75,262682.71875,257596.453125,208333.109375,223835.5625,221864.671875,208212.5,113599.0,1.0,4
220126.25,231803.34375,263052.875,258132.078125,208857.296875,224066.5,223431.53125,208713.09375,113600.0,1.0,4
220340.28125,232306.515625,263368.5625,258563.109375,209339.828125,224216.34375,225038.0,209097.265625,113601.0,1.0,4
220136.34375,231953.359375,263194.03125,258288.28125,209112.46875,224076.515625,224446.03125,208833.875,113602.0,1.0,4
219805.71875,231254.640625,262784.28125,257704.265625,208509.875,223843.96875,222523.515625,208301.546875,113603.0,1.0,4
219790.34375,231143.515625,262689.59375,257593.046875,208348.3125,223830.640625,221861.8125,208217.59375,113604.0,1.0,4
220112.296875,231781.515625,263042.59375,258110.0,208856.234375,224049.96875,223405.078125,208703.078125,113605.0,1.0,4
220325.984375,232287.296875,263358.625,258544.34375,209337.6875,224200.609375,225020.65625,209089.5,113606.0,1.0,4
220131.703125,231948.359375,263192.875,258284.796875,209119.0,224067.75,224453.1875,208834.421875,113607.0,1.0,4
219802.328125,231250.171875,262784.90625,257704.09375,208514.0625,223837.625,222532.8125,208304.046875,113608.0,1.0,4
219782.296875,231137.171875,262686.28125,257587.5,208340.890625,223824.125,221856.8125,208218.046875,113609.0,1.0,4
220108.359375,231786.078125,263043.3125,258111.875,208851.21875,224048.4375,223401.3125,208709.78125,113610.0,1.0,4
220328.671875,232303.21875,263361.78125,258554.625,209338.765625,224199.359375,225026.375,209097.0,113611.0,1.0,4
220131.34375,231964.0,263194.3125,258291.40625,209118.28125,224062.484375,224464.0,208837.984375,113612.0,1.0,4
219798.484375,231262.421875,262780.4375,257704.8125,208507.1875,223831.625,222538.890625,208302.359375,113613.0,1.0,4
219784.359375,231150.21875,262683.34375,257593.40625,208337.046875,223823.5,221859.21875,208216.515625,113614.0,1.0,4
220106.40625,231783.578125,263032.65625,258108.390625,208838.34375,224042.1875,223386.296875,208701.109375,113615.0,1.0,4
220328.671875,232296.59375,263349.875,258547.46875,209325.609375,224197.578125,225011.265625,209091.734375,113616.0,1.0,4
220133.671875,231959.984375,263188.0625,258294.171875,209115.875,224067.671875,224466.515625,208843.796875,113617.0,1.0,4
219801.96875,231257.59375,262779.5625,257709.90625,208513.09375,223840.125,222549.265625,208315.765625,113618.0,1.0,4
219778.09375,231129.75,262672.71875,257583.75,208329.53125,223819.734375,221845.8125,208220.09375,113619.0,1.0,4
220104.25,231770.25,263027.28125,258104.015625,208834.59375,224040.75,223368.5,208705.84375,113620.0,1.0,4
220322.671875,232286.484375,263348.71875,258547.640625,209325.796875,224197.65625,225006.078125,209103.53125,113621.0,1.0,4
220121.78125,231949.875,263180.09375,258287.296875,209113.1875,224063.640625,224467.3125,208845.234375,113622.0,1.0,4
219796.875,231255.09375,262772.75,257708.5625,208515.859375,223843.609375,222555.25,208311.5625,113623.0,1.0,4
219770.9375,231125.453125,262663.59375,257580.265625,208334.625,223825.375,221846.703125,208213.390625,113624.0,1.0,4
220089.765625,231757.203125,263011.8125,258093.453125,208832.71875,224042.984375,223364.484375,208694.3125,113625.0,1.0,4
220315.609375,232279.515625,263336.03125,258540.3125,209325.703125,224201.59375,225009.125,209091.90625,113626.0,1.0,4
220126.78125,231951.75,263180.34375,258290.421875,209121.046875,224076.96875,224489.9375,208847.015625,113627.0,1.0,4
219794.734375,231246.6875,262771.40625,257702.578125,208513.359375,223850.765625,222570.546875,208316.125,113628.0,1.0,4
219766.46875,231112.84375,262663.5,257570.421875,208323.71875,223830.109375,221844.03125,208214.203125,113629.0,1.0,4
220085.65625,231743.25,263010.21875,258082.109375,208818.046875,224049.6875,223349.734375,208690.921875,113630.0,1.0,4
220322.765625,232285.515625,263342.71875,258540.3125,209321.6875,224218.40625,225008.3125,209096.828125,113631.0,1.0,4
220134.5625,231968.921875,263186.25,258292.125,209118.90625,224086.625,224497.4375,208850.953125,113632.0,1.0,4
219799.375,231261.0,262773.125,257704.0,208511.203125,223849.78125,222572.78125,208314.15625,113633.0,1.0,4
219763.703125,231114.015625,262656.53125,257563.8125,208313.4375,223820.015625,221828.375,208205.34375,113634.0,1.0,4
220084.046875,231746.734375,263004.40625,258074.953125,208807.6875,224037.171875,223331.578125,208683.9375,113635.0,1.0,4
220321.328125,232286.84375,263341.46875,258534.859375,209312.828125,224203.125,224997.234375,209091.109375,113636.0,1.0,4
220136.171875,231971.875,263190.28125,258294.453125,209116.140625,224076.515625,224503.53125,208854.984375,113637.0,1.0,4
219798.21875,231257.234375,262775.96875,257706.59375,208508.53125,223843.4375,222582.078125,208319.4375,113638.0,1.0,4
219761.828125,231108.828125,262658.65625,257563.28125,208314.515625,223820.359375,221828.734375,208205.171875,113639.0,1.0,4
220084.765625,231743.34375,263006.90625,258074.234375,208811.890625,224035.296875,223322.90625,208681.171875,113640.0,1.0,4
220321.0625,232285.859375,263342.53125,258532.984375,209321.234375,224199.546875,224996.78125,209092.0,113641.0,1.0,4
220137.609375,231976.34375,263193.875,258295.34375,209130.171875,224073.296875,224518.1875,208856.59375,113642.0,1.0,4
219797.234375,231268.234375,262777.5,257704.71875,208520.6875,223836.015625,222594.953125,208316.65625,113643.0,1.0,4
219761.828125,231117.671875,262659.5625,257561.40625,208324.890625,223809.90625,221831.421875,208200.34375,113644.0,1.0,4
220082.96875,231748.53125,263007.71875,258072.1875,208818.859375,224027.875,223317.265625,208675.09375,113645.0,1.0,4
220321.421875,232288.640625,263342.375,258530.03125,209322.046875,224190.15625,224986.953125,209085.734375,113646.0,1.0,4
220143.859375,231984.203125,263199.65625,258299.453125,209136.15625,224069.625,224519.171875,208861.59375,113647.0,1.0,4
219808.578125,231275.828125,262790.0,257713.484375,208533.828125,223839.234375,222606.3125,208323.984375,113648.0,1.0,4
219774.609375,231122.234375,262670.65625,257564.625,208330.421875,223812.140625,221829.453125,208202.84375,113649.0,1.0,4
220090.3125,231747.71875,263012.1875,258068.609375,208818.234375,224025.109375,223301.0,208670.359375,113650.0,1.0,4
220325.171875,232290.6875,263345.21875,258533.515625,209328.03125,224192.125,224983.8125,209082.96875,113651.0,1.0,4
220144.21875,231986.984375,263198.34375,258302.84375,209146.09375,224077.234375,224535.4375,208859.0,113652.0,1.0,4
219811.0,231281.734375,262788.3125,257716.875,208543.75,223849.609375,222629.109375,208329.09375,113653.0,1.0,4
219768.171875,231113.734375,262660.1875,257560.953125,208328.90625,223815.359375,221831.59375,208207.671875,113654.0,1.0,4
220086.8125,231738.421875,263002.34375,258070.21875,208818.5,224031.1875,223300.375,208679.828125,113655.0,1.0,4
220317.21875,232278.796875,263333.5,258530.390625,209321.5,224192.75,224980.515625,209085.203125,113656.0,1.0,4
220140.203125,231985.015625,263189.65625,258304.109375,209140.28125,224077.671875,224540.265625,208864.359375,113657.0,1.0,4
219806.0,231283.25,262777.84375,257716.78125,208536.953125,223849.515625,222632.234375,208329.265625,113658.0,1.0,4
219761.46875,231113.109375,262647.03125,257556.65625,208323.1875,223818.125,221825.78125,208200.78125,113659.0,1.0,4
220080.5625,231735.65625,262990.0,258064.578125,208810.359375,224036.28125,223289.203125,208674.015625,113660.0,1.0,4
220313.640625,232274.6875,263321.53125,258526.375,209314.703125,224199.0,224975.59375,209087.4375,113661.0,1.0,4
220134.46875,231978.390625,263180.0,258299.71875,209134.90625,224080.546875,224545.375,208866.25,113662.0,1.0,4
219798.390625,231272.4375,262768.28125,257709.1875,208529.09375,223847.71875,222635.28125,208328.640625,113663.0,1.0,4
219754.9375,231103.1875,262640.15625,257550.140625,208313.703125,223815.984375,221818.640625,208200.875,113664.0,1.0,4
220075.640625,231725.28125,262986.25,258055.546875,208799.8125,224035.03125,223273.015625,208673.75,113665.0,1.0,4
220319.640625,232280.953125,263328.875,258525.109375,209311.046875,224202.578125,224969.6875,209089.046875,113666.0,1.0,4
220149.765625,232000.296875,263197.71875,258311.171875,209144.65625,224088.234375,224559.21875,208872.953125,113667.0,1.0,4
219809.390625,231286.5625,262781.15625,257718.671875,208539.546875,223851.75,222647.96875,208332.578125,113668.0,1.0,4
219756.46875,231099.703125,262642.65625,257545.65625,208314.0625,223809.546875,221814.34375,208193.640625,113669.0,1.0,4
220078.234375,231723.578125,262988.59375,258048.671875,208799.640625,224026.09375,223263.359375,208662.84375,113670.0,1.0,4
220318.46875,232276.75,263329.40625,258517.15625,209314.078125,224190.0625,224964.953125,209078.046875,113671.0,1.0,4
220150.390625,231995.734375,263202.71875,258307.765625,209153.15625,224078.65625,224566.28125,208869.375,113672.0,1.0,4
219817.53125,231293.890625,262795.5625,257724.125,208553.234375,223844.59375,222664.15625,208334.1875,113673.0,1.0,4
219764.328125,231107.84375,262655.625,257551.109375,208321.75,223802.21875,221818.640625,208190.953125,113674.0,1.0,4
220075.828125,231720.015625,262993.84375,258046.703125,208799.1875,224015.1875,223253.4375,208657.125,113675.0,1.0,4
220323.921875,232279.703125,263334.125,258516.984375,209316.59375,224185.0625,224961.921875,209079.125,113676.0,1.0,4
220155.65625,232001.109375,263202.1875,258304.28125,209149.484375,224071.234375,224570.765625,208868.484375,113677.0,1.0,4
219822.53125,231295.953125,262794.46875,257719.375,208550.28125,223844.953125,222667.1875,208332.03125,113678.0,1.0,4
219775.6875,231114.28125,262658.03125,257548.703125,208325.875,223809.546875,221815.953125,208191.484375,113679.0,1.0,4
220087.0,231724.390625,262992.5,258043.65625,208802.578125,224023.859375,223241.90625,208658.28125,113680.0,1.0,4
220334.5625,232287.203125,263341.03125,258520.828125,209326.15625,224198.828125,224963.34375,209089.84375,113681.0,1.0,4
220165.59375,232010.578125,263212.28125,258311.703125,209163.703125,224084.5625,224585.515625,208878.578125,113682.0,1.0,4
219825.578125,231300.421875,262797.34375,257720.453125,208554.921875,223847.546875,222677.65625,208337.40625,113683.0,1.0,4
219770.9375,231109.71875,262654.375,257541.109375,208319.078125,223808.296875,221807.015625,208183.890625,113684.0,1.0,4
220086.109375,231720.90625,262988.03125,258035.96875,208792.21875,224021.4375,223222.234375,208648.0,113685.0,1.0,4
220331.96875,232284.53125,263330.46875,258513.9375,209310.234375,224190.78125,224941.171875,209071.875,113686.0,1.0,4
220163.4375,232011.921875,263203.25,258309.203125,209151.359375,224080.0,224577.46875,208866.15625,113687.0,1.0,4
219827.09375,231303.28125,262792.15625,257722.875,208550.1875,223849.6875,222680.609375,208331.59375,113688.0,1.0,4
219768.4375,231108.28125,262646.25,257540.296875,208311.921875,223803.296875,221798.421875,208181.125,113689.0,1.0,4
220080.375,231715.265625,262981.0625,258034.265625,208790.0625,224017.0625,223208.640625,208648.53125,113690.0,1.0,4
220327.40625,232279.703125,263324.40625,258512.59375,209312.65625,224184.078125,224934.375,209072.953125,113691.0,1.0,4
220167.640625,232019.078125,263204.40625,258313.671875,209164.6875,224078.03125,224591.046875,208876.078125,113692.0,1.0,4
219821.453125,231302.75,262791.78125,257721.34375,208559.578125,223845.578125,222690.0,208335.875,113693.0,1.0,4
219759.59375,231101.046875,262643.125,257533.140625,208316.390625,223798.375,221795.125,208180.9375,113694.0,1.0,4
220073.046875,231704.8125,262974.1875,258022.828125,208785.234375,224009.546875,223197.375,208641.109375,113695.0,1.0,4
220324.46875,232274.15625,263323.15625,258506.875,209312.828125,224184.34375,224936.34375,209069.46875,113696.0,1.0,4
220163.171875,232013.4375,263205.125,258310.984375,209164.859375,224080.71875,224604.28125,208871.609375,113697.0,1.0,4
219826.640625,231305.703125,262795.65625,257724.921875,208565.03125,223845.40625,222709.484375,208334.71875,113698.0,1.0,4
219758.25,231092.28125,262640.78125,257530.90625,208318.09375,223796.765625,221801.828125,208177.359375,113699.0,1.0,4
220066.609375,231691.578125,262966.40625,258014.875,208779.609375,224004.546875,223184.5,208633.34375,113700.0,1.0,4
220318.828125,232266.546875,263316.53125,258500.4375,209307.375,224178.265625,224923.46875,209066.875,113701.0,1.0,4
220166.296875,232018.546875,263203.78125,258311.609375,209165.75,224074.640625,224608.578125,208874.734375,113702.0,1.0,4
219830.125,231311.78125,262795.71875,257722.875,208563.6875,223842.09375,222715.203125,208337.9375,113703.0,1.0,4
219766.75,231100.15625,262645.15625,257529.5625,208315.5,223796.578125,221798.875,208178.34375,113704.0,1.0,4
220076.625,231695.78125,262971.59375,258013.53125,208776.390625,224010.171875,223177.796875,208632.359375,113705.0,1.0,4
220331.703125,232272.984375,263321.34375,258499.546875,209304.421875,224185.421875,224922.390625,209065.984375,113706.0,1.0,4
220177.03125,232027.484375,263207.09375,258312.5,209164.421875,224079.203125,224614.203125,208877.421875,113707.0,1.0,4
219836.484375,231318.484375,262795.65625,257724.65625,208564.859375,223845.125,222720.75,208338.75,113708.0,1.0,4
219762.1875,231091.828125,262633.53125,257520.8125,208306.640625,223793.71875,221781.890625,208172.171875,113709.0,1.0,4
220067.859375,231682.09375,262955.9375,258001.8125,208760.5625,224000.15625,223148.296875,208628.875,113710.0,1.0,4
220326.703125,232267.09375,263309.03125,258495.34375,209292.71875,224181.5625,224905.234375,209068.03125,113711.0,1.0,4
220173.90625,232024.0,263196.90625,258312.859375,209160.125,224081.34375,224616.796875,208882.515625,113712.0,1.0,4
219834.609375,231316.0625,262787.59375,257726.984375,208563.25,223847.90625,222728.703125,208345.53125,113713.0,1.0,4
219761.734375,231091.296875,262626.5625,257523.40625,208305.84375,223800.15625,221785.734375,208171.46875,113714.0,1.0,4
220065.71875,231681.46875,262948.09375,258001.640625,208759.765625,224008.5625,223148.5625,208622.078125,113715.0,1.0,4
220325.0,232264.671875,263303.65625,258495.96875,209296.296875,224183.984375,224908.265625,209066.0625,113716.0,1.0,4
220168.53125,232017.109375,263189.03125,258309.90625,209157.703125,224072.9375,224619.3125,208880.28125,113717.0,1.0,4
219830.40625,231307.390625,262782.59375,257727.0625,208562.171875,223844.328125,222736.125,208343.84375,113718.0,1.0,4
219760.484375,231084.5,262622.09375,257522.78125,208304.046875,223795.15625,221778.84375,208173.25,113719.0,1.0,4
220070.734375,231682.09375,262947.375,258004.140625,208764.140625,224006.328125,223136.484375,208625.46875,113720.0,1.0,4
220323.65625,232260.390625,263298.71875,258493.203125,209296.296875,224182.015625,224898.875,209063.65625,113721.0,1.0,4
220175.25,232025.421875,263195.1875,258316.625,209171.296875,224083.046875,224632.09375,208885.28125,113722.0,1.0,4
219838.265625,231322.859375,262792.5,257732.609375,208578.53125,223856.390625,222755.625,208348.125,113723.0,1.0,4
219761.203125,231091.484375,262631.21875,257519.640625,208311.46875,223803.109375,221788.953125,208170.203125,113724.0,1.0,4
220065.453125,231680.9375,262953.34375,257994.046875,208763.15625,224008.296875,223133.09375,208617.953125,113725.0,1.0,4
220322.3125,232261.546875,263305.4375,258489.078125,209296.65625,224180.765625,224896.015625,209058.375,113726.0,1.0,4
220176.3125,232033.203125,263203.6875,258317.6875,209175.5,224081.25,224644.078125,208887.875,113727.0,1.0,4
219834.609375,231322.328125,262794.03125,257729.75,208577.453125,223849.78125,222762.59375,208352.78125,113728.0,1.0,4
219758.875,231083.796875,262629.53125,257517.5,208312.546875,223799.53125,221788.234375,208175.125,113729.0,1.0,4
220065.71875,231674.859375,262949.6875,257992.703125,208765.125,224007.5,223125.671875,208620.28125,113730.0,1.0,4
220322.859375,232261.375,263305.25,258488.109375,209298.53125,224184.078125,224892.71875,209063.65625,113731.0,1.0,4
220174.4375,232033.375,263201.90625,258319.921875,209177.296875,224086.359375,224652.390625,208892.796875,113732.0,1.0,4
219836.84375,231328.765625,262793.59375,257734.671875,208583.71875,223855.6875,222774.65625,208357.703125,113733.0,1.0,4
219751.28125,231083.875,262620.59375,257515.0,208309.421875,223797.828125,221778.125,208172.796875,113734.0,1.0,4
220052.578125,231665.203125,262935.03125,257983.484375,208752.609375,224003.296875,223101.09375,208613.21875,113735.0,1.0,4
220317.046875,232261.28125,263297.65625,258488.453125,209296.203125,224189.703125,224885.03125,209064.453125,113736.0,1.0,4
220174.53125,232039.375,263198.875,258322.875,209182.296875,224093.0625,224660.515625,208898.34375,113737.0,1.0,4
219833.703125,231327.953125,262788.5,257733.421875,208583.890625,223858.28125,222783.25,208361.71875,113738.0,1.0,4
219748.140625,231079.765625,262613.25,257509.546875,208308.34375,223803.828125,221778.40625,208172.890625,113739.0,1.0,4
220047.484375,231659.84375,262926.625,257976.515625,208752.515625,224010.09375,223091.703125,208614.03125,113740.0,1.0,4
220312.75,232256.8125,263289.71875,258479.703125,209295.390625,224192.828125,224878.140625,209067.3125,113741.0,1.0,4
220171.21875,232038.65625,263193.15625,258318.859375,209179.34375,224091.8125,224664.71875,208903.796875,113742.0,1.0,4
219826.5625,231326.078125,262779.375,257729.75,208579.25,223852.109375,222787.53125,208365.390625,113743.0,1.0,4
219744.390625,231074.765625,262604.3125,257506.0625,208299.5,223793.71875,221770.796875,208175.9375,113744.0,1.0,4
220043.546875,231646.78125,262913.03125,257969.09375,208736.15625,223992.75,223067.46875,208607.59375,113745.0,1.0,4
220312.9375,232247.875,263278.53125,258477.46875,209283.6875,224178.078125,224858.734375,209059.71875,113746.0,1.0,4
220178.90625,232041.703125,263195.1875,258326.640625,209186.234375,224092.078125,224670.53125,208905.40625,113747.0,1.0,4
219839.515625,231334.21875,262788.3125,257740.578125,208590.609375,223859.078125,222799.609375,208370.03125,113748.0,1.0,4
219751.640625,231078.25,262609.3125,257509.625,208304.765625,223797.484375,221768.203125,208171.90625,113749.0,1.0,4
220049.453125,231647.328125,262920.28125,257970.703125,208740.625,223998.46875,223060.671875,208605.625,113750.0,1.0,4
220320.984375,232253.5,263288.625,258480.140625,209291.734375,224184.4375,224860.171875,209062.84375,113751.0,1.0,4
220185.609375,232048.484375,263202.8125,258328.6875,209193.390625,224092.875,224680.46875,208909.15625,113752.0,1.0,4
219842.921875,231335.46875,262791.875,257736.09375,208593.015625,223858.0,222808.1875,208373.34375,113753.0,1.0,4
219755.484375,231081.109375,262613.34375,257503.828125,208306.109375,223799.625,221773.03125,208178.078125,113754.0,1.0,4
220049.625,231652.859375,262922.59375,257963.28125,208739.640625,223999.453125,223058.890625,208607.40625,113755.0,1.0,4
220315.609375,232256.09375,263288.09375,258473.078125,209289.671875,224183.71875,224859.546875,209063.125,113756.0,1.0,4
220185.96875,232055.90625,263206.90625,258330.03125,209197.9375,224097.96875,224693.25,208912.203125,113757.0,1.0,4
219839.15625,231341.28125,262797.53125,257741.109375,208600.53125,223861.9375,222826.875,208369.234375,113758.0,1.0,4
219741.625,231068.234375,262608.0625,257495.78125,208298.59375,223792.921875,221764.1875,208162.703125,113759.0,1.0,4
220039.703125,231637.671875,262913.5625,257951.03125,208724.625,223990.953125,223034.84375,208592.65625,113760.0,1.0,4
220315.078125,232248.859375,263283.71875,258465.65625,209280.28125,224179.609375,224846.40625,209052.203125,113761.0,1.0,4
220190.625,232061.453125,263210.65625,258332.171875,209199.46875,224104.140625,224707.90625,208913.359375,113762.0,1.0,4
219846.671875,231350.9375,262800.28125,257744.0625,208603.125,223866.859375,222845.734375,208374.5,113763.0,1.0,4
219750.203125,231076.453125,262611.03125,257497.921875,208303.875,223797.921875,221774.375,208164.84375,113764.0,1.0,4
220051.953125,231647.859375,262919.65625,257954.609375,208735.625,223999.71875,223039.390625,208598.65625,113765.0,1.0,4
220330.09375,232267.359375,263292.75,258473.625,209290.390625,224188.359375,224848.546875,209062.671875,113766.0,1.0,4
220202.609375,232078.078125,263218.90625,258338.96875,209208.671875,224106.828125,224715.0625,208920.78125,113767.0,1.0,4
219854.984375,231363.28125,262808.53125,257750.21875,208611.171875,223869.625,222853.96875,208383.171875,113768.0,1.0,4
219750.828125,231080.390625,262614.9375,257498.453125,208305.21875,223798.546875,221775.0,208168.328125,113769.0,1.0,4
220045.515625,231642.21875,262916.4375,257947.90625,208732.484375,224000.703125,223032.15625,208595.609375,113770.0,1.0,4
220319.28125,232251.71875,263280.0625,258458.6875,209282.25,224188.09375,224841.578125,209057.3125,113771.0,1.0,4
220186.515625,232060.375,263201.09375,258322.25,209197.40625,224098.421875,224713.90625,208915.859375,113772.0,1.0,4
219832.90625,231334.390625,262784.28125,257727.15625,208593.640625,223853.0,222846.28125,208371.203125,113773.0,1.0,4
219731.15625,231052.140625,262590.625,257474.140625,208285.015625,223778.796875,221752.921875,208155.015625,113774.0,1.0,4
220029.953125,231618.265625,262896.5,257927.609375,208709.78125,223976.828125,222998.625,208581.21875,113775.0,1.0,4
220310.15625,232236.25,263274.40625,258451.09375,209273.40625,224170.03125,224824.5,209051.671875,113776.0,1.0,4
220187.40625,232053.9375,263203.34375,258324.390625,209199.640625,224091.453125,224718.015625,208920.6875,113777.0,1.0,4
219844.265625,231341.90625,262794.5625,257737.890625,208603.46875,223856.671875,222862.109375,208375.484375,113778.0,1.0,4
219745.015625,231061.703125,262599.75,257484.859375,208296.453125,223784.328125,221757.390625,208154.46875,113779.0,1.0,4
220040.328125,231622.5625,262903.5625,257935.75,208721.765625,223985.328125,222993.890625,208582.828125,113780.0,1.0,4
220320.171875,232244.734375,263280.84375,258458.59375,209283.5,224183.53125,224824.140625,209052.5625,113781.0,1.0,4
220194.015625,232065.03125,263209.40625,258329.9375,209205.984375,224100.484375,224727.484375,208916.484375,113782.0,1.0,4
219847.125,231354.515625,262797.59375,257740.125,208607.859375,223856.578125,222874.0,208373.609375,113783.0,1.0,4
219744.125,231066.890625,262600.28125,257481.640625,208296.453125,223786.296875,221759.890625,208153.765625,113784.0,1.0,4
220040.5,231623.625,262904.1875,257932.609375,208718.71875,223991.21875,222991.296875,208580.59375,113785.0,1.0,4
220317.484375,232241.515625,263273.96875,258453.140625,209272.421875,224178.265625,224813.671875,209045.234375,113786.0,1.0,4
220196.34375,232064.578125,263205.46875,258330.75,209199.28125,224099.3125,224729.8125,208914.515625,113787.0,1.0,4
219862.40625,231363.28125,262806.8125,257753.09375,208615.453125,223872.484375,222892.328125,208387.203125,113788.0,1.0,4
219749.84375,231061.53125,262601.375,257484.0625,208293.59375,223792.828125,221759.625,208158.859375,113789.0,1.0,4
220034.515625,231601.984375,262892.8125,257922.953125,208704.78125,223983.359375,222967.515625,208574.6875,113790.0,1.0,4
220320.34375,232233.203125,263272.0,258453.6875,209274.75,224180.046875,224806.796875,209048.90625,113791.0,1.0,4
220197.859375,232060.109375,263199.59375,258329.578125,209202.59375,224094.484375,224728.828125,208916.9375,113792.0,1.0,4
219851.234375,231345.578125,262784.46875,257739.59375,208602.140625,223854.4375,222876.9375,208378.34375,113793.0,1.0,4
219744.84375,231055.890625,262585.4375,257479.5,208286.796875,223784.25,221750.765625,208158.9375,113794.0,1.0,4
220030.578125,231600.203125,262877.4375,257917.78125,208697.078125,223977.984375,222953.828125,208575.21875,113795.0,1.0,4
220311.046875,232223.375,263251.78125,258440.984375,209258.734375,224171.46875,224786.765625,209047.828125,113796.0,1.0,4
220197.5,232067.0,263195.65625,258328.59375,209198.84375,224099.765625,224733.921875,208924.8125,113797.0,1.0,4
219854.625,231360.59375,262795.65625,257745.484375,208611.515625,223867.75,222898.765625,208390.0625,113798.0,1.0,4
219744.125,231057.328125,262595.28125,257478.875,208294.75,223793.984375,221755.515625,208163.234375,113799.0,1.0,4
220023.515625,231591.53125,262881.46875,257908.390625,208697.890625,223982.546875,222940.59375,208570.484375,113800.0,1.0,4
220305.328125,232221.046875,263258.84375,258434.09375,209263.296875,224179.515625,224783.28125,209042.28125,113801.0,1.0,4
220196.34375,232067.359375,263204.84375,258324.75,209210.109375,224110.046875,224744.5625,208926.5,113802.0,1.0,4
219858.203125,231364.96875,262804.3125,257741.734375,208623.421875,223877.59375,222914.21875,208394.171875,113803.0,1.0,4
219739.734375,231055.890625,262596.96875,257466.625,208294.578125,223801.59375,221756.234375,208162.34375,113804.0,1.0,4
220022.796875,231599.84375,262887.71875,257902.9375,208700.84375,223997.21875,222942.390625,208573.4375,113805.0,1.0,4
220303.359375,232230.796875,263260.65625,258430.53125,209258.65625,224191.9375,224786.9375,209040.765625,113806.0,1.0,4
220189.90625,232081.03125,263199.65625,258322.34375,209196.0625,224119.96875,224756.453125,208921.859375,113807.0,1.0,4
219852.578125,231382.234375,262795.5625,257742.71875,208608.9375,223887.25,222933.53125,208391.40625,113808.0,1.0,4
219728.484375,231060.09375,262578.46875,257459.828125,208271.953125,223798.28125,221764.09375,208150.09375,113809.0,1.0,4
220012.609375,231597.25,262862.59375,257888.453125,208672.953125,223987.28125,222939.265625,208557.34375,113810.0,1.0,4
220304.96875,232232.21875,263246.96875,258426.671875,209248.09375,224185.6875,224798.296875,209042.203125,113811.0,1.0,4
220191.78125,232073.796875,263185.90625,258321.71875,209196.609375,224107.625,224780.859375,208927.21875,113812.0,1.0,4
219844.890625,231357.109375,262778.5625,257737.171875,208607.953125,223866.671875,222951.421875,208394.078125,113813.0,1.0,4
219730.0,231038.640625,262567.90625,257459.46875,208274.546875,223782.015625,221774.828125,208155.375,113814.0,1.0,4
220018.0625,231576.953125,262856.96875,257894.53125,208674.203125,223975.75,222941.40625,208563.421875,113815.0,1.0,4
220302.015625,232210.765625,263236.0625,258427.03125,209241.3125,224174.859375,224795.078125,209041.921875,113816.0,1.0,4
220194.5625,232070.03125,263186.09375,258332.359375,209196.953125,224104.953125,224796.0625,208940.09375,113817.0,1.0,4
219857.578125,231375.96875,262788.65625,257758.546875,208612.234375,223872.9375,222979.5,208411.609375,113818.0,1.0,4
219739.734375,231063.140625,262576.59375,257475.84375,208273.46875,223791.046875,221789.3125,208165.65625,113819.0,1.0,4
220017.4375,231589.65625,262856.34375,257897.921875,208663.640625,223977.453125,222931.296875,208570.03125,113820.0,1.0,4
220306.671875,232231.859375,263242.84375,258437.671875,209240.046875,224180.859375,224789.53125,209057.390625,113821.0,1.0,4
220201.0,232097.21875,263195.46875,258343.984375,209199.28125,224112.546875,224799.90625,208950.46875,113822.0,1.0,4
219858.75,231395.1875,262794.84375,257765.421875,208618.234375,223882.140625,222985.75,208419.828125,113823.0,1.0,4
219735.8125,231073.15625,262581.96875,257483.25,208284.5625,223801.140625,221790.015625,208175.9375,113824.0,1.0,4
220014.125,231597.25,262863.3125,257905.890625,208676.609375,223986.21875,222928.359375,208578.4375,113825.0,1.0,4
220302.46875,232232.484375,263243.03125,258442.328125,209245.234375,224183.453125,224784.890625,209059.625,113826.0,1.0,4
220204.921875,232107.765625,263198.96875,258357.296875,209209.484375,224118.890625,224810.90625,208957.703125,113827.0,1.0,4
219863.125,231408.34375,262800.65625,257780.265625,208630.75,223885.8125,222997.90625,208428.59375,113828.0,1.0,4
219733.84375,231077.078125,262579.0,257487.28125,208284.390625,223796.40625,221783.046875,208170.84375,113829.0,1.0,4
220013.78125,231602.34375,262859.03125,257906.953125,208673.65625,223984.875,222910.828125,208569.765625,113830.0,1.0,4
220308.015625,232247.78125,263244.46875,258446.890625,209250.78125,224189.609375,224778.890625,209056.046875,113831.0,1.0,4
220207.078125,232113.84375,263198.34375,258360.15625,209217.171875,224122.203125,224817.4375,208960.296875,113832.0,1.0,4
219861.875,231404.484375,262793.84375,257778.5625,208632.171875,223887.59375,223000.859375,208425.921875,113833.0,1.0,4
219734.46875,231068.140625,262571.21875,257482.359375,208285.453125,223798.90625,221776.34375,208166.984375,113834.0,1.0,4
220009.390625,231585.0,262847.125,257898.1875,208668.828125,223983.265625,222895.09375,208563.515625,113835.0,1.0,4
220306.5,232229.546875,263239.625,258444.109375,209250.875,224193.1875,224774.15625,209056.40625,113836.0,1.0,4
220209.3125,232107.140625,263202.4375,258361.5,209223.6875,224126.671875,224824.859375,208958.875,113837.0,1.0,4
219869.296875,231407.703125,262804.59375,257783.578125,208642.546875,223888.859375,223013.734375,208427.53125,113838.0,1.0,4
219736.34375,231065.109375,262579.625,257479.5,208284.109375,223795.15625,221773.65625,208165.203125,113839.0,1.0,4
220012.875,231581.609375,262857.59375,257892.921875,208664.09375,223980.9375,222879.359375,208557.875,113840.0,1.0,4
220305.859375,232230.25,263245.71875,258436.6875,209241.9375,224184.4375,224750.828125,209046.84375,113841.0,1.0,4
220210.828125,232118.5,263214.15625,258363.203125,209221.1875,224122.65625,224820.109375,208962.359375,113842.0,1.0,4
219866.515625,231416.203125,262814.25,257784.203125,208639.953125,223885.453125,223016.6875,208430.46875,113843.0,1.0,4
219730.796875,231068.328125,262585.09375,257480.3125,208280.53125,223792.46875,221770.078125,208166.28125,113844.0,1.0,4
220001.890625,231573.921875,262857.0625,257890.0625,208658.734375,223975.578125,222865.59375,208554.65625,113845.0,1.0,4
220298.0,232215.5,263244.8125,258430.25,209234.328125,224175.3125,224736.609375,209041.296875,113846.0,1.0,4
220210.828125,232107.40625,263217.03125,258361.234375,209221.28125,224118.359375,224823.421875,208962.890625,113847.0,1.0,4
219868.84375,231406.375,262819.5,257783.9375,208645.140625,223883.84375,223027.765625,208431.90625,113848.0,1.0,4
219738.671875,231063.9375,262593.5,257480.671875,208290.90625,223793.8125,221774.375,208168.6875,113849.0,1.0,4
220017.078125,231582.5,262868.0625,257894.0,208673.125,223985.234375,222865.328125,208562.890625,113850.0,1.0,4
220306.671875,232225.515625,263247.0625,258430.609375,209243.0,224180.671875,224733.921875,209040.765625,113851.0,1.0,4
220216.90625,232119.75,263217.09375,258362.3125,209227.8125,224121.671875,224829.953125,208958.78125,113852.0,1.0,4
219871.796875,231416.203125,262818.34375,257785.0,208649.25,223886.171875,223036.09375,208431.015625,113853.0,1.0,4
219729.453125,231059.46875,262582.84375,257470.5625,208281.4375,223783.53125,221763.640625,208159.390625,113854.0,1.0,4
219998.578125,231565.78125,262850.1875,257876.015625,208652.03125,223965.203125,222837.875,208543.484375,113855.0,1.0,4
220293.34375,232213.890625,263235.625,258420.6875,209228.515625,224169.328125,224719.359375,209032.359375,113856.0,1.0,4
220207.609375,232118.578125,263213.53125,258363.921875,209224.5,224118.359375,224838.359375,208958.953125,113857.0,1.0,4
219863.65625,231419.875,262813.15625,257788.140625,208648.09375,223885.359375,223050.125,208429.9375,113858.0,1.0,4
219721.328125,231058.046875,262575.25,257470.734375,208279.828125,223784.875,221770.71875,208157.875,113859.0,1.0,4
219988.65625,231556.75,262841.5,257868.515625,208648.984375,223964.84375,222833.578125,208541.703125,113860.0,1.0,4
220282.078125,232202.984375,263228.28125,258412.46875,209227.171875,224165.03125,224710.859375,209029.046875,113861.0,1.0,4
220204.390625,232113.84375,263211.375,258360.34375,209226.28125,224116.03125,224839.15625,208960.75,113862.0,1.0,4
219870.90625,231423.453125,262821.125,257791.53125,208654.96875,223885.28125,223058.4375,208439.140625,113863.0,1.0,4
219725.890625,231054.828125,262581.15625,257470.296875,208281.4375,223778.875,221763.46875,208157.515625,113864.0,1.0,4
219997.6875,231556.578125,262849.28125,257870.84375,208649.4375,223959.84375,222815.875,208536.0625,113865.0,1.0,4
220302.296875,232218.546875,263244.03125,258423.375,209234.78125,224171.203125,224705.40625,209032.546875,113866.0,1.0,4
220219.5,232127.171875,263222.28125,258369.1875,209231.65625,224119.875,224842.90625,208962.09375,113867.0,1.0,4
219879.125,231429.890625,262828.1875,257797.96875,208658.8125,223887.953125,223066.84375,208437.09375,113868.0,1.0,4
219732.328125,231055.71875,262584.09375,257469.75,208279.90625,223785.3125,221761.859375,208153.671875,113869.0,1.0,4
220002.953125,231549.59375,262853.40625,257867.96875,208647.015625,223968.421875,222807.828125,208537.3125,113870.0,1.0,4
220304.796875,232206.390625,263248.65625,258418.28125,209230.578125,224175.484375,224700.125,209036.109375,113871.0,1.0,4
220223.515625,232122.703125,263228.09375,258363.921875,209230.3125,224123.90625,224848.71875,208971.296875,113872.0,1.0,4
219882.53125,231434.359375,262831.75,257790.90625,208657.75,223891.625,223076.328125,208445.140625,113873.0,1.0,4
219729.375,231063.046875,262585.90625,257464.21875,208278.296875,223789.078125,221766.78125,208158.765625,113874.0,1.0,4
219988.734375,231551.484375,262839.4375,257853.9375,208633.78125,223966.1875,222795.84375,208529.53125,113875.0,1.0,4
220287.984375,232210.765625,263228.1875,258405.3125,209217.53125,224171.640625,224689.484375,209027.359375,113876.0,1.0,4
220211.8125,232131.546875,263215.3125,258361.40625,209228.25,224122.109375,224860.609375,208971.65625,113877.0,1.0,4
219865.71875,231427.296875,262816.5625,257786.34375,208651.84375,223883.578125,223088.5625,208442.453125,113878.0,1.0,4
219714.4375,231044.0,262566.75,257454.015625,208263.8125,223778.796875,221762.125,208152.15625,113879.0,1.0,4
219980.609375,231533.15625,262827.28125,257849.375,208621.171875,223962.796875,222784.40625,208529.0,113880.0,1.0,4
220282.4375,232193.328125,263218.96875,258400.578125,209204.375,224169.328125,224679.5625,209026.546875,113881.0,1.0,4
220209.75,232119.84375,263208.0,258359.71875,209217.078125,224120.6875,224864.453125,208969.234375,113882.0,1.0,4
219870.71875,231424.875,262814.875,257789.296875,208648.625,223887.59375,223102.609375,208445.140625,113883.0,1.0,4
219712.5625,231040.0625,262561.40625,257449.546875,208259.171875,223774.046875,221764.0,208149.640625,113884.0,1.0,4
219977.828125,231532.875,262822.65625,257840.890625,208620.90625,223955.8125,222775.46875,208522.390625,113885.0,1.0,4
220281.375,232196.015625,263220.5,258396.8125,209213.328125,224166.640625,224677.328125,209023.78125,113886.0,1.0,4
220207.875,232123.859375,263212.90625,258358.640625,209229.234375,224119.703125,224867.859375,208969.859375,113887.0,1.0,4
219869.734375,231432.125,262823.1875,257791.265625,208663.640625,223890.109375,223111.1875,208447.8125,113888.0,1.0,4
219723.109375,231051.875,262579.90625,257458.84375,208282.78125,223788.453125,221777.953125,208158.140625,113889.0,1.0,4
219979.171875,231526.4375,262829.25,257838.828125,208627.265625,223959.578125,222768.578125,208523.546875,113890.0,1.0,4
220281.734375,232187.421875,263224.53125,258394.40625,209213.40625,224166.453125,224666.328125,209029.671875,113891.0,1.0,4
220212.171875,232124.75,263222.8125,258364.625,209239.96875,224122.375,224878.5,208980.859375,113892.0,1.0,4
219876.71875,231439.890625,262835.34375,257800.5625,208677.859375,223893.140625,223127.546875,208456.3125,113893.0,1.0,4
219721.140625,231053.5625,262584.375,257461.53125,208288.40625,223784.6875,221775.453125,208156.703125,113894.0,1.0,4
219983.734375,231532.171875,262835.78125,257841.78125,208634.859375,223962.609375,222756.0625,208513.625,113895.0,1.0,4
220289.421875,232196.8125,263229.90625,258400.578125,209223.421875,224173.34375,224658.828125,209018.59375,113896.0,1.0,4
220224.15625,232139.328125,263225.5,258373.484375,209249.359375,224127.84375,224882.796875,208977.015625,113897.0,1.0,4
219889.140625,231449.90625,262835.78125,257809.140625,208686.359375,223894.484375,223138.375,208457.390625,113898.0,1.0,4
219729.734375,231054.109375,262579.8125,257464.75,208291.453125,223783.796875,221777.0625,208157.515625,113899.0,1.0,4
219982.65625,231522.421875,262822.8125,257838.46875,208630.390625,223954.5625,222746.046875,208515.40625,113900.0,1.0,4
220288.796875,232191.546875,263216.46875,258395.203125,209217.96875,224166.90625,224650.328125,209020.46875,113901.0,1.0,4
220227.453125,232144.609375,263223.625,258374.640625,209252.65625,224130.703125,224893.078125,208986.3125,113902.0,1.0,4
219887.625,231454.203125,262834.90625,257807.890625,208685.828125,223895.828125,223149.1875,208466.328125,113903.0,1.0,4
219724.8125,231054.546875,262576.5,257460.453125,208286.890625,223785.765625,221778.484375,208161.359375,113904.0,1.0,4
219977.46875,231519.203125,262821.03125,257833.46875,208624.671875,223961.890625,222737.46875,208518.625,113905.0,1.0,4
220290.671875,232193.15625,263223.0,258396.375,209217.96875,224175.765625,224645.234375,209026.015625,113906.0,1.0,4
220232.90625,232151.046875,263230.6875,258379.46875,209255.34375,224135.34375,224900.21875,208992.75,113907.0,1.0,4
219894.5,231462.78125,262843.65625,257813.171875,208694.9375,223904.40625,223165.28125,208469.546875,113908.0,1.0,4
219727.140625,231055.71875,262581.875,257456.875,208288.140625,223787.015625,221777.421875,208156.078125,113909.0,1.0,4
219983.734375,231523.765625,262827.8125,257825.0625,208622.515625,223958.953125,222725.75,208510.765625,113910.0,1.0,4
220288.875,232191.625,263223.1875,258382.953125,209213.140625,224169.59375,224635.84375,209018.140625,113911.0,1.0,4
220223.703125,232143.078125,263223.28125,258359.265625,209246.140625,224126.578125,224892.53125,208982.65625,113912.0,1.0,4
219891.015625,231464.578125,262842.59375,257800.65625,208692.25,223899.9375,223167.78125,208470.703125,113913.0,1.0,4
219725.171875,231057.0625,262579.8125,257446.15625,208289.65625,223783.796875,221775.453125,208154.5625,113914.0,1.0,4
219977.296875,231516.15625,262820.6875,257813.96875,208621.09375,223952.0625,222711.0,208504.6875,113915.0,1.0,4
220290.125,232188.6875,263222.125,258380.28125,209219.578125,224164.40625,224627.53125,209017.4375,113916.0,1.0,4
220234.4375,232149.703125,263231.84375,258368.828125,209262.9375,224128.015625,224902.28125,208987.5625,113917.0,1.0,4
219893.078125,231462.609375,262840.96875,257802.34375,208697.53125,223896.359375,223170.640625,208465.515625,113918.0,1.0,4
219723.375,231050.171875,262576.59375,257443.46875,208290.90625,223784.515625,221772.765625,208152.421875,113919.0,1.0,4
219979.53125,231513.21875,262823.96875,257811.375,208627.265625,223957.875,222705.109375,208506.828125,113920.0,1.0,4
220287.984375,232179.375,263219.15625,258371.96875,209219.140625,224168.34375,224613.9375,209014.5625,113921.0,1.0,4
220231.5625,232145.140625,263230.34375,258364.28125,209262.9375,224128.90625,224901.75,208989.359375,113922.0,1.0,4
219898.796875,231468.859375,262847.0625,257805.84375,208706.734375,223899.140625,223186.03125,208474.8125,113923.0,1.0,4
219729.8125,231057.5,262579.90625,257443.734375,208296.71875,223781.5625,221782.328125,208156.984375,113924.0,1.0,4
219976.3125,231508.296875,262814.15625,257800.203125,208616.625,223947.59375,222690.625,208499.765625,113925.0,1.0,4
220287.453125,232181.703125,263211.375,258362.03125,209204.828125,224162.890625,224602.3125,209007.859375,113926.0,1.0,4
220235.859375,232150.859375,263226.59375,258357.921875,209255.34375,224130.78125,224909.515625,208985.953125,113927.0,1.0,4
219898.34375,231468.78125,262839.28125,257798.15625,208694.5,223895.015625,223192.375,208473.65625,113928.0,1.0,4
219729.640625,231051.609375,262572.9375,257438.015625,208281.25,223777.265625,221774.109375,208156.53125,113929.0,1.0,4
219979.625,231501.59375,262811.28125,257795.734375,208602.140625,223947.328125,222675.0625,208494.9375,113930.0,1.0,4
220289.953125,232178.125,263211.125,258360.78125,209197.046875,224164.671875,224590.25,208999.640625,113931.0,1.0,4
220239.53125,232154.53125,263229.90625,258363.015625,209255.25,224131.953125,224912.46875,208980.140625,113932.0,1.0,4
219903.71875,231473.25,262844.46875,257804.859375,208700.65625,223895.734375,223203.8125,208465.703125,113933.0,1.0,4
219729.546875,231049.8125,262572.75,257438.109375,208281.34375,223773.421875,221775.625,208144.015625,113934.0,1.0,4
219975.859375,231495.234375,262805.3125,257795.734375,208596.859375,223942.5,222664.609375,208488.046875,113935.0,1.0,4
220294.15625,232175.984375,263207.53125,258367.671875,209197.578125,224161.1875,224588.1875,209001.96875,113936.0,1.0,4
220245.421875,232156.21875,263227.46875,258372.3125,209259.015625,224130.703125,224919.71875,208989.71875,113937.0,1.0,4
219905.6875,231474.046875,262842.125,257811.015625,208705.671875,223896.359375,223212.671875,208475.53125,113938.0,1.0,4
219729.734375,231053.390625,262570.78125,257439.71875,208292.421875,223775.75,221782.6875,208145.09375,113939.0,1.0,4
219969.25,231493.90625,262800.125,257789.296875,208609.5625,223938.390625,222661.296875,208481.703125,113940.0,1.0,4
220279.21875,232170.4375,263200.65625,258356.40625,209205.546875,224155.015625,224579.078125,208997.21875,113941.0,1.0,4
220234.515625,232157.828125,263227.65625,258367.21875,209273.046875,224132.21875,224929.453125,208989.453125,113942.0,1.0,4
219900.234375,231483.890625,262845.96875,257811.203125,208721.765625,223901.640625,223234.21875,208475.71875,113943.0,1.0,4
219719.53125,231053.484375,262568.90625,257435.515625,208297.25,223778.171875,221786.796875,208143.828125,113944.0,1.0,4
219956.28125,231484.78125,262790.8125,257779.640625,208601.515625,223939.015625,222644.484375,208474.640625,113945.0,1.0,4
220276.359375,232171.25,263196.09375,258349.875,209195.625,224157.609375,224564.953125,208991.40625,113946.0,1.0,4
220232.734375,232161.046875,263223.90625,258366.59375,209265.0,224130.703125,224927.21875,208988.46875,113947.0,1.0,4
219892.8125,231477.0,262839.625,257810.125,208715.0625,223897.25,223234.296875,208475.890625,113948.0,1.0,4
219713.09375,231038.546875,262558.90625,257431.484375,208285.90625,223772.890625,221779.46875,208143.390625,113949.0,1.0,4
219959.0625,231478.96875,262783.40625,257776.78125,208592.75,223937.046875,222632.234375,208473.84375,113950.0,1.0,4
220278.234375,232169.375,263188.9375,258351.046875,209193.03125,224158.0625,224558.6875,208991.859375,113951.0,1.0,4
220235.421875,232166.15625,263218.28125,258368.390625,209264.546875,224134.1875,224933.75,208990.96875,113952.0,1.0,4
219898.4375,231488.171875,262836.84375,257811.5625,208714.15625,223905.125,223250.03125,208481.4375,113953.0,1.0,4
219719.53125,231054.109375,262557.8125,257431.3125,208286.34375,223779.328125,221789.484375,208149.828125,113954.0,1.0,4
219960.21875,231484.78125,262778.46875,257772.578125,208586.75,223938.921875,222625.171875,208478.125,113955.0,1.0,4
220278.0625,232169.546875,263185.0,258347.46875,209187.125,224161.09375,224553.234375,208996.953125,113956.0,1.0,4
220235.953125,232167.140625,263218.09375,258368.921875,209263.390625,224141.15625,224940.546875,208997.578125,113957.0,1.0,4
219899.25,231489.078125,262839.0,257814.6875,208715.765625,223912.09375,223260.765625,208486.4375,113958.0,1.0,4
219719.890625,231053.921875,262564.6875,257436.765625,208289.03125,223785.40625,221794.046875,208152.234375,113959.0,1.0,4
219953.96875,231476.640625,262781.15625,257771.140625,208583.265625,223941.421875,222615.609375,208474.28125,113960.0,1.0,4
220266.890625,232153.640625,263182.59375,258341.828125,209180.515625,224158.140625,224538.390625,208990.96875,113961.0,1.0,4
220234.34375,232163.828125,263223.375,258371.6875,209267.765625,224141.78125,224947.4375,209001.875,113962.0,1.0,4
219902.8125,231492.375,262847.0625,257822.46875,208726.765625,223912.453125,223277.3125,208497.625,113963.0,1.0,4
219721.59375,231049.640625,262565.25,257436.765625,208296.09375,223787.734375,221797.171875,208154.296875,113964.0,1.0,4
219954.046875,231465.203125,262779.5625,257768.28125,208587.203125,223941.15625,222606.9375,208472.234375,113965.0,1.0,4
220276.265625,232154.796875,263184.90625,258341.921875,209188.015625,224155.46875,224533.5625,208991.5,113966.0,1.0,4
220242.296875,232168.65625,263225.6875,258375.265625,209276.890625,224138.65625,224952.4375,209002.953125,113967.0,1.0,4
219901.03125,231490.859375,262844.53125,257822.46875,208732.765625,223908.34375,223286.421875,208492.609375,113968.0,1.0,4
219710.421875,231036.21875,262553.15625,257427.828125,208291.71875,223773.875,221793.78125,208145.4375,113969.0,1.0,4
219944.21875,231452.234375,262764.25,257758.359375,208582.90625,223928.453125,222592.8125,208461.140625,113970.0,1.0,4
220266.4375,232141.5625,263168.90625,258333.609375,209182.390625,224147.234375,224518.28125,208982.109375,113971.0,1.0,4
220236.390625,232159.09375,263212.625,258371.421875,209274.125,224132.9375,224952.609375,209000.796875,113972.0,1.0,4
219901.921875,231488.4375,262835.34375,257822.015625,208732.671875,223902.890625,223296.53125,208491.8125,113973.0,1.0,4
219713.015625,231034.4375,262547.28125,257428.890625,208291.453125,223774.953125,221798.875,208146.703125,113974.0,1.0,4
219946.890625,231452.234375,262759.53125,257755.5,208577.1875,223932.03125,222586.734375,208462.921875,113975.0,1.0,4
220266.4375,232143.53125,263167.9375,258330.921875,209177.640625,224150.09375,224516.75,208977.90625,113976.0,1.0,4
220237.296875,232163.015625,263212.1875,258370.0,209271.4375,224133.375,224961.46875,208993.828125,113977.0,1.0,4
219902.640625,231492.828125,262837.21875,257819.875,208729.625,223903.875,223306.640625,208487.15625,113978.0,1.0,4
219711.125,231036.9375,262546.65625,257423.625,208281.96875,223773.515625,221799.046875,208137.9375,113979.0,1.0,4
219941.4375,231444.1875,262755.3125,257748.796875,208565.03125,223927.296875,222574.03125,208451.75,113980.0,1.0,4
220265.546875,232137.0,263164.625,258327.609375,209168.625,224150.1875,224503.96875,208976.296875,113981.0,1.0,4
220243.640625,232169.453125,263217.5625,258373.21875,209270.625,224140.078125,224963.4375,208999.1875,113982.0,1.0,4
219907.734375,231497.390625,262840.875,257825.953125,208730.34375,223912.015625,223317.09375,208494.9375,113983.0,1.0,4
219711.578125,231027.90625,262545.84375,257426.125,208282.234375,223774.140625,221799.765625,208145.09375,113984.0,1.0,4
219941.53125,231437.21875,262752.375,257744.953125,208562.4375,223928.546875,222563.84375,208456.046875,113985.0,1.0,4
220261.796875,232128.953125,263159.0,258319.5625,209164.328125,224147.234375,224491.453125,208978.1875,113986.0,1.0,4
220240.78125,232163.46875,263212.46875,258370.625,209270.28125,224133.46875,224959.671875,209004.90625,113987.0,1.0,4
219910.421875,231493.8125,262839.09375,257825.234375,208732.40625,223906.375,223318.796875,208500.921875,113988.0,1.0,4
219714.625,231028.796875,262545.75,257426.75,208288.234375,223777.1875,221800.9375,208149.015625,113989.0,1.0,4
219946.8125,231439.0,262759.875,257753.984375,208573.96875,223935.703125,222564.28125,208462.84375,113990.0,1.0,4
220269.65625,232135.3125,263167.3125,258331.8125,209175.328125,224153.40625,224494.046875,208986.859375,113991.0,1.0,4
220249.1875,232173.03125,263217.09375,258379.296875,209277.15625,224138.296875,224968.890625,209011.796875,113992.0,1.0,4
219919.546875,231510.796875,262849.1875,257838.65625,208747.515625,223911.5625,223341.140625,208508.703125,113993.0,1.0,4
219720.25,231040.6875,262554.59375,257431.671875,208296.453125,223776.640625,221808.890625,208146.96875,113994.0,1.0,4
219946.8125,231440.609375,262760.78125,257746.828125,208570.578125,223928.734375,222547.84375,208451.578125,113995.0,1.0,4
220275.015625,232143.078125,263173.03125,258327.53125,209174.609375,224152.609375,224480.546875,208981.84375,113996.0,1.0,4
220261.515625,232195.125,263236.78125,258389.484375,209295.84375,224151.890625,224987.390625,209021.8125,113997.0,1.0,4
219929.640625,231530.828125,262865.90625,257845.984375,208762.703125,223924.171875,223364.5625,208511.125,113998.0,1.0,4
219731.875,231057.0625,262568.5625,257438.109375,208306.828125,223790.421875,221828.28125,208147.859375,113999.0,1.0,4
219955.921875,231452.0625,262765.25,257744.765625,208573.25,223938.390625,222553.109375,208450.234375,114000.0,1.0,4
220277.875,232144.78125,263167.84375,258319.84375,209171.921875,224157.609375,224480.453125,208975.5,114001.0,1.0,4
220257.5,232188.953125,263225.15625,258377.78125,209286.359375,224150.09375,224987.3125,209012.25,114002.0,1.0,4
219927.859375,231529.296875,262860.375,257841.328125,208761.1875,223930.25,223377.265625,208517.90625,114003.0,1.0,4
219721.40625,231048.109375,262555.0625,257425.40625,208297.078125,223784.421875,221822.5625,208148.3125,114004.0,1.0,4
219939.484375,231435.96875,262750.84375,257729.3125,208555.640625,223925.234375,222530.40625,208442.28125,114005.0,1.0,4
220260.625,232128.78125,263154.96875,258305.09375,209153.328125,224144.734375,224458.109375,208962.09375,114006.0,1.0,4
220245.515625,232181.078125,263216.375,258369.375,209274.5625,224139.109375,224981.40625,209002.328125,114007.0,1.0,4
219912.65625,231518.3125,262846.59375,257831.5,208745.09375,223909.59375,223367.34375,208503.25,114008.0,1.0,4
219709.875,231039.796875,262547.90625,257420.5,208286.0,223772.984375,221815.234375,208142.21875,114009.0,1.0,4
219929.90625,231426.046875,262745.125,257724.390625,208548.84375,223920.765625,222518.421875,208437.265625,114010.0,1.0,4
220251.78125,232114.03125,263149.0625,258299.1875,209145.546875,224138.5625,224441.921875,208956.90625,114011.0,1.0,4
220245.0625,232177.0625,263221.40625,258373.125,209275.453125,224136.421875,224982.75,209007.78125,114012.0,1.0,4
219921.953125,231526.0,262858.3125,257839.984375,208753.5,223913.4375,223383.078125,208514.421875,114013.0,1.0,4
219716.234375,231044.265625,262552.90625,257422.28125,208290.546875,223771.015625,221819.53125,208146.421875,114014.0,1.0,4
219929.375,231424.703125,262745.125,257721.703125,208548.484375,223917.015625,222508.859375,208433.15625,114015.0,1.0,4
220261.609375,232132.0,263161.9375,258308.84375,209160.296875,224147.421875,224450.859375,208962.171875,114016.0,1.0,4
220253.46875,232193.859375,263229.4375,258382.25,209289.046875,224145.8125,225002.421875,209011.078125,114017.0,1.0,4
219925.625,231537.171875,262863.0625,257846.875,208764.671875,223926.40625,223407.65625,208515.40625,114018.0,1.0,4
219721.328125,231055.359375,262558.25,257430.859375,208298.421875,223782.8125,221836.96875,208146.96875,114019.0,1.0,4
219931.609375,231421.921875,262740.84375,257719.828125,208543.21875,223915.234375,222503.140625,208431.015625,114020.0,1.0,4
220256.875,232113.046875,263148.71875,258297.390625,209145.109375,224137.046875,224431.28125,208957.53125,114021.0,1.0,4
220257.9375,232184.921875,263225.78125,258378.578125,209286.359375,224142.59375,224999.640625,209015.734375,114022.0,1.0,4
219926.515625,231526.0,262859.75,257843.5625,208763.609375,223913.265625,223406.953125,208519.609375,114023.0,1.0,4
219716.765625,231037.390625,262551.28125,257422.8125,208296.453125,223770.125,221828.828125,208143.125,114024.0,1.0,4
219929.203125,231408.515625,262735.65625,257714.828125,208543.21875,223914.25,222488.46875,208427.171875,114025.0,1.0,4
220262.5,232115.015625,263145.5,258301.328125,209147.25,224145.453125,224425.203125,208958.875,114026.0,1.0,4
220262.0625,232193.421875,263221.21875,258386.265625,209288.515625,224145.625,225010.546875,209017.609375,114027.0,1.0,4
219936.96875,231540.75,262858.0625,257854.125,208766.375,223921.03125,223426.171875,208527.296875,114028.0,1.0,4
219728.65625,231048.03125,262553.78125,257431.578125,208299.3125,223782.453125,221841.4375,208154.296875,114029.0,1.0,4
219937.6875,231408.875,262739.3125,257715.71875,208540.71875,223923.8125,222486.765625,208432.890625,114030.0,1.0,4
220272.34375,232114.65625,263152.71875,258298.921875,209144.75,224151.078125,224417.25,208963.609375,114031.0,1.0,4
220276.71875,232204.328125,263236.25,258390.46875,209292.265625,224155.640625,225010.90625,209027.171875,114032.0,1.0,4
219948.859375,231557.28125,262876.03125,257860.46875,208775.578125,223931.3125,223436.8125,208533.921875,114033.0,1.0,4
219731.875,231058.84375,262561.65625,257429.34375,208301.546875,223786.921875,221839.90625,208151.609375,114034.0,1.0,4
219933.484375,231418.4375,262738.25,257706.953125,208538.75,223927.921875,222473.453125,208427.171875,114035.0,1.0,4
220265.09375,232126.09375,263149.6875,258292.5625,209145.109375,224159.21875,224409.5625,208962.71875,114036.0,1.0,4
220265.1875,232210.40625,263226.75,258379.5625,209286.28125,224162.34375,225013.140625,209029.046875,114037.0,1.0,4
219933.9375,231557.5625,262862.0625,257845.984375,208762.078125,223939.71875,223442.890625,208534.09375,114038.0,1.0,4
219721.953125,231058.84375,262549.875,257418.609375,208286.4375,223795.328125,221845.90625,208153.40625,114039.0,1.0,4
219921.5,231406.640625,262721.15625,257691.84375,208513.09375,223926.140625,222463.890625,208422.515625,114040.0,1.0,4
220251.5,232105.984375,263131.28125,258275.5,209113.625,224148.125,224393.90625,208950.640625,114041.0,1.0,4
220262.953125,232204.140625,263219.53125,258376.609375,209271.25,224157.25,225023.421875,209019.3125,114042.0,1.0,4
219933.3125,231552.8125,262856.625,257848.65625,208756.8125,223928.375,223469.0,208526.40625,114043.0,1.0,4
219717.21875,231046.78125,262538.78125,257415.84375,208281.4375,223775.03125,221863.96875,208140.265625,114044.0,1.0,4
219922.765625,231398.0625,262713.375,257692.015625,208519.171875,223910.578125,222476.40625,208411.78125,114045.0,1.0,4
220255.078125,232100.53125,263124.84375,258275.671875,209128.75,224138.75,224410.453125,208945.28125,114046.0,1.0,4
220262.421875,232196.453125,263212.28125,258374.828125,209287.265625,224149.828125,225043.28125,209022.796875,114047.0,1.0,4
219940.015625,231557.28125,262859.75,257855.71875,208779.25,223929.4375,223500.203125,208540.71875,114048.0,1.0,4
219716.140625,231045.4375,262539.03125,257412.984375,208286.171875,223774.40625,221877.1875,208147.953125,114049.0,1.0,4
219921.859375,231396.890625,262710.15625,257685.5,208508.265625,223912.453125,222468.984375,208416.34375,114050.0,1.0,4
220257.40625,232106.78125,263121.71875,258276.296875,209114.078125,224141.609375,224401.0625,208952.078125,114051.0,1.0,4
220271.4375,232212.90625,263215.125,258388.765625,209279.65625,224157.609375,225051.046875,209036.5625,114052.0,1.0,4
219945.109375,231568.46875,262857.6875,257866.09375,208770.484375,223936.859375,223506.1875,208549.109375,114053.0,1.0,4
219724.28125,231057.0625,262538.15625,257428.09375,208285.71875,223784.78125,221881.578125,208159.03125,114054.0,1.0,4
219919.1875,231396.265625,262702.125,257693.359375,208506.5625,223915.046875,222458.515625,208419.75,114055.0,1.0,4
220259.90625,232112.59375,263119.90625,258287.5625,209118.90625,224148.125,224393.734375,208959.3125,114056.0,1.0,4
220274.03125,232219.890625,263215.3125,258398.78125,209284.9375,224157.875,225048.640625,209044.15625,114057.0,1.0,4
219948.234375,231576.875,262861.34375,257877.71875,208771.734375,223935.25,223503.5,208558.59375,114058.0,1.0,4
219725.96875,231062.0625,262543.0625,257438.90625,208284.296875,223782.015625,221874.515625,208166.1875,114059.0,1.0,4
219926.15625,231406.1875,262707.3125,257703.5625,208504.953125,223914.6875,222444.21875,208425.28125,114060.0,1.0,4
220261.875,232118.578125,263120.625,258293.734375,209114.078125,224145.546875,224374.0625,208960.296875,114061.0,1.0,4
220271.796875,232225.0625,263212.28125,258402.8125,209279.296875,224157.078125,225037.109375,209043.265625,114062.0,1.0,4
219955.21875,231591.984375,262866.09375,257892.46875,208784.171875,223945.0,223512.890625,208566.90625,114063.0,1.0,4
219736.515625,231080.65625,262547.1875,257454.203125,208303.25,223795.328125,221877.640625,208174.859375,114064.0,1.0,4
219931.4375,231410.296875,262712.59375,257714.734375,208520.6875,223926.140625,222432.765625,208432.796875,114065.0,1.0,4
220264.65625,232115.1875,263124.46875,258301.0625,209123.828125,224152.515625,224359.125,208966.015625,114066.0,1.0,4
220282.4375,232233.203125,263221.75,258416.484375,209295.046875,224167.53125,225039.96875,209053.28125,114067.0,1.0,4
219960.3125,231597.703125,262875.21875,257900.34375,208798.5625,223950.90625,223523.171875,208572.984375,114068.0,1.0,4
219736.078125,231080.484375,262555.9375,257454.734375,208310.046875,223799.796875,221881.84375,208174.234375,114069.0,1.0,4
219929.640625,231412.625,262716.53125,257709.71875,208521.578125,223929.078125,222423.296875,208425.28125,114070.0,1.0,4
220260.625,232115.8125,263126.4375,258295.515625,209128.5625,224158.0625,224349.03125,208957.34375,114071.0,1.0,4
220277.703125,232233.203125,263227.84375,258415.5,209308.09375,224172.1875,225044.4375,209051.671875,114072.0,1.0,4
219960.3125,231602.4375,262882.09375,257902.75,208810.984375,223949.921875,223533.453125,208575.765625,114073.0,1.0,4
219732.046875,231075.5625,262556.75,257452.328125,208317.28125,223792.921875,221881.84375,208172.625,114074.0,1.0,4
219918.203125,231394.390625,262713.65625,257699.53125,208522.296875,223923.0,222408.71875,208411.078125,114075.0,1.0,4
220256.0625,232109.015625,263132.15625,258292.84375,209134.203125,224157.078125,224339.375,208948.234375,114076.0,1.0,4
220282.171875,232238.5625,263237.65625,258418.0,209313.015625,224169.5,225045.328125,209042.640625,114077.0,1.0,4
219959.765625,231604.40625,262886.65625,257900.875,208809.828125,223947.59375,223538.375,208565.84375,114078.0,1.0,4
219722.9375,231071.546875,262554.40625,257441.953125,208308.34375,223783.53125,221877.375,208159.21875,114079.0,1.0,4
219908.8125,231387.140625,262706.875,257685.046875,208505.3125,223908.4375,222389.9375,208405.34375,114080.0,1.0,4
220256.6875,232111.703125,263129.9375,258283.71875,209123.203125,224148.3125,224331.59375,208951.625,114081.0,1.0,4
220282.53125,232242.765625,263235.4375,258411.75,209308.71875,224164.21875,225050.15625,209048.8125,114082.0,1.0,4
219962.546875,231610.671875,262885.6875,257897.21875,208810.28125,223940.890625,223545.078125,208566.640625,114083.0,1.0,4
219729.546875,231075.828125,262554.40625,257440.875,208307.359375,223780.140625,221874.515625,208156.703125,114084.0,1.0,4
219915.0625,231387.765625,262705.6875,257683.34375,208507.359375,223906.640625,222374.46875,208396.953125,114085.0,1.0,4
220251.234375,232098.921875,263120.625,258271.828125,209116.84375,224140.078125,224301.546875,208935.890625,114086.0,1.0,4
220280.390625,232239.90625,263235.25,258410.046875,209311.21875,224165.828125,225043.453125,209045.859375,114087.0,1.0,4
219959.328125,231611.5625,262885.125,257895.421875,208812.953125,223943.03125,223549.90625,208570.484375,114088.0,1.0,4
219729.734375,231086.734375,262557.375,257440.078125,208315.234375,223783.53125,221883.359375,208166.359375,114089.0,1.0,4
219908.625,231391.171875,262700.875,257673.609375,208502.453125,223901.640625,222365.71875,208397.125,114090.0,1.0,4
220251.0625,232106.25,263119.84375,258272.453125,209117.921875,224142.671875,224303.4375,208939.828125,114091.0,1.0,4
220277.171875,232241.4375,263229.1875,258407.453125,209310.328125,224165.390625,225047.390625,209044.515625,114092.0,1.0,4
219961.203125,231614.234375,262881.90625,257897.21875,208818.953125,223944.640625,223561.984375,208570.671875,114093.0,1.0,4
219726.515625,231073.15625,262549.0625,257436.046875,208313.890625,223775.484375,221881.21875,208160.28125,114094.0,1.0,4
219910.859375,231379.8125,262698.46875,257674.765625,208506.734375,223895.296875,222359.359375,208394.796875,114095.0,1.0,4
220250.34375,232092.75,263112.15625,258263.78125,209114.890625,224124.96875,224281.4375,208928.03125,114096.0,1.0,4
220281.90625,232240.453125,263226.75,258405.40625,209315.875,224150.28125,225041.671875,209042.28125,114097.0,1.0,4
219964.78125,231612.546875,262882.53125,257897.390625,208829.9375,223937.484375,223570.5625,208571.5625,114098.0,1.0,4
219732.328125,231072.25,262552.375,257436.140625,208328.375,223777.453125,221891.859375,208158.59375,114099.0,1.0,4
219911.9375,231374.359375,262696.3125,257669.3125,208514.25,223894.484375,222353.015625,208391.3125,114100.0,1.0,4
220250.171875,232090.78125,263112.0625,258263.59375,209126.15625,224128.46875,224281.96875,208931.421875,114101.0,1.0,4
220274.21875,232232.9375,263225.0625,258401.203125,209315.875,224148.484375,225045.6875,209036.296875,114102.0,1.0,4
219958.25,231608.875,262884.0625,257895.875,208823.78125,223933.5625,223579.59375,208569.40625,114103.0,1.0,4
219722.046875,231067.421875,262550.21875,257432.390625,208314.953125,223775.65625,221892.9375,208159.125,114104.0,1.0,4
219903.09375,231371.765625,262693.625,257662.96875,208498.25,223899.3125,222345.328125,208386.84375,114105.0,1.0,4
220242.75,232089.625,263106.5,258256.0,209106.75,224130.875,224268.203125,208923.90625,114106.0,1.0,4
220278.234375,232245.453125,263227.03125,258404.0625,209313.28125,224158.859375,225055.53125,209041.578125,114107.0,1.0,4
219964.6875,231630.15625,262889.4375,257902.046875,208830.5625,223942.9375,223600.421875,208576.03125,114108.0,1.0,4
219725.34375,231084.140625,262553.875,257434.984375,208319.703125,223776.921875,221901.78125,208161.625,114109.0,1.0,4
219902.734375,231377.578125,262695.875,257660.28125,208497.171875,223894.75,222337.90625,208390.953125,114110.0,1.0,4
220239.53125,232089.34375,263108.5625,258248.484375,209100.84375,224128.46875,224256.140625,208932.40625,114111.0,1.0,4
220273.5,232240.265625,263229.25,258397.265625,209305.59375,224157.25,225048.1875,209046.578125,114112.0,1.0,4
219956.546875,231617.015625,262883.96875,257896.046875,208816.796875,223938.921875,223594.4375,208575.578125,114113.0,1.0,4
219720.4375,231073.6875,262547.1875,257431.40625,208308.515625,223777.890625,221897.046875,208157.421875,114114.0,1.0,4
219896.390625,231365.875,262684.34375,257654.203125,208484.390625,223894.21875,222322.625,208379.953125,114115.0,1.0,4
220237.375,232080.40625,263097.5625,258247.234375,209092.984375,224128.015625,224243.53125,208922.296875,114116.0,1.0,4
220280.125,232246.890625,263225.6875,258406.390625,209308.8125,224161.546875,225057.3125,209049.96875,114117.0,1.0,4
219962.90625,231626.40625,262883.25,257900.78125,208823.328125,223940.171875,223611.6875,208579.34375,114118.0,1.0,4
219722.9375,231073.953125,262545.3125,257427.46875,208307.8125,223773.875,221903.296875,208156.796875,114119.0,1.0,4
219903.453125,231365.875,262688.34375,257650.265625,208485.375,223896.09375,222320.203125,208378.265625,114120.0,1.0,4
220242.75,232079.421875,263101.875,258241.421875,209095.03125,224128.1875,224239.328125,208916.671875,114121.0,1.0,4
220282.171875,232246.078125,263227.75,258399.671875,209309.609375,224156.984375,225059.8125,209044.078125,114122.0,1.0,4
219969.609375,231636.40625,262891.40625,257902.21875,208832.359375,223945.359375,223628.671875,208583.0,114123.0,1.0,4
219725.609375,231078.515625,262548.96875,257428.09375,208317.015625,223777.71875,221915.640625,208162.34375,114124.0,1.0,4
219899.25,231357.203125,262682.90625,257645.359375,208488.5,223893.5,222312.96875,208377.640625,114125.0,1.0,4
220239.890625,232068.515625,263096.75,258236.515625,209097.265625,224127.5625,224224.75,208914.703125,114126.0,1.0,4
220291.390625,232248.671875,263230.875,258403.609375,209321.953125,224163.234375,225060.0,209049.34375,114127.0,1.0,4
219982.390625,231643.125,262899.25,257910.625,208846.390625,223950.453125,223637.171875,208590.328125,114128.0,1.0,4
219738.046875,231090.40625,262558.625,257438.546875,208329.359375,223786.125,221923.234375,208165.734375,114129.0,1.0,4
219905.5,231364.703125,262686.125,257650.625,208489.84375,223898.953125,222307.25,208378.890625,114130.0,1.0,4
220240.515625,232072.8125,263094.34375,258238.828125,209093.34375,224127.921875,224216.4375,208919.890625,114131.0,1.0,4
220290.84375,232259.40625,263231.78125,258411.5625,209325.703125,224168.34375,225068.3125,209060.078125,114132.0,1.0,4
219974.703125,231645.4375,262893.28125,257915.546875,208848.0,223952.515625,223645.125,208597.21875,114133.0,1.0,4
219728.296875,231083.15625,262545.03125,257435.15625,208324.34375,223781.109375,221916.984375,208165.203125,114134.0,1.0,4
219892.984375,231348.609375,262670.1875,257639.0,208484.46875,223891.09375,222289.546875,208371.46875,114135.0,1.0,4
220235.140625,232058.765625,263085.9375,258230.15625,209093.25,224126.859375,224203.828125,208914.875,114136.0,1.0,4
220286.109375,232245.0,263222.125,258407.8125,209324.09375,224165.125,225064.734375,209061.0625,114137.0,1.0,4
219979.265625,231645.4375,262894.15625,257923.765625,208858.828125,223958.328125,223665.6875,208605.4375,114138.0,1.0,4
219724.453125,231076.1875,262542.96875,257438.109375,208328.375,223780.046875,221928.0625,208165.375,114139.0,1.0,4
219892.0,231344.953125,262666.8125,257639.265625,208477.6875,223887.59375,222280.59375,208365.65625,114140.0,1.0,4
220234.515625,232061.640625,263080.125,258230.078125,209077.6875,224123.8125,224189.34375,208906.296875,114141.0,1.0,4
220290.84375,232254.578125,263220.875,258404.859375,209310.5,224162.796875,225059.90625,209052.125,114142.0,1.0,4
219981.5,231649.828125,262894.15625,257917.78125,208846.390625,223950.28125,223663.71875,208596.859375,114143.0,1.0,4
219727.3125,231076.640625,262545.21875,257431.84375,208322.5625,223775.3125,221926.09375,208161.265625,114144.0,1.0,4
219883.59375,231329.125,262662.875,257625.59375,208472.578125,223880.53125,222266.109375,208363.0625,114145.0,1.0,4
220222.09375,232046.4375,263077.1875,258217.5625,209082.875,224119.875,224179.609375,208905.140625,114146.0,1.0,4
220281.1875,232243.3125,263220.875,258401.734375,209323.03125,224163.6875,225066.25,209051.3125,114147.0,1.0,4
219972.203125,231640.34375,262889.96875,257913.9375,208855.0625,223948.484375,223676.0625,208596.140625,114148.0,1.0,4
219718.1875,231067.34375,262540.21875,257428.546875,208329.53125,223776.015625,221934.59375,208160.375,114149.0,1.0,4
219877.703125,231322.859375,262658.59375,257623.53125,208475.984375,223883.84375,222264.859375,208357.15625,114150.0,1.0,4
220218.34375,232037.140625,263069.21875,258213.796875,209077.25,224112.90625,224169.140625,208896.375,114151.0,1.0,4
220282.078125,232245.71875,263221.40625,258404.59375,209324.453125,224162.4375,225072.953125,209055.421875,114152.0,1.0,4
219976.140625,231649.109375,262897.03125,257922.609375,208861.5,223953.578125,223694.484375,208603.203125,114153.0,1.0,4
219725.53125,231076.90625,262546.65625,257435.25,208332.390625,223777.984375,221946.75,208167.265625,114154.0,1.0,4
219878.6875,231322.78125,262657.0625,257619.78125,208467.84375,223880.8125,222257.890625,208355.8125,114155.0,1.0,4
220223.96875,232041.0625,263072.34375,258213.625,209075.015625,224116.75,224162.34375,208894.234375,114156.0,1.0,4
220284.765625,232245.0,263219.25,258400.390625,209318.109375,224158.6875,225067.140625,209051.3125,114157.0,1.0,4
219978.1875,231651.703125,262894.625,257919.296875,208858.015625,223950.90625,223695.46875,208606.25,114158.0,1.0,4
219727.140625,231080.484375,262547.0,257432.296875,208331.859375,223779.859375,221948.0,208169.40625,114159.0,1.0,4
219881.453125,231324.828125,262657.6875,257616.734375,208467.75,223884.921875,222249.03125,208356.09375,114160.0,1.0,4
220222.71875,232038.75,263066.1875,258205.84375,209066.96875,224117.203125,224144.109375,208888.421875,114161.0,1.0,4
220289.78125,232260.46875,263222.375,258402.625,209320.34375,224166.546875,225072.875,209051.5,114162.0,1.0,4
219978.28125,231663.6875,262894.78125,257918.3125,208858.109375,223955.453125,223709.765625,208599.71875,114163.0,1.0,4
219717.296875,231079.234375,262535.90625,257422.546875,208321.390625,223774.5,221944.421875,208156.703125,114164.0,1.0,4
