FZ,C3,CZ,C4,PZ,PO7,OZ,PO8,Counter,Validation,Label
224856.6875,248917.890625,251386.953125,260193.625,219061.765625,246406.0,205766.5,233793.796875,134421.0,1.0,1
224901.65625,249046.640625,251853.921875,260268.28125,219460.171875,246602.25,206005.671875,233992.90625,134422.0,1.0,1
224922.03125,249226.609375,252531.71875,260338.46875,220082.890625,246920.453125,206376.265625,234272.671875,134423.0,1.0,1
224897.09375,249218.203125,252482.1875,260311.296875,220074.75,246920.265625,206370.0,234251.296875,134424.0,1.0,1
224850.328125,249027.859375,251782.046875,260212.5,219454.265625,246604.3125,205998.515625,233952.953125,134425.0,1.0,1
224851.046875,248921.203125,251378.90625,260182.1875,219065.25,246402.609375,205773.484375,233789.6875,134426.0,1.0,1
224908.984375,249059.15625,251857.59375,260266.765625,219469.015625,246609.671875,206022.5625,233999.078125,134427.0,1.0,1
224948.0625,249254.59375,252551.390625,260350.890625,220100.40625,246935.46875,206397.265625,234288.140625,134428.0,1.0,1
224913.640625,249230.359375,252501.046875,260315.40625,220087.453125,246925.71875,206382.609375,234257.828125,134429.0,1.0,1
224867.40625,249040.28125,251806.8125,260219.640625,219474.203125,246613.6875,206016.9375,233966.8125,134430.0,1.0,1
224856.59375,248922.09375,251383.828125,260183.609375,219068.109375,246399.46875,205775.53125,233789.15625,134431.0,1.0,1
224906.21875,249049.234375,251844.359375,260270.875,219460.703125,246600.015625,206012.109375,233989.515625,134432.0,1.0,1
224937.328125,249234.484375,252531.625,260352.5,220092.625,246924.46875,206384.9375,234278.390625,134433.0,1.0,1
224903.796875,249223.390625,252489.703125,260319.328125,220090.125,246920.1875,206380.1875,234258.09375,134434.0,1.0,1
224858.46875,249040.28125,251800.734375,260225.09375,219477.15625,246611.71875,206014.515625,233965.46875,134435.0,1.0,1
224851.3125,248922.984375,251378.015625,260186.203125,219070.171875,246405.734375,205776.34375,233788.34375,134436.0,1.0,1
224900.84375,249048.0625,251831.9375,260258.625,219452.75,246597.78125,206006.734375,233981.109375,134437.0,1.0,1
224937.234375,249235.640625,252526.890625,260343.125,220085.484375,246920.984375,206379.296875,234270.875,134438.0,1.0,1
224908.71875,249226.34375,252500.25,260323.0,220095.21875,246925.90625,206381.890625,234257.5625,134439.0,1.0,1
224860.265625,249031.890625,251808.953125,260221.609375,219477.515625,246613.609375,206009.953125,233964.65625,134440.0,1.0,1
224856.0625,248916.546875,251380.609375,260181.296875,219063.640625,246400.375,205763.640625,233787.28125,134441.0,1.0,1
224913.640625,249048.515625,251843.90625,260272.3125,219458.015625,246603.59375,206003.96875,233993.359375,134442.0,1.0,1
224952.171875,249243.6875,252545.84375,260359.75,220103.265625,246935.46875,206385.203125,234290.640625,134443.0,1.0,1
224915.875,249232.25,252513.5625,260318.4375,220106.9375,246933.046875,206382.609375,234264.984375,134444.0,1.0,1
224868.84375,249047.0,251826.296875,260231.53125,219499.859375,246625.859375,206018.71875,233973.25,134445.0,1.0,1
224861.78125,248934.875,251395.71875,260197.296875,219086.359375,246414.578125,205775.53125,233798.453125,134446.0,1.0,1
224911.75,249063.265625,251845.875,260278.03125,219464.09375,246609.21875,206008.34375,233995.59375,134447.0,1.0,1
224943.046875,249249.671875,252541.46875,260361.0,220097.1875,246933.328125,206378.9375,234279.640625,134448.0,1.0,1
224913.90625,249235.734375,252520.453125,260333.1875,220113.546875,246935.5625,206381.359375,234264.4375,134449.0,1.0,1
224873.671875,249053.78125,251839.796875,260246.5625,219508.359375,246630.328125,206015.953125,233977.71875,134450.0,1.0,1
224857.21875,248928.078125,251395.796875,260192.28125,219083.3125,246410.734375,205767.84375,233795.40625,134451.0,1.0,1
224898.609375,249052.171875,251833.453125,260263.8125,219455.34375,246597.0625,205997.53125,233987.015625,134452.0,1.0,1
224943.578125,249255.84375,252545.84375,260361.71875,220105.59375,246935.46875,206387.796875,234293.328125,134453.0,1.0,1
224913.1875,249242.078125,252529.3125,260332.203125,220122.21875,246938.859375,206390.921875,234280.625,134454.0,1.0,1
224857.3125,249043.953125,251832.5625,260229.296875,219505.578125,246621.46875,206017.296875,233982.625,134455.0,1.0,1
224851.59375,248922.8125,251390.34375,260197.03125,219084.125,246402.875,205771.59375,233796.84375,134456.0,1.0,1
224904.421875,249042.96875,251825.84375,260270.96875,219447.921875,246588.84375,205993.234375,233984.15625,134457.0,1.0,1
224941.171875,249232.328125,252525.375,260347.859375,220084.578125,246915.890625,206369.90625,234272.125,134458.0,1.0,1
224918.28125,249235.28125,252524.125,260323.265625,220119.625,246935.375,206388.328125,234267.21875,134459.0,1.0,1
224872.234375,249052.796875,251840.0625,260224.296875,219517.296875,246632.109375,206030.171875,233976.375,134460.0,1.0,1
224859.71875,248931.65625,251387.9375,260181.296875,219086.890625,246412.265625,205778.75,233786.828125,134461.0,1.0,1
224908.71875,249055.046875,251819.59375,260262.921875,219450.0625,246600.453125,206004.6875,233978.34375,134462.0,1.0,1
224946.453125,249248.609375,252524.484375,260350.8125,220092.8125,246933.859375,206385.921875,234278.296875,134463.0,1.0,1
224916.9375,249242.34375,252527.875,260328.8125,220129.46875,246951.65625,206401.46875,234273.03125,134464.0,1.0,1
224874.921875,249064.25,251853.03125,260241.109375,219531.0625,246652.5,206042.765625,233987.015625,134465.0,1.0,1
224876.265625,248950.796875,251411.09375,260208.828125,219110.234375,246440.953125,205797.890625,233808.28125,134466.0,1.0,1
224919.265625,249058.4375,251829.78125,260279.375,219463.75,246619.953125,206013.171875,233993.625,134467.0,1.0,1
224941.53125,249235.1875,252519.46875,260352.5,220092.09375,246937.609375,206381.09375,234276.609375,134468.0,1.0,1
224904.609375,249231.625,252517.140625,260315.40625,220122.765625,246943.515625,206392.796875,234271.59375,134469.0,1.0,1
224853.203125,249042.515625,251831.578125,260217.953125,219519.890625,246635.6875,206032.21875,233985.3125,134470.0,1.0,1
224853.109375,248923.171875,251379.890625,260180.046875,219086.984375,246420.21875,205781.078125,233804.0,134471.0,1.0,1
224906.921875,249038.40625,251803.234375,260265.328125,219441.84375,246595.546875,205991.453125,233991.65625,134472.0,1.0,1
224933.390625,249220.53125,252502.125,260343.5625,220078.6875,246917.3125,206365.078125,234279.015625,134473.0,1.0,1
224907.109375,249228.3125,252520.28125,260318.359375,220130.1875,246947.8125,206394.9375,234283.125,134474.0,1.0,1
224853.015625,249044.125,251840.15625,260213.296875,219530.890625,246645.875,206037.5,233995.59375,134475.0,1.0,1
224853.90625,248924.328125,251384.53125,260182.90625,219099.671875,246436.578125,205787.515625,233813.203125,134476.0,1.0,1
224907.828125,249048.609375,251801.796875,260264.96875,219452.296875,246621.734375,206001.546875,233996.125,134477.0,1.0,1
224940.71875,249235.828125,252504.0,260345.625,220091.640625,246944.140625,206376.53125,234284.109375,134478.0,1.0,1
224911.21875,249237.703125,252522.78125,260320.046875,220141.8125,246964.53125,206402.28125,234285.1875,134479.0,1.0,1
224859.984375,249049.859375,251843.203125,260222.515625,219542.875,246660.71875,206038.484375,233991.9375,134480.0,1.0,1
224861.0625,248933.265625,251385.25,260186.203125,219106.734375,246436.40625,205782.78125,233802.921875,134481.0,1.0,1
224915.78125,249048.953125,251797.421875,260267.5625,219449.34375,246606.71875,205990.5625,233979.59375,134482.0,1.0,1
224944.296875,249234.125,252502.65625,260347.59375,220085.390625,246926.34375,206365.078125,234266.046875,134483.0,1.0,1
224911.84375,249237.4375,252531.71875,260320.3125,220143.765625,246952.1875,206398.4375,234274.359375,134484.0,1.0,1
224864.015625,249052.453125,251855.625,260219.921875,219547.515625,246646.421875,206033.734375,233985.578125,134485.0,1.0,1
224866.15625,248935.0625,251390.625,260186.75,219107.09375,246422.71875,205775.359375,233797.109375,134486.0,1.0,1
224911.125,249039.65625,251788.65625,260259.875,219438.34375,246587.5,205975.984375,233968.140625,134487.0,1.0,1
224949.21875,249237.875,252504.09375,260352.6875,220089.859375,246921.703125,206362.9375,234271.953125,134488.0,1.0,1
224918.375,249244.046875,252540.296875,260323.8125,220153.875,246951.828125,206395.390625,234275.171875,134489.0,1.0,1
224871.703125,249067.109375,251871.09375,260226.625,219561.734375,246648.296875,206041.078125,233991.125,134490.0,1.0,1
224869.28125,248943.734375,251394.546875,260194.171875,219111.484375,246420.21875,205776.0625,233799.171875,134491.0,1.0,1
224917.84375,249058.890625,251792.59375,260273.109375,219447.109375,246597.515625,205982.953125,233977.71875,134492.0,1.0,1
224944.75,249246.90625,252496.3125,260355.90625,220091.015625,246927.875,206360.703125,234270.078125,134493.0,1.0,1
224924.546875,249259.78125,252542.8125,260341.515625,220165.234375,246967.921875,206397.71875,234283.484375,134494.0,1.0,1
224865.71875,249062.109375,251862.6875,260228.5,219561.015625,246657.234375,206031.953125,233989.96875,134495.0,1.0,1
224855.4375,248929.25,251378.8125,260178.078125,219099.765625,246420.484375,205764.8125,233793.984375,134496.0,1.0,1
224899.234375,249036.359375,251766.125,260249.515625,219424.140625,246581.15625,205959.984375,233962.0625,134497.0,1.0,1
224944.296875,249240.203125,252488.625,260348.125,220084.859375,246922.0625,206349.609375,234267.390625,134498.0,1.0,1
224917.390625,249248.25,252541.828125,260327.921875,220168.71875,246963.8125,206392.984375,234285.71875,134499.0,1.0,1
224870.453125,249068.625,251880.296875,260235.65625,219584.703125,246668.59375,206045.90625,234001.671875,134500.0,1.0,1
224866.15625,248944.984375,251396.703125,260196.765625,219125.875,246439.53125,205780.71875,233809.453125,134501.0,1.0,1
224909.609375,249050.65625,251778.28125,260274.28125,219444.4375,246602.609375,205979.46875,233981.296875,134502.0,1.0,1
224935.265625,249234.390625,252482.28125,260349.734375,220084.671875,246925.546875,206353.90625,234269.8125,134503.0,1.0,1
224908.0,249240.828125,252535.03125,260322.46875,220168.359375,246963.8125,206398.875,234287.234375,134504.0,1.0,1
224865.171875,249062.109375,251873.421875,260231.09375,219584.796875,246669.578125,206049.484375,234010.171875,134505.0,1.0,1
224857.671875,248932.1875,251380.34375,260188.796875,219116.390625,246430.671875,205775.71875,233807.75,134506.0,1.0,1
224904.0625,249034.921875,251762.8125,260265.328125,219432.453125,246591.703125,205970.984375,233971.1875,134507.0,1.0,1
224940.71875,249230.71875,252481.109375,260350.890625,220085.921875,246927.328125,206360.078125,234269.53125,134508.0,1.0,1
224916.3125,249250.65625,252545.75,260327.46875,220181.0625,246974.265625,206415.15625,234290.734375,134509.0,1.0,1
224862.21875,249063.984375,251878.328125,260226.171875,219595.4375,246674.671875,206061.90625,234004.09375,134510.0,1.0,1
224851.5,248930.046875,251380.515625,260180.84375,219128.109375,246433.625,205784.203125,233798.359375,134511.0,1.0,1
224893.25,249032.515625,251750.921875,260254.15625,219433.4375,246584.015625,205965.078125,233957.421875,134512.0,1.0,1
224930.796875,249228.578125,252472.71875,260344.90625,220088.515625,246916.421875,206352.75,234259.796875,134513.0,1.0,1
224906.75,249241.09375,252545.9375,260325.859375,220187.484375,246964.25,206405.234375,234284.46875,134514.0,1.0,1
224859.90625,249065.765625,251885.21875,260226.53125,219604.015625,246667.0625,206052.78125,234002.75,134515.0,1.0,1
224852.84375,248932.90625,251382.75,260184.0625,219126.953125,246421.640625,205773.296875,233798.1875,134516.0,1.0,1
224900.9375,249031.4375,251751.375,260256.9375,219431.109375,246575.421875,205959.796875,233958.3125,134517.0,1.0,1
224942.6875,249231.265625,252472.890625,260346.34375,220084.859375,246908.921875,206344.875,234259.796875,134518.0,1.0,1
224915.953125,249249.59375,252550.671875,260325.140625,220188.125,246960.765625,206400.84375,234285.625,134519.0,1.0,1
224865.625,249066.75,251891.65625,260230.640625,219608.046875,246667.25,206051.796875,234005.4375,134520.0,1.0,1
224855.25,248928.4375,251383.5625,260183.53125,219127.9375,246423.609375,205770.078125,233795.859375,134521.0,1.0,1
224904.96875,249035.375,251749.859375,260262.734375,219432.09375,246579.1875,205956.84375,233958.40625,134522.0,1.0,1
224943.765625,249236.71875,252472.625,260353.40625,220089.6875,246915.53125,206348.71875,234261.671875,134523.0,1.0,1
224919.796875,249255.125,252557.828125,260338.203125,220199.828125,246969.71875,206411.578125,234291.078125,134524.0,1.0,1
224871.4375,249077.296875,251902.203125,260246.203125,219622.703125,246678.0625,206064.859375,234011.953125,134525.0,1.0,1
224852.75,248935.953125,251384.265625,260190.953125,219132.40625,246431.03125,205780.265625,233801.3125,134526.0,1.0,1
224898.53125,249032.6875,251734.203125,260252.453125,219420.203125,246573.546875,205955.78125,233950.265625,134527.0,1.0,1
224933.9375,249230.90625,252451.25,260331.9375,220073.140625,246905.34375,206342.640625,234249.953125,134528.0,1.0,1
224916.578125,249256.46875,252551.921875,260324.796875,220196.609375,246969.0,206413.984375,234287.328125,134529.0,1.0,1
224871.875,249075.25,251902.734375,260236.359375,219626.28125,246683.078125,206074.0625,234010.609375,134530.0,1.0,1
224857.125,248928.625,251381.3125,260184.953125,219134.8125,246427.453125,205783.84375,233792.640625,134531.0,1.0,1
224910.5,249031.609375,251735.28125,260267.21875,219427.984375,246575.421875,205964.546875,233950.625,134532.0,1.0,1
224955.921875,249239.3125,252462.421875,260362.96875,220089.953125,246920.265625,206358.46875,234258.71875,134533.0,1.0,1
224918.546875,249251.5625,252554.78125,260338.640625,220207.609375,246975.96875,206419.359375,234289.484375,134534.0,1.0,1
224864.28125,249070.5,251904.078125,260243.421875,219633.53125,246681.734375,206073.609375,234008.65625,134535.0,1.0,1
224865.71875,248947.484375,251399.828125,260206.234375,219154.484375,246446.40625,205801.546875,233808.109375,134536.0,1.0,1
224906.296875,249041.09375,251737.34375,260267.75,219433.96875,246579.625,205968.921875,233956.96875,134537.0,1.0,1
224948.328125,249242.796875,252460.546875,260356.34375,220089.6875,246912.9375,206355.703125,234259.96875,134538.0,1.0,1
224931.78125,249274.890625,252572.21875,260352.0625,220225.125,246981.875,206432.046875,234306.46875,134539.0,1.0,1
224865.625,249090.796875,251912.484375,260240.84375,219647.203125,246687.453125,206080.328125,234020.359375,134540.0,1.0,1
224844.609375,248935.6875,251378.1875,260174.40625,219147.328125,246431.03125,205788.765625,233799.34375,134541.0,1.0,1
224898.171875,249032.234375,251719.09375,260247.71875,219427.0,246574.4375,205963.828125,233949.546875,134542.0,1.0,1
224951.8125,249238.765625,252455.015625,260353.578125,220091.203125,246919.828125,206358.28125,234259.96875,134543.0,1.0,1
224926.421875,249266.75,252569.625,260347.234375,220225.484375,246986.078125,206431.875,234299.21875,134544.0,1.0,1
224864.734375,249080.34375,251915.4375,260236.09375,219651.140625,246691.390625,206083.0,234020.453125,134545.0,1.0,1
224847.734375,248934.875,251380.15625,260176.90625,219151.171875,246437.65625,205787.6875,233800.421875,134546.0,1.0,1
224898.875,249032.953125,251717.125,260251.46875,219426.015625,246580.4375,205959.4375,233945.4375,134547.0,1.0,1
224947.25,249236.625,252449.015625,260353.125,220086.8125,246925.453125,206357.390625,234256.84375,134548.0,1.0,1
224929.015625,249270.59375,252573.734375,260343.5625,220233.09375,247000.734375,206439.828125,234309.859375,134549.0,1.0,1
224880.546875,249101.53125,251936.625,260251.390625,219671.609375,246714.0,206100.890625,234039.40625,134550.0,1.0,1
224855.609375,248944.4375,251390.0,260182.1875,219156.359375,246441.765625,205792.34375,233803.640625,134551.0,1.0,1
224899.421875,249034.203125,251713.015625,260245.390625,219422.25,246573.8125,205955.328125,233944.546875,134552.0,1.0,1
224939.03125,249233.671875,252439.1875,260342.3125,220080.734375,246910.171875,206350.0625,234251.5625,134553.0,1.0,1
224915.421875,249267.921875,252567.484375,260332.75,220231.21875,246987.40625,206435.625,234302.53125,134554.0,1.0,1
224861.234375,249087.859375,251926.796875,260232.171875,219669.015625,246700.421875,206094.984375,234026.4375,134555.0,1.0,1
224848.640625,248940.421875,251384.53125,260178.25,219160.296875,246439.703125,205795.46875,233801.9375,134556.0,1.0,1
224896.46875,249034.125,251709.984375,260253.4375,219424.5,246571.40625,205958.28125,233948.921875,134557.0,1.0,1
224935.984375,249227.59375,252436.859375,260346.0625,220080.296875,246900.15625,206343.984375,234249.59375,134558.0,1.0,1
224916.578125,249260.234375,252572.484375,260336.859375,220232.109375,246972.84375,206425.609375,234298.234375,134559.0,1.0,1
224872.953125,249087.9375,251940.03125,260248.171875,219678.3125,246694.34375,206090.78125,234033.421875,134560.0,1.0,1
224844.078125,248926.109375,251382.578125,260174.765625,219154.3125,246423.25,205780.09375,233796.3125,134561.0,1.0,1
224886.546875,249011.953125,251690.40625,260235.65625,219402.40625,246547.0,205931.375,233928.8125,134562.0,1.0,1
224937.78125,249219.09375,252425.953125,260342.9375,220065.984375,246892.734375,206331.734375,234244.0625,134563.0,1.0,1
224921.5,249260.765625,252572.75,260342.21875,220233.0,246976.15625,206429.28125,234304.5,134564.0,1.0,1
224877.609375,249091.78125,251948.34375,260243.875,219685.46875,246696.03125,206102.5,234041.1875,134565.0,1.0,1
224860.171875,248941.40625,251399.5625,260181.734375,219172.8125,246432.90625,205799.40625,233814.09375,134566.0,1.0,1
224902.8125,249028.578125,251704.703125,260247.71875,219421.8125,246559.6875,205952.65625,233953.390625,134567.0,1.0,1
224941.0,249219.375,252426.671875,260341.515625,220073.046875,246893.453125,206338.34375,234254.609375,134568.0,1.0,1
224932.40625,249264.078125,252583.75,260346.0625,220245.421875,246986.4375,206438.21875,234313.265625,134569.0,1.0,1
224890.65625,249100.90625,251962.015625,260256.84375,219700.3125,246714.359375,206112.15625,234046.296875,134570.0,1.0,1
224874.75,248955.34375,251410.828125,260196.9375,219185.6875,246451.953125,205810.3125,233818.75,134571.0,1.0,1
224913.015625,249036.71875,251707.390625,260255.671875,219424.765625,246573.546875,205956.5,233946.25,134572.0,1.0,1
224954.046875,249236.0,252434.265625,260349.109375,220083.15625,246901.84375,206342.90625,234249.78125,134573.0,1.0,1
224935.265625,249277.65625,252593.40625,260351.34375,220262.953125,246994.65625,206445.1875,234317.1875,134574.0,1.0,1
224882.34375,249100.1875,251961.03125,260248.34375,219708.984375,246710.15625,206110.546875,234041.109375,134575.0,1.0,1
224861.421875,248944.984375,251398.390625,260188.09375,219180.40625,246439.4375,205796.71875,233803.734375,134576.0,1.0,1
224901.5625,249019.359375,251685.03125,260248.53125,219410.546875,246549.859375,205937.453125,233928.09375,134577.0,1.0,1
224947.25,249225.890625,252416.109375,260343.203125,220072.96875,246894.78125,206334.6875,234237.625,134578.0,1.0,1
224931.78125,249273.015625,252585.28125,260341.859375,220258.484375,246992.78125,206441.703125,234306.109375,134579.0,1.0,1
224873.578125,249097.953125,251956.828125,260241.640625,219709.4375,246713.5625,206109.015625,234039.578125,134580.0,1.0,1
224849.4375,248943.109375,251387.578125,260172.625,219177.734375,246438.8125,205795.375,233805.25,134581.0,1.0,1
224894.5,249023.5625,251677.34375,260238.0625,219409.46875,246552.890625,205939.5,233934.53125,134582.0,1.0,1
224946.984375,249231.0,252418.4375,260345.796875,220076.265625,246896.75,206338.171875,234246.921875,134583.0,1.0,1
224923.640625,249275.15625,252586.796875,260334.171875,220260.71875,246989.65625,206441.796875,234308.515625,134584.0,1.0,1
224865.53125,249097.859375,251957.640625,260231.53125,219712.109375,246710.515625,206110.625,234037.609375,134585.0,1.0,1
224843.453125,248939.25,251387.21875,260172.625,219181.125,246438.09375,205797.4375,233801.3125,134586.0,1.0,1
224881.1875,249013.46875,251660.890625,260228.140625,219401.609375,246544.578125,205930.5625,233919.328125,134587.0,1.0,1
224930.53125,249217.84375,252393.578125,260323.984375,220068.21875,246886.03125,206326.640625,234230.109375,134588.0,1.0,1
224917.03125,249269.4375,252577.140625,260324.609375,220269.203125,246988.84375,206443.3125,234305.125,134589.0,1.0,1
224861.953125,249094.921875,251958.53125,260229.125,219726.234375,246711.859375,206116.625,234040.125,134590.0,1.0,1
224843.359375,248932.828125,251385.25,260166.09375,219184.34375,246436.125,205796.90625,233799.609375,134591.0,1.0,1
224886.8125,249012.65625,251664.203125,260231.0,219402.765625,246546.375,205934.953125,233923.4375,134592.0,1.0,1
224930.4375,249213.5625,252396.265625,260332.125,220062.328125,246883.25,206329.046875,234232.53125,134593.0,1.0,1
224909.515625,249255.84375,252575.96875,260318.890625,220254.90625,246980.0,206434.28125,234296.625,134594.0,1.0,1
224865.265625,249093.484375,251965.5,260232.25,219722.125,246711.328125,206110.625,234036.8125,134595.0,1.0,1
224846.765625,248938.359375,251391.78125,260172.4375,219187.03125,246438.71875,205795.109375,233800.421875,134596.0,1.0,1
224890.65625,249018.921875,251662.421875,260233.234375,219404.90625,246552.359375,205930.5625,233924.0625,134597.0,1.0,1
224929.109375,249212.03125,252386.96875,260325.140625,220057.140625,246887.640625,206315.46875,234227.15625,134598.0,1.0,1
224909.515625,249257.1875,252576.515625,260323.890625,220258.484375,246987.859375,206427.578125,234301.90625,134599.0,1.0,1
224861.6875,249090.53125,251966.84375,260228.953125,219722.84375,246712.84375,206104.8125,234038.6875,134600.0,1.0,1
224838.265625,248928.4375,251382.578125,260158.046875,219177.015625,246432.46875,205787.0625,233795.6875,134601.0,1.0,1
224888.78125,249011.5,251652.765625,260229.21875,219391.953125,246544.578125,205922.96875,233921.5625,134602.0,1.0,1
224941.078125,249215.171875,252392.609375,260339.0,220056.59375,246888.703125,206321.28125,234237.265625,134603.0,1.0,1
224916.5,249259.25,252587.15625,260321.484375,220263.9375,246990.28125,206435.53125,234312.28125,134604.0,1.0,1
224857.84375,249088.65625,251973.640625,260215.984375,219731.703125,246716.59375,206109.203125,234046.734375,134605.0,1.0,1
224831.109375,248920.03125,251381.59375,260146.6875,219179.078125,246434.25,205781.609375,233797.921875,134606.0,1.0,1
224877.25,248995.21875,251641.40625,260212.671875,219383.8125,246542.96875,205915.28125,233921.828125,134607.0,1.0,1
224914.53125,249187.09375,252368.546875,260307.71875,220035.5,246879.765625,206301.875,234231.265625,134608.0,1.0,1
224899.953125,249244.40625,252575.703125,260310.578125,220252.40625,246986.4375,206424.0,234314.0625,134609.0,1.0,1
224848.71875,249078.90625,251969.796875,260212.5,219725.609375,246718.390625,206104.375,234056.84375,134610.0,1.0,1
224833.890625,248920.03125,251387.3125,260153.9375,219182.640625,246442.390625,205787.609375,233819.46875,134611.0,1.0,1
224869.203125,248980.75,251625.21875,260198.09375,219367.546875,246530.90625,205900.34375,233921.65625,134612.0,1.0,1
224916.5,249177.609375,252350.9375,260293.046875,220019.046875,246865.109375,206288.90625,234223.3125,134613.0,1.0,1
224920.078125,249249.140625,252583.046875,260312.546875,220260.0,246991.53125,206431.25,234321.9375,134614.0,1.0,1
224875.8125,249091.609375,251995.09375,260228.953125,219746.71875,246730.453125,206124.40625,234073.640625,134615.0,1.0,1
224847.734375,248926.03125,251399.734375,260162.6875,219193.375,246444.53125,205798.6875,233827.59375,134616.0,1.0,1
224881.453125,248989.421875,251634.4375,260215.71875,219376.390625,246531.796875,205911.4375,233933.09375,134617.0,1.0,1
224928.125,249192.28125,252366.9375,260312.90625,220035.328125,246868.5,206304.5625,234243.4375,134618.0,1.0,1
224910.140625,249247.984375,252586.4375,260307.890625,220262.234375,246979.09375,206432.9375,234325.234375,134619.0,1.0,1
224856.0625,249087.671875,251990.0,260207.84375,219744.125,246715.703125,206119.921875,234067.125,134620.0,1.0,1
224834.6875,248922.71875,251392.234375,260139.453125,219186.3125,246428.890625,205784.203125,233813.296875,134621.0,1.0,1
224893.875,249007.75,251645.078125,260221.703125,219386.9375,246532.6875,205914.03125,233936.234375,134622.0,1.0,1
224930.984375,249197.640625,252365.78125,260308.515625,220034.515625,246861.96875,206294.265625,234229.390625,134623.0,1.0,1
224907.203125,249245.296875,252584.375,260300.203125,220262.6875,246971.59375,206421.046875,234306.734375,134624.0,1.0,1
224854.71875,249085.4375,251994.390625,260212.140625,219751.1875,246714.90625,206113.40625,234057.5625,134625.0,1.0,1
224829.859375,248920.296875,251391.609375,260148.75,219193.109375,246431.484375,205783.484375,233804.625,134626.0,1.0,1
224871.796875,248987.984375,251618.78125,260208.46875,219371.296875,246522.40625,205894.796875,233911.828125,134627.0,1.0,1
224911.046875,249183.078125,252344.328125,260300.203125,220022.171875,246853.484375,206284.265625,234219.5625,134628.0,1.0,1
224904.34375,249246.90625,252579.734375,260313.703125,220266.265625,246978.109375,206424.53125,234318.09375,134629.0,1.0,1
224851.140625,249088.390625,251988.125,260214.8125,219755.03125,246718.03125,206115.1875,234063.71875,134630.0,1.0,1
224814.75,248907.078125,251368.796875,260131.578125,219180.6875,246418.0625,205769.0,233796.84375,134631.0,1.0,1
224855.078125,248966.171875,251586.59375,260186.828125,219349.21875,246500.953125,205870.84375,233892.6875,134632.0,1.0,1
224907.90625,249177.34375,252326.4375,260295.734375,220013.6875,246842.84375,206269.421875,234207.484375,134633.0,1.0,1
224909.796875,249258.265625,252581.96875,260311.375,220278.328125,246981.328125,206429.015625,234314.515625,134634.0,1.0,1
224853.109375,249089.90625,251990.890625,260208.203125,219763.703125,246719.109375,206117.15625,234054.78125,134635.0,1.0,1
224832.28125,248923.078125,251383.015625,260139.984375,219197.671875,246432.640625,205782.421875,233796.046875,134636.0,1.0,1
224873.21875,248986.640625,251600.359375,260200.609375,219366.375,246516.328125,205887.65625,233892.15625,134637.0,1.0,1
224920.15625,249189.859375,252332.875,260302.703125,220021.90625,246849.640625,206278.8125,234200.609375,134638.0,1.0,1
224918.734375,249261.921875,252588.84375,260316.828125,220281.90625,246980.703125,206430.265625,234302.265625,134639.0,1.0,1
224863.296875,249096.703125,252004.046875,260225.8125,219772.015625,246720.171875,206121.0,234049.421875,134640.0,1.0,1
224843.984375,248935.40625,251401.53125,260158.140625,219207.59375,246436.40625,205793.421875,233801.671875,134641.0,1.0,1
224882.34375,248994.78125,251610.296875,260212.765625,219366.109375,246513.46875,205896.765625,233896.796875,134642.0,1.0,1
224918.90625,249180.125,252327.25,260298.140625,220008.140625,246835.6875,206274.96875,234196.046875,134643.0,1.0,1
224912.5625,249253.34375,252585.359375,260308.34375,220274.75,246975.4375,206429.640625,234301.453125,134644.0,1.0,1
224862.84375,249094.734375,252006.71875,260213.125,219772.46875,246720.796875,206127.53125,234052.453125,134645.0,1.0,1
224846.046875,248934.34375,251402.234375,260150.453125,219208.390625,246435.953125,205800.125,233805.875,134646.0,1.0,1
224895.3125,249001.578125,251618.421875,260215.359375,219372.546875,246521.15625,205907.5,233907.984375,134647.0,1.0,1
224937.859375,249197.734375,252343.875,260309.40625,220024.328125,246851.25,206292.03125,234211.953125,134648.0,1.0,1
224920.96875,249261.390625,252601.453125,260318.984375,220285.65625,246982.40625,206439.5625,234309.859375,134649.0,1.0,1
224872.421875,249107.796875,252028.359375,260230.28125,219791.234375,246732.78125,206142.375,234063.90625,134650.0,1.0,1
224846.484375,248939.609375,251409.125,260161.890625,219216.984375,246435.328125,205801.375,233804.171875,134651.0,1.0,1
224886.8125,248992.71875,251602.6875,260213.03125,219362.09375,246507.03125,205892.921875,233893.046875,134652.0,1.0,1
224930.625,249185.65625,252326.171875,260306.734375,220013.15625,246836.671875,206279.875,234202.3125,134653.0,1.0,1
224917.203125,249252.1875,252592.421875,260316.296875,220279.40625,246969.890625,206433.484375,234308.25,134654.0,1.0,1
224870.1875,249101.53125,252026.5625,260223.3125,219787.671875,246726.796875,206138.25,234064.625,134655.0,1.0,1
224853.546875,248936.671875,251413.59375,260166.0,219219.484375,246441.046875,205800.203125,233812.125,134656.0,1.0,1
224886.984375,248985.390625,251598.671875,260217.953125,219353.421875,246503.546875,205884.25,233893.046875,134657.0,1.0,1
224938.21875,249192.375,252330.28125,260317.1875,220006.71875,246841.859375,206277.546875,234202.484375,134658.0,1.0,1
224923.640625,249260.234375,252601.90625,260321.84375,220283.25,246983.03125,206436.78125,234310.3125,134659.0,1.0,1
224865.890625,249103.3125,252032.921875,260228.234375,219793.125,246732.0625,206139.234375,234062.828125,134660.0,1.0,1
224841.03125,248932.1875,251410.640625,260156.4375,219214.65625,246440.15625,205796.28125,233799.609375,134661.0,1.0,1
224885.65625,248989.328125,251596.609375,260212.21875,219357.171875,246517.484375,205890.25,233888.484375,134662.0,1.0,1
224946.71875,249206.578125,252334.578125,260328.015625,220025.671875,246867.34375,206294.359375,234212.40625,134663.0,1.0,1
224931.609375,249279.0,252611.65625,260337.84375,220305.953125,247010.03125,206453.953125,234328.1875,134664.0,1.0,1
224865.71875,249107.703125,252036.859375,260227.0625,219810.109375,246751.734375,206147.734375,234072.9375,134665.0,1.0,1
224835.21875,248929.421875,251405.640625,260152.0625,219225.46875,246448.296875,205797.796875,233806.5,134666.0,1.0,1
224876.703125,248980.5625,251582.390625,260203.640625,219356.8125,246510.34375,205880.859375,233886.875,134667.0,1.0,1
224925.078125,249185.21875,252312.578125,260300.296875,220011.625,246847.671875,206272.71875,234195.875,134668.0,1.0,1
224921.6875,249268.0,252605.390625,260322.90625,220307.03125,246996.984375,206446.0,234318.265625,134669.0,1.0,1
224868.484375,249112.796875,252042.65625,260231.0,219822.984375,246751.015625,206154.703125,234077.578125,134670.0,1.0,1
224832.1875,248934.421875,251402.859375,260151.875,219230.75,246447.03125,205801.8125,233807.578125,134671.0,1.0,1
224870.984375,248983.96875,251574.078125,260205.875,219355.921875,246510.78125,205888.453125,233891.890625,134672.0,1.0,1
224913.8125,249175.296875,252292.640625,260299.578125,219998.3125,246830.859375,206271.828125,234191.125,134673.0,1.0,1
224898.875,249245.921875,252580.625,260306.015625,220287.359375,246972.21875,206434.46875,234299.125,134674.0,1.0,1
224847.828125,249095.1875,252026.484375,260212.578125,219808.046875,246727.859375,206143.796875,234059.875,134675.0,1.0,1
224825.484375,248926.390625,251398.21875,260145.703125,219226.546875,246437.734375,205802.265625,233797.296875,134676.0,1.0,1
224863.828125,248974.84375,251562.734375,260191.578125,219345.09375,246499.4375,205882.109375,233872.75,134677.0,1.0,1
224915.875,249179.3125,252292.28125,260297.078125,219996.875,246835.15625,206275.140625,234186.296875,134678.0,1.0,1
224909.609375,249256.734375,252592.0625,260317.09375,220295.046875,246988.390625,206448.140625,234310.3125,134679.0,1.0,1
224858.921875,249105.828125,252041.234375,260216.96875,219819.21875,246745.65625,206158.90625,234074.09375,134680.0,1.0,1
224844.796875,248945.96875,251418.0625,260154.296875,219247.203125,246459.109375,205826.046875,233821.78125,134681.0,1.0,1
224882.4375,248991.65625,251573.90625,260203.734375,219360.5625,246513.015625,205900.53125,233892.515625,134682.0,1.0,1
224920.078125,249177.34375,252288.0,260296.0,219997.5,246833.09375,206275.5,234186.921875,134683.0,1.0,1
224906.484375,249253.34375,252590.1875,260301.71875,220299.875,246979.71875,206448.765625,234303.875,134684.0,1.0,1
224852.125,249100.015625,252039.53125,260202.84375,219827.453125,246738.0625,206162.578125,234062.734375,134685.0,1.0,1
224835.671875,248934.421875,251408.765625,260142.046875,219244.703125,246446.859375,205818.984375,233805.34375,134686.0,1.0,1
224877.15625,248982.265625,251562.546875,260198.1875,219350.90625,246505.0625,205888.90625,233880.890625,134687.0,1.0,1
224911.484375,249165.015625,252266.984375,260284.46875,219980.34375,246820.3125,206258.6875,234170.828125,134688.0,1.0,1
224912.203125,249253.875,252584.828125,260311.015625,220298.453125,246980.703125,206444.390625,234299.3125,134689.0,1.0,1
224855.78125,249107.609375,252041.953125,260215.71875,219830.40625,246739.21875,206158.109375,234066.671875,134690.0,1.0,1
224828.25,248929.421875,251398.84375,260141.5,219236.5625,246438.28125,205806.375,233801.84375,134691.0,1.0,1
224866.703125,248970.1875,251542.609375,260191.03125,219334.1875,246490.046875,205872.625,233870.609375,134692.0,1.0,1
224915.875,249167.15625,252265.375,260290.90625,219979.078125,246824.78125,206256.0,234175.578125,134693.0,1.0,1
224921.0625,249258.890625,252596.984375,260320.671875,220306.5,246996.4375,206450.28125,234313.703125,134694.0,1.0,1
224863.484375,249106.453125,252056.15625,260223.21875,219840.953125,246756.46875,206166.328125,234076.953125,134695.0,1.0,1
224829.765625,248930.3125,251404.921875,260144.71875,219242.375,246450.703125,205811.828125,233807.03125,134696.0,1.0,1
224864.640625,248972.875,251540.203125,260186.5625,219335.09375,246496.921875,205875.3125,233875.171875,134697.0,1.0,1
224902.09375,249161.96875,252251.609375,260277.5,219966.75,246813.25,206251.09375,234165.015625,134698.0,1.0,1
224902.09375,249249.328125,252581.703125,260304.765625,220290.21875,246978.5625,206439.734375,234297.796875,134699.0,1.0,1
224863.5625,249110.109375,252057.0625,260220.265625,219839.25,246751.46875,206170.09375,234076.0625,134700.0,1.0,1
224836.65625,248932.1875,251408.765625,260146.953125,219239.59375,246445.25,205813.0,233807.65625,134701.0,1.0,1
224864.90625,248963.84375,251533.9375,260183.34375,219321.3125,246484.234375,205862.796875,233861.3125,134702.0,1.0,1
224918.28125,249163.671875,252259.921875,260287.5,219969.609375,246812.09375,206251.890625,234168.234375,134703.0,1.0,1
224916.3125,249253.078125,252594.65625,260310.484375,220299.15625,246974.8125,206444.203125,234302.4375,134704.0,1.0,1
224863.5625,249107.25,252062.78125,260222.59375,219841.84375,246739.046875,206165.171875,234071.765625,134705.0,1.0,1
224830.21875,248926.734375,251411.0,260144.71875,219239.59375,246434.515625,205808.171875,233802.203125,134706.0,1.0,1
224865.796875,248966.34375,251535.28125,260189.34375,219320.78125,246480.125,205864.140625,233860.40625,134707.0,1.0,1
224915.953125,249165.1875,252250.53125,260281.875,219960.484375,246806.71875,206248.3125,234159.390625,134708.0,1.0,1
224912.734375,249254.0625,252590.375,260305.828125,220294.875,246974.984375,206442.78125,234300.65625,134709.0,1.0,1
224870.1875,249120.84375,252076.1875,260225.375,219855.4375,246756.03125,206178.671875,234083.84375,134710.0,1.0,1
224842.734375,248944.171875,251424.859375,260149.46875,219255.515625,246451.953125,205824.171875,233811.859375,134711.0,1.0,1
224869.921875,248973.328125,251531.078125,260187.015625,219322.5625,246482.0,205867.09375,233862.203125,134712.0,1.0,1
224919.265625,249169.03125,252246.78125,260289.5625,219962.8125,246809.21875,206249.390625,234167.609375,134713.0,1.0,1
224931.15625,249276.40625,252606.109375,260323.265625,220318.203125,246994.5625,206459.140625,234316.75,134714.0,1.0,1
224875.71875,249131.21875,252085.046875,260235.828125,219871.078125,246764.875,206184.65625,234089.203125,134715.0,1.0,1
224834.0625,248940.859375,251419.5,260146.421875,219256.59375,246450.171875,205818.8125,233806.859375,134716.0,1.0,1
224868.484375,248972.609375,251527.59375,260188.265625,219324.984375,246484.140625,205867.09375,233859.515625,134717.0,1.0,1
224913.90625,249163.21875,252238.828125,260288.671875,219962.71875,246805.734375,206245.015625,234158.765625,134718.0,1.0,1
224918.28125,249261.125,252594.75,260320.9375,220314.625,246983.125,206449.484375,234306.28125,134719.0,1.0,1
224874.109375,249126.5625,252087.640625,260238.59375,219881.984375,246761.125,206185.546875,234088.765625,134720.0,1.0,1
224839.15625,248944.265625,251422.984375,260154.734375,219269.375,246448.109375,205819.34375,233803.8125,134721.0,1.0,1
224875.90625,248981.28125,251527.234375,260191.65625,219336.0625,246486.203125,205868.78125,233860.5,134722.0,1.0,1
224933.578125,249187.90625,252251.875,260298.953125,219981.5,246823.53125,206257.609375,234171.734375,134723.0,1.0,1
224922.3125,249273.1875,252600.921875,260314.234375,220324.640625,246985.625,206449.296875,234306.015625,134724.0,1.0,1
224872.234375,249132.734375,252089.953125,260228.5,219889.859375,246760.765625,206182.515625,234085.890625,134725.0,1.0,1
224844.34375,248946.40625,251426.109375,260150.71875,219280.8125,246451.0625,205822.921875,233811.859375,134726.0,1.0,1
224884.046875,248975.5625,251521.421875,260193.890625,219333.75,246476.1875,205860.203125,233853.078125,134727.0,1.0,1
224942.78125,249180.65625,252243.828125,260304.9375,219976.9375,246810.828125,206246.890625,234160.546875,134728.0,1.0,1
224934.109375,249273.8125,252604.5,260326.125,220328.84375,246990.71875,206451.265625,234304.9375,134729.0,1.0,1
224869.203125,249124.59375,252087.71875,260225.90625,219886.546875,246765.421875,206181.796875,234077.578125,134730.0,1.0,1
224843.09375,248953.03125,251431.296875,260154.015625,219286.53125,246462.421875,205826.3125,233809.0,134731.0,1.0,1
224892.171875,248993.890625,251530.984375,260205.15625,219346.703125,246492.453125,205873.875,233866.140625,134732.0,1.0,1
224938.046875,249179.140625,252233.28125,260300.46875,219970.5,246810.125,206244.734375,234157.421875,134733.0,1.0,1
224927.578125,249271.671875,252593.765625,260310.9375,220321.0625,246983.921875,206447.34375,234294.21875,134734.0,1.0,1
224877.6875,249133.359375,252094.78125,260228.140625,219893.078125,246765.59375,206186.453125,234080.53125,134735.0,1.0,1
224853.546875,248956.0625,251433.71875,260152.859375,219282.96875,246457.953125,205825.953125,233804.359375,134736.0,1.0,1
224884.75,248977.34375,251511.3125,260193.09375,219322.84375,246475.296875,205855.828125,233846.828125,134737.0,1.0,1
224935.09375,249170.375,252220.765625,260293.765625,219956.46875,246798.5,206233.296875,234152.859375,134738.0,1.0,1
224925.890625,249270.953125,252595.640625,260310.484375,220322.140625,246982.5,206443.578125,234298.421875,134739.0,1.0,1
224876.359375,249137.734375,252105.15625,260226.171875,219905.328125,246769.796875,206193.421875,234090.453125,134740.0,1.0,1
224842.5625,248948.90625,251436.390625,260150.359375,219290.921875,246458.75,205831.5,233815.4375,134741.0,1.0,1
224873.578125,248972.15625,251507.46875,260186.75,219325.96875,246475.375,205858.6875,233855.859375,134742.0,1.0,1
224917.75,249159.90625,252206.546875,260276.421875,219947.609375,246787.953125,206226.59375,234149.109375,134743.0,1.0,1
224914.703125,249259.78125,252586.609375,260302.34375,220319.546875,246974.546875,206444.828125,234302.265625,134744.0,1.0,1
224868.3125,249129.6875,252098.359375,260221.609375,219905.328125,246765.859375,206194.046875,234091.265625,134745.0,1.0,1
224848.28125,248954.90625,251436.3125,260155.625,219294.765625,246458.03125,205832.84375,233815.625,134746.0,1.0,1
224881.984375,248982.359375,251503.546875,260193.1875,219325.515625,246471.453125,205857.875,233854.25,134747.0,1.0,1
224939.296875,249180.75,252217.1875,260296.625,219962.984375,246800.375,206241.875,234162.078125,134748.0,1.0,1
224934.109375,249274.359375,252601.90625,260317.453125,220335.453125,246984.109375,206453.5,234308.78125,134749.0,1.0,1
224883.328125,249139.4375,252114.015625,260229.578125,219919.546875,246769.890625,206197.625,234095.734375,134750.0,1.0,1
224851.40625,248958.5625,251443.09375,260153.84375,219300.75,246455.4375,205831.953125,233819.015625,134751.0,1.0,1
224874.75,248970.375,251493.53125,260175.5625,219315.328125,246457.59375,205847.6875,233841.1875,134752.0,1.0,1
224927.5,249164.390625,252201.71875,260278.75,219944.484375,246782.765625,206224.984375,234142.046875,134753.0,1.0,1
224934.015625,249275.34375,252604.140625,260317.90625,220336.625,246985.625,206454.671875,234312.453125,134754.0,1.0,1
224888.515625,249147.84375,252125.71875,260237.625,219929.734375,246781.234375,206208.796875,234104.40625,134755.0,1.0,1
224853.734375,248966.796875,251448.109375,260156.609375,219307.640625,246469.75,205841.0625,233821.96875,134756.0,1.0,1
224881.71875,248977.4375,251496.390625,260186.203125,219321.3125,246472.609375,205855.015625,233849.140625,134757.0,1.0,1
224942.0625,249170.375,252206.71875,260291.4375,219952.625,246791.96875,206234.640625,234151.515625,134758.0,1.0,1
224940.90625,249278.109375,252609.0625,260319.0625,220341.1875,246986.703125,206462.890625,234310.75,134759.0,1.0,1
224886.28125,249148.5625,252133.6875,260233.59375,219938.578125,246779.984375,206218.640625,234105.125,134760.0,1.0,1
224857.484375,248964.734375,251457.859375,260155.09375,219321.765625,246469.84375,205852.25,233829.03125,134761.0,1.0,1
224890.390625,248974.84375,251496.5625,260188.265625,219326.140625,246466.96875,205855.828125,233850.484375,134762.0,1.0,1
224930.796875,249159.015625,252188.125,260277.671875,219938.140625,246776.59375,206219.34375,234135.34375,134763.0,1.0,1
224932.671875,249271.40625,252601.90625,260316.390625,220336.4375,246983.75,206457.171875,234307.171875,134764.0,1.0,1
224886.8125,249147.671875,252139.21875,260241.546875,219946.71875,246782.84375,206220.609375,234112.8125,134765.0,1.0,1
224864.28125,248968.21875,251468.671875,260174.9375,219333.125,246471.53125,205856.53125,233838.5,134766.0,1.0,1
224902.09375,248986.109375,251511.5,260210.609375,219341.34375,246477.53125,205872.1875,233869.625,134767.0,1.0,1
224950.734375,249183.78125,252213.15625,260303.78125,219967.8125,246802.25,206252.515625,234173.78125,134768.0,1.0,1
224945.1875,249285.703125,252620.40625,260331.5,220360.3125,247003.15625,206482.203125,234335.15625,134769.0,1.0,1
224896.828125,249161.25,252157.734375,260253.4375,219970.6875,246805.46875,206242.78125,234136.859375,134770.0,1.0,1
224853.015625,248967.515625,251466.4375,260162.515625,219336.25,246479.671875,205861.28125,233843.421875,134771.0,1.0,1
224886.71875,248978.59375,251495.3125,260191.390625,219330.34375,246471.625,205863.0625,233860.328125,134772.0,1.0,1
224942.25,249171.984375,252197.515625,260297.15625,219952.4375,246787.046875,206234.109375,234157.328125,134773.0,1.0,1
224945.90625,249289.90625,252619.34375,260334.625,220361.75,246995.453125,206472.375,234331.5,134774.0,1.0,1
224891.1875,249158.125,252155.3125,260246.734375,219971.65625,246796.625,206234.453125,234130.875,134775.0,1.0,1
224860.34375,248971.890625,251471.703125,260164.578125,219343.484375,246477.96875,205864.765625,233847.0,134776.0,1.0,1
224888.0625,248978.59375,251494.15625,260194.796875,219329.625,246467.6875,205865.203125,233863.453125,134777.0,1.0,1
224935.8125,249164.203125,252189.015625,260295.203125,219947.796875,246783.03125,206233.5625,234161.453125,134778.0,1.0,1
224936.171875,249275.34375,252613.96875,260328.640625,220360.40625,246991.34375,206470.3125,234335.15625,134779.0,1.0,1
224888.59375,249154.546875,252159.96875,260246.375,219972.296875,246793.125,206231.15625,234131.21875,134780.0,1.0,1
224864.1875,248978.78125,251480.390625,260175.921875,219349.75,246480.828125,205861.90625,233850.484375,134781.0,1.0,1
224894.234375,248983.328125,251497.640625,260206.140625,219332.5,246470.8125,205857.96875,233867.203125,134782.0,1.0,1
224937.5,249168.40625,252187.859375,260291.34375,219941.984375,246776.234375,206221.234375,234154.46875,134783.0,1.0,1
224937.421875,249273.640625,252616.484375,260326.3125,220354.953125,246981.78125,206458.875,234329.265625,134784.0,1.0,1
224897.984375,249159.109375,252179.28125,260254.6875,219988.296875,246803.765625,206237.859375,234140.609375,134785.0,1.0,1
224860.171875,248970.8125,251488.078125,260170.390625,219353.953125,246478.59375,205857.609375,233844.3125,134786.0,1.0,1
224889.40625,248979.21875,251494.515625,260198.375,219328.734375,246464.390625,205845.8125,233855.234375,134787.0,1.0,1
224946.53125,249180.203125,252194.5625,260306.546875,219950.390625,246787.328125,206224.171875,234158.5,134788.0,1.0,1
224958.78125,249305.734375,252641.421875,260349.828125,220379.8125,247008.78125,206480.328125,234346.25,134789.0,1.0,1
224909.34375,249174.9375,252195.8125,260269.625,220002.59375,246813.703125,206249.65625,234150.359375,134790.0,1.0,1
224876.078125,248991.5625,251505.421875,260177.796875,219371.109375,246497.375,205875.046875,233858.53125,134791.0,1.0,1
224885.921875,248981.8125,251490.9375,260188.09375,219328.46875,246469.203125,205852.953125,233853.265625,134792.0,1.0,1
224932.953125,249168.046875,252174.53125,260283.9375,219931.703125,246772.5625,206215.0625,234144.640625,134793.0,1.0,1
224942.421875,249286.6875,252620.953125,260327.203125,220355.3125,246990.09375,206464.0625,234326.578125,134794.0,1.0,1
224903.703125,249167.25,252187.953125,260254.875,219990.171875,246811.90625,206243.9375,234138.640625,134795.0,1.0,1
224865.984375,248977.53125,251490.9375,260168.5,219353.421875,246488.4375,205863.953125,233846.28125,134796.0,1.0,1
224883.5,248971.359375,251478.328125,260186.921875,219312.90625,246469.296875,205845.1875,233848.96875,134797.0,1.0,1
224937.6875,249167.609375,252175.609375,260292.78125,219928.296875,246789.109375,206217.921875,234146.0625,134798.0,1.0,1
224953.15625,249298.859375,252638.734375,260340.171875,220369.703125,247015.671875,206480.78125,234340.265625,134799.0,1.0,1
224899.234375,249174.046875,252203.0625,260256.84375,220004.5625,246825.9375,206258.0625,234151.4375,134800.0,1.0,1
224861.0625,248983.78125,251505.953125,260171.453125,219370.484375,246500.5,205880.59375,233858.53125,134801.0,1.0,1
224895.578125,248990.3125,251497.1875,260204.09375,219334.015625,246484.140625,205867.265625,233863.09375,134802.0,1.0,1
224941.984375,249172.78125,252173.015625,260295.28125,219930.53125,246783.75,206220.609375,234144.546875,134803.0,1.0,1
224946.71875,249293.578125,252624.4375,260331.046875,220362.8125,246999.578125,206470.3125,234328.8125,134804.0,1.0,1
224902.90625,249176.71875,252201.0,260258.359375,220007.609375,246823.984375,206256.546875,234148.484375,134805.0,1.0,1
224863.296875,248979.671875,251499.0625,260169.125,219362.71875,246495.046875,205871.28125,233847.8125,134806.0,1.0,1
224888.421875,248971.09375,251476.890625,260188.796875,219313.09375,246464.734375,205847.59375,233845.921875,134807.0,1.0,1
224943.046875,249164.203125,252163.90625,260291.265625,219920.4375,246769.4375,206210.140625,234137.125,134808.0,1.0,1
224954.3125,249295.015625,252630.515625,260341.0625,220368.265625,247001.453125,206473.359375,234331.765625,134809.0,1.0,1
224904.96875,249178.515625,252208.421875,260265.0625,220016.71875,246824.0625,206258.15625,234149.015625,134810.0,1.0,1
224874.75,248987.1875,251513.28125,260183.171875,219384.265625,246505.6875,205881.578125,233858.359375,134811.0,1.0,1
224903.796875,248990.9375,251490.9375,260203.640625,219333.203125,246482.4375,205860.734375,233863.90625,134812.0,1.0,1
224953.0625,249171.8125,252169.078125,260303.78125,219929.203125,246780.609375,206216.40625,234149.375,134813.0,1.0,1
224954.578125,249287.859375,252626.484375,260328.359375,220361.5625,246997.421875,206467.359375,234328.8125,134814.0,1.0,1
224906.21875,249176.0,252213.15625,260251.5625,220015.46875,246829.609375,206263.609375,234155.8125,134815.0,1.0,1
224874.390625,248987.1875,251515.515625,260168.0625,219381.21875,246510.78125,205890.515625,233870.421875,134816.0,1.0,1
224892.359375,248966.96875,251470.640625,260189.15625,219310.234375,246463.75,205851.796875,233855.671875,134817.0,1.0,1
224939.5625,249144.265625,252145.84375,260287.234375,219903.0,246768.640625,206210.234375,234143.46875,134818.0,1.0,1
224948.6875,249272.5625,252617.109375,260327.65625,220350.125,247000.375,206475.046875,234338.203125,134819.0,1.0,1
224907.640625,249169.125,252212.09375,260262.203125,220016.546875,246829.34375,206271.109375,234167.25,134820.0,1.0,1
224872.78125,248987.0,251515.515625,260174.234375,219383.09375,246505.6875,205894.625,233879.640625,134821.0,1.0,1
224901.296875,248976.546875,251475.828125,260196.484375,219318.71875,246475.296875,205862.4375,233873.828125,134822.0,1.0,1
224960.578125,249163.3125,252156.125,260303.328125,219919.1875,246782.671875,206222.203125,234166.1875,134823.0,1.0,1
224964.78125,249289.828125,252629.984375,260343.828125,220369.53125,247010.390625,206485.6875,234361.890625,134824.0,1.0,1
224923.734375,249182.171875,252231.046875,260270.15625,220034.703125,246845.875,206284.96875,234186.484375,134825.0,1.0,1
224884.3125,248988.078125,251525.796875,260181.921875,219390.34375,246522.9375,205899.1875,233887.859375,134826.0,1.0,1
224900.40625,248967.421875,251468.484375,260197.65625,219304.0625,246477.34375,205853.140625,233868.8125,134827.0,1.0,1
224952.078125,249152.40625,252142.265625,260294.390625,219898.171875,246781.515625,206210.859375,234156.34375,134828.0,1.0,1
224957.53125,249281.6875,252622.203125,260332.921875,220354.5,247012.8125,206479.25,234352.0625,134829.0,1.0,1
224895.484375,249162.0625,252209.59375,260244.40625,220010.109375,246831.671875,206268.078125,234175.578125,134830.0,1.0,1
224866.0625,248975.5625,251511.578125,260166.984375,219375.046875,246510.875,205891.9375,233887.859375,134831.0,1.0,1
224879.390625,248952.40625,251443.546875,260173.0625,219285.015625,246457.40625,205836.234375,233861.75,134832.0,1.0,1
224928.125,249134.515625,252110.515625,260267.5625,219874.390625,246754.328125,206187.609375,234140.609375,134833.0,1.0,1
224950.109375,249282.140625,252613.890625,260327.734375,220354.953125,247003.859375,206474.609375,234357.0625,134834.0,1.0,1
224914.96875,249183.78125,252233.28125,260265.328125,220042.390625,246844.265625,206283.71875,234193.984375,134835.0,1.0,1
224865.984375,248981.1875,251519.28125,260165.28125,219392.3125,246506.3125,205889.96875,233885.796875,134836.0,1.0,1
224885.296875,248959.640625,251452.125,260175.03125,219300.03125,246459.640625,205842.046875,233858.984375,134837.0,1.0,1
224940.015625,249145.15625,252124.921875,260277.84375,219892.71875,246767.203125,206199.40625,234147.40625,134838.0,1.0,1
224960.03125,249287.140625,252627.109375,260335.34375,220367.921875,247009.859375,206478.71875,234355.734375,134839.0,1.0,1
224915.59375,249183.421875,252241.859375,260261.125,220047.484375,246843.828125,206281.390625,234184.515625,134840.0,1.0,1
224865.359375,248977.796875,251520.265625,260163.40625,219390.78125,246503.359375,205885.59375,233875.25,134841.0,1.0,1
224885.734375,248963.84375,251448.203125,260178.96875,219297.53125,246456.421875,205840.171875,233852.71875,134842.0,1.0,1
224933.65625,249136.484375,252107.484375,260277.5,219881.265625,246752.09375,206190.203125,234132.390625,134843.0,1.0,1
224956.453125,249279.265625,252614.78125,260335.78125,220365.234375,247004.140625,206478.359375,234349.015625,134844.0,1.0,1
224897.453125,249170.203125,252221.03125,260247.71875,220039.609375,246836.671875,206279.078125,234171.015625,134845.0,1.0,1
224857.75,248978.15625,251512.03125,260159.46875,219391.859375,246509.0,205893.734375,233868.09375,134846.0,1.0,1
224889.9375,248965.625,251445.421875,260186.390625,219299.765625,246465.359375,205844.640625,233851.921875,134847.0,1.0,1
224939.109375,249144.453125,252107.125,260273.921875,219878.234375,246758.0,206191.359375,234132.828125,134848.0,1.0,1
224949.578125,249284.453125,252617.375,260325.140625,220356.296875,247003.234375,206475.046875,234339.015625,134849.0,1.0,1
224896.5625,249166.890625,252233.90625,260245.3125,220038.984375,246838.90625,206277.90625,234163.859375,134850.0,1.0,1
224859.09375,248970.546875,251522.046875,260154.109375,219392.75,246506.578125,205893.8125,233861.578125,134851.0,1.0,1
224887.609375,248957.3125,251445.6875,260179.6875,219293.875,246451.421875,205843.125,233839.140625,134852.0,1.0,1
224934.203125,249135.78125,252104.4375,260274.546875,219870.1875,246744.234375,206188.0625,234120.140625,134853.0,1.0,1
224947.875,249275.875,252614.328125,260322.375,220352.265625,246992.6875,206471.390625,234330.25,134854.0,1.0,1
224905.859375,249178.421875,252247.578125,260257.46875,220053.109375,246848.125,206293.296875,234178.4375,134855.0,1.0,1
224847.46875,248967.953125,251515.078125,260151.25,219387.75,246501.578125,205888.0,233863.546875,134856.0,1.0,1
224864.546875,248945.6875,251420.84375,260160.109375,219272.6875,246438.984375,205823.015625,233830.015625,134857.0,1.0,1
224917.84375,249129.609375,252081.90625,260262.65625,219857.40625,246741.984375,206176.609375,234118.0,134858.0,1.0,1
224924.625,249253.796875,252588.671875,260307.796875,220338.234375,246984.375,206454.484375,234324.171875,134859.0,1.0,1
224892.265625,249165.1875,252238.828125,260250.9375,220048.734375,246840.703125,206282.296875,234178.171875,134860.0,1.0,1
224860.609375,248980.203125,251536.078125,260165.28125,219406.609375,246513.734375,205903.65625,233885.53125,134861.0,1.0,1
224875.453125,248952.046875,251432.90625,260171.375,219281.265625,246444.0,205830.421875,233845.578125,134862.0,1.0,1
224915.78125,249120.3125,252080.125,260256.578125,219851.40625,246730.8125,206167.671875,234115.046875,134863.0,1.0,1
224924.09375,249254.234375,252595.640625,260302.171875,220340.203125,246982.234375,206453.328125,234326.578125,134864.0,1.0,1
224890.5625,249166.890625,252244.90625,260244.859375,220054.1875,246836.859375,206280.5,234178.25,134865.0,1.0,1
224858.375,248975.828125,251534.296875,260162.34375,219409.734375,246513.46875,205896.140625,233879.546875,134866.0,1.0,1
224881.265625,248954.015625,251432.28125,260173.875,219287.796875,246454.453125,205828.8125,233846.015625,134867.0,1.0,1
224926.515625,249132.640625,252079.3125,260263.90625,219857.484375,246748.34375,206170.71875,234118.703125,134868.0,1.0,1
224925.890625,249262.109375,252592.96875,260303.875,220338.953125,246992.6875,206450.203125,234316.828125,134869.0,1.0,1
224878.765625,249161.703125,252237.75,260232.515625,220045.421875,246842.3125,206270.3125,234160.28125,134870.0,1.0,1
224846.765625,248970.546875,251530.265625,260151.609375,219404.734375,246518.75,205889.609375,233867.65625,134871.0,1.0,1
224861.875,248934.421875,251410.109375,260154.734375,219270.4375,246445.34375,205813.53125,233826.4375,134872.0,1.0,1
224916.765625,249119.953125,252063.5,260256.296875,219846.21875,246739.125,206164.1875,234112.1875,134873.0,1.0,1
224927.140625,249258.34375,252587.515625,260307.984375,220341.984375,246988.484375,206452.171875,234323.453125,134874.0,1.0,1
224885.203125,249166.4375,252243.109375,260246.015625,220059.8125,246838.109375,206277.015625,234173.96875,134875.0,1.0,1
224855.25,248987.359375,251541.453125,260165.109375,219423.859375,246521.421875,205900.25,233886.25,134876.0,1.0,1
224857.046875,248941.21875,251406.71875,260156.34375,219271.609375,246437.296875,205808.25,233830.640625,134877.0,1.0,1
224906.125,249112.96875,252051.0625,260249.328125,219833.703125,246728.046875,206147.734375,234103.59375,134878.0,1.0,1
224925.890625,249255.671875,252584.46875,260307.53125,220334.484375,246985.265625,206442.515625,234324.4375,134879.0,1.0,1
224879.21875,249162.15625,252239.71875,260232.96875,220054.28125,246838.1875,206269.328125,234174.046875,134880.0,1.0,1
224836.03125,248970.90625,251524.90625,260138.640625,219405.625,246515.703125,205884.96875,233873.375,134881.0,1.0,1
224855.25,248935.5,251396.15625,260144.90625,219260.875,246439.96875,205803.609375,233822.328125,134882.0,1.0,1
224912.734375,249113.59375,252042.84375,260248.4375,219829.5,246732.515625,206147.28125,234099.3125,134883.0,1.0,1
224931.96875,249265.859375,252587.328125,260309.40625,220341.625,246998.046875,206451.8125,234327.65625,134884.0,1.0,1
224892.890625,249183.15625,252263.953125,260248.796875,220076.8125,246862.6875,206295.53125,234186.296875,134885.0,1.0,1
224840.5,248976.8125,251539.296875,260145.0,219413.140625,246518.828125,205896.40625,233872.296875,134886.0,1.0,1
224850.875,248933.71875,251398.484375,260143.46875,219256.765625,246432.109375,205805.390625,233813.109375,134887.0,1.0,1
224908.890625,249115.65625,252042.03125,260246.734375,219823.15625,246721.15625,206145.59375,234087.953125,134888.0,1.0,1
224928.65625,249271.5,252591.984375,260303.875,220339.65625,246989.375,206448.140625,234317.90625,134889.0,1.0,1
224879.75,249179.5,252264.75,260238.59375,220072.875,246856.96875,206285.78125,234176.828125,134890.0,1.0,1
224837.640625,248980.65625,251543.765625,260145.4375,219418.859375,246527.59375,205897.390625,233874.265625,134891.0,1.0,1
224853.109375,248939.53125,251397.5,260146.515625,219260.703125,246446.859375,205809.78125,233826.34375,134892.0,1.0,1
224901.46875,249109.84375,252028.625,260239.9375,219812.96875,246726.796875,206145.953125,234096.265625,134893.0,1.0,1
224919.0,249256.296875,252573.828125,260300.65625,220325.890625,246983.03125,206446.0,234322.109375,134894.0,1.0,1
224874.921875,249167.25,252251.15625,260237.265625,220066.796875,246850.53125,206285.0625,234178.609375,134895.0,1.0,1
224839.6875,248978.421875,251542.609375,260143.390625,219427.0,246526.4375,205906.34375,233882.765625,134896.0,1.0,1
224855.15625,248935.765625,251395.0,260147.671875,219262.046875,246436.578125,205814.34375,233824.296875,134897.0,1.0,1
224909.4375,249107.25,252028.53125,260249.328125,219815.65625,246716.875,206146.484375,234092.15625,134898.0,1.0,1
224935.984375,249265.765625,252589.296875,260319.421875,220339.84375,246985.0,206456.375,234328.375,134899.0,1.0,1
224873.9375,249159.90625,252256.609375,260229.484375,220069.75,246838.640625,206283.09375,234176.375,134900.0,1.0,1
224838.796875,248974.484375,251545.375,260137.75,219425.03125,246512.3125,205899.625,233878.828125,134901.0,1.0,1
224856.140625,248932.640625,251392.765625,260142.40625,219256.234375,246426.5625,205803.875,233819.109375,134902.0,1.0,1
224910.328125,249101.890625,252026.03125,260243.421875,219811.359375,246710.703125,206133.703125,234087.0625,134903.0,1.0,1
224925.4375,249252.71875,252580.453125,260295.828125,220330.546875,246978.296875,206437.59375,234312.1875,134904.0,1.0,1
224878.59375,249165.453125,252266.09375,260229.578125,220078.5,246848.75,206280.5,234171.90625,134905.0,1.0,1
224850.0625,248983.0625,251556.734375,260149.28125,219436.5625,246526.515625,205900.53125,233876.421875,134906.0,1.0,1
224876.265625,248954.09375,251402.15625,260164.390625,219269.640625,246439.96875,205808.4375,233823.21875,134907.0,1.0,1
224922.578125,249119.6875,252027.28125,260257.28125,219816.546875,246715.34375,206136.296875,234090.375,134908.0,1.0,1
224922.84375,249254.0625,252576.875,260300.109375,220328.390625,246974.453125,206432.671875,234310.046875,134909.0,1.0,1
224879.84375,249169.921875,252271.71875,260234.484375,220084.671875,246855.1875,206283.453125,234177.8125,134910.0,1.0,1
224847.03125,248982.796875,251560.21875,260146.25,219440.140625,246530.359375,205901.234375,233879.546875,134911.0,1.0,1
224863.390625,248937.5625,251393.390625,260150.71875,219257.125,246430.59375,205796.71875,233815.890625,134912.0,1.0,1
224915.515625,249111.453125,252020.84375,260250.3125,219804.296875,246706.9375,206128.875,234086.34375,134913.0,1.0,1
224919.71875,249259.421875,252576.953125,260301.09375,220322.59375,246966.046875,206431.6875,234313.609375,134914.0,1.0,1
224879.65625,249178.25,252280.125,260242.359375,220087.171875,246849.546875,206287.296875,234183.796875,134915.0,1.0,1
224842.90625,248988.34375,251566.125,260150.09375,219443.71875,246527.59375,205905.890625,233884.109375,134916.0,1.0,1
224851.765625,248934.15625,251384.53125,260148.296875,219253.28125,246428.703125,205797.171875,233812.9375,134917.0,1.0,1
224907.828125,249106.984375,252004.9375,260245.75,219795.890625,246710.515625,206127.703125,234080.71875,134918.0,1.0,1
224921.6875,249258.703125,252567.296875,260298.140625,220321.6875,246977.484375,206434.109375,234309.953125,134919.0,1.0,1
224881.453125,249181.640625,252277.984375,260239.5,220092.453125,246860.640625,206291.59375,234182.71875,134920.0,1.0,1
224846.84375,248990.671875,251566.390625,260152.953125,219451.140625,246539.578125,205910.984375,233885.0,134921.0,1.0,1
224856.234375,248939.890625,251378.546875,260148.921875,219256.5,246439.265625,205799.578125,233811.234375,134922.0,1.0,1
224907.5625,249110.03125,251995.359375,260243.875,219795.796875,246708.109375,206120.5625,234074.984375,134923.0,1.0,1
224925.078125,249260.765625,252570.25,260304.578125,220333.046875,246980.265625,206433.65625,234313.265625,134924.0,1.0,1
224885.203125,249180.03125,252291.21875,260247.984375,220109.34375,246867.078125,206297.140625,234191.671875,134925.0,1.0,1
224851.140625,248987.53125,251576.765625,260162.515625,219460.875,246543.515625,205909.5625,233890.8125,134926.0,1.0,1
224862.40625,248939.609375,251387.84375,260152.328125,219258.828125,246437.65625,205795.828125,233816.515625,134927.0,1.0,1
224907.90625,249102.0625,251995.546875,260240.84375,219786.6875,246701.40625,206112.0625,234071.234375,134928.0,1.0,1
224932.59375,249261.65625,252577.5,260311.015625,220331.96875,246978.921875,206434.46875,234313.34375,134929.0,1.0,1
224887.609375,249178.0625,252295.59375,260246.296875,220108.09375,246863.3125,206295.796875,234186.125,134930.0,1.0,1
224846.484375,248984.40625,251576.140625,260153.671875,219462.046875,246530.984375,205908.921875,233888.3125,134931.0,1.0,1
224861.953125,248936.390625,251382.390625,260153.125,219257.921875,246426.828125,205794.21875,233819.28125,134932.0,1.0,1
224912.03125,249107.25,251992.140625,260245.671875,219791.234375,246702.109375,206117.96875,234078.5625,134933.0,1.0,1
224930.890625,249266.390625,252573.734375,260309.140625,220336.71875,246980.703125,206440.546875,234322.015625,134934.0,1.0,1
224894.234375,249189.859375,252304.09375,260251.75,220125.4375,246871.8125,206305.625,234199.71875,134935.0,1.0,1
224854.890625,248998.53125,251585.796875,260157.859375,219477.0625,246546.1875,205917.328125,233897.0625,134936.0,1.0,1
224863.03125,248937.46875,251376.3125,260145.4375,219255.421875,246429.515625,205786.359375,233807.75,134937.0,1.0,1
224916.859375,249106.0,251986.96875,260241.1875,219785.703125,246699.875,206111.078125,234070.515625,134938.0,1.0,1
224939.828125,249265.953125,252575.4375,260308.421875,220330.71875,246979.015625,206435.0,234314.953125,134939.0,1.0,1
224899.953125,249194.96875,252311.875,260258.453125,220123.203125,246871.453125,206308.046875,234203.28125,134940.0,1.0,1
224844.796875,248992.09375,251580.609375,260151.78125,219464.546875,246528.390625,205910.0,233891.4375,134941.0,1.0,1
224856.5,248941.765625,251369.515625,260147.40625,219246.3125,246414.84375,205783.9375,233807.84375,134942.0,1.0,1
224902.1875,249105.28125,251970.6875,260235.65625,219769.421875,246687.546875,206100.890625,234066.046875,134943.0,1.0,1
224925.890625,249264.609375,252562.203125,260303.25,220322.40625,246974.546875,206429.8125,234313.609375,134944.0,1.0,1
224887.796875,249194.0625,252306.59375,260247.28125,220120.796875,246873.515625,206304.5625,234199.265625,134945.0,1.0,1
224845.421875,249003.8125,251592.671875,260154.921875,219475.640625,246545.65625,205915.8125,233896.078125,134946.0,1.0,1
224852.03125,248940.328125,251368.984375,260141.5,219246.125,246422.453125,205779.375,233802.65625,134947.0,1.0,1
224906.21875,249106.890625,251969.171875,260238.328125,219773.09375,246690.21875,206097.84375,234063.09375,134948.0,1.0,1
224927.21875,249267.203125,252561.765625,260301.09375,220327.5,246973.28125,206425.875,234311.46875,134949.0,1.0,1
224883.234375,249193.890625,252307.84375,260244.5,220130.625,246872.171875,206307.140625,234199.71875,134950.0,1.0,1
224843.1875,249002.640625,251591.34375,260152.6875,219486.625,246547.703125,205922.25,233900.375,134951.0,1.0,1
224857.484375,248942.03125,251367.640625,260142.75,219254.984375,246428.703125,205790.203125,233811.234375,134952.0,1.0,1
224906.65625,249097.328125,251958.4375,260232.703125,219765.140625,246687.28125,206098.65625,234059.171875,134953.0,1.0,1
224932.140625,249260.765625,252558.90625,260298.953125,220322.40625,246970.25,206426.859375,234305.21875,134954.0,1.0,1
224884.84375,249186.203125,252311.0625,260242.265625,220130.8125,246865.109375,206304.375,234190.40625,134955.0,1.0,1
224839.875,248987.53125,251588.125,260140.078125,219479.484375,246528.75,205911.703125,233879.8125,134956.0,1.0,1
224859.984375,248938.71875,251366.921875,260141.328125,219251.765625,246414.5,205786.078125,233801.046875,134957.0,1.0,1
224919.890625,249109.21875,251967.109375,260244.140625,219771.65625,246687.359375,206104.8125,234066.40625,134958.0,1.0,1
224939.5625,249267.203125,252562.203125,260303.515625,220326.609375,246968.8125,206429.640625,234309.0625,134959.0,1.0,1
224898.609375,249194.78125,252320.625,260247.984375,220142.25,246873.6875,206312.953125,234197.125,134960.0,1.0,1
224860.703125,249002.734375,251606.265625,260160.8125,219497.625,246550.484375,205927.34375,233898.046875,134961.0,1.0,1
224866.25,248939.078125,251365.765625,260148.390625,219251.578125,246423.4375,205786.796875,233804.4375,134962.0,1.0,1
224915.328125,249098.484375,251948.515625,260234.578125,219759.953125,246679.140625,206095.078125,234055.671875,134963.0,1.0,1
224950.46875,249272.75,252563.734375,260314.953125,220332.234375,246974.8125,206436.609375,234316.828125,134964.0,1.0,1
224900.84375,249195.234375,252322.6875,260250.21875,220141.53125,246871.453125,206311.890625,234199.53125,134965.0,1.0,1
224857.671875,248999.703125,251606.171875,260153.390625,219494.40625,246543.59375,205923.0625,233896.984375,134966.0,1.0,1
224873.21875,248938.28125,251368.265625,260148.921875,219252.65625,246418.515625,205784.109375,233804.890625,134967.0,1.0,1
224918.015625,249095.265625,251949.59375,260238.328125,219754.859375,246673.859375,206085.234375,234053.078125,134968.0,1.0,1
224947.25,249270.515625,252566.671875,260316.125,220329.65625,246970.15625,206426.5,234314.0625,134969.0,1.0,1
224904.609375,249203.546875,252334.125,260255.765625,220155.390625,246876.1875,206317.421875,234208.828125,134970.0,1.0,1
224867.234375,249014.453125,251619.5,260161.53125,219511.9375,246551.90625,205934.59375,233907.34375,134971.0,1.0,1
224869.640625,248940.859375,251365.765625,260151.15625,219253.1875,246415.921875,205782.59375,233801.046875,134972.0,1.0,1
224932.671875,249113.328125,251960.046875,260258.1875,219770.671875,246682.359375,206095.703125,234059.96875,134973.0,1.0,1
224957.171875,249276.140625,252573.828125,260315.84375,220341.625,246971.234375,206429.90625,234313.96875,134974.0,1.0,1
224909.609375,249204.625,252344.40625,260250.578125,220164.0625,246874.578125,206316.265625,234203.46875,134975.0,1.0,1
224866.0625,249007.296875,251624.5,260153.84375,219515.421875,246544.9375,205928.6875,233897.25,134976.0,1.0,1
224879.484375,248941.84375,251373.546875,260147.40625,219259.71875,246418.421875,205784.390625,233802.484375,134977.0,1.0,1
224922.3125,249088.390625,251940.921875,260233.59375,219752.796875,246664.390625,206078.265625,234040.65625,134978.0,1.0,1
224942.78125,249248.875,252552.734375,260299.125,220319.90625,246951.296875,206409.34375,234290.90625,134979.0,1.0,1
224905.046875,249189.234375,252342.0,260247.71875,220158.796875,246870.203125,206309.03125,234197.828125,134980.0,1.0,1
224862.84375,248997.640625,251625.765625,260155.453125,219515.234375,246546.8125,205925.5625,233898.59375,134981.0,1.0,1
224877.875,248937.921875,251369.78125,260155.90625,219258.203125,246418.34375,205778.9375,233801.578125,134982.0,1.0,1
224930.53125,249099.390625,251944.859375,260256.390625,219761.734375,246678.25,206081.75,234052.015625,134983.0,1.0,1
224946.890625,249261.65625,252559.53125,260313.703125,220331.890625,246971.046875,206417.296875,234307.171875,134984.0,1.0,1
224902.453125,249199.875,252344.765625,260248.703125,220166.75,246887.1875,206315.90625,234205.875,134985.0,1.0,1
224861.0625,249011.59375,251631.125,260152.953125,219524.453125,246567.828125,205934.953125,233902.875,134986.0,1.0,1
224872.5,248943.015625,251365.234375,260144.90625,219258.734375,246430.40625,205783.84375,233799.96875,134987.0,1.0,1
224918.734375,249089.46875,251928.671875,260231.890625,219746.625,246673.0625,206075.578125,234040.5625,134988.0,1.0,1
224944.03125,249250.65625,252554.25,260300.921875,220321.328125,246962.109375,206414.25,234297.078125,134989.0,1.0,1
224911.578125,249202.203125,252359.078125,260251.46875,220174.890625,246884.6875,206323.0625,234208.109375,134990.0,1.0,1
224869.734375,249009.984375,251643.8125,260157.859375,219535.171875,246560.859375,205941.296875,233908.609375,134991.0,1.0,1
224874.109375,248935.5,251362.28125,260142.84375,219255.609375,246418.515625,205779.828125,233795.953125,134992.0,1.0,1
224932.671875,249100.734375,251932.875,260241.109375,219755.203125,246676.546875,206084.96875,234049.515625,134993.0,1.0,1
224958.78125,249272.296875,252559.171875,260321.03125,220337.34375,246974.984375,206427.40625,234307.984375,134994.0,1.0,1
224918.640625,249215.078125,252367.203125,260271.859375,220191.78125,246901.5,206337.71875,234217.765625,134995.0,1.0,1
224860.265625,249005.421875,251637.5625,260148.921875,219534.28125,246564.25,205937.265625,233902.96875,134996.0,1.0,1
224870.453125,248935.59375,251360.578125,260137.578125,219259.0,246424.6875,205780.1875,233797.828125,134997.0,1.0,1
224923.203125,249090.890625,251921.0625,260233.328125,219744.5625,246669.84375,206073.96875,234036.453125,134998.0,1.0,1
224949.578125,249256.390625,252552.640625,260309.40625,220329.46875,246971.234375,206420.96875,234300.65625,134999.0,1.0,1
224918.90625,249207.921875,252369.890625,260265.15625,220195.453125,246906.140625,206340.671875,234222.328125,135000.0,1.0,1
224867.5,249011.3125,251647.75,260163.046875,219547.875,246575.34375,205948.625,233914.59375,135001.0,1.0,1
224879.21875,248940.15625,251364.515625,260148.03125,219266.421875,246428.890625,205786.796875,233805.25,135002.0,1.0,1
224927.5,249092.859375,251918.828125,260234.40625,219744.390625,246671.09375,206073.96875,234037.34375,135003.0,1.0,1
224947.15625,249259.15625,252549.0625,260299.671875,220324.375,246969.171875,206419.796875,234294.578125,135004.0,1.0,1
224914.796875,249211.328125,252372.3125,260256.03125,220196.875,246905.25,206342.546875,234215.0,135005.0,1.0,1
224859.90625,249011.953125,251646.765625,260147.140625,219543.21875,246571.140625,205947.734375,233901.09375,135006.0,1.0,1
224879.21875,248951.0625,251366.296875,260146.0625,219265.34375,246434.15625,205791.625,233799.96875,135007.0,1.0,1
224937.15625,249106.359375,251924.375,260248.890625,219751.453125,246685.125,206087.203125,234046.828125,135008.0,1.0,1
224958.703125,249275.875,252559.796875,260319.875,220340.734375,246983.484375,206434.90625,234309.953125,135009.0,1.0,1
224912.296875,249213.828125,252372.484375,260259.25,220201.265625,246906.59375,206341.75,234215.984375,135010.0,1.0,1
224860.796875,249015.96875,251652.3125,260153.578125,219551.890625,246580.171875,205951.671875,233907.53125,135011.0,1.0,1
224862.3125,248934.78125,251349.3125,260132.390625,219251.671875,246429.6875,205778.125,233789.15625,135012.0,1.0,1
224915.6875,249081.234375,251897.828125,260220.359375,219723.734375,246670.109375,206063.515625,234026.359375,135013.0,1.0,1
224945.375,249253.515625,252538.609375,260290.546875,220314.71875,246968.8125,206409.15625,234288.140625,135014.0,1.0,1
224914.34375,249212.484375,252378.46875,260251.65625,220202.609375,246914.640625,206338.890625,234215.71875,135015.0,1.0,1
224863.296875,249016.140625,251661.078125,260153.03125,219559.765625,246589.640625,205953.28125,233912.171875,135016.0,1.0,1
224859.90625,248927.453125,251346.0,260131.765625,219250.0625,246425.9375,205775.09375,233786.65625,135017.0,1.0,1
224908.265625,249074.890625,251886.640625,260224.296875,219715.78125,246656.703125,206054.9375,234020.0,135018.0,1.0,1
224940.1875,249260.5,252538.421875,260303.875,220316.5,246965.234375,206409.078125,234296.1875,135019.0,1.0,1
224912.5625,249224.90625,252388.40625,260264.4375,220214.765625,246918.21875,206345.5,234229.390625,135020.0,1.0,1
224868.03125,249028.21875,251674.3125,260164.9375,219574.34375,246592.40625,205958.375,233926.21875,135021.0,1.0,1
224874.390625,248945.25,251360.9375,260146.875,219264.453125,246432.546875,205780.8125,233802.5625,135022.0,1.0,1
224908.984375,249080.078125,251882.625,260219.828125,219711.9375,246654.46875,206048.046875,234016.609375,135023.0,1.0,1
224942.515625,249261.921875,252533.59375,260295.828125,220312.9375,246968.734375,206406.5625,234290.453125,135024.0,1.0,1
224908.265625,249216.78125,252378.296875,260249.59375,220204.296875,246912.40625,206335.671875,234218.75,135025.0,1.0,1
224865.53125,249020.265625,251665.90625,260155.1875,219567.28125,246592.328125,205954.890625,233921.5625,135026.0,1.0,1
224874.921875,248933.453125,251353.515625,260142.671875,219256.140625,246436.671875,205779.109375,233801.578125,135027.0,1.0,1
224927.3125,249082.046875,251893.265625,260235.828125,219717.921875,246674.125,206060.5625,234036.359375,135028.0,1.0,1
224945.109375,249252.09375,252532.875,260301.984375,220309.625,246970.0625,206407.109375,234296.984375,135029.0,1.0,1
224897.625,249196.84375,252373.203125,260248.96875,220196.515625,246901.578125,206331.5625,234218.84375,135030.0,1.0,1
224853.734375,249005.78125,251666.703125,260154.015625,219562.984375,246582.046875,205952.65625,233924.25,135031.0,1.0,1
224858.46875,248921.375,251340.546875,260137.390625,219241.828125,246413.421875,205764.453125,233793.171875,135032.0,1.0,1
224907.640625,249063.09375,251869.65625,260218.03125,219696.46875,246645.34375,206037.3125,234019.46875,135033.0,1.0,1
224940.453125,249239.671875,252526.359375,260291.703125,220299.875,246959.875,206395.484375,234293.046875,135034.0,1.0,1
224918.109375,249212.84375,252397.96875,260259.25,220215.296875,246922.0625,206345.765625,234242.265625,135035.0,1.0,1
224867.046875,249013.46875,251681.640625,260154.734375,219571.296875,246590.53125,205958.90625,233937.21875,135036.0,1.0,1
224873.671875,248925.40625,251351.90625,260139.359375,219246.484375,246425.84375,205771.59375,233807.578125,135037.0,1.0,1
224922.484375,249068.984375,251878.15625,260225.546875,219701.46875,246656.703125,206046.96875,234037.34375,135038.0,1.0,1
224953.6875,249249.234375,252536.71875,260296.890625,220311.140625,246973.46875,206407.640625,234313.609375,135039.0,1.0,1
224922.75,249215.53125,252406.1875,260260.859375,220226.734375,246931.09375,206354.265625,234253.0,135040.0,1.0,1
224877.421875,249021.421875,251695.765625,260164.296875,219589.71875,246611.90625,205974.109375,233949.8125,135041.0,1.0,1
224879.75,248929.6875,251355.03125,260142.75,219254.34375,246436.484375,205778.21875,233812.046875,135042.0,1.0,1
224935.71875,249070.859375,251876.640625,260235.109375,219703.0,246662.234375,206052.15625,234040.296875,135043.0,1.0,1
224957.71875,249235.109375,252522.421875,260300.296875,220294.0625,246962.5625,206399.953125,234299.84375,135044.0,1.0,1
224920.15625,249198.1875,252394.21875,260252.90625,220204.84375,246916.875,206341.21875,234236.1875,135045.0,1.0,1
224874.65625,249013.640625,251690.125,260155.8125,219575.859375,246599.03125,205964.265625,233941.765625,135046.0,1.0,1
224872.6875,248923.515625,251344.75,260130.6875,219239.875,246423.609375,205766.953125,233804.4375,135047.0,1.0,1
224927.3125,249067.375,251866.4375,260221.875,219689.765625,246652.234375,206042.0625,234035.109375,135048.0,1.0,1
224962.0,249252.71875,252536.546875,260306.375,220305.59375,246969.4375,206410.5,234320.140625,135049.0,1.0,1
224915.515625,249212.75,252407.796875,260253.265625,220220.75,246921.25,206354.171875,234258.453125,135050.0,1.0,1
224866.421875,249024.46875,251698.53125,260155.1875,219586.765625,246605.5625,205976.609375,233963.671875,135051.0,1.0,1
224868.65625,248933.0,251347.53125,260133.546875,219248.546875,246430.9375,205779.203125,233823.21875,135052.0,1.0,1
224919.625,249070.6875,251859.015625,260219.5625,219684.9375,246645.703125,206041.78125,234042.359375,135053.0,1.0,1
224950.296875,249249.5,252523.765625,260292.875,220295.3125,246957.28125,206402.640625,234317.015625,135054.0,1.0,1
224924.0,249221.34375,252417.640625,260260.0625,220235.328125,246923.9375,206364.546875,234268.5625,135055.0,1.0,1
224873.21875,249023.390625,251702.734375,260157.15625,219597.234375,246598.40625,205978.390625,233960.640625,135056.0,1.0,1
224871.875,248921.640625,251341.359375,260130.78125,219239.421875,246413.953125,205765.78125,233808.90625,135057.0,1.0,1
224924.8125,249060.21875,251852.671875,260223.578125,219673.9375,246632.640625,206025.6875,234026.703125,135058.0,1.0,1
224958.15625,249245.125,252527.15625,260303.6875,220295.40625,246954.515625,206394.59375,234310.578125,135059.0,1.0,1
224925.796875,249214.984375,252421.65625,260266.578125,220234.515625,246924.109375,206353.1875,234260.15625,135060.0,1.0,1
224872.328125,249017.75,251706.5,260160.546875,219598.03125,246599.75,205969.90625,233955.625,135061.0,1.0,1
224863.390625,248911.625,251334.03125,260124.875,219236.65625,246412.34375,205756.84375,233802.296875,135062.0,1.0,1
224917.484375,249053.515625,251839.984375,260219.109375,219668.3125,246632.734375,206024.796875,234025.71875,135063.0,1.0,1
224948.0625,249236.796875,252508.828125,260292.421875,220280.828125,246947.53125,206388.328125,234302.703125,135064.0,1.0,1
224911.40625,249206.140625,252404.9375,260242.53125,220219.59375,246911.78125,206346.125,234247.71875,135065.0,1.0,1
224867.140625,249017.9375,251702.5625,260147.859375,219595.890625,246597.59375,205975.265625,233953.65625,135066.0,1.0,1
224876.359375,248928.890625,251343.671875,260133.640625,219246.9375,246428.984375,205776.34375,233814.1875,135067.0,1.0,1
224929.90625,249066.484375,251845.875,260222.59375,219676.625,246650.890625,206039.546875,234027.875,135068.0,1.0,1
224960.84375,249248.78125,252519.203125,260306.1875,220294.609375,246966.5,206406.203125,234314.59375,135069.0,1.0,1
224914.703125,249216.0625,252417.453125,260255.671875,220233.53125,246932.78125,206363.109375,234258.546875,135070.0,1.0,1
224861.6875,249019.90625,251711.046875,260155.453125,219601.515625,246611.375,205980.90625,233957.59375,135071.0,1.0,1
224857.390625,248913.421875,251335.28125,260128.625,219235.125,246420.75,205766.5,233807.65625,135072.0,1.0,1
224907.90625,249050.5625,251827.90625,260213.828125,219658.109375,246635.953125,206021.40625,234021.796875,135073.0,1.0,1
224943.140625,249238.765625,252504.8125,260293.59375,220283.0625,246957.1875,206388.328125,234297.4375,135074.0,1.0,1
224916.578125,249219.09375,252422.828125,260257.28125,220242.296875,246934.390625,206358.203125,234253.625,135075.0,1.0,1
224873.21875,249035.109375,251724.734375,260160.734375,219618.59375,246614.671875,205988.046875,233958.9375,135076.0,1.0,1
224877.78125,248939.25,251351.28125,260138.828125,219255.6875,246429.328125,205780.09375,233809.8125,135077.0,1.0,1
224916.5,249055.75,251827.109375,260210.265625,219661.953125,246632.296875,206020.0625,234009.90625,135078.0,1.0,1
224944.21875,249240.828125,252503.734375,260290.1875,220284.765625,246953.890625,206388.0625,234294.9375,135079.0,1.0,1
224914.4375,249218.75,252425.6875,260260.234375,220249.546875,246937.96875,206362.40625,234258.453125,135080.0,1.0,1
224867.5,249027.234375,251722.046875,260161.171875,219621.71875,246618.4375,205985.015625,233955.546875,135081.0,1.0,1
224865.171875,248919.671875,251332.859375,260132.828125,219243.09375,246422.625,205766.5,233797.296875,135082.0,1.0,1
224908.71875,249047.34375,251811.375,260206.421875,219649.53125,246629.515625,206016.75,234005.875,135083.0,1.0,1
224946.0,249237.703125,252497.921875,260289.203125,220276.359375,246950.671875,206389.3125,234291.984375,135084.0,1.0,1
224924.1875,249230.28125,252440.078125,260261.40625,220254.015625,246944.953125,206371.515625,234266.046875,135085.0,1.0,1
224885.828125,249050.296875,251751.375,260176.90625,219640.5,246639.796875,206006.03125,233979.953125,135086.0,1.0,1
224872.421875,248932.90625,251346.546875,260131.9375,219251.9375,246432.203125,205770.609375,233808.90625,135087.0,1.0,1
224918.109375,249062.1875,251821.828125,260211.78125,219659.0,246637.296875,206015.40625,234014.375,135088.0,1.0,1
224955.65625,249252.625,252508.65625,260297.875,220289.953125,246962.296875,206391.453125,234307.359375,135089.0,1.0,1
224923.5625,249230.640625,252441.6875,260261.578125,220261.875,246943.515625,206369.015625,234274.28125,135090.0,1.0,1
224872.6875,249038.40625,251740.375,260160.28125,219640.859375,246622.1875,205991.265625,233974.765625,135091.0,1.0,1
224873.21875,248934.15625,251341.53125,260130.859375,219257.5625,246426.109375,205767.3125,233810.34375,135092.0,1.0,1
224925.53125,249064.703125,251815.484375,260219.734375,219658.5625,246629.34375,206015.0625,234018.125,135093.0,1.0,1
224962.625,249258.703125,252506.953125,260304.765625,220289.859375,246958.53125,206393.78125,234311.203125,135094.0,1.0,1
224918.1875,249229.828125,252437.3125,260253.796875,220260.71875,246941.546875,206371.96875,234271.328125,135095.0,1.0,1
224865.625,249033.671875,251736.71875,260149.8125,219637.375,246623.609375,206000.75,233972.796875,135096.0,1.0,1
224863.5625,248924.953125,251333.390625,260120.40625,219245.859375,246427.09375,205770.703125,233807.3125,135097.0,1.0,1
224919.265625,249056.828125,251806.8125,260209.453125,219647.296875,246630.953125,206013.890625,234013.03125,135098.0,1.0,1
224947.78125,249237.25,252490.5,260290.28125,220274.484375,246947.0,206383.859375,234299.765625,135099.0,1.0,1
224917.03125,249218.203125,252437.65625,260256.484375,220263.84375,246936.625,206373.84375,234273.921875,135100.0,1.0,1
224876.890625,249042.078125,251750.125,260165.28125,219656.328125,246631.03125,206011.125,233988.71875,135101.0,1.0,1
224869.734375,248930.140625,251338.5,260129.171875,219259.984375,246428.53125,205777.046875,233819.640625,135102.0,1.0,1
224917.203125,249055.9375,251802.78125,260211.515625,219652.296875,246624.953125,206016.578125,234020.8125,135103.0,1.0,1
224948.140625,249238.6875,252490.59375,260293.59375,220277.875,246944.765625,206386.71875,234308.25,135104.0,1.0,1
224915.515625,249221.25,252445.171875,260257.375,220268.3125,246938.328125,206373.3125,234277.859375,135105.0,1.0,1
224868.65625,249040.828125,251755.671875,260152.953125,219656.421875,246631.9375,206009.15625,233983.96875,135106.0,1.0,1
224863.921875,248929.328125,251335.453125,260117.546875,219254.4375,246425.9375,205773.5625,233810.703125,135107.0,1.0,1
224917.484375,249057.359375,251790.984375,260203.28125,219642.828125,246624.59375,206009.875,234010.078125,135108.0,1.0,1
224948.5,249238.59375,252477.53125,260283.65625,220274.03125,246943.96875,206384.390625,234300.296875,135109.0,1.0,1
224915.875,249219.015625,252438.203125,260249.15625,220271.359375,246939.9375,206375.71875,234276.6875,135110.0,1.0,1
224872.953125,249032.0625,251751.734375,260156.25,219660.96875,246631.484375,206008.703125,233985.765625,135111.0,1.0,1
224881.625,248936.390625,251345.28125,260134.265625,219269.640625,246435.328125,205783.140625,233826.4375,135112.0,1.0,1
224931.0625,249061.5625,251801.171875,260220.8125,219659.28125,246633.09375,206021.3125,234029.03125,135113.0,1.0,1
224955.484375,249241.0,252486.03125,260296.890625,220285.296875,246947.984375,206387.875,234310.9375,135114.0,1.0,1
224908.453125,249220.265625,252443.390625,260248.796875,220278.859375,246939.3125,206374.5625,234278.75,135115.0,1.0,1
224856.140625,249031.34375,251751.28125,260147.578125,219662.140625,246628.796875,206004.6875,233983.796875,135116.0,1.0,1
224854.0,248919.234375,251327.3125,260112.09375,219254.703125,246424.0625,205768.921875,233813.65625,135117.0,1.0,1
224904.0625,249036.984375,251774.0,260193.1875,219632.09375,246611.09375,205997.359375,234006.328125,135118.0,1.0,1
224943.234375,249229.65625,252472.171875,260279.28125,220268.234375,246936.984375,206374.828125,234298.0625,135119.0,1.0,1
224914.265625,249222.40625,252445.078125,260245.671875,220277.25,246942.171875,206372.140625,234275.625,135120.0,1.0,1
224866.515625,249035.734375,251757.8125,260147.765625,219666.609375,246631.84375,206003.4375,233982.546875,135121.0,1.0,1
224862.5,248918.15625,251329.375,260115.125,219253.546875,246423.875,205760.0625,233805.25,135122.0,1.0,1
224921.234375,249052.171875,251785.171875,260205.15625,219639.25,246621.46875,205995.921875,234005.96875,135123.0,1.0,1
224957.359375,249245.921875,252484.0625,260291.984375,220279.3125,246948.078125,206377.875,234299.40625,135124.0,1.0,1
224914.265625,249225.8125,252452.953125,260251.03125,220285.75,246938.15625,206370.0,234272.046875,135125.0,1.0,1
224881.71875,249053.078125,251784.640625,260171.453125,219693.96875,246649.1875,206020.328125,233998.09375,135126.0,1.0,1
224881.890625,248936.84375,251347.53125,260134.796875,219275.265625,246438.359375,205773.65625,233818.296875,135127.0,1.0,1
224929.734375,249054.59375,251779.1875,260207.21875,219634.59375,246617.984375,205991.8125,233998.546875,135128.0,1.0,1
224965.84375,249242.796875,252479.234375,260294.84375,220271.359375,246943.96875,206371.078125,234290.546875,135129.0,1.0,1
224933.125,249237.078125,252468.953125,260262.828125,220292.453125,246954.59375,206381.796875,234279.640625,135130.0,1.0,1
224878.5,249043.78125,251778.375,260152.765625,219679.75,246643.546875,206014.078125,233985.40625,135131.0,1.0,1
224874.296875,248930.859375,251340.546875,260116.734375,219263.828125,246430.046875,205773.125,233809.359375,135132.0,1.0,1
224922.390625,249049.9375,251774.359375,260202.390625,219627.71875,246618.515625,205996.640625,233996.671875,135133.0,1.0,1
224956.734375,249239.484375,252475.75,260285.71875,220265.90625,246941.734375,206375.28125,234288.578125,135134.0,1.0,1
224925.078125,249233.40625,252469.578125,260258.0,220291.296875,246949.59375,206383.40625,234276.515625,135135.0,1.0,1
224880.734375,249052.171875,251793.390625,260163.859375,219690.125,246646.953125,206019.4375,233989.25,135136.0,1.0,1
224880.546875,248938.453125,251350.203125,260134.0,219264.640625,246429.15625,205770.4375,233805.515625,135137.0,1.0,1
224913.09375,249044.3125,251760.859375,260193.0,219611.53125,246598.578125,205978.046875,233974.3125,135138.0,1.0,1
224950.46875,249235.734375,252464.578125,260280.09375,220259.46875,246931.984375,206363.828125,234276.953125,135139.0,1.0,1
224930.796875,249240.828125,252474.859375,260263.09375,220304.078125,246956.65625,206388.328125,234284.734375,135140.0,1.0,1
224875.015625,249050.21875,251790.171875,260154.46875,219695.3125,246646.6875,206022.125,233990.5,135141.0,1.0,1
224874.203125,248929.0625,251343.046875,260120.5,219265.609375,246427.09375,205768.734375,233807.21875,135142.0,1.0,1
224932.859375,249047.53125,251772.125,260207.484375,219626.375,246613.515625,205989.578125,233996.765625,135143.0,1.0,1
224960.21875,249228.84375,252468.515625,260284.015625,220259.828125,246934.390625,206364.1875,234283.484375,135144.0,1.0,1
224930.53125,249228.046875,252478.078125,260260.5,220300.6875,246955.671875,206384.9375,234278.484375,135145.0,1.0,1
224878.3125,249042.171875,251795.625,260160.8125,219698.34375,246652.9375,206024.53125,233985.578125,135146.0,1.0,1
224871.609375,248923.875,251335.984375,260112.359375,219264.640625,246430.59375,205769.90625,233799.34375,135147.0,1.0,1
224917.75,249041.1875,251751.375,260191.21875,219615.640625,246605.640625,205983.5,233982.1875,135148.0,1.0,1
224955.125,249235.546875,252458.859375,260279.28125,220262.234375,246933.6875,206366.875,234283.21875,135149.0,1.0,1
224925.53125,249236.625,252476.828125,260257.375,220308.640625,246954.59375,206386.90625,234284.5625,135150.0,1.0,1
224881.984375,249061.75,251806.8125,260164.484375,219714.625,246658.3125,206028.46875,233996.84375,135151.0,1.0,1
224866.34375,248924.953125,251333.046875,260109.859375,219261.328125,246420.84375,205758.90625,233790.40625,135152.0,1.0,1
224919.265625,249039.484375,251747.53125,260192.5625,219608.5,246600.375,205974.46875,233974.859375,135153.0,1.0,1
224964.234375,249241.984375,252462.515625,260287.859375,220259.109375,246939.21875,206366.515625,234279.1875,135154.0,1.0,1
224930.890625,249238.59375,252479.859375,260253.796875,220309.890625,246962.109375,206391.546875,234280.71875,135155.0,1.0,1
224882.25,249057.71875,251806.09375,260162.0625,219717.75,246660.0,206034.453125,233995.59375,135156.0,1.0,1
224870.265625,248930.9375,251339.203125,260116.734375,219273.125,246430.046875,205771.78125,233803.90625,135157.0,1.0,1
224905.3125,249029.640625,251730.640625,260176.375,219597.40625,246590.625,205963.640625,233966.625,135158.0,1.0,1
224945.828125,249226.796875,252441.859375,260272.9375,220244.359375,246922.234375,206348.0,234263.8125,135159.0,1.0,1
224924.09375,249238.140625,252478.25,260255.328125,220312.65625,246954.515625,206388.78125,234278.65625,135160.0,1.0,1
224874.296875,249053.25,251801.171875,260155.90625,219713.015625,246649.640625,206026.046875,233987.28125,135161.0,1.0,1
224861.0625,248924.6875,251325.34375,260108.96875,219259.09375,246417.71875,205761.140625,233790.578125,135162.0,1.0,1
224921.140625,249045.03125,251733.9375,260191.84375,219600.796875,246593.671875,205973.296875,233971.453125,135163.0,1.0,1
224957.890625,249236.53125,252444.640625,260280.625,220247.3125,246921.875,206354.359375,234264.984375,135164.0,1.0,1
224926.515625,249236.359375,252478.25,260250.578125,220307.75,246947.453125,206382.25,234263.1875,135165.0,1.0,1
224876.359375,249055.484375,251807.4375,260151.96875,219716.578125,246646.59375,206026.234375,233979.859375,135166.0,1.0,1
224871.25,248927.71875,251331.875,260112.265625,219265.171875,246420.21875,205762.296875,233789.25,135167.0,1.0,1
224916.765625,249036.796875,251726.34375,260186.203125,219593.734375,246587.140625,205962.84375,233959.5625,135168.0,1.0,1
224954.9375,249228.9375,252438.828125,260278.125,220243.640625,246920.53125,206349.265625,234259.078125,135169.0,1.0,1
224931.34375,249241.453125,252482.71875,260259.96875,220321.6875,246960.5,206392.0,234276.953125,135170.0,1.0,1
224884.125,249062.734375,251817.984375,260163.40625,219735.8125,246662.953125,206040.453125,234000.78125,135171.0,1.0,1
224872.5,248932.546875,251337.78125,260120.40625,219279.65625,246424.59375,205772.046875,233802.75,135172.0,1.0,1
224911.21875,249034.75,251720.984375,260188.71875,219598.390625,246577.578125,205964.0,233965.828125,135173.0,1.0,1
224947.78125,249229.921875,252429.703125,260268.828125,220243.734375,246913.109375,206345.765625,234260.328125,135174.0,1.0,1
224919.0,249235.28125,252477.359375,260246.734375,220321.25,246953.078125,206385.375,234275.078125,135175.0,1.0,1
224872.421875,249057.359375,251814.59375,260153.03125,219735.890625,246660.1875,206034.28125,233995.0625,135176.0,1.0,1
224863.390625,248924.78125,251326.421875,260108.609375,219272.234375,246423.875,205760.953125,233796.671875,135177.0,1.0,1
224913.90625,249032.234375,251712.75,260184.234375,219592.84375,246584.015625,205960.515625,233967.796875,135178.0,1.0,1
224947.4375,249219.375,252421.03125,260268.46875,220234.25,246910.96875,206340.765625,234260.859375,135179.0,1.0,1
224922.671875,249231.265625,252479.234375,260253.359375,220318.46875,246953.53125,206385.203125,234278.84375,135180.0,1.0,1
224876.796875,249055.578125,251817.984375,260151.78125,219734.5625,246656.609375,206035.625,233997.5625,135181.0,1.0,1
224870.1875,248929.15625,251324.453125,260101.71875,219266.328125,246415.5625,205762.484375,233792.828125,135182.0,1.0,1
224912.734375,249032.421875,251698.890625,260173.0625,219578.71875,246569.703125,205955.0625,233953.578125,135183.0,1.0,1
224945.1875,249219.375,252409.046875,260264.4375,220224.859375,246900.6875,206337.8125,234249.6875,135184.0,1.0,1
224918.8125,249231.96875,252473.0625,260241.46875,220314.8125,246944.40625,206386.71875,234268.5625,135185.0,1.0,1
224873.21875,249056.828125,251816.546875,260149.1875,219735.0,246648.46875,206035.53125,233988.71875,135186.0,1.0,1
224870.984375,248930.3125,251326.6875,260111.203125,219271.96875,246413.59375,205764.171875,233792.640625,135187.0,1.0,1
224916.5,249028.03125,251698.625,260187.546875,219578.453125,246569.078125,205950.765625,233955.71875,135188.0,1.0,1
224947.4375,249212.75,252406.640625,260261.578125,220216.453125,246897.46875,206328.0625,234244.140625,135189.0,1.0,1
224924.546875,249231.4375,252478.4375,260234.125,220313.640625,246948.875,206382.25,234263.375,135190.0,1.0,1
224878.3125,249056.734375,251823.609375,260144.1875,219740.8125,246657.234375,206035.703125,233986.65625,135191.0,1.0,1
224870.453125,248926.390625,251323.390625,260102.171875,219272.40625,246419.140625,205760.25,233781.90625,135192.0,1.0,1
224911.84375,249026.515625,251687.625,260172.890625,219574.15625,246569.890625,205945.9375,233942.671875,135193.0,1.0,1
224942.421875,249215.53125,252402.609375,260260.5,220220.390625,246898.984375,206329.953125,234244.421875,135194.0,1.0,1
224922.9375,249238.6875,252486.75,260250.21875,220329.109375,246960.765625,206393.15625,234278.390625,135195.0,1.0,1
224866.34375,249058.078125,251824.0625,260144.453125,219745.375,246662.328125,206037.859375,233992.640625,135196.0,1.0,1
224855.609375,248924.59375,251319.09375,260100.375,219265.4375,246418.421875,205755.953125,233783.25,135197.0,1.0,1
224910.234375,249030.71875,251687.53125,260179.328125,219567.71875,246572.46875,205944.15625,233944.90625,135198.0,1.0,1
224952.53125,249224.640625,252408.96875,260271.234375,220220.9375,246905.78125,206334.421875,234249.25,135199.0,1.0,1
224929.1875,249243.78125,252493.453125,260256.21875,220328.84375,246959.875,206393.515625,234276.78125,135200.0,1.0,1
224870.09375,249058.96875,251832.921875,260155.09375,219749.84375,246667.6875,206043.125,233992.5625,135201.0,1.0,1
224852.5625,248915.125,251312.65625,260089.5625,219262.671875,246416.453125,205752.5625,233773.234375,135202.0,1.0,1
224896.46875,249011.671875,251665.09375,260159.203125,219553.859375,246558.890625,205931.640625,233925.765625,135203.0,1.0,1
224938.9375,249213.734375,252390.359375,260257.46875,220212.171875,246892.28125,206320.296875,234229.578125,135204.0,1.0,1
224924.359375,249243.6875,252491.9375,260255.40625,220335.734375,246954.421875,206387.609375,234269.1875,135205.0,1.0,1
224878.140625,249070.328125,251842.84375,260156.53125,219765.140625,246668.40625,206041.15625,233991.125,135206.0,1.0,1
224861.515625,248929.0625,251324.453125,260103.5,219275.359375,246415.484375,205749.25,233774.578125,135207.0,1.0,1
224917.203125,249036.0,251682.984375,260179.953125,219571.65625,246568.453125,205937.546875,233935.78125,135208.0,1.0,1
224958.96875,249234.75,252407.09375,260277.5,220227.09375,246908.375,206331.734375,234244.859375,135209.0,1.0,1
224916.578125,249240.203125,252487.546875,260244.5,220330.90625,246953.4375,206384.3125,234263.734375,135210.0,1.0,1
224867.765625,249066.75,251840.78125,260148.5625,219763.609375,246670.5625,206044.5625,233991.578125,135211.0,1.0,1
224856.140625,248926.296875,251321.15625,260099.21875,219274.296875,246420.390625,205754.171875,233779.59375,135212.0,1.0,1
224897.8125,249020.4375,251664.921875,260168.859375,219558.609375,246562.109375,205929.21875,233934.359375,135213.0,1.0,1
224938.40625,249220.703125,252390.8125,260259.609375,220219.5,246903.8125,206326.109375,234242.8125,135214.0,1.0,1
224920.15625,249248.6875,252499.53125,260249.953125,220349.9375,246970.78125,206399.421875,234281.609375,135215.0,1.0,1
224867.046875,249066.75,251849.359375,260149.1875,219778.90625,246679.140625,206051.09375,234001.859375,135216.0,1.0,1
224858.203125,248924.953125,251325.171875,260095.734375,219284.578125,246427.8125,205761.5,233788.078125,135217.0,1.0,1
224904.421875,249018.203125,251661.25,260166.8125,219559.765625,246559.328125,205929.578125,233933.90625,135218.0,1.0,1
224939.5625,249208.109375,252376.78125,260253.265625,220205.1875,246879.765625,206307.421875,234225.375,135219.0,1.0,1
224923.921875,249242.171875,252497.03125,260247.546875,220345.109375,246952.640625,206388.0625,234275.4375,135220.0,1.0,1
224874.46875,249067.109375,251855.265625,260152.953125,219780.515625,246669.21875,206049.5625,234003.640625,135221.0,1.0,1
224859.09375,248920.84375,251322.3125,260101.453125,219281.890625,246411.359375,205754.609375,233782.359375,135222.0,1.0,1
224906.296875,249015.4375,251656.0625,260176.90625,219554.84375,246550.390625,205925.5625,233935.6875,135223.0,1.0,1
224945.90625,249214.28125,252380.078125,260265.515625,220208.0625,246889.515625,206318.140625,234237.0,135224.0,1.0,1
224910.953125,249230.546875,252486.390625,260242.359375,220338.046875,246951.65625,206388.234375,234271.328125,135225.0,1.0,1
224862.84375,249061.484375,251848.828125,260146.0625,219782.5625,246671.09375,206056.546875,234004.890625,135226.0,1.0,1
224849.703125,248918.6875,251317.484375,260095.453125,219281.53125,246412.96875,205762.21875,233782.984375,135227.0,1.0,1
224895.75,249008.453125,251643.46875,260157.15625,219544.484375,246547.4375,205924.3125,233920.3125,135228.0,1.0,1
224946.453125,249213.109375,252376.0625,260258.625,220206.53125,246887.453125,206319.671875,234228.59375,135229.0,1.0,1
224930.4375,249249.140625,252507.046875,260253.796875,220354.140625,246962.46875,206404.421875,234275.0,135230.0,1.0,1
224884.84375,249081.859375,251876.71875,260165.28125,219802.234375,246686.296875,206075.578125,234008.828125,135231.0,1.0,1
224874.921875,248944.71875,251347.25,260119.25,219305.578125,246439.078125,205789.578125,233799.078125,135232.0,1.0,1
224913.546875,249022.671875,251654.1875,260176.640625,219555.46875,246559.6875,205940.40625,233933.453125,135233.0,1.0,1
224952.078125,249215.4375,252370.96875,260265.0625,220204.84375,246893.890625,206325.5625,234232.4375,135234.0,1.0,1
224931.25,249253.078125,252507.125,260255.234375,220360.9375,246976.59375,206413.90625,234285.546875,135235.0,1.0,1
224883.234375,249081.0625,251877.890625,260165.734375,219808.859375,246697.640625,206078.4375,234020.890625,135236.0,1.0,1
224865.265625,248931.5625,251332.234375,260097.609375,219293.6875,246430.5,205771.328125,233792.1875,135237.0,1.0,1
224911.671875,249022.765625,251649.453125,260167.875,219551.1875,246563.453125,205932.0,233936.3125,135238.0,1.0,1
224951.90625,249220.53125,252375.078125,260266.3125,220209.75,246900.6875,206323.78125,234244.234375,135239.0,1.0,1
224932.859375,249260.5,252518.484375,260261.9375,220374.703125,246984.375,206416.3125,234299.765625,135240.0,1.0,1
224878.859375,249079.53125,251879.046875,260157.59375,219812.96875,246694.609375,206071.828125,234021.078125,135241.0,1.0,1
224870.984375,248939.96875,251339.65625,260109.59375,219303.796875,246437.109375,205774.8125,233804.890625,135242.0,1.0,1
224917.65625,249023.75,251648.921875,260178.609375,219550.734375,246558.265625,205929.3125,233942.671875,135243.0,1.0,1
224957.796875,249216.421875,252372.03125,260269.359375,220200.8125,246886.5625,206316.71875,234243.796875,135244.0,1.0,1
224942.78125,249258.171875,252528.140625,260268.109375,220375.34375,246973.90625,206417.921875,234309.234375,135245.0,1.0,1
224888.328125,249084.8125,251897.015625,260164.578125,219822.078125,246694.96875,206080.859375,234039.140625,135246.0,1.0,1
224868.578125,248935.765625,251339.921875,260101.890625,219301.375,246429.0625,205771.78125,233806.046875,135247.0,1.0,1
224915.25,249022.40625,251638.90625,260168.15625,219544.484375,246552.359375,205923.140625,233942.578125,135248.0,1.0,1
224958.609375,249220.078125,252369.0,260264.4375,220201.890625,246890.046875,206319.03125,234249.25,135249.0,1.0,1
224938.9375,249256.5625,252523.40625,260257.109375,220370.234375,246974.984375,206415.6875,234305.84375,135250.0,1.0,1
224888.875,249087.3125,251901.125,260162.78125,219826.203125,246699.078125,206088.28125,234041.90625,135251.0,1.0,1
224864.109375,248931.21875,251339.828125,260095.28125,219302.984375,246429.875,205780.546875,233809.359375,135252.0,1.0,1
224905.859375,249011.765625,251635.140625,260162.0625,219535.359375,246547.0,205927.703125,233942.75,135253.0,1.0,1
224948.328125,249209.796875,252362.65625,260262.109375,220189.8125,246884.6875,206319.84375,234250.671875,135254.0,1.0,1
224930.625,249253.96875,252525.1875,260256.9375,220369.34375,246979.453125,206425.796875,234315.5,135255.0,1.0,1
224882.796875,249090.359375,251906.859375,260169.21875,219828.515625,246709.890625,206101.421875,234059.25,135256.0,1.0,1
224855.96875,248929.421875,251335.453125,260098.859375,219294.859375,246435.328125,205779.203125,233813.828125,135257.0,1.0,1
224896.015625,249004.796875,251619.953125,260153.3125,219525.25,246550.84375,205920.1875,233936.859375,135258.0,1.0,1
224941.078125,249201.9375,252345.65625,260248.34375,220181.328125,246880.75,206309.65625,234240.296875,135259.0,1.0,1
224925.703125,249242.609375,252513.484375,260249.515625,220364.421875,246971.140625,206415.421875,234304.140625,135260.0,1.0,1
224884.84375,249082.75,251905.875,260165.5625,219831.46875,246704.4375,206097.75,234049.421875,135261.0,1.0,1
224870.265625,248939.078125,251349.765625,260105.75,219308.703125,246439.53125,205789.21875,233820.171875,135262.0,1.0,1
224905.40625,249009.078125,251625.484375,260161.4375,219529.28125,246546.8125,205923.40625,233941.234375,135263.0,1.0,1
224945.546875,249197.90625,252346.203125,260253.0,220181.0625,246875.125,206305.984375,234243.515625,135264.0,1.0,1
224939.828125,249256.734375,252533.0625,260262.390625,220381.59375,246980.625,206424.265625,234316.828125,135265.0,1.0,1
224892.359375,249094.5625,251920.09375,260172.796875,219846.21875,246714.1875,206104.8125,234059.515625,135266.0,1.0,1
224873.671875,248941.671875,251349.9375,260114.5,219313.453125,246444.796875,205790.828125,233825.28125,135267.0,1.0,1
224912.65625,249013.109375,251618.96875,260169.3125,219524.359375,246548.0625,205920.546875,233939.09375,135268.0,1.0,1
224955.5625,249209.984375,252344.859375,260263.359375,220178.90625,246879.765625,206310.71875,234242.359375,135269.0,1.0,1
224941.078125,249264.34375,252531.71875,260265.78125,220380.875,246984.828125,206427.40625,234316.390625,135270.0,1.0,1
224892.265625,249097.953125,251921.25,260173.421875,219846.671875,246717.046875,206103.75,234055.3125,135271.0,1.0,1
224868.75,248936.84375,251345.109375,260104.484375,219304.859375,246438.546875,205779.5625,233814.375,135272.0,1.0,1
224914.078125,249015.515625,251621.015625,260170.390625,219524.1875,246545.390625,205917.953125,233939.71875,135273.0,1.0,1
224956.015625,249210.078125,252346.109375,260258.625,220179.71875,246877.0,206309.734375,234243.25,135274.0,1.0,1
224939.109375,249253.796875,252528.59375,260252.375,220377.484375,246974.09375,206419.4375,234307.171875,135275.0,1.0,1
224892.796875,249089.46875,251921.703125,260165.640625,219847.203125,246708.546875,206099.640625,234049.15625,135276.0,1.0,1
224868.03125,248927.453125,251339.484375,260095.453125,219300.578125,246428.796875,205773.5625,233801.40625,135277.0,1.0,1
224916.5,249005.15625,251610.734375,260156.4375,219512.109375,246538.328125,205907.5,233922.1875,135278.0,1.0,1
224961.734375,249203.90625,252340.390625,260253.71875,220167.90625,246875.390625,206303.84375,234230.46875,135279.0,1.0,1
224946.53125,249258.53125,252535.03125,260255.40625,220374.703125,246979.015625,206423.375,234308.078125,135280.0,1.0,1
224894.40625,249093.75,251928.578125,260164.296875,219846.671875,246712.3125,206103.5625,234049.328125,135281.0,1.0,1
224874.296875,248941.140625,251349.484375,260101.546875,219307.546875,246440.6875,205785.375,233808.734375,135282.0,1.0,1
224904.34375,249003.625,251597.234375,260152.6875,219502.09375,246534.203125,205905.984375,233913.34375,135283.0,1.0,1
224947.875,249203.8125,252327.78125,260250.84375,220158.4375,246867.875,206296.6875,234221.078125,135284.0,1.0,1
224932.328125,249260.5,252533.0625,260252.8125,220377.484375,246974.453125,206423.375,234305.390625,135285.0,1.0,1
224880.28125,249096.25,251926.171875,260156.53125,219849.4375,246706.9375,206104.46875,234044.765625,135286.0,1.0,1
224865.796875,248946.671875,251346.09375,260096.171875,219309.96875,246436.484375,205788.046875,233806.328125,135287.0,1.0,1
224906.484375,249017.3125,251597.59375,260153.578125,219507.28125,246533.140625,205912.328125,233917.453125,135288.0,1.0,1
224939.828125,249205.59375,252316.0625,260239.5,220151.375,246852.59375,206294.453125,234216.609375,135289.0,1.0,1
224925.96875,249257.1875,252526.359375,260243.421875,220370.328125,246966.765625,206421.3125,234301.375,135290.0,1.0,1
224874.921875,249090.796875,251925.71875,260150.171875,219845.234375,246706.765625,206104.90625,234045.578125,135291.0,1.0,1
224857.3125,248933.453125,251340.546875,260091.609375,219300.21875,246428.359375,205780.265625,233804.53125,135292.0,1.0,1
224898.171875,249000.328125,251584.1875,260151.421875,219493.609375,246523.484375,205901.0625,233917.546875,135293.0,1.0,1
224948.234375,249202.109375,252311.234375,260250.671875,220151.015625,246860.09375,206294.453125,234227.609375,135294.0,1.0,1
224933.390625,249256.734375,252526.09375,260252.375,220374.890625,246970.609375,206424.53125,234309.234375,135295.0,1.0,1
224883.140625,249093.65625,251932.515625,260156.25,219854.71875,246709.984375,206112.234375,234053.890625,135296.0,1.0,1
224875.375,248949.1875,251356.46875,260105.5625,219315.78125,246441.859375,205801.1875,233820.890625,135297.0,1.0,1
224912.390625,249013.28125,251595.1875,260159.828125,219501.65625,246534.484375,205914.46875,233923.625,135298.0,1.0,1
224953.6875,249205.25,252317.328125,260249.421875,220152.0,246862.78125,206295.25,234219.734375,135299.0,1.0,1
224940.28125,249264.875,252541.640625,260255.953125,220382.484375,246976.59375,206425.34375,234302.625,135300.0,1.0,1
224889.21875,249106.453125,251947.984375,260160.546875,219865.359375,246715.796875,206111.25,234049.328125,135301.0,1.0,1
224867.5,248944.890625,251348.15625,260094.921875,219311.21875,246432.375,205782.328125,233803.8125,135302.0,1.0,1
224905.953125,249012.390625,251585.703125,260153.75,219495.578125,246524.828125,205899.8125,233912.453125,135303.0,1.0,1
224949.578125,249209.359375,252317.859375,260253.53125,220150.921875,246862.6875,206291.59375,234222.328125,135304.0,1.0,1
224939.390625,249272.296875,252548.96875,260261.9375,220390.71875,246981.328125,206427.3125,234311.65625,135305.0,1.0,1
224892.4375,249116.015625,251962.015625,260169.3125,219882.171875,246718.390625,206120.109375,234058.09375,135306.0,1.0,1
224867.765625,248946.953125,251362.984375,260101.453125,219324.796875,246432.640625,205790.46875,233808.90625,135307.0,1.0,1
224906.921875,249010.609375,251588.828125,260155.90625,219496.203125,246515.703125,205896.953125,233911.375,135308.0,1.0,1
224959.234375,249216.859375,252323.9375,260261.40625,220158.53125,246860.1875,206298.125,234228.328125,135309.0,1.0,1
224940.640625,249274.53125,252552.8125,260261.40625,220402.25,246983.5625,206438.3125,234318.984375,135310.0,1.0,1
224887.53125,249116.109375,251963.09375,260166.71875,219894.0625,246725.8125,206130.125,234070.515625,135311.0,1.0,1
224867.859375,248955.0,251365.578125,260099.390625,219335.171875,246444.171875,205798.6875,233817.859375,135312.0,1.0,1
224899.421875,249013.5625,251582.578125,260147.40625,219496.90625,246523.03125,205896.859375,233909.046875,135313.0,1.0,1
224942.25,249209.359375,252307.9375,260244.140625,220146.1875,246854.828125,206282.828125,234210.34375,135314.0,1.0,1
224942.25,249285.796875,252560.234375,260256.296875,220406.359375,246990.71875,206439.015625,234315.765625,135315.0,1.0,1
224891.28125,249127.28125,251980.796875,260164.578125,219905.59375,246739.125,206139.234375,234069.09375,135316.0,1.0,1
224868.21875,248961.4375,251377.03125,260101.0,219345.90625,246452.40625,205808.34375,233819.46875,135317.0,1.0,1
224908.1875,249019.546875,251587.765625,260159.296875,219507.640625,246534.75,205910.53125,233919.0625,135318.0,1.0,1
224955.484375,249215.96875,252313.125,260257.28125,220156.5625,246864.03125,206300.0,234230.109375,135319.0,1.0,1
224945.640625,249279.09375,252562.921875,260265.609375,220411.28125,246988.671875,206447.25,234328.90625,135320.0,1.0,1
224901.03125,249129.78125,251995.015625,260180.21875,219921.234375,246743.421875,206153.375,234091.53125,135321.0,1.0,1
224873.671875,248960.890625,251386.59375,260112.71875,219354.75,246451.421875,205817.203125,233841.1875,135322.0,1.0,1
224901.390625,249003.8125,251579.09375,260154.109375,219496.828125,246512.03125,205902.046875,233917.71875,135323.0,1.0,1
224948.234375,249203.1875,252302.296875,260250.765625,220143.59375,246839.171875,206287.296875,234220.90625,135324.0,1.0,1
224945.90625,249279.359375,252565.6875,260265.515625,220410.03125,246975.078125,206444.296875,234330.96875,135325.0,1.0,1
224889.3125,249114.765625,251983.390625,260163.671875,219903.71875,246717.21875,206136.921875,234077.046875,135326.0,1.0,1
224863.296875,248945.0625,251365.671875,260093.671875,219334.109375,246429.328125,205798.15625,233821.609375,135327.0,1.0,1
224908.8125,249005.421875,251568.53125,260148.296875,219489.140625,246504.96875,205894.4375,233915.578125,135328.0,1.0,1
224953.6875,249198.359375,252290.59375,260243.875,220136.984375,246826.65625,206278.359375,234217.765625,135329.0,1.0,1
224948.6875,249271.9375,252559.078125,260259.078125,220409.765625,246963.359375,206434.375,234326.21875,135330.0,1.0,1
224896.296875,249113.25,251985.890625,260164.484375,219910.859375,246710.703125,206127.265625,234076.6875,135331.0,1.0,1
224874.03125,248948.203125,251372.734375,260098.953125,219339.90625,246420.84375,205788.40625,233823.21875,135332.0,1.0,1
224912.5625,249000.953125,251567.375,260151.609375,219486.1875,246488.875,205880.765625,233912.359375,135333.0,1.0,1
224959.859375,249198.890625,252292.28125,260248.4375,220136.625,246821.828125,206268.53125,234215.09375,135334.0,1.0,1
224948.59375,249268.546875,252561.671875,260256.578125,220408.15625,246958.453125,206425.25,234321.65625,135335.0,1.0,1
224895.125,249112.796875,251993.484375,260160.375,219915.0625,246707.296875,206128.609375,234079.28125,135336.0,1.0,1
224873.40625,248947.578125,251375.859375,260093.9375,219343.484375,246416.109375,205790.203125,233824.5625,135337.0,1.0,1
224915.78125,249006.765625,251569.96875,260150.265625,219487.609375,246489.421875,205885.234375,233916.109375,135338.0,1.0,1
224951.8125,249196.484375,252289.15625,260239.140625,220128.3125,246814.046875,206266.46875,234215.265625,135339.0,1.0,1
224937.5,249265.328125,252558.453125,260249.234375,220402.34375,246950.671875,206421.140625,234316.828125,135340.0,1.0,1
224888.875,249115.65625,251997.953125,260160.28125,219919.0,246709.0,206127.34375,234073.46875,135341.0,1.0,1
224871.078125,248949.71875,251382.84375,260095.015625,219350.46875,246423.53125,205794.046875,233822.421875,135342.0,1.0,1
224921.0625,249011.140625,251575.953125,260164.21875,219494.765625,246499.703125,205893.375,233916.734375,135343.0,1.0,1
224955.921875,249198.265625,252287.734375,260244.6875,220128.578125,246818.34375,206268.53125,234205.875,135344.0,1.0,1
224940.015625,249263.0,252563.015625,260245.3125,220403.671875,246952.8125,206423.828125,234311.5625,135345.0,1.0,1
224896.015625,249118.34375,252012.625,260161.71875,219924.90625,246712.84375,206133.96875,234079.375,135346.0,1.0,1
224872.15625,248954.546875,251391.6875,260094.828125,219348.765625,246423.703125,205797.265625,233825.546875,135347.0,1.0,1
224911.21875,249003.90625,251567.828125,260147.234375,219475.453125,246488.96875,205879.515625,233907.625,135348.0,1.0,1
224959.234375,249202.375,252292.640625,260250.3125,220127.5,246823.984375,206271.5625,234218.9375,135349.0,1.0,1
224948.5,249275.515625,252577.046875,260268.015625,220418.25,246965.59375,206438.9375,234332.296875,135350.0,1.0,1
224900.140625,249126.828125,252025.40625,260183.171875,219944.390625,246721.96875,206149.515625,234097.875,135351.0,1.0,1
224867.5,248947.03125,251387.84375,260100.640625,219351.8125,246413.875,205790.734375,233826.609375,135352.0,1.0,1
224906.484375,248997.1875,251558.875,260148.21875,219475.28125,246478.15625,205873.53125,233907.703125,135353.0,1.0,1
224947.78125,249186.921875,252274.234375,260241.109375,220118.921875,246803.421875,206255.109375,234206.15625,135354.0,1.0,1
224943.140625,249266.046875,252571.6875,260259.515625,220415.75,246956.03125,206425.796875,234325.0625,135355.0,1.0,1
224897.09375,249120.390625,252027.109375,260174.140625,219942.875,246723.21875,206138.890625,234093.5,135356.0,1.0,1
224864.546875,248949.359375,251391.328125,260093.046875,219353.6875,246425.21875,205788.3125,233824.65625,135357.0,1.0,1
224897.71875,248992.1875,251549.765625,260137.578125,219465.625,246477.53125,205861.625,233897.25,135358.0,1.0,1
224951.984375,249194.78125,252277.53125,260241.734375,220117.75,246817.625,206256.28125,234207.84375,135359.0,1.0,1
224947.15625,249275.25,252578.03125,260255.953125,220418.078125,246974.359375,206430.265625,234328.375,135360.0,1.0,1
224903.53125,249131.921875,252037.75,260178.609375,219952.265625,246740.921875,206151.84375,234099.578125,135361.0,1.0,1
224881.1875,248965.0,251408.234375,260116.921875,219370.484375,246448.734375,205810.140625,233840.203125,135362.0,1.0,1
224904.96875,248999.515625,251548.953125,260140.4375,219465.703125,246488.4375,205868.25,233896.265625,135363.0,1.0,1
224960.84375,249202.203125,252278.703125,260246.46875,220115.78125,246827.203125,206261.1875,234203.734375,135364.0,1.0,1
224949.84375,249282.21875,252582.234375,260259.609375,220417.984375,246975.875,206433.65625,234319.78125,135365.0,1.0,1
224895.390625,249128.984375,252033.71875,260168.59375,219949.140625,246736.53125,206148.453125,234084.828125,135366.0,1.0,1
224872.421875,248959.46875,251398.671875,260100.828125,219365.484375,246440.25,205801.734375,233822.859375,135367.0,1.0,1
224911.9375,249006.40625,251548.78125,260146.328125,219472.859375,246493.0,205872.453125,233897.875,135368.0,1.0,1
224957.4375,249198.984375,252264.125,260242.0,220111.046875,246817.359375,206253.953125,234201.5,135369.0,1.0,1
224958.15625,249286.875,252587.0625,260270.609375,220429.421875,246984.1875,206441.34375,234336.140625,135370.0,1.0,1
224905.953125,249138.71875,252046.859375,260176.828125,219963.796875,246746.90625,206155.328125,234099.21875,135371.0,1.0,1
224883.234375,248967.0625,251406.984375,260102.4375,219371.46875,246439.703125,205800.828125,233833.953125,135372.0,1.0,1
224916.9375,249005.859375,251545.46875,260145.53125,219466.6875,246482.890625,205862.265625,233901.1875,135373.0,1.0,1
224961.734375,249200.421875,252260.09375,260243.78125,220108.359375,246811.109375,206243.84375,234202.390625,135374.0,1.0,1
224952.796875,249285.796875,252578.5625,260261.578125,220425.84375,246974.359375,206429.09375,234328.1875,135375.0,1.0,1
224899.6875,249144.0,252044.0,260170.203125,219968.265625,246743.78125,206153.90625,234097.4375,135376.0,1.0,1
224876.703125,248976.890625,251406.71875,260103.15625,219381.75,246450.703125,205808.703125,233838.234375,135377.0,1.0,1
224900.484375,249003.0,251531.609375,260143.65625,219464.90625,246488.171875,205858.6875,233892.78125,135378.0,1.0,1
224951.359375,249200.234375,252251.421875,260240.75,220107.46875,246813.421875,206242.5,234195.328125,135379.0,1.0,1
224941.796875,249277.65625,252569.71875,260252.109375,220420.578125,246971.234375,206422.21875,234319.875,135380.0,1.0,1
224900.046875,249137.921875,252044.359375,260169.21875,219968.796875,246750.125,206152.390625,234095.28125,135381.0,1.0,1
224876.890625,248965.453125,251400.0,260095.734375,219372.015625,246447.75,205799.140625,233823.484375,135382.0,1.0,1
224907.734375,248993.4375,251523.296875,260137.03125,219450.234375,246481.109375,205851.265625,233882.3125,135383.0,1.0,1
224958.609375,249192.8125,252245.171875,260238.421875,220092.71875,246806.1875,206237.859375,234189.78125,135384.0,1.0,1
224953.328125,249280.875,252579.734375,260261.125,220424.421875,246974.625,206431.609375,234327.5625,135385.0,1.0,1
224900.21875,249131.296875,252050.625,260173.609375,219972.921875,246746.734375,206155.0625,234099.3125,135386.0,1.0,1
224875.375,248961.4375,251406.0,260099.84375,219378.71875,246444.890625,205803.609375,233833.234375,135387.0,1.0,1
224915.25,248999.609375,251526.703125,260148.21875,219457.578125,246484.5,205855.546875,233890.28125,135388.0,1.0,1
224967.8125,249197.28125,252246.6875,260255.59375,220100.234375,246815.390625,206242.421875,234197.296875,135389.0,1.0,1
224964.953125,249288.578125,252591.796875,260281.15625,220438.71875,246990.625,206440.8125,234337.3125,135390.0,1.0,1
224910.421875,249142.296875,252066.171875,260186.125,219987.84375,246765.234375,206166.78125,234108.421875,135391.0,1.0,1
224873.21875,248962.6875,251405.640625,260102.25,219381.046875,246454.8125,205804.40625,233834.65625,135392.0,1.0,1
224898.4375,248991.296875,251510.6875,260136.234375,219445.765625,246482.171875,205848.671875,233883.125,135393.0,1.0,1
224946.71875,249185.390625,252228.453125,260236.90625,220085.390625,246814.953125,206236.0625,234184.6875,135394.0,1.0,1
224938.9375,249270.25,252570.796875,260257.203125,220420.75,246986.78125,206431.609375,234321.390625,135395.0,1.0,1
224895.65625,249132.203125,252059.921875,260180.9375,219982.578125,246765.140625,206167.5,234107.53125,135396.0,1.0,1
224872.234375,248962.953125,251409.03125,260105.390625,219378.53125,246451.859375,205804.859375,233835.203125,135397.0,1.0,1
224905.765625,248999.703125,251516.5,260145.171875,219445.765625,246482.265625,205853.40625,233891.53125,135398.0,1.0,1
224954.578125,249198.453125,252233.453125,260242.625,220081.8125,246802.703125,206238.578125,234190.6875,135399.0,1.0,1
224953.234375,249285.984375,252585.984375,260270.703125,220425.21875,246978.203125,206439.921875,234330.15625,135400.0,1.0,1
224895.3125,249135.59375,252062.6875,260171.71875,219976.578125,246752.359375,206164.71875,234102.34375,135401.0,1.0,1
224867.765625,248958.125,251404.75,260093.9375,219371.65625,246449.546875,205803.78125,233830.375,135402.0,1.0,1
224913.359375,248994.78125,251514.0,260143.828125,219439.328125,246487.09375,205852.328125,233887.40625,135403.0,1.0,1
224961.203125,249188.796875,252228.359375,260242.0,220076.625,246809.140625,206232.765625,234188.0,135404.0,1.0,1
224949.21875,249276.953125,252578.390625,260258.890625,220423.34375,246978.734375,206432.765625,234324.34375,135405.0,1.0,1
224899.59375,249140.6875,252073.59375,260175.390625,219996.96875,246767.734375,206177.5,234110.125,135406.0,1.0,1
224867.859375,248966.4375,251412.796875,260098.5,219390.703125,246462.78125,205815.859375,233837.171875,135407.0,1.0,1
224894.953125,248989.328125,251501.03125,260136.40625,219443.265625,246484.59375,205849.390625,233878.828125,135408.0,1.0,1
224944.03125,249182.171875,252213.15625,260241.8125,220077.609375,246808.515625,206230.53125,234180.046875,135409.0,1.0,1
224940.640625,249277.3125,252575.265625,260268.109375,220429.15625,246987.328125,206435.71875,234323.890625,135410.0,1.0,1
224889.765625,249139.96875,252069.03125,260174.59375,219996.703125,246764.96875,206172.765625,234106.015625,135411.0,1.0,1
224858.734375,248954.1875,251404.203125,260091.265625,219382.921875,246452.40625,205807.09375,233821.96875,135412.0,1.0,1
224895.03125,248976.265625,251491.640625,260137.484375,219431.203125,246474.390625,205840.625,233865.234375,135413.0,1.0,1
224941.078125,249163.484375,252197.0625,260230.90625,220058.125,246794.109375,206215.953125,234161.625,135414.0,1.0,1
224948.5,249273.453125,252573.921875,260263.1875,220425.578125,246984.1875,206431.421875,234317.90625,135415.0,1.0,1
224895.03125,249134.703125,252073.953125,260178.703125,219995.265625,246765.234375,206168.03125,234100.375,135416.0,1.0,1
224865.4375,248962.140625,251411.625,260100.640625,219387.03125,246457.59375,205811.03125,233830.90625,135417.0,1.0,1
224901.75,248992.453125,251495.9375,260143.65625,219437.015625,246480.296875,205847.15625,233882.3125,135418.0,1.0,1
224945.375,249176.28125,252197.34375,260236.28125,220059.734375,246792.234375,206214.515625,234173.78125,135419.0,1.0,1
224952.796875,249281.5,252583.21875,260273.65625,220433.265625,246982.9375,206435.71875,234328.375,135420.0,1.0,1
224904.96875,249143.734375,252091.75,260190.328125,220012.96875,246767.109375,206177.78125,234113.25,135421.0,1.0,1
224879.84375,248972.703125,251430.140625,260112.1875,219404.203125,246461.171875,205814.15625,233838.59375,135422.0,1.0,1
224902.90625,248988.515625,251498.984375,260142.671875,219437.8125,246473.0625,205837.9375,233874.09375,135423.0,1.0,1
224946.796875,249174.578125,252198.5,260234.484375,220061.078125,246784.8125,206205.3125,234165.734375,135424.0,1.0,1
224948.6875,249280.34375,252581.078125,260264.53125,220431.21875,246979.28125,206424.0,234322.921875,135425.0,1.0,1
224897.625,249150.609375,252093.265625,260179.59375,220015.46875,246774.984375,206174.28125,234114.59375,135426.0,1.0,1
