FZ,C3,CZ,C4,PZ,PO7,OZ,PO8,Counter,Validation,Label
241431.390625,256306.21875,278084.59375,266102.4375,228049.40625,246964.796875,247121.96875,231105.78125,108953.0,1.0,2
241425.3125,256336.078125,278124.28125,266069.625,228101.984375,246935.734375,247233.015625,231083.796875,108954.0,1.0,2
241085.296875,256085.640625,277909.0,265868.28125,227794.859375,246823.890625,246790.984375,231021.390625,108955.0,1.0,2
240873.046875,255912.015625,277738.84375,265772.0,227553.828125,246778.296875,246404.65625,230996.265625,108956.0,1.0,2
241076.453125,256056.140625,277845.53125,265916.5625,227710.734375,246854.28125,246609.40625,231046.5,108957.0,1.0,2
241420.046875,256329.734375,278085.21875,266104.40625,228048.875,246942.4375,247117.6875,231105.6875,108958.0,1.0,2
241415.390625,256361.640625,278126.25,266072.40625,228104.5625,246916.609375,247235.78125,231095.234375,108959.0,1.0,2
241080.828125,256124.71875,277911.40625,265870.53125,227798.34375,246806.1875,246794.65625,231030.6875,108960.0,1.0,2
240866.703125,255949.5625,277738.40625,265775.21875,227555.875,246763.625,246408.0625,231009.578125,108961.0,1.0,2
241067.78125,256087.96875,277844.34375,265918.8125,227714.3125,246844.8125,246611.09375,231055.8125,108962.0,1.0,2
241412.4375,256360.84375,278084.40625,266103.4375,228048.875,246936.90625,247118.390625,231110.4375,108963.0,1.0,2
241422.90625,256398.65625,278136.71875,266083.3125,228113.59375,246920.09375,247251.34375,231108.015625,108964.0,1.0,2
241084.859375,256143.84375,277921.25,265878.84375,227804.96875,246810.75,246811.1875,231039.984375,108965.0,1.0,2
240868.484375,255958.234375,277743.15625,265775.75,227553.546875,246767.03125,246416.453125,231008.6875,108966.0,1.0,2
241072.15625,256093.25,277844.96875,265915.78125,227702.328125,246847.9375,246614.234375,231052.671875,108967.0,1.0,2
241417.09375,256358.25,278088.625,266104.5,228037.6875,246944.140625,247126.171875,231109.53125,108968.0,1.0,2
241422.8125,256387.125,278138.25,266082.15625,228104.390625,246929.03125,247260.90625,231102.125,108969.0,1.0,2
241087.984375,256135.890625,277925.53125,265877.9375,227800.59375,246818.609375,246826.03125,231037.296875,108970.0,1.0,2
240863.390625,255943.84375,277744.65625,265770.21875,227544.4375,246763.53125,246420.65625,231005.46875,108971.0,1.0,2
241062.953125,256079.390625,277847.03125,265915.84375,227698.9375,246848.03125,246614.40625,231056.25,108972.0,1.0,2
241412.625,256350.828125,278087.375,266104.59375,228042.4375,246946.375,247119.203125,231113.734375,108973.0,1.0,2
241427.1875,256386.046875,278139.125,266082.5,228116.1875,246929.75,247256.0,231106.140625,108974.0,1.0,2
241100.046875,256144.203125,277929.375,265881.96875,227820.34375,246824.15625,246827.015625,231042.21875,108975.0,1.0,2
240877.96875,255956.0,277749.5,265773.0625,227566.15625,246771.9375,246421.203125,231009.484375,108976.0,1.0,2
241065.359375,256080.46875,277843.90625,265908.15625,227710.375,246848.5625,246602.78125,231048.390625,108977.0,1.0,2
241418.609375,256358.609375,278092.625,266102.96875,228056.5625,246955.40625,247117.59375,231112.21875,108978.0,1.0,2
241439.171875,256400.984375,278147.96875,266082.59375,228127.09375,246939.84375,247262.078125,231101.578125,108979.0,1.0,2
241114.625,256163.15625,277943.34375,265883.9375,227829.375,246834.53125,246837.390625,231041.859375,108980.0,1.0,2
240885.03125,255966.921875,277755.5625,265771.09375,227564.109375,246777.390625,246423.796875,231007.171875,108981.0,1.0,2
241074.21875,256089.578125,277849.4375,265909.5,227704.203125,246855.265625,246601.359375,231052.5,108982.0,1.0,2
241422.640625,256358.421875,278090.21875,266101.90625,228042.875,246948.4375,247113.5625,231111.0625,108983.0,1.0,2
241442.75,256396.515625,278145.03125,266080.375,228116.8125,246930.375,247264.125,231098.1875,108984.0,1.0,2
241113.109375,256150.015625,277938.9375,265878.9375,227819.546875,246822.375,246836.765625,231034.171875,108985.0,1.0,2
240892.8125,255964.328125,277762.625,265775.21875,227565.265625,246777.75,246428.984375,231007.875,108986.0,1.0,2
241076.0,256086.0,277856.15625,265909.5,227705.546875,246857.421875,246602.421875,231053.65625,108987.0,1.0,2
241422.90625,256353.15625,278096.03125,266099.125,228043.328125,246954.6875,247107.75,231110.703125,108988.0,1.0,2
241446.953125,256395.625,278158.1875,266086.25,228124.15625,246942.890625,247261.71875,231101.9375,108989.0,1.0,2
241109.890625,256142.421875,277949.59375,265882.15625,227824.546875,246833.453125,246833.015625,231037.65625,108990.0,1.0,2
240875.734375,255945.015625,277764.53125,265768.34375,227560.796875,246782.84375,246416.375,231007.171875,108991.0,1.0,2
241052.046875,256061.328125,277853.9375,265897.34375,227693.203125,246861.078125,246583.5625,231051.875,108992.0,1.0,2
241404.03125,256335.265625,278100.96875,266093.34375,228037.0625,246965.328125,247099.34375,231114.28125,108993.0,1.0,2
241430.40625,256379.96875,278162.1875,266078.03125,228118.15625,246947.0,247260.375,231095.6875,108994.0,1.0,2
241097.90625,256133.125,277958.15625,265877.59375,227825.171875,246842.125,246845.53125,231036.9375,108995.0,1.0,2
240867.421875,255940.546875,277775.34375,265767.15625,227562.9375,246793.046875,246430.9375,231011.09375,108996.0,1.0,2
241045.515625,256058.828125,277864.75,265898.25,227691.328125,246865.375,246593.21875,231058.484375,108997.0,1.0,2
241395.0,256331.515625,278107.65625,266090.75,228030.546875,246966.140625,247106.234375,231114.453125,108998.0,1.0,2
241424.6875,256379.796875,278168.1875,266078.125,228115.125,246950.9375,247271.375,231103.734375,108999.0,1.0,2
241096.03125,256141.078125,277958.71875,265877.0625,227820.078125,246838.640625,246851.6875,231043.015625,109000.0,1.0,2
240849.09375,255929.625,277756.125,265754.9375,227543.1875,246772.921875,246419.765625,231002.25,109001.0,1.0,2
241033.265625,256055.421875,277846.59375,265891.8125,227679.4375,246859.296875,246583.46875,231055.171875,109002.0,1.0,2
241387.5,256330.53125,278088.0,266086.0,228025.0,246963.28125,247094.171875,231115.4375,109003.0,1.0,2
241427.1875,256384.265625,278156.125,266078.3125,228125.765625,246959.609375,247275.484375,231107.21875,109004.0,1.0,2
241099.15625,256140.28125,277943.78125,265872.21875,227836.171875,246853.484375,246859.921875,231041.140625,109005.0,1.0,2
240857.671875,255934.453125,277745.21875,265749.125,227566.34375,246792.15625,246426.390625,231007.078125,109006.0,1.0,2
241026.296875,256040.140625,277820.65625,265873.125,227687.046875,246863.671875,246567.5625,231044.546875,109007.0,1.0,2
241388.484375,256317.5625,278064.03125,266072.3125,228030.984375,246965.6875,247078.078125,231106.234375,109008.0,1.0,2
241436.765625,256373.09375,278133.78125,266069.0,228131.390625,246956.203125,247261.09375,231100.78125,109009.0,1.0,2
241115.078125,256128.734375,277929.125,265868.5625,227841.984375,246843.828125,246846.234375,231036.671875,109010.0,1.0,2
240874.921875,255919.96875,277737.4375,265749.1875,227569.640625,246780.96875,246414.84375,231005.375,109011.0,1.0,2
241039.53125,256020.109375,277816.8125,265875.875,227689.0,246853.65625,246557.28125,231047.3125,109012.0,1.0,2
241392.234375,256290.75,278056.96875,266070.34375,228028.125,246951.03125,247065.375,231101.765625,109013.0,1.0,2
241440.515625,256351.359375,278128.21875,266067.40625,228126.46875,246940.921875,247251.078125,231096.125,109014.0,1.0,2
241120.796875,256116.9375,277929.46875,265870.15625,227842.515625,246836.578125,246845.171875,231038.546875,109015.0,1.0,2
240870.640625,255913.890625,277732.34375,265743.5625,227561.6875,246774.359375,246409.9375,230997.875,109016.0,1.0,2
241024.0625,256017.703125,277807.25,265866.6875,227670.3125,246849.015625,246546.015625,231040.0625,109017.0,1.0,2
241378.015625,256297.90625,278054.65625,266066.40625,228011.046875,246958.71875,247060.90625,231103.90625,109018.0,1.0,2
241426.65625,256366.390625,278128.65625,266060.53125,228108.140625,246947.1875,247252.234375,231095.6875,109019.0,1.0,2
241107.921875,256139.296875,277933.59375,265865.4375,227823.390625,246842.65625,246852.765625,231036.40625,109020.0,1.0,2
240858.828125,255934.90625,277738.0625,265743.21875,227546.21875,246783.125,246418.78125,231002.96875,109021.0,1.0,2
241016.28125,256032.890625,277813.34375,265866.78125,227660.03125,246854.46875,246550.390625,231044.71875,109022.0,1.0,2
241369.265625,256305.859375,278056.96875,266065.4375,228003.453125,246955.140625,247060.1875,231103.734375,109023.0,1.0,2
241434.25,256384.171875,278142.53125,266071.875,228120.84375,246952.640625,247263.765625,231102.390625,109024.0,1.0,2
241111.59375,256146.796875,277946.09375,265874.8125,227841.09375,246849.015625,246865.375,231042.75,109025.0,1.0,2
240853.640625,255924.453125,277738.6875,265743.21875,227554.0,246779.625,246418.703125,231001.625,109026.0,1.0,2
241013.234375,256019.84375,277814.6875,265867.9375,227668.265625,246856.171875,246549.140625,231044.265625,109027.0,1.0,2
241373.109375,256288.15625,278057.3125,266067.40625,228010.953125,246963.28125,247057.421875,231101.21875,109028.0,1.0,2
241446.0625,256364.0625,278142.71875,266076.25,228131.21875,246962.015625,247264.671875,231100.328125,109029.0,1.0,2
241130.984375,256130.890625,277947.71875,265877.5,227852.171875,246857.953125,246866.359375,231038.640625,109030.0,1.0,2
240869.921875,255910.046875,277743.59375,265746.6875,227565.09375,246797.421875,246422.984375,230999.296875,109031.0,1.0,2
241019.59375,256000.0,277808.59375,265865.15625,227665.578125,246865.90625,246538.5,231038.453125,109032.0,1.0,2
241378.109375,256272.421875,278044.4375,266063.28125,228001.484375,246961.9375,247041.59375,231097.015625,109033.0,1.0,2
241447.9375,256348.6875,278127.34375,266073.46875,228117.265625,246951.375,247250.0,231095.859375,109034.0,1.0,2
241134.296875,256123.015625,277933.59375,265876.15625,227837.328125,246839.71875,246851.6875,231031.9375,109035.0,1.0,2
240869.03125,255907.09375,277728.84375,265743.125,227549.078125,246773.015625,246404.65625,230993.3125,109036.0,1.0,2
241006.4375,255998.828125,277787.9375,265853.0,227642.515625,246837.03125,246509.359375,231029.78125,109037.0,1.0,2
241376.953125,256289.671875,278038.90625,266060.53125,227992.546875,246944.3125,247023.71875,231095.59375,109038.0,1.0,2
241455.171875,256376.671875,278131.53125,266074.1875,228118.421875,246937.703125,247246.0625,231096.3125,109039.0,1.0,2
241132.328125,256146.625,277934.75,265874.28125,227840.1875,246824.328125,246854.203125,231030.59375,109040.0,1.0,2
240871.625,255937.59375,277734.28125,265741.96875,227554.453125,246759.15625,246407.703125,230991.25,109041.0,1.0,2
241012.078125,256028.25,277793.125,265851.40625,227645.203125,246822.015625,246510.0625,231029.703125,109042.0,1.0,2
241368.0,256308.890625,278036.65625,266054.25,227990.046875,246925.546875,247020.859375,231092.109375,109043.0,1.0,2
241449.359375,256405.015625,278136.0,266076.875,228124.6875,246929.125,247256.4375,231095.765625,109044.0,1.0,2
241127.859375,256174.78125,277942.96875,265878.65625,227847.703125,246817.453125,246868.40625,231031.125,109045.0,1.0,2
240857.3125,255953.0625,277736.625,265741.15625,227554.53125,246749.140625,246414.578125,230989.734375,109046.0,1.0,2
240991.6875,256032.8125,277791.4375,265847.625,227640.015625,246815.9375,246509.71875,231027.28125,109047.0,1.0,2
241353.34375,256306.03125,278035.875,266048.09375,227982.4375,246925.546875,247018.4375,231090.140625,109048.0,1.0,2
241437.65625,256387.75,278132.4375,266068.75,228111.984375,246930.734375,247249.015625,231093.09375,109049.0,1.0,2
241123.03125,256155.828125,277940.90625,265874.46875,227839.65625,246830.0625,246867.34375,231036.21875,109050.0,1.0,2
240851.59375,255925.4375,277731.71875,265735.53125,227548.015625,246769.0,246415.65625,230995.546875,109051.0,1.0,2
240991.515625,256006.171875,277792.84375,265850.21875,227638.484375,246837.125,246512.03125,231029.34375,109052.0,1.0,2
241345.5625,256271.703125,278031.5,266047.375,227976.71875,246934.3125,247012.453125,231086.203125,109053.0,1.0,2
241436.484375,256362.625,278133.78125,266070.53125,228117.71875,246942.625,247257.0625,231094.34375,109054.0,1.0,2
241127.40625,256136.609375,277944.03125,265873.5625,227850.390625,246838.1875,246880.296875,231033.28125,109055.0,1.0,2
240854.8125,255909.96875,277729.46875,265732.40625,227558.03125,246770.953125,246424.0625,230993.484375,109056.0,1.0,2
240988.734375,255991.765625,277779.8125,265841.90625,227642.875,246835.6875,246509.71875,231032.46875,109057.0,1.0,2
241350.390625,256268.484375,278018.25,266042.375,227983.421875,246935.015625,247006.640625,231091.921875,109058.0,1.0,2
241444.8125,256365.21875,278120.53125,266065.875,228125.40625,246936.625,247248.65625,231095.234375,109059.0,1.0,2
241132.421875,256140.359375,277926.0,265867.84375,227856.46875,246825.5,246866.453125,231030.328125,109060.0,1.0,2
240851.40625,255909.875,277706.21875,265723.375,227556.234375,246747.984375,246400.640625,230987.765625,109061.0,1.0,2
240976.140625,255986.859375,277756.03125,265826.71875,227634.921875,246809.40625,246481.375,231026.921875,109062.0,1.0,2
241350.75,256277.78125,278010.65625,266042.1875,227990.84375,246928.671875,246997.78125,231096.84375,109063.0,1.0,2
241451.875,256378.640625,278115.09375,266066.40625,228135.0625,246935.203125,247246.0625,231098.71875,109064.0,1.0,2
241148.875,256158.875,277930.8125,265875.71875,227871.21875,246833.90625,246877.078125,231037.5625,109065.0,1.0,2
240871.0,255924.796875,277720.53125,265734.34375,227572.15625,246767.734375,246416.734375,230999.921875,109066.0,1.0,2
240992.5,255990.421875,277766.5625,265833.25,227640.453125,246831.9375,246489.953125,231036.40625,109067.0,1.0,2
241352.71875,256262.21875,278010.28125,266036.8125,227978.6875,246939.484375,246996.359375,231093.53125,109068.0,1.0,2
241454.375,256360.21875,278120.34375,266065.4375,228125.84375,246946.640625,247250.890625,231090.3125,109069.0,1.0,2
241145.734375,256131.0625,277934.3125,265870.71875,227859.78125,246843.640625,246880.21875,231024.78125,109070.0,1.0,2
240875.1875,255901.640625,277724.8125,265730.15625,227561.875,246776.953125,246422.8125,230982.84375,109071.0,1.0,2
240997.234375,255968.796875,277771.65625,265832.34375,227633.484375,246840.421875,246495.140625,231018.609375,109072.0,1.0,2
241353.96875,256238.890625,278014.21875,266033.5,227972.96875,246947.984375,246998.046875,231080.921875,109073.0,1.0,2
241459.921875,256346.453125,278127.15625,266065.96875,228124.859375,246958.09375,247258.5,231086.109375,109074.0,1.0,2
241149.9375,256125.515625,277940.1875,265870.34375,227858.4375,246842.21875,246888.078125,231016.109375,109075.0,1.0,2
240883.0625,255906.296875,277737.34375,265736.25,227567.140625,246772.296875,246433.0,230982.84375,109076.0,1.0,2
240995.265625,255970.578125,277777.75,265830.84375,227629.640625,246825.3125,246491.390625,231018.34375,109077.0,1.0,2
241346.640625,256243.453125,278012.25,266029.9375,227961.15625,246923.578125,246982.234375,231078.96875,109078.0,1.0,2
241455.71875,256359.328125,278121.0625,266063.8125,228113.6875,246928.765625,247240.34375,231085.046875,109079.0,1.0,2
241157.984375,256151.359375,277943.34375,265877.9375,227860.9375,246824.96875,246884.59375,231027.015625,109080.0,1.0,2
240879.046875,255929.625,277729.90625,265734.71875,227557.84375,246752.90625,246422.09375,230988.125,109081.0,1.0,2
240991.421875,256000.265625,277769.15625,265833.4375,227620.25,246815.578125,246481.453125,231026.21875,109082.0,1.0,2
241337.96875,256271.171875,278001.71875,266032.34375,227954.359375,246923.390625,246971.140625,231089.15625,109083.0,1.0,2
241445.25,256381.9375,278110.34375,266066.78125,228109.21875,246936.359375,247231.40625,231090.859375,109084.0,1.0,2
241152.359375,256172.375,277933.59375,265882.875,227858.078125,246841.140625,246882.1875,231033.09375,109085.0,1.0,2
240884.21875,255952.34375,277724.375,265742.84375,227558.375,246773.828125,246421.375,230989.46875,109086.0,1.0,2
240988.109375,256009.921875,277758.25,265834.59375,227615.328125,246830.234375,246466.34375,231022.8125,109087.0,1.0,2
241336.796875,256275.546875,277996.53125,266037.71875,227952.75,246941.453125,246954.421875,231090.9375,109088.0,1.0,2
241448.921875,256381.140625,278115.25,266074.1875,228112.53125,246958.0,247221.390625,231094.609375,109089.0,1.0,2
241163.4375,256171.125,277949.21875,265892.875,227871.03125,246866.71875,246882.453125,231043.109375,109090.0,1.0,2
240907.921875,255953.59375,277748.96875,265759.03125,227582.171875,246805.921875,246442.296875,231009.9375,109091.0,1.0,2
241015.828125,256010.8125,277787.6875,265850.40625,227644.296875,246871.625,246501.21875,231036.578125,109092.0,1.0,2
241343.515625,256255.96875,278010.03125,266035.3125,227963.484375,246965.0625,246967.921875,231085.21875,109093.0,1.0,2
241439.53125,256349.671875,278113.90625,266065.15625,228111.1875,246964.34375,247216.828125,231089.875,109094.0,1.0,2
241151.734375,256136.78125,277936.28125,265877.78125,227857.625,246855.1875,246870.5625,231027.546875,109095.0,1.0,2
240897.453125,255916.21875,277735.71875,265740.4375,227565.890625,246785.984375,246430.59375,230987.671875,109096.0,1.0,2
240997.953125,255968.53125,277767.90625,265827.4375,227613.453125,246835.421875,246479.765625,231019.421875,109097.0,1.0,2
241327.859375,256223.953125,277994.375,266017.78125,227932.90625,246934.484375,246954.875,231075.828125,109098.0,1.0,2
241433.453125,256333.65625,278102.84375,266049.53125,228083.296875,246937.53125,247211.828125,231077.171875,109099.0,1.0,2
241150.203125,256131.78125,277930.8125,265869.625,227836.4375,246830.859375,246874.046875,231018.96875,109100.0,1.0,2
240891.5625,255917.921875,277728.40625,265733.65625,227546.484375,246759.0625,246431.921875,230978.28125,109101.0,1.0,2
240993.296875,255978.265625,277762.8125,265823.59375,227600.578125,246813.421875,246473.859375,231011.8125,109102.0,1.0,2
241321.421875,256237.8125,277986.59375,266017.0625,227926.03125,246916.875,246943.609375,231072.609375,109103.0,1.0,2
241426.296875,256344.75,278097.8125,266053.4375,228088.46875,246930.546875,247208.34375,231083.875,109104.0,1.0,2
241153.78125,256145.640625,277929.03125,265877.21875,227855.390625,246832.109375,246883.171875,231030.0625,109105.0,1.0,2
240908.1875,255938.03125,277732.96875,265748.5,227576.890625,246769.34375,246456.0625,230998.234375,109106.0,1.0,2
240995.53125,255984.796875,277757.375,265830.03125,227620.078125,246817.71875,246489.328125,231024.328125,109107.0,1.0,2
241316.59375,256231.46875,277976.5,266018.84375,227938.09375,246916.6875,246953.078125,231079.765625,109108.0,1.0,2
241429.15625,256339.828125,278092.375,266059.96875,228104.390625,246934.84375,247222.46875,231085.046875,109109.0,1.0,2
241163.359375,256141.796875,277935.28125,265889.84375,227882.03125,246846.515625,246909.71875,231030.140625,109110.0,1.0,2
240910.15625,255924.0,277736.1875,265755.1875,227597.359375,246780.890625,246475.46875,230995.71875,109111.0,1.0,2
241001.265625,255976.03125,277760.125,265835.75,227637.59375,246831.9375,246498.09375,231020.21875,109112.0,1.0,2
241312.9375,256222.625,277974.875,266019.65625,227948.109375,246928.40625,246946.46875,231076.015625,109113.0,1.0,2
241423.796875,256333.484375,278089.78125,266059.53125,228110.5625,246941.375,247214.15625,231083.4375,109114.0,1.0,2
241163.71875,256148.59375,277935.28125,265888.9375,227879.078125,246844.09375,246900.234375,231028.625,109115.0,1.0,2
240908.90625,255934.1875,277735.09375,265754.9375,227587.171875,246769.703125,246460.09375,230993.125,109116.0,1.0,2
240990.0,255977.90625,277754.6875,265836.5625,227624.8125,246814.59375,246478.328125,231023.703125,109117.0,1.0,2
241303.28125,256225.21875,277967.375,266019.5625,227933.53125,246906.40625,246924.734375,231075.46875,109118.0,1.0,2
241420.484375,256342.953125,278084.0625,266057.84375,228099.109375,246919.203125,247195.546875,231085.671875,109119.0,1.0,2
241172.109375,256172.8125,277936.4375,265895.28125,227881.140625,246828.890625,246894.609375,231035.15625,109120.0,1.0,2
240927.140625,255976.484375,277746.46875,265764.84375,227598.078125,246760.234375,246461.703125,230995.09375,109121.0,1.0,2
241002.6875,256025.5625,277766.125,265837.34375,227625.4375,246810.203125,246473.765625,231024.515625,109122.0,1.0,2
241304.34375,256267.046875,277971.125,266011.96875,227923.78125,246907.9375,246914.90625,231079.859375,109123.0,1.0,2
241428.171875,256385.703125,278091.03125,266057.9375,228091.15625,246929.921875,247194.5625,231086.109375,109124.0,1.0,2
241179.71875,256203.21875,277939.21875,265890.71875,227868.984375,246835.78125,246897.375,231029.703125,109125.0,1.0,2
240929.375,255988.28125,277742.6875,265751.4375,227578.671875,246762.828125,246465.015625,230990.625,109126.0,1.0,2
241007.15625,256027.890625,277764.59375,265826.8125,227608.265625,246814.234375,246477.171875,231023.625,109127.0,1.0,2
241311.328125,256266.515625,277974.0,266006.25,227914.671875,246913.921875,246919.109375,231077.625,109128.0,1.0,2
241434.703125,256381.671875,278093.1875,266051.3125,228090.53125,246933.859375,247200.109375,231086.203125,109129.0,1.0,2
241189.28125,256196.875,277944.84375,265889.3125,227879.71875,246839.09375,246904.625,231032.5625,109130.0,1.0,2
240940.734375,255983.28125,277750.65625,265755.375,227594.0625,246763.453125,246465.90625,230992.0625,109131.0,1.0,2
241006.53125,256013.140625,277761.84375,265820.8125,227613.1875,246804.125,246458.484375,231017.453125,109132.0,1.0,2
241300.140625,256241.65625,277959.78125,265995.6875,227907.0625,246891.75,246883.703125,231070.828125,109133.0,1.0,2
241428.53125,256370.859375,278083.96875,266050.0625,228086.515625,246913.828125,247168.828125,231087.71875,109134.0,1.0,2
241185.703125,256202.953125,277942.4375,265891.28125,227883.015625,246825.046875,246887.375,231039.890625,109135.0,1.0,2
240930.8125,255992.125,277742.15625,265752.15625,227595.125,246748.421875,246452.84375,231000.28125,109136.0,1.0,2
240991.6875,256027.265625,277746.0,265816.4375,227610.421875,246790.0,246447.484375,231026.65625,109137.0,1.0,2
241286.90625,256268.9375,277950.5625,265997.65625,227911.453125,246887.015625,246883.875,231081.375,109138.0,1.0,2
241409.484375,256397.859375,278074.75,266052.8125,228090.078125,246906.328125,247174.546875,231098.546875,109139.0,1.0,2
241165.671875,256229.59375,277930.1875,265893.15625,227880.875,246809.671875,246893.453125,231051.421875,109140.0,1.0,2
240917.03125,256028.421875,277738.5,265762.34375,227596.5625,246738.140625,246465.359375,231019.6875,109141.0,1.0,2
240974.265625,256059.265625,277745.125,265827.53125,227608.890625,246781.0625,246454.90625,231048.734375,109142.0,1.0,2
241270.1875,256294.59375,277947.71875,266004.46875,227905.453125,246878.515625,246886.296875,231100.328125,109143.0,1.0,2
241392.859375,256409.296875,278067.0625,266049.34375,228080.875,246896.578125,247172.125,231090.9375,109144.0,1.0,2
241161.203125,256238.265625,277932.0625,265896.375,227882.578125,246811.90625,246899.53125,231044.09375,109145.0,1.0,2
240919.453125,256033.34375,277746.0,265767.96875,227606.84375,246751.921875,246473.5,231014.765625,109146.0,1.0,2
240967.1875,256046.21875,277748.875,265826.90625,227614.171875,246794.390625,246450.875,231033.625,109147.0,1.0,2
241263.484375,256271.609375,277952.375,266003.125,227909.484375,246900.78125,246878.609375,231087.28125,109148.0,1.0,2
241395.984375,256389.09375,278078.875,266055.59375,228090.796875,246932.421875,247170.96875,231100.515625,109149.0,1.0,2
241164.515625,256216.09375,277948.5,265901.1875,227893.5625,246851.875,246903.90625,231050.890625,109150.0,1.0,2
240919.625,256001.609375,277761.03125,265762.25,227607.46875,246785.984375,246477.53125,231011.640625,109151.0,1.0,2
240967.375,256008.578125,277762.71875,265816.875,227609.703125,246827.109375,246452.21875,231032.015625,109152.0,1.0,2
241263.75,256234.234375,277962.09375,265990.5,227905.1875,246925.984375,246877.265625,231081.203125,109153.0,1.0,2
241402.25,256356.109375,278090.6875,266047.28125,228092.328125,246949.953125,247180.078125,231095.40625,109154.0,1.0,2
241177.65625,256192.40625,277962.03125,265895.5625,227900.984375,246864.125,246924.5625,231050.265625,109155.0,1.0,2
240933.21875,255987.03125,277772.21875,265757.6875,227616.859375,246793.578125,246497.109375,231014.40625,109156.0,1.0,2
240982.578125,256006.875,277767.1875,265810.1875,227613.28125,246825.859375,246460.625,231033.71875,109157.0,1.0,2
241273.140625,256236.484375,277965.5,265986.3125,227903.3125,246918.921875,246880.390625,231085.125,109158.0,1.0,2
241417.265625,256373.453125,278101.65625,266050.40625,228096.078125,246949.5,247191.0,231102.296875,109159.0,1.0,2
241195.265625,256216.09375,277973.1875,265898.96875,227903.40625,246865.375,246937.25,231056.78125,109160.0,1.0,2
240939.84375,256005.09375,277771.75,265755.8125,227608.984375,246786.96875,246500.59375,231015.65625,109161.0,1.0,2
240983.109375,256019.484375,277767.46875,265811.53125,227608.09375,246828.0,246467.328125,231038.90625,109162.0,1.0,2
241272.515625,256248.375,277965.5,265988.375,227900.71875,246926.796875,246887.8125,231090.765625,109163.0,1.0,2
241407.875,256376.40625,278092.09375,266045.6875,228088.296875,246949.0625,247187.421875,231101.9375,109164.0,1.0,2
241182.21875,256213.859375,277965.21875,265896.8125,227904.125,246869.75,246936.90625,231058.9375,109165.0,1.0,2
240925.0,255996.234375,277768.625,265754.3125,227614.53125,246797.78125,246503.90625,231019.6875,109166.0,1.0,2
240963.796875,256002.234375,277761.03125,265803.65625,227607.640625,246833.359375,246460.0,231035.59375,109167.0,1.0,2
241258.390625,256226.1875,277962.90625,265984.6875,227904.296875,246938.15625,246880.9375,231089.25,109168.0,1.0,2
241405.640625,256356.734375,278096.9375,266048.34375,228100.453125,246968.109375,247196.53125,231101.046875,109169.0,1.0,2
241186.875,256197.9375,277970.40625,265899.21875,227917.53125,246887.453125,246955.765625,231054.546875,109170.0,1.0,2
240928.21875,255977.828125,277774.15625,265754.375,227626.953125,246814.046875,246523.84375,231012.265625,109171.0,1.0,2
240949.765625,255966.28125,277751.71875,265794.4375,227604.96875,246836.578125,246457.859375,231023.53125,109172.0,1.0,2
241239.53125,256191.6875,277948.4375,265971.28125,227894.1875,246930.1875,246872.25,231077.53125,109173.0,1.0,2
241384.90625,256327.9375,278082.96875,266034.78125,228093.21875,246958.796875,247190.546875,231091.65625,109174.0,1.0,2
241165.140625,256173.0,277953.6875,265883.03125,227908.328125,246866.0,246943.0625,231035.953125,109175.0,1.0,2
240908.71875,255957.078125,277753.0625,265741.15625,227613.71875,246785.078125,246507.921875,230995.1875,109176.0,1.0,2
240943.234375,255970.3125,277740.1875,265787.8125,227597.1875,246819.5,246461.171875,231018.515625,109177.0,1.0,2
241231.125,256201.875,277935.71875,265962.625,227885.703125,246913.109375,246874.3125,231069.578125,109178.0,1.0,2
241384.015625,256343.40625,278071.625,266028.5,228084.71875,246937.4375,247188.765625,231085.21875,109179.0,1.0,2
241172.921875,256200.0,277946.09375,265882.40625,227904.921875,246849.90625,246950.046875,231038.375,109180.0,1.0,2
240923.390625,255998.828125,277748.96875,265741.15625,227615.78125,246770.609375,246517.046875,230995.453125,109181.0,1.0,2
240951.375,256000.171875,277729.65625,265784.875,227594.234375,246793.3125,246454.1875,231011.90625,109182.0,1.0,2
241234.875,256217.703125,277918.84375,265957.6875,227878.109375,246883.078125,246859.734375,231064.296875,109183.0,1.0,2
241393.75,256360.484375,278060.09375,266028.5,228083.5625,246915.078125,247185.546875,231084.5,109184.0,1.0,2
241187.9375,256215.640625,277941.625,265885.53125,227911.984375,246831.9375,246955.9375,231040.609375,109185.0,1.0,2
240932.859375,256000.53125,277740.65625,265738.75,227618.203125,246752.359375,246518.203125,231000.46875,109186.0,1.0,2
240957.71875,255995.796875,277720.71875,265781.9375,227593.875,246780.96875,246452.046875,231015.296875,109187.0,1.0,2
241248.109375,256218.140625,277911.3125,265960.5625,227878.546875,246879.765625,246861.890625,231068.234375,109188.0,1.0,2
241409.765625,256361.828125,278052.5,266032.53125,228085.890625,246916.421875,247190.453125,231085.21875,109189.0,1.0,2
241198.578125,256208.046875,277933.5,265887.96875,227913.5,246834.171875,246962.296875,231037.828125,109190.0,1.0,2
240949.3125,256001.0625,277741.53125,265748.21875,227626.15625,246763.984375,246533.578125,231000.90625,109191.0,1.0,2
240972.46875,255998.203125,277723.75,265790.875,227602.109375,246798.59375,246467.15625,231020.125,109192.0,1.0,2
241257.40625,256217.703125,277917.65625,265966.8125,227887.21875,246896.671875,246869.84375,231071.890625,109193.0,1.0,2
241418.34375,256362.265625,278061.4375,266037.0,228094.28125,246928.140625,247197.15625,231085.75,109194.0,1.0,2
241208.328125,256211.53125,277947.0,265895.46875,227926.375,246844.546875,246973.90625,231041.859375,109195.0,1.0,2
240943.765625,255991.6875,277746.8125,265749.375,227632.328125,246760.40625,246531.078125,230998.5,109196.0,1.0,2
240967.109375,255995.609375,277726.53125,265787.5625,227606.390625,246790.09375,246455.625,231015.390625,109197.0,1.0,2
241245.421875,256212.15625,277911.9375,265959.5,227887.84375,246884.421875,246858.9375,231066.625,109198.0,1.0,2
241412.625,256362.0,278059.65625,266036.1875,228101.34375,246921.25,247198.234375,231087.1875,109199.0,1.0,2
241206.453125,256217.171875,277947.0,265894.5,227933.984375,246842.21875,246982.046875,231040.96875,109200.0,1.0,2
240940.015625,255996.234375,277741.71875,265741.0625,227632.046875,246761.921875,246534.828125,230995.546875,109201.0,1.0,2
240956.109375,255995.96875,277719.90625,265777.90625,227596.375,246793.046875,246455.078125,231012.265625,109202.0,1.0,2
241241.140625,256221.28125,277916.78125,265956.625,227879.984375,246893.890625,246864.84375,231066.625,109203.0,1.0,2
241410.390625,256373.09375,278066.8125,266033.96875,228096.796875,246933.859375,247209.59375,231089.15625,109204.0,1.0,2
241206.265625,256230.671875,277953.25,265890.8125,227932.1875,246850.171875,246993.40625,231045.171875,109205.0,1.0,2
240952.171875,256021.90625,277761.375,265749.125,227642.78125,246776.5,246558.796875,231005.109375,109206.0,1.0,2
240958.171875,256003.296875,277731.96875,265780.5,227599.234375,246801.453125,246467.15625,231014.234375,109207.0,1.0,2
241243.8125,256220.109375,277926.4375,265959.03125,227883.5625,246904.0,246873.234375,231068.5,109208.0,1.0,2
241418.875,256371.65625,278077.25,266041.21875,228102.953125,246943.25,247219.96875,231088.796875,109209.0,1.0,2
241218.078125,256226.640625,277966.65625,265901.09375,227940.234375,246861.890625,247007.984375,231041.140625,109210.0,1.0,2
240951.375,256003.03125,277764.96875,265751.53125,227639.65625,246779.625,246560.5,230999.84375,109211.0,1.0,2
240959.78125,255985.421875,277733.59375,265784.78125,227596.46875,246807.4375,246461.703125,231017.453125,109212.0,1.0,2
241251.234375,256205.90625,277925.71875,265963.25,227879.625,246907.84375,246864.03125,231071.984375,109213.0,1.0,2
241436.3125,256368.703125,278084.6875,266050.59375,228110.5625,246952.71875,247220.046875,231096.3125,109214.0,1.0,2
241229.875,256222.796875,277976.6875,265910.03125,227955.796875,246875.203125,247011.90625,231048.828125,109215.0,1.0,2
240951.28125,255991.765625,277768.625,265750.1875,227651.71875,246792.15625,246560.578125,231000.375,109216.0,1.0,2
240952.171875,255970.046875,277732.78125,265778.0,227600.9375,246818.53125,246456.96875,231016.375,109217.0,1.0,2
241236.9375,256186.671875,277919.28125,265952.59375,227873.71875,246916.328125,246846.328125,231067.96875,109218.0,1.0,2
241413.96875,256338.125,278070.375,266032.875,228091.34375,246956.921875,247191.796875,231084.328125,109219.0,1.0,2
241219.5,256200.171875,277968.8125,265897.625,227940.78125,246887.640625,246999.21875,231046.859375,109220.0,1.0,2
240953.515625,255978.8125,277764.96875,265740.4375,227638.046875,246802.515625,246553.4375,231001.53125,109221.0,1.0,2
240955.296875,255956.453125,277728.40625,265766.90625,227585.03125,246819.6875,246445.515625,231009.84375,109222.0,1.0,2
241246.40625,256182.296875,277921.5,265950.375,227866.84375,246920.265625,246850.265625,231063.765625,109223.0,1.0,2
241429.15625,256342.875,278078.59375,266038.25,228094.109375,246959.421875,247207.984375,231087.359375,109224.0,1.0,2
241238.015625,256206.796875,277977.84375,265908.625,227946.046875,246879.953125,247013.96875,231049.640625,109225.0,1.0,2
240968.265625,255985.515625,277773.90625,265752.34375,227642.515625,246789.28125,246565.0625,230996.796875,109226.0,1.0,2
240958.796875,255960.203125,277729.65625,265772.625,227584.21875,246801.265625,246446.6875,231008.859375,109227.0,1.0,2
241243.015625,256181.9375,277918.375,265951.71875,227866.125,246901.5,246846.328125,231068.046875,109228.0,1.0,2
241428.0,256344.84375,278073.6875,266037.90625,228093.75,246940.46875,247202.53125,231086.46875,109229.0,1.0,2
241229.78125,256208.140625,277966.21875,265900.03125,227939.796875,246853.390625,246998.140625,231036.671875,109230.0,1.0,2
240958.796875,255990.34375,277761.84375,265745.0,227639.828125,246768.015625,246548.875,230993.671875,109231.0,1.0,2
240944.9375,255961.1875,277711.9375,265761.1875,227576.359375,246782.578125,246427.8125,231008.234375,109232.0,1.0,2
241230.859375,256183.453125,277902.125,265943.46875,227858.515625,246885.125,246824.875,231067.15625,109233.0,1.0,2
241427.28125,256358.78125,278068.9375,266039.3125,228100.375,246933.140625,247200.921875,231091.75,109234.0,1.0,2
241231.03125,256223.328125,277964.0625,265899.3125,227953.46875,246850.703125,247013.703125,231043.375,109235.0,1.0,2
240957.265625,255998.296875,277756.8125,265745.4375,227652.4375,246763.984375,246567.734375,230999.203125,109236.0,1.0,2
240942.34375,255961.640625,277709.8125,265766.375,227589.046875,246780.609375,246443.28125,231010.828125,109237.0,1.0,2
241223.875,256175.59375,277893.4375,265943.65625,227864.25,246881.734375,246835.953125,231067.25,109238.0,1.0,2
241421.65625,256349.578125,278058.75,266037.71875,228104.84375,246932.515625,247211.828125,231093.625,109239.0,1.0,2
241242.203125,256227.890625,277966.75,265911.90625,227971.4375,246860.640625,247036.671875,231053.5625,109240.0,1.0,2
240969.609375,256003.21875,277760.75,265752.875,227670.953125,246772.921875,246588.125,231010.46875,109241.0,1.0,2
240952.078125,255966.015625,277709.09375,265768.78125,227603.890625,246787.328125,246455.078125,231019.6875,109242.0,1.0,2
241231.390625,256177.734375,277890.59375,265944.71875,227875.421875,246886.5625,246838.109375,231071.09375,109243.0,1.0,2
241433.625,256354.5,278058.40625,266040.5625,228118.609375,246933.046875,247213.078125,231096.125,109244.0,1.0,2
241254.734375,256233.609375,277966.21875,265911.03125,227982.34375,246856.078125,247040.96875,231055.265625,109245.0,1.0,2
240975.6875,256002.671875,277756.28125,265747.6875,227669.421875,246760.671875,246586.328125,231003.0625,109246.0,1.0,2
240956.5625,255967.546875,277706.40625,265764.59375,227595.578125,246773.28125,246449.09375,231012.53125,109247.0,1.0,2
241238.90625,256189.1875,277894.0625,265944.09375,227869.78125,246873.78125,246835.515625,231066.359375,109248.0,1.0,2
241436.9375,256365.40625,278059.125,266041.03125,228110.203125,246918.75,247208.78125,231091.296875,109249.0,1.0,2
241255.71875,256246.21875,277966.84375,265911.84375,227975.375,246839.625,247037.65625,231047.3125,109250.0,1.0,2
240980.0625,256024.40625,277764.34375,265753.5,227672.46875,246753.53125,246593.484375,230999.296875,109251.0,1.0,2
240951.28125,255984.96875,277709.34375,265765.84375,227592.984375,246765.59375,246450.171875,231006.359375,109252.0,1.0,2
241225.21875,256195.34375,277886.5625,265941.875,227857.625,246862.953125,246825.859375,231061.265625,109253.0,1.0,2
241426.75,256371.578125,278050.71875,266038.15625,228098.578125,246908.015625,247202.078125,231081.734375,109254.0,1.0,2
241243.1875,256249.171875,277954.15625,265904.0625,227962.234375,246827.28125,247032.296875,231032.015625,109255.0,1.0,2
240963.796875,256022.34375,277748.25,265741.96875,227658.15625,246740.828125,246581.234375,230985.078125,109256.0,1.0,2
240944.03125,255985.25,277700.15625,265758.6875,227586.015625,246762.640625,246438.71875,230998.671875,109257.0,1.0,2
241221.640625,256195.34375,277877.96875,265933.375,227852.4375,246863.5,246813.78125,231050.4375,109258.0,1.0,2
241429.34375,256376.578125,278051.15625,266035.125,228103.859375,246919.46875,247200.5625,231078.515625,109259.0,1.0,2
241257.953125,256260.4375,277967.46875,265910.3125,227981.015625,246849.453125,247044.984375,231041.40625,109260.0,1.0,2
240976.84375,256025.46875,277758.34375,265744.375,227674.609375,246757.8125,246590.171875,230992.421875,109261.0,1.0,2
240948.78125,255979.4375,277704.25,265758.5,227595.84375,246775.96875,246445.34375,231005.296875,109262.0,1.0,2
241222.625,256187.578125,277882.53125,265934.53125,227860.84375,246877.890625,246822.375,231057.859375,109263.0,1.0,2
241419.59375,256357.265625,278046.59375,266028.15625,228102.0625,246922.6875,247197.875,231077.359375,109264.0,1.0,2
241247.84375,256244.796875,277964.34375,265903.59375,227975.015625,246851.15625,247040.796875,231034.34375,109265.0,1.0,2
240967.1875,256014.03125,277760.5,265741.25,227667.453125,246765.140625,246590.71875,230985.703125,109266.0,1.0,2
240926.609375,255959.5,277697.09375,265746.6875,227576.265625,246778.375,246432.734375,230996.171875,109267.0,1.0,2
241197.234375,256164.421875,277871.53125,265919.15625,227833.671875,246875.921875,246802.4375,231048.65625,109268.0,1.0,2
241410.296875,256349.9375,278046.875,266025.46875,228085.890625,246931.796875,247194.921875,231077.890625,109269.0,1.0,2
241243.46875,256244.078125,277968.4375,265907.0,227971.53125,246868.40625,247048.5625,231041.140625,109270.0,1.0,2
240962.359375,256015.46875,277763.34375,265747.40625,227667.546875,246784.015625,246597.78125,230998.578125,109271.0,1.0,2
240917.484375,255954.84375,277694.40625,265744.375,227568.390625,246788.65625,246430.5,231004.484375,109272.0,1.0,2
241194.828125,256165.046875,277870.65625,265918.8125,227828.03125,246884.5,246799.125,231051.25,109273.0,1.0,2
241420.578125,256360.578125,278057.21875,266035.03125,228093.390625,246951.734375,247208.78125,231081.828125,109274.0,1.0,2
241257.140625,256253.640625,277982.125,265915.6875,227981.640625,246888.34375,247073.0625,231043.375,109275.0,1.0,2
240974.703125,256023.234375,277777.75,265747.78125,227676.046875,246799.125,246616.734375,230996.078125,109276.0,1.0,2
240927.40625,255961.640625,277707.5625,265743.3125,227575.1875,246803.6875,246438.1875,230999.484375,109277.0,1.0,2
241209.578125,256172.8125,277889.0625,265926.40625,227841.890625,246914.8125,246814.140625,231060.09375,109278.0,1.0,2
241433.546875,256363.875,278078.6875,266042.53125,228106.171875,246980.625,247223.265625,231090.5,109279.0,1.0,2
241247.578125,256231.921875,277979.71875,265904.6875,227970.546875,246893.453125,247065.28125,231038.734375,109280.0,1.0,2
240951.015625,255987.828125,277759.25,265731.84375,227652.703125,246798.234375,246600.8125,230991.15625,109281.0,1.0,2
240903.0,255928.296875,277689.25,265732.03125,227554.0,246806.453125,246420.65625,230995.546875,109282.0,1.0,2
241185.265625,256140.8125,277874.5,265908.0625,227815.515625,246903.015625,246788.125,231041.40625,109283.0,1.0,2
241420.21875,256338.046875,278067.34375,266020.5625,228074.625,246952.1875,247190.546875,231062.875,109284.0,1.0,2
241250.4375,256222.0,277980.53125,265897.53125,227956.25,246873.15625,247047.859375,231025.234375,109285.0,1.0,2
240948.15625,255969.953125,277751.1875,265728.8125,227638.140625,246773.015625,246577.75,230984.015625,109286.0,1.0,2
240895.3125,255907.375,277668.75,265723.28125,227531.03125,246774.359375,246385.609375,230986.0625,109287.0,1.0,2
241186.328125,256130.53125,277853.75,265906.28125,227799.15625,246875.5625,246757.28125,231037.203125,109288.0,1.0,2
241422.90625,256333.296875,278043.03125,266025.03125,228069.4375,246935.46875,247173.109375,231070.828125,109289.0,1.0,2
241263.484375,256233.796875,277969.34375,265910.75,227968.046875,246870.015625,247049.28125,231037.921875,109290.0,1.0,2
240961.65625,255993.375,277753.875,265739.46875,227656.46875,246773.1875,246585.625,230988.84375,109291.0,1.0,2
240903.0,255925.078125,277675.90625,265733.03125,227548.1875,246776.328125,246392.953125,230987.3125,109292.0,1.0,2
241190.4375,256144.75,277855.71875,265914.5,227815.515625,246880.03125,246765.78125,231043.5625,109293.0,1.0,2
241434.4375,256351.8125,278041.3125,266034.6875,228089.1875,246937.609375,247178.828125,231078.875,109294.0,1.0,2
241271.796875,256247.203125,277965.9375,265917.46875,227987.265625,246872.703125,247054.640625,231043.109375,109295.0,1.0,2
240970.765625,256003.578125,277748.15625,265743.46875,227674.078125,246780.4375,246592.140625,230994.65625,109296.0,1.0,2
240904.515625,255922.296875,277656.15625,265724.78125,227551.765625,246773.46875,246380.515625,230986.875,109297.0,1.0,2
241188.125,256129.28125,277831.125,265904.59375,227811.3125,246871.984375,246743.515625,231042.03125,109298.0,1.0,2
241429.78125,256334.203125,278021.84375,266029.65625,228085.4375,246935.015625,247169.890625,231081.546875,109299.0,1.0,2
241265.8125,256223.15625,277941.90625,265906.5625,227971.890625,246858.75,247042.21875,231036.140625,109300.0,1.0,2
240968.359375,255982.828125,277728.5625,265733.1875,227658.25,246768.71875,246579.265625,230983.75,109301.0,1.0,2
240904.34375,255905.21875,277645.875,265719.15625,227540.6875,246766.75,246372.828125,230982.140625,109302.0,1.0,2
241181.953125,256102.546875,277820.21875,265897.71875,227800.3125,246863.046875,246734.84375,231043.28125,109303.0,1.0,2
241437.65625,256317.21875,278022.90625,266032.96875,228087.84375,246931.890625,247171.40625,231090.046875,109304.0,1.0,2
241283.421875,256224.9375,277954.59375,265916.3125,227991.5625,246863.3125,247056.890625,231045.34375,109305.0,1.0,2
240969.15625,255979.796875,277732.40625,265733.1875,227669.25,246764.609375,246582.125,230985.890625,109306.0,1.0,2
240889.40625,255899.328125,277638.625,265714.0625,227539.703125,246758.625,246363.890625,230985.796875,109307.0,1.0,2
241174.171875,256113.0,277818.96875,265901.625,227801.921875,246866.359375,246733.5,231053.65625,109308.0,1.0,2
241433.1875,256333.296875,278021.1875,266031.90625,228088.65625,246937.609375,247176.328125,231090.140625,109309.0,1.0,2
241288.703125,256247.65625,277959.25,265920.15625,227998.53125,246876.28125,247075.484375,231051.25,109310.0,1.0,2
240972.65625,255996.234375,277735.09375,265737.03125,227676.84375,246777.75,246598.765625,230997.328125,109311.0,1.0,2
240895.765625,255915.5,277643.28125,265720.78125,227552.21875,246778.921875,246381.328125,230998.9375,109312.0,1.0,2
241178.90625,256124.984375,277812.875,265900.21875,227803.984375,246878.515625,246737.609375,231056.875,109313.0,1.0,2
241436.140625,256333.65625,278010.03125,266026.28125,228083.734375,246941.546875,247174.453125,231087.640625,109314.0,1.0,2
241295.671875,256246.671875,277954.5,265918.53125,227999.0625,246882.453125,247081.015625,231050.625,109315.0,1.0,2
240987.125,256003.125,277736.09375,265739.0,227681.859375,246788.65625,246610.65625,230997.78125,109316.0,1.0,2
240905.328125,255917.03125,277644.8125,265719.4375,227552.21875,246788.03125,246385.609375,230995.71875,109317.0,1.0,2
241187.9375,256122.03125,277822.4375,265900.03125,227806.671875,246887.015625,246739.484375,231050.171875,109318.0,1.0,2
241454.28125,256342.875,278031.40625,266036.5625,228096.171875,246953.34375,247185.359375,231090.21875,109319.0,1.0,2
241311.765625,256261.421875,277973.1875,265927.9375,228010.78125,246885.21875,247092.203125,231053.65625,109320.0,1.0,2
240993.84375,256015.90625,277751.1875,265742.5,227688.203125,246782.140625,246618.4375,230998.046875,109321.0,1.0,2
240902.28125,255928.109375,277654.1875,265718.4375,227548.734375,246772.296875,246382.671875,230993.671875,109322.0,1.0,2
241174.703125,256129.640625,277823.6875,265899.21875,227795.9375,246870.828125,246732.0625,231048.921875,109323.0,1.0,2
241448.296875,256362.265625,278034.15625,266041.375,228089.640625,246944.40625,247189.109375,231095.5,109324.0,1.0,2
241308.734375,256284.84375,277979.0,265936.59375,228007.734375,246880.21875,247106.765625,231059.921875,109325.0,1.0,2
240987.40625,256040.046875,277755.125,265745.09375,227679.4375,246773.828125,246631.84375,230999.84375,109326.0,1.0,2
240892.1875,255954.84375,277656.59375,265717.90625,227536.203125,246767.5625,246391.875,230996.53125,109327.0,1.0,2
241154.140625,256152.609375,277816.1875,265892.15625,227776.09375,246861.96875,246732.328125,231052.140625,109328.0,1.0,2
241427.46875,256381.234375,278023.25,266032.625,228070.6875,246931.625,247184.90625,231096.03125,109329.0,1.0,2
241303.0,256314.0,277977.03125,265931.3125,228001.84375,246870.375,247112.140625,231057.328125,109330.0,1.0,2
240977.203125,256060.171875,277751.0,265741.0625,227677.203125,246766.671875,246636.578125,230996.265625,109331.0,1.0,2
240872.609375,255958.234375,277645.0625,265711.03125,227530.671875,246761.84375,246389.28125,230991.796875,109332.0,1.0,2
241140.734375,256151.1875,277809.65625,265889.40625,227776.0,246864.125,246731.0,231047.671875,109333.0,1.0,2
241418.96875,256373.8125,278018.53125,266030.75,228075.25,246938.0625,247185.1875,231091.5625,109334.0,1.0,2
241301.046875,256305.671875,277976.0625,265934.8125,228013.734375,246886.828125,247122.5,231063.046875,109335.0,1.0,2
240981.328125,256053.8125,277758.15625,265747.875,227691.859375,246785.984375,246652.046875,230999.203125,109336.0,1.0,2
240874.84375,255945.640625,277652.59375,265709.875,227537.109375,246776.328125,246393.296875,230988.84375,109337.0,1.0,2
241155.9375,256145.109375,277827.1875,265894.40625,227789.671875,246888.984375,246738.5,231053.921875,109338.0,1.0,2
241434.96875,256368.359375,278036.40625,266034.0625,228087.578125,246961.3125,247194.75,231091.203125,109339.0,1.0,2
241316.0625,256296.375,277989.28125,265930.6875,228022.578125,246900.59375,247127.96875,231050.171875,109340.0,1.0,2
240989.90625,256038.171875,277758.34375,265736.25,227694.1875,246790.71875,246645.796875,230992.328125,109341.0,1.0,2
240887.265625,255938.390625,277654.46875,265708.25,227546.140625,246781.421875,246390.71875,230996.4375,109342.0,1.0,2
241159.234375,256137.5,277819.6875,265888.21875,227791.015625,246882.984375,246727.859375,231058.3125,109343.0,1.0,2
241448.296875,256374.34375,278037.21875,266036.09375,228097.953125,246960.328125,247193.9375,231099.96875,109344.0,1.0,2
241327.859375,256305.3125,277994.125,265938.21875,228036.625,246900.59375,247139.3125,231062.59375,109345.0,1.0,2
241003.671875,256052.5625,277771.03125,265750.375,227713.421875,246798.234375,246666.4375,231006.90625,109346.0,1.0,2
240890.84375,255945.453125,277655.78125,265710.65625,227549.890625,246780.96875,246393.578125,230999.65625,109347.0,1.0,2
241165.59375,256147.515625,277823.0,265891.09375,227794.0625,246883.796875,246728.671875,231060.640625,109348.0,1.0,2
241450.890625,256379.34375,278036.3125,266035.5625,228098.046875,246954.515625,247191.34375,231099.4375,109349.0,1.0,2
241329.828125,256308.890625,277989.8125,265934.71875,228036.265625,246889.78125,247132.609375,231059.296875,109350.0,1.0,2
241010.375,256059.09375,277767.5625,265746.4375,227716.28125,246790.1875,246662.78125,231006.09375,109351.0,1.0,2
240895.9375,255949.03125,277654.71875,265707.53125,227555.15625,246776.6875,246390.078125,230998.140625,109352.0,1.0,2
241163.53125,256141.4375,277815.375,265882.0625,227791.015625,246874.40625,246714.546875,231053.125,109353.0,1.0,2
241443.28125,256362.359375,278024.59375,266026.8125,228090.796875,246943.421875,247175.796875,231091.203125,109354.0,1.0,2
241331.4375,256296.375,277986.5,265935.0625,228036.890625,246889.421875,247130.640625,231059.734375,109355.0,1.0,2
241008.5,256043.53125,277766.03125,265746.0625,227716.90625,246791.078125,246660.28125,231005.5625,109356.0,1.0,2
240892.625,255935.890625,277657.59375,265710.21875,227558.828125,246783.390625,246389.28125,231002.875,109357.0,1.0,2
241148.421875,256119.71875,277813.25,265879.03125,227786.8125,246876.1875,246708.109375,231049.640625,109358.0,1.0,2
241433.984375,256348.328125,278027.71875,266024.5625,228086.234375,246948.4375,247174.0,231089.15625,109359.0,1.0,2
241327.328125,256292.265625,277996.09375,265935.34375,228038.140625,246895.140625,247139.578125,231057.953125,109360.0,1.0,2
241001.34375,256040.3125,277774.4375,265744.46875,227713.6875,246790.453125,246669.21875,230997.515625,109361.0,1.0,2
240874.84375,255921.578125,277654.09375,265698.5,227538.890625,246769.4375,246384.1875,230990.453125,109362.0,1.0,2
241136.703125,256111.484375,277807.6875,265870.4375,227765.265625,246863.3125,246698.984375,231043.828125,109363.0,1.0,2
241433.984375,256354.671875,278029.78125,266026.375,228075.953125,246946.640625,247174.1875,231087.28125,109364.0,1.0,2
241331.078125,256304.15625,278001.96875,265938.28125,228033.3125,246893.890625,247143.34375,231055.625,109365.0,1.0,2
241006.171875,256050.78125,277779.34375,265745.90625,227712.25,246786.875,246671.984375,230997.953125,109366.0,1.0,2
240878.59375,255931.328125,277653.75,265696.4375,227539.34375,246768.90625,246380.34375,230986.609375,109367.0,1.0,2
241142.703125,256123.375,277808.59375,265869.0,227771.53125,246869.484375,246694.15625,231044.09375,109368.0,1.0,2
241437.296875,256359.59375,278022.375,266017.15625,228078.015625,246942.359375,247161.9375,231085.578125,109369.0,1.0,2
241340.640625,256308.1875,277998.84375,265933.75,228042.25,246890.59375,247140.921875,231055.890625,109370.0,1.0,2
241015.296875,256053.734375,277781.0625,265745.53125,227729.5,246792.953125,246682.0,231000.46875,109371.0,1.0,2
240877.078125,255921.140625,277649.09375,265691.34375,227547.5625,246766.578125,246383.5625,230988.21875,109372.0,1.0,2
241138.859375,256104.0625,277799.75,265863.09375,227771.265625,246865.28125,246690.3125,231046.15625,109373.0,1.0,2
241435.15625,256340.640625,278017.0,266015.1875,228079.53125,246944.671875,247162.296875,231083.703125,109374.0,1.0,2
241338.0625,256285.375,277988.75,265927.3125,228040.015625,246891.5625,247139.40625,231050.34375,109375.0,1.0,2
241010.5625,256028.15625,277766.40625,265735.0,227718.15625,246789.375,246670.46875,230992.140625,109376.0,1.0,2
240864.734375,255890.03125,277629.5,265676.78125,227527.265625,246765.78125,246365.5,230976.953125,109377.0,1.0,2
241130.984375,256086.0,277791.875,265857.28125,227757.046875,246874.40625,246675.921875,231039.625,109378.0,1.0,2
241436.484375,256334.640625,278018.4375,266017.15625,228072.109375,246958.71875,247154.421875,231085.40625,109379.0,1.0,2
241340.109375,256284.484375,277994.8125,265932.125,228039.484375,246905.0625,247144.6875,231055.171875,109380.0,1.0,2
241003.046875,256021.28125,277764.0625,265731.78125,227711.171875,246786.15625,246666.171875,230987.59375,109381.0,1.0,2
240860.171875,255889.21875,277629.875,265677.125,227526.828125,246758.703125,246356.828125,230975.421875,109382.0,1.0,2
241118.296875,256075.359375,277778.65625,265849.0625,227750.15625,246854.28125,246658.125,231032.828125,109383.0,1.0,2
241425.5,256328.125,278001.25,266008.03125,228066.125,246932.609375,247139.5,231080.296875,109384.0,1.0,2
241345.03125,256299.78125,277987.3125,265934.90625,228043.0625,246886.109375,247139.578125,231052.5,109385.0,1.0,2
241008.40625,256044.078125,277762.8125,265736.59375,227717.34375,246776.328125,246668.046875,230990.0,109386.0,1.0,2
240859.640625,255909.96875,277627.53125,265677.6875,227525.296875,246752.984375,246359.859375,230974.09375,109387.0,1.0,2
241106.671875,256089.140625,277771.21875,265845.84375,227737.203125,246846.59375,246653.5625,231027.46875,109388.0,1.0,2
241417.265625,256344.75,277999.46875,266011.34375,228058.96875,246933.234375,247142.625,231079.859375,109389.0,1.0,2
241341.0,256313.453125,277987.6875,265936.40625,228039.578125,246887.453125,247150.671875,231055.265625,109390.0,1.0,2
241012.96875,256060.078125,277768.90625,265743.3125,227725.3125,246782.84375,246687.71875,230999.84375,109391.0,1.0,2
240862.234375,255923.828125,277630.6875,265680.53125,227532.1875,246756.828125,246372.296875,230982.765625,109392.0,1.0,2
241111.140625,256103.265625,277773.0,265849.6875,227745.953125,246850.625,246661.703125,231035.78125,109393.0,1.0,2
241413.421875,256341.265625,277990.34375,266006.4375,228059.6875,246925.1875,247138.15625,231079.9375,109394.0,1.0,2
241343.953125,256308.0,277980.0,265936.34375,228043.953125,246880.9375,247147.625,231055.625,109395.0,1.0,2
241015.203125,256047.375,277757.71875,265739.8125,227719.21875,246775.078125,246681.734375,230994.203125,109396.0,1.0,2
240858.921875,255900.390625,277618.78125,265678.5625,227523.953125,246751.296875,246363.984375,230979.265625,109397.0,1.0,2
241108.8125,256076.171875,277761.46875,265845.5,227734.25,246846.859375,246647.40625,231035.78125,109398.0,1.0,2
241425.765625,256330.53125,277992.78125,266015.375,228061.75,246937.25,247142.359375,231086.109375,109399.0,1.0,2
241349.5,256293.515625,277979.8125,265941.59375,228047.34375,246889.421875,247157.46875,231056.078125,109400.0,1.0,2
241020.390625,256041.390625,277759.0625,265744.28125,227732.015625,246784.375,246694.25,230997.25,109401.0,1.0,2
240859.640625,255899.140625,277612.34375,265674.09375,227527.71875,246751.015625,246361.203125,230978.5625,109402.0,1.0,2
241106.40625,256076.171875,277753.78125,265842.53125,227735.5,246846.6875,246643.546875,231034.171875,109403.0,1.0,2
241417.265625,256320.78125,277979.1875,266008.03125,228053.78125,246930.734375,247130.203125,231079.3125,109404.0,1.0,2
241351.640625,256295.84375,277977.3125,265939.5625,228045.734375,246887.90625,247154.875,231053.03125,109405.0,1.0,2
241027.90625,256050.234375,277763.1875,265746.6875,227729.78125,246784.546875,246698.546875,230998.40625,109406.0,1.0,2
240870.71875,255908.078125,277618.875,265681.875,227525.921875,246754.515625,246367.375,230982.046875,109407.0,1.0,2
241110.0625,256075.0,277756.90625,265847.46875,227730.578125,246844.453125,246640.515625,231031.390625,109408.0,1.0,2
241423.96875,256327.5,277984.46875,266011.15625,228053.609375,246930.546875,247127.25,231081.640625,109409.0,1.0,2
241366.9375,256313.90625,277986.25,265946.0625,228055.125,246895.140625,247160.0625,231061.53125,109410.0,1.0,2
241033.0,256059.359375,277767.03125,265748.40625,227737.375,246790.0,246701.765625,230996.4375,109411.0,1.0,2
240864.203125,255908.171875,277621.09375,265675.71875,227526.828125,246757.09375,246364.609375,230977.3125,109412.0,1.0,2
241101.21875,256076.265625,277756.90625,265840.9375,227726.828125,246850.359375,246635.0625,231031.578125,109413.0,1.0,2
241421.375,256332.765625,277986.34375,266011.0625,228052.09375,246938.328125,247126.265625,231079.140625,109414.0,1.0,2
241361.125,256307.5625,277983.03125,265942.9375,228046.015625,246892.546875,247155.671875,231048.734375,109415.0,1.0,2
241031.125,256047.65625,277763.4375,265744.0,227728.078125,246786.875,246700.15625,230988.84375,109416.0,1.0,2
240859.8125,255888.953125,277613.25,265669.8125,227516.453125,246756.46875,246361.5625,230971.140625,109417.0,1.0,2
241095.9375,256054.625,277744.21875,265831.09375,227712.96875,246848.125,246622.8125,231023.078125,109418.0,1.0,2
241415.21875,256315.515625,277977.125,266003.03125,228040.734375,246938.859375,247121.171875,231073.6875,109419.0,1.0,2
241362.28125,256305.3125,277986.25,265946.0625,228048.0625,246903.640625,247167.75,231053.484375,109420.0,1.0,2
241027.09375,256051.84375,277766.3125,265746.15625,227732.8125,246793.40625,246708.828125,230991.25,109421.0,1.0,2
240854.546875,255895.5625,277613.5,265668.03125,227520.109375,246756.65625,246363.890625,230969.796875,109422.0,1.0,2
241092.0,256065.265625,277750.84375,265831.0,227722.796875,246854.5625,246627.640625,231025.5,109423.0,1.0,2
241412.4375,256318.828125,277980.34375,265999.4375,228046.015625,246937.53125,247115.0,231074.21875,109424.0,1.0,2
241366.046875,256307.109375,277989.03125,265945.09375,228056.203125,246901.40625,247166.859375,231055.71875,109425.0,1.0,2
241034.609375,256053.453125,277767.8125,265745.53125,227740.6875,246790.8125,246711.5,230993.3125,109426.0,1.0,2
240859.109375,255898.15625,277612.0625,265663.90625,227520.921875,246749.953125,246359.234375,230969.4375,109427.0,1.0,2
241086.90625,256057.84375,277738.6875,265820.1875,227711.171875,246842.9375,246612.4375,231021.65625,109428.0,1.0,2
241405.828125,256311.40625,277968.71875,265993.375,228036.890625,246929.484375,247103.375,231071.1875,109429.0,1.0,2
241359.515625,256300.140625,277977.125,265938.125,228049.578125,246890.140625,247156.578125,231050.171875,109430.0,1.0,2
241028.171875,256043.171875,277755.125,265738.125,227731.5625,246778.203125,246700.328125,230985.703125,109431.0,1.0,2
240850.609375,255885.734375,277603.6875,265661.59375,227513.859375,246744.234375,246352.265625,230966.3125,109432.0,1.0,2
241084.859375,256053.109375,277741.28125,265828.6875,227711.71875,246846.6875,246614.046875,231026.125,109433.0,1.0,2
241404.75,256307.203125,277968.625,265996.40625,228034.46875,246932.34375,247102.65625,231072.609375,109434.0,1.0,2
241376.40625,256312.921875,277991.6875,265950.09375,228064.96875,246905.703125,247174.359375,231058.125,109435.0,1.0,2
241047.296875,256059.265625,277773.71875,265751.34375,227753.640625,246797.15625,246726.078125,230996.625,109436.0,1.0,2
240865.53125,255898.875,277614.5,265666.21875,227528.609375,246754.15625,246364.421875,230974.359375,109437.0,1.0,2
241085.65625,256051.5,277735.0,265818.59375,227709.21875,246840.875,246603.59375,231021.109375,109438.0,1.0,2
241407.25,256303.171875,277965.9375,265993.28125,228036.171875,246930.375,247098.375,231072.609375,109439.0,1.0,2
241374.625,256306.484375,277985.8125,265945.90625,228061.65625,246896.578125,247170.25,231055.8125,109440.0,1.0,2
241042.203125,256051.84375,277766.84375,265746.53125,227750.078125,246784.1875,246718.484375,230996.265625,109441.0,1.0,2
240852.9375,255885.546875,277605.90625,265662.03125,227522.4375,246744.140625,246355.671875,230976.046875,109442.0,1.0,2
241070.109375,256040.046875,277726.96875,265815.90625,227700.890625,246831.125,246592.6875,231028.53125,109443.0,1.0,2
241399.65625,256306.65625,277965.5,265995.34375,228037.6875,246928.140625,247097.921875,231082.0,109444.0,1.0,2
241364.609375,256303.53125,277981.78125,265945.1875,228060.671875,246891.390625,247168.546875,231055.53125,109445.0,1.0,2
241033.4375,256048.546875,277760.125,265742.21875,227743.640625,246778.734375,246715.34375,230987.859375,109446.0,1.0,2
240852.21875,255888.234375,277602.6875,265658.8125,227518.953125,246740.828125,246355.578125,230968.71875,109447.0,1.0,2
241076.8125,256044.4375,277726.15625,265815.375,227700.359375,246832.109375,246592.40625,231020.3125,109448.0,1.0,2
241404.390625,256303.078125,277959.0625,265993.71875,228033.671875,246927.0625,247091.3125,231074.578125,109449.0,1.0,2
241376.40625,256304.0625,277980.25,265945.4375,228062.640625,246892.640625,247171.328125,231051.609375,109450.0,1.0,2
241051.0625,256053.90625,277769.0625,265749.03125,227757.21875,246785.984375,246730.71875,230993.3125,109451.0,1.0,2
240860.984375,255885.46875,277604.03125,265658.1875,227521.8125,246742.265625,246356.734375,230970.25,109452.0,1.0,2
241076.09375,256036.390625,277721.59375,265810.8125,227694.28125,246831.75,246582.046875,231020.3125,109453.0,1.0,2
241403.671875,256295.125,277955.5,265991.84375,228028.578125,246927.953125,247083.34375,231077.359375,109454.0,1.0,2
241380.796875,256297.546875,277980.34375,265952.25,228064.875,246899.265625,247174.453125,231062.0625,109455.0,1.0,2
241058.75,256054.171875,277772.03125,265755.71875,227761.0625,246794.03125,246735.546875,231001.53125,109456.0,1.0,2
240864.5625,255885.109375,277608.0625,265663.5625,227527.0,246753.703125,246362.90625,230975.515625,109457.0,1.0,2
241078.15625,256033.796875,277724.8125,265815.4375,227698.578125,246845.796875,246587.046875,231026.65625,109458.0,1.0,2
241407.609375,256298.25,277958.8125,265995.875,228030.984375,246938.421875,247084.78125,231082.890625,109459.0,1.0,2
241389.640625,256310.0625,277985.1875,265951.34375,228069.703125,246904.625,247175.34375,231063.5,109460.0,1.0,2
241063.75,256059.890625,277770.3125,265749.5625,227764.640625,246795.375,246736.890625,230998.140625,109461.0,1.0,2
240867.140625,255888.59375,277607.25,265659.875,227533.171875,246756.75,246365.765625,230979.0,109462.0,1.0,2
241072.34375,256030.03125,277718.90625,265807.125,227699.375,246842.65625,246581.59375,231028.265625,109463.0,1.0,2
241404.3125,256292.71875,277955.9375,265992.5625,228035.09375,246940.125,247084.78125,231086.296875,109464.0,1.0,2
241395.453125,256312.46875,277991.25,265958.21875,228077.921875,246910.96875,247188.046875,231069.65625,109465.0,1.0,2
241070.8125,256067.671875,277780.53125,265756.96875,227771.171875,246800.640625,246749.953125,231004.125,109466.0,1.0,2
240871.890625,255896.734375,277613.875,265663.8125,227532.8125,246755.3125,246373.8125,230980.078125,109467.0,1.0,2
241075.015625,256035.765625,277723.84375,265808.84375,227693.65625,246840.25,246582.484375,231028.453125,109468.0,1.0,2
241402.703125,256294.59375,277956.65625,265989.71875,228025.4375,246931.265625,247077.171875,231079.40625,109469.0,1.0,2
241390.8125,256308.890625,277989.03125,265954.75,228070.859375,246904.359375,247182.234375,231062.78125,109470.0,1.0,2
241062.765625,256057.75,277771.65625,265753.59375,227762.671875,246788.578125,246742.53125,230998.859375,109471.0,1.0,2
240857.3125,255882.25,277598.75,265655.78125,227523.15625,246740.65625,246357.265625,230971.859375,109472.0,1.0,2
241057.671875,256023.0625,277703.28125,265800.15625,227685.515625,246825.234375,246563.09375,231020.75,109473.0,1.0,2
241398.859375,256294.765625,277946.90625,265991.40625,228029.109375,246930.109375,247073.953125,231084.953125,109474.0,1.0,2
241397.0625,256317.296875,277986.6875,265962.4375,228085.96875,246912.671875,247193.046875,231069.9375,109475.0,1.0,2
241075.28125,256078.3125,277779.8125,265765.125,227787.625,246808.0625,246763.53125,231007.4375,109476.0,1.0,2
240866.96875,255902.0,277610.28125,265669.1875,227543.8125,246764.875,246379.984375,230983.03125,109477.0,1.0,2
241058.921875,256033.25,277714.71875,265809.09375,227696.34375,246851.875,246580.078125,231033.8125,109478.0,1.0,2
241389.46875,256293.875,277950.03125,265990.96875,228027.140625,246945.921875,247081.203125,231089.25,109479.0,1.0,2
241387.5,256317.03125,277988.9375,265959.5,228083.921875,246918.921875,247203.15625,231070.015625,109480.0,1.0,2
241065.625,256076.890625,277779.1875,265761.90625,227787.359375,246812.359375,246775.703125,231011.1875,109481.0,1.0,2
240847.921875,255887.34375,277595.09375,265654.4375,227530.3125,246756.65625,246373.453125,230976.59375,109482.0,1.0,2
241031.296875,256006.078125,277683.15625,265785.9375,227666.65625,246826.65625,246547.4375,231014.859375,109483.0,1.0,2
241377.578125,256278.234375,277925.90625,265980.9375,228007.203125,246930.546875,247056.890625,231081.640625,109484.0,1.0,2
241383.296875,256305.140625,277970.6875,265950.71875,228068.09375,246903.28125,247184.015625,231062.421875,109485.0,1.0,2
241060.71875,256062.140625,277764.78125,265751.78125,227768.9375,246792.859375,246756.203125,230999.296875,109486.0,1.0,2
240852.75,255884.484375,277594.46875,265649.6875,227521.640625,246747.984375,246366.84375,230971.765625,109487.0,1.0,2
241041.765625,256013.9375,277695.3125,265788.71875,227671.65625,246832.734375,246557.640625,231017.71875,109488.0,1.0,2
241375.78125,256276.171875,277932.59375,265977.0,228008.546875,246933.046875,247060.1875,231076.015625,109489.0,1.0,2
241395.984375,256315.953125,277987.125,265959.75,228084.90625,246920.09375,247201.640625,231067.15625,109490.0,1.0,2
241083.609375,256079.828125,277786.15625,265765.21875,227793.515625,246818.96875,246785.0,231008.328125,109491.0,1.0,2
240870.09375,255895.84375,277611.0,265661.03125,227539.078125,246769.796875,246383.109375,230980.609375,109492.0,1.0,2
241049.8125,256015.640625,277701.5625,265794.09375,227675.5,246840.875,246555.484375,231018.515625,109493.0,1.0,2
241386.421875,256280.109375,277933.6875,265978.1875,228006.40625,246936.625,247053.21875,231066.71875,109494.0,1.0,2
241408.15625,256322.21875,277987.0625,265961.09375,228080.875,246917.140625,247198.234375,231059.921875,109495.0,1.0,2
241086.109375,256079.296875,277780.59375,265763.40625,227787.4375,246805.375,246779.0,230999.65625,109496.0,1.0,2
240861.96875,255885.375,277597.59375,265652.8125,227525.921875,246748.421875,246372.03125,230970.25,109497.0,1.0,2
241040.515625,256002.5,277687.71875,265785.15625,227662.0,246825.9375,246544.046875,231014.765625,109498.0,1.0,2
241383.921875,256276.0,277927.40625,265975.75,228001.75,246928.9375,247048.75,231071.71875,109499.0,1.0,2
241412.796875,256326.234375,277988.21875,265965.375,228084.90625,246917.859375,247205.484375,231064.484375,109500.0,1.0,2
241088.875,256080.90625,277780.6875,265766.28125,227790.296875,246802.15625,246783.921875,231002.078125,109501.0,1.0,2
240869.921875,255893.6875,277598.65625,265656.65625,227532.28125,246745.296875,246374.703125,230971.578125,109502.0,1.0,2
241046.046875,256010.71875,277684.21875,265784.875,227663.703125,246819.859375,246535.734375,231012.171875,109503.0,1.0,2
241377.65625,256269.375,277915.6875,265968.96875,227996.828125,246918.21875,247031.84375,231065.453125,109504.0,1.0,2
241400.8125,256317.921875,277976.15625,265955.90625,228078.734375,246906.140625,247188.21875,231058.390625,109505.0,1.0,2
241085.21875,256084.65625,277776.84375,265763.25,227785.828125,246799.5625,246775.78125,230999.75,109506.0,1.0,2
240857.140625,255893.6875,277590.625,265650.59375,227521.90625,246744.859375,246365.59375,230968.453125,109507.0,1.0,2
241036.3125,256016.984375,277680.21875,265783.625,227656.640625,246832.5625,246534.75,231018.171875,109508.0,1.0,2
241376.953125,256282.703125,277915.625,265974.25,227995.671875,246940.46875,247039.453125,231078.515625,109509.0,1.0,2
241402.515625,256324.1875,277972.9375,265960.90625,228077.125,246927.15625,247199.21875,231068.671875,109510.0,1.0,2
241090.671875,256088.953125,277772.5625,265765.65625,227790.84375,246819.15625,246788.21875,231006.546875,109511.0,1.0,2
240861.421875,255890.296875,277587.125,265651.5625,227532.8125,246764.4375,246375.78125,230976.671875,109512.0,1.0,2
241028.625,255996.59375,277670.71875,265776.65625,227660.671875,246840.421875,246532.0625,231019.140625,109513.0,1.0,2
241375.15625,256266.515625,277911.6875,265966.8125,227997.8125,246942.171875,247035.0625,231073.78125,109514.0,1.0,2
241409.84375,256311.40625,277978.65625,265959.84375,228087.671875,246929.828125,247203.0625,231066.0,109515.0,1.0,2
241100.328125,256074.921875,277786.5,265767.15625,227805.328125,246824.328125,246795.453125,231008.859375,109516.0,1.0,2
240880.015625,255883.671875,277609.40625,265656.125,227544.171875,246769.0,246383.46875,230980.078125,109517.0,1.0,2
241047.296875,255993.640625,277690.3125,265781.3125,227666.125,246842.03125,246537.34375,231021.734375,109518.0,1.0,2
241377.65625,256249.265625,277917.5,265968.53125,227996.828125,246934.75,247036.234375,231080.296875,109519.0,1.0,2
241415.21875,256306.921875,277979.8125,265959.125,228084.8125,246913.75,247205.921875,231068.671875,109520.0,1.0,2
241101.484375,256084.578125,277780.25,265760.1875,227795.21875,246799.75,246799.484375,231007.4375,109521.0,1.0,2
240868.40625,255898.078125,277593.3125,265643.875,227524.5,246741.015625,246383.109375,230979.1875,109522.0,1.0,2
241025.9375,256009.5625,277669.125,265769.9375,227641.171875,246817.453125,246529.921875,231027.90625,109523.0,1.0,2
241362.546875,256282.96875,277900.6875,265960.65625,227975.375,246917.859375,247032.46875,231087.015625,109524.0,1.0,2
241398.765625,256345.640625,277963.09375,265951.96875,228067.015625,246903.1875,247208.25,231072.609375,109525.0,1.0,2
241099.34375,256134.015625,277776.21875,265766.375,227792.8125,246806.359375,246814.953125,231023.703125,109526.0,1.0,2
240866.078125,255942.859375,277590.1875,265651.84375,227526.828125,246752.90625,246398.046875,230993.671875,109527.0,1.0,2
241019.671875,256042.828125,277657.5,265771.03125,227639.828125,246821.921875,246530.453125,231031.046875,109528.0,1.0,2
241366.390625,256317.125,277895.75,265967.34375,227984.578125,246927.421875,247033.015625,231090.40625,109529.0,1.0,2
241415.75,256380.15625,277969.09375,265968.25,228089.640625,246919.734375,247218.53125,231082.0,109530.0,1.0,2
241100.328125,256139.734375,277773.90625,265773.875,227806.671875,246811.1875,246815.9375,231020.3125,109531.0,1.0,2
240866.703125,255936.78125,277587.84375,265657.8125,227536.484375,246755.484375,246392.59375,230987.9375,109532.0,1.0,2
241027.90625,256038.34375,277666.0,265781.03125,227652.171875,246834.890625,246528.046875,231030.859375,109533.0,1.0,2
241362.015625,256294.40625,277901.125,265967.4375,227986.28125,246934.75,247023.359375,231086.46875,109534.0,1.0,2
241406.984375,256345.90625,277977.84375,265966.0,228088.921875,246927.15625,247213.4375,231080.03125,109535.0,1.0,2
241098.53125,256114.171875,277784.1875,265770.46875,227808.453125,246821.46875,246819.859375,231015.65625,109536.0,1.0,2
240866.078125,255916.75,277596.53125,265652.65625,227536.125,246763.625,246396.796875,230982.046875,109537.0,1.0,2
241022.1875,256017.25,277672.53125,265775.03125,227646.984375,246841.5,246529.828125,231026.21875,109538.0,1.0,2
241363.453125,256284.125,277912.46875,265967.4375,227985.03125,246945.921875,247030.234375,231084.234375,109539.0,1.0,2
241423.078125,256357.890625,277997.96875,265972.71875,228095.8125,246938.859375,247228.984375,231080.296875,109540.0,1.0,2
241120.078125,256139.109375,277812.15625,265783.09375,227820.609375,246831.671875,246842.578125,231022.8125,109541.0,1.0,2
240875.375,255935.0,277619.78125,265659.09375,227541.75,246765.59375,246411.640625,230986.78125,109542.0,1.0,2
241023.703125,256032.546875,277688.53125,265773.25,227642.6875,246832.734375,246531.34375,231027.46875,109543.0,1.0,2
241374.984375,256313.09375,277929.84375,265970.9375,227983.328125,246939.046875,247036.859375,231090.40625,109544.0,1.0,2
241436.484375,256387.578125,278012.53125,265977.09375,228101.4375,246935.296875,247244.015625,231088.34375,109545.0,1.0,2
241128.9375,256159.40625,277817.96875,265782.0,227824.015625,246824.328125,246851.609375,231025.859375,109546.0,1.0,2
240884.140625,255951.53125,277619.9375,265652.71875,227542.46875,246754.6875,246415.390625,230988.65625,109547.0,1.0,2
241030.140625,256043.984375,277683.875,265767.875,227644.21875,246825.234375,246529.5625,231025.234375,109548.0,1.0,2
241375.25,256310.140625,277920.0,265962.96875,227982.171875,246928.40625,247025.59375,231081.640625,109549.0,1.0,2
241438.453125,256378.640625,278005.75,265972.28125,228100.09375,246929.75,247232.125,231080.390625,109550.0,1.0,2
241130.90625,256146.890625,277816.71875,265779.0625,227825.796875,246824.0625,246845.875,231019.140625,109551.0,1.0,2
240884.140625,255934.546875,277619.5,265652.375,227543.984375,246761.84375,246410.375,230982.765625,109552.0,1.0,2
241019.671875,256014.65625,277680.03125,265762.78125,227638.765625,246832.296875,246515.796875,231021.203125,109553.0,1.0,2
241367.203125,256282.703125,277920.875,265963.34375,227979.046875,246940.125,247017.71875,231082.890625,109554.0,1.0,2
241432.734375,256357.0,278005.8125,265971.46875,228099.03125,246934.84375,247226.9375,231076.71875,109555.0,1.0,2
241131.4375,256135.984375,277820.65625,265779.6875,227830.265625,246830.140625,246842.9375,231013.421875,109556.0,1.0,2
240885.203125,255931.859375,277627.09375,265654.78125,227549.796875,246768.71875,246408.6875,230983.296875,109557.0,1.0,2
241013.59375,256008.484375,277681.625,265761.1875,227637.859375,246833.359375,246509.4375,231020.578125,109558.0,1.0,2
241356.828125,256276.0,277914.53125,265955.1875,227971.265625,246937.53125,247004.3125,231074.40625,109559.0,1.0,2
241428.984375,256359.671875,278001.34375,265966.1875,228094.015625,246935.203125,247225.859375,231072.96875,109560.0,1.0,2
241125.796875,256139.375,277815.125,265776.375,227824.71875,246828.890625,246850.625,231013.96875,109561.0,1.0,2
240869.03125,255926.953125,277614.65625,265646.75,227538.984375,246762.015625,246407.4375,230976.59375,109562.0,1.0,2
241000.8125,256013.5,277668.59375,265752.96875,227626.0625,246824.0625,246501.390625,231014.3125,109563.0,1.0,2
241348.34375,256288.6875,277906.0625,265950.8125,227964.46875,246926.4375,247001.0,231075.296875,109564.0,1.0,2
241434.078125,256384.0,278003.9375,265971.75,228100.28125,246930.734375,247235.609375,231078.515625,109565.0,1.0,2
241133.671875,256162.09375,277817.8125,265776.65625,227831.4375,246817.890625,246857.5,231014.5,109566.0,1.0,2
240879.125,255945.28125,277616.5625,265645.03125,227545.515625,246750.125,246412.703125,230978.28125,109567.0,1.0,2
241002.6875,256016.71875,277665.8125,265751.0,227628.125,246814.953125,246496.5625,231014.140625,109568.0,1.0,2
241347.796875,256281.625,277899.4375,265949.75,227962.953125,246920.53125,246989.734375,231075.828125,109569.0,1.0,2
241433.984375,256366.03125,277993.65625,265966.0,228095.359375,246922.0625,247220.234375,231073.859375,109570.0,1.0,2
241137.96875,256144.390625,277809.9375,265776.375,227832.328125,246822.1875,246853.84375,231017.09375,109571.0,1.0,2
240885.125,255931.59375,277612.625,265647.625,227550.609375,246764.609375,246417.796875,230981.953125,109572.0,1.0,2
241008.046875,256001.34375,277657.75,265745.0,227627.578125,246830.328125,246498.0,231007.703125,109573.0,1.0,2
241362.46875,256273.046875,277900.6875,265948.125,227972.421875,246943.96875,247001.1875,231075.65625,109574.0,1.0,2
241448.828125,256358.34375,278000.09375,265971.09375,228111.546875,246945.125,247238.375,231076.015625,109575.0,1.0,2
241145.46875,256129.453125,277810.5625,265774.59375,227841.265625,246833.90625,246860.8125,231009.9375,109576.0,1.0,2
240886.453125,255906.65625,277604.03125,265639.0625,227545.59375,246762.734375,246405.546875,230969.96875,109577.0,1.0,2
241008.234375,255979.703125,277653.03125,265742.40625,227623.109375,246825.9375,246484.859375,231006.984375,109578.0,1.0,2
241351.375,256245.953125,277888.4375,265939.90625,227961.515625,246931.71875,246978.734375,231068.40625,109579.0,1.0,2
241453.296875,256348.5,277993.40625,265966.90625,228109.75,246939.578125,247226.75,231071.8125,109580.0,1.0,2
241154.40625,256131.78125,277810.125,265775.03125,227851.28125,246829.96875,246863.046875,231010.03125,109581.0,1.0,2
240892.890625,255919.796875,277608.5,265642.09375,227562.140625,246760.234375,246413.0625,230974.796875,109582.0,1.0,2
241004.921875,255990.34375,277650.15625,265738.90625,227625.171875,246814.140625,246475.640625,231005.828125,109583.0,1.0,2
241341.625,256255.515625,277878.34375,265935.78125,227949.890625,246914.28125,246960.5,231062.59375,109584.0,1.0,2
241435.6875,256355.296875,277982.21875,265963.0625,228093.21875,246923.21875,247212.625,231067.78125,109585.0,1.0,2
241147.34375,256149.484375,277806.96875,265778.0,227838.140625,246824.78125,246859.828125,231013.96875,109586.0,1.0,2
240882.796875,255936.515625,277605.09375,265641.65625,227545.59375,246758.265625,246409.484375,230974.71875,109587.0,1.0,2
240994.015625,256003.75,277647.40625,265738.125,227608.984375,246816.109375,246472.078125,231009.671875,109588.0,1.0,2
241338.953125,256270.625,277882.625,265936.6875,227943.015625,246917.40625,246965.6875,231069.578125,109589.0,1.0,2
241443.109375,256372.546875,277990.96875,265967.8125,228094.203125,246924.5625,247223.359375,231072.703125,109590.0,1.0,2
241147.4375,256153.234375,277811.46875,265779.15625,227836.890625,246815.578125,246863.5,231011.015625,109591.0,1.0,2
240876.359375,255922.390625,277599.375,265635.75,227536.203125,246740.296875,246403.3125,230967.65625,109592.0,1.0,2
240985.703125,255984.625,277635.9375,265730.875,227599.6875,246800.734375,246462.234375,230998.3125,109593.0,1.0,2
241334.75,256253.734375,277869.9375,265932.84375,227934.703125,246908.46875,246955.140625,231062.15625,109594.0,1.0,2
241443.90625,256359.765625,277985.625,265970.21875,228091.34375,246922.859375,247222.734375,231071.8125,109595.0,1.0,2
241154.59375,256148.59375,277812.875,265783.625,227842.875,246821.921875,246876.453125,231015.125,109596.0,1.0,2
240883.15625,255921.5,277600.53125,265635.65625,227541.65625,246745.03125,246416.734375,230972.5625,109597.0,1.0,2
240982.296875,255975.40625,277631.3125,265723.1875,227592.796875,246800.640625,246463.21875,231000.734375,109598.0,1.0,2
241319.90625,256233.34375,277858.21875,265918.1875,227920.03125,246903.90625,246943.78125,231056.34375,109599.0,1.0,2
241440.515625,256353.953125,277977.3125,265962.15625,228086.953125,246922.328125,247217.453125,231067.78125,109600.0,1.0,2
241161.296875,256155.03125,277812.15625,265784.59375,227847.96875,246828.453125,246881.828125,231013.6875,109601.0,1.0,2
240882.4375,255922.484375,277599.65625,265636.28125,227546.578125,246751.921875,246419.140625,230967.5625,109602.0,1.0,2
240977.390625,255973.4375,277627.375,265720.0625,227593.15625,246802.875,246456.421875,230995.640625,109603.0,1.0,2
241327.234375,256244.703125,277859.65625,265919.34375,227925.578125,246912.9375,246946.46875,231059.296875,109604.0,1.0,2
241443.46875,256356.453125,277977.65625,265960.1875,228092.953125,246926.96875,247224.515625,231074.84375,109605.0,1.0,2
241148.78125,256141.609375,277797.15625,265768.78125,227839.75,246815.21875,246874.9375,231007.875,109606.0,1.0,2
240874.921875,255915.78125,277582.125,265619.75,227533.4375,246734.578125,246406.265625,230957.640625,109607.0,1.0,2
240986.5,255983.015625,277624.0625,265722.28125,227595.484375,246804.046875,246454.640625,231002.25,109608.0,1.0,2
241328.125,256247.03125,277856.875,265924.34375,227927.28125,246913.46875,246939.484375,231061.171875,109609.0,1.0,2
241450.53125,256364.953125,277979.1875,265970.21875,228100.8125,246932.96875,247225.59375,231070.375,109610.0,1.0,2
241169.4375,256163.609375,277812.0,265784.6875,227858.875,246832.828125,246894.4375,231010.5625,109611.0,1.0,2
240892.0,255932.40625,277598.03125,265635.21875,227550.515625,246752.1875,246425.671875,230963.265625,109612.0,1.0,2
240974.078125,255971.75,277617.8125,265716.125,227590.21875,246806.09375,246454.90625,230998.046875,109613.0,1.0,2
241304.34375,256222.34375,277836.75,265908.0625,227909.84375,246900.328125,246922.5,231054.109375,109614.0,1.0,2
241435.421875,256348.234375,277963.4375,265956.09375,228085.890625,246913.921875,247206.546875,231067.78125,109615.0,1.0,2
241157.8125,256151.984375,277800.09375,265774.59375,227849.84375,246814.328125,246877.359375,231004.75,109616.0,1.0,2
240881.984375,255925.078125,277591.4375,265629.03125,227549.984375,246741.1875,246415.203125,230964.875,109617.0,1.0,2
240964.953125,255968.4375,277610.8125,265712.28125,227590.21875,246794.65625,246437.921875,230994.828125,109618.0,1.0,2
241306.578125,256230.84375,277838.09375,265911.84375,227919.671875,246903.546875,246914.28125,231053.84375,109619.0,1.0,2
241440.609375,256355.5625,277963.28125,265958.78125,228096.34375,246925.90625,247204.140625,231063.40625,109620.0,1.0,2
241168.625,256160.21875,277802.15625,265781.65625,227863.265625,246831.75,246883.96875,231009.84375,109621.0,1.0,2
240887.0,255925.96875,277585.0625,265626.90625,227547.828125,246747.796875,246413.953125,230964.078125,109622.0,1.0,2
240966.5625,255964.5,277604.65625,265705.75,227578.046875,246795.71875,246429.421875,230993.578125,109623.0,1.0,2
241309.09375,256227.53125,277835.40625,265905.84375,227904.296875,246906.328125,246909.09375,231053.921875,109624.0,1.0,2
241445.25,256353.78125,277968.375,265956.71875,228085.53125,246930.28125,247208.0625,231065.8125,109625.0,1.0,2
241175.421875,256162.0,277812.875,265781.75,227856.109375,246834.625,246892.828125,231015.484375,109626.0,1.0,2
240896.828125,255929.0,277600.71875,265632.34375,227550.609375,246756.921875,246429.421875,230971.5,109627.0,1.0,2
240970.859375,255961.28125,277616.46875,265706.65625,227577.78125,246806.28125,246439.796875,230993.484375,109628.0,1.0,2
241308.46875,256219.21875,277840.96875,265902.09375,227900.984375,246909.625,246913.03125,231051.609375,109629.0,1.0,2
241452.046875,256353.953125,277976.0625,265960.75,228090.71875,246937.53125,247218.171875,231068.40625,109630.0,1.0,2
241184.546875,256163.78125,277820.3125,265785.0625,227864.0625,246840.609375,246907.125,231011.09375,109631.0,1.0,2
240904.96875,255933.125,277605.1875,265631.90625,227556.953125,246759.421875,246443.46875,230963.171875,109632.0,1.0,2
240978.109375,255967.8125,277612.875,265704.3125,227579.296875,246800.28125,246441.765625,230989.015625,109633.0,1.0,2
241305.78125,256220.5625,277832.90625,265900.03125,227901.796875,246900.78125,246906.046875,231050.265625,109634.0,1.0,2
241444.09375,256349.9375,277962.90625,265954.21875,228090.890625,246918.75,247208.15625,231065.28125,109635.0,1.0,2
241180.515625,256161.90625,277805.1875,265779.25,227867.90625,246816.734375,246897.375,231007.34375,109636.0,1.0,2
240897.640625,255926.40625,277588.46875,265629.5,227561.25,246734.84375,246426.46875,230962.46875,109637.0,1.0,2
240968.359375,255964.765625,277601.0,265706.46875,227587.796875,246784.546875,246427.09375,230990.09375,109638.0,1.0,2
241297.734375,256217.609375,277817.0,265898.25,227906.359375,246886.03125,246890.40625,231048.921875,109639.0,1.0,2
241435.421875,256345.546875,277942.71875,265948.65625,228086.6875,246901.671875,247187.328125,231060.1875,109640.0,1.0,2
241176.765625,256166.296875,277793.9375,265778.25,227866.484375,246807.890625,246886.5625,231007.796875,109641.0,1.0,2
240900.234375,255941.171875,277584.625,265629.9375,227562.859375,246734.296875,246425.84375,230968.71875,109642.0,1.0,2
240963.265625,255968.609375,277593.3125,265701.8125,227579.84375,246784.8125,246423.078125,230997.515625,109643.0,1.0,2
241286.640625,256218.140625,277813.6875,265895.375,227894.28125,246892.546875,246887.8125,231056.15625,109644.0,1.0,2
241431.75,256356.015625,277951.28125,265954.84375,228082.484375,246923.21875,247201.640625,231071.453125,109645.0,1.0,2
241172.03125,256165.578125,277800.8125,265782.09375,227860.9375,246829.25,246901.671875,231013.78125,109646.0,1.0,2
240899.609375,255936.515625,277595.09375,265632.71875,227558.921875,246754.59375,246441.578125,230970.0625,109647.0,1.0,2
240965.046875,255967.984375,277606.8125,265700.84375,227577.25,246802.875,246434.34375,230996.625,109648.0,1.0,2
241285.578125,256216.890625,277831.21875,265898.5,227901.890625,246919.375,246904.171875,231062.953125,109649.0,1.0,2
241419.953125,256340.546875,277962.65625,265954.65625,228091.15625,246945.578125,247212.890625,231072.078125,109650.0,1.0,2
241165.234375,256158.515625,277813.78125,265783.25,227870.859375,246841.046875,246913.921875,231004.21875,109651.0,1.0,2
240902.734375,255940.71875,277611.71875,265640.03125,227569.5625,246764.25,246457.3125,230967.828125,109652.0,1.0,2
240957.53125,255961.453125,277613.0625,265701.625,227576.71875,246805.65625,246441.140625,230993.125,109653.0,1.0,2
241274.125,256204.640625,277828.25,265893.0625,227891.515625,246910.4375,246899.078125,231052.046875,109654.0,1.0,2
241418.4375,256335.265625,277962.46875,265950.1875,228083.375,246928.9375,247208.15625,231064.296875,109655.0,1.0,2
241172.203125,256160.296875,277815.3125,265781.75,227869.875,246830.421875,246920.890625,231011.28125,109656.0,1.0,2
240908.8125,255945.09375,277608.15625,265635.21875,227567.765625,246755.046875,246469.84375,230974.4375,109657.0,1.0,2
240963.0,255968.609375,277608.15625,265697.875,227573.84375,246796.0,246449.984375,230997.328125,109658.0,1.0,2
241273.0625,256209.390625,277817.8125,265887.6875,227880.34375,246894.078125,246895.234375,231052.40625,109659.0,1.0,2
241419.765625,256345.28125,277949.78125,265946.0625,228068.984375,246915.625,247205.65625,231062.78125,109660.0,1.0,2
241180.609375,256173.359375,277804.40625,265780.6875,227861.03125,246821.296875,246921.4375,231010.03125,109661.0,1.0,2
240910.953125,255943.3125,277593.40625,265631.09375,227558.65625,246740.375,246459.28125,230968.453125,109662.0,1.0,2
240960.046875,255958.15625,277587.03125,265689.375,227563.390625,246779.0,246427.8125,230989.734375,109663.0,1.0,2
241278.78125,256207.859375,277802.34375,265885.46875,227882.390625,246890.140625,246880.578125,231053.84375,109664.0,1.0,2
241422.015625,256342.6875,277935.09375,265948.21875,228082.75,246919.734375,247198.328125,231069.9375,109665.0,1.0,2
241181.5,256168.078125,277794.03125,265786.84375,227885.34375,246831.75,246924.65625,231019.140625,109666.0,1.0,2
240920.171875,255946.984375,277588.21875,265639.78125,227589.5,246755.671875,246470.375,230975.15625,109667.0,1.0,2
240968.265625,255959.046875,277585.0,265696.90625,227592.796875,246799.84375,246436.21875,230997.78125,109668.0,1.0,2
241271.09375,256190.796875,277792.15625,265882.875,227900.71875,246909.09375,246879.328125,231058.046875,109669.0,1.0,2
241418.34375,256324.1875,277927.5,265945.53125,228097.234375,246941.546875,247197.703125,231072.96875,109670.0,1.0,2
241183.203125,256151.359375,277789.8125,265786.03125,227892.234375,246844.8125,246919.109375,231014.859375,109671.0,1.0,2
240923.75,255932.21875,277590.625,265642.28125,227591.109375,246765.78125,246466.0,230974.09375,109672.0,1.0,2
240958.4375,255936.515625,277580.34375,265691.96875,227578.140625,246798.40625,246420.65625,230991.703125,109673.0,1.0,2
241258.03125,256171.484375,277788.9375,265878.125,227879.890625,246898.359375,246858.84375,231048.5625,109674.0,1.0,2
241414.140625,256314.703125,277932.5,265945.625,228079.265625,246928.671875,247184.015625,231066.171875,109675.0,1.0,2
241189.453125,256154.140625,277803.84375,265789.34375,227883.5625,246842.65625,246922.765625,231016.5625,109676.0,1.0,2
240927.59375,255937.234375,277604.125,265643.15625,227583.78125,246768.453125,246473.859375,230973.734375,109677.0,1.0,2
240961.921875,255945.09375,277593.84375,265693.0625,227571.078125,246805.46875,246430.046875,230992.234375,109678.0,1.0,2
241266.171875,256186.140625,277806.1875,265881.6875,227874.609375,246914.453125,246872.171875,231057.765625,109679.0,1.0,2
241416.90625,256327.40625,277949.6875,265952.4375,228079.09375,246952.015625,247203.59375,231080.921875,109680.0,1.0,2
241189.734375,256163.875,277817.8125,265795.78125,227886.328125,246865.28125,246947.359375,231023.0,109681.0,1.0,2
240943.859375,255961.8125,277627.28125,265659.71875,227600.671875,246801.171875,246513.109375,230982.9375,109682.0,1.0,2
240987.671875,255978.71875,277621.71875,265712.1875,227594.234375,246838.90625,246469.921875,231002.421875,109683.0,1.0,2
241282.4375,256208.3125,277822.71875,265893.25,227891.609375,246931.359375,246893.71875,231053.921875,109684.0,1.0,2
241426.390625,256338.765625,277958.875,265957.59375,228092.859375,246958.53125,247213.96875,231073.953125,109685.0,1.0,2
241205.828125,256179.171875,277826.21875,265799.34375,227902.6875,246869.484375,246960.59375,231026.84375,109686.0,1.0,2
240944.84375,255958.6875,277617.4375,265648.15625,227600.9375,246786.15625,246507.65625,230984.1875,109687.0,1.0,2
240973.1875,255957.265625,277597.9375,265694.03125,227585.5625,246817.71875,246450.609375,231004.84375,109688.0,1.0,2
241263.046875,256184.4375,277793.9375,265874.28125,227880.875,246917.5,246871.546875,231061.703125,109689.0,1.0,2
241405.015625,256314.96875,277923.5625,265937.3125,228075.0625,246936.1875,247180.890625,231071.265625,109690.0,1.0,2
241184.0,256153.6875,277789.375,265783.96875,227885.078125,246839.890625,246922.5,231018.34375,109691.0,1.0,2
240932.328125,255940.09375,277587.40625,265640.5625,227590.484375,246762.640625,246471.890625,230981.234375,109692.0,1.0,2
240963.34375,255942.0625,277569.53125,265687.25,227574.03125,246796.34375,246406.453125,231000.546875,109693.0,1.0,2
241251.953125,256168.96875,277765.15625,265866.0625,227867.46875,246897.109375,246823.796875,231053.03125,109694.0,1.0,2
241401.625,256308.1875,277902.28125,265934.1875,228069.25,246926.96875,247146.203125,231071.09375,109695.0,1.0,2
241192.859375,256161.828125,277785.875,265794.0,227897.234375,246853.03125,246914.09375,231027.90625,109696.0,1.0,2
240945.5625,255954.578125,277592.125,265652.65625,227606.125,246785.0,246475.734375,230987.046875,109697.0,1.0,2
240965.578125,255949.921875,277569.0625,265692.78125,227575.375,246814.046875,246402.515625,231000.8125,109698.0,1.0,2
241252.40625,256177.46875,277767.71875,265873.65625,227865.578125,246919.203125,246821.828125,231058.9375,109699.0,1.0,2
241409.9375,256325.96875,277915.6875,265947.9375,228076.234375,246957.640625,247159.875,231080.484375,109700.0,1.0,2
241195.890625,256174.25,277791.59375,265799.0,227893.84375,246871.984375,246924.828125,231033.09375,109701.0,1.0,2
240944.03125,255964.046875,277598.9375,265655.3125,227599.515625,246796.171875,246484.859375,230989.46875,109702.0,1.0,2
240960.84375,255955.296875,277578.28125,265693.3125,227568.84375,246821.65625,246410.921875,231001.890625,109703.0,1.0,2
241234.25,256168.078125,277767.65625,265865.15625,227851.09375,246915.0,246822.09375,231053.484375,109704.0,1.0,2
241396.53125,256319.265625,277918.65625,265941.78125,228065.671875,246952.015625,247161.21875,231074.40625,109705.0,1.0,2
241198.84375,256182.828125,277806.71875,265798.71875,227893.390625,246868.140625,246936.359375,231028.171875,109706.0,1.0,2
240944.671875,255967.453125,277610.5625,265650.5,227594.765625,246786.15625,246496.03125,230982.484375,109707.0,1.0,2
240961.921875,255959.5,277590.25,265687.6875,227562.5,246813.15625,246420.484375,230998.046875,109708.0,1.0,2
241235.5,256173.71875,277782.125,265861.125,227844.84375,246907.84375,246827.109375,231052.3125,109709.0,1.0,2
241390.171875,256314.890625,277926.53125,265933.75,228053.34375,246939.9375,247161.75,231071.1875,109710.0,1.0,2
241181.234375,256166.46875,277807.4375,265786.40625,227875.6875,246849.90625,246932.96875,231019.59375,109711.0,1.0,2
240930.71875,255953.5,277610.5625,265640.40625,227577.515625,246772.921875,246492.640625,230978.734375,109712.0,1.0,2
240955.21875,255952.078125,277587.59375,265680.09375,227547.03125,246809.40625,246418.609375,231001.09375,109713.0,1.0,2
241226.921875,256163.4375,277767.90625,265851.9375,227824.015625,246902.203125,246812.984375,231050.4375,109714.0,1.0,2
241382.9375,256305.046875,277906.125,265923.90625,228036.171875,246935.640625,247141.734375,231060.09375,109715.0,1.0,2
241184.8125,256162.09375,277791.15625,265782.90625,227873.71875,246857.421875,246917.765625,231015.65625,109716.0,1.0,2
240935.1875,255948.59375,277592.6875,265637.625,227584.21875,246782.9375,246473.859375,230974.4375,109717.0,1.0,2
240953.96875,255939.828125,277564.59375,265674.46875,227554.53125,246813.875,246386.953125,230990.8125,109718.0,1.0,2
241226.921875,256150.640625,277744.21875,265846.03125,227837.25,246912.21875,246780.890625,231042.390625,109719.0,1.0,2
241388.125,256296.828125,277884.78125,265917.65625,228052.359375,246947.453125,247110.96875,231058.9375,109720.0,1.0,2
241195.359375,256158.6875,277776.59375,265779.78125,227896.703125,246870.828125,246896.578125,231016.828125,109721.0,1.0,2
240945.921875,255942.0625,277581.21875,265636.28125,227604.96875,246793.046875,246455.265625,230975.703125,109722.0,1.0,2
240956.375,255925.96875,277551.90625,265670.875,227566.34375,246820.140625,246364.421875,230993.40625,109723.0,1.0,2
241220.03125,256131.421875,277732.15625,265837.28125,227838.765625,246911.5,246757.8125,231044.984375,109724.0,1.0,2
241385.703125,256282.25,277881.46875,265919.0,228053.875,246944.3125,247101.5,231066.890625,109725.0,1.0,2
241192.40625,256145.8125,277774.8125,265783.25,227888.46875,246861.34375,246893.625,231023.53125,109726.0,1.0,2
240939.84375,255935.4375,277579.25,265637.0,227587.625,246777.484375,246457.3125,230982.046875,109727.0,1.0,2
240945.203125,255926.6875,277548.59375,265666.6875,227537.46875,246795.015625,246363.0,230995.015625,109728.0,1.0,2
241209.046875,256143.40625,277733.40625,265837.34375,227805.328125,246889.875,246759.0625,231050.078125,109729.0,1.0,2
241365.234375,256297.453125,277881.46875,265914.875,228013.640625,246926.078125,247101.046875,231074.40625,109730.0,1.0,2
241174.96875,256173.625,277779.8125,265784.96875,227857.265625,246849.375,246901.9375,231034.34375,109731.0,1.0,2
240928.65625,255975.859375,277588.90625,265643.875,227565.453125,246770.25,246468.140625,230993.75,109732.0,1.0,2
240926.328125,255962.625,277556.65625,265672.03125,227517.703125,246793.125,246369.4375,231007.171875,109733.0,1.0,2
241175.25,256167.1875,277727.21875,265831.28125,227783.421875,246880.390625,246746.90625,231054.375,109734.0,1.0,2
241318.109375,256308.265625,277862.15625,265899.21875,227994.234375,246911.0625,247071.015625,231071.71875,109735.0,1.0,2
241133.046875,256180.328125,277759.15625,265769.40625,227847.4375,246834.171875,246868.234375,231035.328125,109736.0,1.0,2
240901.84375,255978.359375,277570.21875,265633.59375,227565.0,246754.859375,246441.578125,230996.265625,109737.0,1.0,2
240914.359375,255964.859375,277540.8125,265666.84375,227527.453125,246781.859375,246352.71875,231004.75,109738.0,1.0,2
241163.078125,256158.953125,277712.03125,265828.59375,227793.171875,246876.1875,246729.390625,231051.15625,109739.0,1.0,2
241306.578125,256289.3125,277849.90625,265900.21875,228000.140625,246914.015625,247055.453125,231070.5625,109740.0,1.0,2
241127.140625,256159.5,277752.28125,265776.75,227853.515625,246847.671875,246864.5625,231035.328125,109741.0,1.0,2
240901.5625,255955.46875,277567.1875,265640.9375,227570.625,246776.953125,246448.640625,230998.40625,109742.0,1.0,2
240905.6875,255926.953125,277529.03125,265663.375,227518.78125,246793.484375,246346.09375,231004.484375,109743.0,1.0,2
241157.359375,256119.078125,277705.6875,265831.375,227788.875,246895.234375,246725.71875,231058.21875,109744.0,1.0,2
241305.59375,256249.53125,277842.84375,265905.46875,227999.0625,246935.921875,247053.484375,231081.640625,109745.0,1.0,2
241131.4375,256118.109375,277745.5625,265779.34375,227857.625,246872.171875,246870.015625,231047.21875,109746.0,1.0,2
240923.828125,255931.421875,277575.5,265652.65625,227592.796875,246818.796875,246478.953125,231021.46875,109747.0,1.0,2
240935.90625,255916.84375,277547.0625,265676.25,227546.3125,246828.359375,246372.921875,231021.828125,109748.0,1.0,2
241163.984375,256095.21875,277708.46875,265822.4375,227794.59375,246904.625,246723.21875,231062.59375,109749.0,1.0,2
241292.09375,256214.484375,277835.25,265882.59375,227990.125,246931.890625,247034.984375,231076.28125,109750.0,1.0,2
241119.453125,256088.953125,277739.03125,265755.8125,227846.8125,246853.84375,246849.1875,231033.71875,109751.0,1.0,2
240911.046875,255903.703125,277563.34375,265626.09375,227577.25,246776.765625,246449.8125,230993.484375,109752.0,1.0,2
240929.546875,255901.375,277539.84375,265657.75,227539.875,246804.84375,246367.109375,231004.21875,109753.0,1.0,2
241157.09375,256092.890625,277702.1875,265807.6875,227791.28125,246891.65625,246726.53125,231045.703125,109754.0,1.0,2
241287.359375,256227.796875,277832.5625,265876.875,227987.625,246921.875,247042.3125,231072.25,109755.0,1.0,2
241110.15625,256108.796875,277733.65625,265755.0,227838.859375,246841.328125,246854.5625,231036.046875,109756.0,1.0,2
240904.78125,255934.375,277566.46875,265632.71875,227569.640625,246769.171875,246456.34375,230996.890625,109757.0,1.0,2
240898.53125,255909.96875,277527.125,265653.28125,227511.171875,246776.140625,246346.984375,230997.953125,109758.0,1.0,2
241109.796875,256086.0,277679.40625,265799.8125,227752.84375,246856.4375,246687.1875,231040.6875,109759.0,1.0,2
241238.90625,256217.25,277807.25,265868.125,227955.703125,246890.9375,246996.53125,231063.84375,109760.0,1.0,2
241065.71875,256089.671875,277707.375,265743.03125,227817.390625,246816.109375,246811.1875,231021.203125,109761.0,1.0,2
240863.65625,255905.140625,277534.28125,265616.4375,227549.625,246747.796875,246414.84375,230977.84375,109762.0,1.0,2
240874.75,255890.65625,277505.3125,265647.28125,227506.609375,246783.75,246320.171875,230996.890625,109763.0,1.0,2
241084.40625,256059.890625,277653.21875,265788.625,227745.0625,246872.25,246656.078125,231042.75,109764.0,1.0,2
241212.078125,256179.875,277777.65625,265852.65625,227943.015625,246911.953125,246961.03125,231059.296875,109765.0,1.0,2
241055.96875,256060.609375,277687.0,265734.1875,227808.453125,246849.015625,246783.75,231018.171875,109766.0,1.0,2
240863.03125,255876.171875,277518.03125,265610.09375,227543.0,246786.609375,246390.078125,230981.5,109767.0,1.0,2
240867.953125,255850.5,277484.40625,265633.59375,227487.390625,246813.515625,246281.546875,230996.703125,109768.0,1.0,2
241082.984375,256022.078125,277637.8125,265779.96875,227723.703125,246900.421875,246610.296875,231042.125,109769.0,1.0,2
241211.8125,256144.65625,277764.875,265847.09375,227926.203125,246935.46875,246915.265625,231055.625,109770.0,1.0,2
241054.09375,256029.671875,277676.71875,265733.5625,227802.109375,246868.0625,246747.71875,231015.484375,109771.0,1.0,2
240863.390625,255857.65625,277510.40625,265610.875,227540.234375,246796.890625,246353.421875,230982.140625,109772.0,1.0,2
240870.71875,255844.15625,277476.71875,265633.5,227484.53125,246813.703125,246237.828125,230994.921875,109773.0,1.0,2
241076.1875,256016.984375,277624.875,265773.4375,227721.015625,246894.34375,246562.734375,231037.390625,109774.0,1.0,2
241207.515625,256153.0625,277752.34375,265840.125,227926.5625,246929.65625,246873.515625,231055.625,109775.0,1.0,2
241049.1875,256046.671875,277663.65625,265722.5625,227796.921875,246855.8125,246708.46875,231014.953125,109776.0,1.0,2
240854.359375,255879.5625,277497.90625,265597.65625,227528.78125,246777.84375,246319.640625,230979.09375,109777.0,1.0,2
240852.21875,255863.46875,277458.75,265619.03125,227462.265625,246795.375,246207.609375,230990.1875,109778.0,1.0,2
241058.125,256042.28125,277605.8125,265762.78125,227695.71875,246884.0625,246541.546875,231035.234375,109779.0,1.0,2
241190.171875,256177.5625,277735.71875,265832.34375,227897.40625,246919.203125,246860.09375,231053.84375,109780.0,1.0,2
241028.890625,256061.328125,277648.90625,265717.375,227764.828125,246846.0625,246703.09375,231014.859375,109781.0,1.0,2
240834.78125,255888.234375,277487.53125,265596.21875,227496.0625,246776.40625,246320.53125,230977.390625,109782.0,1.0,2
240829.6875,255863.921875,277445.0625,265610.34375,227422.578125,246791.171875,246197.859375,230979.890625,109783.0,1.0,2
241033.09375,256025.921875,277588.375,265748.75,227653.515625,246873.953125,246519.453125,231016.734375,109784.0,1.0,2
241171.125,256150.734375,277720.34375,265819.28125,227863.890625,246915.171875,246837.75,231034.078125,109785.0,1.0,2
241025.84375,256039.953125,277642.375,265716.5625,227754.90625,246854.734375,246696.296875,231004.3125,109786.0,1.0,2
240833.4375,255860.96875,277477.96875,265596.5,227501.609375,246785.71875,246315.15625,230972.75,109787.0,1.0,2
240831.203125,255829.5,277437.65625,265612.78125,227440.640625,246801.8125,246191.609375,230978.109375,109788.0,1.0,2
241039.609375,255997.40625,277584.4375,265753.3125,227676.84375,246887.640625,246512.3125,231020.3125,109789.0,1.0,2
241183.5625,256131.25,277716.0625,265828.25,227892.671875,246924.734375,246831.3125,231038.734375,109790.0,1.0,2
241044.984375,256034.5,277642.03125,265725.40625,227788.6875,246865.734375,246694.703125,231008.515625,109791.0,1.0,2
240852.578125,255866.6875,277482.25,265606.34375,227532.640625,246798.234375,246320.53125,230973.8125,109792.0,1.0,2
240846.671875,255844.875,277441.65625,265621.875,227458.6875,246808.59375,246194.90625,230979.546875,109793.0,1.0,2
241053.65625,256020.109375,277587.75,265763.40625,227684.984375,246891.75,246519.453125,231021.921875,109794.0,1.0,2
241204.21875,256173.890625,277729.375,265842.28125,227899.5625,246931.0,246852.859375,231043.5625,109795.0,1.0,2
241068.3125,256088.78125,277660.4375,265737.5,227793.4375,246865.46875,246726.703125,231011.90625,109796.0,1.0,2
240870.90625,255923.375,277498.96875,265610.34375,227534.421875,246788.84375,246355.84375,230975.34375,109797.0,1.0,2
240856.515625,255899.140625,277454.09375,265622.875,227458.34375,246793.578125,246232.28125,230985.890625,109798.0,1.0,2
241061.421875,256072.59375,277598.75,265766.0,227684.625,246874.140625,246554.953125,231032.203125,109799.0,1.0,2
241217.171875,256222.796875,277743.6875,265848.4375,227904.390625,246917.3125,246890.59375,231053.65625,109800.0,1.0,2
241080.828125,256130.34375,277671.96875,265742.9375,227794.234375,246844.546875,246756.75,231012.984375,109801.0,1.0,2
240881.984375,255952.34375,277509.53125,265616.34375,227533.265625,246768.28125,246377.390625,230978.5625,109802.0,1.0,2
240864.109375,255913.984375,277458.84375,265622.0625,227454.84375,246774.53125,246241.21875,230983.5625,109803.0,1.0,2
241072.25,256080.734375,277603.5,265762.6875,227685.609375,246859.734375,246557.09375,231021.921875,109804.0,1.0,2
241235.59375,256230.484375,277750.84375,265849.25,227913.6875,246908.015625,246893.625,231045.34375,109805.0,1.0,2
241098.796875,256130.53125,277680.28125,265746.0625,227814.625,246848.828125,246768.453125,231013.25,109806.0,1.0,2
240895.125,255943.9375,277513.375,265617.3125,227555.796875,246777.671875,246388.65625,230980.25,109807.0,1.0,2
240884.40625,255907.375,277465.90625,265628.40625,227479.078125,246791.34375,246249.1875,230991.25,109808.0,1.0,2
241094.0625,256072.59375,277607.15625,265766.90625,227706.53125,246875.03125,246563.0,231031.3125,109809.0,1.0,2
241257.859375,256217.96875,277753.875,265851.3125,227936.65625,246921.34375,246905.515625,231051.875,109810.0,1.0,2
241138.40625,256137.40625,277699.25,265758.9375,227853.875,246870.296875,246802.78125,231025.046875,109811.0,1.0,2
240924.1875,255945.1875,277525.34375,265622.40625,227582.078125,246787.5,246413.15625,230985.53125,109812.0,1.0,2
240897.453125,255902.71875,277470.1875,265626.34375,227492.21875,246794.03125,246265.546875,230993.3125,109813.0,1.0,2
241112.125,256081.09375,277620.40625,265774.15625,227721.109375,246884.328125,246589.28125,231038.109375,109814.0,1.0,2
241284.953125,256245.953125,277773.0,265863.65625,227953.46875,246937.875,246941.640625,231060.359375,109815.0,1.0,2
241155.484375,256165.578125,277710.4375,265765.46875,227860.84375,246877.0,246834.96875,231028.890625,109816.0,1.0,2
240936.53125,255978.8125,277534.75,265629.84375,227587.796875,246789.734375,246446.5,230988.296875,109817.0,1.0,2
240904.78125,255939.828125,277476.34375,265631.28125,227497.140625,246795.453125,246291.734375,230992.0625,109818.0,1.0,2
241115.796875,256116.9375,277617.96875,265775.75,227726.109375,246882.984375,246608.0625,231038.1875,109819.0,1.0,2
241299.96875,256292.890625,277776.5,265873.125,227970.1875,246940.203125,246977.046875,231064.5625,109820.0,1.0,2
241174.53125,256211.625,277719.53125,265774.25,227883.90625,246879.671875,246871.71875,231023.53125,109821.0,1.0,2
240950.203125,256012.515625,277544.40625,265632.53125,227608.359375,246790.0,246471.796875,230978.28125,109822.0,1.0,2
240922.84375,255965.84375,277485.375,265635.9375,227516.984375,246798.234375,246311.765625,230986.875,109823.0,1.0,2
241143.953125,256139.921875,277633.1875,265784.0625,227747.203125,246887.90625,246628.171875,231032.109375,109824.0,1.0,2
241330.28125,256304.34375,277795.4375,265881.15625,227988.609375,246939.9375,246993.578125,231059.921875,109825.0,1.0,2
241205.109375,256212.609375,277737.6875,265780.03125,227901.4375,246879.140625,246896.390625,231025.40625,109826.0,1.0,2
240980.875,256015.546875,277564.25,265639.40625,227629.109375,246797.953125,246504.703125,230981.859375,109827.0,1.0,2
240938.046875,255952.875,277500.0625,265633.78125,227523.421875,246794.390625,246330.8125,230981.234375,109828.0,1.0,2
241148.421875,256106.125,277641.21875,265778.09375,227742.828125,246878.875,246641.5,231028.0,109829.0,1.0,2
241339.3125,256268.3125,277801.0,265878.5625,227981.1875,246936.09375,247008.953125,231060.28125,109830.0,1.0,2
241226.125,256197.140625,277754.9375,265792.5625,227906.71875,246887.453125,246924.375,231034.25,109831.0,1.0,2
240992.765625,256000.890625,277580.59375,265649.5,227633.390625,246805.375,246531.171875,230989.109375,109832.0,1.0,2
240946.1875,255940.546875,277513.625,265642.375,227528.15625,246807.4375,246355.21875,230992.765625,109833.0,1.0,2
241167.109375,256112.46875,277663.3125,265793.90625,227758.5625,246903.453125,246670.109375,231041.40625,109834.0,1.0,2
241352.625,256278.859375,277823.78125,265892.78125,228003.09375,246961.125,247037.65625,231065.453125,109835.0,1.0,2
241232.375,256204.109375,277767.71875,265796.3125,227922.453125,246900.78125,246945.03125,231032.65625,109836.0,1.0,2
240998.75,256005.8125,277588.03125,265649.4375,227647.609375,246814.40625,246547.4375,230989.546875,109837.0,1.0,2
240953.875,255950.734375,277524.46875,265644.78125,227546.9375,246818.703125,246371.21875,230999.5625,109838.0,1.0,2
241172.203125,256124.890625,277672.875,265797.21875,227774.84375,246905.34375,246680.5625,231043.109375,109839.0,1.0,2
241369.171875,256301.125,277841.84375,265902.34375,228026.609375,246962.921875,247056.171875,231069.3125,109840.0,1.0,2
241258.75,256233.609375,277797.3125,265811.96875,227956.78125,246910.875,246981.515625,231045.703125,109841.0,1.0,2
241021.90625,256031.734375,277620.84375,265665.59375,227678.90625,246824.875,246587.3125,231004.75,109842.0,1.0,2
240955.921875,255959.046875,277543.5,265650.84375,227557.40625,246819.328125,246396.34375,231006.984375,109843.0,1.0,2
241171.40625,256133.390625,277692.375,265805.25,227779.671875,246917.671875,246710.34375,231062.953125,109844.0,1.0,2
241368.359375,256308.0,277859.09375,265909.96875,228026.875,246974.625,247094.875,231085.40625,109845.0,1.0,2
241249.359375,256229.234375,277808.59375,265816.875,227952.9375,246914.71875,247021.75,231044.890625,109846.0,1.0,2
241010.28125,256028.0625,277628.875,265667.5625,227672.5625,246828.0,246617.265625,230998.234375,109847.0,1.0,2
240955.578125,255963.15625,277557.1875,265655.9375,227557.40625,246828.890625,246426.203125,231003.6875,109848.0,1.0,2
241168.625,256125.875,277694.15625,265803.46875,227773.765625,246915.796875,246725.8125,231049.8125,109849.0,1.0,2
241370.6875,256302.90625,277859.71875,265909.59375,228024.640625,246974.359375,247102.921875,231076.28125,109850.0,1.0,2
241263.671875,256241.21875,277819.3125,265821.625,227965.453125,246923.390625,247035.421875,231051.6875,109851.0,1.0,2
241026.296875,256036.65625,277640.0625,265675.96875,227693.390625,246841.046875,246637.296875,231010.828125,109852.0,1.0,2
240962.359375,255960.390625,277558.96875,265658.8125,227572.78125,246837.203125,246434.96875,231010.125,109853.0,1.0,2
241177.5625,256127.125,277701.03125,265807.9375,227797.1875,246932.609375,246737.875,231057.953125,109854.0,1.0,2
241385.078125,256302.453125,277868.84375,265913.875,228052.265625,246995.546875,247118.75,231083.609375,109855.0,1.0,2
241275.734375,256229.859375,277822.4375,265821.34375,227983.515625,246932.78125,247041.140625,231048.46875,109856.0,1.0,2
241039.875,256027.265625,277643.625,265672.65625,227707.78125,246847.671875,246643.734375,231007.875,109857.0,1.0,2
240968.09375,255942.15625,277555.75,265647.625,227579.296875,246839.171875,246433.625,231005.828125,109858.0,1.0,2
241182.578125,256104.515625,277691.90625,265792.90625,227789.59375,246923.578125,246724.5625,231047.84375,109859.0,1.0,2
241394.46875,256290.125,277864.46875,265907.375,228043.0625,246985.796875,247110.96875,231079.3125,109860.0,1.0,2
241288.796875,256227.453125,277824.25,265820.1875,227978.234375,246933.6875,247047.578125,231051.515625,109861.0,1.0,2
241042.65625,256018.328125,277642.21875,265669.375,227695.171875,246844.265625,246644.984375,231006.546875,109862.0,1.0,2
240963.703125,255928.015625,277550.9375,265645.5,227558.734375,246834.796875,246425.484375,231002.703125,109863.0,1.0,2
241174.96875,256090.03125,277682.875,265791.03125,227766.34375,246921.796875,246712.390625,231045.796875,109864.0,1.0,2
241385.796875,256271.4375,277849.8125,265902.09375,228020.265625,246980.078125,247094.34375,231075.390625,109865.0,1.0,2
241286.734375,256214.125,277812.09375,265819.65625,227966.703125,246929.03125,247038.46875,231047.125,109866.0,1.0,2
241047.03125,256018.5,277633.71875,265672.21875,227696.6875,246847.21875,246642.484375,231007.796875,109867.0,1.0,2
240971.84375,255937.5,277545.03125,265648.34375,227568.484375,246840.703125,246424.859375,231004.9375,109868.0,1.0,2
241184.546875,256100.40625,277679.125,265795.5,227782.53125,246925.546875,246707.296875,231046.234375,109869.0,1.0,2
241395.359375,256280.546875,277849.0,265907.53125,228043.765625,246980.4375,247092.5625,231075.46875,109870.0,1.0,2
241292.71875,256216.359375,277810.125,265823.3125,227992.1875,246925.1875,247041.234375,231047.578125,109871.0,1.0,2
241045.15625,256003.84375,277626.03125,265670.0,227709.75,246833.359375,246639.359375,231002.515625,109872.0,1.0,2
240970.0625,255917.65625,277538.84375,265643.875,227571.4375,246823.0,246420.21875,230997.78125,109873.0,1.0,2
241185.796875,256085.109375,277679.125,265794.8125,227783.6875,246913.75,246709.453125,231045.4375,109874.0,1.0,2
241402.15625,256274.203125,277857.15625,265913.25,228045.46875,246976.78125,247103.640625,231079.3125,109875.0,1.0,2
241304.4375,256217.703125,277824.96875,265832.25,227994.59375,246926.53125,247059.296875,231053.125,109876.0,1.0,2
241053.5625,256008.125,277641.125,265680.34375,227710.734375,246839.71875,246662.234375,231010.390625,109877.0,1.0,2
240970.6875,255918.1875,277546.625,265654.15625,227568.125,246832.5625,246439.53125,231007.875,109878.0,1.0,2
241184.546875,256082.515625,277681.8125,265797.65625,227772.15625,246916.25,246719.1875,231054.734375,109879.0,1.0,2
241407.875,256278.859375,277861.4375,265915.5,228035.1875,246978.390625,247112.9375,231089.515625,109880.0,1.0,2
241309.09375,256226.90625,277830.84375,265833.15625,227984.5,246926.96875,247071.1875,231052.046875,109881.0,1.0,2
241063.484375,256029.953125,277654.625,265685.1875,227709.125,246847.21875,246679.9375,231004.65625,109882.0,1.0,2
240989.28125,255958.953125,277567.46875,265661.03125,227576.359375,246847.671875,246456.0625,231004.484375,109883.0,1.0,2
241201.984375,256123.828125,277704.4375,265809.375,227787.0,246938.0625,246733.9375,231055.625,109884.0,1.0,2
241425.234375,256317.390625,277885.03125,265929.0,228055.03125,247002.4375,247129.65625,231090.3125,109885.0,1.0,2
241327.5,256262.21875,277842.375,265839.6875,228004.515625,246939.21875,247081.109375,231054.28125,109886.0,1.0,2
241072.875,256056.40625,277654.71875,265683.21875,227726.375,246847.9375,246681.375,231012.265625,109887.0,1.0,2
240974.34375,255958.234375,277551.5625,265645.40625,227578.671875,246828.453125,246444.0,231004.03125,109888.0,1.0,2
241182.3125,256118.28125,277681.625,265787.375,227782.25,246906.5,246714.640625,231044.453125,109889.0,1.0,2
241411.8125,256317.21875,277862.40625,265908.6875,228049.046875,246967.46875,247112.9375,231076.28125,109890.0,1.0,2
241315.25,256261.515625,277829.6875,265829.03125,228002.375,246911.421875,247077.359375,231048.390625,109891.0,1.0,2
241059.90625,256052.65625,277645.875,265672.9375,227719.9375,246821.46875,246679.234375,231006.8125,109892.0,1.0,2
240968.984375,255958.15625,277542.875,265635.75,227560.703125,246803.328125,246436.484375,230999.125,109893.0,1.0,2
241179.984375,256123.828125,277673.0625,265782.28125,227754.265625,246886.921875,246705.421875,231038.546875,109894.0,1.0,2
241403.234375,256319.453125,277853.28125,265904.5,228017.9375,246949.6875,247104.8125,231066.890625,109895.0,1.0,2
241313.921875,256272.78125,277826.46875,265829.65625,227979.046875,246901.765625,247076.734375,231042.484375,109896.0,1.0,2
241054.359375,256061.234375,277639.875,265675.53125,227699.375,246812.171875,246675.921875,231000.28125,109897.0,1.0,2
240960.84375,255967.453125,277537.0625,265643.25,227548.1875,246797.515625,246431.65625,230993.84375,109898.0,1.0,2
241164.515625,256128.296875,277662.78125,265784.0625,227746.578125,246883.609375,246695.953125,231038.453125,109899.0,1.0,2
241389.734375,256328.65625,277842.125,265902.4375,228017.84375,246950.84375,247094.4375,231070.203125,109900.0,1.0,2
241305.421875,256286.09375,277816.90625,265829.40625,227991.296875,246910.34375,247077.09375,231047.125,109901.0,1.0,2
241051.59375,256075.546875,277630.40625,265672.75,227716.984375,246825.671875,246679.046875,231004.65625,109902.0,1.0,2
240951.015625,255968.703125,277521.15625,265631.28125,227561.25,246810.125,246427.015625,230994.203125,109903.0,1.0,2
241157.8125,256123.46875,277649.4375,265774.875,227761.96875,246897.296875,246690.046875,231038.1875,109904.0,1.0,2
241385.984375,256317.125,277829.875,265896.09375,228034.828125,246963.1875,247093.09375,231070.5625,109905.0,1.0,2
241299.78125,256267.5,277806.1875,265822.0625,228004.796875,246915.984375,247077.625,231044.984375,109906.0,1.0,2
241044.4375,256052.921875,277620.40625,265664.25,227724.328125,246823.53125,246677.53125,230999.03125,109907.0,1.0,2
240954.3125,255955.921875,277522.65625,265632.53125,227570.09375,246809.578125,246429.0625,231001.984375,109908.0,1.0,2
241159.515625,256105.140625,277646.59375,265773.34375,227758.75,246889.15625,246682.984375,231045.34375,109909.0,1.0,2
241390.625,256297.265625,277827.625,265893.5,228025.53125,246951.03125,247082.28125,231064.65625,109910.0,1.0,2
241318.921875,256258.203125,277816.28125,265827.15625,228001.84375,246909.09375,247078.875,231039.53125,109911.0,1.0,2
241068.40625,256048.28125,277638.0,265674.28125,227725.484375,246824.609375,246685.390625,230997.78125,109912.0,1.0,2
240964.6875,255941.171875,277529.90625,265632.0625,227561.15625,246806.90625,246424.78125,230989.015625,109913.0,1.0,2
241167.375,256092.796875,277654.625,265775.03125,227750.078125,246893.0,246679.140625,231032.828125,109914.0,1.0,2
241408.953125,256299.59375,277843.0,265902.90625,228027.046875,246966.578125,247092.828125,231067.703125,109915.0,1.0,2
241333.859375,256262.046875,277825.125,265831.71875,228002.734375,246923.21875,247091.484375,231041.765625,109916.0,1.0,2
241082.171875,256052.484375,277642.46875,265674.90625,227723.96875,246834.078125,246696.296875,230996.703125,109917.0,1.0,2
240978.90625,255949.921875,277535.53125,265633.875,227562.3125,246821.75,246437.921875,230989.46875,109918.0,1.0,2
241179.796875,256101.203125,277659.46875,265773.6875,227748.46875,246906.40625,246687.359375,231034.171875,109919.0,1.0,2
241415.75,256301.03125,277843.1875,265902.0,228022.140625,246972.65625,247094.875,231069.125,109920.0,1.0,2
241345.03125,256270.265625,277832.46875,265839.40625,228010.0625,246934.75,247105.15625,231045.875,109921.0,1.0,2
241087.171875,256062.046875,277651.9375,265681.6875,227736.484375,246848.65625,246713.46875,231004.390625,109922.0,1.0,2
240973.359375,255946.984375,277540.0,265632.15625,227566.15625,246826.578125,246442.828125,230993.75,109923.0,1.0,2
241173.453125,256093.15625,277661.78125,265770.21875,227749.796875,246908.46875,246688.078125,231035.328125,109924.0,1.0,2
241417.265625,256298.078125,277850.53125,265900.75,228024.8125,246974.546875,247096.21875,231070.015625,109925.0,1.0,2
241355.484375,256270.453125,277845.96875,265839.59375,228016.765625,246935.921875,247110.4375,231052.9375,109926.0,1.0,2
241095.5,256062.484375,277661.4375,265680.09375,227739.34375,246840.515625,246719.734375,231009.21875,109927.0,1.0,2
240977.75,255951.8125,277542.59375,265630.03125,227561.421875,246806.453125,246448.828125,230994.921875,109928.0,1.0,2
241174.265625,256104.15625,277662.78125,265772.4375,227742.921875,246888.703125,246696.484375,231044.8125,109929.0,1.0,2
241418.34375,256317.75,277850.625,265906.90625,228019.640625,246959.15625,247110.4375,231084.140625,109930.0,1.0,2
241357.1875,256302.8125,277845.15625,265848.625,228012.65625,246922.6875,247128.9375,231066.171875,109931.0,1.0,2
241087.796875,256091.8125,277657.5,265683.5,227732.375,246827.28125,246734.484375,231016.90625,109932.0,1.0,2
240963.796875,255980.234375,277533.5,265627.96875,227552.296875,246798.5,246454.1875,231005.734375,109933.0,1.0,2
241157.8125,256134.828125,277644.8125,265762.53125,227728.25,246876.90625,246686.65625,231049.8125,109934.0,1.0,2
241392.234375,256337.5,277822.625,265886.96875,227999.515625,246936.8125,247086.390625,231081.828125,109935.0,1.0,2
241330.359375,256313.09375,277813.25,265825.1875,227993.703125,246892.375,247104.53125,231049.90625,109936.0,1.0,2
241084.40625,256117.75,277641.21875,265675.875,227733.703125,246811.734375,246726.53125,231007.609375,109937.0,1.0,2
240962.28125,256003.03125,277523.90625,265625.46875,227558.46875,246788.84375,246445.78125,230996.34375,109938.0,1.0,2
241148.328125,256138.578125,277634.875,265757.6875,227730.046875,246867.96875,246673.234375,231036.40625,109939.0,1.0,2
241396.4375,256344.296875,277829.5,265898.40625,228016.6875,246949.328125,247095.78125,231082.0,109940.0,1.0,2
241343.328125,256321.40625,277829.96875,265842.1875,228016.234375,246913.75,247125.28125,231060.0,109941.0,1.0,2
241089.59375,256113.546875,277651.25,265682.40625,227741.3125,246826.03125,246737.875,231011.8125,109942.0,1.0,2
240975.234375,255994.90625,277539.03125,265636.1875,227564.8125,246806.546875,246461.515625,231006.0,109943.0,1.0,2
241162.453125,256124.546875,277647.75,265768.5,227732.71875,246881.5625,246687.359375,231047.671875,109944.0,1.0,2
241410.46875,256330.171875,277836.84375,265904.21875,228013.828125,246953.625,247104.8125,231083.875,109945.0,1.0,2
241357.1875,256310.0625,277840.78125,265848.71875,228018.734375,246919.640625,247140.390625,231062.953125,109946.0,1.0,2
241098.71875,256098.796875,277660.28125,265687.0625,227744.171875,246826.296875,246753.875,231013.875,109947.0,1.0,2
240972.921875,255977.640625,277534.21875,265628.40625,227556.421875,246791.515625,246458.84375,230995.984375,109948.0,1.0,2
241156.109375,256112.46875,277643.8125,265763.875,227728.609375,246869.03125,246680.5625,231039.984375,109949.0,1.0,2
241401.890625,256319.359375,277831.03125,265898.96875,228009.0,246942.359375,247095.0625,231078.515625,109950.0,1.0,2
241353.078125,256306.75,277832.71875,265845.21875,228015.078125,246905.25,247132.609375,231059.03125,109951.0,1.0,2
241093.890625,256100.40625,277649.28125,265681.6875,227743.1875,246810.390625,246744.3125,231009.9375,109952.0,1.0,2
240971.484375,255983.453125,277529.46875,265627.875,227564.109375,246787.046875,246455.078125,230997.328125,109953.0,1.0,2
241162.90625,256131.609375,277647.84375,265771.90625,227745.421875,246879.671875,246686.921875,231050.171875,109954.0,1.0,2
241411.28125,256342.328125,277836.9375,265910.9375,228032.59375,246953.625,247107.484375,231091.203125,109955.0,1.0,2
241370.0625,256334.203125,277844.28125,265858.46875,228047.703125,246922.59375,247152.8125,231070.828125,109956.0,1.0,2
241115.515625,256130.265625,277667.34375,265696.8125,227780.015625,246829.25,246766.671875,231021.734375,109957.0,1.0,2
240990.078125,256011.34375,277543.9375,265637.1875,227592.09375,246798.5,246467.875,231005.109375,109958.0,1.0,2
241167.203125,256141.890625,277647.03125,265764.40625,227753.375,246874.046875,246679.859375,231045.796875,109959.0,1.0,2
241410.203125,256338.9375,277831.75,265897.96875,228031.703125,246947.1875,247096.40625,231082.71875,109960.0,1.0,2
241363.453125,256320.78125,277839.875,265848.96875,228040.828125,246915.359375,247141.734375,231058.390625,109961.0,1.0,2
241103.890625,256109.609375,277659.90625,265686.25,227763.84375,246822.375,246753.25,231007.796875,109962.0,1.0,2
240978.453125,255987.296875,277541.28125,265632.71875,227578.40625,246802.96875,246464.296875,231000.46875,109963.0,1.0,2
241154.234375,256113.453125,277644.53125,265760.09375,227737.375,246881.109375,246675.5625,231039.625,109964.0,1.0,2
241410.03125,256330.359375,277842.84375,265899.21875,228022.9375,246960.6875,247100.875,231077.53125,109965.0,1.0,2
241370.78125,256320.78125,277861.25,265854.25,228040.375,246932.703125,247162.390625,231058.84375,109966.0,1.0,2
241107.109375,256109.078125,277680.5625,265689.65625,227760.703125,246835.875,246775.703125,231007.34375,109967.0,1.0,2
240961.921875,255971.03125,277546.0,265621.25,227554.265625,246795.453125,246460.890625,230990.453125,109968.0,1.0,2
241143.859375,256106.390625,277654.53125,265754.84375,227712.703125,246877.53125,246670.640625,231037.5625,109969.0,1.0,2
241399.03125,256323.46875,277849.0,265895.5625,227997.28125,246953.171875,247094.4375,231069.75,109970.0,1.0,2
241363.625,256322.484375,277863.40625,265850.6875,228019.09375,246922.234375,247158.1875,231051.515625,109971.0,1.0,2
241098.359375,256116.671875,277684.9375,265688.5,227747.921875,246828.625,246776.59375,231003.6875,109972.0,1.0,2
240964.515625,255993.734375,277557.8125,265626.90625,227554.453125,246797.0625,246473.140625,230990.625,109973.0,1.0,2
