FZ,C3,CZ,C4,PZ,PO7,OZ,PO8,Counter,Validation,Label
232070.03125,245576.03125,523392.5,418806.1875,219962.09375,223089.828125,223318.34375,215918.390625,15826.0,1.0,2
231988.59375,245526.0625,523354.78125,418760.84375,219924.546875,223062.375,223274.890625,215879.328125,15827.0,1.0,2
231861.71875,245434.328125,523295.75,418699.0625,219855.4375,223034.75,223165.109375,215785.8125,15828.0,1.0,2
231857.25,245418.40625,523283.78125,418694.0625,219843.640625,223037.078125,223132.296875,215758.359375,15829.0,1.0,2
231985.546875,245501.203125,523338.3125,418758.34375,219915.34375,223074.078125,223228.84375,215843.828125,15830.0,1.0,2
232064.578125,245565.484375,523368.96875,418789.375,219963.078125,223089.375,223308.515625,215912.671875,15831.0,1.0,2
231984.125,245521.140625,523326.96875,418745.75,219927.234375,223067.203125,223269.703125,215874.859375,15832.0,1.0,2
231856.359375,245431.46875,523264.5625,418683.96875,219857.484375,223041.546875,223163.3125,215773.921875,15833.0,1.0,2
231863.859375,245425.296875,523266.4375,418691.375,219858.828125,223055.671875,223149.359375,215762.734375,15834.0,1.0,2
231992.171875,245510.5,523319.90625,418748.59375,219925.078125,223089.015625,223244.859375,215848.390625,15835.0,1.0,2
232070.390625,245573.0,523349.5,418774.25,219969.25,223098.5,223326.125,215917.140625,15836.0,1.0,2
231989.921875,245524.53125,523310.25,418724.5625,219929.46875,223069.265625,223283.484375,215877.09375,15837.0,1.0,2
231860.921875,245432.359375,523249.71875,418660.8125,219858.390625,223041.71875,223176.09375,215780.171875,15838.0,1.0,2
231872.0,245431.640625,523256.15625,418672.875,219863.21875,223062.90625,223165.90625,215771.40625,15839.0,1.0,2
231988.671875,245506.125,523301.3125,418724.90625,219920.96875,223089.46875,223250.9375,215847.953125,15840.0,1.0,2
232063.25,245566.921875,523325.8125,418746.0,219961.828125,223097.78125,223321.203125,215910.625,15841.0,1.0,2
231994.84375,245535.0,523292.4375,418705.40625,219931.609375,223076.5,223284.375,215877.625,15842.0,1.0,2
231856.4375,245433.515625,523222.625,418636.40625,219853.640625,223036.984375,223165.375,215775.25,15843.0,1.0,2
231861.71875,245422.96875,523219.59375,418642.375,219849.984375,223047.265625,223142.65625,215758.265625,15844.0,1.0,2
231987.515625,245506.125,523272.6875,418702.1875,219919.71875,223083.921875,223236.53125,215844.734375,15845.0,1.0,2
232062.171875,245567.71875,523297.46875,418726.96875,219962.984375,223091.875,223312.359375,215913.484375,15846.0,1.0,2
231996.546875,245535.625,523270.09375,418692.53125,219937.953125,223077.9375,223282.578125,215885.9375,15847.0,1.0,2
231862.703125,245433.703125,523204.84375,418622.96875,219856.59375,223043.421875,223166.796875,215782.140625,15848.0,1.0,2
231865.75,245423.6875,523200.53125,418625.3125,219846.9375,223050.65625,223140.609375,215760.953125,15849.0,1.0,2
231991.453125,245511.03125,523251.9375,418685.5625,219913.375,223084.375,223234.03125,215843.203125,15850.0,1.0,2
232068.609375,245572.1875,523285.21875,418716.0625,219962.90625,223098.40625,223318.53125,215912.765625,15851.0,1.0,2
231998.421875,245534.375,523249.8125,418678.0625,219930.53125,223081.5,223281.15625,215879.234375,15852.0,1.0,2
231863.5,245437.90625,523181.5,418610.90625,219853.734375,223049.953125,223162.234375,215775.609375,15853.0,1.0,2
231861.359375,245426.71875,523175.78125,418611.53125,219848.734375,223054.421875,223138.09375,215758.53125,15854.0,1.0,2
231985.015625,245511.296875,523227.1875,418667.875,219916.765625,223092.859375,223232.515625,215842.3125,15855.0,1.0,2
232061.09375,245569.328125,523255.71875,418696.65625,219960.75,223107.96875,223310.125,215909.453125,15856.0,1.0,2
231989.65625,245527.75,523224.59375,418659.375,219929.203125,223086.328125,223272.296875,215878.703125,15857.0,1.0,2
231859.125,245435.125,523167.09375,418594.625,219858.828125,223056.109375,223161.796875,215780.984375,15858.0,1.0,2
231859.84375,245419.484375,523162.53125,418592.40625,219848.015625,223061.484375,223131.3125,215756.75,15859.0,1.0,2
231982.78125,245496.734375,523211.34375,418649.625,219908.90625,223092.6875,223216.875,215837.484375,15860.0,1.0,2
232062.609375,245561.640625,523239.0625,418677.0625,219955.75,223106.0,223298.3125,215911.6875,15861.0,1.0,2
231992.703125,245524.625,523202.25,418631.46875,219921.15625,223081.5,223260.046875,215875.21875,15862.0,1.0,2
231878.078125,245449.34375,523154.40625,418583.5625,219866.609375,223065.140625,223170.828125,215792.609375,15863.0,1.0,2
231873.96875,245432.625,523148.59375,418585.96875,219854.359375,223070.0625,223145.34375,215770.078125,15864.0,1.0,2
231988.953125,245507.1875,523192.59375,418635.59375,219908.8125,223095.0,223226.171875,215842.140625,15865.0,1.0,2
232069.140625,245570.84375,523221.375,418665.71875,219957.53125,223107.875,223308.953125,215913.125,15866.0,1.0,2
232004.765625,245538.21875,523193.03125,418629.34375,219931.25,223091.609375,223283.125,215889.609375,15867.0,1.0,2
231870.296875,245436.109375,523128.5625,418562.90625,219855.171875,223059.15625,223169.484375,215788.3125,15868.0,1.0,2
231879.953125,245433.078125,523130.0,418573.8125,219855.609375,223081.421875,223151.421875,215773.734375,15869.0,1.0,2
232002.09375,245514.171875,523179.34375,418631.03125,219922.671875,223121.375,223242.890625,215855.640625,15870.0,1.0,2
232079.609375,245576.921875,523206.875,418656.96875,219968.265625,223125.5,223323.53125,215926.0,15871.0,1.0,2
232001.46875,245528.828125,523162.53125,418605.53125,219925.625,223091.515625,223279.28125,215882.90625,15872.0,1.0,2
231873.703125,245438.609375,523106.9375,418543.6875,219858.75,223063.171875,223180.125,215791.625,15873.0,1.0,2
231872.453125,245427.890625,523101.5625,418545.1875,219850.25,223069.171875,223155.359375,215769.0,15874.0,1.0,2
231993.953125,245509.15625,523148.9375,418603.03125,219911.84375,223097.6875,223241.8125,215849.5625,15875.0,1.0,2
232073.171875,245570.578125,523178.1875,418632.46875,219960.390625,223113.515625,223323.265625,215922.421875,15876.0,1.0,2
231995.5625,245521.9375,523136.6875,418586.40625,219922.765625,223086.953125,223284.90625,215884.25,15877.0,1.0,2
231879.875,245449.078125,523091.1875,418537.78125,219865.265625,223072.75,223195.59375,215799.390625,15878.0,1.0,2
231876.828125,245438.171875,523084.40625,418537.59375,219852.84375,223074.625,223165.90625,215769.453125,15879.0,1.0,2
232001.375,245520.15625,523136.34375,418595.34375,219918.640625,223108.15625,223254.6875,215848.84375,15880.0,1.0,2
232084.078125,245585.6875,523169.4375,418627.90625,219972.375,223122.90625,223335.59375,215922.15625,15881.0,1.0,2
232013.984375,245545.90625,523140.46875,418593.03125,219944.578125,223102.703125,223304.125,215894.4375,15882.0,1.0,2
231871.28125,245440.40625,523071.4375,418521.5,219865.0,223065.859375,223187.0,215789.109375,15883.0,1.0,2
231874.5,245435.3125,523068.84375,418524.90625,219860.0,223077.03125,223162.59375,215769.625,15884.0,1.0,2
231990.375,245512.203125,523114.8125,418576.59375,219916.953125,223104.21875,223241.015625,215846.15625,15885.0,1.0,2
232074.328125,245575.140625,523142.25,418605.53125,219962.453125,223114.9375,223318.171875,215914.828125,15886.0,1.0,2
232000.75,245530.265625,523101.75,418559.40625,219922.671875,223085.703125,223276.328125,215873.6875,15887.0,1.0,2
231864.3125,245429.765625,523038.71875,418493.4375,219848.90625,223052.8125,223166.625,215775.25,15888.0,1.0,2
231868.0625,245419.21875,523037.5625,418501.21875,219843.1875,223059.515625,223142.65625,215755.140625,15889.0,1.0,2
231993.140625,245508.796875,523085.46875,418559.0625,219907.5625,223092.953125,223230.453125,215835.421875,15890.0,1.0,2
232081.125,245582.390625,523121.5,418596.34375,219963.4375,223115.84375,223321.03125,215915.171875,15891.0,1.0,2
232000.296875,245533.03125,523077.25,418543.78125,219921.59375,223083.46875,223279.90625,215874.765625,15892.0,1.0,2
231864.578125,245433.515625,523012.78125,418476.4375,219847.203125,223054.953125,223169.84375,215774.28125,15893.0,1.0,2
231872.8125,245430.03125,523014.9375,418484.9375,219847.921875,223068.625,223150.34375,215758.1875,15894.0,1.0,2
231983.671875,245503.53125,523053.28125,418529.8125,219903.53125,223094.921875,223230.546875,215830.78125,15895.0,1.0,2
232072.90625,245573.078125,523089.6875,418566.65625,219958.875,223115.296875,223321.203125,215910.796875,15896.0,1.0,2
232002.984375,245533.75,523054.71875,418523.125,219926.515625,223089.109375,223288.75,215879.6875,15897.0,1.0,2
231864.84375,245432.53125,522986.84375,418448.1875,219844.265625,223049.859375,223166.359375,215772.125,15898.0,1.0,2
231866.28125,245424.9375,522987.3125,418453.65625,219840.953125,223063.796875,223141.5,215754.421875,15899.0,1.0,2
231975.53125,245492.625,523028.625,418499.59375,219896.296875,223093.9375,223220.71875,215828.09375,15900.0,1.0,2
232059.9375,245558.59375,523059.625,418534.125,219949.765625,223105.640625,223307.796875,215903.375,15901.0,1.0,2
232008.34375,245538.578125,523034.96875,418508.0,219932.328125,223094.03125,223287.140625,215883.078125,15902.0,1.0,2
231869.046875,245438.796875,522968.0,418439.78125,219853.375,223053.25,223172.4375,215779.640625,15903.0,1.0,2
231855.109375,245412.875,522954.9375,418434.40625,219835.140625,223056.203125,223133.8125,215747.71875,15904.0,1.0,2
231969.90625,245484.484375,522999.90625,418487.96875,219894.5,223087.40625,223218.125,215824.078125,15905.0,1.0,2
232066.640625,245563.96875,523043.1875,418528.9375,219955.484375,223112.625,223314.859375,215909.453125,15906.0,1.0,2
231997.265625,245524.0,523008.9375,418485.90625,219920.34375,223087.3125,223278.828125,215874.140625,15907.0,1.0,2
231861.359375,245424.671875,522950.65625,418422.25,219847.75,223056.203125,223171.09375,215774.1875,15908.0,1.0,2
231854.75,245407.765625,522944.84375,418420.03125,219837.828125,223062.90625,223139.53125,215747.453125,15909.0,1.0,2
231985.90625,245502.359375,522999.71875,418483.15625,219908.28125,223105.640625,223231.4375,215832.65625,15910.0,1.0,2
232070.125,245565.390625,523029.78125,418513.09375,219955.578125,223114.765625,223314.859375,215905.703125,15911.0,1.0,2
232006.015625,245528.03125,522999.65625,418475.90625,219927.234375,223090.453125,223287.140625,215879.6875,15912.0,1.0,2
231873.875,245431.90625,522937.59375,418408.9375,219855.34375,223057.71875,223177.625,215779.015625,15913.0,1.0,2
231872.09375,245423.5,522934.65625,418411.8125,219848.015625,223067.109375,223147.84375,215754.0625,15914.0,1.0,2
231989.75,245504.234375,522982.65625,418465.09375,219913.28125,223099.921875,223234.125,215834.796875,15915.0,1.0,2
232077.640625,245571.46875,523015.90625,418498.09375,219966.5625,223116.109375,223320.046875,215913.65625,15916.0,1.0,2
232022.296875,245543.140625,522990.625,418464.8125,219942.0625,223096.96875,223296.265625,215890.859375,15917.0,1.0,2
231886.21875,245446.84375,522925.875,418398.21875,219866.4375,223063.09375,223187.984375,215790.375,15918.0,1.0,2
231875.125,245430.03125,522916.03125,418395.09375,219853.5625,223070.234375,223153.65625,215759.078125,15919.0,1.0,2
231997.703125,245512.90625,522963.4375,418450.25,219916.859375,223104.75,223239.484375,215839.0,15920.0,1.0,2
232085.6875,245584.96875,522999.09375,418485.03125,219971.484375,223127.46875,223327.828125,215918.84375,15921.0,1.0,2
232005.84375,245529.71875,522956.09375,418434.875,219932.6875,223093.75,223291.703125,215883.96875,15922.0,1.0,2
231871.90625,245434.765625,522890.375,418365.5625,219856.59375,223058.171875,223182.09375,215783.484375,15923.0,1.0,2
231864.9375,245421.984375,522884.3125,418368.0,219847.390625,223063.984375,223150.703125,215757.375,15924.0,1.0,2
231981.4375,245498.4375,522929.09375,418420.90625,219905.328125,223093.484375,223230.1875,215830.59375,15925.0,1.0,2
232064.859375,245561.90625,522959.5,418452.75,219957.0,223109.578125,223314.859375,215908.296875,15926.0,1.0,2
232002.09375,245529.28125,522926.96875,418416.28125,219930.984375,223086.15625,223293.046875,215887.109375,15927.0,1.0,2
231872.1875,245437.71875,522866.0625,418350.5625,219855.875,223056.203125,223185.125,215787.953125,15928.0,1.0,2
231856.09375,245412.875,522853.8125,418342.96875,219836.296875,223054.140625,223142.390625,215750.765625,15929.0,1.0,2
231974.375,245489.3125,522900.21875,418399.28125,219896.65625,223080.703125,223221.96875,215826.046875,15930.0,1.0,2
232060.5625,245551.0,522926.5,418430.3125,219942.34375,223089.46875,223301.53125,215898.8125,15931.0,1.0,2
232003.875,245520.609375,522900.59375,418400.28125,219921.78125,223075.96875,223284.375,215881.203125,15932.0,1.0,2
231875.21875,245434.765625,522845.59375,418337.59375,219853.203125,223052.265625,223181.546875,215787.421875,15933.0,1.0,2
231850.0,245402.3125,522825.21875,418320.59375,219824.671875,223045.65625,223132.015625,215744.765625,15934.0,1.0,2
231978.578125,245489.75,522880.0,418383.375,219893.34375,223090.984375,223224.296875,215830.328125,15935.0,1.0,2
232074.859375,245564.859375,522918.5625,418425.40625,219954.671875,223118.078125,223320.671875,215916.4375,15936.0,1.0,2
232005.484375,245525.515625,522883.78125,418385.15625,219926.15625,223090.171875,223293.84375,215891.9375,15937.0,1.0,2
231873.25,245432.09375,522825.03125,418322.46875,219853.46875,223059.328125,223187.625,215793.3125,15938.0,1.0,2
231858.671875,245410.625,522810.28125,418310.5,219832.1875,223055.9375,223143.640625,215753.265625,15939.0,1.0,2
231980.359375,245490.921875,522858.75,418369.15625,219897.359375,223091.96875,223226.96875,215829.703125,15940.0,1.0,2
232072.1875,245562.171875,522896.375,418405.53125,219954.046875,223107.796875,223314.140625,215909.09375,15941.0,1.0,2
232012.734375,245533.203125,522868.40625,418368.875,219930.265625,223088.296875,223290.359375,215886.84375,15942.0,1.0,2
231870.84375,245429.40625,522796.34375,418293.96875,219847.125,223047.265625,223174.484375,215779.546875,15943.0,1.0,2
231855.90625,245404.734375,522780.59375,418284.125,219826.640625,223046.015625,223130.234375,215741.8125,15944.0,1.0,2
231972.046875,245482.78125,522827.71875,418339.65625,219889.671875,223079.1875,223211.6875,215819.15625,15945.0,1.0,2
232062.609375,245551.1875,522865.8125,418377.65625,219944.3125,223097.953125,223298.765625,215898.109375,15946.0,1.0,2
232027.390625,245542.234375,522856.59375,418362.09375,219935.1875,223092.421875,223292.859375,215892.375,15947.0,1.0,2
231878.625,245435.390625,522784.71875,418285.5625,219853.46875,223048.875,223175.828125,215786.96875,15948.0,1.0,2
231858.140625,245411.796875,522772.1875,418276.71875,219836.296875,223056.390625,223136.578125,215753.4375,15949.0,1.0,2
231965.875,245476.96875,522811.71875,418323.46875,219889.234375,223082.84375,223212.84375,215819.6875,15950.0,1.0,2
232055.46875,245545.375,522842.65625,418355.28125,219940.375,223096.609375,223294.65625,215891.390625,15951.0,1.0,2
232008.890625,245525.96875,522820.125,418327.59375,219922.484375,223078.28125,223277.578125,215878.34375,15952.0,1.0,2
231878.703125,245432.265625,522762.0,418266.5,219851.234375,223047.796875,223173.234375,215783.65625,15953.0,1.0,2
231865.109375,245415.28125,522756.1875,418264.1875,219838.09375,223059.515625,223138.28125,215751.390625,15954.0,1.0,2
231975.09375,245485.109375,522796.5,418312.8125,219895.9375,223089.46875,223214.90625,215820.5,15955.0,1.0,2
232066.90625,245552.703125,522828.875,418348.40625,219950.03125,223100.28125,223300.546875,215896.140625,15956.0,1.0,2
232014.25,245527.3125,522804.1875,418316.59375,219928.75,223083.390625,223282.578125,215878.171875,15957.0,1.0,2
231883.53125,245437.640625,522743.65625,418250.25,219857.21875,223052.8125,223179.40625,215785.8125,15958.0,1.0,2
231863.0625,245415.90625,522732.21875,418245.875,219843.0,223061.03125,223145.34375,215754.0625,15959.0,1.0,2
231977.859375,245494.671875,522779.25,418300.65625,219904.34375,223092.859375,223225.359375,215827.65625,15960.0,1.0,2
232070.03125,245564.40625,522808.03125,418332.84375,219952.625,223105.828125,223311.375,215904.359375,15961.0,1.0,2
232009.59375,245526.6875,522771.9375,418294.84375,219925.0,223085.890625,223288.9375,215880.3125,15962.0,1.0,2
231884.34375,245439.328125,522715.96875,418234.5,219856.59375,223060.40625,223186.03125,215787.6875,15963.0,1.0,2
231857.609375,245409.46875,522700.40625,418218.9375,219829.859375,223055.578125,223138.546875,215746.296875,15964.0,1.0,2
231967.125,245479.75,522744.5625,418270.09375,219887.796875,223086.25,223217.140625,215821.65625,15965.0,1.0,2
232063.0625,245550.109375,522777.28125,418305.84375,219941.0,223099.65625,223306.546875,215901.40625,15966.0,1.0,2
232015.859375,245525.96875,522751.71875,418278.59375,219920.25,223081.0625,223288.484375,215883.703125,15967.0,1.0,2
231885.40625,245440.140625,522693.15625,418219.84375,219854.265625,223056.921875,223189.234375,215793.5,15968.0,1.0,2
231849.203125,245403.390625,522665.53125,418199.28125,219824.328125,223048.34375,223136.484375,215747.984375,15969.0,1.0,2
231963.203125,245476.25,522708.34375,418251.9375,219879.484375,223079.1875,223208.734375,215817.375,15970.0,1.0,2
232061.984375,245551.1875,522750.90625,418295.3125,219940.734375,223105.375,223306.640625,215904.0,15971.0,1.0,2
232011.296875,245529.0,522729.1875,418263.46875,219921.15625,223084.640625,223292.421875,215891.125,15972.0,1.0,2
231869.9375,245426.09375,522661.40625,418192.5625,219842.03125,223042.171875,223177.703125,215791.0,15973.0,1.0,2
231844.90625,245400.625,522645.78125,418181.9375,219822.984375,223046.8125,223134.53125,215753.890625,15974.0,1.0,2
231959.359375,245476.53125,522691.09375,418234.0625,219879.3125,223079.1875,223209.8125,215823.53125,15975.0,1.0,2
232058.328125,245548.765625,522724.96875,418268.9375,219932.328125,223096.171875,223297.421875,215901.765625,15976.0,1.0,2
232013.984375,245533.828125,522705.9375,418243.1875,219918.375,223080.078125,223290.453125,215890.140625,15977.0,1.0,2
231875.84375,245433.703125,522642.5625,418176.5625,219843.359375,223042.34375,223181.109375,215789.734375,15978.0,1.0,2
231848.125,245400.4375,522627.4375,418166.65625,219823.875,223042.796875,223134.96875,215752.640625,15979.0,1.0,2
231962.03125,245477.0625,522672.59375,418220.90625,219882.875,223078.375,223212.9375,215822.640625,15980.0,1.0,2
232064.140625,245557.53125,522712.1875,418265.0,219942.421875,223102.25,223308.59375,215906.328125,15981.0,1.0,2
232016.296875,245536.515625,522689.84375,418236.21875,219924.8125,223087.5,223293.84375,215892.65625,15982.0,1.0,2
231863.0625,245422.25,522613.21875,418154.5625,219835.140625,223037.703125,223169.578125,215778.828125,15983.0,1.0,2
231840.796875,245393.375,522599.375,418145.625,219813.859375,223038.953125,223123.4375,215737.53125,15984.0,1.0,2
231954.609375,245467.671875,522644.96875,418199.375,219871.796875,223073.1875,223199.96875,215810.65625,15985.0,1.0,2
232053.5,245544.828125,522686.625,418241.84375,219932.140625,223098.046875,223296.4375,215897.65625,15986.0,1.0,2
232010.140625,245528.5625,522668.21875,418216.71875,219917.578125,223087.765625,223285.4375,215886.21875,15987.0,1.0,2
231877.359375,245435.046875,522606.34375,418153.0625,219848.90625,223060.5,223180.921875,215792.609375,15988.0,1.0,2
231850.28125,245406.4375,522589.0,418141.78125,219827.0,223060.9375,223135.953125,215752.8125,15989.0,1.0,2
231946.5625,245464.09375,522614.375,418175.9375,219865.0,223074.984375,223193.0,215802.4375,15990.0,1.0,2
232051.796875,245542.5,522658.71875,418224.5,219931.515625,223103.765625,223294.203125,215895.6875,15991.0,1.0,2
232007.09375,245522.84375,522636.28125,418194.8125,219914.71875,223088.21875,223283.203125,215879.6875,15992.0,1.0,2
231876.921875,245434.140625,522576.125,418129.71875,219842.921875,223059.15625,223178.953125,215785.546875,15993.0,1.0,2
231851.703125,245401.515625,522564.6875,418122.65625,219821.8125,223061.84375,223134.875,215751.296875,15994.0,1.0,2
231964.890625,245472.765625,522612.6875,418178.90625,219881.359375,223094.375,223212.21875,215823.359375,15995.0,1.0,2
232070.75,245558.25,522656.84375,418222.875,219945.28125,223116.546875,223311.015625,215910.34375,15996.0,1.0,2
232036.0625,245549.390625,522645.3125,418203.40625,219939.5625,223106.890625,223308.328125,215907.21875,15997.0,1.0,2
231904.359375,245459.8125,522587.65625,418141.96875,219869.5625,223078.203125,223204.4375,215813.96875,15998.0,1.0,2
231860.109375,245415.546875,522560.03125,418118.90625,219835.3125,223067.734375,223144.265625,215760.6875,15999.0,1.0,2
231965.609375,245482.15625,522605.90625,418170.40625,219894.78125,223104.3125,223219.640625,215832.125,16000.0,1.0,2
232060.921875,245548.140625,522639.875,418203.03125,219948.15625,223117.359375,223308.328125,215909.28125,16001.0,1.0,2
232016.84375,245522.296875,522609.65625,418169.6875,219924.453125,223090.984375,223288.65625,215888.984375,16002.0,1.0,2
231878.796875,245425.828125,522537.59375,418098.53125,219841.3125,223047.078125,223172.25,215781.96875,16003.0,1.0,2
231848.21875,245395.25,522522.84375,418084.5625,219812.96875,223047.0,223119.765625,215734.75,16004.0,1.0,2
231952.921875,245460.875,522561.09375,418130.34375,219861.96875,223073.375,223183.15625,215793.234375,16005.0,1.0,2
232055.46875,245541.96875,522601.78125,418171.21875,219921.421875,223095.28125,223276.40625,215876.5625,16006.0,1.0,2
232021.9375,245534.28125,522589.53125,418152.53125,219914.359375,223086.6875,223273.109375,215873.78125,16007.0,1.0,2
231899.359375,245453.640625,522541.96875,418102.28125,219856.5,223066.21875,223178.609375,215793.234375,16008.0,1.0,2
231866.1875,245420.5625,522528.03125,418093.34375,219835.40625,223068.90625,223130.328125,215755.859375,16009.0,1.0,2
231965.609375,245483.953125,522563.4375,418133.3125,219880.734375,223089.734375,223194.96875,215812.453125,16010.0,1.0,2
232062.609375,245557.796875,522598.84375,418167.53125,219932.765625,223107.171875,223283.65625,215890.953125,16011.0,1.0,2
232011.03125,245527.125,522571.28125,418132.40625,219911.3125,223087.5,223269.625,215879.15625,16012.0,1.0,2
231884.515625,245442.015625,522517.90625,418076.09375,219849.53125,223065.59375,223175.828125,215795.1875,16013.0,1.0,2
231851.703125,245409.46875,522500.75,418065.875,219829.234375,223067.203125,223128.984375,215756.125,16014.0,1.0,2
231953.0,245472.6875,522532.65625,418107.09375,219875.375,223092.5,223192.8125,215813.703125,16015.0,1.0,2
232057.4375,245551.8125,522569.59375,418147.25,219935.625,223114.046875,223289.828125,215903.109375,16016.0,1.0,2
232028.90625,245548.40625,522555.28125,418128.65625,219930.890625,223104.3125,223294.390625,215905.609375,16017.0,1.0,2
231888.8125,245449.171875,522488.875,418055.34375,219853.375,223065.40625,223188.265625,215804.578125,16018.0,1.0,2
231845.453125,245405.265625,522463.1875,418032.34375,219818.328125,223057.546875,223128.984375,215747.359375,16019.0,1.0,2
231956.84375,245478.578125,522506.5625,418083.6875,219870.640625,223087.671875,223196.65625,215810.21875,16020.0,1.0,2
232063.6875,245558.875,522550.5625,418130.78125,219931.875,223114.234375,223295.375,215900.15625,16021.0,1.0,2
232014.34375,245532.3125,522522.46875,418100.125,219910.859375,223089.734375,223286.609375,215889.96875,16022.0,1.0,2
231875.046875,245433.875,522457.03125,418033.625,219838.09375,223050.65625,223182.53125,215794.125,16023.0,1.0,2
231854.484375,245412.421875,522448.625,418032.71875,219823.875,223056.46875,223143.46875,215761.484375,16024.0,1.0,2
231968.65625,245488.859375,522498.96875,418089.5,219884.484375,223091.875,223219.015625,215833.28125,16025.0,1.0,2
232065.03125,245562.453125,522534.28125,418125.96875,219940.1875,223108.78125,223308.15625,215912.859375,16026.0,1.0,2
232026.3125,245544.75,522512.90625,418100.9375,219926.328125,223088.84375,223298.046875,215903.28125,16027.0,1.0,2
231900.171875,245458.734375,522459.4375,418042.0,219859.640625,223063.796875,223194.703125,215811.921875,16028.0,1.0,2
231847.234375,245409.5625,522428.5,418012.40625,219821.640625,223057.546875,223127.015625,215754.515625,16029.0,1.0,2
231940.9375,245462.9375,522462.75,418054.4375,219866.796875,223089.203125,223188.34375,215812.1875,16030.0,1.0,2
232064.671875,245563.25,522520.34375,418114.78125,219947.171875,223137.390625,223303.59375,215916.875,16031.0,1.0,2
232029.53125,245555.921875,522498.53125,418085.90625,219932.765625,223125.5,223302.96875,215913.65625,16032.0,1.0,2
231889.4375,245458.375,522430.84375,418013.84375,219857.40625,223093.125,223199.796875,215818.0,16033.0,1.0,2
231843.65625,245411.609375,522405.0,417993.1875,219823.515625,223087.9375,223143.640625,215764.4375,16034.0,1.0,2
231938.25,245467.140625,522443.34375,418040.75,219871.703125,223114.140625,223209.265625,215821.296875,16035.0,1.0,2
232041.25,245543.484375,522482.4375,418081.4375,219931.15625,223133.0,223304.484375,215903.640625,16036.0,1.0,2
232019.796875,245544.828125,522474.28125,418065.09375,219927.59375,223126.65625,223310.03125,215905.703125,16037.0,1.0,2
231881.125,245446.65625,522409.65625,417995.15625,219850.609375,223088.296875,223200.15625,215807.0,16038.0,1.0,2
231834.1875,245397.578125,522386.03125,417973.96875,219814.125,223078.015625,223133.984375,215751.828125,16039.0,1.0,2
231950.046875,245476.4375,522441.5625,418034.78125,219879.390625,223113.515625,223208.015625,215825.234375,16040.0,1.0,2
232053.671875,245553.0625,522482.78125,418075.625,219942.25,223131.578125,223297.875,215910.703125,16041.0,1.0,2
232020.234375,245540.71875,522463.8125,418048.28125,219931.875,223107.796875,223289.28125,215902.390625,16042.0,1.0,2
231888.265625,245447.46875,522401.34375,417982.65625,219860.625,223065.328125,223183.78125,215807.984375,16043.0,1.0,2
231847.328125,245409.015625,522378.875,417967.90625,219834.875,223061.390625,223131.578125,215762.65625,16044.0,1.0,2
231941.734375,245464.546875,522408.46875,418009.03125,219881.8125,223082.765625,223197.109375,215821.125,16045.0,1.0,2
232059.21875,245554.125,522452.75,418058.1875,219950.03125,223105.828125,223309.046875,215918.671875,16046.0,1.0,2
232023.71875,245539.109375,522424.3125,418025.375,219933.484375,223079.1875,223308.25,215909.453125,16047.0,1.0,2
231885.40625,245442.1875,522356.09375,417950.46875,219855.171875,223036.53125,223201.484375,215806.453125,16048.0,1.0,2
231846.25,245404.28125,522339.71875,417936.15625,219829.328125,223031.890625,223152.9375,215764.0,16049.0,1.0,2
231954.609375,245477.515625,522386.5,417987.125,219883.953125,223061.65625,223229.390625,215835.703125,16050.0,1.0,2
232070.65625,245567.546875,522439.6875,418036.90625,219951.71875,223088.65625,223335.421875,215930.109375,16051.0,1.0,2
232034.625,245553.6875,522420.46875,418009.75,219934.203125,223070.234375,223326.296875,215921.796875,16052.0,1.0,2
231896.046875,245457.578125,522358.78125,417941.15625,219861.78125,223038.953125,223218.65625,215826.578125,16053.0,1.0,2
231847.0625,245410.1875,522335.625,417920.96875,219831.109375,223035.8125,223153.125,215771.328125,16054.0,1.0,2
231950.671875,245479.46875,522372.375,417967.53125,219881.09375,223065.328125,223212.046875,215828.90625,16055.0,1.0,2
232063.78125,245563.25,522417.875,418018.6875,219948.6875,223092.5,223310.296875,215922.328125,16056.0,1.0,2
232039.8125,245555.296875,522406.6875,418004.46875,219944.390625,223086.328125,223314.59375,215927.703125,16057.0,1.0,2
231895.609375,245449.078125,522333.46875,417924.8125,219862.671875,223043.515625,223199.96875,215824.34375,16058.0,1.0,2
231850.09375,245403.21875,522304.59375,417896.8125,219823.515625,223037.25,223135.59375,215763.90625,16059.0,1.0,2
231964.890625,245477.953125,522355.65625,417954.03125,219882.703125,223079.0,223216.15625,215835.34375,16060.0,1.0,2
232081.390625,245567.625,522409.8125,418004.5625,219951.8125,223109.21875,223324.78125,215934.046875,16061.0,1.0,2
232041.515625,245548.765625,522384.0625,417969.5,219932.765625,223088.84375,223317.546875,215923.9375,16062.0,1.0,2
231906.328125,245456.234375,522322.03125,417901.46875,219858.03125,223057.71875,223216.875,215829.265625,16063.0,1.0,2
231855.90625,245409.375,522291.8125,417875.09375,219820.03125,223041.09375,223153.21875,215772.484375,16064.0,1.0,2
231957.828125,245473.3125,522337.0625,417929.53125,219878.953125,223076.859375,223224.734375,215838.015625,16065.0,1.0,2
232064.046875,245554.046875,522380.6875,417976.3125,219944.21875,223102.96875,223323.984375,215926.4375,16066.0,1.0,2
232039.8125,245552.078125,522368.59375,417957.96875,219941.4375,223098.578125,223329.078125,215930.203125,16067.0,1.0,2
231908.125,245465.53125,522308.53125,417893.0625,219873.5,223070.328125,223227.515625,215837.75,16068.0,1.0,2
231856.171875,245416.4375,522278.84375,417870.625,219836.390625,223060.234375,223162.421875,215779.640625,16069.0,1.0,2
231965.078125,245489.046875,522330.25,417928.75,219897.90625,223096.53125,223235.5625,215847.5,16070.0,1.0,2
232070.21875,245565.3125,522368.0625,417967.1875,219955.84375,223115.65625,223329.34375,215932.171875,16071.0,1.0,2
232036.421875,245548.9375,522345.90625,417939.71875,219941.4375,223097.421875,223324.421875,215927.15625,16072.0,1.0,2
231888.265625,245437.8125,522270.09375,417861.0625,219857.140625,223054.6875,223207.921875,215822.640625,16073.0,1.0,2
231854.03125,245405.890625,522255.40625,417849.15625,219830.671875,223059.328125,223155.625,215774.0,16074.0,1.0,2
231966.6875,245480.8125,522303.875,417904.59375,219888.78125,223098.40625,223228.9375,215840.34375,16075.0,1.0,2
232072.0,245557.890625,522345.1875,417945.90625,219950.296875,223115.65625,223325.046875,215928.046875,16076.0,1.0,2
232040.09375,245545.8125,522329.53125,417921.9375,219937.234375,223099.296875,223327.375,215927.15625,16077.0,1.0,2
231908.75,245460.34375,522270.625,417855.78125,219866.15625,223070.15625,223229.390625,215836.40625,16078.0,1.0,2
231857.0625,245415.375,522244.34375,417831.90625,219832.71875,223065.140625,223167.78125,215780.4375,16079.0,1.0,2
231955.59375,245477.78125,522282.875,417877.25,219883.6875,223092.6875,223230.28125,215838.828125,16080.0,1.0,2
232064.9375,245556.09375,522321.3125,417921.03125,219945.828125,223113.15625,223322.640625,215922.421875,16081.0,1.0,2
232041.0625,245545.375,522304.5,417903.34375,219942.421875,223105.375,223325.046875,215923.40625,16082.0,1.0,2
231906.875,245454.078125,522240.84375,417835.03125,219872.59375,223070.6875,223223.84375,215831.140625,16083.0,1.0,2
231853.5,245407.234375,522209.8125,417809.1875,219832.640625,223058.625,223153.84375,215769.71875,16084.0,1.0,2
231945.578125,245465.796875,522241.75,417847.90625,219874.828125,223084.09375,223204.625,215819.328125,16085.0,1.0,2
232058.765625,245550.734375,522287.6875,417897.625,219940.8125,223107.796875,223306.984375,215914.46875,16086.0,1.0,2
232028.46875,245537.140625,522273.5625,417879.75,219934.109375,223094.5625,223316.640625,215920.1875,16087.0,1.0,2
231888.984375,245438.53125,522207.9375,417805.96875,219857.671875,223057.71875,223210.875,215823.0,16088.0,1.0,2
231846.515625,245405.984375,522185.5,417788.53125,219828.515625,223057.90625,223151.609375,215772.84375,16089.0,1.0,2
231942.8125,245465.96875,522221.8125,417835.40625,219876.625,223085.53125,223214.1875,215829.609375,16090.0,1.0,2
232064.140625,245558.515625,522276.25,417891.1875,219951.546875,223118.34375,223322.375,215925.015625,16091.0,1.0,2
232035.96875,245548.859375,522261.40625,417871.0625,219943.5,223104.21875,223324.609375,215926.09375,16092.0,1.0,2
231903.203125,245458.640625,522202.03125,417805.09375,219871.34375,223067.734375,223224.640625,215834.796875,16093.0,1.0,2
231848.21875,245409.921875,522170.75,417776.5625,219830.671875,223053.703125,223154.546875,215771.5,16094.0,1.0,2
231946.828125,245473.671875,522209.375,417823.9375,219879.578125,223081.234375,223213.828125,215827.65625,16095.0,1.0,2
232055.015625,245553.0625,522250.6875,417869.8125,219942.609375,223101.890625,223308.0625,215913.75,16096.0,1.0,2
232024.625,245534.640625,522233.34375,417848.09375,219930.796875,223082.84375,223301.265625,215908.921875,16097.0,1.0,2
231888.90625,245437.71875,522171.46875,417778.875,219855.609375,223042.34375,223191.65625,215812.890625,16098.0,1.0,2
231845.09375,245402.140625,522152.875,417762.53125,219828.171875,223043.59375,223134.53125,215766.046875,16099.0,1.0,2
231944.328125,245464.8125,522191.125,417806.96875,219875.375,223071.21875,223192.734375,215819.609375,16100.0,1.0,2
232062.890625,245551.625,522237.71875,417856.59375,219941.09375,223096.265625,223296.890625,215912.40625,16101.0,1.0,2
232041.609375,245543.671875,522223.3125,417837.625,219936.703125,223082.40625,223307.265625,215916.15625,16102.0,1.0,2
231904.1875,245447.203125,522156.8125,417767.34375,219861.25,223042.078125,223203.546875,215819.6875,16103.0,1.0,2
231852.59375,245405.53125,522132.5625,417748.84375,219827.453125,223037.15625,223139.796875,215766.40625,16104.0,1.0,2
231941.65625,245461.859375,522166.90625,417795.96875,219872.6875,223067.921875,223196.75,215821.296875,16105.0,1.0,2
232052.421875,245542.0625,522209.03125,417845.59375,219935.90625,223091.609375,223293.84375,215908.734375,16106.0,1.0,2
232034.28125,245542.78125,522197.46875,417827.09375,219934.015625,223080.515625,223301.890625,215913.296875,16107.0,1.0,2
231891.578125,245441.921875,522128.28125,417751.71875,219857.140625,223037.875,223192.8125,215817.453125,16108.0,1.0,2
231841.875,245396.0625,522106.5625,417735.875,219826.828125,223035.375,223132.375,215768.28125,16109.0,1.0,2
231953.546875,245474.015625,522156.53125,417796.78125,219886.8125,223079.625,223206.59375,215836.953125,16110.0,1.0,2
232066.28125,245554.84375,522197.9375,417842.46875,219950.03125,223103.59375,223305.375,215923.21875,16111.0,1.0,2
232043.03125,245548.140625,522184.15625,417823.78125,219943.140625,223091.515625,223310.5625,215923.859375,16112.0,1.0,2
231913.75,245462.046875,522123.28125,417757.4375,219873.578125,223063.53125,223214.8125,215832.5625,16113.0,1.0,2
231854.296875,245410.453125,522090.65625,417730.25,219836.65625,223055.75,223149.640625,215772.75,16114.0,1.0,2
231950.328125,245472.0625,522126.03125,417774.34375,219880.5625,223083.203125,223203.015625,215823.265625,16115.0,1.0,2
232070.03125,245563.34375,522179.34375,417828.875,219951.453125,223117.53125,223311.640625,215920.453125,16116.0,1.0,2
232043.3125,245551.625,522163.0625,417804.375,219941.4375,223100.90625,223315.21875,215922.78125,16117.0,1.0,2
231916.078125,245469.734375,522108.34375,417741.0625,219876.359375,223072.03125,223220.359375,215840.171875,16118.0,1.0,2
231854.921875,245418.234375,522077.84375,417712.28125,219836.21875,223062.640625,223149.640625,215778.390625,16119.0,1.0,2
231938.515625,245465.4375,522106.03125,417745.4375,219872.328125,223079.625,223196.03125,215822.640625,16120.0,1.0,2
232057.875,245555.203125,522156.53125,417798.5625,219943.765625,223108.859375,223300.109375,215916.15625,16121.0,1.0,2
232040.4375,245555.296875,522144.71875,417780.78125,219944.03125,223095.09375,223309.40625,215923.40625,16122.0,1.0,2
231899.265625,245457.296875,522075.0,417708.625,219868.9375,223049.671875,223205.515625,215827.203125,16123.0,1.0,2
231844.28125,245409.5625,522043.875,417686.8125,219832.453125,223045.296875,223140.96875,215768.375,16124.0,1.0,2
231943.34375,245475.1875,522082.25,417736.25,219886.015625,223083.65625,223206.140625,215828.0,16125.0,1.0,2
232048.484375,245549.484375,522113.25,417770.125,219938.40625,223096.34375,223291.609375,215905.25,16126.0,1.0,2
232047.859375,245560.5625,522118.71875,417768.4375,219951.28125,223101.0,223317.90625,215934.046875,16127.0,1.0,2
231919.296875,245474.375,522063.375,417705.21875,219883.421875,223072.390625,223226.34375,215849.375,16128.0,1.0,2
231854.03125,245421.453125,522032.53125,417674.0,219840.0625,223058.265625,223157.859375,215784.46875,16129.0,1.0,2
231943.171875,245475.71875,522067.5,417716.03125,219881.625,223085.078125,223211.5,215835.25,16130.0,1.0,2
232056.625,245556.546875,522112.09375,417763.15625,219947.703125,223109.578125,223311.109375,215925.375,16131.0,1.0,2
232040.53125,245554.671875,522098.875,417744.75,219950.03125,223098.859375,223326.84375,215935.828125,16132.0,1.0,2
231913.3125,245469.640625,522037.90625,417678.75,219883.421875,223065.40625,223231.078125,215845.359375,16133.0,1.0,2
231843.75,245409.734375,521998.71875,417644.5,219834.875,223049.234375,223146.5,215771.765625,16134.0,1.0,2
231938.609375,245471.609375,522037.8125,417694.03125,219882.796875,223084.546875,223201.484375,215823.8125,16135.0,1.0,2
232057.25,245562.0,522088.59375,417746.4375,219952.0,223113.78125,223307.171875,215918.125,16136.0,1.0,2
232038.75,245558.875,522075.53125,417725.0625,219947.25,223102.15625,223318.171875,215926.984375,16137.0,1.0,2
231901.234375,245460.515625,522010.34375,417652.5625,219870.71875,223063.265625,223213.109375,215833.015625,16138.0,1.0,2
231846.875,245412.328125,521987.46875,417631.46875,219835.765625,223060.3125,223148.5625,215775.4375,16139.0,1.0,2
231936.546875,245466.25,522026.4375,417675.8125,219878.40625,223090.890625,223204.4375,215825.6875,16140.0,1.0,2
232048.140625,245547.25,522066.40625,417719.78125,219936.609375,223109.40625,223297.875,215905.171875,16141.0,1.0,2
232041.703125,245549.578125,522061.59375,417709.0625,219941.09375,223102.703125,223317.265625,215920.0,16142.0,1.0,2
231917.328125,245461.765625,522004.71875,417646.21875,219875.1875,223071.21875,223223.390625,215834.625,16143.0,1.0,2
231859.65625,245416.265625,521973.78125,417621.53125,219835.140625,223062.734375,223152.9375,215771.59375,16144.0,1.0,2
231941.734375,245470.984375,522005.15625,417662.84375,219876.359375,223088.921875,223202.296875,215820.046875,16145.0,1.0,2
232053.046875,245550.28125,522047.46875,417714.25,219937.953125,223111.015625,223298.671875,215911.515625,16146.0,1.0,2
232041.875,245549.65625,522034.9375,417698.34375,219933.484375,223096.96875,223308.25,215919.203125,16147.0,1.0,2
231908.21875,245458.203125,521968.875,417625.46875,219860.703125,223060.5,223205.328125,215823.984375,16148.0,1.0,2
231843.03125,245404.734375,521937.21875,417596.84375,219822.0,223052.53125,223130.234375,215760.234375,16149.0,1.0,2
231930.5625,245461.421875,521970.65625,417639.875,219864.28125,223081.0625,223179.859375,215806.640625,16150.0,1.0,2
232046.796875,245545.09375,522017.78125,417688.9375,219930.53125,223105.28125,223281.328125,215897.03125,16151.0,1.0,2
232051.171875,245562.265625,522026.625,417688.15625,219947.703125,223111.375,223313.609375,215924.5625,16152.0,1.0,2
231918.671875,245469.640625,521963.875,417619.375,219875.109375,223074.890625,223215.796875,215834.0,16153.0,1.0,2
231846.609375,245407.765625,521925.6875,417584.53125,219825.84375,223059.0625,223135.15625,215763.09375,16154.0,1.0,2
231937.71875,245465.625,521960.65625,417624.21875,219867.328125,223083.65625,223187.453125,215809.671875,16155.0,1.0,2
232062.703125,245556.359375,522011.53125,417678.75,219937.6875,223111.28125,223293.84375,215904.984375,16156.0,1.0,2
232057.25,245559.578125,522007.03125,417667.65625,219940.1875,223104.3125,223311.640625,215917.6875,16157.0,1.0,2
231926.09375,245469.640625,521949.03125,417602.5,219876.171875,223070.59375,223219.1875,215830.875,16158.0,1.0,2
231854.75,245409.734375,521908.59375,417567.34375,219831.734375,223055.484375,223143.375,215762.734375,16159.0,1.0,2
231950.234375,245473.84375,521945.0,417612.5,219877.15625,223086.25,223198.1875,215814.5,16160.0,1.0,2
232059.125,245552.34375,521980.59375,417652.46875,219932.40625,223099.921875,223289.828125,215896.765625,16161.0,1.0,2
232061.28125,245565.21875,521984.6875,417651.65625,219949.84375,223101.265625,223320.40625,215925.734375,16162.0,1.0,2
231938.78125,245483.765625,521925.875,417589.0,219890.921875,223071.21875,223231.078125,215847.59375,16163.0,1.0,2
231871.109375,245427.796875,521888.125,417555.71875,219846.84375,223060.40625,223153.484375,215777.84375,16164.0,1.0,2
231960.15625,245484.84375,521924.96875,417601.0625,219892.09375,223092.859375,223205.78125,215827.296875,16165.0,1.0,2
232072.1875,245566.734375,521967.71875,417648.1875,219954.5,223114.5,223302.25,215915.171875,16166.0,1.0,2
232063.953125,245571.828125,521961.8125,417633.78125,219954.859375,223104.484375,223321.921875,215929.125,16167.0,1.0,2
231930.921875,245479.921875,521898.59375,417560.03125,219884.21875,223069.609375,223225.8125,215834.265625,16168.0,1.0,2
231862.4375,245421.1875,521867.9375,417532.3125,219844.53125,223061.921875,223154.546875,215770.703125,16169.0,1.0,2
231938.515625,245465.703125,521891.09375,417567.0,219877.96875,223079.09375,223198.1875,215811.828125,16170.0,1.0,2
232068.25,245564.6875,521946.875,417628.25,219954.046875,223112.890625,223309.9375,215914.28125,16171.0,1.0,2
232070.75,245577.640625,521950.625,417630.375,219970.6875,223115.484375,223344.359375,215942.71875,16172.0,1.0,2
231939.765625,245489.671875,521890.71875,417563.78125,219903.796875,223080.796875,223254.515625,215858.9375,16173.0,1.0,2
231858.046875,245418.671875,521844.875,417519.6875,219848.109375,223056.390625,223165.109375,215779.546875,16174.0,1.0,2
231936.203125,245458.46875,521870.0,417552.59375,219877.78125,223078.015625,223200.59375,215813.171875,16175.0,1.0,2
232069.765625,245560.390625,521932.5625,417616.71875,219958.078125,223122.1875,223312.265625,215915.71875,16176.0,1.0,2
232065.75,245570.21875,521927.65625,417608.46875,219962.640625,223113.328125,223333.640625,215931.984375,16177.0,1.0,2
231935.484375,245482.0625,521867.9375,417542.75,219894.234375,223076.765625,223235.734375,215844.453125,16178.0,1.0,2
231855.8125,245416.71875,521825.5625,417501.1875,219843.359375,223057.015625,223150.796875,215767.03125,16179.0,1.0,2
231941.734375,245471.15625,521861.125,417545.1875,219885.125,223087.140625,223202.390625,215814.6875,16180.0,1.0,2
232061.0,245558.421875,521905.46875,417595.25,219946.359375,223109.671875,223301.453125,215903.375,16181.0,1.0,2
232051.0,245561.109375,521897.0,417579.25,219946.359375,223095.984375,223315.75,215916.875,16182.0,1.0,2
231920.90625,245470.53125,521834.65625,417510.75,219876.4375,223061.921875,223220.890625,215831.046875,16183.0,1.0,2
231860.640625,245420.921875,521811.59375,417489.21875,219842.03125,223061.390625,223153.390625,215771.328125,16184.0,1.0,2
231947.109375,245473.21875,521843.625,417529.0,219881.265625,223087.5,223198.265625,215815.3125,16185.0,1.0,2
232059.75,245554.125,521884.1875,417575.3125,219943.40625,223110.03125,223296.078125,215904.09375,16186.0,1.0,2
232062.34375,245567.359375,521884.75,417571.1875,219954.859375,223106.8125,223324.515625,215927.515625,16187.0,1.0,2
231931.90625,245476.890625,521824.65625,417508.96875,219888.0625,223075.15625,223232.515625,215844.1875,16188.0,1.0,2
231857.609375,245419.390625,521785.3125,417476.59375,219841.390625,223066.671875,223152.578125,215775.96875,16189.0,1.0,2
231938.15625,245467.234375,521808.03125,417511.5625,219875.1875,223087.3125,223187.984375,215811.734375,16190.0,1.0,2
232061.90625,245556.1875,521857.375,417566.28125,219945.109375,223110.75,223291.96875,215902.125,16191.0,1.0,2
232066.8125,245571.5625,521861.75,417565.28125,219959.59375,223113.515625,223322.015625,215928.234375,16192.0,1.0,2
231946.390625,245489.84375,521813.65625,417510.75,219903.53125,223089.90625,223240.03125,215854.921875,16193.0,1.0,2
231877.453125,245434.328125,521781.46875,417479.71875,219859.8125,223079.8125,223163.3125,215788.671875,16194.0,1.0,2
231963.734375,245489.9375,521818.125,417522.1875,219901.5625,223106.265625,223211.5,215833.46875,16195.0,1.0,2
232070.125,245562.453125,521850.59375,417559.3125,219953.78125,223112.4375,223299.21875,215907.671875,16196.0,1.0,2
232064.9375,245564.140625,521844.0625,417547.78125,219955.296875,223104.484375,223318.4375,215923.671875,16197.0,1.0,2
231949.34375,245489.578125,521796.03125,417490.71875,219899.25,223081.953125,223239.3125,215853.578125,16198.0,1.0,2
231883.359375,245437.359375,521765.65625,417462.46875,219859.453125,223078.109375,223168.046875,215790.28125,16199.0,1.0,2
231960.328125,245481.703125,521791.03125,417498.25,219893.078125,223100.640625,223206.59375,215824.15625,16200.0,1.0,2
232079.0625,245568.171875,521835.03125,417548.125,219955.84375,223122.453125,223301.625,215910.171875,16201.0,1.0,2
232073.53125,245573.359375,521830.09375,417535.15625,219959.59375,223112.796875,223321.921875,215928.5,16202.0,1.0,2
231941.46875,245481.078125,521770.46875,417465.4375,219892.71875,223080.796875,223231.625,215846.78125,16203.0,1.0,2
231861.265625,245411.703125,521732.125,417430.28125,219843.8125,223069.265625,223150.703125,215774.0,16204.0,1.0,2
231941.46875,245459.1875,521762.34375,417470.96875,219880.015625,223091.078125,223194.96875,215815.671875,16205.0,1.0,2
232061.1875,245547.875,521807.5,417518.4375,219945.109375,223114.671875,223295.640625,215903.28125,16206.0,1.0,2
232069.046875,245566.46875,521808.5625,417513.96875,219957.890625,223111.640625,223324.875,215927.421875,16207.0,1.0,2
231938.96875,245481.265625,521747.125,417445.5,219887.890625,223075.609375,223232.515625,215841.0625,16208.0,1.0,2
231855.8125,245409.921875,521705.84375,417408.65625,219835.5,223058.625,223149.90625,215765.515625,16209.0,1.0,2
231944.328125,245463.03125,521743.21875,417455.15625,219877.34375,223091.4375,223200.328125,215813.53125,16210.0,1.0,2
232067.53125,245553.421875,521791.9375,417507.625,219945.921875,223117.890625,223301.890625,215907.765625,16211.0,1.0,2
232076.828125,245575.40625,521797.03125,417506.1875,219961.109375,223116.109375,223331.40625,215935.03125,16212.0,1.0,2
231952.828125,245495.390625,521743.90625,417446.90625,219900.3125,223088.65625,223248.421875,215858.046875,16213.0,1.0,2
231860.109375,245413.5,521692.5,417397.3125,219840.765625,223063.625,223154.546875,215771.0625,16214.0,1.0,2
231947.734375,245467.671875,521731.84375,417438.96875,219885.65625,223099.125,223203.015625,215816.03125,16215.0,1.0,2
232068.078125,245559.3125,521779.6875,417486.78125,219951.8125,223123.171875,223305.296875,215909.1875,16216.0,1.0,2
232068.703125,245570.9375,521774.125,417477.9375,219961.109375,223116.46875,223329.96875,215930.203125,16217.0,1.0,2
231939.328125,245481.984375,521710.5625,417411.15625,219892.8125,223079.265625,223237.875,215845.265625,16218.0,1.0,2
231861.8125,245421.8125,521673.03125,417377.375,219844.703125,223063.625,223156.78125,215773.015625,16219.0,1.0,2
231937.984375,245467.671875,521703.875,417410.1875,219877.421875,223086.328125,223196.3125,215810.9375,16220.0,1.0,2
232065.03125,245560.203125,521759.3125,417467.40625,219950.46875,223120.75,223307.34375,215908.828125,16221.0,1.0,2
232080.765625,245583.453125,521765.375,417472.59375,219968.171875,223123.625,223346.15625,215942.265625,16222.0,1.0,2
231953.0,245498.703125,521706.1875,417410.71875,219903.984375,223088.03125,223257.015625,215865.46875,16223.0,1.0,2
231854.65625,245416.265625,521651.65625,417357.96875,219840.6875,223062.90625,223159.375,215775.078125,16224.0,1.0,2
231937.53125,245468.296875,521688.75,417399.90625,219882.796875,223102.875,223205.25,215814.328125,16225.0,1.0,2
232069.046875,245563.515625,521742.59375,417457.5625,219957.359375,223136.140625,223313.25,215912.046875,16226.0,1.0,2
232070.21875,245568.171875,521731.84375,417444.15625,219956.203125,223115.578125,223325.953125,215925.28125,16227.0,1.0,2
231947.1875,245484.21875,521676.25,417384.5,219890.21875,223086.15625,223236.625,215842.484375,16228.0,1.0,2
231873.078125,245427.625,521647.375,417355.625,219849.171875,223086.515625,223158.84375,215775.25,16229.0,1.0,2
231940.21875,245464.984375,521672.40625,417387.375,219880.46875,223108.421875,223191.296875,215807.265625,16230.0,1.0,2
232063.328125,245555.296875,521723.34375,417440.65625,219952.890625,223143.640625,223294.921875,215901.5,16231.0,1.0,2
232077.28125,245578.71875,521729.0,417438.34375,219968.71875,223143.5625,223329.078125,215931.90625,16232.0,1.0,2
231952.015625,245494.046875,521667.21875,417367.625,219897.453125,223102.078125,223233.859375,215845.078125,16233.0,1.0,2
231862.875,245419.578125,521619.375,417321.3125,219838.265625,223080.796875,223139.171875,215760.6875,16234.0,1.0,2
231948.796875,245473.671875,521658.96875,417370.3125,219883.78125,223117.453125,223188.265625,215807.796875,16235.0,1.0,2
232075.671875,245563.34375,521711.03125,417425.375,219954.3125,223149.90625,223293.578125,215902.578125,16236.0,1.0,2
232080.859375,245579.078125,521709.5,417417.40625,219965.859375,223144.8125,223323.359375,215929.578125,16237.0,1.0,2
231953.71875,245495.484375,521647.71875,417351.6875,219897.90625,223110.03125,223233.859375,215846.34375,16238.0,1.0,2
231863.421875,245420.921875,521598.71875,417308.53125,219839.15625,223094.828125,223140.25,215761.3125,16239.0,1.0,2
231944.328125,245472.953125,521637.71875,417355.09375,219882.875,223128.359375,223187.71875,215808.15625,16240.0,1.0,2
232056.171875,245551.1875,521677.40625,417397.75,219943.140625,223148.734375,223281.6875,215892.296875,16241.0,1.0,2
232069.6875,245575.3125,521682.40625,417398.8125,219964.0625,223151.328125,223323.984375,215926.71875,16242.0,1.0,2
231939.953125,245485.109375,521614.71875,417324.875,219891.640625,223105.109375,223226.34375,215836.59375,16243.0,1.0,2
231863.859375,245422.25,521579.5,417294.9375,219844.796875,223094.65625,223145.171875,215765.78125,16244.0,1.0,2
231940.125,245468.65625,521611.78125,417335.34375,219879.390625,223122.984375,223185.21875,215808.421875,16245.0,1.0,2
232053.3125,245547.875,521652.09375,417379.78125,219937.0625,223142.21875,223278.375,215894.96875,16246.0,1.0,2
232066.640625,245567.546875,521657.46875,417378.875,219953.515625,223144.71875,223313.875,215926.71875,16247.0,1.0,2
231940.3125,245484.578125,521595.3125,417312.90625,219887.359375,223110.46875,223224.5625,215844.90625,16248.0,1.0,2
231854.5625,245416.265625,521551.875,417274.1875,219834.421875,223097.25,223137.828125,215768.734375,16249.0,1.0,2
231935.390625,245460.875,521582.53125,417315.75,219867.5,223121.46875,223174.578125,215806.109375,16250.0,1.0,2
232067.0,245556.71875,521637.4375,417374.78125,219942.609375,223151.6875,223285.71875,215905.875,16251.0,1.0,2
232072.453125,245571.125,521632.875,417363.9375,219948.15625,223137.203125,223312.0,215924.484375,16252.0,1.0,2
231957.03125,245497.171875,521584.5,417307.09375,219893.171875,223112.703125,223236.265625,215853.578125,16253.0,1.0,2
231871.203125,245427.703125,521540.6875,417267.46875,219841.125,223093.578125,223147.21875,215776.6875,16254.0,1.0,2
231929.671875,245452.109375,521557.40625,417294.9375,219862.046875,223103.5,223168.40625,215797.4375,16255.0,1.0,2
232068.421875,245556.1875,521620.53125,417360.375,219944.3125,223146.5,223286.25,215903.203125,16256.0,1.0,2
232066.1875,245558.59375,521607.75,417340.96875,219944.125,223126.390625,223304.484375,215917.953125,16257.0,1.0,2
231952.203125,245483.5,521557.25,417284.46875,219886.09375,223094.46875,223220.4375,215844.546875,16258.0,1.0,2
231869.765625,245415.453125,521518.34375,417246.84375,219836.296875,223077.84375,223133.359375,215769.53125,16259.0,1.0,2
231935.5625,245451.21875,521538.5625,417275.96875,219862.40625,223095.28125,223161.078125,215796.265625,16260.0,1.0,2
232069.140625,245552.078125,521600.15625,417342.0625,219941.4375,223136.484375,223277.484375,215899.71875,16261.0,1.0,2
232088.8125,245578.0,521610.09375,417348.125,219960.3125,223140.0625,223322.1875,215936.546875,16262.0,1.0,2
231966.765625,245497.171875,521551.78125,417280.1875,219892.71875,223103.328125,223236.984375,215856.4375,16263.0,1.0,2
231875.3125,245428.78125,521508.34375,417236.625,219840.859375,223084.546875,223151.25,215779.28125,16264.0,1.0,2
231941.375,245466.328125,521529.625,417271.875,219870.90625,223103.328125,223178.953125,215809.765625,16265.0,1.0,2
232065.921875,245553.421875,521574.125,417324.4375,219936.609375,223128.984375,223278.109375,215899.359375,16266.0,1.0,2
232080.5,245571.203125,521575.125,417320.59375,219950.921875,223126.03125,223314.40625,215927.609375,16267.0,1.0,2
231958.640625,245488.5,521519.875,417260.0625,219889.59375,223093.046875,223231.625,215853.40625,16268.0,1.0,2
231861.1875,245413.046875,521466.3125,417207.40625,219823.96875,223066.125,223128.09375,215762.203125,16269.0,1.0,2
231931.28125,245451.3125,521496.53125,417243.6875,219860.796875,223091.25,223164.203125,215794.5625,16270.0,1.0,2
232053.859375,245533.5625,521544.53125,417297.875,219929.46875,223115.84375,223265.78125,215888.171875,16271.0,1.0,2
232077.09375,245559.046875,521553.3125,417299.40625,219945.921875,223117.09375,223303.5,215923.140625,16272.0,1.0,2
231954.4375,245480.375,521491.78125,417230.8125,219876.0,223080.796875,223212.40625,215839.625,16273.0,1.0,2
231871.734375,245419.578125,521458.96875,417200.34375,219832.375,223077.390625,223133.625,215770.78125,16274.0,1.0,2
231949.34375,245468.484375,521496.25,417244.875,219874.296875,223112.53125,223175.828125,215812.890625,16275.0,1.0,2
232068.703125,245549.921875,521541.25,417296.0,219939.5625,223137.390625,223278.109375,215901.234375,16276.0,1.0,2
232085.421875,245570.9375,521542.03125,417293.15625,219953.515625,223129.515625,223314.765625,215931.1875,16277.0,1.0,2
231964.71875,245494.859375,521480.34375,417226.4375,219889.40625,223092.234375,223227.234375,215850.890625,16278.0,1.0,2
231879.515625,245432.09375,521441.09375,417188.96875,219839.15625,223080.078125,223144.453125,215777.765625,16279.0,1.0,2
231948.71875,245473.21875,521471.6875,417230.28125,219874.921875,223108.78125,223183.703125,215813.796875,16280.0,1.0,2
232074.859375,245567.90625,521524.0625,417286.875,219946.984375,223144.8125,223291.078125,215908.828125,16281.0,1.0,2
232094.53125,245595.4375,521528.8125,417286.71875,219965.140625,223144.890625,223329.34375,215942.53125,16282.0,1.0,2
231980.1875,245525.703125,521476.40625,417232.0625,219912.203125,223118.4375,223251.375,215873.96875,16283.0,1.0,2
231883.796875,245452.65625,521430.28125,417190.6875,219861.421875,223099.390625,223163.046875,215796.984375,16284.0,1.0,2
231939.234375,245475.453125,521442.8125,417210.09375,219880.734375,223113.875,223180.484375,215812.453125,16285.0,1.0,2
232065.484375,245567.984375,521493.40625,417263.625,219949.671875,223138.09375,223283.921875,215907.046875,16286.0,1.0,2
232077.90625,245582.65625,521490.375,417258.625,219958.4375,223124.0625,223315.484375,215935.390625,16287.0,1.0,2
231956.484375,245497.265625,521430.90625,417196.125,219894.0625,223093.21875,223232.25,215857.15625,16288.0,1.0,2
231861.71875,245417.25,521378.59375,417144.1875,219832.09375,223068.90625,223135.953125,215768.8125,16289.0,1.0,2
231924.9375,245450.15625,521396.75,417170.9375,219853.828125,223081.6875,223157.765625,215787.15625,16290.0,1.0,2
232049.03125,245538.21875,521445.5625,417226.0,219922.40625,223107.25,223259.609375,215878.34375,16291.0,1.0,2
232077.09375,245567.359375,521458.8125,417235.125,219945.734375,223110.5625,223307.609375,215921.4375,16292.0,1.0,2
231965.34375,245492.703125,521407.65625,417177.28125,219886.546875,223078.734375,223230.8125,215850.0,16293.0,1.0,2
231871.015625,245418.859375,521361.25,417129.15625,219828.25,223054.59375,223135.515625,215766.5,16294.0,1.0,2
231942.0,245458.828125,521390.3125,417160.46875,219857.578125,223078.46875,223160.09375,215793.234375,16295.0,1.0,2
232061.453125,245546.796875,521441.28125,417211.34375,219928.296875,223107.25,223262.203125,215885.140625,16296.0,1.0,2
232078.890625,245569.515625,521446.71875,417213.03125,219948.421875,223105.203125,223303.421875,215922.25,16297.0,1.0,2
231964.1875,245497.09375,521393.0,417153.5625,219886.28125,223071.140625,223220.890625,215847.859375,16298.0,1.0,2
231873.875,245431.734375,521351.15625,417115.03125,219838.890625,223059.328125,223136.3125,215772.03125,16299.0,1.0,2
231939.234375,245466.59375,521377.53125,417149.46875,219870.640625,223089.734375,223170.5625,215802.4375,16300.0,1.0,2
232055.828125,245543.671875,521429.75,417200.875,219935.8125,223113.96875,223271.046875,215891.84375,16301.0,1.0,2
232073.34375,245562.53125,521433.84375,417197.3125,219949.671875,223102.421875,223308.953125,215924.203125,16302.0,1.0,2
231959.796875,245491.8125,521369.84375,417137.75,219890.03125,223073.90625,223233.5,215851.25,16303.0,1.0,2
231863.6875,245414.203125,521318.875,417091.0,219830.578125,223054.6875,223146.953125,215766.40625,16304.0,1.0,2
231925.734375,245448.265625,521337.5625,417116.75,219852.03125,223074.625,223173.0625,215789.828125,16305.0,1.0,2
232065.125,245553.765625,521403.28125,417178.53125,219930.53125,223116.375,223287.328125,215893.625,16306.0,1.0,2
232091.40625,245580.78125,521416.0625,417181.375,219955.296875,223118.96875,223332.734375,215932.171875,16307.0,1.0,2
231974.90625,245503.609375,521359.90625,417121.03125,219893.875,223090.984375,223249.953125,215858.5,16308.0,1.0,2
231873.25,245426.09375,521307.625,417073.125,219830.125,223062.734375,223148.921875,215769.796875,16309.0,1.0,2
231936.734375,245467.046875,521337.5625,417108.25,219857.9375,223081.6875,223171.625,215796.53125,16310.0,1.0,2
232060.109375,245555.734375,521388.96875,417166.4375,219930.890625,223112.171875,223271.671875,215887.828125,16311.0,1.0,2
232085.0625,245578.09375,521391.3125,417169.5,219951.546875,223106.453125,223310.5625,215922.15625,16312.0,1.0,2
231974.8125,245507.375,521339.625,417114.25,219894.0625,223075.609375,223230.734375,215852.59375,16313.0,1.0,2
231878.4375,245433.25,521296.71875,417071.5,219835.140625,223065.859375,223137.125,215769.796875,16314.0,1.0,2
231932.984375,245460.703125,521317.09375,417096.0,219855.171875,223088.125,223158.390625,215791.53125,16315.0,1.0,2
232050.640625,245536.0625,521359.65625,417144.90625,219915.875,223117.0,223257.1875,215881.65625,16316.0,1.0,2
232083.625,245567.546875,521371.71875,417154.5625,219937.515625,223122.546875,223306.359375,215925.546875,16317.0,1.0,2
231972.21875,245498.78125,521324.78125,417099.3125,219882.4375,223095.71875,223238.0625,215860.8125,16318.0,1.0,2
231872.359375,245424.765625,521276.21875,417047.375,219821.546875,223075.78125,223149.1875,215775.171875,16319.0,1.0,2
231925.46875,245450.59375,521288.125,417068.0,219839.25,223094.203125,223171.546875,215789.921875,16320.0,1.0,2
232044.46875,245534.453125,521331.3125,417116.46875,219903.0,223082.3125,223268.71875,215877.0,16321.0,1.0,2
232074.953125,245566.015625,521349.1875,417124.34375,219930.796875,223065.140625,223315.21875,215924.296875,16322.0,1.0,2
231964.8125,245493.953125,521301.90625,417068.0,219877.515625,223055.125,223241.1875,215859.203125,16323.0,1.0,2
231865.5625,245421.984375,521249.78125,417020.90625,219821.015625,223040.109375,223146.59375,215771.328125,16324.0,1.0,2
231922.609375,245454.171875,521278.28125,417054.34375,219849.625,223064.15625,223166.796875,215794.125,16325.0,1.0,2
232049.5625,245542.6875,521332.65625,417111.375,219918.734375,223098.3125,223259.96875,215884.421875,16326.0,1.0,2
232084.4375,245575.59375,521348.125,417122.5625,219950.5625,223101.171875,223308.953125,215930.734375,16327.0,1.0,2
231970.078125,245499.765625,521289.46875,417062.84375,219893.609375,223069.609375,223232.609375,215862.34375,16328.0,1.0,2
231873.703125,245424.9375,521238.78125,417020.0,219841.3125,223054.859375,223143.203125,215779.640625,16329.0,1.0,2
231924.296875,245448.8125,521247.09375,417044.15625,219862.140625,223068.0,223167.0625,215798.953125,16330.0,1.0,2
232044.109375,245528.5625,521280.0625,417090.8125,219921.78125,223082.9375,223267.921875,215884.421875,16331.0,1.0,2
232067.984375,245554.75,521281.6875,417085.625,219938.578125,223073.640625,223316.734375,215919.5625,16332.0,1.0,2
231968.921875,245495.125,521243.0625,417035.03125,219889.953125,223049.671875,223258.171875,215861.625,16333.0,1.0,2
231874.140625,245426.546875,521200.59375,416989.34375,219836.03125,223030.015625,223174.84375,215780.078125,16334.0,1.0,2
231926.453125,245451.40625,521218.3125,417012.84375,219853.109375,223041.0,223193.625,215795.640625,16335.0,1.0,2
232056.8125,245541.609375,521271.59375,417070.96875,219920.515625,223072.5625,223293.21875,215889.4375,16336.0,1.0,2
232091.671875,245577.203125,521290.0,417082.9375,219948.15625,223077.75,223343.46875,215938.875,16337.0,1.0,2
231974.375,245501.015625,521234.3125,417017.78125,219883.6875,223042.34375,223257.734375,215860.46875,16338.0,1.0,2
231884.078125,245435.84375,521197.1875,416981.90625,219835.9375,223031.890625,223165.453125,215785.0,16339.0,1.0,2
231945.765625,245469.375,521223.46875,417019.75,219867.6875,223056.65625,223187.09375,215813.34375,16340.0,1.0,2
232076.65625,245553.5,521278.1875,417080.8125,219943.671875,223096.34375,223288.125,215908.5625,16341.0,1.0,2
232110.71875,245584.625,521285.53125,417081.6875,219961.46875,223097.953125,223327.734375,215946.46875,16342.0,1.0,2
231996.90625,245510.953125,521233.3125,417018.5625,219901.65625,223068.28125,223248.078125,215876.109375,16343.0,1.0,2
231890.59375,245426.546875,521182.0,416967.96875,219841.046875,223044.3125,223149.359375,215789.921875,16344.0,1.0,2
231948.359375,245456.3125,521206.3125,416998.46875,219867.421875,223068.0,223176.28125,215812.890625,16345.0,1.0,2
232073.53125,245543.578125,521255.59375,417049.875,219932.0625,223098.140625,223281.0625,215901.59375,16346.0,1.0,2
232105.53125,245578.0,521264.15625,417050.5,219952.171875,223101.359375,223336.5,215943.4375,16347.0,1.0,2
231991.359375,245505.84375,521207.75,416986.21875,219891.640625,223065.140625,223266.765625,215875.75,16348.0,1.0,2
231887.203125,245430.484375,521158.03125,416939.0,219831.5625,223047.984375,223170.640625,215789.921875,16349.0,1.0,2
231947.109375,245464.71875,521188.0,416979.21875,219866.875,223080.078125,223204.4375,215820.9375,16350.0,1.0,2
232073.34375,245547.6875,521239.03125,417036.1875,219931.78125,223108.953125,223301.265625,215911.328125,16351.0,1.0,2
232111.96875,245585.609375,521254.59375,417045.40625,219958.4375,223116.28125,223347.140625,215955.5,16352.0,1.0,2
231991.265625,245502.90625,521195.78125,416981.03125,219900.578125,223078.375,223266.9375,215885.578125,16353.0,1.0,2
231890.421875,245431.90625,521145.875,416934.34375,219843.71875,223058.796875,223170.640625,215799.21875,16354.0,1.0,2
231941.203125,245462.40625,521163.9375,416961.1875,219869.828125,223083.65625,223191.125,215818.890625,16355.0,1.0,2
232069.234375,245553.6875,521217.3125,417019.8125,219944.75,223117.265625,223296.0,215915.71875,16356.0,1.0,2
232098.109375,245580.953125,521220.96875,417021.15625,219962.28125,223109.671875,223338.015625,215953.625,16357.0,1.0,2
231992.078125,245512.015625,521168.78125,416961.1875,219905.59375,223074.4375,223265.234375,215888.625,16358.0,1.0,2
231879.421875,245423.15625,521111.28125,416902.0625,219835.3125,223046.8125,223161.078125,215795.640625,16359.0,1.0,2
231933.515625,245448.71875,521132.375,416932.5625,219858.921875,223074.171875,223183.34375,215816.296875,16360.0,1.0,2
232062.34375,245535.09375,521184.9375,416991.5625,219930.265625,223108.15625,223288.9375,215909.640625,16361.0,1.0,2
232101.6875,245574.515625,521199.875,417000.5,219959.140625,223111.015625,223343.640625,215956.3125,16362.0,1.0,2
231992.96875,245505.9375,521147.9375,416939.8125,219904.15625,223082.765625,223271.859375,215890.59375,16363.0,1.0,2
231877.71875,245416.796875,521092.15625,416881.5,219836.65625,223056.203125,223168.046875,215794.296875,16364.0,1.0,2
231922.515625,245438.078125,521109.65625,416904.84375,219856.5,223074.171875,223182.265625,215808.703125,16365.0,1.0,2
232056.09375,245534.375,521166.09375,416970.375,219931.609375,223115.578125,223287.5,215908.109375,16366.0,1.0,2
232095.515625,245574.25,521175.125,416978.4375,219957.71875,223114.59375,223333.90625,215950.046875,16367.0,1.0,2
231986.625,245505.21875,521124.40625,416922.28125,219905.0625,223081.234375,223263.1875,215884.875,16368.0,1.0,2
231872.0,245414.390625,521065.15625,416864.25,219835.046875,223047.703125,223151.15625,215784.734375,16369.0,1.0,2
231920.1875,245441.65625,521087.5,416894.75,219860.078125,223070.515625,223166.71875,215802.890625,16370.0,1.0,2
232067.984375,245558.78125,521162.0625,416974.59375,219956.90625,223125.234375,223298.5,215920.0,16371.0,1.0,2
232104.375,245597.5,521171.71875,416981.46875,219984.890625,223127.109375,223353.75,215966.234375,16372.0,1.0,2
231987.609375,245519.34375,521110.03125,416915.75,219921.15625,223088.75,223276.5,215893.8125,16373.0,1.0,2
231888.359375,245445.6875,521065.3125,416873.09375,219864.90625,223076.59375,223189.234375,215815.21875,16374.0,1.0,2
231932.171875,245463.109375,521077.65625,416895.1875,219882.171875,223093.75,223202.109375,215828.28125,16375.0,1.0,2
232046.875,245537.40625,521116.46875,416939.1875,219939.03125,223115.75,223292.78125,215907.046875,16376.0,1.0,2
232089.4375,245576.125,521126.3125,416949.375,219964.6875,223121.03125,223345.609375,215952.015625,16377.0,1.0,2
231978.65625,245499.765625,521072.28125,416892.78125,219906.578125,223079.546875,223275.78125,215886.21875,16378.0,1.0,2
231865.390625,245410.453125,521013.71875,416836.1875,219835.9375,223049.953125,223170.5625,215788.578125,16379.0,1.0,2
231919.921875,245444.15625,521038.21875,416868.375,219863.03125,223075.421875,223189.328125,215808.25,16380.0,1.0,2
232051.890625,245536.703125,521096.875,416933.1875,219935.625,223107.796875,223290.984375,215905.4375,16381.0,1.0,2
232096.765625,245576.75,521114.0625,416947.40625,219964.0625,223106.359375,223343.46875,215955.234375,16382.0,1.0,2
231985.375,245505.578125,521061.3125,416884.90625,219907.015625,223068.453125,223268.640625,215888.625,16383.0,1.0,2
231877.71875,245426.453125,521015.15625,416835.75,219846.9375,223048.78125,223170.640625,215800.828125,16384.0,1.0,2
231921.171875,245444.515625,521025.28125,416854.15625,219859.015625,223061.921875,223176.1875,215806.375,16385.0,1.0,2
232054.65625,245532.046875,521078.03125,416916.03125,219930.890625,223095.71875,223276.859375,215899.0,16386.0,1.0,2
232097.390625,245574.421875,521089.8125,416925.9375,219958.515625,223096.171875,223329.96875,215946.203125,16387.0,1.0,2
231983.046875,245503.078125,521031.78125,416861.21875,219897.546875,223054.59375,223254.515625,215875.9375,16388.0,1.0,2
231872.890625,245419.75,520985.03125,416814.53125,219841.3125,223035.546875,223161.4375,215790.375,16389.0,1.0,2
231913.125,245439.328125,521000.0625,416837.0,219855.875,223051.28125,223171.09375,215800.65625,16390.0,1.0,2
232044.015625,245534.453125,521051.65625,416894.9375,219924.8125,223083.203125,223270.421875,215890.234375,16391.0,1.0,2
232079.515625,245570.9375,521062.8125,416905.03125,219953.96875,223090.09375,223323.078125,215938.515625,16392.0,1.0,2
231971.328125,245498.15625,521012.3125,416847.96875,219901.296875,223062.90625,223254.234375,215876.015625,16393.0,1.0,2
231867.890625,245419.75,520966.875,416800.96875,219844.265625,223046.015625,223158.3125,215791.0,16394.0,1.0,2
231913.3125,245443.09375,520981.28125,416820.34375,219858.296875,223063.796875,223167.34375,215798.40625,16395.0,1.0,2
232047.6875,245539.828125,521039.21875,416881.34375,219934.734375,223104.65625,223273.375,215896.5,16396.0,1.0,2
232082.546875,245569.15625,521044.3125,416884.09375,219958.875,223101.890625,223320.84375,215939.046875,16397.0,1.0,2
231989.84375,245512.109375,521009.34375,416843.15625,219921.15625,223090.8125,223269.078125,215891.671875,16398.0,1.0,2
231873.796875,245423.0625,520950.0625,416783.96875,219853.015625,223065.859375,223166.265625,215797.078125,16399.0,1.0,2
231917.78125,245444.078125,520964.1875,416806.6875,219872.25,223086.15625,223177.890625,215805.828125,16400.0,1.0,2
232052.15625,245540.265625,521023.21875,416870.0625,219948.15625,223125.765625,223282.765625,215901.953125,16401.0,1.0,2
232098.46875,245581.9375,521042.0625,416883.125,219979.0,223129.34375,223338.90625,215955.859375,16402.0,1.0,2
231999.140625,245520.421875,520994.59375,416827.78125,219924.8125,223094.375,223273.46875,215894.703125,16403.0,1.0,2
231875.578125,245423.328125,520930.5,416764.46875,219848.109375,223058.4375,223160.1875,215791.078125,16404.0,1.0,2
231920.734375,245443.796875,520944.1875,416790.125,219865.53125,223081.15625,223171.625,215801.453125,16405.0,1.0,2
232054.84375,245535.53125,520998.28125,416851.90625,219935.8125,223108.78125,223272.296875,215896.765625,16406.0,1.0,2
232093.734375,245568.171875,521004.71875,416855.84375,219956.015625,223096.703125,223319.515625,215936.71875,16407.0,1.0,2
231989.921875,245498.96875,520954.8125,416800.5,219905.6875,223068.90625,223250.9375,215873.0625,16408.0,1.0,2
231891.671875,245429.671875,520913.875,416760.28125,219856.59375,223058.625,223161.96875,215794.03125,16409.0,1.0,2
231932.265625,245449.4375,520925.9375,416779.9375,219870.90625,223071.40625,223171.453125,215802.609375,16410.0,1.0,2
232056.984375,245536.421875,520974.3125,416830.0,219935.1875,223095.546875,223268.375,215889.515625,16411.0,1.0,2
232105.890625,245580.6875,520996.3125,416849.5,219973.1875,223108.328125,223334.171875,215948.171875,16412.0,1.0,2
231987.78125,245501.828125,520938.28125,416782.8125,219909.25,223067.375,223258.71875,215878.515625,16413.0,1.0,2
231885.328125,245433.25,520895.09375,416736.59375,219853.5625,223053.515625,223169.84375,215796.625,16414.0,1.0,2
231927.078125,245457.21875,520911.09375,416763.125,219872.875,223073.453125,223183.875,215809.5,16415.0,1.0,2
232043.9375,245530.703125,520952.3125,416813.21875,219928.5625,223095.09375,223269.53125,215889.078125,16416.0,1.0,2
232110.890625,245596.0625,520986.46875,416844.40625,219977.75,223120.578125,223347.21875,215960.421875,16417.0,1.0,2
232004.5,245535.0,520933.0,416786.21875,219924.90625,223086.875,223282.84375,215899.359375,16418.0,1.0,2
231884.421875,245441.203125,520872.90625,416727.1875,219852.65625,223057.71875,223173.59375,215799.125,16419.0,1.0,2
231916.703125,245448.984375,520883.1875,416744.09375,219863.921875,223070.6875,223173.5,215802.96875,16420.0,1.0,2
232044.734375,245540.8125,520939.71875,416804.96875,219937.953125,223108.234375,223276.859375,215898.1875,16421.0,1.0,2
232098.640625,245590.515625,520964.03125,416823.5,219973.359375,223113.15625,223341.859375,215956.125,16422.0,1.0,2
231998.0625,245525.15625,520918.6875,416767.78125,219922.484375,223077.9375,223278.46875,215897.125,16423.0,1.0,2
231887.46875,245442.375,520871.75,416717.4375,219861.96875,223056.296875,223178.421875,215808.0625,16424.0,1.0,2
231921.796875,245452.203125,520883.5625,416736.75,219871.796875,223070.234375,223182.53125,215810.9375,16425.0,1.0,2
232053.859375,245545.546875,520935.875,416794.6875,219936.796875,223102.421875,223278.5625,215896.40625,16426.0,1.0,2
232105.359375,245589.984375,520955.53125,416810.53125,219970.6875,223110.46875,223339.453125,215949.953125,16427.0,1.0,2
232015.046875,245536.0625,520919.84375,416767.25,219934.375,223094.203125,223292.953125,215905.875,16428.0,1.0,2
231898.109375,245449.078125,520858.78125,416706.1875,219860.796875,223065.328125,223183.15625,215805.75,16429.0,1.0,2
231922.875,245453.1875,520858.0625,416716.65625,219863.21875,223071.671875,223176.8125,215801.28125,16430.0,1.0,2
232047.59375,245535.4375,520907.6875,416772.4375,219931.25,223100.90625,223274.171875,215889.15625,16431.0,1.0,2
232100.34375,245578.1875,520929.78125,416790.21875,219967.8125,223111.640625,223332.296875,215943.875,16432.0,1.0,2
232004.6875,245520.953125,520885.78125,416738.28125,219920.078125,223084.015625,223271.765625,215887.640625,16433.0,1.0,2
231881.75,245430.296875,520825.4375,416675.78125,219846.5,223052.453125,223163.3125,215789.390625,16434.0,1.0,2
231911.875,245441.65625,520835.90625,416691.53125,219857.671875,223069.171875,223163.765625,215792.6875,16435.0,1.0,2
232041.609375,245532.859375,520894.375,416755.8125,219935.359375,223110.5625,223270.609375,215889.515625,16436.0,1.0,2
232098.828125,245585.609375,520919.59375,416778.96875,219972.734375,223120.40625,223338.109375,215949.515625,16437.0,1.0,2
232002.09375,245522.21875,520869.25,416725.40625,219920.609375,223083.921875,223272.21875,215892.015625,16438.0,1.0,2
231875.40625,245421.625,520801.125,416659.6875,219842.46875,223047.4375,223154.734375,215785.890625,16439.0,1.0,2
231911.078125,245435.671875,520812.9375,416679.53125,219856.953125,223068.28125,223161.25,215792.15625,16440.0,1.0,2
232043.21875,245526.0625,520869.0625,416740.6875,219930.71875,223105.203125,223266.578125,215887.28125,16441.0,1.0,2
232089.625,245569.515625,520882.3125,416749.71875,219957.984375,223105.640625,223322.1875,215935.125,16442.0,1.0,2
231992.25,245509.15625,520838.0625,416697.15625,219909.796875,223078.28125,223263.453125,215881.734375,16443.0,1.0,2
231867.265625,245415.109375,520774.40625,416634.21875,219836.03125,223046.375,223153.65625,215781.421875,16444.0,1.0,2
231907.765625,245435.484375,520792.625,416660.0625,219854.984375,223069.171875,223159.109375,215791.078125,16445.0,1.0,2
232044.375,245533.921875,520853.25,416726.65625,219936.96875,223107.609375,223268.375,215893.28125,16446.0,1.0,2
232097.03125,245579.171875,520871.84375,416741.5,219974.609375,223111.546875,223333.8125,215951.203125,16447.0,1.0,2
231990.28125,245507.640625,520818.125,416682.5,219920.609375,223075.421875,223269.4375,215888.53125,16448.0,1.0,2
231881.5625,245425.390625,520771.25,416632.6875,219858.390625,223061.390625,223174.484375,215799.21875,16449.0,1.0,2
231915.28125,245441.5625,520783.875,416648.6875,219871.796875,223080.171875,223180.75,215804.671875,16450.0,1.0,2
232039.375,245528.203125,520829.90625,416701.8125,219934.65625,223107.34375,223273.015625,215890.859375,16451.0,1.0,2
232094.0,245575.140625,520849.3125,416718.625,219969.078125,223115.03125,223337.296875,215947.28125,16452.0,1.0,2
231992.4375,245510.140625,520800.59375,416661.84375,219919.1875,223080.875,223278.375,215892.015625,16453.0,1.0,2
231872.09375,245423.421875,520740.5,416602.90625,219848.640625,223055.125,223170.5625,215794.84375,16454.0,1.0,2
231901.421875,245433.609375,520748.09375,416617.21875,219857.40625,223069.4375,223170.90625,215793.234375,16455.0,1.0,2
232026.859375,245520.328125,520798.09375,416674.0,219924.90625,223099.65625,223269.0,215880.3125,16456.0,1.0,2
232092.03125,245574.96875,520825.8125,416697.5,219968.359375,223114.046875,223340.703125,215945.84375,16457.0,1.0,2
232000.203125,245515.953125,520780.65625,416645.3125,219920.078125,223084.1875,223280.609375,215889.4375,16458.0,1.0,2
231880.140625,245425.390625,520722.90625,416586.5625,219845.78125,223054.140625,223170.640625,215789.390625,16459.0,1.0,2
231905.34375,245431.375,520729.34375,416596.9375,219851.234375,223061.484375,223165.640625,215786.34375,16460.0,1.0,2
232034.453125,245519.890625,520781.1875,416656.125,219920.875,223095.546875,223261.03125,215874.234375,16461.0,1.0,2
232098.640625,245575.953125,520807.46875,416682.3125,219965.40625,223108.6875,223335.421875,215940.75,16462.0,1.0,2
232000.5625,245517.390625,520758.9375,416629.75,219918.640625,223080.171875,223276.0625,215887.734375,16463.0,1.0,2
231877.09375,245424.21875,520698.40625,416569.65625,219844.265625,223053.25,223165.375,215787.859375,16464.0,1.0,2
231904.09375,245428.609375,520707.25,416583.34375,219848.734375,223063.796875,223159.46875,215783.578125,16465.0,1.0,2
232040.171875,245521.234375,520767.15625,416648.96875,219924.546875,223101.09375,223262.46875,215877.8125,16466.0,1.0,2
232107.765625,245581.21875,520798.71875,416678.90625,219971.84375,223116.375,223335.15625,215947.09375,16467.0,1.0,2
232015.234375,245526.140625,520756.25,416628.3125,219930.09375,223089.546875,223280.890625,215897.203125,16468.0,1.0,2
231894.265625,245438.703125,520698.75,416567.5,219861.875,223063.625,223176.09375,215801.0,16469.0,1.0,2
231912.40625,245437.90625,520697.0625,416575.65625,219858.828125,223073.015625,223163.84375,215792.78125,16470.0,1.0,2
232030.4375,245518.09375,520739.4375,416623.65625,219917.84375,223100.734375,223252.453125,215873.6875,16471.0,1.0,2
232099.984375,245578.09375,520771.71875,416653.875,219965.671875,223113.609375,223327.828125,215941.640625,16472.0,1.0,2
232011.390625,245526.59375,520732.09375,416607.65625,219924.09375,223089.109375,223278.46875,215894.4375,16473.0,1.0,2
231888.09375,245436.296875,520673.1875,416544.34375,219854.625,223059.78125,223172.96875,215794.84375,16474.0,1.0,2
231914.203125,245440.21875,520682.75,416558.5625,219862.765625,223075.421875,223170.375,215793.046875,16475.0,1.0,2
232038.203125,245523.28125,520730.75,416611.5,219926.15625,223105.375,223260.765625,215875.484375,16476.0,1.0,2
232099.453125,245578.0,520753.46875,416632.5,219966.75,223110.5625,223328.0,215935.65625,16477.0,1.0,2
232003.703125,245517.828125,520706.4375,416579.59375,219917.296875,223076.140625,223269.171875,215881.390625,16478.0,1.0,2
231887.640625,245435.390625,520658.34375,416531.125,219853.5625,223060.40625,223168.140625,215793.671875,16479.0,1.0,2
231910.984375,245438.078125,520664.25,416541.84375,219858.03125,223070.0625,223161.890625,215788.765625,16480.0,1.0,2
232036.234375,245522.296875,520711.1875,416596.40625,219924.375,223099.390625,223257.28125,215873.25,16481.0,1.0,2
232099.09375,245579.171875,520733.09375,416616.5,219965.765625,223111.8125,223328.53125,215937.703125,16482.0,1.0,2
232006.296875,245523.015625,520689.09375,416565.375,219922.765625,223086.953125,223277.75,215889.609375,16483.0,1.0,2
231883.796875,245434.59375,520632.78125,416506.375,219854.8125,223064.25,223172.34375,215794.125,16484.0,1.0,2
231904.71875,245438.609375,520634.125,416514.40625,219855.703125,223076.765625,223160.453125,215785.265625,16485.0,1.0,2
232030.609375,245524.09375,520681.78125,416570.28125,219921.859375,223106.625,223254.515625,215872.359375,16486.0,1.0,2
232089.265625,245572.015625,520699.65625,416590.59375,219959.328125,223115.03125,223321.46875,215931.1875,16487.0,1.0,2
232005.390625,245522.75,520663.53125,416550.625,219925.0,223095.90625,223279.984375,215891.390625,16488.0,1.0,2
231881.65625,245429.40625,520603.34375,416491.78125,219852.9375,223066.21875,223170.828125,215792.25,16489.0,1.0,2
231903.734375,245430.390625,520609.96875,416504.9375,219857.9375,223080.4375,223162.15625,215786.796875,16490.0,1.0,2
232032.9375,245518.1875,520663.53125,416560.71875,219927.140625,223112.359375,223257.109375,215873.0625,16491.0,1.0,2
232099.71875,245576.484375,520691.25,416586.375,219971.21875,223122.8125,223332.03125,215938.78125,16492.0,1.0,2
232016.125,245524.0,520651.375,416541.6875,219930.0,223096.703125,223281.78125,215892.5625,16493.0,1.0,2
231896.765625,245439.515625,520598.4375,416487.6875,219864.203125,223073.1875,223178.15625,215799.390625,16494.0,1.0,2
231918.21875,245447.203125,520604.34375,416499.84375,219869.5625,223085.984375,223170.828125,215795.28125,16495.0,1.0,2
232029.625,245521.140625,520643.6875,416544.90625,219924.546875,223108.953125,223254.15625,215869.578125,16496.0,1.0,2
232094.453125,245574.609375,520668.53125,416569.75,219964.515625,223120.671875,223326.390625,215933.6875,16497.0,1.0,2
232017.90625,245532.21875,520632.59375,416529.34375,219927.859375,223100.375,223281.515625,215888.796875,16498.0,1.0,2
231893.375,245437.28125,520572.40625,416469.4375,219854.265625,223066.484375,223171.453125,215788.84375,16499.0,1.0,2
231915.71875,245443.359375,520576.96875,416482.3125,219858.921875,223078.46875,223161.4375,215782.140625,16500.0,1.0,2
232035.53125,245522.390625,520622.125,416533.625,219919.984375,223104.3125,223251.109375,215863.328125,16501.0,1.0,2
232095.25,245566.015625,520641.8125,416550.625,219955.75,223108.6875,223316.203125,215922.78125,16502.0,1.0,2
232023.640625,245528.46875,520615.6875,416516.1875,219930.453125,223099.921875,223282.5,215894.703125,16503.0,1.0,2
231900.796875,245441.75,520555.875,416452.90625,219859.71875,223072.484375,223173.234375,215796.53125,16504.0,1.0,2
231913.03125,245437.1875,520551.5,416455.65625,219856.5,223077.296875,223155.53125,215781.421875,16505.0,1.0,2
232036.0625,245517.46875,520596.90625,416508.5,219918.734375,223107.25,223246.015625,215863.953125,16506.0,1.0,2
232108.125,245581.84375,520627.84375,416536.3125,219968.265625,223125.578125,223330.765625,215938.0625,16507.0,1.0,2
232020.328125,245527.484375,520586.71875,416487.3125,219924.375,223098.3125,223280.4375,215890.140625,16508.0,1.0,2
231889.96875,245429.140625,520523.0625,416423.9375,219847.296875,223064.703125,223165.90625,215786.609375,16509.0,1.0,2
231909.46875,245431.015625,520529.78125,416440.03125,219852.578125,223075.25,223157.6875,215782.046875,16510.0,1.0,2
232048.671875,245531.6875,520591.90625,416508.5,219931.703125,223120.75,223263.359375,215878.4375,16511.0,1.0,2
232106.609375,245578.1875,520608.28125,416524.15625,219968.71875,223125.046875,223329.34375,215935.65625,16512.0,1.0,2
232016.296875,245522.21875,520563.03125,416473.09375,219922.484375,223094.375,223280.890625,215889.78125,16513.0,1.0,2
231892.921875,245437.71875,520508.59375,416415.78125,219855.4375,223072.203125,223177.34375,215795.46875,16514.0,1.0,2
231911.25,245443.71875,520515.1875,416427.5,219859.1875,223083.921875,223165.734375,215787.234375,16515.0,1.0,2
232031.0625,245520.328125,520558.65625,416480.875,219919.890625,223109.21875,223249.140625,215867.4375,16516.0,1.0,2
232105.078125,245580.78125,520589.5,416512.4375,219968.53125,223128.0,223327.734375,215937.171875,16517.0,1.0,2
232021.484375,245531.953125,520546.5,416459.78125,219926.328125,223102.25,223281.234375,215892.734375,16518.0,1.0,2
231900.078125,245443.0,520494.71875,416402.03125,219860.796875,223080.796875,223180.65625,215800.203125,16519.0,1.0,2
231910.890625,245437.453125,520493.125,416405.6875,219854.8125,223082.671875,223159.640625,215780.171875,16520.0,1.0,2
232037.40625,245521.9375,520549.25,416468.375,219926.515625,223119.0625,223255.84375,215870.828125,16521.0,1.0,2
232108.84375,245578.453125,520573.9375,416494.75,219971.390625,223130.0625,223332.03125,215939.140625,16522.0,1.0,2
232022.296875,245523.640625,520525.03125,416440.90625,219922.125,223092.421875,223275.875,215888.453125,16523.0,1.0,2
231900.96875,245436.734375,520471.21875,416386.03125,219854.625,223069.609375,223171.8125,215795.46875,16524.0,1.0,2
231915.359375,245436.03125,520474.78125,416399.25,219857.671875,223086.421875,223158.390625,215786.34375,16525.0,1.0,2
232038.75,245513.890625,520522.0,416455.5,219921.0625,223116.015625,223242.796875,215866.8125,16526.0,1.0,2
232113.484375,245574.515625,520552.9375,416485.625,219969.703125,223131.03125,223318.609375,215937.625,16527.0,1.0,2
232032.390625,245529.359375,520515.03125,416441.625,219931.875,223103.328125,223273.734375,215896.578125,16528.0,1.0,2
231916.4375,245448.0,520462.625,416388.25,219868.84375,223082.484375,223171.890625,215803.6875,16529.0,1.0,2
231929.578125,245448.625,520461.28125,416396.65625,219868.125,223090.453125,223157.765625,215790.28125,16530.0,1.0,2
232060.109375,245539.46875,520515.65625,416457.71875,219935.71875,223127.375,223252.0,215875.75,16531.0,1.0,2
232129.3125,245595.25,520540.3125,416480.4375,219976.578125,223139.4375,223324.6875,215940.65625,16532.0,1.0,2
232048.21875,245548.859375,520502.25,416436.34375,219939.75,223107.796875,223286.25,215903.828125,16533.0,1.0,2
231913.578125,245447.109375,520431.875,416368.40625,219859.640625,223065.765625,223170.46875,215799.484375,16534.0,1.0,2
231921.078125,245440.765625,520426.5,416371.34375,219851.234375,223072.484375,223150.171875,215779.640625,16535.0,1.0,2
232042.046875,245522.65625,520474.0625,416424.03125,219914.625,223103.953125,223243.328125,215861.796875,16536.0,1.0,2
232118.234375,245583.28125,520506.34375,416452.4375,219962.984375,223117.71875,223323.265625,215934.765625,16537.0,1.0,2
232040.4375,245536.421875,520473.0,416410.15625,219928.75,223097.875,223284.453125,215897.828125,16538.0,1.0,2
231921.0,245453.28125,520417.75,416356.34375,219862.859375,223074.625,223182.71875,215806.375,16539.0,1.0,2
231933.0625,245453.375,520418.71875,416366.09375,219865.453125,223083.828125,223166.359375,215794.5625,16540.0,1.0,2
232050.375,245530.171875,520464.25,416417.3125,219928.296875,223110.828125,223252.71875,215874.328125,16541.0,1.0,2
232117.328125,245581.21875,520488.5625,416438.78125,219966.125,223118.34375,223324.515625,215937.703125,16542.0,1.0,2
232046.96875,245543.140625,520458.53125,416403.71875,219934.828125,223102.875,223292.859375,215906.328125,16543.0,1.0,2
231909.640625,245442.640625,520390.03125,416330.40625,219851.234375,223063.625,223174.484375,215798.40625,16544.0,1.0,2
231911.421875,245431.734375,520385.65625,416331.3125,219843.09375,223071.5,223151.875,215776.859375,16545.0,1.0,2
232049.03125,245530.890625,520449.9375,416403.1875,219924.375,223118.4375,223258.078125,215875.65625,16546.0,1.0,2
232111.796875,245580.328125,520463.25,416413.71875,219955.296875,223112.265625,223319.0625,215928.953125,16547.0,1.0,2
232033.109375,245535.09375,520426.25,416370.46875,219920.4375,223091.15625,223276.765625,215892.5625,16548.0,1.0,2
231910.171875,245449.078125,520372.59375,416315.21875,219853.921875,223074.265625,223175.734375,215801.453125,16549.0,1.0,2
231917.328125,245443.984375,520372.34375,416322.4375,219849.796875,223079.71875,223156.515625,215785.1875,16550.0,1.0,2
232034.625,245518.09375,520420.4375,416374.3125,219913.28125,223107.34375,223242.34375,215865.46875,16551.0,1.0,2
232108.578125,245575.859375,520445.71875,416396.84375,219956.203125,223117.1875,223316.375,215929.84375,16552.0,1.0,2
232033.015625,245534.640625,520408.71875,416350.875,219920.078125,223091.34375,223275.4375,215890.140625,16553.0,1.0,2
231910.453125,245446.125,520356.78125,416296.15625,219856.953125,223069.890625,223173.5,215800.5625,16554.0,1.0,2
231907.40625,245427.890625,520349.34375,416295.53125,219845.15625,223069.796875,223147.125,215778.296875,16555.0,1.0,2
232034.8125,245514.796875,520403.875,416351.59375,219914.71875,223107.875,223240.5625,215864.484375,16556.0,1.0,2
232113.75,245578.625,520431.4375,416377.96875,219962.28125,223121.296875,223317.0,215933.78125,16557.0,1.0,2
232040.265625,245533.5625,520396.90625,416337.5625,219927.9375,223099.484375,223279.984375,215899.359375,16558.0,1.0,2
231909.734375,245437.71875,520334.6875,416273.375,219853.375,223068.1875,223171.359375,215799.75,16559.0,1.0,2
231917.421875,245436.46875,520336.65625,416279.71875,219852.03125,223080.609375,223154.28125,215786.609375,16560.0,1.0,2
232038.296875,245515.6875,520388.6875,416339.15625,219918.46875,223115.65625,223248.25,215868.953125,16561.0,1.0,2
232120.734375,245583.546875,520422.5,416371.4375,219970.6875,223132.46875,223333.1875,215942.984375,16562.0,1.0,2
232049.109375,245546.078125,520388.78125,416332.03125,219937.953125,223108.6875,223298.046875,215908.296875,16563.0,1.0,2
231912.328125,245445.765625,520323.875,416267.09375,219861.15625,223079.625,223186.828125,215807.890625,16564.0,1.0,2
231925.109375,245452.46875,520331.1875,416275.875,219866.875,223099.296875,223178.515625,215801.28125,16565.0,1.0,2
232056.0,245547.0625,520388.6875,416339.53125,219941.796875,223145.34375,223279.8125,215892.65625,16566.0,1.0,2
232121.625,245595.703125,520406.03125,416359.28125,219977.203125,223146.234375,223347.3125,215951.484375,16567.0,1.0,2
232037.40625,245545.453125,520358.8125,416306.96875,219932.0625,223108.421875,223299.921875,215906.328125,16568.0,1.0,2
231904.8125,245452.921875,520297.125,416241.625,219858.65625,223077.21875,223190.578125,215807.71875,16569.0,1.0,2
231894.890625,245426.8125,520283.09375,416238.75,219843.90625,223077.21875,223156.78125,215778.03125,16570.0,1.0,2
232021.21875,245510.5,520332.53125,416296.4375,219906.84375,223106.984375,223243.515625,215857.328125,16571.0,1.0,2
232099.0,245572.8125,520360.53125,416326.90625,219949.578125,223114.5,223318.703125,215923.859375,16572.0,1.0,2
232022.390625,245526.859375,520325.03125,416285.4375,219914.890625,223087.5,223278.375,215888.0,16573.0,1.0,2
231892.5625,245430.75,520264.5,416219.09375,219839.96875,223050.21875,223163.9375,215787.421875,16574.0,1.0,2
231890.6875,245417.0625,520259.21875,416218.28125,219826.5625,223057.015625,223131.578125,215759.078125,16575.0,1.0,2
232020.328125,245505.21875,520316.28125,416282.21875,219896.109375,223099.65625,223223.84375,215842.140625,16576.0,1.0,2
232108.84375,245576.21875,520350.34375,416316.625,219947.171875,223113.78125,223309.859375,215916.78125,16577.0,1.0,2
232039.734375,245539.921875,520320.65625,416280.96875,219917.578125,223092.0625,223278.375,215889.078125,16578.0,1.0,2
231910.796875,245448.265625,520267.375,416222.59375,219853.46875,223067.109375,223176.90625,215797.25,16579.0,1.0,2
231913.578125,245441.65625,520263.25,416222.84375,219849.890625,223077.296875,223153.484375,215777.3125,16580.0,1.0,2
232036.15625,245530.890625,520313.3125,416278.8125,219915.78125,223117.71875,223242.34375,215859.125,16581.0,1.0,2
232104.734375,245583.8125,520334.15625,416299.65625,219955.578125,223122.984375,223317.625,215925.28125,16582.0,1.0,2
232040.984375,245546.0,520308.40625,416268.4375,219931.703125,223107.171875,223294.828125,215899.890625,16583.0,1.0,2
231908.84375,245448.1875,520249.21875,416206.84375,219857.3125,223075.25,223187.90625,215802.34375,16584.0,1.0,2
231906.78125,245435.671875,520240.1875,416206.5,219843.984375,223082.3125,223157.953125,215778.65625,16585.0,1.0,2
232033.734375,245523.734375,520292.03125,416270.5,219912.921875,223125.765625,223249.40625,215863.140625,16586.0,1.0,2
232112.859375,245582.296875,520320.75,416299.375,219963.53125,223142.125,223333.546875,215938.328125,16587.0,1.0,2
232044.203125,245544.46875,520282.75,416254.15625,219927.5,223114.59375,223300.109375,215902.65625,16588.0,1.0,2
231912.140625,245455.25,520221.84375,416190.21875,219855.53125,223086.15625,223192.734375,215803.234375,16589.0,1.0,2
231900.4375,245432.53125,520211.21875,416187.1875,219841.578125,223089.375,223160.453125,215776.0625,16590.0,1.0,2
232033.296875,245524.71875,520265.21875,416250.125,219910.78125,223127.734375,223254.859375,215861.890625,16591.0,1.0,2
232114.828125,245590.703125,520292.5625,416279.4375,219955.578125,223139.171875,223334.4375,215931.359375,16592.0,1.0,2
232046.25,245553.6875,520263.625,416245.5625,219927.671875,223117.984375,223304.84375,215904.984375,16593.0,1.0,2
231911.078125,245458.46875,520199.59375,416179.9375,219852.75,223081.234375,223189.515625,215803.78125,16594.0,1.0,2
231898.375,245435.125,520186.8125,416172.96875,219837.015625,223077.9375,223147.21875,215770.25,16595.0,1.0,2
232027.21875,245523.109375,520251.09375,416242.15625,219912.921875,223121.65625,223238.78125,215859.84375,16596.0,1.0,2
232100.609375,245577.203125,520277.1875,416267.5625,219955.75,223132.921875,223310.125,215927.515625,16597.0,1.0,2
232032.578125,245538.84375,520239.375,416224.28125,219919.1875,223111.453125,223274.359375,215893.28125,16598.0,1.0,2
231916.609375,245463.65625,520193.875,416175.71875,219860.625,223103.671875,223183.609375,215811.640625,16599.0,1.0,2
231906.328125,245442.46875,520183.6875,416169.46875,219844.796875,223111.640625,223154.828125,215783.84375,16600.0,1.0,2
232019.875,245516.40625,520227.84375,416218.75,219905.0625,223138.90625,223242.96875,215862.34375,16601.0,1.0,2
232104.015625,245581.671875,520254.75,416248.875,219956.546875,223154.828125,223330.6875,215937.984375,16602.0,1.0,2
232043.9375,245552.515625,520222.9375,416210.96875,219931.34375,223137.828125,223310.296875,215914.546875,16603.0,1.0,2
231922.6875,245469.46875,520168.84375,416152.40625,219864.28125,223114.9375,223212.3125,215822.203125,16604.0,1.0,2
231914.46875,245450.421875,520160.96875,416148.90625,219849.625,223116.90625,223176.8125,215787.78125,16605.0,1.0,2
232029.796875,245524.984375,520208.625,416206.125,219911.671875,223147.9375,223258.890625,215862.25,16606.0,1.0,2
232111.609375,245588.734375,520238.9375,416237.6875,219959.328125,223151.875,223335.59375,215934.046875,16607.0,1.0,2
232051.0,245556.8125,520213.09375,416203.71875,219934.015625,223129.515625,223301.8125,215911.515625,16608.0,1.0,2
231921.0,245462.9375,520152.03125,416139.53125,219861.0625,223099.03125,223183.34375,215807.09375,16609.0,1.0,2
231916.4375,245450.15625,520147.1875,416139.96875,219855.796875,223106.09375,223154.90625,215784.28125,16610.0,1.0,2
232030.25,245524.359375,520189.3125,416189.78125,219914.625,223127.546875,223235.28125,215857.78125,16611.0,1.0,2
232124.84375,245600.796875,520226.15625,416227.59375,219976.140625,223149.1875,223330.5,215943.15625,16612.0,1.0,2
232055.015625,245562.796875,520183.15625,416180.21875,219944.84375,223119.328125,223299.125,215911.875,16613.0,1.0,2
231915.28125,245459.1875,520109.03125,416104.375,219865.359375,223077.390625,223190.140625,215809.234375,16614.0,1.0,2
231908.484375,245448.625,520101.96875,416101.96875,219853.921875,223083.734375,223168.953125,215783.84375,16615.0,1.0,2
232027.390625,245528.734375,520149.625,416158.03125,219915.78125,223115.578125,223262.5625,215864.578125,16616.0,1.0,2
232117.421875,245598.203125,520182.78125,416190.21875,219968.359375,223129.703125,223355.890625,215944.6875,16617.0,1.0,2
232058.59375,245567.546875,520154.25,416149.53125,219938.578125,223109.578125,223328.09375,215917.328125,16618.0,1.0,2
231930.46875,245481.171875,520099.625,416089.625,219868.046875,223084.28125,223224.203125,215825.6875,16619.0,1.0,2
231916.171875,245459.53125,520090.59375,416082.65625,219850.34375,223080.796875,223185.125,215793.671875,16620.0,1.0,2
232029.53125,245531.0625,520138.0,416134.59375,219907.015625,223107.609375,223260.671875,215866.28125,16621.0,1.0,2
232118.234375,245598.03125,520177.0625,416168.9375,219958.96875,223122.1875,223342.125,215943.96875,16622.0,1.0,2
232058.140625,245563.15625,520148.71875,416135.0625,219934.5625,223102.25,223312.265625,215918.390625,16623.0,1.0,2
231920.734375,245463.375,520082.65625,416068.1875,219860.890625,223070.78125,223199.34375,215817.28125,16624.0,1.0,2
231904.453125,245438.796875,520069.0625,416061.28125,219844.609375,223072.296875,223156.96875,215783.578125,16625.0,1.0,2
232021.578125,245517.203125,520116.90625,416116.46875,219903.265625,223104.484375,223235.640625,215855.90625,16626.0,1.0,2
232124.125,245603.75,520168.84375,416165.09375,219971.484375,223137.828125,223343.109375,215953.890625,16627.0,1.0,2
232045.890625,245554.40625,520122.625,416112.6875,219927.40625,223102.78125,223308.25,215920.640625,16628.0,1.0,2
231912.765625,245457.84375,520058.875,416047.625,219850.96875,223069.703125,223199.703125,215818.984375,16629.0,1.0,2
231905.0,245447.734375,520051.90625,416044.65625,219840.859375,223079.0,223173.421875,215792.328125,16630.0,1.0,2
232021.84375,245525.078125,520102.40625,416102.25,219902.546875,223117.1875,223261.9375,215871.1875,16631.0,1.0,2
232106.78125,245584.96875,520134.15625,416134.59375,219950.921875,223128.625,223343.828125,215943.25,16632.0,1.0,2
232048.84375,245555.46875,520106.0,416097.0625,219926.78125,223110.46875,223320.140625,215919.46875,16633.0,1.0,2
231925.5625,245471.875,520054.40625,416039.375,219865.1875,223090.890625,223219.109375,215833.375,16634.0,1.0,2
231909.46875,245450.5,520040.71875,416032.40625,219849.359375,223094.46875,223177.796875,215800.375,16635.0,1.0,2
232025.6875,245530.609375,520087.125,416087.125,219910.59375,223129.703125,223256.65625,215875.125,16636.0,1.0,2
232106.25,245591.0625,520117.25,416118.6875,219959.6875,223141.765625,223337.125,215947.28125,16637.0,1.0,2
232042.859375,245551.53125,520083.1875,416079.34375,219932.6875,223116.828125,223307.890625,215920.453125,16638.0,1.0,2
231919.125,245464.09375,520023.71875,416018.28125,219867.59375,223090.984375,223205.6875,215830.15625,16639.0,1.0,2
231900.515625,245440.5,520007.0,416007.375,219846.671875,223090.359375,223162.515625,215790.453125,16640.0,1.0,2
232017.828125,245518.640625,520054.75,416063.875,219909.796875,223126.65625,223249.5,215865.828125,16641.0,1.0,2
232115.90625,245598.125,520097.9375,416105.8125,219971.9375,223153.03125,223350.4375,215953.71875,16642.0,1.0,2
232061.984375,245569.859375,520072.71875,416075.40625,219948.859375,223141.046875,223334.078125,215939.234375,16643.0,1.0,2
231918.84375,245459.71875,519997.90625,416001.3125,219864.109375,223098.765625,223216.953125,215828.546875,16644.0,1.0,2
231906.78125,245444.34375,519989.40625,415998.625,219848.015625,223102.15625,223181.375,215796.09375,16645.0,1.0,2
232019.96875,245520.609375,520034.625,416052.96875,219909.34375,223136.671875,223263.265625,215870.828125,16646.0,1.0,2
232106.609375,245584.796875,520061.71875,416084.34375,219958.4375,223148.5625,223343.734375,215943.796875,16647.0,1.0,2
232049.03125,245554.046875,520036.0625,416051.1875,219934.921875,223127.46875,223319.421875,215924.390625,16648.0,1.0,2
231928.328125,245473.75,519990.1875,416000.84375,219877.96875,223108.78125,223224.296875,215839.265625,16649.0,1.0,2
231905.703125,245444.875,519976.25,415993.0625,219860.625,223110.03125,223183.515625,215802.890625,16650.0,1.0,2
232017.828125,245513.890625,520018.53125,416041.71875,219913.015625,223135.59375,223253.609375,215867.890625,16651.0,1.0,2
232103.03125,245576.390625,520045.46875,416067.46875,219957.890625,223139.984375,223330.953125,215937.796875,16652.0,1.0,2
232043.65625,245540.984375,520010.9375,416027.0625,219927.59375,223112.078125,223303.59375,215910.34375,16653.0,1.0,2
231914.375,245449.703125,519950.875,415966.625,219859.09375,223086.328125,223203.71875,215817.640625,16654.0,1.0,2
231909.015625,245441.65625,519951.125,415974.03125,219854.359375,223102.609375,223178.875,215796.984375,16655.0,1.0,2
232023.90625,245520.78125,520000.9375,416031.53125,219915.0625,223133.09375,223262.015625,215875.65625,16656.0,1.0,2
232116.34375,245591.5,520038.9375,416065.75,219967.015625,223147.84375,223348.125,215953.796875,16657.0,1.0,2
232053.3125,245556.8125,520001.125,416019.375,219930.171875,223116.375,223312.984375,215923.140625,16658.0,1.0,2
231909.015625,245451.9375,519929.84375,415946.125,219850.34375,223075.96875,223195.953125,215819.6875,16659.0,1.0,2
231891.21875,245430.125,519920.8125,415944.625,219838.625,223083.921875,223160.0,215787.15625,16660.0,1.0,2
232006.734375,245507.375,519961.59375,415993.0625,219891.203125,223109.21875,223231.0,215854.03125,16661.0,1.0,2
232104.375,245581.671875,520000.125,416032.15625,219948.6875,223125.9375,223321.03125,215939.671875,16662.0,1.0,2
232051.625,245553.234375,519977.0625,416000.21875,219927.59375,223108.6875,223299.296875,215922.6875,16663.0,1.0,2
231915.1875,245451.765625,519915.90625,415936.03125,219854.71875,223071.671875,223190.5,215828.0,16664.0,1.0,2
231890.328125,245422.515625,519901.59375,415927.1875,219835.9375,223071.40625,223149.640625,215788.765625,16665.0,1.0,2
232018.453125,245512.5625,519956.9375,415990.9375,219906.03125,223115.578125,223240.203125,215869.40625,16666.0,1.0,2
232104.90625,245576.578125,519984.21875,416018.1875,219951.546875,223126.203125,223320.9375,215940.390625,16667.0,1.0,2
232052.78125,245545.1875,519955.96875,415982.53125,219925.171875,223102.25,223299.21875,215918.390625,16668.0,1.0,2
231921.265625,245454.171875,519893.375,415916.4375,219850.25,223069.4375,223190.140625,215818.53125,16669.0,1.0,2
231907.3125,245439.953125,519890.15625,415918.78125,219842.203125,223081.5,223162.328125,215793.859375,16670.0,1.0,2
232014.78125,245511.03125,519930.46875,415966.6875,219896.734375,223107.609375,223237.515625,215858.765625,16671.0,1.0,2
232117.421875,245592.390625,519973.46875,416013.1875,219959.765625,223128.71875,223331.3125,215942.8125,16672.0,1.0,2
232055.375,245557.890625,519937.53125,415969.65625,219926.328125,223096.265625,223300.375,215916.4375,16673.0,1.0,2
231912.859375,245452.828125,519873.625,415899.71875,219852.3125,223063.625,223188.609375,215818.4375,16674.0,1.0,2
231895.96875,245430.125,519869.59375,415902.15625,219844.265625,223078.28125,223153.03125,215791.796875,16675.0,1.0,2
232010.40625,245508.265625,519916.8125,415957.3125,219902.734375,223114.40625,223226.53125,215864.21875,16676.0,1.0,2
232107.953125,245583.71875,519955.0625,415995.75,219956.109375,223134.078125,223311.1875,215943.078125,16677.0,1.0,2
232057.515625,245559.859375,519929.40625,415963.40625,219934.015625,223115.21875,223294.828125,215923.40625,16678.0,1.0,2
231930.46875,245478.671875,519870.65625,415903.03125,219866.515625,223090.890625,223196.390625,215831.21875,16679.0,1.0,2
231899.265625,245444.078125,519847.59375,415887.5625,219840.6875,223087.5,223146.59375,215785.359375,16680.0,1.0,2
232028.1875,245534.015625,519911.15625,415957.5,219917.21875,223138.375,223243.515625,215876.203125,16681.0,1.0,2
232111.609375,245596.421875,519937.28125,415984.65625,219961.828125,223144.265625,223326.390625,215946.734375,16682.0,1.0,2
232057.4375,245562.453125,519909.8125,415950.15625,219937.953125,223122.984375,223309.9375,215926.359375,16683.0,1.0,2
231931.1875,245476.171875,519855.65625,415889.53125,219873.046875,223100.90625,223210.609375,215835.25,16684.0,1.0,2
231895.34375,245434.59375,519830.0,415870.125,219842.46875,223093.578125,223153.125,215783.65625,16685.0,1.0,2
232008.890625,245507.1875,519874.59375,415924.40625,219899.515625,223123.171875,223229.390625,215855.984375,16686.0,1.0,2
232095.078125,245575.765625,519903.65625,415954.0,219945.734375,223127.375,223311.90625,215931.8125,16687.0,1.0,2
232056.171875,245563.15625,519890.0625,415935.0625,219937.59375,223119.59375,223308.0625,215927.875,16688.0,1.0,2
231918.21875,245468.75,519819.875,415864.78125,219861.0625,223084.8125,223197.375,215828.453125,16689.0,1.0,2
231892.03125,245444.25,519805.40625,415856.375,219842.46875,223086.421875,223153.75,215791.078125,16690.0,1.0,2
231999.578125,245509.609375,519846.0,415907.6875,219899.875,223118.609375,223225.0,215856.265625,16691.0,1.0,2
232107.765625,245590.15625,519892.03125,415955.78125,219968.71875,223148.109375,223327.28125,215948.171875,16692.0,1.0,2
232057.34375,245565.84375,519862.875,415919.75,219945.640625,223122.1875,223307.265625,215927.609375,16693.0,1.0,2
231918.5,245470.09375,519797.8125,415848.3125,219867.859375,223087.671875,223195.859375,215824.78125,16694.0,1.0,2
231894.265625,245446.578125,519789.40625,415837.3125,219849.71875,223092.234375,223155.625,215791.0,16695.0,1.0,2
231995.734375,245513.0,519831.25,415881.0625,219899.6875,223120.484375,223229.03125,215856.53125,16696.0,1.0,2
232085.765625,245581.125,519867.53125,415918.25,219955.390625,223137.828125,223324.0625,215940.03125,16697.0,1.0,2
232041.25,245560.125,519840.28125,415884.71875,219935.1875,223118.796875,223312.984375,215928.046875,16698.0,1.0,2
231911.875,245470.09375,519780.53125,415821.875,219865.359375,223089.28125,223209.265625,215835.25,16699.0,1.0,2
231890.78125,245450.78125,519770.875,415820.53125,219849.171875,223096.171875,223167.78125,215798.328125,16700.0,1.0,2
231994.671875,245513.71875,519809.4375,415869.5,219899.953125,223121.46875,223235.828125,215861.71875,16701.0,1.0,2
232091.234375,245583.015625,519848.5,415909.3125,219954.859375,223140.515625,223326.75,215945.75,16702.0,1.0,2
232046.96875,245563.78125,519826.15625,415881.84375,219939.921875,223122.640625,223315.3125,215931.1875,16703.0,1.0,2
231921.71875,245477.421875,519767.75,415822.65625,219875.640625,223094.203125,223211.5,215838.109375,16704.0,1.0,2
231878.796875,245432.8125,519738.6875,415801.65625,219844.265625,223084.546875,223150.171875,215786.96875,16705.0,1.0,2
231990.46875,245509.25,519786.09375,415855.9375,219904.421875,223118.34375,223226.96875,215858.859375,16706.0,1.0,2
232096.6875,245587.390625,519830.4375,415902.3125,219969.421875,223144.09375,223325.765625,215948.4375,16707.0,1.0,2
232045.453125,245556.71875,519797.53125,415860.84375,219940.375,223119.140625,223305.203125,215927.34375,16708.0,1.0,2
231913.9375,245463.5625,519736.46875,415795.84375,219868.671875,223091.4375,223200.15625,215834.171875,16709.0,1.0,2
231882.28125,245432.625,519719.75,415782.625,219844.53125,223092.234375,223151.421875,215793.765625,16710.0,1.0,2
231986.890625,245498.703125,519762.46875,415832.5,219897.1875,223120.671875,223224.921875,215861.625,16711.0,1.0,2
232081.65625,245566.375,519794.125,415864.5,219944.65625,223129.15625,223311.640625,215934.40625,16712.0,1.0,2
232039.1875,245547.421875,519771.5,415834.1875,219925.078125,223113.25,223300.828125,215918.390625,16713.0,1.0,2
231917.15625,245468.125,519723.3125,415777.15625,219865.265625,223094.5625,223205.515625,215829.4375,16714.0,1.0,2
231889.34375,245443.71875,519711.96875,415766.6875,219846.21875,223097.15625,223155.265625,215789.203125,16715.0,1.0,2
231993.328125,245508.359375,519751.84375,415813.46875,219893.34375,223123.4375,223219.375,215851.515625,16716.0,1.0,2
232097.03125,245587.390625,519794.59375,415857.1875,219956.828125,223144.984375,223318.171875,215940.84375,16717.0,1.0,2
232050.71875,245561.546875,519770.53125,415829.0,219939.75,223127.1875,223306.546875,215928.6875,16718.0,1.0,2
231915.546875,245464.1875,519705.71875,415762.6875,219864.015625,223091.875,223195.40625,215827.375,16719.0,1.0,2
231878.171875,245424.21875,519682.71875,415744.0625,219833.265625,223086.15625,223137.296875,215777.40625,16720.0,1.0,2
231989.125,245497.265625,519725.28125,415795.65625,219887.078125,223116.375,223207.21875,215843.65625,16721.0,1.0,2
232082.46875,245566.828125,519758.8125,415831.6875,219942.0625,223131.75,223299.75,215923.21875,16722.0,1.0,2
232050.71875,245554.84375,519743.71875,415809.96875,219934.375,223119.421875,223298.671875,215922.25,16723.0,1.0,2
231922.25,245464.453125,519684.875,415747.46875,219867.421875,223090.171875,223198.984375,215833.28125,16724.0,1.0,2
231884.875,245422.515625,519660.46875,415727.96875,219835.046875,223085.890625,223142.65625,215778.296875,16725.0,1.0,2
231994.84375,245494.5,519706.34375,415781.71875,219893.34375,223118.4375,223218.203125,215847.5,16726.0,1.0,2
232094.453125,245567.8125,519743.0,415819.71875,219951.28125,223135.0625,223311.46875,215934.21875,16727.0,1.0,2
232056.171875,245552.15625,519721.0,415792.28125,219936.171875,223118.96875,223302.78125,215924.828125,16728.0,1.0,2
231921.53125,245458.28125,519655.5625,415723.0625,219864.640625,223083.921875,223194.15625,215825.421875,16729.0,1.0,2
231891.84375,245429.9375,519641.6875,415715.5625,219847.390625,223088.5625,223146.328125,215785.1875,16730.0,1.0,2
232001.46875,245503.96875,519687.84375,415771.96875,219906.484375,223125.5,223222.140625,215852.765625,16731.0,1.0,2
232106.25,245584.078125,519731.5625,415814.4375,219967.1875,223150.703125,223321.65625,215941.828125,16732.0,1.0,2
232064.9375,245563.875,519706.96875,415784.3125,219947.34375,223131.65625,223312.09375,215932.703125,16733.0,1.0,2
231919.828125,245459.625,519631.21875,415706.625,219862.859375,223083.734375,223195.859375,215826.578125,16734.0,1.0,2
231886.84375,245428.6875,519619.4375,415698.3125,219844.609375,223089.015625,223154.28125,215788.125,16735.0,1.0,2
231987.0625,245490.734375,519659.65625,415746.59375,219896.5625,223119.953125,223225.8125,215851.34375,16736.0,1.0,2
232084.875,245560.125,519689.71875,415779.21875,219942.78125,223126.75,223305.375,215921.890625,16737.0,1.0,2
232051.4375,245546.796875,519671.46875,415755.53125,219931.875,223112.0,223299.84375,215917.0625,16738.0,1.0,2
231920.90625,245455.96875,519612.46875,415691.0625,219862.671875,223081.421875,223197.203125,215825.0625,16739.0,1.0,2
231883.796875,245423.859375,519595.75,415679.53125,219837.28125,223079.0,223144.0,215779.90625,16740.0,1.0,2
231994.84375,245500.484375,519643.75,415733.4375,219895.9375,223114.765625,223217.578125,215849.015625,16741.0,1.0,2
232097.390625,245573.796875,519684.4375,415774.125,219955.296875,223137.296875,223310.5625,215932.796875,16742.0,1.0,2
232073.34375,245567.09375,519671.1875,415754.1875,219947.53125,223122.984375,223312.265625,215931.359375,16743.0,1.0,2
231933.0625,245468.125,519601.8125,415680.6875,219869.65625,223079.890625,223201.9375,215829.171875,16744.0,1.0,2
231886.84375,245425.390625,519580.375,415666.03125,219843.8125,223077.84375,223144.453125,215780.71875,16745.0,1.0,2
231986.359375,245489.75,519617.375,415709.65625,219892.265625,223106.546875,223206.765625,215838.375,16746.0,1.0,2
232090.421875,245567.546875,519654.75,415749.625,219950.921875,223124.421875,223301.8125,215921.96875,16747.0,1.0,2
232066.109375,245562.53125,519643.9375,415731.1875,219946.8125,223117.0,223304.9375,215926.09375,16748.0,1.0,2
231936.375,245473.75,519585.8125,415665.3125,219875.46875,223083.203125,223205.609375,215835.96875,16749.0,1.0,2
231880.40625,245418.5,519553.1875,415634.09375,219835.140625,223065.234375,223140.34375,215775.796875,16750.0,1.0,2
231988.859375,245490.734375,519600.125,415691.78125,219894.78125,223103.40625,223215.890625,215845.703125,16751.0,1.0,2
232080.140625,245556.546875,519627.375,415722.71875,219944.21875,223112.078125,223300.109375,215918.9375,16752.0,1.0,2
232061.546875,245560.84375,519624.4375,415712.6875,219946.0,223109.40625,223311.734375,215929.21875,16753.0,1.0,2
231926.546875,245468.5625,519565.53125,415649.75,219874.828125,223082.484375,223212.21875,215837.484375,16754.0,1.0,2
231880.9375,245423.5,519541.8125,415633.3125,219842.203125,223081.953125,223153.84375,215785.453125,16755.0,1.0,2
231987.875,245489.75,519581.34375,415683.09375,219891.375,223112.078125,223219.640625,215847.3125,16756.0,1.0,2
232089.265625,245563.34375,519616.9375,415718.25,219942.421875,223124.25,223309.765625,215927.515625,16757.0,1.0,2
232054.125,245549.65625,519599.75,415691.25,219928.296875,223111.015625,223306.71875,215920.1875,16758.0,1.0,2
231918.671875,245453.375,519537.34375,415623.8125,219859.1875,223079.453125,223201.3125,215824.703125,16759.0,1.0,2
231885.328125,245423.6875,519523.3125,415615.34375,219841.046875,223087.59375,223151.15625,215783.484375,16760.0,1.0,2
231985.546875,245493.25,519562.21875,415660.75,219892.0,223118.96875,223217.859375,215844.8125,16761.0,1.0,2
232082.28125,245560.84375,519595.90625,415694.375,219943.59375,223132.015625,223307.703125,215923.140625,16762.0,1.0,2
232056.625,245554.9375,519584.84375,415677.90625,219938.765625,223124.59375,223311.015625,215923.765625,16763.0,1.0,2
231921.796875,245463.46875,519522.6875,415613.4375,219868.125,223088.84375,223206.859375,215826.9375,16764.0,1.0,2
231866.1875,245408.75,519487.75,415583.84375,219824.140625,223071.21875,223136.40625,215762.734375,16765.0,1.0,2
231992.703125,245502.984375,519548.53125,415655.28125,219896.828125,223125.9375,223228.484375,215849.109375,16766.0,1.0,2
232098.296875,245578.53125,519585.46875,415696.0625,219953.609375,223144.265625,223320.671875,215931.984375,16767.0,1.0,2
232052.875,245550.28125,519554.875,415660.03125,219929.28125,223115.578125,223306.90625,215917.421875,16768.0,1.0,2
231924.484375,245460.96875,519496.0625,415595.3125,219859.015625,223078.5625,223206.40625,215828.71875,16769.0,1.0,2
231880.859375,245424.3125,519476.5625,415579.375,219832.71875,223078.375,223148.5625,215780.0,16770.0,1.0,2
231979.46875,245485.015625,519516.875,415629.0,219884.21875,223109.21875,223212.578125,215842.484375,16771.0,1.0,2
232093.015625,245567.8125,519559.875,415674.25,219942.78125,223130.859375,223309.671875,215929.484375,16772.0,1.0,2
232065.828125,245560.75,519545.59375,415654.5,219937.875,223120.75,223315.75,215931.546875,16773.0,1.0,2
231927.078125,245466.953125,519483.96875,415583.15625,219864.640625,223087.859375,223211.328125,215837.65625,16774.0,1.0,2
231881.921875,245429.859375,519462.78125,415564.71875,219836.84375,223089.28125,223152.046875,215787.6875,16775.0,1.0,2
231979.296875,245489.84375,519498.09375,415607.5625,219883.421875,223116.28125,223210.15625,215841.0625,16776.0,1.0,2
232088.359375,245565.125,519542.90625,415655.375,219946.625,223135.78125,223307.96875,215930.640625,16777.0,1.0,2
232064.21875,245557.96875,519529.21875,415635.09375,219938.84375,223121.375,223308.6875,215930.015625,16778.0,1.0,2
231926.0,245465.796875,519465.125,415563.28125,219863.296875,223084.640625,223202.65625,215832.75,16779.0,1.0,2
231882.015625,245429.59375,519448.125,415551.6875,219838.453125,223088.65625,223149.546875,215784.46875,16780.0,1.0,2
231977.953125,245485.5625,519484.53125,415599.3125,219887.53125,223118.4375,223209.8125,215841.234375,16781.0,1.0,2
232100.53125,245580.953125,519539.875,415655.375,219960.84375,223153.296875,223320.21875,215939.59375,16782.0,1.0,2
232067.09375,245569.234375,519515.71875,415627.21875,219947.34375,223131.125,223318.609375,215933.15625,16783.0,1.0,2
231919.390625,245461.421875,519440.71875,415549.15625,219864.015625,223083.109375,223201.484375,215829.078125,16784.0,1.0,2
231864.765625,245410.8125,519412.46875,415524.65625,219829.234375,223075.25,223136.484375,215774.09375,16785.0,1.0,2
231967.125,245476.25,519451.875,415573.03125,219880.5625,223103.40625,223198.453125,215832.390625,16786.0,1.0,2
232082.203125,245564.6875,519499.625,415623.375,219948.859375,223124.328125,223303.421875,215923.578125,16787.0,1.0,2
232053.9375,245552.515625,519484.4375,415603.0,219942.609375,223114.671875,223307.96875,215926.4375,16788.0,1.0,2
231925.640625,245463.5625,519427.5625,415539.59375,219876.0,223091.703125,223213.203125,215838.921875,16789.0,1.0,2
231874.421875,245415.015625,519399.3125,415514.03125,219838.453125,223082.3125,223149.453125,215780.359375,16790.0,1.0,2
231971.421875,245479.828125,519439.0,415562.3125,219886.375,223112.078125,223213.109375,215839.984375,16791.0,1.0,2
232076.65625,245558.328125,519474.78125,415603.15625,219941.265625,223131.390625,223306.09375,215923.671875,16792.0,1.0,2
232061.453125,245558.6875,519465.5625,415585.65625,219940.546875,223126.125,223317.71875,215931.90625,16793.0,1.0,2
231936.828125,245476.796875,519414.34375,415529.59375,219879.84375,223102.25,223228.765625,215852.0625,16794.0,1.0,2
231880.5,245426.90625,519384.28125,415504.46875,219841.484375,223089.734375,223160.71875,215791.171875,16795.0,1.0,2
231956.578125,245465.171875,519403.0625,415531.28125,219873.140625,223102.875,223199.25,215824.34375,16796.0,1.0,2
232077.09375,245554.046875,519452.78125,415584.9375,219941.796875,223128.0,223296.796875,215919.375,16797.0,1.0,2
232066.375,245561.28125,519446.78125,415572.9375,219943.328125,223120.84375,223305.46875,215932.171875,16798.0,1.0,2
231929.40625,245467.5,519379.71875,415502.6875,219869.03125,223084.71875,223202.390625,215835.96875,16799.0,1.0,2
231872.0,245416.796875,519351.3125,415479.53125,219833.625,223079.265625,223135.59375,215775.34375,16800.0,1.0,2
231968.5625,245478.21875,519391.34375,415528.4375,219882.078125,223110.109375,223198.453125,215830.953125,16801.0,1.0,2
232076.125,245557.4375,519427.5625,415568.03125,219937.15625,223126.75,223292.0625,215914.109375,16802.0,1.0,2
232058.59375,245556.8125,519421.03125,415552.5625,219935.8125,223117.265625,223304.3125,215926.71875,16803.0,1.0,2
231924.9375,245465.34375,519361.9375,415484.34375,219863.921875,223080.171875,223203.71875,215830.875,16804.0,1.0,2
231876.828125,245427.53125,519344.875,415468.53125,219837.828125,223085.796875,223145.875,215777.21875,16805.0,1.0,2
231971.328125,245488.421875,519384.65625,415512.96875,219888.609375,223116.546875,223207.75,215833.1875,16806.0,1.0,2
232079.421875,245564.765625,519423.625,415555.4375,219946.625,223137.65625,223301.625,215917.421875,16807.0,1.0,2
232062.609375,245561.015625,519411.5625,415541.375,219944.390625,223128.984375,223311.375,215925.109375,16808.0,1.0,2
231931.453125,245472.5,519352.46875,415479.53125,219878.765625,223094.65625,223216.78125,215840.703125,16809.0,1.0,2
231868.328125,245414.65625,519319.65625,415445.71875,219836.390625,223080.25,223146.0625,215775.796875,16810.0,1.0,2
231967.578125,245475.8125,519365.875,415492.65625,219887.4375,223117.53125,223207.484375,215831.578125,16811.0,1.0,2
232075.84375,245554.578125,519405.5625,415534.40625,219943.140625,223131.65625,223296.796875,215910.796875,16812.0,1.0,2
232058.859375,245556.09375,519395.65625,415517.15625,219942.875,223118.796875,223307.796875,215919.46875,16813.0,1.0,2
231933.6875,245471.25,519339.3125,415457.625,219877.609375,223093.046875,223212.578125,215834.171875,16814.0,1.0,2
231871.546875,245414.484375,519302.9375,415428.46875,219834.15625,223077.296875,223134.34375,215766.5,16815.0,1.0,2
231966.328125,245473.9375,519341.28125,415475.125,219880.109375,223108.234375,223192.8125,215821.125,16816.0,1.0,2
232078.703125,245555.46875,519383.125,415517.78125,219942.421875,223135.15625,223291.796875,215908.734375,16817.0,1.0,2
232062.265625,245554.40625,519372.65625,415500.0,219940.546875,223126.65625,223303.140625,215916.15625,16818.0,1.0,2
231948.890625,245481.53125,519330.5625,415451.28125,219888.515625,223107.34375,223221.421875,215841.953125,16819.0,1.0,2
231881.921875,245421.09375,519294.15625,415418.28125,219841.3125,223089.46875,223142.21875,215772.21875,16820.0,1.0,2
231967.484375,245471.421875,519323.3125,415456.09375,219878.59375,223110.828125,223190.140625,215819.15625,16821.0,1.0,2
232092.5625,245565.578125,519377.125,415513.3125,219949.578125,223140.875,223298.3125,215915.8125,16822.0,1.0,2
232078.984375,245566.734375,519367.9375,415498.46875,219951.546875,223131.21875,223310.5625,215925.109375,16823.0,1.0,2
231945.578125,245476.078125,519304.1875,415431.40625,219885.296875,223097.78125,223209.8125,215835.421875,16824.0,1.0,2
231881.5625,245422.875,519269.84375,415404.6875,219847.828125,223086.328125,223139.359375,215774.28125,16825.0,1.0,2
231970.4375,245476.96875,519303.28125,415449.5625,219887.4375,223110.03125,223193.171875,215824.875,16826.0,1.0,2
232091.40625,245568.171875,519354.25,415503.84375,219956.734375,223142.03125,223298.765625,215921.34375,16827.0,1.0,2
232069.953125,245567.265625,519342.375,415486.9375,219953.0625,223130.140625,223312.171875,215929.84375,16828.0,1.0,2
231928.78125,245470.796875,519273.875,415412.8125,219876.265625,223092.0625,223211.140625,215839.359375,16829.0,1.0,2
231866.546875,245417.34375,519239.90625,415381.625,219833.53125,223079.453125,223139.4375,215774.71875,16830.0,1.0,2
231963.375,245475.71875,519275.5625,415426.3125,219876.4375,223108.78125,223191.203125,215823.265625,16831.0,1.0,2
232086.84375,245568.078125,519328.21875,415484.09375,219947.53125,223142.03125,223297.15625,215919.296875,16832.0,1.0,2
232075.484375,245572.015625,519324.3125,415472.8125,219949.140625,223139.359375,223315.03125,215932.4375,16833.0,1.0,2
231932.703125,245470.09375,519253.9375,415397.1875,219866.25,223098.671875,223204.890625,215829.265625,16834.0,1.0,2
231867.984375,245414.5625,519216.84375,415365.96875,219816.8125,223084.375,223124.15625,215756.75,16835.0,1.0,2
231953.8125,245464.09375,519246.78125,415406.5625,219854.984375,223105.015625,223170.203125,215803.328125,16836.0,1.0,2
232085.140625,245562.09375,519305.625,415468.6875,219933.9375,223146.5,223284.015625,215910.984375,16837.0,1.0,2
232073.875,245570.140625,519299.53125,415454.5625,219937.515625,223101.984375,223303.0625,215925.28125,16838.0,1.0,2
231927.515625,245464.90625,519231.84375,415381.34375,219859.1875,223061.484375,223198.984375,215831.5,16839.0,1.0,2
231873.25,245421.8125,519208.6875,415364.53125,219830.21875,223078.46875,223143.109375,215780.4375,16840.0,1.0,2
231976.15625,245490.828125,519252.59375,415419.53125,219884.9375,223125.140625,223210.15625,215838.828125,16841.0,1.0,2
232088.09375,245568.703125,519290.59375,415462.53125,219944.84375,223153.390625,223309.046875,215926.71875,16842.0,1.0,2
232067.984375,245561.015625,519268.25,415434.09375,219934.65625,223134.34375,223320.21875,215930.640625,16843.0,1.0,2
231938.078125,245473.484375,519210.40625,415371.15625,219872.6875,223107.609375,223238.859375,215848.921875,16844.0,1.0,2
231868.78125,245413.578125,519172.5625,415337.28125,219829.234375,223098.046875,223168.59375,215779.546875,16845.0,1.0,2
231960.0625,245469.109375,519211.28125,415379.90625,219880.109375,223129.78125,223228.046875,215830.25,16846.0,1.0,2
232077.640625,245557.96875,519253.9375,415430.875,219952.4375,223157.40625,223335.328125,215925.1875,16847.0,1.0,2
232061.71875,245560.203125,519239.625,415416.125,219952.625,223140.515625,223351.421875,215937.0,16848.0,1.0,2
231926.625,245464.90625,519177.40625,415348.09375,219883.59375,223100.015625,223246.8125,215846.875,16849.0,1.0,2
231854.390625,245398.390625,519130.28125,415309.90625,219846.3125,223080.34375,223158.046875,215774.453125,16850.0,1.0,2
231946.5625,245452.65625,519179.0,415353.0,219899.25,223106.09375,223207.125,215819.6875,16851.0,1.0,2
232064.046875,245540.265625,519228.375,415403.4375,219960.84375,223130.40625,223308.328125,215906.15625,16852.0,1.0,2
232046.4375,245534.109375,519206.625,415382.0625,219945.015625,223113.25,223315.65625,215911.0625,16853.0,1.0,2
231917.78125,245445.234375,519130.71875,415321.375,219874.03125,223083.921875,223220.4375,215826.484375,16854.0,1.0,2
231859.65625,245400.96875,519106.6875,415300.0,219840.234375,223084.640625,223156.609375,215767.5625,16855.0,1.0,2
231943.4375,245453.1875,519146.1875,415339.5,219882.875,223110.46875,223206.40625,215813.34375,16856.0,1.0,2
232073.53125,245550.90625,519214.6875,415404.96875,219964.59375,223150.34375,223324.25,215919.203125,16857.0,1.0,2
