FZ,C3,CZ,C4,PZ,PO7,OZ,PO8,Counter,Validation,Label
232421.5,282861.4375,367061.96875,335562.28125,256920.703125,280124.0625,251819.234375,253711.890625,16536.0,1.0,3
232154.890625,282643.28125,366864.46875,335549.21875,256581.859375,279898.3125,251807.171875,253682.125,16537.0,1.0,3
232854.046875,284001.53125,368843.0625,336263.0625,258000.75,280643.40625,252367.65625,254527.1875,16538.0,1.0,3
233567.34375,285079.4375,370285.8125,336723.59375,259234.734375,281333.65625,252733.875,255090.640625,16539.0,1.0,3
233304.5625,284375.53125,369176.53125,336285.21875,258570.71875,281017.6875,252397.609375,254587.359375,16540.0,1.0,3
232419.984375,282854.90625,367045.6875,335548.96875,256931.171875,280123.34375,251823.796875,253716.359375,16541.0,1.0,3
232149.515625,282626.75,366833.8125,335530.8125,256582.65625,279889.53125,251810.46875,253686.671875,16542.0,1.0,3
232854.40625,283985.71875,368808.09375,336244.8125,257996.28125,280634.125,252372.21875,254532.734375,16543.0,1.0,3
233568.953125,285069.34375,370263.1875,336711.0625,259240.28125,281331.75,252743.25,255103.6875,16544.0,1.0,3
233311.28125,284377.59375,369173.9375,336280.59375,258589.40625,281021.34375,252409.328125,254609.0,16545.0,1.0,3
232432.140625,282860.71875,367041.40625,335543.6875,256947.078125,280127.375,251833.09375,253732.546875,16546.0,1.0,3
232145.5,282618.0625,366808.0625,335515.4375,256579.171875,279885.0625,251813.78125,253688.46875,16547.0,1.0,3
232842.25,283972.125,368774.84375,336224.875,257982.140625,280625.53125,252373.375,254528.09375,16548.0,1.0,3
233567.34375,285067.8125,370244.40625,336697.65625,259234.203125,281330.6875,252752.46875,255104.3125,16549.0,1.0,3
233328.0,284395.5625,369172.25,336274.6875,258596.734375,281026.96875,252415.84375,254610.4375,16550.0,1.0,3
232441.609375,282868.65625,367032.125,335532.875,256950.84375,280121.90625,251828.53125,253732.8125,16551.0,1.0,3
232144.421875,282612.4375,366784.46875,335496.9375,256572.109375,279874.875,251806.0,253681.046875,16552.0,1.0,3
232840.546875,283964.71875,368747.84375,336203.78125,257973.296875,280610.4375,252364.625,254513.78125,16553.0,1.0,3
233569.578125,285072.65625,370232.15625,336683.09375,259236.890625,281319.6875,252746.75,255092.96875,16554.0,1.0,3
233329.78125,284408.875,369175.09375,336264.9375,258611.484375,281027.4375,252426.125,254606.140625,16555.0,1.0,3
232442.859375,282886.03125,367035.6875,335523.75,256966.3125,280131.5625,251852.40625,253725.21875,16556.0,1.0,3
232145.40625,282626.75,366775.0625,335487.0,256577.75,279880.78125,251824.6875,253664.140625,16557.0,1.0,3
232837.328125,283978.21875,368729.9375,336191.71875,257969.8125,280615.71875,252377.40625,254498.40625,16558.0,1.0,3
233564.296875,285088.28125,370215.1875,336669.6875,259233.84375,281324.4375,252752.90625,255083.75,16559.0,1.0,3
233331.5625,284433.375,369168.59375,336257.0625,258620.0625,281037.78125,252437.484375,254612.125,16560.0,1.0,3
232457.171875,282914.625,367029.96875,335516.40625,256979.1875,280138.71875,251854.1875,253733.4375,16561.0,1.0,3
232155.6875,282643.46875,366751.09375,335471.0,256580.515625,279882.21875,251815.921875,253671.390625,16562.0,1.0,3
232833.65625,283978.84375,368695.15625,336172.9375,257966.5,280617.03125,252368.109375,254507.4375,16563.0,1.0,3
233574.3125,285108.9375,370201.15625,336662.78125,259245.46875,281339.28125,252754.96875,255102.796875,16564.0,1.0,3
233350.34375,284467.8125,369168.125,336254.5625,258639.375,281056.125,252435.15625,254631.171875,16565.0,1.0,3
232474.0625,282945.28125,367023.96875,335514.71875,256995.359375,280163.5625,251856.78125,253749.4375,16566.0,1.0,3
232161.59375,282655.0625,366726.25,335461.625,256583.546875,279902.0625,251821.109375,253682.125,16567.0,1.0,3
232848.6875,283995.125,368662.8125,336160.25,257961.765625,280629.84375,252373.109375,254514.5,16568.0,1.0,3
233591.46875,285126.71875,370177.28125,336649.46875,259243.234375,281351.6875,252764.0,255113.078125,16569.0,1.0,3
233365.015625,284489.4375,369156.34375,336242.59375,258644.390625,281075.78125,252445.796875,254648.875,16570.0,1.0,3
232491.0625,282974.71875,367012.875,335504.4375,257000.640625,280186.90625,251866.984375,253776.09375,16571.0,1.0,3
232180.984375,282682.34375,366703.28125,335451.96875,256574.171875,279916.4375,251823.265625,253701.703125,16572.0,1.0,3
232858.96875,284010.3125,368636.25,336151.375,257945.046875,280637.59375,252376.59375,254527.734375,16573.0,1.0,3
233593.4375,285142.03125,370158.21875,336643.3125,259230.265625,281364.5,252778.9375,255132.296875,16574.0,1.0,3
233371.453125,284511.6875,369150.96875,336240.34375,258643.3125,281096.625,252470.46875,254674.71875,16575.0,1.0,3
232499.375,282993.03125,367003.0625,335494.875,256994.921875,280206.3125,251884.953125,253785.828125,16576.0,1.0,3
232178.75,282681.4375,366677.53125,335431.65625,256556.28125,279922.96875,251832.734375,253701.078125,16577.0,1.0,3
232856.734375,284003.34375,368606.84375,336132.25,257922.15625,280636.96875,252380.625,254531.484375,16578.0,1.0,3
233597.90625,285137.46875,370141.96875,336631.40625,259217.75,281361.1875,252772.140625,255134.265625,16579.0,1.0,3
233386.46875,284516.96875,369156.15625,336236.25,258648.234375,281104.40625,252473.78125,254683.75,16580.0,1.0,3
232513.859375,282996.78125,367009.9375,335488.53125,257001.171875,280210.6875,251893.984375,253808.8125,16581.0,1.0,3
232180.546875,282667.875,366662.3125,335415.75,256546.71875,279921.1875,251828.71875,253710.28125,16582.0,1.0,3
232843.59375,283973.375,368581.71875,336108.03125,257900.609375,280633.21875,252368.90625,254528.984375,16583.0,1.0,3
233590.84375,285123.25,370131.59375,336613.34375,259207.375,281370.125,252773.5625,255141.0625,16584.0,1.0,3
233389.59375,284518.59375,369159.09375,336225.15625,258649.03125,281117.71875,252472.625,254695.71875,16585.0,1.0,3
232514.5625,282989.1875,367009.21875,335477.4375,257001.71875,280225.53125,251881.90625,253801.921875,16586.0,1.0,3
232172.9375,282647.125,366651.0625,335401.71875,256541.796875,279932.625,251820.484375,253701.78125,16587.0,1.0,3
232844.21875,283962.46875,368563.375,336090.15625,257897.5625,280637.15625,252362.296875,254517.890625,16588.0,1.0,3
233594.421875,285118.6875,370120.40625,336594.5625,259209.96875,281371.0,252765.421875,255131.40625,16589.0,1.0,3
233394.78125,284523.59375,369160.8125,336208.25,258663.15625,281122.28125,252467.4375,254688.578125,16590.0,1.0,3
232515.90625,282994.09375,367007.4375,335459.28125,257017.625,280230.375,251884.859375,253800.671875,16591.0,1.0,3
232170.171875,282648.28125,366629.6875,335381.15625,256543.671875,279934.15625,251825.140625,253696.15625,16592.0,1.0,3
232825.703125,283951.9375,368531.8125,336071.46875,257887.28125,280633.40625,252364.078125,254512.359375,16593.0,1.0,3
233586.734375,285120.9375,370103.875,336584.46875,259210.15625,281370.21875,252768.921875,255133.734375,16594.0,1.0,3
233396.84375,284534.3125,369157.59375,336200.65625,258675.046875,281125.78125,252473.6875,254696.171875,16595.0,1.0,3
232520.203125,283004.46875,367001.71875,335449.625,257032.015625,280233.5,251890.40625,253807.734375,16596.0,1.0,3
232171.6875,282648.8125,366606.28125,335359.15625,256546.546875,279924.6875,251821.921875,253691.234375,16597.0,1.0,3
232829.453125,283949.5,368499.71875,336047.21875,257882.640625,280616.875,252360.421875,254501.890625,16598.0,1.0,3
233576.453125,285112.15625,370074.1875,336559.4375,259207.46875,281351.875,252767.390625,255125.421875,16599.0,1.0,3
233388.609375,284536.90625,369141.125,336181.53125,258683.453125,281113.34375,252477.359375,254692.421875,16600.0,1.0,3
232521.546875,283016.46875,366985.53125,335430.3125,257039.078125,280223.21875,251894.421875,253803.265625,16601.0,1.0,3
232165.796875,282644.4375,366574.34375,335335.8125,256540.1875,279910.09375,251822.71875,253683.90625,16602.0,1.0,3
232814.796875,283933.6875,368461.46875,336023.28125,257869.5,280605.5,252362.109375,254495.09375,16603.0,1.0,3
233572.96875,285112.15625,370050.5,336543.15625,259202.015625,281351.96875,252771.515625,255124.34375,16604.0,1.0,3
233396.921875,284552.375,369136.5,336170.78125,258692.9375,281125.59375,252488.359375,254701.625,16605.0,1.0,3
232523.953125,283023.0625,366975.53125,335417.34375,257048.296875,280233.40625,251902.5625,253813.28125,16606.0,1.0,3
232169.375,282647.125,366550.5625,335321.6875,256543.59375,279917.96875,251824.515625,253689.8125,16607.0,1.0,3
232808.546875,283922.25,368426.15625,336002.34375,257865.734375,280610.96875,252356.84375,254493.671875,16608.0,1.0,3
233563.9375,285099.09375,370022.0625,336523.15625,259201.21875,281358.125,252770.34375,255125.234375,16609.0,1.0,3
233398.359375,284549.0625,369124.25,336158.0,258702.046875,281137.3125,252498.375,254711.90625,16610.0,1.0,3
232528.609375,283020.3125,366967.03125,335405.375,257057.859375,280251.375,251923.65625,253827.578125,16611.0,1.0,3
232159.625,282626.75,366524.46875,335299.34375,256535.1875,279924.9375,251833.1875,253690.875,16612.0,1.0,3
232802.1875,283906.25,368396.46875,335975.25,257851.609375,280610.96875,252352.90625,254488.75,16613.0,1.0,3
233564.921875,285092.3125,370005.96875,336498.65625,259196.03125,281366.8125,252774.375,255128.015625,16614.0,1.0,3
233398.359375,284546.21875,369117.8125,336136.0,258702.140625,281152.78125,252503.28125,254712.265625,16615.0,1.0,3
232532.890625,283016.09375,366956.75,335386.6875,257056.703125,280255.03125,251913.65625,253821.59375,16616.0,1.0,3
232163.375,282611.8125,366498.34375,335279.40625,256524.546875,279915.03125,251819.59375,253680.328125,16617.0,1.0,3
232797.90625,283882.46875,368361.5,335954.875,257835.703125,280597.5625,252351.203125,254480.53125,16618.0,1.0,3
233553.03125,285069.4375,369975.9375,336476.75,259184.40625,281344.8125,252767.21875,255115.578125,16619.0,1.0,3
233398.09375,284543.09375,369106.25,336117.78125,258704.375,281129.875,252493.453125,254705.5625,16620.0,1.0,3
232530.75,283014.59375,366945.5625,335365.0625,257060.359375,280242.0625,251908.109375,253813.375,16621.0,1.0,3
232149.34375,282599.28125,366472.96875,335251.5,256517.21875,279904.46875,251817.265625,253664.5,16622.0,1.0,3
232782.078125,283868.40625,368327.625,335926.4375,257819.421875,280580.75,252346.921875,254463.265625,16623.0,1.0,3
233555.796875,285074.875,369957.96875,336460.375,259179.390625,281338.8125,252768.640625,255109.046875,16624.0,1.0,3
233406.21875,284556.125,369098.03125,336109.46875,258714.921875,281129.875,252493.359375,254705.828125,16625.0,1.0,3
232539.421875,283028.71875,366934.65625,335358.71875,257076.015625,280243.3125,251908.828125,253815.328125,16626.0,1.0,3
232156.046875,282606.1875,366449.09375,335240.0625,256524.359375,279904.75,251817.984375,253666.734375,16627.0,1.0,3
232777.6875,283863.5,368299.71875,335912.40625,257822.828125,280582.4375,252342.796875,254460.671875,16628.0,1.0,3
233550.890625,285074.59375,369939.0,336453.6875,259190.03125,281346.4375,252772.140625,255115.578125,16629.0,1.0,3
233409.625,284566.78125,369094.71875,336110.53125,258736.828125,281151.0625,252507.765625,254721.921875,16630.0,1.0,3
232547.03125,283040.5,366932.78125,335355.21875,257095.765625,280263.25,251918.5625,253824.28125,16631.0,1.0,3
232157.65625,282603.5,366430.21875,335231.21875,256532.859375,279918.59375,251818.703125,253667.71875,16632.0,1.0,3
232776.796875,283852.9375,368268.78125,335898.09375,257820.765625,280588.53125,252344.859375,254460.5,16633.0,1.0,3
233558.3125,285074.4375,369921.46875,336441.4375,259196.296875,281355.1875,252780.265625,255119.0625,16634.0,1.0,3
233422.3125,284574.75,369092.9375,336099.4375,258753.640625,281163.15625,252512.9375,254728.265625,16635.0,1.0,3
232554.09375,283042.21875,366922.0625,335341.375,257108.015625,280278.8125,251923.21875,253833.484375,16636.0,1.0,3
232150.234375,282589.625,366399.1875,335206.34375,256526.953125,279918.96875,251815.296875,253664.421875,16637.0,1.0,3
232776.078125,283846.0625,368234.375,335875.5625,257808.4375,280585.40625,252340.484375,254457.28125,16638.0,1.0,3
233560.0,285074.25,369897.15625,336422.65625,259188.875,281353.3125,252777.765625,255125.421875,16639.0,1.0,3
233420.34375,284582.25,369084.53125,336087.46875,258758.375,281172.71875,252526.09375,254742.578125,16640.0,1.0,3
232555.421875,283055.1875,366918.125,335333.21875,257117.140625,280287.5,251936.53125,253844.65625,16641.0,1.0,3
232159.890625,282603.21875,366379.1875,335192.9375,256524.09375,279916.1875,251816.109375,253663.515625,16642.0,1.0,3
232772.515625,283842.9375,368201.5625,335857.59375,257794.21875,280572.78125,252332.875,254447.71875,16643.0,1.0,3
233552.40625,285069.5,369869.71875,336406.28125,259177.609375,281337.40625,252762.75,255114.6875,16644.0,1.0,3
233430.640625,284596.09375,369072.90625,336077.09375,258762.40625,281161.8125,252514.828125,254741.140625,16645.0,1.0,3
232565.53125,283065.53125,366902.125,335318.03125,257121.609375,280278.09375,251931.703125,253851.453125,16646.0,1.0,3
232155.59375,282592.3125,366348.5,335174.25,256518.46875,279903.65625,251813.328125,253670.671875,16647.0,1.0,3
232768.21875,283828.09375,368163.5625,335837.75,257786.890625,280562.96875,252331.53125,254446.90625,16648.0,1.0,3
233543.46875,285055.9375,369838.5,336389.84375,259176.625,281340.34375,252770.796875,255117.546875,16649.0,1.0,3
233429.296875,284595.46875,369056.375,336065.5625,258770.09375,281165.1875,252515.625,254745.34375,16650.0,1.0,3
232568.578125,283067.0625,366885.03125,335307.03125,257132.15625,280278.90625,251922.671875,253847.34375,16651.0,1.0,3
232159.53125,282588.90625,366316.78125,335155.40625,256521.234375,279905.0,251804.390625,253662.890625,16652.0,1.0,3
232761.953125,283811.90625,368119.9375,335812.90625,257779.015625,280555.625,252320.1875,254442.53125,16653.0,1.0,3
233540.25,285045.46875,369805.875,336367.5625,259176.359375,281329.25,252759.171875,255118.890625,16654.0,1.0,3
233431.796875,284595.21875,369041.96875,336046.25,258784.75,281165.75,252512.859375,254754.5625,16655.0,1.0,3
232568.75,283065.09375,366870.65625,335286.28125,257146.375,280284.4375,251919.375,253852.4375,16656.0,1.0,3
232151.75,282577.28125,366289.3125,335135.0,256526.421875,279906.15625,251802.15625,253663.34375,16657.0,1.0,3
232758.734375,283804.84375,368091.59375,335791.34375,257778.84375,280554.375,252316.96875,254440.109375,16658.0,1.0,3
233549.640625,285054.03125,369791.375,336351.84375,259182.4375,281331.84375,252755.859375,255111.640625,16659.0,1.0,3
233440.5625,284606.46875,369035.28125,336035.34375,258798.4375,281170.84375,252513.484375,254750.71875,16660.0,1.0,3
232578.40625,283077.625,366864.65625,335274.46875,257158.265625,280287.65625,251923.578125,253852.34375,16661.0,1.0,3
232155.15625,282582.21875,366269.1875,335116.21875,256523.921875,279905.46875,251801.796875,253654.40625,16662.0,1.0,3
232751.046875,283800.65625,368058.40625,335769.71875,257765.96875,280546.6875,252313.5625,254424.46875,16663.0,1.0,3
233535.78125,285046.8125,369762.6875,336330.375,259172.515625,281323.375,252752.5625,255103.25,16664.0,1.0,3
233433.046875,284610.21875,369024.53125,336018.625,258802.1875,281171.71875,252514.015625,254753.9375,16665.0,1.0,3
232579.65625,283084.78125,366854.375,335257.9375,257167.828125,280288.75,251924.640625,253857.625,16666.0,1.0,3
232152.921875,282572.90625,366243.46875,335094.5,256525.53125,279896.875,251796.609375,253654.578125,16667.0,1.0,3
232742.828125,283779.28125,368024.25,335745.46875,257761.046875,280532.65625,252297.921875,254415.25,16668.0,1.0,3
233533.359375,285038.21875,369738.8125,336311.5,259176.0,281320.0625,252747.734375,255098.59375,16669.0,1.0,3
233437.515625,284615.3125,369017.125,336006.09375,258817.828125,281180.75,252521.4375,254757.953125,16670.0,1.0,3
232580.015625,283089.6875,366849.1875,335246.78125,257181.328125,280300.625,251928.3125,253859.140625,16671.0,1.0,3
232148.625,282573.71875,366222.71875,335077.625,256525.4375,279900.90625,251791.15625,253642.421875,16672.0,1.0,3
232734.515625,283775.0,367995.21875,335725.28125,257752.109375,280539.25,252300.15625,254409.09375,16673.0,1.0,3
233527.375,285034.65625,369718.6875,336296.125,259170.546875,281327.46875,252753.09375,255100.203125,16674.0,1.0,3
233439.484375,284614.0,369011.3125,335996.34375,258821.5,281185.75,252520.984375,254756.875,16675.0,1.0,3
232577.59375,283077.09375,366837.84375,335233.8125,257184.28125,280303.21875,251925.546875,253854.9375,16676.0,1.0,3
232137.71875,282547.6875,366193.21875,335059.46875,256518.828125,279903.125,251793.3125,253641.34375,16677.0,1.0,3
232723.515625,283745.9375,367956.3125,335705.25,257738.6875,280534.15625,252297.828125,254405.0625,16678.0,1.0,3
233525.3125,285018.09375,369690.8125,336280.40625,259167.140625,281326.3125,252755.140625,255099.3125,16679.0,1.0,3
233447.625,284619.4375,368999.5,335984.1875,258829.71875,281190.21875,252529.03125,254764.296875,16680.0,1.0,3
232597.53125,283096.3125,366829.78125,335219.21875,257194.734375,280309.3125,251933.59375,253866.125,16681.0,1.0,3
232147.46875,282551.1875,366170.125,335036.9375,256515.15625,279898.75,251789.109375,253642.6875,16682.0,1.0,3
232719.765625,283736.46875,367924.46875,335681.375,257726.4375,280520.75,252290.234375,254400.59375,16683.0,1.0,3
233525.046875,285020.25,369668.625,336261.28125,259159.734375,281313.34375,252753.1875,255100.375,16684.0,1.0,3
233449.9375,284631.6875,368988.78125,335968.28125,258834.828125,281182.90625,252531.0,254773.421875,16685.0,1.0,3
232593.78125,283104.71875,366815.03125,335203.40625,257201.0,280308.21875,251936.8125,253872.203125,16686.0,1.0,3
232141.03125,282552.09375,366136.96875,335015.21875,256506.484375,279886.84375,251785.625,253636.25,16687.0,1.0,3
232708.140625,283726.0,367880.75,335651.96875,257704.09375,280498.84375,252283.078125,254384.59375,16688.0,1.0,3
233510.203125,285007.1875,369639.03125,336234.09375,259144.703125,281299.21875,252749.34375,255091.703125,16689.0,1.0,3
233449.59375,284632.84375,368981.1875,335950.125,258834.375,281180.5625,252528.59375,254769.125,16690.0,1.0,3
232600.75,283108.90625,366812.53125,335187.65625,257204.75,280307.96875,251938.0625,253870.234375,16691.0,1.0,3
232143.984375,282546.8125,366120.0625,334995.1875,256504.15625,279894.28125,251792.0625,253632.234375,16692.0,1.0,3
232707.0625,283715.09375,367853.3125,335632.65625,257699.359375,280510.65625,252284.6875,254383.78125,16693.0,1.0,3
233507.703125,284997.71875,369610.78125,336214.59375,259139.515625,281302.4375,252739.140625,255088.046875,16694.0,1.0,3
233446.375,284628.1875,368960.625,335933.40625,258837.59375,281187.5625,252525.375,254769.671875,16695.0,1.0,3
232590.390625,283099.96875,366791.96875,335173.46875,257209.40625,280313.5,251933.59375,253873.984375,16696.0,1.0,3
232120.546875,282521.9375,366085.375,334976.9375,256494.6875,279888.5625,251780.25,253630.53125,16697.0,1.0,3
232689.359375,283696.75,367815.9375,335615.75,257682.8125,280502.34375,252281.296875,254376.359375,16698.0,1.0,3
233491.34375,284986.71875,369587.90625,336204.5,259131.46875,281299.3125,252743.609375,255086.703125,16699.0,1.0,3
233432.0625,284627.125,368958.28125,335931.34375,258843.765625,281188.0,252529.03125,254773.421875,16700.0,1.0,3
232586.28125,283105.875,366786.6875,335168.8125,257216.109375,280311.1875,251931.265625,253872.28125,16701.0,1.0,3
232118.5,282520.625,366066.25,334965.03125,256492.625,279881.9375,251779.359375,253628.46875,16702.0,1.0,3
232672.8125,283676.375,367784.65625,335597.5,257671.90625,280493.03125,252279.0625,254378.78125,16703.0,1.0,3
233482.40625,284974.5625,369561.0,336185.375,259121.90625,281292.34375,252736.546875,255083.9375,16704.0,1.0,3
233434.296875,284629.4375,368945.40625,335914.90625,258846.0,281189.15625,252523.765625,254773.78125,16705.0,1.0,3
232582.15625,283102.03125,366773.71875,335148.5,257217.984375,280308.78125,251920.796875,253868.53125,16706.0,1.0,3
232104.109375,282503.71875,366032.90625,334939.03125,256479.578125,279864.6875,251755.84375,253611.21875,16707.0,1.0,3
232663.96875,283661.8125,367740.75,335567.65625,257651.34375,280465.21875,252248.296875,254355.53125,16708.0,1.0,3
233479.71875,284969.75,369531.03125,336164.25,259116.984375,281276.5,252724.75,255080.265625,16709.0,1.0,3
233438.765625,284637.3125,368932.09375,335900.5,258856.8125,281183.96875,252522.875,254782.71875,16710.0,1.0,3
232590.75,283113.75,366758.625,335131.875,257229.515625,280307.96875,251921.875,253873.265625,16711.0,1.0,3
232113.75,282508.625,366005.1875,334916.6875,256482.53125,279868.1875,251757.8125,253608.984375,16712.0,1.0,3
232672.28125,283662.875,367710.1875,335549.15625,257648.03125,280470.5,252253.21875,254351.6875,16713.0,1.0,3
233485.96875,284972.78125,369507.34375,336149.59375,259113.765625,281273.90625,252724.296875,255077.140625,16714.0,1.0,3
233440.015625,284639.46875,368919.21875,335888.8125,258859.671875,281184.875,252527.703125,254790.9375,16715.0,1.0,3
232587.53125,283111.84375,366745.90625,335121.78125,257234.96875,280312.4375,251931.796875,253889.546875,16716.0,1.0,3
232103.75,282495.9375,365976.5625,334902.28125,256478.59375,279865.59375,251760.3125,253614.796875,16717.0,1.0,3
232652.25,283640.4375,367667.53125,335525.4375,257634.09375,280457.71875,252247.765625,254344.625,16718.0,1.0,3
233464.15625,284956.5,369472.9375,336125.90625,259106.703125,281267.75,252722.328125,255068.734375,16719.0,1.0,3
233428.484375,284638.65625,368902.15625,335873.0625,258869.328125,281182.625,252523.40625,254787.28125,16720.0,1.0,3
232594.671875,283127.6875,366738.40625,335114.53125,257256.4375,280317.4375,251931.890625,253891.0625,16721.0,1.0,3
232109.28125,282506.5625,365960.03125,334893.53125,256493.703125,279863.875,251756.921875,253613.546875,16722.0,1.0,3
232645.640625,283641.0625,367646.0625,335517.40625,257645.53125,280457.09375,252249.28125,254345.875,16723.0,1.0,3
233464.15625,284969.03125,369461.5625,336121.78125,259124.6875,281276.25,252731.0,255077.140625,16724.0,1.0,3
233440.46875,284667.0,368907.96875,335874.40625,258898.484375,281204.8125,252542.890625,254803.1875,16725.0,1.0,3
232592.53125,283141.09375,366738.40625,335107.65625,257276.734375,280332.375,251941.453125,253898.75,16726.0,1.0,3
232094.53125,282505.84375,365938.84375,334876.53125,256497.09375,279871.21875,251762.015625,253615.78125,16727.0,1.0,3
232630.53125,283636.78125,367607.0,335492.90625,257635.421875,280455.21875,252244.015625,254342.125,16728.0,1.0,3
233441.453125,284958.65625,369423.65625,336094.78125,259111.53125,281269.53125,252716.25,255071.5,16729.0,1.0,3
233418.03125,284662.34375,368885.4375,335849.71875,258893.203125,281200.875,252531.71875,254800.953125,16730.0,1.0,3
232588.234375,283149.84375,366724.03125,335088.25,257276.546875,280332.09375,251934.921875,253897.59375,16731.0,1.0,3
232091.578125,282503.0,365911.75,334853.8125,256487.265625,279864.6875,251751.375,253610.0625,16732.0,1.0,3
232624.265625,283623.09375,367576.6875,335472.6875,257621.75,280452.09375,252241.0625,254341.765625,16733.0,1.0,3
233452.625,284958.90625,369411.40625,336087.8125,259111.453125,281278.125,252729.671875,255082.59375,16734.0,1.0,3
233446.1875,284678.53125,368890.0,335851.0625,258909.296875,281218.75,252549.78125,254817.046875,16735.0,1.0,3
232609.34375,283159.4375,366722.5,335085.21875,257292.46875,280352.75,251950.03125,253910.28125,16736.0,1.0,3
232103.390625,282499.96875,365891.90625,334842.125,256488.875,279876.65625,251759.515625,253614.796875,16737.0,1.0,3
232625.703125,283608.6875,367538.34375,335450.71875,257609.5,280450.84375,252237.125,254333.625,16738.0,1.0,3
233451.90625,284948.46875,369378.25,336063.6875,259102.59375,281271.59375,252721.265625,255075.609375,16739.0,1.0,3
233458.796875,284688.8125,368877.46875,335837.9375,258915.828125,281225.1875,252554.875,254825.015625,16740.0,1.0,3
232626.0625,283177.03125,366714.625,335075.28125,257303.1875,280362.15625,251963.8125,253923.96875,16741.0,1.0,3
232111.078125,282502.375,365870.28125,334826.71875,256490.484375,279877.375,251768.546875,253621.234375,16742.0,1.0,3
232625.171875,283598.3125,367511.34375,335433.28125,257601.1875,280442.0625,252237.125,254334.4375,16743.0,1.0,3
233456.296875,284946.40625,369363.125,336052.40625,259098.75,281268.90625,252727.4375,255083.9375,16744.0,1.0,3
233463.0,284692.3125,368874.34375,335823.875,258919.40625,281220.375,252552.90625,254823.9375,16745.0,1.0,3
232633.921875,283186.875,366716.875,335061.0625,257312.21875,280359.5625,251958.53125,253923.78125,16746.0,1.0,3
232111.875,282506.65625,365859.625,334807.0625,256490.390625,279868.71875,251756.734375,253617.125,16747.0,1.0,3
232630.0,283607.09375,367492.5625,335413.6875,257598.0625,280433.84375,252228.359375,254331.578125,16748.0,1.0,3
233455.3125,284951.3125,369344.53125,336034.34375,259099.734375,281264.4375,252724.484375,255086.703125,16749.0,1.0,3
233461.03125,284701.0625,368869.4375,335814.9375,258935.40625,281230.03125,252562.46875,254841.546875,16750.0,1.0,3
232641.703125,283199.75,366713.71875,335054.0,257333.046875,280371.4375,251961.296875,253929.515625,16751.0,1.0,3
232116.53125,282506.40625,365840.9375,334797.0625,256501.03125,279879.625,251757.359375,253613.1875,16752.0,1.0,3
232623.90625,283594.75,367463.15625,335399.03125,257596.984375,280442.15625,252231.046875,254324.234375,16753.0,1.0,3
233455.84375,284952.46875,369328.25,336021.65625,259101.703125,281270.6875,252727.078125,255076.25,16754.0,1.0,3
233472.296875,284716.71875,368868.09375,335803.15625,258944.96875,281237.0,252564.796875,254835.46875,16755.0,1.0,3
232640.359375,283204.84375,366707.375,335039.15625,257338.78125,280381.71875,251975.078125,253935.859375,16756.0,1.0,3
232112.953125,282508.375,365821.90625,334778.28125,256498.890625,279887.03125,251774.078125,253618.8125,16757.0,1.0,3
232620.96875,283592.59375,367433.0,335375.78125,257585.453125,280436.53125,252234.625,254319.5,16758.0,1.0,3
233458.4375,284954.28125,369304.3125,336004.21875,259096.0625,281267.40625,252732.890625,255072.578125,16759.0,1.0,3
233479.453125,284728.5,368859.5,335794.84375,258951.953125,281237.96875,252575.4375,254839.046875,16760.0,1.0,3
232647.15625,283219.0625,366702.5625,335030.84375,257347.09375,280376.0,251981.421875,253936.921875,16761.0,1.0,3
232118.046875,282518.71875,365808.9375,334766.46875,256496.921875,279879.53125,251778.5625,253610.6875,16762.0,1.0,3
232622.296875,283599.65625,367419.25,335369.625,257581.421875,280438.0625,252254.921875,254314.40625,16763.0,1.0,3
233453.078125,284956.5,369289.71875,336000.65625,259090.4375,281261.9375,252748.53125,255069.890625,16764.0,1.0,3
233484.1875,284742.5625,368856.71875,335798.59375,258955.609375,281236.46875,252592.96875,254844.59375,16765.0,1.0,3
232667.28125,283243.71875,366709.09375,335042.125,257362.296875,280385.65625,252004.21875,253950.609375,16766.0,1.0,3
232129.5,282526.34375,365798.84375,334769.34375,256504.515625,279884.34375,251792.234375,253618.734375,16767.0,1.0,3
232626.59375,283595.09375,367388.40625,335355.03125,257574.546875,280428.84375,252253.125,254312.625,16768.0,1.0,3
233458.625,284955.875,369267.46875,335982.78125,259091.234375,281265.96875,252754.078125,255074.359375,16769.0,1.0,3
233497.78125,284759.09375,368854.6875,335789.90625,258974.390625,281258.09375,252602.4375,254859.703125,16770.0,1.0,3
232684.625,283268.5,366703.09375,335034.15625,257379.984375,280409.71875,252006.09375,253962.671875,16771.0,1.0,3
232142.375,282543.84375,365774.4375,334760.40625,256508.71875,279903.65625,251790.171875,253627.3125,16772.0,1.0,3
232629.09375,283603.5,367358.09375,335346.375,257569.796875,280450.84375,252255.1875,254324.515625,16773.0,1.0,3
233466.125,284981.09375,369248.15625,335978.125,259091.328125,281297.4375,252763.640625,255092.6875,16774.0,1.0,3
233511.71875,284795.40625,368847.6875,335780.78125,258980.375,281286.34375,252612.984375,254880.171875,16775.0,1.0,3
232696.15625,283301.03125,366698.4375,335020.125,257388.03125,280439.5625,252016.640625,253981.546875,16776.0,1.0,3
232147.109375,282565.75,365754.5,334740.53125,256504.875,279926.375,251796.078125,253638.671875,16777.0,1.0,3
232629.1875,283618.15625,367323.9375,335329.65625,257552.90625,280463.09375,252259.203125,254328.984375,16778.0,1.0,3
233469.4375,284998.0,369223.125,335967.65625,259075.234375,281301.46875,252765.421875,255096.09375,16779.0,1.0,3
233520.671875,284826.3125,368848.40625,335775.78125,258979.484375,281299.40625,252624.875,254888.578125,16780.0,1.0,3
232708.140625,283335.09375,366706.40625,335013.25,257387.953125,280455.84375,252034.796875,253994.0625,16781.0,1.0,3
232160.875,282593.5625,365750.46875,334728.125,256495.40625,279939.96875,251814.765625,253648.40625,16782.0,1.0,3
232639.203125,283634.96875,367306.0625,335309.53125,257535.734375,280463.53125,252262.609375,254330.5,16783.0,1.0,3
233470.328125,285004.5,369204.0,335947.625,259060.125,281297.4375,252760.0625,255097.609375,16784.0,1.0,3
233523.53125,284836.15625,368840.5625,335766.03125,258979.9375,281305.03125,252625.78125,254901.1875,16785.0,1.0,3
232716.453125,283350.03125,366701.3125,335008.21875,257396.71875,280468.53125,252049.546875,254015.78125,16786.0,1.0,3
232160.078125,282594.90625,365731.25,334714.09375,256490.578125,279944.15625,251818.4375,253661.828125,16787.0,1.0,3
232631.25,283621.65625,367276.71875,335289.0625,257519.28125,280458.25,252252.046875,254332.203125,16788.0,1.0,3
233472.75,285003.1875,369191.28125,335936.0,259055.203125,281303.5,252766.234375,255108.609375,16789.0,1.0,3
233534.4375,284846.1875,368847.875,335766.21875,258988.6875,281321.5625,252637.578125,254919.875,16790.0,1.0,3
232727.8125,283354.96875,366707.65625,335009.65625,257408.421875,280479.625,252046.15625,254026.609375,16791.0,1.0,3
232165.875,282586.3125,365722.9375,334714.34375,256500.5,279951.84375,251817.984375,253668.703125,16792.0,1.0,3
232629.28125,283603.875,367260.46875,335288.4375,257525.09375,280472.21875,252269.046875,254346.765625,16793.0,1.0,3
233465.765625,284983.40625,369175.28125,335929.21875,259060.9375,281313.15625,252773.921875,255122.109375,16794.0,1.0,3
233537.5625,284839.65625,368841.25,335753.53125,259001.65625,281332.75,252643.828125,254933.90625,16795.0,1.0,3
232729.59375,283350.75,366701.3125,334993.9375,257420.9375,280494.375,252051.15625,254037.0625,16796.0,1.0,3
232154.53125,282571.84375,365701.28125,334692.28125,256498.625,279965.53125,251820.9375,253671.921875,16797.0,1.0,3
232616.3125,283588.125,367235.4375,335266.15625,257516.609375,280480.4375,252269.046875,254343.375,16798.0,1.0,3
233460.234375,284975.46875,369158.84375,335909.09375,259054.765625,281313.34375,252775.078125,255118.0,16799.0,1.0,3
233531.3125,284836.53125,368838.75,335737.4375,259006.03125,281335.875,252650.0,254929.609375,16800.0,1.0,3
232723.15625,283349.15625,366702.03125,334978.375,257431.9375,280499.75,252059.03125,254029.828125,16801.0,1.0,3
232149.078125,282558.59375,365686.09375,334669.8125,256499.515625,279955.34375,251817.09375,253651.09375,16802.0,1.0,3
232615.328125,283572.9375,367204.3125,335239.0,257506.5,280461.21875,252262.34375,254317.625,16803.0,1.0,3
233459.59375,284966.4375,369132.71875,335886.84375,259050.734375,281301.28125,252774.640625,255100.46875,16804.0,1.0,3
233538.71875,284843.84375,368828.75,335723.84375,259017.390625,281329.875,252654.921875,254928.1875,16805.0,1.0,3
232732.453125,283359.96875,366692.53125,334960.40625,257444.0,280489.1875,252061.34375,254036.890625,16806.0,1.0,3
232143.53125,282553.25,365661.875,334641.03125,256496.828125,279937.65625,251811.453125,253654.21875,16807.0,1.0,3
232590.296875,283550.3125,367168.0,335202.15625,257491.03125,280438.21875,252252.6875,254313.953125,16808.0,1.0,3
233435.734375,284950.25,369104.84375,335856.34375,259039.125,281289.03125,252776.15625,255100.734375,16809.0,1.0,3
233522.453125,284837.78125,368817.65625,335703.0,259016.765625,281328.46875,252665.296875,254935.78125,16810.0,1.0,3
232726.46875,283359.15625,366687.8125,334945.75,257448.390625,280493.9375,252070.46875,254043.140625,16811.0,1.0,3
232146.5625,282548.9375,365644.6875,334624.9375,256494.234375,279936.03125,251812.0,253654.84375,16812.0,1.0,3
232594.59375,283541.28125,367140.65625,335184.53125,257481.734375,280438.6875,252255.359375,254313.515625,16813.0,1.0,3
233442.796875,284942.8125,369082.40625,335840.15625,259032.046875,281286.0625,252768.109375,255099.84375,16814.0,1.0,3
233537.65625,284843.9375,368806.65625,335689.15625,259021.6875,281330.4375,252652.953125,254937.03125,16815.0,1.0,3
232743.453125,283370.5,366676.09375,334933.21875,257459.5625,280502.59375,252066.359375,254046.09375,16816.0,1.0,3
232154.609375,282552.09375,365613.21875,334610.09375,256495.84375,279944.875,251811.375,253654.3125,16817.0,1.0,3
232592.171875,283529.65625,367091.125,335163.625,257472.796875,280436.34375,252243.734375,254307.703125,16818.0,1.0,3
233441.09375,284934.59375,369039.75,335819.875,259030.4375,281290.28125,252766.765625,255100.734375,16819.0,1.0,3
233535.78125,284841.34375,368781.09375,335670.90625,259030.4375,281336.6875,252655.90625,254942.9375,16820.0,1.0,3
232736.828125,283367.28125,366655.53125,334911.84375,257466.359375,280507.4375,252068.0625,254052.890625,16821.0,1.0,3
232140.21875,282541.0,365583.4375,334579.15625,256491.015625,279944.78125,251809.21875,253651.09375,16822.0,1.0,3
232579.65625,283520.625,367059.65625,335134.84375,257464.21875,280437.59375,252244.1875,254303.046875,16823.0,1.0,3
233420.890625,284924.9375,369009.25,335789.46875,259018.90625,281281.25,252759.078125,255093.234375,16824.0,1.0,3
233514.859375,284834.90625,368761.875,335645.53125,259028.203125,281332.75,252650.359375,254942.75,16825.0,1.0,3
232724.859375,283362.71875,366639.34375,334889.3125,257470.296875,280499.5625,252063.671875,254055.65625,16826.0,1.0,3
232128.515625,282527.6875,365554.5625,334553.78125,256489.3125,279927.375,251806.0,253654.140625,16827.0,1.0,3
232561.328125,283496.75,367018.0,335101.40625,257452.6875,280411.3125,252230.421875,254291.703125,16828.0,1.0,3
233408.8125,284909.28125,368979.3125,335761.46875,259015.875,281265.34375,252754.515625,255085.1875,16829.0,1.0,3
233516.546875,284835.96875,368752.46875,335624.96875,259038.3125,281325.0625,252650.546875,254940.875,16830.0,1.0,3
232726.109375,283362.5625,366633.8125,334869.75,257482.1875,280494.1875,252060.453125,254045.46875,16831.0,1.0,3
232125.015625,282515.6875,365535.96875,334533.375,256488.25,279919.5,251797.78125,253634.640625,16832.0,1.0,3
232557.03125,283480.5625,366991.875,335083.875,257443.65625,280400.59375,252229.25,254282.3125,16833.0,1.0,3
233404.796875,284893.125,368959.90625,335748.15625,259013.1875,281260.40625,252752.109375,255080.171875,16834.0,1.0,3
233516.203125,284827.21875,368743.09375,335617.1875,259048.59375,281326.75,252653.484375,254939.890625,16835.0,1.0,3
232727.453125,283358.625,366623.4375,334861.6875,257497.828125,280504.40625,252068.0625,254051.640625,16836.0,1.0,3
232121.890625,282503.71875,365511.46875,334519.25,256495.75,279924.21875,251798.40625,253637.328125,16837.0,1.0,3
232538.53125,283451.25,366949.9375,335061.6875,257435.875,280394.6875,252222.453125,254271.765625,16838.0,1.0,3
233394.609375,284876.3125,368924.59375,335728.9375,259003.53125,281252.375,252746.75,255076.15625,16839.0,1.0,3
233513.609375,284823.375,368726.09375,335603.5,259046.8125,281329.34375,252649.921875,254945.4375,16840.0,1.0,3
232727.984375,283357.46875,366608.5,334849.4375,257496.125,280507.78125,252058.3125,254053.15625,16841.0,1.0,3
232125.734375,282501.21875,365484.03125,334504.15625,256488.96875,279929.3125,251792.765625,253633.84375,16842.0,1.0,3
232539.78125,283444.8125,366909.71875,335038.0,257417.8125,280393.78125,252206.8125,254258.078125,16843.0,1.0,3
233387.625,284868.25,368889.0,335704.8125,258988.875,281251.75,252735.5625,255067.484375,16844.0,1.0,3
233513.515625,284831.5,368708.84375,335585.71875,259049.125,281335.59375,252651.875,254949.734375,16845.0,1.0,3
232733.796875,283374.34375,366601.15625,334833.4375,257506.5,280520.125,252067.15625,254060.578125,16846.0,1.0,3
232119.65625,282504.34375,365462.03125,334476.96875,256482.34375,279923.78125,251786.953125,253628.921875,16847.0,1.0,3
232538.34375,283448.21875,366883.78125,335014.03125,257407.890625,280384.6875,252206.28125,254256.296875,16848.0,1.0,3
233394.515625,284879.15625,368868.875,335685.125,258981.0,281241.90625,252735.203125,255064.4375,16849.0,1.0,3
233524.6875,284848.5,368703.125,335570.0625,259049.84375,281326.3125,252650.984375,254947.671875,16850.0,1.0,3
232743.0,283391.96875,366598.5625,334820.28125,257512.5,280516.28125,252072.796875,254062.28125,16851.0,1.0,3
232122.078125,282513.71875,365444.4375,334463.375,256480.109375,279923.6875,251793.75,253628.390625,16852.0,1.0,3
232526.8125,283438.71875,366848.65625,334995.0,257392.78125,280375.28125,252205.46875,254248.875,16853.0,1.0,3
233380.46875,284869.6875,368838.59375,335668.6875,258970.453125,281232.6875,252733.515625,255056.21875,16854.0,1.0,3
233522.71875,284853.875,368690.53125,335560.75,259056.109375,281324.53125,252651.875,254944.8125,16855.0,1.0,3
232755.078125,283404.75,366592.125,334811.71875,257525.90625,280511.625,252067.25,254066.84375,16856.0,1.0,3
232129.046875,282509.34375,365423.21875,334445.78125,256484.3125,279912.15625,251779.8125,253626.953125,16857.0,1.0,3
232528.421875,283426.21875,366817.09375,334975.25,257388.75,280365.09375,252188.84375,254244.578125,16858.0,1.0,3
233378.953125,284854.3125,368813.28125,335651.5,258970.8125,281226.875,252719.296875,255055.953125,16859.0,1.0,3
233531.3125,284851.8125,368680.25,335548.34375,259068.171875,281328.71875,252643.390625,254951.25,16860.0,1.0,3
232757.578125,283397.6875,366580.15625,334798.5625,257539.765625,280522.90625,252061.4375,254068.796875,16861.0,1.0,3
232128.78125,282496.8125,365395.6875,334427.96875,256489.234375,279923.0625,251777.484375,253626.421875,16862.0,1.0,3
232517.875,283402.53125,366776.40625,334952.875,257382.859375,280373.6875,252191.4375,254240.375,16863.0,1.0,3
233377.796875,284843.75,368781.1875,335631.5,258965.796875,281233.59375,252718.84375,255051.03125,16864.0,1.0,3
233534.53125,284853.875,368664.78125,335532.59375,259073.53125,281339.71875,252652.515625,254955.546875,16865.0,1.0,3
232757.046875,283401.4375,366569.78125,334784.53125,257546.109375,280534.4375,252069.9375,254072.5625,16866.0,1.0,3
232121.171875,282491.90625,365375.125,334412.0625,256486.28125,279923.78125,251769.25,253617.75,16867.0,1.0,3
232512.0625,283397.96875,366746.375,334933.125,257370.34375,280362.875,252179.90625,254232.234375,16868.0,1.0,3
233370.8125,284841.78125,368753.375,335613.34375,258955.96875,281227.78125,252722.15625,255047.90625,16869.0,1.0,3
233524.421875,284853.0625,368650.5625,335520.625,259076.671875,281340.15625,252652.78125,254953.3125,16870.0,1.0,3
232758.46875,283408.40625,366560.84375,334771.65625,257554.15625,280526.3125,252064.484375,254073.0,16871.0,1.0,3
232123.5,282489.6875,365351.71875,334388.625,256485.296875,279907.25,251763.796875,253610.765625,16872.0,1.0,3
232511.171875,283384.46875,366710.6875,334903.4375,257361.125,280338.625,252167.828125,254214.1875,16873.0,1.0,3
233367.25,284831.34375,368722.09375,335585.625,258951.3125,281204.09375,252707.046875,255034.3125,16874.0,1.0,3
233525.9375,284856.53125,368635.90625,335496.40625,259081.859375,281323.71875,252642.3125,254949.546875,16875.0,1.0,3
232763.75,283417.0,366550.9375,334747.78125,257564.703125,280521.90625,252060.09375,254071.9375,16876.0,1.0,3
232126.28125,282491.5625,365330.25,334362.53125,256487.703125,279900.53125,251757.09375,253606.21875,16877.0,1.0,3
232504.375,283373.90625,366676.0,334872.78125,257351.5625,280327.90625,252155.765625,254200.40625,16878.0,1.0,3
233357.40625,284819.0,368690.625,335558.1875,258943.546875,281199.34375,252700.4375,255024.203125,16879.0,1.0,3
233533.1875,284864.3125,368623.90625,335482.34375,259094.375,281334.71875,252648.84375,254950.796875,16880.0,1.0,3
232770.90625,283426.5625,366543.875,334736.6875,257585.453125,280526.75,252058.046875,254072.109375,16881.0,1.0,3
232118.9375,282485.65625,365302.71875,334344.5625,256493.96875,279896.875,251748.515625,253600.484375,16882.0,1.0,3
232491.40625,283362.03125,366634.96875,334854.09375,257344.765625,280324.3125,252149.234375,254200.5,16883.0,1.0,3
233353.921875,284814.875,368660.9375,335543.15625,258940.59375,281194.25,252693.28125,255028.59375,16884.0,1.0,3
233532.015625,284865.03125,368608.71875,335468.125,259098.03125,281328.625,252645.4375,254958.046875,16885.0,1.0,3
232773.484375,283434.0,366536.71875,334727.75,257591.703125,280535.96875,252065.015625,254079.359375,16886.0,1.0,3
232122.703125,282490.03125,365288.84375,334336.875,256496.5625,279909.84375,251755.046875,253604.609375,16887.0,1.0,3
232480.765625,283344.3125,366600.28125,334837.03125,257332.96875,280322.625,252147.0,254194.515625,16888.0,1.0,3
233339.078125,284796.28125,368623.46875,335525.4375,258924.5,281185.21875,252690.328125,255021.25,16889.0,1.0,3
233529.96875,284866.375,368591.625,335457.78125,259094.109375,281328.1875,252648.390625,254961.4375,16890.0,1.0,3
232777.78125,283440.0625,366524.90625,334715.59375,257591.53125,280539.34375,252072.4375,254088.296875,16891.0,1.0,3
232117.78125,282480.71875,365258.0,334311.5625,256479.9375,279905.90625,251757.8125,253601.109375,16892.0,1.0,3
232477.734375,283334.125,366566.03125,334811.90625,257310.515625,280314.03125,252144.140625,254184.40625,16893.0,1.0,3
233335.953125,284784.75,368597.4375,335503.53125,258905.984375,281175.125,252682.546875,255010.34375,16894.0,1.0,3
233529.15625,284860.375,368580.5625,335444.09375,259090.890625,281327.84375,252645.4375,254958.84375,16895.0,1.0,3
232780.734375,283439.8125,366516.6875,334704.59375,257597.875,280541.0625,252068.765625,254090.53125,16896.0,1.0,3
232122.703125,282474.21875,365239.6875,334298.15625,256481.453125,279901.78125,251748.875,253597.453125,16897.0,1.0,3
232478.984375,283317.3125,366532.6875,334793.21875,257301.046875,280304.65625,252137.171875,254174.296875,16898.0,1.0,3
233340.0625,284773.5625,368570.625,335486.5625,258901.15625,281170.90625,252677.453125,255007.40625,16899.0,1.0,3
233541.671875,284864.0625,368573.03125,335432.65625,259100.546875,281327.375,252639.90625,254964.75,16900.0,1.0,3
232797.8125,283446.6875,366514.0,334694.15625,257611.375,280544.34375,252062.328125,254092.671875,16901.0,1.0,3
232124.125,282464.46875,365221.53125,334282.78125,256486.1875,279902.6875,251743.6875,253595.65625,16902.0,1.0,3
232467.1875,283297.28125,366500.84375,334773.90625,257296.75,280303.21875,252129.828125,254170.453125,16903.0,1.0,3
233333.0,284763.21875,368545.3125,335471.1875,258899.28125,281165.75,252671.109375,255003.375,16904.0,1.0,3
233539.359375,284862.625,368561.15625,335417.96875,259106.4375,281322.5625,252635.34375,254960.546875,16905.0,1.0,3
232799.328125,283450.09375,366507.90625,334680.375,257624.515625,280546.0625,252064.5625,254093.21875,16906.0,1.0,3
232131.640625,282471.0,365205.71875,334268.21875,256493.96875,279899.46875,251744.21875,253597.09375,16907.0,1.0,3
232472.8125,283298.1875,366472.34375,334755.21875,257290.859375,280289.1875,252121.515625,254163.484375,16908.0,1.0,3
233337.296875,284767.59375,368520.90625,335455.1875,258896.515625,281160.1875,252672.53125,254999.53125,16909.0,1.0,3
233541.234375,284871.84375,368548.8125,335407.625,259112.515625,281325.6875,252644.28125,254962.609375,16910.0,1.0,3
232800.21875,283461.34375,366500.3125,334673.65625,257635.96875,280551.25,252071.453125,254100.359375,16911.0,1.0,3
232128.78125,282475.0,365182.71875,334252.125,256490.84375,279892.84375,251731.96875,253589.40625,16912.0,1.0,3
232459.3125,283287.8125,366434.34375,334736.53125,257279.765625,280276.9375,252107.9375,254150.609375,16913.0,1.0,3
233324.59375,284756.59375,368487.03125,335440.34375,258890.703125,281153.5,252666.453125,254994.703125,16914.0,1.0,3
233544.890625,284879.78125,368534.0625,335401.25,259119.578125,281327.125,252646.15625,254969.3125,16915.0,1.0,3
232815.515625,283479.0625,366495.5,334669.03125,257646.15625,280554.8125,252079.671875,254109.9375,16916.0,1.0,3
232130.484375,282472.875,365165.28125,334242.28125,256492.1875,279893.125,251743.6875,253598.703125,16917.0,1.0,3
232458.0625,283278.5,366405.90625,334718.5625,257271.71875,280273.90625,252116.15625,254159.015625,16918.0,1.0,3
233327.640625,284751.65625,368461.71875,335422.71875,258882.296875,281148.75,252671.828125,255005.15625,16919.0,1.0,3
233546.328125,284875.6875,368519.84375,335388.3125,259122.09375,281327.75,252650.546875,254978.15625,16920.0,1.0,3
232811.578125,283473.25,366484.84375,334654.71875,257655.453125,280567.875,252087.90625,254115.390625,16921.0,1.0,3
232137.265625,282470.90625,365147.78125,334228.4375,256498.078125,279904.5625,251744.21875,253598.078125,16922.0,1.0,3
232459.140625,283264.125,366372.90625,334699.59375,257264.203125,280269.53125,252107.390625,254145.6875,16923.0,1.0,3
233317.4375,284729.84375,368429.71875,335402.34375,258873.625,281138.75,252659.921875,254988.890625,16924.0,1.0,3
233546.0625,284871.9375,368506.15625,335375.25,259129.859375,281322.65625,252644.8125,254977.890625,16925.0,1.0,3
232823.203125,283479.9375,366472.6875,334641.75,257666.71875,280552.59375,252072.34375,254113.953125,16926.0,1.0,3
232128.6875,282457.03125,365117.09375,334206.53125,256495.578125,279885.6875,251727.234375,253587.171875,16927.0,1.0,3
232445.09375,283242.9375,366332.78125,334677.875,257252.765625,280253.6875,252090.40625,254136.9375,16928.0,1.0,3
233310.65625,284715.09375,368398.59375,335385.4375,258868.265625,281128.46875,252650.09375,254985.859375,16929.0,1.0,3
233549.28125,284873.53125,368495.25,335364.34375,259136.65625,281321.46875,252644.734375,254981.65625,16930.0,1.0,3
232824.546875,283485.21875,366469.90625,334635.5,257678.4375,280559.75,252077.4375,254121.015625,16931.0,1.0,3
232133.0625,282458.375,365103.59375,334196.59375,256498.703125,279888.65625,251727.953125,253587.796875,16932.0,1.0,3
232435.171875,283227.5625,366300.5,334657.75,257240.0625,280247.4375,252087.359375,254128.53125,16933.0,1.0,3
233299.203125,284708.3125,368369.0,335365.5,258855.75,281127.28125,252649.203125,254978.703125,16934.0,1.0,3
233545.875,284879.15625,368483.1875,335349.40625,259137.28125,281327.21875,252642.3125,254976.734375,16935.0,1.0,3
232825.078125,283492.46875,366463.65625,334621.09375,257685.140625,280564.84375,252076.109375,254121.546875,16936.0,1.0,3
232130.03125,282460.875,365087.25,334178.96875,256500.234375,279895.09375,251737.96875,253593.609375,16937.0,1.0,3
232435.0,283226.5625,366272.59375,334634.5,257232.203125,280247.34375,252090.671875,254124.859375,16938.0,1.0,3
233295.359375,284703.3125,368340.9375,335339.9375,258845.546875,281120.125,252643.203125,254970.390625,16939.0,1.0,3
233542.84375,284881.84375,368471.65625,335331.96875,259141.3125,281331.5,252643.390625,254981.203125,16940.0,1.0,3
232831.0625,283504.34375,366461.25,334609.375,257698.015625,280574.40625,252079.40625,254130.3125,16941.0,1.0,3
232136.828125,282463.9375,365069.09375,334161.1875,256503.09375,279895.53125,251734.65625,253593.875,16942.0,1.0,3
232435.265625,283221.46875,366241.65625,334616.0,257229.515625,280249.40625,252097.5625,254129.421875,16943.0,1.0,3
233302.25,284704.46875,368315.8125,335328.125,258849.484375,281126.5,252656.890625,254980.9375,16944.0,1.0,3
233562.234375,284894.53125,368458.0625,335318.46875,259153.734375,281340.34375,252657.15625,254994.34375,16945.0,1.0,3
232847.609375,283512.03125,366452.03125,334590.15625,257715.265625,280589.40625,252096.3125,254145.421875,16946.0,1.0,3
232139.78125,282453.5625,365045.3125,334137.9375,256511.40625,279899.28125,251739.03125,253597.984375,16947.0,1.0,3
232429.453125,283198.40625,366201.4375,334587.5625,257219.328125,280239.5625,252087.546875,254118.78125,16948.0,1.0,3
233290.171875,284678.0,368278.90625,335297.46875,258833.921875,281115.75,252646.703125,254968.78125,16949.0,1.0,3
233545.875,284873.8125,368436.15625,335295.5,259147.84375,281328.8125,252647.953125,254987.546875,16950.0,1.0,3
232831.34375,283499.78125,366429.25,334569.0625,257707.21875,280570.09375,252070.5625,254131.484375,16951.0,1.0,3
232131.109375,282447.125,365011.15625,334113.8125,256494.6875,279882.84375,251709.0,253578.140625,16952.0,1.0,3
232414.078125,283181.3125,366155.21875,334559.9375,257194.5625,280220.4375,252059.03125,254097.6875,16953.0,1.0,3
233274.96875,284667.625,368237.125,335275.8125,258814.96875,281104.125,252628.71875,254956.078125,16954.0,1.0,3
233548.109375,284887.5625,368414.625,335284.6875,259147.296875,281334.625,252644.734375,254981.375,16955.0,1.0,3
232846.53125,283523.5,366417.53125,334562.8125,257718.75,280580.75,252078.34375,254133.796875,16956.0,1.0,3
232135.75,282453.90625,364988.4375,334101.46875,256496.921875,279884.8125,251711.59375,253581.265625,16957.0,1.0,3
232410.140625,283177.3125,366122.3125,334540.4375,257185.359375,280217.03125,252057.59375,254097.328125,16958.0,1.0,3
233269.078125,284663.4375,368209.96875,335253.65625,258803.078125,281094.46875,252623.984375,254955.90625,16959.0,1.0,3
233545.25,284889.8125,368404.5,335264.375,259140.6875,281324.34375,252638.921875,254982.8125,16960.0,1.0,3
232850.03125,283535.90625,366420.84375,334548.5,257720.625,280583.34375,252083.796875,254140.421875,16961.0,1.0,3
232133.34375,282460.09375,364981.28125,334083.84375,256493.796875,279889.375,251722.9375,253580.640625,16962.0,1.0,3
232400.484375,283174.34375,366099.78125,334516.21875,257169.796875,280210.34375,252058.21875,254087.40625,16963.0,1.0,3
233269.796875,284669.25,368193.6875,335233.34375,258794.5,281090.46875,252628.015625,254947.046875,16964.0,1.0,3
233552.5,284904.03125,368401.375,335249.09375,259146.234375,281327.28125,252648.75,254983.796875,16965.0,1.0,3
232854.671875,283543.15625,366419.84375,334532.0625,257730.015625,280587.375,252088.078125,254139.171875,16966.0,1.0,3
232132.171875,282454.0,364967.625,334061.84375,256495.3125,279889.53125,251721.25,253576.796875,16967.0,1.0,3
232394.140625,283159.34375,366074.03125,334495.5625,257166.046875,280209.0,252058.9375,254084.1875,16968.0,1.0,3
233255.75,284645.625,368165.25,335214.59375,258789.3125,281089.21875,252625.953125,254947.40625,16969.0,1.0,3
233544.0,284892.125,368389.9375,335238.53125,259155.171875,281339.90625,252655.28125,254996.578125,16970.0,1.0,3
232858.25,283545.125,366418.15625,334525.25,257751.65625,280605.34375,252097.921875,254159.28125,16971.0,1.0,3
232129.21875,282445.96875,364949.28125,334048.53125,256507.296875,279895.53125,251720.890625,253586.90625,16972.0,1.0,3
232386.625,283141.28125,366041.21875,334478.21875,257165.328125,280206.40625,252050.359375,254083.109375,16973.0,1.0,3
233253.15625,284634.28125,368138.4375,335201.78125,258788.15625,281080.53125,252615.046875,254944.015625,16974.0,1.0,3
233554.1875,284896.78125,368380.5625,335232.8125,259163.484375,281325.6875,252645.359375,254999.796875,16975.0,1.0,3
232870.234375,283553.4375,366413.78125,334522.46875,257758.8125,280596.3125,252096.9375,254167.421875,16976.0,1.0,3
232138.796875,282449.875,364933.65625,334042.625,256505.40625,279889.8125,251725.359375,253593.875,16977.0,1.0,3
232391.359375,283138.9375,366012.4375,334467.3125,257152.265625,280198.09375,252053.578125,254089.28125,16978.0,1.0,3
233264.0625,284642.59375,368112.96875,335192.0625,258778.5,281076.875,252618.984375,254948.5625,16979.0,1.0,3
233561.703125,284909.46875,368369.65625,335226.65625,259167.328125,281337.5,252660.203125,255005.875,16980.0,1.0,3
232875.421875,283567.84375,366407.15625,334517.125,257768.28125,280606.40625,252104.265625,254168.9375,16981.0,1.0,3
232146.21875,282464.5625,364922.5625,334035.46875,256509.25,279890.6875,251726.34375,253586.984375,16982.0,1.0,3
232395.296875,283146.375,365989.09375,334455.0625,257146.375,280190.21875,252055.984375,254070.59375,16983.0,1.0,3
233262.015625,284645.90625,368092.46875,335178.09375,258774.65625,281070.4375,252625.234375,254936.671875,16984.0,1.0,3
233563.765625,284922.71875,368361.6875,335216.1875,259172.875,281334.71875,252666.546875,255002.65625,16985.0,1.0,3
232884.71875,283593.03125,366405.8125,334508.4375,257782.328125,280613.1875,252123.046875,254171.71875,16986.0,1.0,3
232159.4375,282486.8125,364909.40625,334025.03125,256519.09375,279903.65625,251747.0,253590.390625,16987.0,1.0,3
232405.21875,283158.71875,365962.8125,334441.375,257144.578125,280197.8125,252067.609375,254078.640625,16988.0,1.0,3
233270.5,284658.34375,368069.40625,335168.4375,258768.75,281073.8125,252634.890625,254945.890625,16989.0,1.0,3
233583.421875,284950.6875,368354.1875,335213.59375,259181.546875,281344.625,252676.921875,255016.078125,16990.0,1.0,3
232906.0,283623.34375,366405.71875,334502.71875,257798.421875,280628.40625,252124.5625,254183.6875,16991.0,1.0,3
232171.6875,282506.5625,364899.9375,334010.09375,256527.671875,279920.125,251745.390625,253601.65625,16992.0,1.0,3
232403.171875,283165.0625,365935.96875,334419.21875,257141.640625,280218.5625,252072.53125,254083.109375,16993.0,1.0,3
233268.265625,284668.4375,368042.9375,335146.71875,258767.765625,281095.1875,252644.90625,254950.171875,16994.0,1.0,3
233590.9375,284975.46875,368345.9375,335201.625,259189.765625,281368.78125,252689.796875,255029.484375,16995.0,1.0,3
232920.203125,283654.28125,366401.625,334497.34375,257808.703125,280654.6875,252143.6875,254203.0,16996.0,1.0,3
232185.375,282530.34375,364882.6875,334002.03125,256525.96875,279936.03125,251759.421875,253611.046875,16997.0,1.0,3
232418.015625,283184.1875,365910.5,334406.78125,257129.390625,280223.3125,252078.515625,254088.03125,16998.0,1.0,3
233280.703125,284687.125,368022.5625,335138.9375,258757.125,281107.71875,252655.09375,254963.40625,16999.0,1.0,3
233611.140625,285006.5625,368341.5625,335201.34375,259188.421875,281392.65625,252702.046875,255047.71875,17000.0,1.0,3
232940.859375,283686.375,366402.40625,334499.59375,257814.0625,280681.25,252152.546875,254218.109375,17001.0,1.0,3
232196.90625,282551.375,364874.8125,334002.9375,256526.78125,279958.28125,251767.921875,253627.140625,17002.0,1.0,3
232425.609375,283196.71875,365889.21875,334405.0,257118.296875,280241.0,252090.234375,254101.34375,17003.0,1.0,3
233290.625,284701.59375,368002.53125,335132.0625,258743.1875,281123.09375,252660.46875,254965.734375,17004.0,1.0,3
233617.765625,285021.9375,368335.40625,335192.5,259184.5,281403.46875,252709.375,255054.515625,17005.0,1.0,3
232941.046875,283696.9375,366404.65625,334488.40625,257815.21875,280684.71875,252158.796875,254230.1875,17006.0,1.0,3
232200.03125,282555.375,364868.09375,333990.15625,256520.4375,279956.78125,251771.765625,253633.03125,17007.0,1.0,3
232424.984375,283186.875,365868.40625,334387.125,257100.953125,280226.15625,252079.765625,254094.109375,17008.0,1.0,3
233283.828125,284684.78125,367983.84375,335116.21875,258729.328125,281107.53125,252656.171875,254968.6875,17009.0,1.0,3
233615.609375,285012.125,368328.875,335178.625,259180.734375,281398.71875,252707.671875,255061.40625,17010.0,1.0,3
232952.21875,283702.5625,366409.5625,334481.625,257821.390625,280695.375,252164.171875,254244.3125,17011.0,1.0,3
232202.265625,282549.65625,364858.71875,333973.625,256517.9375,279965.0,251770.234375,253640.09375,17012.0,1.0,3
232420.515625,283170.15625,365847.125,334368.4375,257088.703125,280236.0,252079.234375,254101.078125,17013.0,1.0,3
233283.375,284670.40625,367965.15625,335103.09375,258718.328125,281116.75,252653.046875,254976.640625,17014.0,1.0,3
233617.765625,285005.6875,368326.625,335174.0,259185.203125,281414.90625,252711.875,255071.0625,17015.0,1.0,3
232960.890625,283701.5,366411.71875,334479.46875,257835.078125,280717.375,252173.46875,254256.203125,17016.0,1.0,3
232211.296875,282543.59375,364847.28125,333967.34375,256523.296875,279985.5625,251775.34375,253643.578125,17017.0,1.0,3
232417.03125,283154.25,365820.1875,334351.8125,257078.953125,280238.75,252073.78125,254092.234375,17018.0,1.0,3
233271.40625,284656.53125,367942.46875,335086.09375,258710.015625,281114.3125,252652.859375,254967.34375,17019.0,1.0,3
233619.1875,285017.3125,368326.1875,335168.8125,259194.59375,281424.84375,252723.9375,255078.125,17020.0,1.0,3
232968.40625,283723.40625,366419.84375,334475.90625,257850.1875,280721.28125,252183.5625,254262.8125,17021.0,1.0,3
232206.921875,282554.3125,364842.28125,333957.25,256529.90625,279972.5,251774.171875,253641.890625,17022.0,1.0,3
232405.40625,283155.3125,365799.8125,334336.59375,257077.890625,280222.125,252071.546875,254083.734375,17023.0,1.0,3
233269.171875,284665.84375,367925.65625,335068.84375,258710.453125,281099.9375,252655.453125,254958.765625,17024.0,1.0,3
233614.0,285027.75,368319.3125,335152.1875,259200.765625,281409.0,252727.609375,255071.5,17025.0,1.0,3
232965.359375,283740.5625,366418.15625,334460.6875,257862.15625,280714.3125,252185.265625,254258.53125,17026.0,1.0,3
232207.71875,282569.25,364830.90625,333939.0,256535.359375,279965.28125,251773.8125,253631.875,17027.0,1.0,3
232402.625,283157.28125,365774.34375,334315.40625,257073.140625,280212.9375,252068.953125,254070.5,17028.0,1.0,3
233254.59375,284655.46875,367896.59375,335047.125,258700.09375,281093.84375,252650.265625,254949.46875,17029.0,1.0,3
233614.0,285032.40625,368308.5625,335134.125,259201.390625,281411.96875,252725.546875,255067.921875,17030.0,1.0,3
232973.671875,283748.96875,366416.0,334442.90625,257868.59375,280719.3125,252185.625,254258.703125,17031.0,1.0,3
232206.390625,282562.53125,364818.03125,333917.46875,256535.71875,279972.15625,251778.015625,253633.578125,17032.0,1.0,3
232398.421875,283142.4375,365747.25,334291.46875,257063.046875,280212.125,252071.28125,254071.84375,17033.0,1.0,3
233257.359375,284645.71875,367871.375,335024.6875,258693.5625,281087.59375,252644.8125,254950.71875,17034.0,1.0,3
233617.140625,285027.75,368295.15625,335116.6875,259207.109375,281415.53125,252726.265625,255075.171875,17035.0,1.0,3
232978.0625,283746.5625,366407.0625,334425.28125,257878.4375,280729.96875,252193.21875,254269.703125,17036.0,1.0,3
232214.15625,282557.90625,364795.59375,333896.28125,256538.21875,279979.84375,251779.359375,253639.03125,17037.0,1.0,3
232391.640625,283117.75,365703.0,334263.03125,257050.890625,280216.3125,252062.515625,254063.796875,17038.0,1.0,3
233251.640625,284624.0,367828.90625,335001.0,258682.65625,281099.03125,252646.078125,254947.234375,17039.0,1.0,3
233621.25,285019.96875,368269.9375,335101.21875,259208.640625,281429.75,252733.953125,255086.4375,17040.0,1.0,3
232977.96875,283737.34375,366387.40625,334412.59375,257888.53125,280744.71875,252198.765625,254281.765625,17041.0,1.0,3
232207.359375,282540.46875,364765.375,333879.09375,256538.9375,279981.625,251779.359375,253644.125,17042.0,1.0,3
232390.46875,283106.59375,365665.875,334240.9375,257040.515625,280209.875,252060.546875,254066.125,17043.0,1.0,3
233249.765625,284616.125,367793.15625,334978.90625,258670.3125,281088.21875,252643.203125,254945.625,17044.0,1.0,3
233622.046875,285023.5625,368248.5,335083.78125,259205.765625,281421.15625,252733.25,255088.21875,17045.0,1.0,3
232983.953125,283750.84375,366373.8125,334397.59375,257892.65625,280739.34375,252198.046875,254277.65625,17046.0,1.0,3
232210.5,282545.375,364738.90625,333855.3125,256535.0,279971.34375,251774.625,253629.1875,17047.0,1.0,3
232381.703125,283094.59375,365625.46875,334210.625,257026.5625,280194.78125,252057.859375,254046.453125,17048.0,1.0,3
233245.03125,284611.125,367761.84375,334949.75,258660.75,281072.21875,252638.65625,254926.671875,17049.0,1.0,3
233624.28125,285030.1875,368236.59375,335061.4375,259211.859375,281413.9375,252737.0,255079.28125,17050.0,1.0,3
232989.046875,283763.8125,366372.75,334377.90625,257909.015625,280740.53125,252210.84375,254281.765625,17051.0,1.0,3
232214.15625,282557.34375,364736.0625,333837.625,256549.578125,279976.8125,251779.53125,253630.0,17052.0,1.0,3
232375.625,283093.34375,365607.84375,334191.3125,257031.21875,280188.25,252050.984375,254038.859375,17053.0,1.0,3
233226.875,284596.625,367741.8125,334930.90625,258661.734375,281064.15625,252630.25,254921.03125,17054.0,1.0,3
233620.171875,285028.125,368232.3125,335049.1875,259224.28125,281413.40625,252734.578125,255075.796875,17055.0,1.0,3
232996.46875,283766.75,366374.0,334367.8125,257926.53125,280738.46875,252206.28125,254280.875,17056.0,1.0,3
232215.140625,282542.96875,364723.96875,333822.78125,256559.0625,279968.65625,251771.578125,253630.359375,17057.0,1.0,3
232373.9375,283069.9375,365582.8125,334174.0625,257030.671875,280187.28125,252046.328125,254033.21875,17058.0,1.0,3
233231.4375,284580.28125,367717.78125,334917.5625,258659.765625,281067.3125,252628.640625,254913.875,17059.0,1.0,3
233618.921875,285014.625,368219.34375,335040.40625,259229.375,281419.75,252731.453125,255075.34375,17060.0,1.0,3
232992.71875,283759.875,366369.53125,334362.53125,257939.40625,280758.03125,252212.625,254287.84375,17061.0,1.0,3
232210.046875,282536.25,364706.5625,333813.40625,256563.265625,279984.03125,251778.28125,253628.75,17062.0,1.0,3
232367.046875,283057.6875,365549.46875,334159.125,257019.6875,280179.9375,252038.1875,254028.75,17063.0,1.0,3
233221.953125,284567.40625,367685.40625,334900.3125,258649.296875,281058.625,252620.046875,254914.59375,17064.0,1.0,3
233618.5625,285016.21875,368205.59375,335029.34375,259232.5,281422.4375,252730.65625,255085.984375,17065.0,1.0,3
232997.359375,283764.71875,366363.09375,334354.65625,257946.296875,280754.5625,252204.40625,254298.9375,17066.0,1.0,3
232220.421875,282544.21875,364692.78125,333804.90625,256567.1875,279981.4375,251777.125,253647.875,17067.0,1.0,3
232363.296875,283054.28125,365518.28125,334141.6875,257011.09375,280177.4375,252038.375,254041.265625,17068.0,1.0,3
233214.890625,284570.25,367654.5625,334882.25,258639.640625,281054.96875,252623.0,254919.78125,17069.0,1.0,3
233616.15625,285033.84375,368186.53125,335016.1875,259232.859375,281421.0,252738.078125,255094.296875,17070.0,1.0,3
232997.09375,283786.0625,366349.65625,334344.84375,257952.203125,280757.25,252213.25,254307.609375,17071.0,1.0,3
232210.40625,282553.40625,364668.5625,333788.71875,256565.578125,279978.5,251784.640625,253648.140625,17072.0,1.0,3
232357.484375,283059.65625,365487.34375,334124.1875,257005.109375,280172.96875,252042.84375,254032.421875,17073.0,1.0,3
233210.25,284569.09375,367623.0,334863.65625,258631.875,281044.3125,252613.53125,254906.734375,17074.0,1.0,3
233616.328125,285038.65625,368168.9375,335001.34375,259235.640625,281415.09375,252727.4375,255089.203125,17075.0,1.0,3
233006.75,283802.0,366341.53125,334332.03125,257965.703125,280758.84375,252209.765625,254309.578125,17076.0,1.0,3
232218.0,282561.65625,364652.90625,333772.1875,256576.484375,279982.4375,251773.734375,253641.703125,17077.0,1.0,3
232356.9375,283055.71875,365458.90625,334102.28125,257004.75,280173.5,252030.59375,254024.546875,17078.0,1.0,3
233215.609375,284569.8125,367602.8125,334848.28125,258637.328125,281053.34375,252617.546875,254912.625,17079.0,1.0,3
233627.328125,285047.53125,368164.0,334989.1875,259251.90625,281432.0,252735.921875,255094.125,17080.0,1.0,3
233014.984375,283807.625,366341.09375,334317.125,257984.921875,280776.1875,252212.359375,254309.125,17081.0,1.0,3
232226.046875,282558.96875,364642.625,333755.71875,256589.1875,279988.5,251767.375,253636.96875,17082.0,1.0,3
232357.484375,283041.125,365430.84375,334080.71875,257004.296875,280168.65625,252019.15625,254012.03125,17083.0,1.0,3
233204.515625,284549.53125,367573.125,334823.5,258631.421875,281047.09375,252607.625,254901.359375,17084.0,1.0,3
233617.40625,285035.1875,368149.25,334970.9375,259254.40625,281428.6875,252729.84375,255095.109375,17085.0,1.0,3
233021.328125,283816.125,366338.21875,334307.28125,257998.953125,280780.84375,252214.765625,254314.046875,17086.0,1.0,3
232229.625,282565.40625,364629.9375,333743.84375,256596.15625,279999.875,251775.25,253636.703125,17087.0,1.0,3
232342.640625,283028.09375,365402.84375,334065.0,256994.828125,280171.1875,252022.640625,254005.59375,17088.0,1.0,3
233191.203125,284544.59375,367545.65625,334811.96875,258620.0625,281050.03125,252613.96875,254898.234375,17089.0,1.0,3
233616.328125,285050.28125,368138.875,334967.625,259258.703125,281440.5625,252744.6875,255099.484375,17090.0,1.0,3
233020.34375,283834.4375,366337.34375,334305.75,258009.59375,280792.5625,252225.765625,254321.375,17091.0,1.0,3
232212.28125,282565.125,364616.59375,333733.90625,256594.28125,279994.15625,251771.40625,253635.1875,17092.0,1.0,3
232324.765625,283021.75,365376.03125,334047.90625,256983.921875,280154.8125,252011.1875,253997.453125,17093.0,1.0,3
233182.078125,284539.59375,367522.25,334794.625,258610.671875,281030.8125,252602.078125,254890.359375,17094.0,1.0,3
233606.046875,285045.65625,368127.625,334952.8125,259257.71875,281424.375,252737.359375,255102.796875,17095.0,1.0,3
233011.84375,283831.0625,366331.34375,334291.09375,258015.046875,280784.25,252229.703125,254333.1875,17096.0,1.0,3
232221.21875,282572.90625,364605.53125,333715.59375,256600.8125,279996.375,251777.75,253638.484375,17097.0,1.0,3
232331.546875,283020.3125,365347.40625,334022.96875,256980.96875,280157.75,252011.90625,253993.609375,17098.0,1.0,3
233176.1875,284526.1875,367484.6875,334763.96875,258602.1875,281023.9375,252591.53125,254879.015625,17099.0,1.0,3
233601.40625,285036.4375,368097.65625,334921.15625,259257.359375,281419.46875,252724.125,255089.203125,17100.0,1.0,3
233014.796875,283830.0625,366311.03125,334261.6875,258025.0625,280785.21875,252215.578125,254322.1875,17101.0,1.0,3
232217.5625,282562.1875,364576.0,333682.59375,256605.109375,279992.09375,251761.03125,253631.96875,17102.0,1.0,3
232322.515625,282998.40625,365304.6875,333986.84375,256976.953125,280149.96875,252002.15625,253990.21875,17103.0,1.0,3
233166.96875,284502.0625,367441.0625,334728.375,258599.328125,281018.84375,252584.46875,254878.296875,17104.0,1.0,3
233600.6875,285025.53125,368071.90625,334895.9375,259265.3125,281422.96875,252722.0625,255091.703125,17105.0,1.0,3
233016.953125,283828.0,366294.5,334241.375,258040.078125,280794.0625,252214.5,254328.265625,17106.0,1.0,3
232213.0,282551.375,364550.0,333659.34375,256613.0625,279997.09375,251760.234375,253632.40625,17107.0,1.0,3
232313.578125,282983.65625,365266.6875,333962.15625,256968.625,280151.59375,252000.109375,253982.265625,17108.0,1.0,3
233157.765625,284494.09375,367409.59375,334711.40625,258587.171875,281018.9375,252588.140625,254876.6875,17109.0,1.0,3
233594.34375,285027.125,368056.8125,334885.28125,259262.8125,281420.8125,252727.609375,255102.53125,17110.0,1.0,3
233014.4375,283835.59375,366286.46875,334231.375,258040.984375,280788.0,252208.421875,254331.484375,17111.0,1.0,3
232209.421875,282556.8125,364534.71875,333651.125,256609.390625,279990.3125,251751.828125,253631.609375,17112.0,1.0,3
232302.9375,282977.21875,365237.09375,333947.5,256953.078125,280137.28125,251984.453125,253974.390625,17113.0,1.0,3
233141.046875,284482.75,367376.6875,334691.90625,258568.84375,281001.3125,252570.796875,254865.421875,17114.0,1.0,3
233594.25,285038.5,368042.5,334870.8125,259258.4375,281415.8125,252719.5625,255097.703125,17115.0,1.0,3
233023.46875,283854.5625,366283.96875,334220.8125,258047.421875,280793.8125,252213.703125,254339.703125,17116.0,1.0,3
232212.375,282560.9375,364517.375,333632.625,256603.765625,279985.5625,251748.78125,253635.0,17117.0,1.0,3
232287.921875,282957.71875,365197.46875,333919.625,256932.953125,280114.84375,251967.46875,253960.0,17118.0,1.0,3
233135.234375,284470.5,367340.5625,334667.21875,258554.171875,280986.65625,252558.28125,254854.0625,17119.0,1.0,3
233594.25,285031.25,368022.90625,334852.21875,259255.65625,281407.75,252711.875,255095.640625,17120.0,1.0,3
233029.828125,283856.875,366279.9375,334209.03125,258057.515625,280796.5,252213.15625,254344.171875,17121.0,1.0,3
232223.109375,282566.03125,364512.09375,333618.65625,256617.0,279997.46875,251756.828125,253635.359375,17122.0,1.0,3
232297.9375,282954.6875,365181.46875,333901.625,256939.3125,280125.40625,251979.546875,253963.484375,17123.0,1.0,3
233136.84375,284456.4375,367319.65625,334647.75,258554.078125,280984.34375,252559.4375,254853.171875,17124.0,1.0,3
233602.828125,285030.875,368015.78125,334839.53125,259268.453125,281411.875,252715.625,255091.53125,17125.0,1.0,3
233038.3125,283856.875,366272.25,334193.46875,258074.421875,280794.96875,252208.78125,254335.859375,17126.0,1.0,3
232223.8125,282554.6875,364488.65625,333597.84375,256624.0625,279988.59375,251740.921875,253627.671875,17127.0,1.0,3
232296.234375,282937.15625,365140.625,333877.59375,256935.28125,280112.0625,251959.6875,253950.78125,17128.0,1.0,3
233129.421875,284437.84375,367277.71875,334621.375,258549.4375,280975.84375,252543.34375,254840.828125,17129.0,1.0,3
233596.21875,285021.3125,367990.09375,334817.15625,259273.90625,281408.75,252704.453125,255094.296875,17130.0,1.0,3
233043.234375,283865.90625,366262.3125,334179.34375,258091.40625,280805.4375,252215.125,254350.890625,17131.0,1.0,3
232231.328125,282563.0625,364478.125,333588.0,256640.59375,279999.15625,251753.875,253642.515625,17132.0,1.0,3
232291.5,282927.78125,365116.3125,333858.625,256933.9375,280104.65625,251955.9375,253952.84375,17133.0,1.0,3
233129.421875,284433.46875,367259.125,334608.9375,258547.015625,280968.78125,252546.5625,254848.25,17134.0,1.0,3
233607.5625,285032.40625,367986.09375,334812.96875,259279.265625,281408.125,252715.453125,255109.328125,17135.0,1.0,3
233050.921875,283873.78125,366262.6875,334175.75,258099.71875,280808.03125,252225.859375,254367.609375,17136.0,1.0,3
232232.671875,282561.46875,364465.0625,333578.625,256639.34375,279995.75,251758.078125,253651.09375,17137.0,1.0,3
232296.953125,282926.53125,365091.4375,333850.5,256925.09375,280103.125,251964.96875,253949.453125,17138.0,1.0,3
233131.03125,284430.96875,367229.875,334598.46875,258535.21875,280964.65625,252554.96875,254837.609375,17139.0,1.0,3
233603.546875,285030.0,367966.40625,334801.25,259273.90625,281403.46875,252717.59375,255097.078125,17140.0,1.0,3
233055.75,283883.96875,366255.25,334170.5,258102.671875,280809.0,252228.359375,254358.21875,17141.0,1.0,3
232237.140625,282566.9375,364450.65625,333570.65625,256636.84375,279992.71875,251756.921875,253641.265625,17142.0,1.0,3
232291.5,282915.34375,365060.25,333832.96875,256911.765625,280095.0,251961.296875,253945.15625,17143.0,1.0,3
233125.3125,284415.15625,367197.25,334576.9375,258520.828125,280957.5,252551.65625,254835.921875,17144.0,1.0,3
233596.84375,285016.75,367946.3125,334783.09375,259271.84375,281402.03125,252720.28125,255100.828125,17145.0,1.0,3
233050.390625,283875.75,366243.09375,334149.9375,258110.53125,280807.5625,252230.859375,254365.453125,17146.0,1.0,3
232231.78125,282555.84375,364427.875,333542.125,256638.984375,279986.625,251755.046875,253637.328125,17147.0,1.0,3
232277.8125,282895.84375,365023.125,333803.28125,256901.9375,280081.125,251949.953125,253929.59375,17148.0,1.0,3
233112.96875,284402.34375,367162.5625,334550.90625,258511.609375,280939.71875,252533.6875,254819.828125,17149.0,1.0,3
233597.28125,285023.1875,367929.40625,334766.5625,259275.6875,281394.09375,252712.59375,255095.734375,17150.0,1.0,3
233061.921875,283894.25,366238.53125,334141.4375,258125.734375,280807.84375,252226.75,254365.71875,17151.0,1.0,3
232239.546875,282566.125,364413.75,333529.875,256649.359375,279988.34375,251748.0625,253635.359375,17152.0,1.0,3
232272.984375,282886.90625,364989.34375,333778.875,256896.5625,280076.9375,251941.984375,253921.015625,17153.0,1.0,3
233101.796875,284387.59375,367127.6875,334525.6875,258500.890625,280935.4375,252531.8125,254811.78125,17154.0,1.0,3
233594.875,285022.125,367913.9375,334750.375,259277.65625,281392.03125,252711.421875,255096.359375,17155.0,1.0,3
233064.421875,283897.84375,366232.71875,334125.59375,258134.765625,280807.5625,252226.03125,254370.109375,17156.0,1.0,3
232238.296875,282562.625,364400.78125,333510.9375,256653.296875,279984.75,251741.71875,253634.90625,17157.0,1.0,3
232269.59375,282878.9375,364964.5625,333759.3125,256890.9375,280070.84375,251935.28125,253921.90625,17158.0,1.0,3
233105.8125,284386.09375,367104.25,334513.28125,258495.96875,280933.53125,252529.65625,254818.75,17159.0,1.0,3
233611.40625,285039.84375,367910.96875,334749.03125,259290.078125,281408.75,252721.359375,255111.296875,17160.0,1.0,3
233078.375,283920.28125,366238.09375,334125.6875,258154.078125,280828.3125,252234.0,254381.8125,17161.0,1.0,3
232240.71875,282571.125,364392.28125,333506.28125,256663.9375,280000.3125,251749.40625,253643.40625,17162.0,1.0,3
232269.59375,282879.3125,364942.40625,333750.28125,256891.109375,280079.25,251937.875,253923.703125,17163.0,1.0,3
233098.75,284381.53125,367080.84375,334497.1875,258493.28125,280938.90625,252526.984375,254817.859375,17164.0,1.0,3
233607.125,285039.65625,367895.4375,334728.65625,259289.8125,281408.84375,252718.046875,255115.046875,17165.0,1.0,3
233084.1875,283926.71875,366232.09375,334108.34375,258159.359375,280828.03125,252235.25,254396.21875,17166.0,1.0,3
232247.515625,282572.375,364378.25,333484.09375,256663.21875,279997.28125,251745.75,253647.515625,17167.0,1.0,3
232263.96875,282864.28125,364909.78125,333721.03125,256876.90625,280069.4375,251932.421875,253918.515625,17168.0,1.0,3
233101.171875,284368.65625,367051.96875,334475.625,258483.984375,280930.6875,252526.625,254816.421875,17169.0,1.0,3
233614.71875,285034.5625,367881.03125,334718.09375,259294.375,281408.5625,252723.046875,255114.0625,17170.0,1.0,3
233098.390625,283932.0625,366225.03125,334102.4375,258176.34375,280837.0,252246.59375,254395.140625,17171.0,1.0,3
232261.546875,282578.46875,364364.46875,333477.5,256679.484375,280003.90625,251754.0625,253649.3125,17172.0,1.0,3
232272.453125,282860.28125,364882.15625,333711.375,256885.03125,280070.15625,251933.765625,253912.875,17173.0,1.0,3
233098.390625,284356.59375,367017.375,334459.53125,258484.171875,280920.3125,252519.296875,254806.5,17174.0,1.0,3
233609.71875,285028.375,367859.5,334702.28125,259301.53125,281401.40625,252717.59375,255115.578125,17175.0,1.0,3
233098.21875,283937.625,366218.25,334092.6875,258190.828125,280841.53125,252243.109375,254404.53125,17176.0,1.0,3
232262.890625,282585.6875,364352.5,333464.4375,256685.203125,280007.03125,251746.015625,253655.65625,17177.0,1.0,3
232269.6875,282860.34375,364854.0625,333688.84375,256874.484375,280065.6875,251919.1875,253912.078125,17178.0,1.0,3
233084.359375,284350.6875,366984.0,334434.78125,258466.109375,280914.3125,252503.734375,254799.703125,17179.0,1.0,3
233591.75,285026.59375,367836.96875,334681.0,259288.109375,281398.09375,252701.953125,255110.65625,17180.0,1.0,3
233086.78125,283946.28125,366205.53125,334077.25,258187.15625,280842.25,252234.359375,254402.296875,17181.0,1.0,3
232254.65625,282595.1875,364338.90625,333455.6875,256686.90625,280015.15625,251745.390625,253653.953125,17182.0,1.0,3
232255.28125,282858.65625,364831.53125,333683.5,256868.046875,280072.5625,251922.671875,253910.828125,17183.0,1.0,3
233079.0,284354.96875,366965.40625,334435.40625,258460.65625,280926.65625,252517.6875,254805.703125,17184.0,1.0,3
233609.09375,285054.21875,367835.25,334689.125,259296.703125,281418.59375,252727.25,255126.671875,17185.0,1.0,3
233107.421875,283975.0,366209.3125,334083.3125,258202.53125,280860.78125,252255.09375,254421.78125,17186.0,1.0,3
232268.875,282612.25,364331.03125,333450.59375,256694.421875,280028.03125,251761.296875,253664.6875,17187.0,1.0,3
232259.765625,282860.625,364805.78125,333663.5625,256858.578125,280071.46875,251931.078125,253909.84375,17188.0,1.0,3
233076.3125,284349.15625,366936.4375,334407.78125,258445.8125,280918.15625,252521.796875,254802.125,17189.0,1.0,3
233608.28125,285051.0,367819.6875,334664.46875,259292.40625,281416.78125,252731.359375,255124.515625,17190.0,1.0,3
233115.46875,283981.53125,366208.75,334061.0625,258208.171875,280870.6875,252262.0625,254420.796875,17191.0,1.0,3
232272.453125,282610.8125,364319.3125,333421.78125,256689.328125,280022.65625,251755.75,253658.15625,17192.0,1.0,3
232257.078125,282844.875,364774.5,333631.625,256843.28125,280057.0,251917.40625,253897.671875,17193.0,1.0,3
233074.078125,284330.84375,366902.5625,334381.5,258430.4375,280906.28125,252508.828125,254788.4375,17194.0,1.0,3
233606.859375,285036.4375,367797.625,334645.3125,259286.859375,281409.28125,252724.75,255118.265625,17195.0,1.0,3
233115.5625,283973.21875,366194.625,334045.40625,258212.8125,280869.25,252264.75,254424.28125,17196.0,1.0,3
232269.421875,282598.40625,364301.0,333410.625,256697.640625,280031.96875,251772.921875,253675.765625,17197.0,1.0,3
232249.296875,282827.28125,364745.96875,333621.78125,256844.0,280065.9375,251926.609375,253905.8125,17198.0,1.0,3
233069.78125,284318.40625,366874.21875,334373.53125,258431.234375,280911.90625,252515.8125,254786.65625,17199.0,1.0,3
233610.078125,285036.6875,367784.75,334643.0,259296.15625,281410.53125,252723.765625,255122.640625,17200.0,1.0,3
233119.3125,283974.625,366192.21875,334049.78125,258228.015625,280871.5,252259.75,254428.40625,17201.0,1.0,3
232268.703125,282591.0625,364290.90625,333410.875,256704.515625,280030.96875,251759.328125,253665.671875,17202.0,1.0,3
232244.203125,282815.46875,364723.53125,333612.21875,256841.046875,280057.96875,251919.90625,253900.625,17203.0,1.0,3
233059.59375,284307.0625,366851.15625,334364.59375,258423.375,280904.125,252516.078125,254790.234375,17204.0,1.0,3
233604.890625,285038.65625,367774.625,334639.0625,259296.25,281415.4375,252737.53125,255131.046875,17205.0,1.0,3
233125.046875,283992.59375,366192.84375,334048.0,258238.921875,280883.9375,252274.765625,254441.8125,17206.0,1.0,3
232283.453125,282619.03125,364287.40625,333410.0,256714.984375,280044.3125,251773.453125,253678.0,17207.0,1.0,3
232258.6875,282834.59375,364704.84375,333610.53125,256839.796875,280064.59375,251930.8125,253903.21875,17208.0,1.0,3
233072.921875,284322.4375,366830.9375,334358.6875,258420.0625,280903.5,252521.4375,254794.4375,17209.0,1.0,3
233617.046875,285060.21875,367767.65625,334635.40625,259303.84375,281419.5625,252754.4375,255143.390625,17210.0,1.0,3
233130.40625,284017.90625,366194.0,334045.5,258252.609375,280894.46875,252300.6875,254451.5625,17211.0,1.0,3
232288.546875,282642.125,364284.0,333400.25,256724.640625,280047.6875,251788.296875,253674.609375,17212.0,1.0,3
232257.078125,282847.9375,364687.875,333592.5625,256836.84375,280056.09375,251937.34375,253892.40625,17213.0,1.0,3
233067.1875,284332.625,366811.46875,334343.5,258416.671875,280897.78125,252531.265625,254783.703125,17214.0,1.0,3
233616.0625,285073.96875,367758.28125,334626.0,259310.46875,281419.03125,252763.28125,255135.515625,17215.0,1.0,3
233137.640625,284034.0,366190.0,334037.0,258267.625,280895.1875,252311.328125,254454.78125,17216.0,1.0,3
232288.640625,282646.40625,364269.15625,333389.4375,256735.640625,280056.46875,251812.890625,253689.71875,17217.0,1.0,3
232250.015625,282837.03125,364653.0,333579.25,256835.953125,280063.09375,251949.046875,253897.859375,17218.0,1.0,3
233058.609375,284316.625,366772.5625,334330.625,258410.234375,280896.875,252534.21875,254790.140625,17219.0,1.0,3
233611.0625,285068.4375,367734.5,334618.9375,259311.8125,281426.71875,252773.125,255154.390625,17220.0,1.0,3
233143.1875,284044.0,366181.59375,334033.875,258277.90625,280912.8125,252315.796875,254474.265625,17221.0,1.0,3
232303.21875,282662.15625,364262.03125,333387.28125,256745.828125,280075.40625,251810.03125,253708.3125,17222.0,1.0,3
232260.390625,282846.9375,364636.375,333572.1875,256834.4375,280081.40625,251948.609375,253921.46875,17223.0,1.0,3
233061.5625,284326.09375,366748.0625,334318.0,258400.390625,280917.90625,252537.984375,254805.34375,17224.0,1.0,3
233621.421875,285093.46875,367724.75,334613.9375,259312.25,281453.53125,252775.625,255164.484375,17225.0,1.0,3
233162.046875,284081.65625,366184.96875,334037.375,258287.03125,280946.0625,252323.671875,254489.640625,17226.0,1.0,3
232310.984375,282688.15625,364251.09375,333382.46875,256742.25,280100.71875,251814.140625,253711.890625,17227.0,1.0,3
232260.46875,282863.75,364605.53125,333557.0625,256816.1875,280095.4375,251950.484375,253909.484375,17228.0,1.0,3
233065.046875,284344.15625,366724.03125,334308.25,258383.578125,280930.15625,252542.0,254804.796875,17229.0,1.0,3
233628.765625,285118.96875,367712.5,334605.09375,259300.453125,281466.3125,252780.890625,255175.125,17230.0,1.0,3
233175.90625,284120.625,366186.3125,334031.90625,258283.890625,280963.5,252335.828125,254505.640625,17231.0,1.0,3
232329.40625,282727.5,364250.3125,333378.34375,256736.265625,280109.84375,251823.703125,253727.09375,17232.0,1.0,3
232269.140625,282881.625,364592.28125,333549.28125,256799.296875,280097.84375,251958.625,253923.96875,17233.0,1.0,3
233071.125,284352.90625,366705.5,334294.3125,258363.734375,280928.28125,252547.90625,254812.21875,17234.0,1.0,3
233641.546875,285135.9375,367707.125,334592.9375,259295.890625,281468.46875,252790.109375,255187.015625,17235.0,1.0,3
233187.984375,284136.65625,366189.53125,334022.53125,258290.515625,280972.15625,252348.25,254524.328125,17236.0,1.0,3
232343.984375,282739.21875,364245.75,333364.75,256739.5625,280113.5,251829.875,253739.421875,17237.0,1.0,3
232279.875,282882.875,364570.90625,333530.78125,256792.953125,280090.71875,251957.28125,253924.859375,17238.0,1.0,3
233081.671875,284350.15625,366686.5625,334279.375,258360.421875,280926.40625,252552.1875,254814.8125,17239.0,1.0,3
233647.53125,285131.03125,367706.59375,334584.25,259303.046875,281472.9375,252802.53125,255198.015625,17240.0,1.0,3
233199.25,284131.1875,366196.78125,334012.25,258302.84375,280967.6875,252347.359375,254529.875,17241.0,1.0,3
232348.546875,282720.78125,364244.40625,333346.6875,256749.9375,280110.46875,251819.328125,253735.765625,17242.0,1.0,3
232277.28125,282854.46875,364556.78125,333509.0625,256795.1875,280091.25,251947.359375,253920.75,17243.0,1.0,3
233074.96875,284318.59375,366672.25,334261.5,258359.453125,280927.375,252536.640625,254810.25,17244.0,1.0,3
233649.328125,285111.28125,367706.5,334574.875,259313.15625,281480.34375,252790.828125,255203.203125,17245.0,1.0,3
233207.296875,284124.3125,366206.625,334006.25,258321.0,280979.5,252340.125,254539.4375,17246.0,1.0,3
232351.84375,282711.40625,364249.9375,333341.6875,256765.234375,280128.875,251819.859375,253744.53125,17247.0,1.0,3
232277.640625,282843.28125,364546.59375,333497.15625,256797.953125,280101.78125,251946.015625,253918.328125,17248.0,1.0,3
233072.296875,284313.3125,366652.125,334244.34375,258352.5625,280925.59375,252538.421875,254808.109375,17249.0,1.0,3
233652.09375,285121.375,367697.21875,334561.1875,259311.1875,281482.25,252797.265625,255198.28125,17250.0,1.0,3
233207.5625,284138.53125,366208.84375,333999.375,258330.390625,280995.15625,252360.6875,254539.359375,17251.0,1.0,3
232353.8125,282727.84375,364246.0,333335.78125,256770.59375,280138.8125,251839.0,253744.96875,17252.0,1.0,3
232269.421875,282842.65625,364525.3125,333483.9375,256788.125,280098.9375,251955.9375,253910.375,17253.0,1.0,3
233061.46875,284308.84375,366628.71875,334225.84375,258337.09375,280913.875,252538.78125,254792.828125,17254.0,1.0,3
233647.359375,285127.1875,367685.84375,334547.0625,259304.921875,281469.28125,252793.140625,255192.46875,17255.0,1.0,3
233215.703125,284159.15625,366210.65625,333991.125,258334.40625,280991.03125,252361.75,254546.5,17256.0,1.0,3
232351.578125,282736.09375,364236.1875,333323.4375,256765.5,280133.4375,251835.6875,253744.25,17257.0,1.0,3
232257.796875,282836.75,364498.6875,333467.75,256768.0,280081.59375,251941.09375,253899.921875,17258.0,1.0,3
233048.5,284299.53125,366600.28125,334210.0,258317.0625,280900.09375,252531.09375,254788.796875,17259.0,1.0,3
233638.328125,285125.46875,367670.21875,334534.65625,259294.28125,281461.3125,252793.859375,255193.640625,17260.0,1.0,3
233215.96875,284167.3125,366206.4375,333979.5,258336.46875,280986.75,252361.21875,254547.046875,17261.0,1.0,3
232359.1875,282743.21875,364225.53125,333306.0,256768.890625,280126.75,251840.328125,253746.21875,17262.0,1.0,3
232260.65625,282831.65625,364468.53125,333442.09375,256762.546875,280079.09375,251948.421875,253901.53125,17263.0,1.0,3
233043.40625,284285.15625,366561.84375,334184.78125,258310.0,280901.1875,252535.03125,254784.953125,17264.0,1.0,3
233641.09375,285119.59375,367645.1875,334512.75,259301.34375,281470.0,252799.3125,255193.71875,17265.0,1.0,3
233225.0,284167.9375,366189.53125,333959.3125,258349.4375,280998.8125,252365.59375,254553.390625,17266.0,1.0,3
232367.3125,282738.5,364201.84375,333284.5625,256776.578125,280138.625,251841.140625,253756.140625,17267.0,1.0,3
232258.5,282812.25,364430.28125,333414.8125,256757.71875,280085.625,251944.21875,253901.609375,17268.0,1.0,3
233037.78125,284264.21875,366522.65625,334155.375,258300.265625,280900.90625,252524.296875,254779.234375,17269.0,1.0,3
233639.484375,285112.6875,367619.4375,334487.15625,259298.390625,281466.59375,252785.09375,255182.71875,17270.0,1.0,3
233225.625,284172.125,366178.375,333939.5625,258358.375,281001.9375,252362.921875,254547.40625,17271.0,1.0,3
232363.46875,282738.5,364188.25,333263.90625,256784.71875,280139.15625,251836.3125,253747.5625,17272.0,1.0,3
232245.8125,282798.21875,364401.59375,333393.0,256753.78125,280075.6875,251937.96875,253896.515625,17273.0,1.0,3
233022.046875,284247.40625,366491.90625,334136.0625,258290.78125,280888.65625,252523.21875,254779.234375,17274.0,1.0,3
233630.1875,285103.3125,367604.75,334476.78125,259297.6875,281463.28125,252790.46875,255190.6875,17275.0,1.0,3
233222.21875,284169.1875,366173.28125,333930.25,258366.953125,281000.5,252362.921875,254554.734375,17276.0,1.0,3
232354.359375,282729.09375,364173.3125,333245.84375,256787.21875,280135.40625,251834.34375,253746.765625,17277.0,1.0,3
232236.0625,282786.9375,364375.28125,333367.625,256745.921875,280069.25,251930.546875,253883.734375,17278.0,1.0,3
233015.515625,284238.75,366466.0625,334107.09375,258279.421875,280880.4375,252510.984375,254763.140625,17279.0,1.0,3
233627.6875,285106.0,367593.78125,334450.78125,259296.609375,281460.6875,252786.703125,255187.109375,17280.0,1.0,3
233219.984375,284175.09375,366173.1875,333908.34375,258373.65625,281000.34375,252364.078125,254554.734375,17281.0,1.0,3
232359.453125,282735.28125,364168.125,333227.59375,256791.875,280139.15625,251839.703125,253746.765625,17282.0,1.0,3
232240.09375,282781.5,364353.03125,333344.625,256741.984375,280067.1875,251932.515625,253875.328125,17283.0,1.0,3
233020.875,284228.375,366440.6875,334085.625,258275.578125,280865.6875,252504.984375,254752.859375,17284.0,1.0,3
233644.9375,285107.6875,367583.03125,334438.71875,259309.125,281451.75,252787.421875,255188.09375,17285.0,1.0,3
233240.015625,284178.5625,366170.125,333898.0625,258398.34375,281003.65625,252369.171875,254562.328125,17286.0,1.0,3
232368.03125,282725.09375,364152.9375,333209.0,256811.09375,280138.53125,251835.15625,253747.125,17287.0,1.0,3
232233.734375,282758.34375,364316.09375,333318.96875,256744.484375,280063.09375,251924.109375,253869.96875,17288.0,1.0,3
233010.515625,284205.9375,366395.8125,334059.25,258268.515625,280864.96875,252502.390625,254747.9375,17289.0,1.0,3
233630.546875,285089.71875,367546.65625,334413.6875,259300.90625,281450.75,252778.9375,255186.21875,17290.0,1.0,3
233234.921875,284178.5625,366147.4375,333881.34375,258399.046875,281007.3125,252366.046875,254568.046875,17291.0,1.0,3
232361.234375,282721.6875,364128.96875,333195.15625,256812.171875,280137.8125,251832.46875,253753.375,17292.0,1.0,3
232219.078125,282740.625,364276.9375,333297.0625,256728.21875,280043.59375,251909.890625,253862.546875,17293.0,1.0,3
232993.796875,284190.1875,366353.25,334033.0625,258247.6875,280847.09375,252489.4375,254732.203125,17294.0,1.0,3
233611.140625,285079.78125,367514.8125,334392.65625,259292.046875,281444.5,252778.484375,255175.75,17295.0,1.0,3
233219.28125,284180.4375,366128.21875,333864.8125,258399.328125,281007.9375,252371.6875,254565.015625,17296.0,1.0,3
232358.546875,282741.1875,364109.21875,333180.40625,256811.359375,280136.65625,251836.84375,253749.890625,17297.0,1.0,3
232218.1875,282759.5,364250.65625,333283.375,256722.765625,280035.8125,251912.75,253862.453125,17298.0,1.0,3
232979.671875,284193.3125,366323.375,334020.71875,258240.265625,280835.46875,252492.203125,254735.15625,17299.0,1.0,3
233613.65625,285101.53125,367504.0,334389.71875,259298.3125,281441.5625,252790.1875,255184.96875,17300.0,1.0,3
233232.0625,284211.46875,366127.75,333864.1875,258416.484375,281009.53125,252388.3125,254578.953125,17301.0,1.0,3
232360.078125,282754.78125,364096.6875,333170.125,256819.140625,280136.3125,251847.484375,253755.4375,17302.0,1.0,3
232210.3125,282757.90625,364220.875,333265.59375,256715.609375,280030.4375,251909.796875,253854.234375,17303.0,1.0,3
232982.34375,284198.59375,366298.4375,334006.25,258234.640625,280835.65625,252488.359375,254729.609375,17304.0,1.0,3
233614.90625,285106.15625,367490.0625,334376.21875,259299.203125,281441.90625,252783.765625,255187.015625,17305.0,1.0,3
233240.015625,284222.84375,366131.96875,333857.5625,258428.109375,281019.75,252387.328125,254586.46875,17306.0,1.0,3
232371.78125,282763.96875,364097.59375,333160.625,256828.796875,280145.34375,251840.609375,253758.828125,17307.0,1.0,3
232220.234375,282756.65625,364208.09375,333249.59375,256715.4375,280035.8125,251902.734375,253853.78125,17308.0,1.0,3
232988.609375,284191.53125,366276.96875,333984.78125,258225.609375,280835.8125,252480.671875,254729.796875,17309.0,1.0,3
233624.375,285103.5,367478.6875,334358.96875,259297.6875,281448.625,252784.46875,255195.78125,17310.0,1.0,3
233249.21875,284219.0625,366125.625,333843.34375,258434.546875,281029.75,252383.65625,254596.03125,17311.0,1.0,3
232375.453125,282749.9375,364082.03125,333143.28125,256831.921875,280153.1875,251835.6875,253761.6875,17312.0,1.0,3
232215.0625,282730.28125,364177.625,333228.5,256709.34375,280046.4375,251906.140625,253851.015625,17313.0,1.0,3
232982.609375,284164.4375,366247.21875,333969.40625,258218.984375,280848.25,252493.453125,254731.484375,17314.0,1.0,3
233624.828125,285090.0625,367460.375,334346.0,259295.8125,281458.8125,252785.8125,255194.265625,17315.0,1.0,3
233258.703125,284220.5,366118.8125,333830.84375,258440.53125,281034.75,252383.125,254593.171875,17316.0,1.0,3
232392.703125,282757.34375,364077.375,333133.53125,256841.765625,280160.90625,251841.5,253763.296875,17317.0,1.0,3
232222.46875,282725.1875,364155.0,333211.40625,256710.609375,280040.28125,251898.8125,253845.375,17318.0,1.0,3
232980.375,284156.9375,366214.75,333944.8125,258214.25,280830.625,252476.28125,254719.328125,17319.0,1.0,3
233628.3125,285095.4375,367442.75,334326.59375,259304.203125,281450.84375,252781.875,255186.484375,17320.0,1.0,3
233268.8125,284236.78125,366116.5,333818.65625,258461.28125,281040.21875,252388.671875,254596.125,17321.0,1.0,3
232397.71875,282770.21875,364072.84375,333122.71875,256860.359375,280170.625,251851.328125,253771.34375,17322.0,1.0,3
232217.296875,282727.6875,364135.25,333195.6875,256714.09375,280042.6875,251903.1875,253845.90625,17323.0,1.0,3
232969.65625,284154.4375,366188.28125,333927.125,258209.15625,280824.125,252469.5,254709.140625,17324.0,1.0,3
233621.875,285103.125,367430.15625,334317.125,259307.78125,281449.875,252780.71875,255186.578125,17325.0,1.0,3
233271.578125,284253.21875,366113.46875,333811.53125,258470.84375,281044.0625,252391.265625,254599.4375,17326.0,1.0,3
232398.421875,282777.03125,364056.375,333106.53125,256859.90625,280158.9375,251837.921875,253762.671875,17327.0,1.0,3
232215.328125,282723.125,364101.96875,333170.46875,256700.765625,280025.875,251884.859375,253829.734375,17328.0,1.0,3
232973.234375,284150.78125,366154.3125,333902.09375,258195.109375,280814.375,252462.15625,254700.90625,17329.0,1.0,3
233634.484375,285108.59375,367408.34375,334297.90625,259303.3125,281444.0625,252778.9375,255192.828125,17330.0,1.0,3
233284.359375,284263.40625,366102.375,333795.59375,258475.3125,281044.0625,252389.296875,254612.75,17331.0,1.0,3
232404.859375,282779.8125,364039.3125,333087.0625,256860.984375,280163.40625,251834.96875,253765.53125,17332.0,1.0,3
232217.375,282716.78125,364070.6875,333151.6875,256692.09375,280028.5625,251887.28125,253832.5,17333.0,1.0,3
232968.125,284134.75,366117.75,333885.09375,258181.4375,280811.3125,252462.515625,254701.359375,17334.0,1.0,3
233623.484375,285090.78125,367378.125,334278.9375,259294.015625,281441.75,252778.9375,255189.25,17335.0,1.0,3
233272.46875,284249.125,366080.03125,333779.15625,258474.875,281048.0,252393.046875,254610.4375,17336.0,1.0,3
232401.921875,282776.65625,364019.71875,333074.09375,256865.8125,280170.09375,251842.296875,253767.953125,17337.0,1.0,3
232217.015625,282711.3125,364039.75,333135.15625,256690.390625,280026.34375,251888.609375,253827.578125,17338.0,1.0,3
232960.703125,284120.71875,366085.03125,333864.53125,258177.234375,280806.21875,252459.203125,254697.96875,17339.0,1.0,3
233619.453125,285085.0625,367361.9375,334268.375,259300.90625,281444.59375,252782.59375,255195.953125,17340.0,1.0,3
233278.734375,284260.375,366079.9375,333773.53125,258493.109375,281054.0625,252397.515625,254615.34375,17341.0,1.0,3
232405.5,282783.09375,364010.0625,333064.34375,256878.859375,280169.28125,251841.859375,253771.171875,17342.0,1.0,3
232215.234375,282705.6875,364014.34375,333119.59375,256687.796875,280016.9375,251882.453125,253825.703125,17343.0,1.0,3
232958.125,284115.1875,366055.34375,333847.28125,258169.546875,280800.5,252461.265625,254689.734375,17344.0,1.0,3
233625.359375,285090.6875,367345.03125,334253.1875,259303.578125,281445.65625,252784.734375,255187.734375,17345.0,1.0,3
233289.734375,284273.34375,366075.375,333764.3125,258509.65625,281062.75,252406.90625,254621.703125,17346.0,1.0,3
232405.5,282784.8125,364000.78125,333051.375,256892.71875,280180.03125,251849.984375,253774.390625,17347.0,1.0,3
232206.109375,282697.09375,363993.875,333101.90625,256692.625,280025.625,251885.671875,253821.765625,17348.0,1.0,3
232949.0,284104.53125,366030.125,333831.0,258166.953125,280802.65625,252458.140625,254684.546875,17349.0,1.0,3
233617.140625,285087.9375,367330.90625,334240.3125,259304.125,281444.40625,252782.234375,255184.78125,17350.0,1.0,3
233292.859375,284285.15625,366079.75,333754.375,258519.3125,281065.34375,252406.1875,254623.390625,17351.0,1.0,3
232417.65625,282797.9375,364001.125,333038.875,256896.125,280182.09375,251849.09375,253772.421875,17352.0,1.0,3
232209.6875,282692.28125,363970.71875,333081.59375,256679.3125,280019.8125,251878.953125,253809.96875,17353.0,1.0,3
232947.03125,284093.625,366002.15625,333811.53125,258151.125,280797.125,252455.71875,254680.171875,17354.0,1.0,3
233622.59375,285086.9375,367317.59375,334229.75,259301.171875,281451.9375,252792.78125,255191.125,17355.0,1.0,3
233301.796875,284289.71875,366073.84375,333745.90625,258524.140625,281075.34375,252415.40625,254632.34375,17356.0,1.0,3
232420.328125,282793.65625,363989.40625,333028.40625,256900.859375,280185.75,251858.390625,253785.828125,17357.0,1.0,3
232203.609375,282673.75,363944.0,333065.40625,256673.859375,280018.03125,251886.109375,253821.59375,17358.0,1.0,3
232941.75,284074.5,365964.9375,333786.9375,258136.640625,280781.5625,252448.75,254672.65625,17359.0,1.0,3
233621.34375,285073.4375,367289.78125,334208.75,259295.53125,281436.09375,252787.515625,255188.453125,17360.0,1.0,3
233301.171875,284281.375,366059.28125,333730.59375,258529.234375,281063.09375,252412.8125,254634.390625,17361.0,1.0,3
232420.953125,282789.0,363969.46875,333010.25,256902.375,280172.59375,251845.34375,253777.515625,17362.0,1.0,3
232200.484375,282662.6875,363907.59375,333042.625,256665.0,280000.21875,251871.09375,253807.921875,17363.0,1.0,3
232935.046875,284061.375,365926.0625,333765.375,258125.015625,280770.65625,252439.984375,254664.703125,17364.0,1.0,3
233620.984375,285071.84375,367262.0625,334187.84375,259290.34375,281425.1875,252777.328125,255183.625,17365.0,1.0,3
233306.09375,284286.75,366042.1875,333711.03125,258534.859375,281059.34375,252412.1875,254638.421875,17366.0,1.0,3
232425.78125,282789.46875,363948.28125,332990.75,256906.5,280172.59375,251848.828125,253781.1875,17367.0,1.0,3
232207.453125,282661.96875,363879.1875,333023.9375,256662.6875,279999.25,251874.578125,253806.125,17368.0,1.0,3
232932.09375,284049.375,365896.90625,333748.9375,258118.84375,280764.21875,252445.0,254665.15625,17369.0,1.0,3
233609.984375,285061.09375,367243.46875,334175.21875,259287.40625,281425.09375,252783.671875,255184.609375,17370.0,1.0,3
233305.015625,284293.90625,366040.15625,333706.8125,258543.0,281067.75,252413.609375,254640.296875,17371.0,1.0,3
232425.34375,282800.8125,363946.78125,332987.0,256916.5,280179.3125,251849.640625,253784.671875,17372.0,1.0,3
232191.984375,282651.59375,363855.03125,333007.5625,256652.671875,279988.34375,251865.546875,253799.25,17373.0,1.0,3
232918.6875,284037.84375,365864.375,333727.21875,258102.84375,280751.34375,252432.296875,254652.90625,17374.0,1.0,3
233605.328125,285059.5,367223.34375,334158.5,259285.25,281420.0,252779.28125,255179.5,17375.0,1.0,3
233300.09375,284289.71875,366029.875,333691.25,258552.125,281067.65625,252419.78125,254644.765625,17376.0,1.0,3
232419.171875,282790.34375,363930.75,332965.71875,256923.65625,280180.28125,251855.71875,253792.359375,17377.0,1.0,3
232181.890625,282634.25,363825.0,332978.34375,256647.390625,279985.46875,251862.328125,253796.5625,17378.0,1.0,3
232907.6875,284020.78125,365829.3125,333697.15625,258089.078125,280742.84375,252427.5625,254647.53125,17379.0,1.0,3
233599.171875,285049.40625,367201.71875,334134.0,259274.53125,281410.09375,252765.421875,255176.828125,17380.0,1.0,3
233300.28125,284292.84375,366022.71875,333673.375,258551.578125,281066.3125,252414.5,254648.875,17381.0,1.0,3
232424.359375,282796.59375,363920.9375,332950.625,256919.8125,280177.6875,251851.515625,253791.46875,17382.0,1.0,3
232184.125,282631.90625,363797.90625,332963.75,256635.5,279980.90625,251856.703125,253787.34375,17383.0,1.0,3
232905.453125,284013.625,365802.84375,333685.53125,258079.328125,280743.75,252427.921875,254641.453125,17384.0,1.0,3
233600.5,285051.8125,367190.375,334129.8125,259277.125,281419.28125,252785.09375,255182.375,17385.0,1.0,3
233316.375,284313.84375,366029.15625,333677.125,258568.65625,281080.34375,252430.0625,254659.34375,17386.0,1.0,3
232433.75,282807.34375,363921.09375,332951.4375,256937.25,280185.46875,251857.234375,253795.84375,17387.0,1.0,3
232184.65625,282630.59375,363783.15625,332957.0625,256640.234375,279978.9375,251858.390625,253792.984375,17388.0,1.0,3
232903.046875,284010.125,365782.375,333674.8125,258075.75,280737.3125,252426.390625,254649.328125,17389.0,1.0,3
233605.875,285062.71875,367182.0625,334119.4375,259281.046875,281420.625,252789.390625,255195.25,17390.0,1.0,3
233317.359375,284322.34375,366024.40625,333664.96875,258576.4375,281080.53125,252431.765625,254663.09375,17391.0,1.0,3
232439.015625,282815.65625,363909.75,332932.90625,256941.453125,280185.21875,251858.125,253794.59375,17392.0,1.0,3
232180.1875,282622.96875,363749.90625,332925.84375,256625.125,279967.6875,251850.796875,253779.75,17393.0,1.0,3
232891.15625,283996.625,365738.125,333640.3125,258049.734375,280716.28125,252410.125,254632.15625,17394.0,1.0,3
233592.375,285054.125,367149.6875,334092.0,259263.0,281399.34375,252767.671875,255178.796875,17395.0,1.0,3
233317.625,284332.25,366017.0,333649.0625,258576.796875,281082.59375,252430.15625,254661.65625,17396.0,1.0,3
232442.78125,282827.0,363901.34375,332919.6875,256941.8125,280186.8125,251853.75,253793.703125,17397.0,1.0,3
232186.09375,282629.78125,363730.3125,332914.21875,256620.921875,279969.28125,251848.734375,253776.359375,17398.0,1.0,3
232899.203125,284001.71875,365716.40625,333628.6875,258044.28125,280714.0625,252406.015625,254622.59375,17399.0,1.0,3
233605.78125,285062.90625,367137.625,334082.78125,259265.9375,281398.0,252765.25,255179.5,17400.0,1.0,3
233332.015625,284345.5,366009.75,333639.84375,258586.546875,281080.96875,252427.921875,254668.015625,17401.0,1.0,3
232447.78125,282833.28125,363888.84375,332908.59375,256950.484375,280192.4375,251860.71875,253800.578125,17402.0,1.0,3
232181.34375,282622.09375,363702.59375,332898.59375,256616.28125,279967.3125,251848.5625,253773.578125,17403.0,1.0,3
232890.53125,283984.375,365682.34375,333614.28125,258031.953125,280714.0625,252411.921875,254617.578125,17404.0,1.0,3
233607.921875,285058.25,367118.03125,334075.71875,259261.828125,281406.78125,252773.921875,255176.921875,17405.0,1.0,3
233340.25,284348.34375,366003.9375,333636.28125,258591.71875,281088.03125,252434.4375,254676.5,17406.0,1.0,3
232459.3125,282836.84375,363881.0625,332902.96875,256953.515625,280199.6875,251867.78125,253811.484375,17407.0,1.0,3
232189.3125,282614.5625,363682.3125,332885.34375,256608.59375,279968.84375,251849.546875,253774.390625,17408.0,1.0,3
232889.0,283968.03125,365653.28125,333594.96875,258021.75,280711.0,252411.828125,254620.625,17409.0,1.0,3
233601.578125,285044.125,367095.78125,334057.75,259262.1875,281404.28125,252775.984375,255185.046875,17410.0,1.0,3
233346.953125,284353.8125,365996.78125,333623.75,258605.671875,281095.46875,252433.8125,254683.65625,17411.0,1.0,3
232470.046875,282843.28125,363874.25,332889.8125,256972.03125,280210.4375,251862.515625,253814.625,17412.0,1.0,3
232187.703125,282605.8125,363657.1875,332866.03125,256617.53125,279976.625,251845.875,253776.890625,17413.0,1.0,3
232886.765625,283957.375,365621.90625,333573.4375,258021.484375,280710.84375,252403.234375,254617.765625,17414.0,1.0,3
233601.484375,285040.1875,367074.59375,334040.84375,259265.140625,281407.21875,252774.90625,255187.015625,17415.0,1.0,3
233342.65625,284349.4375,365987.125,333611.96875,258618.546875,281107.8125,252448.296875,254696.703125,17416.0,1.0,3
232466.46875,282837.46875,363860.9375,332875.53125,256980.34375,280217.5,251877.4375,253826.953125,17417.0,1.0,3
232191.359375,282602.59375,363639.65625,332850.9375,256619.40625,279975.71875,251855.890625,253788.25,17418.0,1.0,3
232894.015625,283958.90625,365608.75,333561.0,258023.984375,280709.40625,252405.484375,254626.4375,17419.0,1.0,3
233613.921875,285051.09375,367074.03125,334029.03125,259274.4375,281410.8125,252778.390625,255200.078125,17420.0,1.0,3
233360.625,284367.9375,365996.875,333598.625,258632.40625,281113.0625,252448.03125,254702.078125,17421.0,1.0,3
232481.046875,282854.46875,363866.03125,332858.71875,256990.984375,280227.78125,251877.4375,253825.078125,17422.0,1.0,3
232191.546875,282604.125,363621.78125,332826.0625,256616.359375,279982.6875,251849.90625,253773.5,17423.0,1.0,3
232888.296875,283954.25,365583.1875,333533.90625,258017.828125,280707.78125,252400.921875,254609.625,17424.0,1.0,3
233602.203125,285047.4375,367054.8125,334005.8125,259273.546875,281404.71875,252775.71875,255184.78125,17425.0,1.0,3
233361.875,284381.625,365989.53125,333584.5,258642.859375,281109.78125,252448.65625,254692.15625,17426.0,1.0,3
232483.546875,282867.0625,363854.78125,332849.15625,257000.375,280217.3125,251874.578125,253817.296875,17427.0,1.0,3
232179.46875,282601.15625,363596.28125,332815.0625,256611.890625,279963.84375,251849.28125,253764.640625,17428.0,1.0,3
232873.890625,283952.65625,365552.59375,333526.21875,258006.828125,280696.4375,252405.5625,254599.25,17429.0,1.0,3
233609.984375,285068.4375,367041.21875,334007.78125,259278.1875,281407.84375,252793.234375,255184.328125,17430.0,1.0,3
233369.75,284405.40625,365988.71875,333590.6875,258660.75,281117.8125,252470.921875,254705.5625,17431.0,1.0,3
232489.71875,282892.8125,363854.0625,332855.125,257022.625,280227.5,251896.75,253831.96875,17432.0,1.0,3
232196.1875,282629.875,363584.5,332822.3125,256629.953125,279974.46875,251871.890625,253773.671875,17433.0,1.0,3
232882.203125,283966.84375,365527.40625,333527.65625,258015.234375,280700.0,252423.09375,254609.1875,17434.0,1.0,3
233612.75,285080.5,367023.09375,334009.71875,259286.59375,281416.0,252802.625,255198.1875,17435.0,1.0,3
233385.21875,284435.0,365989.1875,333596.5,258680.140625,281140.0625,252481.203125,254727.28125,17436.0,1.0,3
232511.703125,282925.96875,363853.78125,332853.78125,257039.625,280256.375,251903.71875,253855.03125,17437.0,1.0,3
232211.21875,282647.75,363566.6875,332805.5,256633.4375,279994.9375,251869.125,253795.671875,17438.0,1.0,3
232895.53125,283979.65625,365503.15625,333507.8125,258011.5625,280722.0,252425.59375,254628.484375,17439.0,1.0,3
233631.625,285098.84375,367007.96875,333996.15625,259286.953125,281441.90625,252810.671875,255217.859375,17440.0,1.0,3
233408.90625,284462.15625,365983.625,333589.78125,258689.09375,281167.0625,252495.328125,254750.796875,17441.0,1.0,3
232537.09375,282953.0625,363846.71875,332848.96875,257048.734375,280282.9375,251921.875,253877.734375,17442.0,1.0,3
232222.390625,282660.25,363540.84375,332790.65625,256626.46875,280012.5625,251874.75,253797.640625,17443.0,1.0,3
232900.984375,283988.125,365471.6875,333488.75,257997.609375,280733.09375,252425.234375,254625.984375,17444.0,1.0,3
233636.0,285114.9375,366987.125,333977.375,259280.6875,281453.1875,252820.0625,255226.796875,17445.0,1.0,3
233418.296875,284486.3125,365975.6875,333572.8125,258689.171875,281179.40625,252508.65625,254764.03125,17446.0,1.0,3
232551.859375,282976.0625,363838.9375,332834.375,257047.21875,280295.28125,251936.265625,253885.96875,17447.0,1.0,3
232235.0,282670.28125,363524.0625,332772.78125,256616.015625,280021.40625,251888.171875,253803.53125,17448.0,1.0,3
232906.34375,283978.5625,365449.4375,333462.65625,257979.109375,280721.65625,252425.234375,254621.609375,17449.0,1.0,3
233642.703125,285106.15625,366977.9375,333956.0,259271.390625,281445.03125,252823.28125,255225.1875,17450.0,1.0,3
233430.359375,284487.28125,365983.0,333559.5625,258694.28125,281183.09375,252517.328125,254770.015625,17451.0,1.0,3
232550.6875,282961.5625,363840.28125,332817.84375,257048.375,280288.28125,251931.359375,253885.078125,17452.0,1.0,3
232222.921875,282646.59375,363512.15625,332756.59375,256605.1875,280004.25,251880.390625,253800.21875,17453.0,1.0,3
232890.796875,283958.90625,365432.625,333452.625,257963.1875,280715.65625,252428.8125,254621.34375,17454.0,1.0,3
233638.59375,285097.6875,366970.25,333955.09375,259261.734375,281444.5,252828.46875,255228.140625,17455.0,1.0,3
233431.609375,284485.0625,365984.875,333559.375,258693.375,281184.78125,252515.09375,254769.484375,17456.0,1.0,3
232552.390625,282961.03125,363839.375,332814.625,257050.703125,280298.40625,251934.484375,253886.5,17457.0,1.0,3
232222.203125,282636.125,363496.78125,332749.1875,256602.15625,280016.9375,251883.421875,253797.90625,17458.0,1.0,3
232888.109375,283947.8125,365410.4375,333443.15625,257955.953125,280725.75,252429.078125,254617.671875,17459.0,1.0,3
233631.796875,285091.0625,366954.59375,333945.90625,259258.875,281454.78125,252826.859375,255227.421875,17460.0,1.0,3
233432.15625,284491.75,365983.8125,333558.59375,258705.8125,281204.1875,252530.109375,254783.34375,17461.0,1.0,3
232556.046875,282969.0,363839.03125,332811.78125,257063.9375,280317.25,251954.234375,253903.578125,17462.0,1.0,3
232222.390625,282636.03125,363480.34375,332738.0,256604.5625,280022.75,251890.140625,253805.046875,17463.0,1.0,3
232880.953125,283936.5625,365379.34375,333425.09375,257949.421875,280716.8125,252419.25,254611.328125,17464.0,1.0,3
233624.28125,285087.21875,366931.71875,333931.3125,259260.21875,281447.71875,252823.09375,255226.171875,17465.0,1.0,3
233431.96875,284501.0625,365975.84375,333548.5625,258717.875,281203.5625,252532.609375,254785.84375,17466.0,1.0,3
232554.0,282973.8125,363822.125,332794.96875,257071.625,280311.625,251949.140625,253899.109375,17467.0,1.0,3
232212.375,282632.5625,363448.84375,332713.25,256597.328125,280012.28125,251886.828125,253795.21875,17468.0,1.0,3
232874.796875,283939.59375,365351.4375,333403.03125,257943.25,280711.625,252431.140625,254611.859375,17469.0,1.0,3
233626.34375,285099.28125,366914.09375,333912.1875,259262.90625,281446.21875,252839.546875,255232.890625,17470.0,1.0,3
233433.40625,284514.90625,365965.9375,333528.46875,258726.640625,281203.09375,252543.34375,254797.65625,17471.0,1.0,3
232561.421875,282990.8125,363814.34375,332782.1875,257082.265625,280311.53125,251955.40625,253912.609375,17472.0,1.0,3
232216.21875,282633.25,363427.21875,332698.9375,256598.578125,280006.5,251887.71875,253797.546875,17473.0,1.0,3
232869.78125,283926.1875,365320.78125,333385.3125,257936.109375,280702.25,252427.375,254607.75,17474.0,1.0,3
233625.625,285095.09375,366893.96875,333897.4375,259262.453125,281440.03125,252837.484375,255230.828125,17475.0,1.0,3
233443.78125,284525.21875,365961.375,333519.15625,258738.265625,281205.25,252547.546875,254799.96875,17476.0,1.0,3
232570.8125,283000.0,363811.75,332771.8125,257095.859375,280322.71875,251965.421875,253915.03125,17477.0,1.0,3
232216.3125,282629.78125,363413.53125,332684.53125,256605.453125,280015.6875,251894.78125,253797.28125,17478.0,1.0,3
232869.34375,283915.8125,365301.0,333371.1875,257936.109375,280704.84375,252429.53125,254604.625,17479.0,1.0,3
233627.953125,285086.21875,366881.28125,333887.25,259263.96875,281441.125,252841.6875,255236.90625,17480.0,1.0,3
233451.109375,284522.0,365958.78125,333512.90625,258746.3125,281210.25,252552.640625,254813.296875,17481.0,1.0,3
232578.5,282999.125,363805.78125,332761.4375,257100.328125,280325.03125,251962.203125,253917.625,17482.0,1.0,3
232212.375,282617.09375,363389.3125,332664.4375,256594.734375,280011.59375,251884.40625,253792.0,17483.0,1.0,3
232859.6875,283904.53125,365272.59375,333349.09375,257919.390625,280706.4375,252425.328125,254604.4375,17484.0,1.0,3
233620.71875,285080.25,366859.28125,333865.0625,259248.78125,281445.40625,252836.78125,255232.96875,17485.0,1.0,3
233451.375,284525.5625,365951.375,333498.59375,258741.84375,281219.375,252554.421875,254809.359375,17486.0,1.0,3
232577.59375,282997.0625,363798.1875,332751.6875,257097.203125,280332.375,251972.5625,253923.421875,17487.0,1.0,3
232211.03125,282609.46875,363366.59375,332649.59375,256582.296875,280010.40625,251890.84375,253793.15625,17488.0,1.0,3
232856.8125,283891.125,365242.8125,333326.3125,257902.84375,280695.71875,252428.984375,254596.75,17489.0,1.0,3
233617.671875,285074.4375,366843.1875,333845.5,259243.40625,281445.03125,252853.5,255232.25,17490.0,1.0,3
233452.1875,284530.9375,365947.59375,333483.75,258747.203125,281223.03125,252565.25,254810.96875,17491.0,1.0,3
232579.203125,283006.8125,363793.0,332734.0,257104.4375,280337.65625,251979.0,253921.90625,17492.0,1.0,3
232214.4375,282616.90625,363354.96875,332632.5,256585.15625,280012.125,251894.15625,253790.84375,17493.0,1.0,3
232857.0,283889.78125,365220.1875,333312.1875,257901.40625,280690.71875,252427.296875,254594.078125,17494.0,1.0,3
233617.9375,285071.3125,366822.375,333832.4375,259247.875,281435.75,252843.75,255228.765625,17495.0,1.0,3
233460.140625,284536.90625,365940.1875,333470.875,258764.453125,281222.5,252568.46875,254817.953125,17496.0,1.0,3
232584.671875,283006.34375,363779.84375,332715.9375,257123.125,280336.75,251984.546875,253929.78125,17497.0,1.0,3
232209.78125,282601.6875,363320.90625,332607.21875,256591.15625,280006.125,251899.796875,253792.171875,17498.0,1.0,3
232849.3125,283875.46875,365180.84375,333285.8125,257899.265625,280684.09375,252427.03125,254593.0,17499.0,1.0,3
233608.546875,285062.09375,366792.5,333809.09375,259248.6875,281432.4375,252843.296875,255228.765625,17500.0,1.0,3
233450.84375,284532.8125,365921.3125,333453.09375,258775.359375,281226.875,252570.171875,254821.4375,17501.0,1.0,3
232584.484375,283011.0,363767.40625,332705.03125,257137.078125,280348.1875,251988.296875,253936.75,17502.0,1.0,3
232209.78125,282602.0625,363300.53125,332593.875,256597.859375,280013.625,251900.953125,253794.328125,17503.0,1.0,3
232843.9375,283868.875,365153.3125,333269.71875,257899.984375,280692.15625,252433.8125,254594.34375,17504.0,1.0,3
233611.234375,285064.15625,366777.65625,333802.40625,259258.171875,281443.6875,252852.953125,255238.609375,17505.0,1.0,3
233459.421875,284542.625,365919.0,333451.28125,258792.171875,281237.4375,252575.796875,254830.640625,17506.0,1.0,3
232595.65625,283022.53125,363762.6875,332704.03125,257150.65625,280359.1875,251993.484375,253941.578125,17507.0,1.0,3
232216.046875,282607.4375,363280.5,332587.96875,256596.96875,280023.03125,251905.609375,253794.234375,17508.0,1.0,3
232846.453125,283866.0,365126.75,333261.5,257889.96875,280691.25,252432.65625,254590.671875,17509.0,1.0,3
233608.640625,285061.03125,366757.1875,333794.4375,259248.953125,281440.03125,252855.1875,255241.109375,17510.0,1.0,3
233470.421875,284563.65625,365918.28125,333449.40625,258797.890625,281246.84375,252591.984375,254847.625,17511.0,1.0,3
232607.546875,283046.78125,363759.46875,332693.03125,257155.671875,280357.5,252000.015625,253947.84375,17512.0,1.0,3
232213.796875,282612.6875,363259.5,332567.59375,256591.15625,280011.40625,251905.78125,253786.09375,17513.0,1.0,3
232833.65625,283860.5625,365093.3125,333234.125,257876.203125,280675.59375,252429.078125,254577.984375,17514.0,1.0,3
233605.15625,285068.1875,366730.375,333769.125,259239.125,281430.03125,252839.546875,255222.515625,17515.0,1.0,3
233471.671875,284575.09375,365902.46875,333429.125,258797.265625,281239.75,252577.859375,254833.953125,17516.0,1.0,3
232610.59375,283051.6875,363741.65625,332672.5625,257157.28125,280357.6875,251993.9375,253945.421875,17517.0,1.0,3
232217.921875,282607.15625,363230.0,332543.71875,256584.625,280006.75,251894.421875,253784.40625,17518.0,1.0,3
232834.28125,283848.3125,365059.34375,333210.0625,257868.15625,280669.78125,252414.59375,254573.5,17519.0,1.0,3
233608.46875,285059.5,366706.59375,333751.4375,259241.359375,281431.1875,252842.5,255229.484375,17520.0,1.0,3
233481.328125,284574.03125,365893.4375,333419.28125,258812.5625,281252.09375,252587.953125,254851.296875,17521.0,1.0,3
232619.0,283051.25,363732.46875,332663.96875,257172.5625,280369.9375,251998.765625,253959.453125,17522.0,1.0,3
232221.3125,282598.84375,363203.0,332526.65625,256585.703125,280012.03125,251891.5625,253792.171875,17523.0,1.0,3
232840.1875,283838.46875,365026.28125,333191.9375,257860.109375,280674.34375,252411.828125,254577.890625,17524.0,1.0,3
233613.015625,285053.5,366685.84375,333738.46875,259242.15625,281444.5,252850.640625,255241.5625,17525.0,1.0,3
233487.234375,284577.0625,365888.0625,333408.28125,258822.125,281274.28125,252598.953125,254866.21875,17526.0,1.0,3
232616.9375,283046.59375,363721.5625,332649.3125,257178.375,280379.5,251992.859375,253961.78125,17527.0,1.0,3
232209.0625,282587.21875,363180.375,332510.375,256583.546875,280016.78125,251885.3125,253787.703125,17528.0,1.0,3
232819.53125,283822.5625,364995.6875,333173.25,257849.640625,280673.625,252408.34375,254571.546875,17529.0,1.0,3
233601.84375,285051.28125,366665.09375,333724.15625,259235.640625,281443.25,252846.34375,255240.578125,17530.0,1.0,3
233486.609375,284588.5,365878.5,333399.875,258828.390625,281272.5625,252597.609375,254871.328125,17531.0,1.0,3
232631.25,283071.71875,363721.28125,332644.125,257194.390625,280393.34375,252009.5,253974.296875,17532.0,1.0,3
232217.109375,282595.875,363167.40625,332500.0,256589.359375,280022.75,251894.78125,253790.65625,17533.0,1.0,3
232818.640625,283819.875,364970.3125,333152.78125,257840.4375,280665.6875,252407.796875,254564.203125,17534.0,1.0,3
233603.375,285057.09375,366647.3125,333702.0,259230.0,281433.34375,252848.40625,255232.25,17535.0,1.0,3
233483.46875,284593.6875,365871.96875,333377.4375,258827.046875,281265.78125,252599.40625,254864.796875,17536.0,1.0,3
232625.703125,283071.0,363710.1875,332620.71875,257188.578125,280389.40625,252012.0,253967.953125,17537.0,1.0,3
232217.5625,282593.375,363144.53125,332472.46875,256574.796875,280016.6875,251896.9375,253781.984375,17538.0,1.0,3
232818.109375,283810.84375,364942.40625,333126.75,257824.609375,280657.09375,252405.65625,254554.28125,17539.0,1.0,3
233599.078125,285043.59375,366625.3125,333680.53125,259220.703125,281427.0625,252840.078125,255225.546875,17540.0,1.0,3
233484.1875,284589.5625,365862.21875,333362.34375,258832.40625,281265.34375,252592.875,254868.109375,17541.0,1.0,3
232624.265625,283064.84375,363698.03125,332602.90625,257193.578125,280383.6875,251995.71875,253966.609375,17542.0,1.0,3
232204.5,282573.71875,363114.84375,332446.53125,256567.546875,280005.40625,251874.484375,253770.09375,17543.0,1.0,3
232803.4375,283788.3125,364905.3125,333102.25,257812.90625,280642.78125,252383.578125,254544.984375,17544.0,1.0,3
233583.25,285022.84375,366592.9375,333660.34375,259211.5,281413.03125,252824.703125,255222.328125,17545.0,1.0,3
233476.234375,284583.125,365845.15625,333345.96875,258834.015625,281263.5625,252585.984375,254865.421875,17546.0,1.0,3
232623.828125,283068.59375,363687.84375,332592.0,257200.546875,280388.4375,251993.578125,253963.578125,17547.0,1.0,3
232203.609375,282570.21875,363089.0,332436.4375,256563.53125,279997.625,251864.65625,253766.609375,17548.0,1.0,3
232800.046875,283779.90625,364868.1875,333090.4375,257801.90625,280637.6875,252380.53125,254541.234375,17549.0,1.0,3
233583.515625,285022.65625,366567.375,333651.5625,259207.828125,281416.15625,252826.765625,255218.125,17550.0,1.0,3
233484.359375,284593.25,365835.59375,333343.28125,258839.828125,281269.8125,252589.03125,254867.828125,17551.0,1.0,3
232629.453125,283075.125,363677.5625,332589.40625,257209.21875,280401.9375,252001.0,253975.546875,17552.0,1.0,3
232197.4375,282562.8125,363063.15625,332421.6875,256559.5,280002.46875,251864.125,253768.046875,17553.0,1.0,3
232789.3125,283765.15625,364837.25,333072.3125,257792.15625,280630.09375,252373.734375,254537.03125,17554.0,1.0,3
233581.375,285020.34375,366548.34375,333637.25,259204.15625,281409.28125,252829.984375,255222.328125,17555.0,1.0,3
233494.921875,284607.5625,365832.28125,333335.34375,258849.578125,281270.25,252599.40625,254873.921875,17556.0,1.0,3
232645.28125,283094.0625,363673.8125,332578.15625,257219.953125,280395.75,252007.796875,253977.15625,17557.0,1.0,3
232207.90625,282569.78125,363048.75,332407.8125,256562.359375,279994.78125,251871.359375,253765.984375,17558.0,1.0,3
232784.9375,283755.3125,364812.21875,333051.28125,257782.765625,280617.59375,252375.078125,254531.125,17559.0,1.0,3
233580.84375,285014.625,366529.8125,333617.59375,259197.90625,281401.9375,252826.21875,255218.75,17560.0,1.0,3
233498.765625,284605.84375,365824.75,333317.90625,258851.453125,281269.28125,252595.734375,254876.15625,17561.0,1.0,3
232649.03125,283085.40625,363667.46875,332562.78125,257223.703125,280396.125,252005.5625,253981.71875,17562.0,1.0,3
232206.203125,282550.90625,363029.90625,332390.3125,256559.0625,279994.0625,251870.46875,253766.875,17563.0,1.0,3
232780.109375,283733.875,364785.75,333037.15625,257776.953125,280621.0625,252381.25,254528.09375,17564.0,1.0,3
233575.203125,284997.625,366509.4375,333606.6875,259197.90625,281401.59375,252825.25,255210.171875,17565.0,1.0,3
233498.21875,284599.3125,365819.9375,333310.21875,258863.875,281272.21875,252598.5,254877.578125,17566.0,1.0,3
232649.9375,283083.78125,363663.25,332555.96875,257237.5625,280408.28125,252011.90625,253982.703125,17567.0,1.0,3
232202.53125,282541.4375,363011.65625,332377.53125,256559.859375,280001.84375,251874.578125,253760.078125,17568.0,1.0,3
232776.0,283720.4375,364762.53125,333019.71875,257768.90625,280615.25,252377.671875,254522.09375,17569.0,1.0,3
233577.265625,284991.8125,366496.5625,333594.96875,259197.546875,281398.0,252826.3125,255214.375,17570.0,1.0,3
233496.890625,284599.0625,365813.84375,333300.90625,258872.546875,281274.71875,252602.34375,254880.890625,17571.0,1.0,3
232651.71875,283088.96875,363653.59375,332540.59375,257247.765625,280407.03125,252011.015625,253983.328125,17572.0,1.0,3
232202.984375,282541.1875,362984.3125,332355.53125,256561.734375,279993.78125,251868.046875,253759.09375,17573.0,1.0,3
232776.265625,283717.59375,364722.28125,332993.4375,257760.59375,280604.09375,252365.515625,254513.6875,17574.0,1.0,3
233578.78125,284990.9375,366461.53125,333570.65625,259193.609375,281391.59375,252820.234375,255205.609375,17575.0,1.0,3
233507.4375,284608.4375,365791.9375,333282.5,258878.546875,281267.125,252597.796875,254880.171875,17576.0,1.0,3
232657.0,283090.125,363630.625,332523.78125,257254.375,280398.53125,252007.53125,253988.15625,17577.0,1.0,3
232204.0625,282536.875,362950.25,332336.84375,256558.515625,279982.96875,251862.421875,253757.21875,17578.0,1.0,3
232771.4375,283709.46875,364683.5625,332973.3125,257751.203125,280594.5,252361.40625,254506.0,17579.0,1.0,3
233570.203125,284984.65625,366432.46875,333551.15625,259187.265625,281383.25,252816.65625,255205.25,17580.0,1.0,3
233503.40625,284609.59375,365778.625,333266.21875,258884.171875,281271.25,252597.96875,254882.140625,17581.0,1.0,3
232658.25,283094.25,363618.8125,332507.4375,257261.265625,280406.3125,252007.796875,253986.734375,17582.0,1.0,3
232204.953125,282533.21875,362927.15625,332314.5625,256557.0,279983.78125,251852.40625,253749.078125,17583.0,1.0,3
