FZ,C3,CZ,C4,PZ,PO7,OZ,PO8,Counter,Validation,Label
245271.421875,254571.546875,254500.640625,250729.625,225657.953125,245459.625,244297.34375,227951.6875,263853.0,1.0,1
245276.609375,254535.234375,254428.484375,250716.484375,225533.765625,245448.1875,244099.484375,227946.765625,263854.0,1.0,1
245338.75,254609.53125,254496.34375,250783.1875,225644.171875,245493.15625,244267.390625,227968.671875,263855.0,1.0,1
245397.40625,254709.234375,254625.8125,250850.515625,225847.9375,245541.4375,244577.1875,227996.03125,263856.0,1.0,1
245347.25,254684.1875,254625.0,250815.28125,225853.75,245517.46875,244594.25,227984.5,263857.0,1.0,1
245282.25,254585.390625,254509.9375,250742.328125,225666.703125,245472.953125,244307.96875,227967.328125,263858.0,1.0,1
245288.40625,254548.828125,254441.359375,250732.40625,225546.09375,245469.28125,244113.0625,227965.546875,263859.0,1.0,1
245353.328125,254623.3125,254511.8125,250799.015625,225658.65625,245508.984375,244273.546875,227978.5,263860.0,1.0,1
245405.265625,254717.0,254632.0625,250857.578125,225852.140625,245544.921875,244572.171875,227995.40625,263861.0,1.0,1
245353.046875,254691.078125,254629.5625,250821.8125,225860.984375,245522.21875,244591.484375,227985.65625,263862.0,1.0,1
245282.59375,254586.65625,254508.6875,250743.578125,225671.0,245469.90625,244300.5625,227954.8125,263863.0,1.0,1
245287.078125,254548.734375,254436.453125,250729.90625,225549.234375,245468.5625,244106.1875,227955.625,263864.0,1.0,1
245355.46875,254627.78125,254506.0,250796.421875,225661.796875,245511.484375,244273.203125,227978.6875,263865.0,1.0,1
245409.109375,254721.203125,254629.125,250854.984375,225854.546875,245541.796875,244575.296875,227997.015625,263866.0,1.0,1
245361.28125,254699.84375,254634.921875,250824.21875,225868.59375,245521.140625,244603.90625,227989.40625,263867.0,1.0,1
245289.3125,254595.40625,254515.578125,250746.625,225681.015625,245473.75,244316.5625,227967.515625,263868.0,1.0,1
245288.859375,254551.609375,254439.75,250730.96875,225555.75,245465.796875,244115.125,227964.640625,263869.0,1.0,1
245345.359375,254618.5625,254502.703125,250791.859375,225659.5625,245503.4375,244271.234375,227984.765625,263870.0,1.0,1
245390.6875,254705.828125,254615.34375,250841.921875,225845.078125,245533.65625,244566.71875,227997.8125,263871.0,1.0,1
245338.84375,254681.25,254614.015625,250803.03125,225854.015625,245507.1875,244592.734375,227983.421875,263872.0,1.0,1
245272.046875,254582.265625,254500.90625,250727.390625,225668.5,245456.59375,244309.578125,227958.65625,263873.0,1.0,1
245282.59375,254547.046875,254432.875,250718.015625,225544.21875,245452.203125,244112.171875,227960.359375,263874.0,1.0,1
245340.8125,254611.953125,254495.09375,250779.34375,225643.90625,245491.71875,244265.59375,227979.671875,263875.0,1.0,1
245386.9375,254701.1875,254609.453125,250828.96875,225829.609375,245521.3125,244560.109375,227988.34375,263876.0,1.0,1
245344.203125,254683.75,254615.796875,250798.296875,225843.203125,245499.6875,244591.03125,227974.296875,263877.0,1.0,1
245287.703125,254592.734375,254510.65625,250733.296875,225666.703125,245463.375,244316.015625,227959.109375,263878.0,1.0,1
245292.4375,254551.328125,254437.421875,250720.421875,225540.015625,245456.3125,244109.5,227956.0625,263879.0,1.0,1
245350.90625,254618.75,254501.09375,250784.34375,225641.59375,245496.734375,244261.75,227975.375,263880.0,1.0,1
245406.78125,254720.140625,254623.9375,250840.671875,225833.984375,245534.1875,244563.234375,227991.921875,263881.0,1.0,1
245356.546875,254699.75,254628.21875,250806.609375,225850.625,245513.0,244594.34375,227978.6875,263882.0,1.0,1
245285.546875,254594.515625,254509.84375,250731.515625,225667.96875,245467.671875,244313.34375,227957.671875,263883.0,1.0,1
245294.578125,254558.125,254439.390625,250722.75,225544.578125,245462.578125,244113.515625,227960.53125,263884.0,1.0,1
245354.21875,254624.734375,254500.640625,250782.828125,225643.015625,245498.703125,244257.90625,227975.5625,263885.0,1.0,1
245412.15625,254721.203125,254625.625,250843.625,225837.828125,245533.828125,244559.5625,227992.0,263886.0,1.0,1
245364.40625,254698.40625,254629.390625,250812.15625,225853.75,245514.609375,244597.921875,227977.515625,263887.0,1.0,1
245292.96875,254594.34375,254510.46875,250738.9375,225671.09375,245467.40625,244318.34375,227954.984375,263888.0,1.0,1
245289.9375,254544.625,254429.734375,250720.6875,225536.09375,245452.03125,244107.34375,227950.96875,263889.0,1.0,1
245353.140625,254614.8125,254491.4375,250781.484375,225635.421875,245484.578125,244253.4375,227966.703125,263890.0,1.0,1
245409.109375,254711.46875,254613.03125,250839.609375,225828.984375,245513.890625,244551.25,227982.703125,263891.0,1.0,1
245361.375,254693.484375,254620.984375,250810.015625,225851.328125,245497.265625,244591.578125,227972.875,263892.0,1.0,1
245299.046875,254597.46875,254514.59375,250744.65625,225674.21875,245455.96875,244317.0,227959.015625,263893.0,1.0,1
245300.578125,254552.9375,254439.390625,250732.40625,225546.640625,245448.8125,244107.609375,227960.171875,263894.0,1.0,1
245358.421875,254618.390625,254500.375,250796.0625,225646.953125,245493.15625,244256.65625,227980.65625,263895.0,1.0,1
245409.921875,254710.203125,254616.59375,250853.90625,225838.8125,245526.0625,244556.53125,227992.8125,263896.0,1.0,1
245369.5,254696.625,254626.53125,250823.875,225863.140625,245509.96875,244600.78125,227982.96875,263897.0,1.0,1
245299.59375,254594.609375,254512.078125,250748.859375,225681.375,245464.90625,244322.28125,227961.34375,263898.0,1.0,1
245296.015625,254546.421875,254432.0625,250731.421875,225545.921875,245453.71875,244106.0,227957.5,263899.0,1.0,1
245357.4375,254615.4375,254497.15625,250795.171875,225643.203125,245495.125,244249.5,227978.6875,263900.0,1.0,1
245410.625,254711.90625,254621.15625,250853.109375,225837.484375,245533.75,244552.59375,227997.453125,263901.0,1.0,1
245363.34375,254692.953125,254631.0,250821.359375,225862.25,245518.546875,244601.859375,227987.453125,263902.0,1.0,1
245288.40625,254584.6875,254510.921875,250744.828125,225676.90625,245470.0,244319.234375,227960.09375,263903.0,1.0,1
245286.890625,254540.421875,254429.109375,250724.984375,225538.953125,245453.28125,244099.203125,227954.359375,263904.0,1.0,1
245341.078125,254601.84375,254484.546875,250781.40625,225630.953125,245484.21875,244235.109375,227970.375,263905.0,1.0,1
245395.703125,254694.03125,254613.109375,250845.328125,225831.9375,245526.140625,244545.703125,227992.1875,263906.0,1.0,1
245363.78125,254691.25,254635.640625,250826.015625,225869.125,245519.890625,244608.390625,227991.203125,263907.0,1.0,1
245295.65625,254593.53125,254519.6875,250747.515625,225686.5625,245470.984375,244330.421875,227964.5625,263908.0,1.0,1
245291.28125,254542.65625,254438.5,250726.0625,225549.140625,245454.703125,244111.734375,227958.921875,263909.0,1.0,1
245351.890625,254612.84375,254497.515625,250790.421875,225643.828125,245495.75,244252.984375,227985.75,263910.0,1.0,1
245407.234375,254711.90625,254620.265625,250851.5,225839.984375,245535.09375,244558.140625,228002.640625,263911.0,1.0,1
245359.140625,254694.03125,254631.4375,250821.546875,225865.375,245513.453125,244610.34375,227982.796875,263912.0,1.0,1
245283.234375,254591.390625,254516.828125,250744.65625,225680.65625,245461.59375,244330.234375,227957.765625,263913.0,1.0,1
245283.40625,254546.59375,254435.109375,250720.328125,225539.21875,245443.890625,244108.234375,227953.65625,263914.0,1.0,1
245338.75,254608.640625,254489.734375,250776.390625,225627.1875,245475.28125,244242.0,227971.171875,263915.0,1.0,1
245396.234375,254712.359375,254616.6875,250841.390625,225826.84375,245517.65625,244549.734375,227990.75,263916.0,1.0,1
245363.421875,254713.25,254638.78125,250820.46875,225863.3125,245505.9375,244612.40625,227985.65625,263917.0,1.0,1
245293.234375,254612.75,254522.984375,250744.828125,225683.875,245459.0,244338.640625,227966.609375,263918.0,1.0,1
245287.078125,254562.234375,254436.796875,250721.140625,225542.609375,245443.625,244114.140625,227959.734375,263919.0,1.0,1
245347.875,254636.09375,254494.203125,250780.859375,225634.25,245485.015625,244247.171875,227977.796875,263920.0,1.0,1
245400.0,254733.90625,254616.515625,250840.859375,225832.65625,245524.625,244551.703125,227992.71875,263921.0,1.0,1
245355.015625,254716.109375,254626.53125,250813.40625,225864.921875,245503.96875,244607.84375,227979.75,263922.0,1.0,1
245283.40625,254613.5625,254511.8125,250736.34375,225684.046875,245453.375,244334.4375,227956.59375,263923.0,1.0,1
245284.484375,254568.859375,254429.375,250716.9375,225545.109375,245437.453125,244112.625,227952.40625,263924.0,1.0,1
245348.3125,254639.9375,254486.953125,250782.921875,225636.484375,245480.09375,244243.78125,227974.03125,263925.0,1.0,1
245397.84375,254727.90625,254605.96875,250841.03125,225828.625,245516.40625,244546.0625,227989.859375,263926.0,1.0,1
245357.34375,254712.359375,254625.1875,250816.453125,225864.5625,245502.453125,244609.8125,227982.703125,263927.0,1.0,1
245285.28125,254607.75,254507.796875,250738.03125,225683.609375,245453.375,244330.5,227958.125,263928.0,1.0,1
245287.078125,254562.328125,254428.125,250720.515625,225545.734375,245437.640625,244109.765625,227958.03125,263929.0,1.0,1
245351.984375,254629.65625,254492.328125,250786.5,225641.140625,245483.40625,244247.0,227983.6875,263930.0,1.0,1
245404.28125,254721.296875,254612.578125,250844.703125,225833.625,245515.15625,244548.390625,227996.390625,263931.0,1.0,1
245367.625,254715.578125,254634.03125,250823.328125,225872.078125,245500.75,244616.4375,227988.34375,263932.0,1.0,1
245296.8125,254609.71875,254521.375,250747.78125,225695.3125,245457.296875,244344.71875,227967.859375,263933.0,1.0,1
245295.03125,254555.984375,254434.484375,250723.015625,225550.84375,245441.5625,244115.296875,227962.0625,263934.0,1.0,1
245356.09375,254620.09375,254488.75,250780.234375,225633.09375,245476.25,244239.671875,227978.234375,263935.0,1.0,1
245408.046875,254713.25,254612.9375,250843.265625,225829.4375,245512.109375,244543.5625,227993.265625,263936.0,1.0,1
245370.40625,254706.453125,254636.265625,250821.0,225870.375,245497.09375,244614.1875,227986.015625,263937.0,1.0,1
245296.109375,254602.109375,254522.015625,250744.03125,225691.125,245444.96875,244340.4375,227961.34375,263938.0,1.0,1
245294.84375,254553.484375,254439.578125,250723.375,225549.9375,245431.375,244114.234375,227955.703125,263939.0,1.0,1
245354.9375,254617.3125,254497.59375,250784.171875,225634.703125,245471.25,244240.296875,227975.109375,263940.0,1.0,1
245408.484375,254711.640625,254622.40625,250847.921875,225829.078125,245512.109375,244545.4375,227992.8125,263941.0,1.0,1
245362.625,254697.421875,254640.828125,250820.828125,225863.140625,245494.578125,244610.96875,227981.453125,263942.0,1.0,1
245291.984375,254601.9375,254532.109375,250746.078125,225687.453125,245449.703125,244342.390625,227961.96875,263943.0,1.0,1
245291.0,254552.234375,254451.28125,250723.375,225545.734375,245439.421875,244116.5625,227956.328125,263944.0,1.0,1
245346.796875,254611.59375,254501.796875,250778.359375,225626.125,245470.625,244231.796875,227970.734375,263945.0,1.0,1
245399.015625,254705.203125,254623.84375,250838.703125,225821.03125,245507.015625,244536.40625,227990.484375,263946.0,1.0,1
245355.734375,254695.015625,254643.25,250813.671875,225860.0,245494.3125,244612.234375,227980.828125,263947.0,1.0,1
245285.015625,254598.8125,254531.484375,250738.390625,225685.65625,245449.609375,244344.546875,227955.171875,263948.0,1.0,1
245281.890625,254553.21875,254445.203125,250715.328125,225539.9375,245439.421875,244115.125,227950.078125,263949.0,1.0,1
245332.578125,254610.875,254492.5,250771.203125,225617.53125,245481.171875,244231.796875,227971.53125,263950.0,1.0,1
245382.921875,254702.25,254613.65625,250832.625,225813.96875,245520.78125,244537.03125,227988.96875,263951.0,1.0,1
245345.640625,254696.703125,254635.90625,250808.40625,225856.25,245503.890625,244611.328125,227978.140625,263952.0,1.0,1
245274.734375,254599.078125,254525.671875,250732.578125,225681.734375,245459.53125,244346.0625,227955.96875,263953.0,1.0,1
245274.28125,254551.875,254445.65625,250714.96875,225541.359375,245453.8125,244121.734375,227956.78125,263954.0,1.0,1
245330.875,254610.515625,254498.40625,250773.265625,225622.453125,245488.859375,244235.109375,227974.921875,263955.0,1.0,1
245381.671875,254698.671875,254616.78125,250831.828125,225815.75,245526.140625,244536.046875,227990.125,263956.0,1.0,1
245350.640625,254698.5,254642.265625,250812.15625,225863.3125,245513.453125,244619.375,227982.796875,263957.0,1.0,1
245275.265625,254594.078125,254526.75,250733.203125,225685.03125,245458.28125,244349.640625,227956.875,263958.0,1.0,1
245275.453125,254545.875,254441.0,250712.734375,225541.71875,245446.03125,244119.328125,227954.640625,263959.0,1.0,1
245338.125,254606.765625,254492.140625,250776.390625,225622.453125,245486.359375,244233.40625,227976.625,263960.0,1.0,1
245385.859375,254694.296875,254610.25,250833.96875,225815.84375,245517.734375,244530.6875,227990.84375,263961.0,1.0,1
245349.65625,254690.984375,254635.640625,250810.90625,225863.40625,245501.296875,244611.78125,227981.09375,263962.0,1.0,1
245278.484375,254590.3125,254524.25,250735.4375,225690.765625,245451.484375,244349.109375,227958.484375,263963.0,1.0,1
245277.234375,254534.609375,254436.71875,250711.296875,225543.953125,245437.28125,244115.578125,227953.203125,263964.0,1.0,1
245347.875,254605.96875,254494.296875,250777.734375,225630.046875,245487.25,244231.625,227978.953125,263965.0,1.0,1
245403.484375,254702.515625,254614.453125,250841.75,225823.96875,245525.4375,244535.421875,227993.96875,263966.0,1.0,1
245366.90625,254701.8125,254641.453125,250819.75,225872.25,245511.03125,244618.75,227983.6875,263967.0,1.0,1
245292.96875,254603.71875,254534.609375,250745.8125,225703.015625,245466.515625,244360.71875,227962.765625,263968.0,1.0,1
245283.234375,254545.34375,254446.28125,250719.890625,225553.34375,245451.671875,244123.890625,227957.40625,263969.0,1.0,1
245337.59375,254599.875,254489.375,250772.375,225622.28125,245483.234375,244221.34375,227972.34375,263970.0,1.0,1
245396.328125,254700.828125,254611.0625,250836.390625,225817.265625,245520.421875,244522.828125,227989.140625,263971.0,1.0,1
245362.359375,254698.859375,254640.46875,250818.765625,225869.125,245505.84375,244614.46875,227980.921875,263972.0,1.0,1
245291.28125,254599.875,254533.90625,250744.921875,225698.0,245453.015625,244356.078125,227957.3125,263973.0,1.0,1
245285.015625,254545.796875,254445.65625,250719.796875,225547.265625,245433.875,244116.828125,227952.84375,263974.0,1.0,1
245342.953125,254607.578125,254494.109375,250778.1875,225621.46875,245473.390625,244219.828125,227974.921875,263975.0,1.0,1
245396.328125,254705.828125,254618.296875,250842.375,225818.078125,245516.578125,244523.984375,227991.46875,263976.0,1.0,1
245362.0,254703.953125,254645.03125,250821.984375,225869.03125,245506.46875,244617.140625,227981.1875,263977.0,1.0,1
245290.5625,254604.53125,254535.78125,250742.78125,225694.875,245454.984375,244355.265625,227955.96875,263978.0,1.0,1
245283.234375,254551.15625,254447.890625,250716.671875,225541.09375,245438.703125,244114.40625,227951.421875,263979.0,1.0,1
245343.84375,254616.59375,254499.390625,250779.25,225617.625,245487.703125,244223.9375,227977.609375,263980.0,1.0,1
245399.015625,254711.546875,254620.53125,250841.390625,225814.234375,245529.71875,244530.59375,227992.71875,263981.0,1.0,1
245363.515625,254701.984375,254646.828125,250819.9375,225864.828125,245510.765625,244620.359375,227979.21875,263982.0,1.0,1
245289.125,254598.09375,254537.75,250742.953125,225690.9375,245454.796875,244357.421875,227954.28125,263983.0,1.0,1
245276.171875,254539.71875,254446.1875,250712.203125,225535.109375,245431.375,244113.609375,227943.015625,263984.0,1.0,1
245326.140625,254592.8125,254484.71875,250763.25,225599.5625,245461.421875,244207.65625,227956.78125,263985.0,1.0,1
245392.125,254698.671875,254610.703125,250830.3125,225799.75,245504.0625,244514.421875,227980.03125,263986.0,1.0,1
245363.25,254701.625,254644.40625,250816.265625,225862.875,245497.890625,244618.3125,227981.1875,263987.0,1.0,1
245282.328125,254593.625,254528.984375,250733.5625,225689.421875,245444.96875,244354.5625,227953.734375,263988.0,1.0,1
245273.75,254534.171875,254440.5625,250709.78125,225538.765625,245428.25,244112.890625,227944.078125,263989.0,1.0,1
245328.203125,254587.453125,254480.96875,250763.96875,225603.859375,245463.734375,244205.6875,227961.78125,263990.0,1.0,1
245392.484375,254694.828125,254607.390625,250833.703125,225804.9375,245508.984375,244513.078125,227988.078125,263991.0,1.0,1
245367.0,254704.484375,254644.578125,250820.5625,225867.421875,245504.328125,244617.59375,227981.90625,263992.0,1.0,1
245287.515625,254599.875,254530.5,250739.5625,225694.6875,245449.96875,244358.765625,227953.828125,263993.0,1.0,1
245274.734375,254537.203125,254435.109375,250710.234375,225539.65625,245430.21875,244115.03125,227948.109375,263994.0,1.0,1
245324.625,254588.078125,254475.609375,250762.53125,225604.84375,245467.765625,244205.0625,227967.0625,263995.0,1.0,1
245384.609375,254690.1875,254597.015625,250828.421875,225801.265625,245508.625,244506.90625,227985.296875,263996.0,1.0,1
245354.125,254692.59375,254627.328125,250813.5,225859.109375,245497.09375,244607.578125,227977.703125,263997.0,1.0,1
245280.015625,254596.484375,254524.25,250739.109375,225693.890625,245454.265625,244358.578125,227956.15625,263998.0,1.0,1
245266.859375,254536.765625,254434.203125,250709.96875,225538.765625,245434.59375,244115.578125,227946.40625,263999.0,1.0,1
245314.34375,254580.484375,254469.34375,250757.890625,225595.625,245463.65625,244200.328125,227961.875,264000.0,1.0,1
245382.5625,254692.6875,254597.46875,250826.734375,225796.171875,245510.140625,244510.578125,227989.859375,264001.0,1.0,1
245349.5625,254695.09375,254630.28125,250806.875,225858.484375,245495.484375,244614.90625,227982.34375,264002.0,1.0,1
245273.125,254589.59375,254520.75,250727.671875,225691.390625,245443.265625,244359.828125,227954.09375,264003.0,1.0,1
245270.890625,254539.078125,254436.53125,250706.828125,225542.34375,245433.703125,244119.328125,227950.515625,264004.0,1.0,1
245332.3125,254602.203125,254483.109375,250764.859375,225608.59375,245475.625,244210.078125,227971.171875,264005.0,1.0,1
245389.4375,254696.890625,254603.1875,250828.515625,225802.15625,245511.9375,244510.03125,227989.140625,264006.0,1.0,1
245359.765625,254700.640625,254636.890625,250811.96875,225864.296875,245497.171875,244613.84375,227980.390625,264007.0,1.0,1
245278.9375,254593.984375,254527.8125,250732.140625,225695.5,245446.03125,244359.03125,227953.5625,264008.0,1.0,1
245261.953125,254528.796875,254432.78125,250699.140625,225534.75,245425.109375,244108.0625,227943.28125,264009.0,1.0,1
245327.65625,254593.171875,254482.046875,250764.765625,225602.25,245468.921875,244202.03125,227969.390625,264010.0,1.0,1
245388.28125,254693.765625,254604.984375,250830.484375,225797.515625,245511.65625,244508.0625,227986.28125,264011.0,1.0,1
245357.53125,254693.484375,254641.1875,250814.5625,225862.59375,245502.0,244617.859375,227980.109375,264012.0,1.0,1
245286.890625,254595.953125,254539.625,250740.890625,225703.8125,245454.890625,244373.328125,227960.171875,264013.0,1.0,1
245274.015625,254534.25,254442.796875,250708.265625,225542.34375,245433.515625,244120.125,227949.0,264014.0,1.0,1
245323.453125,254584.859375,254477.125,250759.671875,225598.21875,245469.640625,244199.171875,227965.546875,264015.0,1.0,1
245384.4375,254681.78125,254597.5625,250827.984375,225799.125,245514.515625,244507.0,227988.609375,264016.0,1.0,1
245362.4375,254694.03125,254636.8125,250818.6875,225870.828125,245506.921875,244622.0625,227982.265625,264017.0,1.0,1
245285.1875,254592.015625,254525.9375,250737.671875,225702.03125,245453.1875,244364.390625,227953.46875,264018.0,1.0,1
245277.5,254535.0625,254435.640625,250707.28125,225546.28125,245434.6875,244115.578125,227946.5,264019.0,1.0,1
245332.484375,254589.515625,254474.625,250761.8125,225602.34375,245471.25,244195.40625,227964.734375,264020.0,1.0,1
245390.515625,254687.40625,254597.203125,250828.421875,225799.84375,245513.625,244497.515625,227985.484375,264021.0,1.0,1
245362.4375,254693.484375,254636.53125,250815.828125,225870.734375,245504.0625,244612.9375,227982.265625,264022.0,1.0,1
245285.640625,254594.421875,254531.390625,250737.046875,225708.1875,245455.328125,244364.296875,227955.078125,264023.0,1.0,1
245267.765625,254528.890625,254430.015625,250701.109375,225544.84375,245432.53125,244106.28125,227943.015625,264024.0,1.0,1
245318.625,254574.84375,254463.265625,250750.90625,225594.203125,245464.546875,244177.53125,227959.46875,264025.0,1.0,1
245390.96875,254687.328125,254598.8125,250831.828125,225802.34375,245520.15625,244497.515625,227989.859375,264026.0,1.0,1
245366.640625,254699.125,254640.296875,250825.125,225877.4375,245514.609375,244621.34375,227986.546875,264027.0,1.0,1
245284.5625,254593.4375,254526.75,250741.078125,225709.359375,245459.09375,244370.734375,227955.96875,264028.0,1.0,1
245272.40625,254531.84375,254431.53125,250707.109375,225545.03125,245434.953125,244117.984375,227949.8125,264029.0,1.0,1
245331.78125,254584.859375,254471.9375,250762.359375,225600.546875,245471.703125,244193.625,227971.625,264030.0,1.0,1
245387.203125,254681.953125,254592.109375,250828.96875,225792.859375,245509.96875,244495.1875,227987.171875,264031.0,1.0,1
245362.359375,254694.828125,254635.46875,250817.703125,225868.328125,245505.84375,244621.53125,227981.1875,264032.0,1.0,1
245284.921875,254596.3125,254532.109375,250740.8125,225709.265625,245460.078125,244381.296875,227959.734375,264033.0,1.0,1
245270.0,254531.390625,254434.203125,250706.46875,225543.953125,245437.71875,244122.71875,227949.71875,264034.0,1.0,1
245322.390625,254579.59375,254466.21875,250753.6875,225592.59375,245472.140625,244190.5,227967.15625,264035.0,1.0,1
245382.640625,254680.078125,254588.609375,250821.8125,225788.390625,245513.265625,244491.96875,227985.21875,264036.0,1.0,1
245356.546875,254687.765625,254628.671875,250810.09375,225860.8125,245501.203125,244613.484375,227976.453125,264037.0,1.0,1
245277.6875,254586.734375,254523.703125,250733.203125,225701.671875,245453.09375,244373.875,227955.703125,264038.0,1.0,1
245268.46875,254525.671875,254430.640625,250702.90625,225542.171875,245436.375,244120.75,227951.859375,264039.0,1.0,1
245324.625,254579.765625,254464.609375,250752.34375,225591.703125,245470.171875,244186.828125,227966.609375,264040.0,1.0,1
245387.75,254683.65625,254589.875,250825.125,225793.671875,245517.46875,244494.5625,227990.75,264041.0,1.0,1
245355.203125,254684.375,254625.984375,250809.296875,225862.78125,245502.546875,244615.0,227978.78125,264042.0,1.0,1
245278.9375,254587.546875,254521.828125,250730.53125,225700.59375,245449.34375,244374.9375,227953.5625,264043.0,1.0,1
245264.453125,254527.734375,254425.265625,250696.375,225537.421875,245427.34375,244116.640625,227945.34375,264044.0,1.0,1
245317.203125,254573.859375,254456.828125,250748.234375,225582.671875,245462.40625,244179.5,227965.984375,264045.0,1.0,1
245377.8125,254671.671875,254577.984375,250817.4375,225778.296875,245508.53125,244480.984375,227985.125,264046.0,1.0,1
245359.21875,254685.984375,254624.015625,250809.921875,225860.8125,245501.5625,244612.578125,227981.015625,264047.0,1.0,1
245283.3125,254587.359375,254520.75,250732.84375,225702.65625,245451.9375,244373.59375,227954.984375,264048.0,1.0,1
245269.546875,254521.921875,254423.921875,250697.890625,225536.625,245431.015625,244114.671875,227947.484375,264049.0,1.0,1
245320.421875,254568.234375,254451.28125,250744.921875,225576.859375,245459.359375,244170.921875,227962.859375,264050.0,1.0,1
245381.75,254670.328125,254570.375,250812.609375,225769.265625,245497.53125,244470.34375,227979.578125,264051.0,1.0,1
245366.203125,254692.859375,254621.078125,250809.46875,225855.71875,245494.5,244609.09375,227977.875,264052.0,1.0,1
245291.28125,254600.328125,254523.4375,250734.640625,225704.53125,245451.3125,244375.828125,227957.140625,264053.0,1.0,1
245271.421875,254530.40625,254423.578125,250698.875,225538.40625,245428.6875,244116.828125,227950.078125,264054.0,1.0,1
245320.953125,254574.84375,254448.609375,250743.578125,225576.5,245460.25,244170.828125,227963.671875,264055.0,1.0,1
245381.390625,254673.015625,254566.359375,250809.5625,225769.4375,245501.203125,244468.46875,227980.46875,264056.0,1.0,1
245358.78125,254686.34375,254614.640625,250802.765625,225852.140625,245494.859375,244604.09375,227973.328125,264057.0,1.0,1
245281.890625,254592.734375,254518.515625,250726.0625,225703.09375,245451.3125,244373.328125,227952.84375,264058.0,1.0,1
245269.546875,254530.953125,254424.734375,250694.40625,225542.25,245432.71875,244116.203125,227949.890625,264059.0,1.0,1
245316.3125,254570.640625,254448.78125,250738.125,225579.265625,245459.53125,244165.8125,227964.109375,264060.0,1.0,1
245375.140625,254670.25,254567.875,250805.625,225773.109375,245500.671875,244464.265625,227984.765625,264061.0,1.0,1
245355.203125,254685.4375,254615.34375,250802.328125,225857.328125,245494.9375,244605.34375,227979.75,264062.0,1.0,1
245281.625,254594.515625,254522.359375,250729.984375,225708.015625,245455.0625,244383.875,227954.984375,264063.0,1.0,1
245272.40625,254534.609375,254433.9375,250703.078125,225550.390625,245440.046875,244131.671875,227955.4375,264064.0,1.0,1
245325.0625,254578.515625,254459.6875,250750.828125,225588.203125,245469.109375,244179.765625,227973.40625,264065.0,1.0,1
245383.359375,254676.0625,254578.953125,250815.546875,225777.75,245509.0625,244477.484375,227990.21875,264066.0,1.0,1
245361.734375,254695.8125,254630.1875,250811.796875,225863.9375,245506.125,244620.8125,227984.578125,264067.0,1.0,1
245283.765625,254602.03125,254534.703125,250738.578125,225712.21875,245458.015625,244391.390625,227963.125,264068.0,1.0,1
245263.203125,254533.90625,254435.109375,250701.921875,225543.953125,245434.59375,244129.78125,227953.828125,264069.0,1.0,1
245309.78125,254572.34375,254453.96875,250744.390625,225580.34375,245463.203125,244177.4375,227964.5625,264070.0,1.0,1
245370.578125,254672.21875,254569.390625,250808.9375,225774.796875,245504.234375,244475.171875,227983.6875,264071.0,1.0,1
245356.71875,254698.859375,254623.578125,250808.9375,225866.71875,245503.34375,244621.703125,227983.6875,264072.0,1.0,1
245279.109375,254603.453125,254528.0,250735.265625,225717.84375,245456.3125,244396.9375,227963.125,264073.0,1.0,1
245261.59375,254534.890625,254427.140625,250695.921875,225545.03125,245431.640625,244131.046875,227953.109375,264074.0,1.0,1
245309.609375,254573.328125,254448.25,250740.890625,225577.125,245462.484375,244173.59375,227966.4375,264075.0,1.0,1
245372.8125,254672.296875,254570.109375,250812.6875,225774.71875,245506.125,244475.53125,227987.265625,264076.0,1.0,1
245356.09375,254692.78125,254619.8125,250806.171875,225862.59375,245500.578125,244620.09375,227982.890625,264077.0,1.0,1
245276.703125,254597.015625,254520.125,250727.125,225711.140625,245452.75,244395.140625,227961.25,264078.0,1.0,1
245258.28125,254528.09375,254421.6875,250692.625,225543.421875,245429.671875,244131.84375,227952.3125,264079.0,1.0,1
245306.109375,254567.0625,254442.34375,250739.921875,225573.71875,245457.84375,244170.375,227966.34375,264080.0,1.0,1
245370.484375,254666.671875,254563.21875,250807.953125,225765.953125,245501.828125,244466.9375,227985.84375,264081.0,1.0,1
245357.796875,254688.578125,254621.703125,250807.328125,225863.3125,245502.71875,244620.546875,227986.546875,264082.0,1.0,1
245284.125,254598.09375,254526.125,250733.203125,225715.96875,245456.859375,244397.03125,227963.390625,264083.0,1.0,1
245263.015625,254524.15625,254425.1875,250697.453125,225545.921875,245434.0625,244133.984375,227954.8125,264084.0,1.0,1
245307.8125,254561.703125,254441.71875,250738.578125,225571.484375,245456.046875,244164.5625,227965.8125,264085.0,1.0,1
245367.0,254660.234375,254557.859375,250803.84375,225761.578125,245496.375,244459.609375,227983.78125,264086.0,1.0,1
245352.421875,254684.109375,254612.9375,250802.59375,225855.265625,245495.03125,244613.75,227981.1875,264087.0,1.0,1
245274.28125,254587.984375,254519.0625,250728.734375,225710.875,245448.90625,244393.0,227955.625,264088.0,1.0,1
245249.703125,254510.65625,254413.921875,250689.21875,225535.734375,245421.8125,244122.359375,227942.390625,264089.0,1.0,1
245296.640625,254545.875,254430.359375,250730.171875,225557.90625,245447.109375,244153.5625,227957.671875,264090.0,1.0,1
245374.6875,254660.765625,254565.015625,250814.390625,225768.640625,245507.8125,244469.265625,227995.671875,264091.0,1.0,1
245361.1875,254688.21875,254620.0,250814.5625,225866.4375,245509.0625,244628.765625,227993.4375,264092.0,1.0,1
245289.671875,254600.328125,254528.453125,250741.171875,225723.390625,245464.28125,244411.6875,227968.9375,264093.0,1.0,1
245265.171875,254525.5,254421.78125,250696.8125,225546.375,245429.046875,244132.65625,227951.59375,264094.0,1.0,1
245304.953125,254560.28125,254436.453125,250737.953125,225571.484375,245458.90625,244161.171875,227965.28125,264095.0,1.0,1
245367.0,254662.109375,254560.28125,250811.890625,225768.8125,245509.0625,244465.0625,227984.671875,264096.0,1.0,1
245362.078125,254696.0,254626.53125,250817.515625,225873.0625,245514.34375,244633.234375,227987.796875,264097.0,1.0,1
245284.75,254607.21875,254531.3125,250737.671875,225727.5,245464.015625,244413.5625,227961.875,264098.0,1.0,1
245256.40625,254533.1875,254425.0,250695.75,225552.171875,245437.71875,244142.65625,227951.0625,264099.0,1.0,1
245297.171875,254563.671875,254436.71875,250735.265625,225568.71875,245462.671875,244168.140625,227965.28125,264100.0,1.0,1
245352.34375,254658.4375,254548.734375,250797.21875,225752.546875,245496.90625,244456.21875,227980.03125,264101.0,1.0,1
245340.8125,254687.140625,254607.21875,250797.578125,225852.5,245497.796875,244620.359375,227980.296875,264102.0,1.0,1
245270.4375,254600.859375,254522.359375,250730.796875,225720.078125,245458.90625,244413.390625,227968.046875,264103.0,1.0,1
245248.09375,254526.84375,254419.734375,250690.5625,225546.1875,245431.90625,244139.71875,227951.328125,264104.0,1.0,1
245291.453125,254556.515625,254431.96875,250728.46875,225564.515625,245455.875,244159.03125,227960.171875,264105.0,1.0,1
245355.828125,254658.0,254548.65625,250796.328125,225753.609375,245494.9375,244451.75,227977.796875,264106.0,1.0,1
245339.640625,254681.0625,254603.546875,250796.0625,225853.125,245492.171875,244610.890625,227972.609375,264107.0,1.0,1
245265.609375,254592.90625,254512.078125,250720.953125,225715.890625,245444.25,244396.40625,227950.609375,264108.0,1.0,1
245248.09375,254525.234375,254412.578125,250682.78125,225544.578125,245419.578125,244124.953125,227941.21875,264109.0,1.0,1
245296.109375,254562.15625,254430.1875,250726.0625,225566.65625,245452.828125,244148.390625,227957.9375,264110.0,1.0,1
245359.046875,254661.296875,254550.0,250797.671875,225761.65625,245500.484375,244445.9375,227978.953125,264111.0,1.0,1
245348.046875,254689.5625,254607.296875,250798.828125,225861.34375,245500.3125,244613.21875,227975.734375,264112.0,1.0,1
245269.015625,254596.03125,254511.375,250719.796875,225715.796875,245449.25,244399.265625,227950.078125,264113.0,1.0,1
245251.671875,254527.734375,254412.03125,250681.890625,225544.125,245424.578125,244128.453125,227941.140625,264114.0,1.0,1
245300.75,254562.78125,254430.71875,250726.859375,225566.9375,245459.265625,244150.171875,227959.1875,264115.0,1.0,1
245357.25,254654.59375,254541.765625,250790.96875,225750.9375,245497.453125,244439.5,227973.765625,264116.0,1.0,1
245349.828125,254687.59375,254606.859375,250800.71875,225859.203125,245502.453125,244614.109375,227974.484375,264117.0,1.0,1
245274.015625,254598.09375,254518.96875,250729.90625,225724.46875,245459.453125,244409.546875,227954.28125,264118.0,1.0,1
245254.609375,254526.75,254414.984375,250686.890625,225549.140625,245430.65625,244132.828125,227943.1875,264119.0,1.0,1
245309.328125,254566.171875,254435.1875,250732.671875,225570.59375,245460.078125,244154.015625,227963.578125,264120.0,1.0,1
245369.59375,254659.34375,254552.765625,250804.46875,225759.421875,245503.171875,244446.921875,227984.3125,264121.0,1.0,1
245361.015625,254691.171875,254618.5625,250811.34375,225868.234375,245510.046875,244619.734375,227986.109375,264122.0,1.0,1
245280.8125,254595.234375,254523.4375,250731.953125,225727.328125,245461.328125,244409.71875,227959.015625,264123.0,1.0,1
245258.46875,254522.8125,254418.390625,250690.65625,225550.296875,245434.765625,244134.34375,227946.046875,264124.0,1.0,1
245301.28125,254555.453125,254430.8125,250731.78125,225563.890625,245460.703125,244147.3125,227960.890625,264125.0,1.0,1
245359.21875,254651.46875,254546.0625,250800.4375,225753.53125,245504.953125,244441.1875,227980.5625,264126.0,1.0,1
245342.140625,254673.015625,254602.5625,250801.15625,225855.8125,245504.515625,244610.890625,227978.0625,264127.0,1.0,1
245268.296875,254590.40625,254516.109375,250731.421875,225722.5,245462.84375,244412.671875,227961.25,264128.0,1.0,1
245243.890625,254521.375,254413.640625,250690.5625,225548.15625,245438.34375,244143.28125,227949.0,264129.0,1.0,1
245286.09375,254553.5625,254426.703125,250730.171875,225560.046875,245466.515625,244155.09375,227962.6875,264130.0,1.0,1
245349.65625,254655.578125,254545.796875,250803.921875,225752.890625,245509.875,244447.359375,227984.765625,264131.0,1.0,1
245343.84375,254689.015625,254613.46875,250811.96875,225866.171875,245516.125,244625.453125,227984.5,264132.0,1.0,1
245267.484375,254595.59375,254520.125,250735.890625,225731.078125,245471.34375,244423.125,227958.84375,264133.0,1.0,1
245250.140625,254525.765625,254415.34375,250695.203125,225557.09375,245446.390625,244146.953125,227947.921875,264134.0,1.0,1
245299.140625,254554.734375,254426.875,250733.296875,225571.21875,245472.859375,244153.296875,227962.6875,264135.0,1.0,1
245362.171875,254651.203125,254543.375,250803.65625,225760.3125,245518.1875,244446.203125,227987.0,264136.0,1.0,1
245349.484375,254679.90625,254604.53125,250807.5,225864.203125,245519.0,244623.140625,227981.8125,264137.0,1.0,1
245267.84375,254588.96875,254513.15625,250731.15625,225725.890625,245465.96875,244420.0,227948.375,264138.0,1.0,1
245241.390625,254512.265625,254405.78125,250686.71875,225543.15625,245431.640625,244137.828125,227936.84375,264139.0,1.0,1
245291.0,254544.890625,254417.9375,250728.203125,225554.421875,245457.296875,244145.703125,227955.890625,264140.0,1.0,1
245354.75,254644.859375,254536.84375,250802.328125,225745.75,245498.25,244438.515625,227979.046875,264141.0,1.0,1
245341.078125,254673.640625,254598.1875,250804.640625,225851.6875,245493.421875,244613.5625,227972.609375,264142.0,1.0,1
245261.859375,254588.890625,254510.203125,250729.625,225719.546875,245444.78125,244416.6875,227949.625,264143.0,1.0,1
245252.109375,254532.921875,254416.515625,250698.78125,225554.0625,245428.25,244154.90625,227952.75,264144.0,1.0,1
245294.5,254563.046875,254422.3125,250737.5,225557.984375,245449.96875,244154.46875,227965.546875,264145.0,1.0,1
245360.390625,254666.671875,254541.234375,250808.3125,225749.765625,245496.640625,244446.109375,227987.453125,264146.0,1.0,1
245356.09375,254704.84375,254609.71875,250815.90625,225865.734375,245503.265625,244630.375,227989.5,264147.0,1.0,1
245275.0,254615.703125,254519.5,250739.28125,225732.609375,245459.53125,244433.140625,227965.546875,264148.0,1.0,1
245249.25,254541.40625,254412.3125,250692.4375,225553.609375,245432.53125,244156.25,227954.640625,264149.0,1.0,1
245291.359375,254570.375,254416.15625,250729.71875,225559.59375,245456.3125,244152.5,227967.59375,264150.0,1.0,1
245352.515625,254670.0625,254530.328125,250798.125,225748.25,245497.359375,244438.953125,227987.625,264151.0,1.0,1
245349.296875,254708.59375,254598.0,250806.34375,225863.40625,245502.71875,244623.3125,227988.34375,264152.0,1.0,1
245267.578125,254617.3125,254512.625,250733.390625,225734.03125,245458.015625,244432.078125,227963.03125,264153.0,1.0,1
245240.21875,254540.25,254406.9375,250692.34375,225557.0,245428.953125,244152.59375,227952.40625,264154.0,1.0,1
245279.203125,254564.296875,254409.625,250726.140625,225558.078125,245451.140625,244144.453125,227964.015625,264155.0,1.0,1
245345.359375,254667.65625,254532.203125,250800.4375,225752.1875,245501.828125,244441.1875,227987.265625,264156.0,1.0,1
245337.5,254701.53125,254599.875,250806.078125,225865.109375,245501.203125,244622.515625,227979.671875,264157.0,1.0,1
245256.578125,254609.09375,254513.515625,250729.1875,225733.671875,245450.421875,244428.046875,227955.703125,264158.0,1.0,1
245232.0,254531.75,254407.203125,250682.78125,225548.78125,245420.921875,244145.34375,227945.421875,264159.0,1.0,1
245284.484375,254561.34375,254417.40625,250722.21875,225552.8125,245449.609375,244139.890625,227961.609375,264160.0,1.0,1
245349.828125,254663.1875,254538.640625,250795.4375,225745.484375,245497.0,244432.515625,227984.140625,264161.0,1.0,1
245348.671875,254700.203125,254610.4375,250805.265625,225867.078125,245498.078125,244625.1875,227987.796875,264162.0,1.0,1
245275.53125,254614.640625,254527.90625,250733.484375,225741.984375,245449.34375,244437.4375,227962.6875,264163.0,1.0,1
245245.140625,254531.578125,254416.78125,250684.921875,225556.296875,245412.875,244150.890625,227947.21875,264164.0,1.0,1
245296.453125,254562.515625,254423.75,250723.546875,225559.59375,245437.90625,244143.921875,227966.171875,264165.0,1.0,1
245359.84375,254661.84375,254535.328125,250791.328125,225744.40625,245472.6875,244425.71875,227985.484375,264166.0,1.0,1
245352.875,254696.890625,254606.9375,250803.21875,225864.484375,245481.53125,244620.71875,227984.765625,264167.0,1.0,1
245274.375,254609.53125,254527.1875,250734.375,225740.296875,245440.21875,244437.078125,227962.0625,264168.0,1.0,1
245253.1875,254537.75,254425.0,250691.640625,225562.109375,245414.921875,244157.234375,227952.578125,264169.0,1.0,1
245305.84375,254571.625,254434.03125,250733.5625,225565.953125,245449.25,244151.6875,227973.5,264170.0,1.0,1
245370.21875,254670.875,254549.546875,250805.71875,225751.828125,245495.921875,244438.515625,227993.53125,264171.0,1.0,1
245365.21875,254703.140625,254615.53125,250810.640625,225866.71875,245495.75,244626.265625,227988.4375,264172.0,1.0,1
245286.796875,254614.8125,254533.984375,250737.953125,225744.21875,245452.203125,244443.703125,227968.140625,264173.0,1.0,1
245262.9375,254541.953125,254428.484375,250695.84375,225567.375,245430.125,244165.640625,227960.09375,264174.0,1.0,1
245303.609375,254565.90625,254430.453125,250727.75,225561.125,245454.078125,244146.859375,227966.796875,264175.0,1.0,1
245366.46875,254663.8125,254547.84375,250799.015625,225746.1875,245499.140625,244430.28125,227987.265625,264176.0,1.0,1
245363.609375,254699.484375,254622.234375,250811.0,225865.640625,245508.4375,244623.84375,227988.96875,264177.0,1.0,1
245284.84375,254614.453125,254540.609375,250737.046875,225742.265625,245464.8125,244441.109375,227962.140625,264178.0,1.0,1
245258.90625,254537.125,254434.65625,250692.96875,225562.375,245435.9375,244157.421875,227949.265625,264179.0,1.0,1
245301.734375,254558.75,254433.765625,250724.171875,225552.71875,245455.15625,244135.234375,227958.84375,264180.0,1.0,1
245367.09375,254660.953125,254551.421875,250797.3125,225740.65625,245501.921875,244421.078125,227981.71875,264181.0,1.0,1
245367.53125,254704.21875,254627.859375,250812.25,225866.4375,245511.21875,244623.140625,227984.765625,264182.0,1.0,1
245282.328125,254614.015625,254543.28125,250737.671875,225740.375,245460.609375,244438.78125,227959.28125,264183.0,1.0,1
245251.9375,254534.609375,254435.109375,250695.03125,225559.421875,245433.703125,244157.328125,227948.28125,264184.0,1.0,1
245299.046875,254558.046875,254435.46875,250729.546875,225550.390625,245456.765625,244138.375,227963.9375,264185.0,1.0,1
245364.40625,254659.96875,254553.484375,250800.53125,225735.90625,245501.921875,244423.046875,227984.765625,264186.0,1.0,1
245365.21875,254703.234375,254629.5625,250815.015625,225860.90625,245508.984375,244625.453125,227986.015625,264187.0,1.0,1
245292.4375,254619.640625,254550.4375,250743.671875,225741.71875,245462.75,244450.9375,227959.28125,264188.0,1.0,1
245264.1875,254541.234375,254441.09375,250693.953125,225556.296875,245430.21875,244163.140625,227943.546875,264189.0,1.0,1
245300.21875,254555.796875,254433.765625,250721.3125,225538.234375,245446.84375,244130.5,227951.5,264190.0,1.0,1
245365.65625,254657.1875,254549.71875,250794.71875,225722.953125,245489.84375,244408.828125,227971.265625,264191.0,1.0,1
245372.71875,254705.109375,254630.09375,250813.046875,225854.28125,245501.203125,244615.171875,227975.828125,264192.0,1.0,1
245290.203125,254614.8125,254546.953125,250739.015625,225732.515625,245450.59375,244437.703125,227949.453125,264193.0,1.0,1
245258.28125,254530.59375,254436.890625,250692.53125,225551.734375,245421.453125,244155.453125,227940.953125,264194.0,1.0,1
245298.15625,254548.65625,254428.21875,250722.21875,225536.984375,245440.578125,244122.640625,227951.953125,264195.0,1.0,1
245355.734375,254642.34375,254533.359375,250789.796875,225716.59375,245477.953125,244396.578125,227969.921875,264196.0,1.0,1
245356.625,254686.515625,254609.09375,250805.1875,225844.546875,245484.390625,244598.8125,227970.28125,264197.0,1.0,1
245278.046875,254602.65625,254531.9375,250733.921875,225730.453125,245439.59375,244426.625,227948.109375,264198.0,1.0,1
245258.1875,254530.40625,254432.25,250697.359375,225561.65625,245426.09375,244152.671875,227950.96875,264199.0,1.0,1
245300.21875,254552.5,254424.375,250728.015625,225544.9375,245446.75,244116.640625,227962.5,264200.0,1.0,1
245372.453125,254660.328125,254542.578125,250804.109375,225734.03125,245496.1875,244401.671875,227988.15625,264201.0,1.0,1
245379.34375,254705.828125,254620.265625,250819.578125,225865.1875,245505.84375,244609.453125,227988.34375,264202.0,1.0,1
245298.15625,254618.390625,254540.25,250747.15625,225751.640625,245458.109375,244437.96875,227962.765625,264203.0,1.0,1
245260.34375,254532.109375,254427.140625,250696.546875,225567.015625,245424.484375,244147.9375,227947.484375,264204.0,1.0,1
245299.234375,254548.03125,254420.359375,250726.6875,225550.21875,245445.6875,244116.640625,227958.390625,264205.0,1.0,1
245371.65625,254653.265625,254538.8125,250803.84375,225735.28125,245491.28125,244401.234375,227982.890625,264206.0,1.0,1
245376.5625,254702.515625,254619.734375,250820.375,225866.359375,245498.703125,244613.296875,227987.359375,264207.0,1.0,1
245293.328125,254618.84375,254542.484375,250748.671875,225754.0625,245453.90625,244448.609375,227962.40625,264208.0,1.0,1
245255.25,254529.421875,254428.84375,250694.5,225566.578125,245418.40625,244158.046875,227950.703125,264209.0,1.0,1
245297.078125,254547.3125,254422.953125,250723.828125,225545.109375,245440.21875,244119.328125,227961.78125,264210.0,1.0,1
245364.40625,254652.28125,254539.359375,250796.328125,225726.171875,245487.34375,244397.203125,227979.84375,264211.0,1.0,1
245365.125,254694.109375,254620.625,250809.109375,225856.4375,245497.984375,244607.125,227978.0625,264212.0,1.0,1
245287.609375,254611.0625,254545.171875,250738.125,225745.5625,245454.4375,244445.84375,227954.1875,264213.0,1.0,1
245260.703125,254536.3125,254435.1875,250692.078125,225562.109375,245419.484375,244158.3125,227947.390625,264214.0,1.0,1
245298.875,254554.109375,254425.359375,250722.484375,225538.859375,245436.5625,244114.859375,227964.109375,264215.0,1.0,1
245363.875,254653.078125,254541.859375,250798.828125,225724.734375,245486.359375,244400.78125,227987.09375,264216.0,1.0,1
245367.265625,254694.828125,254621.078125,250814.484375,225855.984375,245492.53125,244614.734375,227984.046875,264217.0,1.0,1
245296.453125,254618.484375,254553.84375,250746.4375,225749.859375,245449.703125,244458.265625,227960.796875,264218.0,1.0,1
245266.78125,254537.46875,254445.203125,250697.0,225566.03125,245418.234375,244169.21875,227947.484375,264219.0,1.0,1
245298.515625,254540.96875,254428.40625,250719.171875,225538.765625,245430.75,244116.28125,227954.640625,264220.0,1.0,1
245360.203125,254634.125,254537.390625,250791.328125,225717.046875,245474.296875,244390.5,227973.140625,264221.0,1.0,1
245370.21875,254690.1875,254620.625,250810.71875,225852.59375,245485.46875,244606.59375,227976.0,264222.0,1.0,1
245298.0625,254618.5625,254555.453125,250747.515625,225751.203125,245448.90625,244454.78125,227961.96875,264223.0,1.0,1
245257.390625,254529.078125,254440.015625,250693.25,225561.125,245414.296875,244161.890625,227946.046875,264224.0,1.0,1
245291.09375,254539.890625,254425.71875,250720.0625,225534.5625,245432.0,244113.25,227952.21875,264225.0,1.0,1
245359.765625,254643.609375,254535.15625,250793.375,225714.90625,245478.21875,244387.375,227974.65625,264226.0,1.0,1
245371.03125,254698.3125,254620.171875,250816.359375,225857.59375,245494.40625,244610.625,227986.109375,264227.0,1.0,1
245292.4375,254619.109375,254549.546875,250747.15625,225754.5,245451.046875,244455.40625,227961.15625,264228.0,1.0,1
245244.78125,254523.265625,254427.859375,250688.78125,225563.796875,245412.0625,244159.46875,227942.75,264229.0,1.0,1
245277.78125,254534.171875,254410.96875,250714.25,225536.625,245428.328125,244106.546875,227951.859375,264230.0,1.0,1
245348.3125,254638.78125,254523.078125,250789.890625,225717.671875,245477.515625,244382.625,227977.34375,264231.0,1.0,1
245362.359375,254695.375,254611.0625,250813.859375,225859.828125,245495.125,244606.78125,227986.109375,264232.0,1.0,1
245281.890625,254608.828125,254539.265625,250742.859375,225756.203125,245451.140625,244455.3125,227961.96875,264233.0,1.0,1
245249.796875,254524.328125,254428.671875,250691.8125,225568.890625,245419.390625,244166.265625,227947.921875,264234.0,1.0,1
245280.453125,254531.75,254408.640625,250710.5,225532.953125,245432.09375,244106.0,227953.921875,264235.0,1.0,1
245343.390625,254626.34375,254515.03125,250780.765625,225710.078125,245479.03125,244374.765625,227975.5625,264236.0,1.0,1
245355.375,254678.5625,254599.609375,250802.234375,225851.6875,245485.28125,244594.96875,227978.59375,264237.0,1.0,1
245277.140625,254596.9375,254530.859375,250733.390625,225751.640625,245438.171875,244447.265625,227954.1875,264238.0,1.0,1
245244.15625,254514.5,254418.828125,250682.96875,225566.578125,245409.921875,244159.65625,227943.015625,264239.0,1.0,1
245284.125,254530.40625,254405.953125,250712.015625,225536.71875,245430.390625,244103.328125,227955.34375,264240.0,1.0,1
245350.546875,254628.9375,254518.25,250786.578125,225714.625,245479.5625,244372.890625,227978.328125,264241.0,1.0,1
245361.90625,254684.1875,254607.390625,250808.84375,225856.875,245498.078125,244601.046875,227983.609375,264242.0,1.0,1
245285.46875,254607.390625,254541.765625,250741.796875,225757.1875,245457.296875,244456.390625,227961.703125,264243.0,1.0,1
245251.671875,254524.328125,254430.71875,250690.921875,225569.96875,245428.0625,244165.640625,227948.90625,264244.0,1.0,1
245287.515625,254535.78125,254414.359375,250716.671875,225536.625,245448.90625,244107.171875,227958.65625,264245.0,1.0,1
245356.0,254638.5,254526.203125,250789.625,225713.828125,245497.359375,244379.140625,227980.5625,264246.0,1.0,1
245365.125,254690.8125,254615.078125,250809.109375,225854.640625,245506.296875,244604.8125,227984.578125,264247.0,1.0,1
245283.859375,254611.6875,254545.609375,250735.53125,225753.796875,245458.015625,244457.46875,227953.375,264248.0,1.0,1
245249.4375,254528.53125,254433.046875,250687.25,225569.34375,245427.625,244169.03125,227942.03125,264249.0,1.0,1
245288.328125,254543.46875,254420.53125,250717.390625,225540.375,245447.109375,244109.5,227959.109375,264250.0,1.0,1
245339.546875,254625.1875,254516.28125,250779.4375,225702.5625,245480.1875,244363.234375,227967.0625,264251.0,1.0,1
245357.171875,254684.734375,254609.8125,250808.40625,225850.890625,245497.53125,244597.125,227975.015625,264252.0,1.0,1
245287.609375,254614.359375,254550.53125,250748.234375,225761.390625,245462.671875,244463.453125,227962.140625,264253.0,1.0,1
245251.484375,254528.71875,254433.578125,250690.828125,225573.1875,245428.0625,244170.5625,227946.59375,264254.0,1.0,1
245288.140625,254539.078125,254414.625,250713.09375,225539.484375,245441.296875,244105.015625,227956.15625,264255.0,1.0,1
245352.078125,254635.828125,254520.484375,250786.3125,225713.375,245486.8125,244371.453125,227978.328125,264256.0,1.0,1
245360.828125,254685.53125,254606.5,250809.296875,225853.21875,245495.125,244595.6875,227980.109375,264257.0,1.0,1
245278.125,254606.046875,254539.265625,250739.375,225756.75,245452.203125,244453.0,227954.546875,264258.0,1.0,1
245241.109375,254519.59375,254424.109375,250685.375,225569.4375,245418.671875,244161.890625,227940.859375,264259.0,1.0,1
245279.5625,254531.671875,254405.59375,250708.625,225535.90625,245437.1875,244096.703125,227954.09375,264260.0,1.0,1
245347.78125,254633.5,254517.09375,250788.375,225719.109375,245492.625,244369.671875,227981.28125,264261.0,1.0,1
245358.421875,254688.84375,254602.828125,250811.890625,225860.453125,245503.609375,244596.578125,227982.265625,264262.0,1.0,1
245280.28125,254613.46875,254538.453125,250742.234375,225763.0,245458.203125,244456.65625,227959.734375,264263.0,1.0,1
245236.734375,254517.71875,254422.234375,250682.34375,225573.09375,245420.203125,244158.84375,227942.5625,264264.0,1.0,1
245275.09375,254528.984375,254404.796875,250705.84375,225535.109375,245439.875,244091.4375,227951.0625,264265.0,1.0,1
245334.8125,254620.171875,254509.140625,250776.390625,225706.3125,245483.5,244353.484375,227969.75,264266.0,1.0,1
245345.984375,254673.109375,254595.140625,250800.265625,225851.6875,245495.65625,244586.484375,227976.8125,264267.0,1.0,1
245276.703125,254606.9375,254533.09375,250739.109375,225763.265625,245457.484375,244457.640625,227959.015625,264268.0,1.0,1
245240.40625,254525.9375,254420.0,250685.203125,225574.625,245420.5625,244164.03125,227942.203125,264269.0,1.0,1
245267.578125,254525.859375,254392.546875,250702.453125,225528.3125,245428.6875,244085.890625,227947.03125,264270.0,1.0,1
245338.03125,254627.953125,254501.71875,250778.625,225704.171875,245478.40625,244350.09375,227970.1875,264271.0,1.0,1
245354.3125,254688.21875,254591.65625,250801.875,225848.109375,245492.265625,244582.90625,227972.96875,264272.0,1.0,1
245275.09375,254610.4375,254529.421875,250736.609375,225756.109375,245453.8125,244455.234375,227951.765625,264273.0,1.0,1
245232.984375,254520.484375,254412.65625,250675.90625,225563.4375,245416.09375,244160.640625,227935.40625,264274.0,1.0,1
245264.90625,254522.546875,254389.328125,250691.640625,225517.125,245424.671875,244078.5625,227939.609375,264275.0,1.0,1
245332.84375,254618.03125,254499.828125,250769.515625,225692.8125,245474.375,244343.109375,227965.984375,264276.0,1.0,1
245361.90625,254687.5,254603.1875,250808.125,225854.015625,245504.78125,244595.515625,227987.265625,264277.0,1.0,1
245285.734375,254612.84375,254539.796875,250738.484375,225760.046875,245455.15625,244460.421875,227960.09375,264278.0,1.0,1
245246.484375,254528.53125,254426.25,250685.46875,225570.0625,245421.359375,244165.46875,227942.03125,264279.0,1.0,1
245277.234375,254529.078125,254401.578125,250705.5,225526.703125,245438.890625,244088.75,227949.265625,264280.0,1.0,1
245340.625,254619.8125,254503.046875,250774.96875,225694.875,245484.578125,244346.6875,227966.890625,264281.0,1.0,1
245364.671875,254687.765625,254602.203125,250809.828125,225852.40625,245506.390625,244590.765625,227980.46875,264282.0,1.0,1
245291.8125,254615.796875,254541.953125,250743.578125,225767.734375,245466.25,244463.984375,227957.9375,264283.0,1.0,1
245242.375,254516.46875,254420.984375,250680.546875,225571.671875,245424.40625,244165.640625,227934.703125,264284.0,1.0,1
245278.75,254521.203125,254401.671875,250704.15625,225526.96875,245439.515625,244088.03125,227944.984375,264285.0,1.0,1
245353.328125,254624.921875,254514.671875,250783.359375,225702.828125,245493.15625,244354.28125,227974.65625,264286.0,1.0,1
245368.609375,254683.203125,254603.8125,250807.953125,225851.328125,245504.515625,244592.296875,227980.734375,264287.0,1.0,1
245292.171875,254610.796875,254543.375,250743.484375,225765.234375,245462.3125,244468.90625,227960.359375,264288.0,1.0,1
245251.3125,254523.171875,254429.03125,250686.359375,225574.078125,245424.84375,244173.6875,227943.015625,264289.0,1.0,1
245280.015625,254525.5,254404.703125,250703.890625,225526.96875,245435.9375,244090.265625,227945.25,264290.0,1.0,1
245342.328125,254615.96875,254509.578125,250776.75,225696.65625,245476.34375,244346.421875,227968.9375,264291.0,1.0,1
245361.640625,254681.875,254601.84375,250805.1875,225850.0,245493.0625,244587.46875,227976.453125,264292.0,1.0,1
245282.515625,254609.890625,254536.765625,250735.71875,225760.9375,245451.21875,244464.53125,227952.484375,264293.0,1.0,1
245238.25,254516.734375,254420.625,250675.8125,225572.109375,245419.390625,244169.75,227940.515625,264294.0,1.0,1
245268.03125,254519.765625,254396.484375,250695.203125,225523.84375,245435.21875,244082.21875,227949.453125,264295.0,1.0,1
245335.53125,254621.515625,254501.53125,250769.78125,225692.546875,245483.59375,244338.640625,227970.015625,264296.0,1.0,1
245353.59375,254680.890625,254593.890625,250796.6875,225843.46875,245496.734375,244578.796875,227971.796875,264297.0,1.0,1
245276.875,254610.25,254535.59375,250730.53125,225763.1875,245454.625,244462.296875,227949.1875,264298.0,1.0,1
245235.21875,254519.421875,254421.0625,250674.296875,225572.296875,245419.125,244170.5625,227936.75,264299.0,1.0,1
245266.953125,254517.625,254396.03125,250695.75,225520.171875,245435.84375,244083.75,227950.078125,264300.0,1.0,1
245336.25,254613.921875,254500.375,250770.3125,225687.1875,245484.390625,244337.75,227971.625,264301.0,1.0,1
245354.21875,254679.640625,254593.4375,250799.015625,225841.328125,245497.796875,244583.796875,227974.75,264302.0,1.0,1
245285.1875,254618.484375,254543.28125,250740.0,225766.9375,245464.28125,244476.234375,227958.65625,264303.0,1.0,1
245246.296875,254528.53125,254432.875,250686.1875,225577.921875,245428.25,244184.234375,227946.765625,264304.0,1.0,1
245271.96875,254521.921875,254399.875,250697.71875,225518.921875,245439.421875,244089.375,227948.546875,264305.0,1.0,1
245339.546875,254619.28125,254500.90625,250768.25,225684.5,245484.578125,244341.0625,227968.3125,264306.0,1.0,1
245360.390625,254680.96875,254596.21875,250797.140625,225839.890625,245501.5625,244587.1875,227974.03125,264307.0,1.0,1
245283.3125,254609.984375,254541.046875,250733.296875,225762.109375,245461.859375,244477.40625,227953.03125,264308.0,1.0,1
245235.578125,254512.984375,254423.03125,250675.09375,225571.484375,245420.46875,244180.03125,227938.0,264309.0,1.0,1
245267.3125,254517.8125,254392.28125,250692.796875,225515.171875,245431.734375,244085.359375,227947.21875,264310.0,1.0,1
245332.046875,254613.5625,254491.609375,250765.484375,225680.296875,245476.796875,244335.515625,227967.515625,264311.0,1.0,1
245356.453125,254680.171875,254586.921875,250794.359375,225838.90625,245492.890625,244578.796875,227974.21875,264312.0,1.0,1
245285.90625,254613.296875,254537.921875,250735.796875,225766.84375,245458.546875,244471.765625,227955.53125,264313.0,1.0,1
245244.96875,254523.171875,254426.609375,250681.0,225581.0625,245427.171875,244181.28125,227941.578125,264314.0,1.0,1
245275.53125,254521.46875,254396.484375,250696.1875,225524.28125,245435.9375,244080.703125,227949.265625,264315.0,1.0,1
245342.421875,254617.234375,254498.578125,250769.421875,225688.078125,245484.125,244333.015625,227973.5,264316.0,1.0,1
245356.984375,254675.515625,254589.875,250797.578125,225841.953125,245500.75,244582.015625,227975.640625,264317.0,1.0,1
245280.546875,254606.140625,254534.25,250734.109375,225767.03125,245459.71875,244473.109375,227954.71875,264318.0,1.0,1
245238.34375,254516.28125,254417.671875,250677.421875,225576.59375,245424.9375,244177.53125,227939.796875,264319.0,1.0,1
245269.1875,254516.90625,254382.4375,250690.5625,225516.421875,245434.0625,244074.09375,227941.671875,264320.0,1.0,1
245340.625,254616.25,254484.015625,250763.421875,225679.859375,245480.015625,244320.578125,227964.921875,264321.0,1.0,1
245364.9375,254684.546875,254584.328125,250799.015625,225841.046875,245500.484375,244573.328125,227975.375,264322.0,1.0,1
245286.625,254616.25,254532.375,250736.34375,225767.734375,245459.453125,244468.8125,227952.671875,264323.0,1.0,1
245236.28125,254520.578125,254413.46875,250673.125,225572.296875,245419.75,244171.625,227931.921875,264324.0,1.0,1
245259.796875,254508.953125,254374.578125,250681.984375,225504.609375,245423.59375,244062.828125,227931.828125,264325.0,1.0,1
245323.015625,254598.265625,254471.84375,250752.25,225664.390625,245465.4375,244306.1875,227954.359375,264326.0,1.0,1
245362.078125,254681.875,254586.734375,250802.40625,225841.40625,245501.375,244577.8125,227983.875,264327.0,1.0,1
245290.5625,254621.34375,254536.9375,250744.390625,225773.640625,245464.90625,244478.828125,227960.53125,264328.0,1.0,1
245243.171875,254527.46875,254421.78125,250684.578125,225583.5625,245424.765625,244181.546875,227938.09375,264329.0,1.0,1
245269.640625,254521.203125,254388.171875,250696.375,225521.609375,245432.265625,244074.09375,227942.921875,264330.0,1.0,1
245333.390625,254611.140625,254487.3125,250766.46875,225680.296875,245477.0625,244316.5625,227960.453125,264331.0,1.0,1
245359.21875,254681.78125,254588.796875,250801.421875,225842.390625,245496.46875,244572.703125,227968.671875,264332.0,1.0,1
245288.234375,254617.859375,254545.34375,250742.421875,225777.75,245465.171875,244485.0,227953.46875,264333.0,1.0,1
245237.359375,254521.5625,254426.875,250678.671875,225583.921875,245424.125,244186.203125,227936.484375,264334.0,1.0,1
245266.515625,254521.109375,254395.859375,250693.25,225520.625,245436.109375,244079.0,227943.09375,264335.0,1.0,1
245331.0625,254610.96875,254494.109375,250763.875,225676.09375,245481.078125,244319.6875,227962.59375,264336.0,1.0,1
245358.59375,254680.078125,254596.65625,250797.5,225838.8125,245502.0,244576.90625,227972.0625,264337.0,1.0,1
245286.625,254616.6875,254548.203125,250737.234375,225773.640625,245466.59375,244485.0,227953.203125,264338.0,1.0,1
245244.0625,254529.96875,254432.953125,250677.59375,225584.71875,245430.125,244187.359375,227936.65625,264339.0,1.0,1
245274.90625,254526.296875,254397.640625,250690.734375,225520.0,245439.25,244072.75,227938.265625,264340.0,1.0,1
245344.109375,254620.890625,254501.359375,250766.734375,225682.4375,245487.34375,244317.546875,227961.25,264341.0,1.0,1
245371.375,254692.328125,254604.359375,250803.390625,225848.65625,245510.859375,244581.375,227969.296875,264342.0,1.0,1
245300.578125,254631.0,254560.453125,250744.921875,225784.90625,245475.90625,244491.96875,227953.46875,264343.0,1.0,1
245249.15625,254535.59375,254442.53125,250681.53125,225592.328125,245437.453125,244196.75,227939.4375,264344.0,1.0,1
245266.515625,254518.15625,254398.453125,250686.8125,225520.078125,245440.40625,244077.75,227943.375,264345.0,1.0,1
245331.78125,254606.671875,254494.5625,250759.046875,225676.984375,245485.109375,244317.1875,227966.53125,264346.0,1.0,1
245353.234375,254674.453125,254592.90625,250792.03125,225839.265625,245505.40625,244577.984375,227974.65625,264347.0,1.0,1
245276.171875,254608.734375,254538.453125,250727.390625,225770.328125,245459.359375,244481.875,227948.640625,264348.0,1.0,1
245223.328125,254508.78125,254414.625,250663.46875,225575.0625,245416.53125,244179.3125,227930.40625,264349.0,1.0,1
245241.296875,254490.171875,254369.390625,250669.375,225501.21875,245419.125,244052.359375,227931.125,264350.0,1.0,1
245310.3125,254585.390625,254468.90625,250745.71875,225658.9375,245465.171875,244291.53125,227954.8125,264351.0,1.0,1
245343.578125,254659.515625,254574.84375,250786.3125,225825.40625,245483.234375,244555.640625,227960.984375,264352.0,1.0,1
245278.75,254602.5625,254534.34375,250732.140625,225768.984375,245447.828125,244472.578125,227945.25,264353.0,1.0,1
245236.5625,254517.71875,254423.125,250677.234375,225583.375,245419.03125,244185.40625,227934.78125,264354.0,1.0,1
245267.140625,254518.078125,254388.53125,250690.375,225516.859375,245433.078125,244069.265625,227944.0,264355.0,1.0,1
245337.046875,254613.828125,254489.734375,250765.390625,225676.71875,245482.15625,244305.296875,227969.5625,264356.0,1.0,1
245360.5625,254680.34375,254589.875,250798.203125,225841.59375,245500.578125,244563.765625,227973.765625,264357.0,1.0,1
245289.578125,254620.265625,254546.140625,250737.40625,225781.78125,245463.65625,244480.984375,227953.296875,264358.0,1.0,1
245238.796875,254527.375,254426.875,250674.296875,225588.203125,245421.71875,244183.703125,227934.875,264359.0,1.0,1
245256.578125,254509.9375,254383.0625,250681.4375,225512.921875,245428.0625,244061.03125,227939.34375,264360.0,1.0,1
245324.984375,254604.796875,254485.4375,250760.296875,225674.9375,245484.21875,244304.484375,227970.1875,264361.0,1.0,1
245362.359375,254688.3125,254594.515625,250806.171875,225850.890625,245515.5,244577.53125,227982.796875,264362.0,1.0,1
245285.640625,254623.578125,254544.1875,250741.875,225788.03125,245473.3125,244490.015625,227955.4375,264363.0,1.0,1
245235.84375,254526.484375,254425.453125,250679.75,225596.171875,245433.15625,244192.546875,227940.0625,264364.0,1.0,1
245260.421875,254513.515625,254387.265625,250691.640625,225524.015625,245436.828125,244069.796875,227948.015625,264365.0,1.0,1
245327.578125,254601.84375,254484.28125,250762.71875,225677.265625,245477.953125,244300.90625,227970.90625,264366.0,1.0,1
245355.828125,254671.140625,254587.359375,250797.765625,225843.921875,245499.140625,244563.953125,227975.015625,264367.0,1.0,1
245289.84375,254615.796875,254548.46875,250743.140625,225789.109375,245464.984375,244490.359375,227954.640625,264368.0,1.0,1
245241.75,254524.59375,254431.625,250682.421875,225597.859375,245424.484375,244193.984375,227935.328125,264369.0,1.0,1
245264.0,254511.09375,254389.5,250692.34375,225523.125,245433.4375,244069.171875,227942.125,264370.0,1.0,1
245327.3125,254595.953125,254482.484375,250761.46875,225673.6875,245479.921875,244298.046875,227968.40625,264371.0,1.0,1
245358.953125,254668.28125,254585.21875,250801.6875,225842.84375,245505.140625,244566.71875,227980.109375,264372.0,1.0,1
245291.90625,254612.484375,254542.484375,250743.484375,225785.625,245469.640625,244488.40625,227956.875,264373.0,1.0,1
245245.046875,254523.890625,254426.875,250680.375,225594.828125,245430.390625,244192.1875,227940.6875,264374.0,1.0,1
245265.875,254514.3125,254382.796875,250687.4375,225518.296875,245433.515625,244060.5,227943.546875,264375.0,1.0,1
245328.375,254602.46875,254475.421875,250760.75,225670.46875,245481.53125,244287.5,227968.40625,264376.0,1.0,1
245362.53125,254678.46875,254585.046875,250803.84375,225846.234375,245508.796875,244561.890625,227984.046875,264377.0,1.0,1
245300.125,254626.53125,254550.890625,250750.640625,225799.84375,245478.046875,244499.125,227969.75,264378.0,1.0,1
245250.859375,254532.109375,254434.203125,250688.5,225612.171875,245442.640625,244209.1875,227954.984375,264379.0,1.0,1
245270.0,254514.234375,254386.734375,250693.25,225532.15625,245447.015625,244077.03125,227956.875,264380.0,1.0,1
245339.46875,254607.921875,254479.625,250762.796875,225683.078125,245492.4375,244302.25,227979.3125,264381.0,1.0,1
245367.890625,254676.0625,254584.859375,250799.640625,225853.5625,245514.171875,244569.484375,227983.25,264382.0,1.0,1
245296.375,254614.015625,254545.25,250741.25,225799.125,245474.5625,244497.78125,227959.28125,264383.0,1.0,1
245243.890625,254516.640625,254428.40625,250679.75,225608.953125,245435.578125,244204.703125,227944.4375,264384.0,1.0,1
245265.53125,254504.390625,254383.25,250686.984375,225529.203125,245441.75,244075.25,227952.578125,264385.0,1.0,1
245331.78125,254598.359375,254478.921875,250758.953125,225679.859375,245486.625,244303.421875,227978.421875,264386.0,1.0,1
245362.078125,254674.890625,254583.96875,250796.234375,225847.40625,245500.390625,244567.171875,227986.109375,264387.0,1.0,1
245295.203125,254625.09375,254544.890625,250741.4375,225796.171875,245461.859375,244501.28125,227965.453125,264388.0,1.0,1
245240.578125,254529.96875,254421.25,250673.390625,225598.484375,245414.203125,244200.0625,227938.8125,264389.0,1.0,1
245258.28125,254512.078125,254371.890625,250678.140625,225513.734375,245414.828125,244060.859375,227941.84375,264390.0,1.0,1
245325.0625,254604.53125,254465.0625,250750.015625,225661.96875,245463.296875,244285.09375,227963.9375,264391.0,1.0,1
245357.25,254687.328125,254572.796875,250788.015625,225832.375,245486.359375,244556.078125,227974.65625,264392.0,1.0,1
245290.828125,254643.875,254542.65625,250739.5625,225791.34375,245454.625,244497.515625,227960.0,264393.0,1.0,1
245244.515625,254556.875,254432.6875,250685.015625,225609.21875,245421.09375,244209.265625,227949.265625,264394.0,1.0,1
245262.125,254537.390625,254382.359375,250686.453125,225524.640625,245427.0,244070.15625,227950.796875,264395.0,1.0,1
245328.28125,254628.140625,254472.390625,250756.90625,225674.21875,245475.0,244291.796875,227971.796875,264396.0,1.0,1
245355.296875,254696.796875,254573.859375,250790.421875,225842.65625,245492.625,244558.40625,227977.34375,264397.0,1.0,1
245291.09375,254646.375,254542.921875,250738.75,225800.1875,245459.359375,244501.0,227962.140625,264398.0,1.0,1
245239.859375,254550.34375,254426.515625,250678.578125,225614.40625,245420.109375,244208.375,227948.28125,264399.0,1.0,1
245270.078125,254542.484375,254386.734375,250694.046875,225538.59375,245435.21875,244078.296875,227960.890625,264400.0,1.0,1
245333.109375,254628.3125,254479.0,250766.109375,225685.484375,245484.65625,244301.359375,227984.40625,264401.0,1.0,1
245362.359375,254701.359375,254585.390625,250802.046875,225851.6875,245502.28125,244566.625,227989.59375,264402.0,1.0,1
245293.0625,254643.421875,254549.359375,250745.28125,225803.5,245465.53125,244506.546875,227969.46875,264403.0,1.0,1
245236.28125,254540.78125,254429.734375,250678.484375,225609.125,245424.21875,244210.25,227949.0,264404.0,1.0,1
245254.890625,254524.59375,254381.546875,250682.15625,225522.765625,245426.90625,244067.65625,227948.546875,264405.0,1.0,1
245322.828125,254615.171875,254474.09375,250752.515625,225666.171875,245469.375,244284.28125,227970.640625,264406.0,1.0,1
245356.265625,254684.375,254581.375,250792.484375,225838.28125,245491.359375,244558.40625,227981.359375,264407.0,1.0,1
245292.796875,254632.515625,254550.625,250741.25,225799.921875,245460.25,244506.90625,227963.484375,264408.0,1.0,1
245245.859375,254543.828125,254435.46875,250680.375,225613.0625,245421.890625,244214.546875,227949.890625,264409.0,1.0,1
245261.765625,254520.046875,254382.625,250681.703125,225523.125,245420.109375,244066.671875,227950.796875,264410.0,1.0,1
245323.375,254601.484375,254468.1875,250750.90625,225664.65625,245464.984375,244281.59375,227972.25,264411.0,1.0,1
245360.125,254682.765625,254577.265625,250793.734375,225842.65625,245491.359375,244557.515625,227987.265625,264412.0,1.0,1
245295.75,254633.59375,254546.5,250740.625,225803.5,245455.15625,244505.125,227966.4375,264413.0,1.0,1
245242.640625,254538.453125,254427.140625,250674.296875,225612.4375,245414.65625,244208.375,227944.796875,264414.0,1.0,1
245259.265625,254518.796875,254373.953125,250676.25,225521.953125,245418.40625,244058.984375,227947.484375,264415.0,1.0,1
245320.78125,254601.40625,254465.59375,250749.21875,225668.234375,245468.296875,244275.25,227973.140625,264416.0,1.0,1
245362.796875,254688.65625,254584.6875,250798.03125,225850.890625,245501.109375,244559.390625,227989.953125,264417.0,1.0,1
245293.6875,254635.46875,254552.140625,250745.09375,225807.96875,245462.484375,244507.0,227968.21875,264418.0,1.0,1
245236.28125,254536.046875,254433.40625,250676.25,225613.78125,245418.5,244210.4375,227946.234375,264419.0,1.0,1
245249.96875,254512.0,254379.671875,250675.8125,225518.109375,245421.625,244059.96875,227943.375,264420.0,1.0,1
245311.484375,254593.171875,254465.140625,250743.140625,225655.171875,245465.265625,244267.5625,227964.015625,264421.0,1.0,1
245354.3125,254678.203125,254581.90625,250792.21875,225835.515625,245496.46875,244550.984375,227982.53125,264422.0,1.0,1
245299.328125,254637.96875,254564.296875,250750.28125,225810.46875,245474.296875,244519.6875,227973.40625,264423.0,1.0,1
245247.203125,254543.109375,254446.109375,250682.421875,225617.0,245434.859375,244226.609375,227953.921875,264424.0,1.0,1
245266.0625,254523.703125,254394.96875,250682.6875,225520.53125,245436.109375,244072.390625,227956.59375,264425.0,1.0,1
245324.265625,254603.1875,254478.28125,250750.203125,225655.890625,245476.078125,244278.921875,227974.65625,264426.0,1.0,1
245358.78125,254683.484375,254589.328125,250794.984375,225835.6875,245502.984375,244558.765625,227986.015625,264427.0,1.0,1
245301.90625,254645.75,254570.90625,250751.625,225810.390625,245478.671875,244524.15625,227972.875,264428.0,1.0,1
245244.78125,254548.03125,254453.4375,250682.609375,225617.53125,245434.5,244228.40625,227951.5,264429.0,1.0,1
245259.625,254524.59375,254399.4375,250679.75,225518.46875,245434.0625,244069.96875,227953.828125,264430.0,1.0,1
245321.84375,254607.296875,254483.828125,250750.46875,225654.8125,245478.578125,244276.6875,227974.65625,264431.0,1.0,1
245366.28125,254695.375,254602.65625,250804.640625,225842.578125,245514.515625,244566.8125,227991.5625,264432.0,1.0,1
245304.234375,254644.40625,254575.5625,250753.859375,225808.6875,245481.625,244526.9375,227973.234375,264433.0,1.0,1
245249.703125,254544.625,254454.859375,250684.65625,225615.03125,245436.109375,244229.203125,227951.859375,264434.0,1.0,1
245266.859375,254522.28125,254397.90625,250682.609375,225516.234375,245432.359375,244067.5625,227952.75,264435.0,1.0,1
245332.484375,254604.984375,254484.71875,250752.25,225651.59375,245472.0625,244267.296875,227973.40625,264436.0,1.0,1
245371.03125,254686.96875,254599.171875,250800.359375,225834.078125,245499.953125,244551.609375,227985.03125,264437.0,1.0,1
245306.921875,254641.09375,254571.09375,250748.9375,225803.59375,245469.8125,244513.609375,227966.609375,264438.0,1.0,1
245250.421875,254542.65625,254453.796875,250682.0625,225611.1875,245422.96875,244216.875,227948.109375,264439.0,1.0,1
245270.703125,254521.65625,254403.0,250689.21875,225521.515625,245430.390625,244065.0625,227957.234375,264440.0,1.0,1
245337.40625,254605.328125,254488.21875,250762.53125,225664.390625,245477.515625,244270.6875,227984.9375,264441.0,1.0,1
245372.015625,254680.53125,254594.609375,250806.078125,225842.390625,245498.25,244545.078125,227999.0625,264442.0,1.0,1
245309.515625,254634.03125,254567.96875,250756.0,225814.40625,245467.234375,244509.59375,227980.296875,264443.0,1.0,1
245252.5625,254541.59375,254448.78125,250692.078125,225627.375,245431.90625,244220.890625,227958.75,264444.0,1.0,1
245268.296875,254519.140625,254390.21875,250690.828125,225531.53125,245439.515625,244063.453125,227956.15625,264445.0,1.0,1
245327.390625,254596.125,254468.453125,250755.109375,225660.265625,245474.734375,244254.421875,227975.109375,264446.0,1.0,1
245367.1875,254678.109375,254577.703125,250799.453125,225838.109375,245500.75,244533.734375,227988.078125,264447.0,1.0,1
245304.0625,254631.796875,254552.5,250749.921875,225811.453125,245469.375,244504.046875,227967.234375,264448.0,1.0,1
245244.15625,254528.625,254434.203125,250681.53125,225620.390625,245424.046875,244212.484375,227946.9375,264449.0,1.0,1
245268.296875,254514.140625,254383.15625,250686.984375,225528.3125,245431.203125,244059.6875,227957.046875,264450.0,1.0,1
245331.0625,254597.921875,254462.109375,250754.21875,225656.15625,245467.9375,244254.953125,227977.4375,264451.0,1.0,1
245368.515625,254677.9375,254573.5,250798.828125,225832.375,245493.515625,244536.953125,227987.796875,264452.0,1.0,1
245314.25,254641.1875,254560.8125,250758.328125,225814.234375,245469.28125,244518.0,227977.25,264453.0,1.0,1
245251.046875,254537.5625,254439.578125,250686.265625,225618.4375,245421.625,244221.703125,227954.359375,264454.0,1.0,1
245261.859375,254510.65625,254382.359375,250683.859375,225515.171875,245423.234375,244054.953125,227952.578125,264455.0,1.0,1
245328.640625,254599.171875,254469.53125,250753.59375,225650.609375,245472.0625,244253.265625,227973.59375,264456.0,1.0,1
245364.140625,254676.953125,254578.421875,250794.359375,225826.5625,245496.28125,244534.265625,227981.015625,264457.0,1.0,1
245304.421875,254635.90625,254556.875,250748.5,225802.609375,245465.625,244510.75,227963.84375,264458.0,1.0,1
245252.03125,254545.609375,254444.765625,250688.953125,225619.0625,245431.375,244225.984375,227949.71875,264459.0,1.0,1
245262.390625,254513.78125,254382.09375,250681.625,225511.5,245424.046875,244057.015625,227946.9375,264460.0,1.0,1
245321.9375,254591.296875,254462.1875,250749.21875,225638.28125,245461.140625,244249.6875,227964.640625,264461.0,1.0,1
245361.640625,254675.78125,254579.3125,250798.921875,225826.921875,245493.421875,244537.65625,227981.90625,264462.0,1.0,1
245298.96875,254634.296875,254559.46875,250751.09375,225810.46875,245461.5,244515.046875,227966.609375,264463.0,1.0,1
245248.984375,254544.890625,254448.609375,250686.71875,225629.34375,245423.15625,244230.28125,227953.46875,264464.0,1.0,1
245262.21875,254515.75,254388.4375,250682.515625,225524.1875,245422.515625,244061.75,227951.953125,264465.0,1.0,1
245319.53125,254591.828125,254466.484375,250747.515625,225650.34375,245466.328125,244253.265625,227968.140625,264466.0,1.0,1
245362.078125,254679.28125,254581.28125,250796.6875,225833.90625,245498.96875,244540.875,227981.359375,264467.0,1.0,1
245300.75,254636.53125,254563.40625,250750.109375,225816.203125,245472.6875,244523.359375,227966.890625,264468.0,1.0,1
245239.6875,254535.953125,254440.734375,250678.578125,225624.59375,245424.9375,244227.78125,227944.796875,264469.0,1.0,1
245252.65625,254509.21875,254380.125,250675.625,225519.453125,245420.734375,244054.328125,227947.921875,264470.0,1.0,1
245313.984375,254588.078125,254458.96875,250745.640625,225647.578125,245463.921875,244244.59375,227971.171875,264471.0,1.0,1
245354.03125,254671.046875,254571.09375,250795.078125,225830.6875,245492.703125,244533.734375,227983.609375,264472.0,1.0,1
245293.6875,254633.59375,254555.171875,250754.21875,225815.75,245468.203125,244523.171875,227966.171875,264473.0,1.0,1
245238.796875,254541.5,254436.890625,250685.46875,225627.453125,245424.671875,244230.90625,227944.53125,264474.0,1.0,1
245247.46875,254508.234375,254370.828125,250674.921875,225518.03125,245415.734375,244049.140625,227944.265625,264475.0,1.0,1
245311.390625,254587.09375,254451.375,250743.84375,225646.140625,245461.328125,244238.6875,227969.203125,264476.0,1.0,1
245359.765625,254679.28125,254572.171875,250798.5625,225837.65625,245498.078125,244536.859375,227986.828125,264477.0,1.0,1
245300.84375,254641.09375,254557.765625,250753.765625,225825.140625,245470.09375,244526.125,227968.578125,264478.0,1.0,1
245238.703125,254538.453125,254438.0625,250681.890625,225631.9375,245424.21875,244230.453125,227947.921875,264479.0,1.0,1
245246.84375,254504.65625,254372.4375,250674.640625,225520.171875,245419.578125,244051.203125,227950.34375,264480.0,1.0,1
245313.71875,254586.5625,254452.265625,250743.21875,225643.640625,245460.875,244235.640625,227967.59375,264481.0,1.0,1
245354.3125,254666.484375,254569.578125,250791.765625,225828.0,245494.9375,244526.125,227978.953125,264482.0,1.0,1
245293.59375,254625.90625,254552.234375,250744.65625,225811.90625,245463.828125,244514.59375,227962.328125,264483.0,1.0,1
245245.046875,254538.734375,254440.109375,250681.359375,225628.265625,245426.015625,244230.8125,227949.265625,264484.0,1.0,1
245261.5,254512.625,254382.171875,250679.203125,225520.265625,245428.875,244057.1875,227952.84375,264485.0,1.0,1
245325.96875,254592.90625,254462.734375,250749.296875,225644.71875,245475.09375,244242.625,227977.4375,264486.0,1.0,1
245368.875,254676.953125,254575.5625,250796.6875,225826.03125,245505.5,244528.984375,227988.34375,264487.0,1.0,1
245313.796875,254642.34375,254565.1875,250755.734375,225819.953125,245483.953125,244528.625,227975.640625,264488.0,1.0,1
245244.0625,254533.71875,254444.046875,250681.890625,225628.625,245437.640625,244236.359375,227954.1875,264489.0,1.0,1
245256.671875,254502.78125,254380.828125,250675.625,225516.953125,245434.5,244057.90625,227954.8125,264490.0,1.0,1
245319.703125,254581.734375,254455.484375,250740.09375,225637.65625,245474.296875,244236.8125,227971.265625,264491.0,1.0,1
245367.1875,254675.15625,254574.84375,250793.109375,225827.640625,245510.140625,244531.3125,227986.375,264492.0,1.0,1
245308.171875,254638.78125,254563.40625,250752.078125,225818.25,245481.625,244529.890625,227970.90625,264493.0,1.0,1
245242.8125,254531.9375,254444.578125,250681.4375,225628.265625,245433.875,244240.203125,227949.0,264494.0,1.0,1
245256.5,254504.390625,254383.421875,250674.921875,225516.421875,245431.375,244058.984375,227949.8125,264495.0,1.0,1
245327.65625,254590.859375,254466.484375,250747.0625,225642.484375,245477.953125,244244.046875,227976.09375,264496.0,1.0,1
245383.453125,254691.171875,254592.90625,250806.34375,225839.625,245518.09375,244544.90625,227998.0,264497.0,1.0,1
245319.53125,254649.765625,254575.03125,250758.0625,225829.15625,245484.390625,244535.78125,227978.78125,264498.0,1.0,1
245256.3125,254546.953125,254453.703125,250683.5,225637.390625,245436.5625,244243.25,227953.46875,264499.0,1.0,1
245264.8125,254513.15625,254384.671875,250673.578125,225519.359375,245432.8125,244059.0625,227953.734375,264500.0,1.0,1
245323.546875,254588.4375,254455.9375,250737.328125,225634.96875,245475.625,244233.328125,227973.859375,264501.0,1.0,1
245361.640625,254671.234375,254565.8125,250785.15625,225817.984375,245502.8125,244521.921875,227983.6875,264502.0,1.0,1
245303.171875,254633.046875,254552.671875,250744.203125,225812.359375,245469.015625,244521.03125,227963.75,264503.0,1.0,1
245237.625,254528.625,254434.65625,250674.734375,225625.9375,245424.765625,244232.0625,227942.296875,264504.0,1.0,1
245249.34375,254496.53125,254370.203125,250670.71875,225514.265625,245423.234375,244049.5,227945.609375,264505.0,1.0,1
245312.28125,254574.765625,254448.34375,250741.96875,225635.234375,245468.203125,244227.953125,227974.578125,264506.0,1.0,1
245356.09375,254661.75,254562.875,250790.515625,225820.046875,245497.171875,244516.5625,227987.171875,264507.0,1.0,1
245296.90625,254627.953125,254550.53125,250745.71875,225816.375,245467.578125,244518.53125,227967.421875,264508.0,1.0,1
245231.375,254525.671875,254432.25,250671.609375,225625.5,245419.3125,244232.0625,227942.5625,264509.0,1.0,1
245247.28125,254498.671875,254373.234375,250670.171875,225515.171875,245421.8125,244053.171875,227948.828125,264510.0,1.0,1
245313.09375,254580.5625,254449.765625,250741.53125,225637.734375,245471.15625,244233.859375,227975.828125,264511.0,1.0,1
245354.65625,254666.578125,254562.328125,250790.515625,225821.03125,245498.875,244519.875,227986.46875,264512.0,1.0,1
245296.734375,254633.5,254552.9375,250747.328125,225818.171875,245468.484375,244523.984375,227969.203125,264513.0,1.0,1
245232.53125,254531.84375,254434.484375,250676.078125,225631.125,245421.09375,244235.375,227947.03125,264514.0,1.0,1
245248.890625,254505.375,254373.140625,250674.296875,225522.9375,245421.546875,244052.1875,227953.296875,264515.0,1.0,1
245312.546875,254584.59375,254445.46875,250739.015625,225637.390625,245462.125,244221.34375,227976.09375,264516.0,1.0,1
245354.578125,254664.96875,254558.3125,250785.78125,225821.03125,245487.875,244510.578125,227982.96875,264517.0,1.0,1
245297.53125,254626.53125,254545.515625,250743.671875,225816.375,245458.90625,244517.015625,227963.03125,264518.0,1.0,1
245230.296875,254523.4375,254425.265625,250669.015625,225624.6875,245410.8125,244227.78125,227941.21875,264519.0,1.0,1
245239.15625,254492.765625,254356.6875,250657.21875,225506.578125,245408.21875,244035.734375,227938.546875,264520.0,1.0,1
245306.5625,254572.96875,254436.09375,250730.265625,225627.8125,245460.25,244210.171875,227964.375,264521.0,1.0,1
245351.625,254661.296875,254554.546875,250786.40625,225815.65625,245493.953125,244505.828125,227982.4375,264522.0,1.0,1
245296.1875,254633.5,254551.515625,250748.046875,225816.90625,245466.328125,244520.859375,227968.40625,264523.0,1.0,1
245236.46875,254538.453125,254439.671875,250677.59375,225635.15625,245426.375,244241.015625,227948.28125,264524.0,1.0,1
245244.15625,254498.046875,254369.484375,250668.65625,225516.859375,245421.984375,244049.234375,227949.09375,264525.0,1.0,1
245306.46875,254573.6875,254436.53125,250732.5,225626.65625,245463.375,244213.03125,227968.671875,264526.0,1.0,1
245350.28125,254661.390625,254554.546875,250786.40625,225813.78125,245494.40625,244507.890625,227980.109375,264527.0,1.0,1
245297.359375,254634.578125,254553.125,250750.46875,225819.6875,245473.390625,244531.671875,227966.890625,264528.0,1.0,1
245234.328125,254535.515625,254436.09375,250676.796875,225631.75,245427.53125,244245.390625,227946.140625,264529.0,1.0,1
245242.546875,254498.859375,254364.828125,250664.90625,225507.75,245419.578125,244045.390625,227944.078125,264530.0,1.0,1
245300.84375,254568.328125,254430.546875,250729.28125,225617.984375,245458.46875,244205.421875,227962.40625,264531.0,1.0,1
245350.734375,254657.546875,254549.640625,250788.46875,225812.359375,245495.390625,244504.046875,227981.71875,264532.0,1.0,1
245297.265625,254627.78125,254544.1875,250746.4375,225815.65625,245468.75,244521.65625,227965.625,264533.0,1.0,1
245240.21875,254534.796875,254434.921875,250678.671875,225636.9375,245430.03125,244244.234375,227947.75,264534.0,1.0,1
245251.671875,254502.875,254369.65625,250673.125,225519.359375,245426.1875,244053.4375,227951.140625,264535.0,1.0,1
245316.484375,254580.125,254445.03125,250740.890625,225633.0,245470.53125,244218.5625,227976.1875,264536.0,1.0,1
245363.15625,254668.71875,254563.40625,250791.765625,225821.828125,245500.125,244509.40625,227987.453125,264537.0,1.0,1
245302.1875,254633.140625,254554.90625,250749.75,225822.359375,245466.25,244523.625,227969.125,264538.0,1.0,1
245232.09375,254525.40625,254433.9375,250672.6875,225632.015625,245416.171875,244236.890625,227944.796875,264539.0,1.0,1
245250.328125,254501.265625,254372.25,250669.546875,225518.46875,245421.09375,244048.515625,227952.84375,264540.0,1.0,1
245311.65625,254575.5625,254438.328125,250733.03125,225623.796875,245459.890625,244204.265625,227967.15625,264541.0,1.0,1
245356.09375,254663.625,254553.5625,250786.046875,225812.0,245487.078125,244497.34375,227980.296875,264542.0,1.0,1
245298.421875,254633.046875,254550.53125,250748.859375,225819.15625,245462.75,244522.828125,227965.359375,264543.0,1.0,1
245230.390625,254531.390625,254434.921875,250675.90625,225632.46875,245421.546875,244242.796875,227942.75,264544.0,1.0,1
245243.796875,254497.953125,254371.265625,250669.8125,225512.21875,245424.21875,244047.09375,227949.625,264545.0,1.0,1
245311.484375,254578.875,254444.3125,250739.734375,225623.890625,245469.1875,244212.3125,227975.109375,264546.0,1.0,1
245352.078125,254666.21875,254560.359375,250788.109375,225811.453125,245495.03125,244505.5625,227983.6875,264547.0,1.0,1
245295.75,254635.828125,254558.9375,250747.0625,225821.03125,245468.65625,244529.890625,227967.59375,264548.0,1.0,1
245231.1875,254536.9375,254444.578125,250675.265625,225640.515625,245425.390625,244251.375,227946.046875,264549.0,1.0,1
245237.359375,254498.578125,254371.53125,250665.265625,225514.1875,245418.40625,244047.625,227943.09375,264550.0,1.0,1
245296.453125,254563.765625,254433.9375,250728.5625,225617.265625,245457.390625,244197.375,227965.09375,264551.0,1.0,1
245342.0625,254651.5625,254551.78125,250782.296875,225806.8125,245488.859375,244492.59375,227980.296875,264552.0,1.0,1
245298.875,254639.75,254563.84375,250754.21875,225828.171875,245472.0625,244533.1875,227973.328125,264553.0,1.0,1
245233.875,254539.171875,254449.5,250682.875,225645.15625,245427.625,244255.765625,227956.0625,264554.0,1.0,1
245232.890625,254494.109375,254370.203125,250661.5,225513.734375,245416.0,244045.828125,227948.546875,264555.0,1.0,1
245296.109375,254567.703125,254436.453125,250726.953125,225616.640625,245458.828125,244195.59375,227967.0625,264556.0,1.0,1
245343.671875,254656.46875,254553.84375,250781.578125,225807.796875,245488.5,244489.46875,227982.4375,264557.0,1.0,1
245295.921875,254631.4375,254557.40625,250749.921875,225827.109375,245465.625,244526.578125,227969.75,264558.0,1.0,1
245231.734375,254534.078125,254446.109375,250679.203125,225647.671875,245425.109375,244252.0,227947.03125,264559.0,1.0,1
245234.328125,254494.109375,254371.890625,250663.734375,225519.015625,245418.671875,244047.984375,227946.765625,264560.0,1.0,1
245297.359375,254567.609375,254434.84375,250730.171875,225621.46875,245460.96875,244196.671875,227967.953125,264561.0,1.0,1
245347.15625,254658.4375,254551.515625,250786.40625,225811.546875,245493.15625,244492.953125,227982.703125,264562.0,1.0,1
245302.0,254639.84375,254565.015625,250761.1875,225840.515625,245481.171875,244542.40625,227976.53125,264563.0,1.0,1
245232.09375,254538.109375,254449.328125,250684.125,225656.0625,245432.890625,244262.5625,227953.734375,264564.0,1.0,1
245235.578125,254496.609375,254366.703125,250665.34375,225522.5,245420.109375,244050.03125,227950.25,264565.0,1.0,1
245294.84375,254563.21875,254426.875,250726.328125,225620.046875,245459.359375,244193.796875,227966.703125,264566.0,1.0,1
245347.515625,254655.5,254551.953125,250791.59375,225816.28125,245497.453125,244498.40625,227988.609375,264567.0,1.0,1
245302.265625,254637.25,254562.875,250761.46875,225840.0625,245477.953125,244544.546875,227980.03125,264568.0,1.0,1
245235.390625,254537.5625,254448.421875,250682.609375,225655.4375,245427.265625,244265.859375,227952.75,264569.0,1.0,1
245238.796875,254493.3125,254371.0,250666.0625,225521.15625,245418.5,244054.234375,227947.03125,264570.0,1.0,1
245296.453125,254558.046875,254425.625,250721.40625,225613.6875,245456.046875,244191.125,227962.234375,264571.0,1.0,1
245352.34375,254654.421875,254549.90625,250782.375,225814.671875,245498.4375,244496.359375,227985.125,264572.0,1.0,1
245304.421875,254632.515625,254554.90625,250752.25,225837.296875,245475.625,244542.671875,227974.484375,264573.0,1.0,1
245231.8125,254526.203125,254430.984375,250670.984375,225647.21875,245420.375,244259.15625,227946.3125,264574.0,1.0,1
245231.015625,254482.578125,254351.234375,250652.75,225509.796875,245408.578125,244043.59375,227939.609375,264575.0,1.0,1
245288.765625,254546.859375,254411.046875,250714.875,225605.015625,245448.359375,244184.0625,227960.0,264576.0,1.0,1
245344.296875,254643.78125,254534.796875,250779.34375,225804.125,245487.25,244487.765625,227978.953125,264577.0,1.0,1
245308.890625,254636.8125,254548.5625,250755.5625,225836.5,245473.671875,244539.453125,227971.625,264578.0,1.0,1
245235.75,254530.953125,254430.015625,250677.328125,225651.25,245422.703125,244256.484375,227946.671875,264579.0,1.0,1
245240.84375,254489.734375,254357.140625,250663.734375,225518.46875,245414.125,244044.578125,227949.453125,264580.0,1.0,1
245300.03125,254554.546875,254417.9375,250724.359375,225611.8125,245455.6875,244182.8125,227968.40625,264581.0,1.0,1
245351.171875,254649.5,254537.46875,250780.859375,225803.40625,245488.421875,244482.59375,227978.78125,264582.0,1.0,1
245304.859375,254633.953125,254549.71875,250752.25,225830.59375,245466.25,244537.65625,227966.890625,264583.0,1.0,1
245234.046875,254531.21875,254434.03125,250675.8125,225645.609375,245414.296875,244257.734375,227942.46875,264584.0,1.0,1
245235.03125,254485.4375,254354.640625,250659.71875,225509.984375,245402.765625,244038.140625,227941.046875,264585.0,1.0,1
245292.4375,254551.78125,254412.84375,250719.625,225602.96875,245439.25,244170.296875,227959.546875,264586.0,1.0,1
245343.84375,254643.875,254532.015625,250778.71875,225795.015625,245473.484375,244470.515625,227974.84375,264587.0,1.0,1
245298.25,254625.359375,254543.28125,250749.84375,225822.015625,245459.0,244526.84375,227967.953125,264588.0,1.0,1
245228.953125,254524.78125,254426.875,250671.96875,225638.8125,245411.96875,244251.828125,227942.296875,264589.0,1.0,1
245240.9375,254491.96875,254358.125,250662.21875,225512.84375,245410.1875,244042.4375,227944.0,264590.0,1.0,1
245298.875,254556.4375,254419.015625,250724.890625,225606.8125,245451.9375,244177.265625,227965.625,264591.0,1.0,1
245349.203125,254650.21875,254541.671875,250783.8125,225799.03125,245487.25,244477.9375,227977.4375,264592.0,1.0,1
245311.125,254642.265625,254562.59375,250761.28125,225836.40625,245476.796875,244542.671875,227971.71875,264593.0,1.0,1
245247.734375,254548.921875,254453.25,250692.171875,225665.71875,245433.609375,244278.734375,227958.03125,264594.0,1.0,1
245248.8125,254506.0,254371.625,250673.125,225529.375,245422.875,244060.40625,227952.3125,264595.0,1.0,1
245298.15625,254564.5625,254424.203125,250729.359375,225614.140625,245459.359375,244188.34375,227965.28125,264596.0,1.0,1
245349.65625,254658.890625,254548.296875,250791.234375,225809.5,245499.5,244495.90625,227988.078125,264597.0,1.0,1
245302.265625,254642.0,254557.6875,250760.03125,225835.328125,245479.46875,244551.875,227975.640625,264598.0,1.0,1
245233.421875,254543.5625,254444.9375,250683.40625,225656.703125,245431.28125,244282.046875,227953.203125,264599.0,1.0,1
245231.453125,254493.671875,254360.71875,250661.0625,225515.171875,245413.578125,244058.625,227949.625,264600.0,1.0,1
245287.703125,254554.46875,254414.453125,250719.703125,225602.0625,245453.546875,244184.859375,227969.03125,264601.0,1.0,1
245337.140625,254643.421875,254531.3125,250775.765625,225790.625,245484.84375,244480.359375,227977.796875,264602.0,1.0,1
245299.953125,254634.125,254549.09375,250751.8125,225828.890625,245467.9375,244541.5,227967.78125,264603.0,1.0,1
245236.640625,254540.34375,254441.8125,250681.625,225655.359375,245425.46875,244270.96875,227948.828125,264604.0,1.0,1
245234.234375,254492.234375,254358.03125,250660.078125,225514.265625,245414.5625,244045.828125,227945.421875,264605.0,1.0,1
245292.34375,254557.859375,254412.3125,250721.234375,225603.234375,245453.015625,244171.1875,227967.59375,264606.0,1.0,1
245341.34375,254653.796875,254532.5625,250779.25,225796.703125,245486.53125,244471.140625,227980.296875,264607.0,1.0,1
245300.484375,254644.9375,254551.609375,250754.3125,225832.46875,245472.5,244538.734375,227968.84375,264608.0,1.0,1
245233.96875,254544.984375,254442.703125,250682.421875,225657.234375,245424.484375,244272.65625,227948.546875,264609.0,1.0,1
245232.0,254490.8125,254358.03125,250659.0,225514.1875,245410.0,244048.875,227943.90625,264610.0,1.0,1
245297.625,254558.21875,254414.1875,250723.546875,225602.0625,245453.546875,244176.546875,227968.765625,264611.0,1.0,1
245350.8125,254653.265625,254535.0625,250784.96875,225796.96875,245490.296875,244476.328125,227984.671875,264612.0,1.0,1
245307.640625,254641.546875,254551.609375,250757.4375,225833.359375,245471.703125,244543.65625,227971.984375,264613.0,1.0,1
245230.921875,254536.9375,254438.328125,250681.0,225654.546875,245421.8125,244272.390625,227948.546875,264614.0,1.0,1
245228.0625,254487.9375,254357.40625,250663.46875,225514.265625,245410.625,244045.65625,227946.140625,264615.0,1.0,1
245287.96875,254553.390625,254412.390625,250725.875,225600.453125,245453.8125,244167.15625,227968.84375,264616.0,1.0,1
245342.6875,254647.171875,254531.3125,250784.34375,225791.34375,245490.734375,244468.546875,227983.6875,264617.0,1.0,1
245306.46875,254639.484375,254551.15625,250757.34375,225830.5,245473.125,244541.859375,227970.90625,264618.0,1.0,1
245234.328125,254538.015625,254439.75,250680.8125,225655.4375,245423.421875,244273.640625,227947.296875,264619.0,1.0,1
245228.0625,254483.921875,254352.3125,250658.46875,225514.625,245412.78125,244045.5625,227943.015625,264620.0,1.0,1
245287.34375,254546.140625,254405.15625,250719.96875,225598.21875,245453.453125,244164.484375,227965.625,264621.0,1.0,1
245344.734375,254648.34375,254526.484375,250782.203125,225794.296875,245492.53125,244468.109375,227981.546875,264622.0,1.0,1
245301.28125,254633.671875,254541.3125,250753.140625,225833.90625,245471.421875,244536.953125,227964.921875,264623.0,1.0,1
245240.578125,254543.109375,254439.84375,250684.125,225666.984375,245433.609375,244280.53125,227947.921875,264624.0,1.0,1
245243.796875,254500.90625,254362.234375,250668.390625,225528.390625,245430.03125,244057.1875,227951.953125,264625.0,1.0,1
245299.046875,254561.34375,254412.03125,250726.5,225604.921875,245468.5625,244170.5625,227972.421875,264626.0,1.0,1
245347.875,254650.84375,254529.34375,250784.96875,225794.734375,245501.296875,244469.625,227985.03125,264627.0,1.0,1
245309.15625,254645.03125,254551.421875,250762.171875,225840.0625,245485.375,244549.734375,227973.859375,264628.0,1.0,1
245240.578125,254548.203125,254442.890625,250687.796875,225669.21875,245444.875,244288.578125,227953.03125,264629.0,1.0,1
245238.796875,254498.671875,254360.71875,250665.703125,225527.234375,245431.828125,244058.703125,227949.53125,264630.0,1.0,1
245295.46875,254555.265625,254409.171875,250719.4375,225604.03125,245462.3125,244165.8125,227967.78125,264631.0,1.0,1
245353.234375,254650.484375,254530.5,250781.671875,225801.71875,245506.125,244472.3125,227989.765625,264632.0,1.0,1
245316.046875,254643.515625,254553.65625,250761.46875,225847.40625,245485.90625,244551.25,227978.953125,264633.0,1.0,1
245241.921875,254537.828125,254441.625,250683.5,225669.75,245429.765625,244282.5,227945.0625,264634.0,1.0,1
245237.625,254484.1875,254355.53125,250655.96875,225522.3125,245417.34375,244049.328125,227939.609375,264635.0,1.0,1
245296.734375,254544.09375,254404.34375,250712.828125,225598.484375,245452.921875,244157.140625,227959.90625,264636.0,1.0,1
245352.25,254642.171875,254525.671875,250773.890625,225790.359375,245486.625,244457.203125,227975.734375,264637.0,1.0,1
245316.046875,254641.8125,254551.875,250754.578125,225834.265625,245468.75,244542.765625,227967.0625,264638.0,1.0,1
245239.234375,254540.0625,254437.78125,250676.078125,225654.546875,245414.03125,244280.796875,227940.78125,264639.0,1.0,1
245232.53125,254491.4375,254350.96875,250653.71875,225508.640625,245400.171875,244051.015625,227936.21875,264640.0,1.0,1
245289.671875,254555.625,254401.125,250714.171875,225587.578125,245443.0,244163.671875,227960.453125,264641.0,1.0,1
245342.421875,254657.109375,254519.6875,250772.546875,225779.265625,245475.453125,244458.890625,227976.71875,264642.0,1.0,1
245308.078125,254659.515625,254546.859375,250754.84375,225830.59375,245460.515625,244546.421875,227968.21875,264643.0,1.0,1
245245.9375,254573.234375,254447.53125,250691.015625,225672.25,245426.015625,244301.265625,227954.546875,264644.0,1.0,1
245236.28125,254519.6875,254357.59375,250665.078125,225522.671875,245410.984375,244063.0,227947.65625,264645.0,1.0,1
245286.53125,254577.53125,254400.0625,250715.78125,225589.640625,245442.28125,244160.640625,227964.015625,264646.0,1.0,1
245336.78125,254668.453125,254515.21875,250772.734375,225779.265625,245477.0625,244460.234375,227976.0,264647.0,1.0,1
245308.96875,254670.421875,254549.09375,250759.671875,225840.25,245472.953125,244559.921875,227972.6875,264648.0,1.0,1
245238.25,254574.125,254442.25,250685.28125,225676.28125,245426.8125,244304.40625,227952.21875,264649.0,1.0,1
245228.421875,254516.546875,254350.890625,250656.140625,225526.34375,245411.703125,244064.96875,227945.15625,264650.0,1.0,1
245280.8125,254565.734375,254396.484375,250712.90625,225593.671875,245448.09375,244162.328125,227963.84375,264651.0,1.0,1
245335.796875,254661.390625,254518.25,250775.765625,225784.09375,245483.40625,244460.59375,227979.9375,264652.0,1.0,1
245298.0625,254658.625,254547.84375,250756.28125,225836.140625,245469.375,244552.6875,227972.515625,264653.0,1.0,1
245220.28125,254553.84375,254436.984375,250676.96875,225662.6875,245421.0,244295.375,227946.5,264654.0,1.0,1
245216.984375,254499.75,254348.828125,250651.3125,225511.5,245405.453125,244058.984375,227941.671875,264655.0,1.0,1
245272.859375,254553.75,254392.71875,250705.578125,225575.25,245436.375,244153.03125,227959.90625,264656.0,1.0,1
245327.484375,254651.5625,254512.53125,250768.796875,225769.265625,245477.515625,244456.03125,227976.09375,264657.0,1.0,1
245293.15625,254647.71875,254545.078125,250751.984375,225828.453125,245468.75,244554.203125,227967.234375,264658.0,1.0,1
245227.96875,254553.125,254441.09375,250676.4375,225662.953125,245416.171875,244296.625,227945.875,264659.0,1.0,1
245227.4375,254504.390625,254358.296875,250654.0,225516.78125,245400.625,244059.0625,227944.4375,264660.0,1.0,1
245281.4375,254556.78125,254398.890625,250705.5,225582.125,245431.28125,244147.40625,227960.171875,264661.0,1.0,1
245338.75,254651.296875,254517.984375,250768.34375,225777.125,245467.3125,244445.65625,227975.734375,264662.0,1.0,1
245311.84375,254657.8125,254553.390625,250755.375,225841.859375,245460.796875,244551.609375,227965.8125,264663.0,1.0,1
245238.703125,254560.359375,254446.015625,250680.734375,225675.375,245413.5,244297.34375,227942.03125,264664.0,1.0,1
245228.234375,254500.46875,254355.796875,250655.0625,225522.3125,245394.359375,244052.546875,227936.75,264665.0,1.0,1
245283.578125,254554.015625,254397.640625,250708.171875,225585.265625,245427.34375,244140.96875,227951.328125,264666.0,1.0,1
245342.5,254652.8125,254520.578125,250773.984375,225782.671875,245469.015625,244446.015625,227972.515625,264667.0,1.0,1
245307.1875,254651.5625,254549.015625,250753.234375,225839.265625,245456.046875,244546.25,227962.0625,264668.0,1.0,1
245247.015625,254568.671875,254459.953125,250690.5625,225687.625,245427.171875,244311.734375,227953.828125,264669.0,1.0,1
245241.390625,254514.59375,254377.265625,250666.953125,225535.546875,245415.375,244073.546875,227952.125,264670.0,1.0,1
245290.828125,254559.921875,254415.078125,250717.734375,225589.546875,245439.953125,244153.390625,227965.8125,264671.0,1.0,1
245354.84375,254663.09375,254542.21875,250787.75,225786.875,245483.140625,244462.203125,227988.4375,264672.0,1.0,1
245321.84375,254663.546875,254575.46875,250767.71875,225845.25,245472.0625,244566.984375,227975.90625,264673.0,1.0,1
245250.0625,254566.265625,254471.84375,250690.65625,225678.25,245427.0,244315.671875,227949.984375,264674.0,1.0,1
245247.734375,254511.640625,254385.75,250666.875,225526.875,245413.765625,244075.515625,227944.265625,264675.0,1.0,1
245293.515625,254555.984375,254418.203125,250714.25,225582.40625,245443.53125,244153.84375,227956.59375,264676.0,1.0,1
245353.234375,254657.546875,254541.765625,250780.859375,225779.453125,245486.71875,244455.59375,227975.46875,264677.0,1.0,1
245326.046875,254667.46875,254581.28125,250767.359375,225844.359375,245481.4375,244567.25,227970.8125,264678.0,1.0,1
245253.0,254575.203125,254477.75,250689.578125,225681.734375,245441.75,244322.8125,227946.5,264679.0,1.0,1
245237.359375,254511.375,254383.515625,250660.609375,225525.171875,245423.78125,244074.890625,227936.03125,264680.0,1.0,1
245293.6875,254565.90625,254423.484375,250715.953125,225583.5625,245455.875,244157.5,227956.875,264681.0,1.0,1
245356.546875,254671.9375,254548.296875,250784.53125,225780.96875,245500.9375,244466.046875,227980.5625,264682.0,1.0,1
245326.328125,254678.828125,254585.578125,250768.609375,225845.609375,245490.828125,244579.0625,227973.140625,264683.0,1.0,1
245248.53125,254576.546875,254478.640625,250689.21875,225679.671875,245438.078125,244329.25,227947.21875,264684.0,1.0,1
245234.671875,254511.90625,254381.8125,250658.828125,225520.4375,245419.390625,244076.859375,227940.328125,264685.0,1.0,1
245290.5625,254564.296875,254418.46875,250711.296875,225576.859375,245453.09375,244154.90625,227959.546875,264686.0,1.0,1
245351.4375,254665.0625,254539.078125,250777.546875,225769.96875,245493.515625,244455.765625,227979.40625,264687.0,1.0,1
245325.0625,254672.5625,254577.796875,250763.25,225837.75,245484.21875,244568.515625,227969.296875,264688.0,1.0,1
245248.1875,254566.625,254474.0,250685.90625,225677.796875,245433.34375,244322.109375,227946.59375,264689.0,1.0,1
245233.15625,254501.09375,254374.578125,250654.171875,225517.40625,245409.5625,244069.609375,227938.265625,264690.0,1.0,1
245280.453125,254541.5,254400.859375,250697.625,225564.515625,245436.375,244138.546875,227948.90625,264691.0,1.0,1
245339.90625,254640.109375,254518.703125,250761.734375,225757.1875,245474.828125,244435.015625,227964.921875,264692.0,1.0,1
245320.875,254654.234375,254563.671875,250759.21875,225836.140625,245475.0,244557.515625,227969.296875,264693.0,1.0,1
245251.046875,254559.921875,254465.328125,250690.828125,225683.609375,245438.4375,244320.046875,227955.171875,264694.0,1.0,1
245231.640625,254488.921875,254363.671875,250653.28125,225520.53125,245413.578125,244061.84375,227934.875,264695.0,1.0,1
245294.5,254546.6875,254403.0,250708.53125,225578.640625,245453.640625,244137.03125,227956.875,264696.0,1.0,1
245360.828125,254653.703125,254529.78125,250779.796875,225777.390625,245496.640625,244440.5625,227979.671875,264697.0,1.0,1
245327.9375,254655.9375,254565.375,250766.5625,225845.4375,245485.109375,244555.0,227970.8125,264698.0,1.0,1
245255.0625,254559.65625,254461.484375,250692.625,225687.0,245438.171875,244313.15625,227949.890625,264699.0,1.0,1
245243.0,254500.015625,254367.875,250660.703125,225528.578125,245417.0625,244062.90625,227940.421875,264700.0,1.0,1
245285.109375,254537.5625,254395.140625,250703.796875,225575.421875,245443.359375,244129.15625,227950.96875,264701.0,1.0,1
245346.265625,254641.015625,254517.8125,250771.203125,225770.78125,245482.15625,244433.140625,227974.484375,264702.0,1.0,1
245326.140625,254658.71875,254565.90625,250764.40625,225847.046875,245477.328125,244560.109375,227970.90625,264703.0,1.0,1
245247.015625,254559.46875,254464.15625,250685.109375,225686.296875,245427.796875,244315.578125,227943.015625,264704.0,1.0,1
245231.90625,254495.453125,254370.375,250655.15625,225522.578125,245407.234375,244060.140625,227935.328125,264705.0,1.0,1
245287.515625,254548.921875,254403.640625,250705.5,225569.796875,245441.390625,244129.875,227950.609375,264706.0,1.0,1
245355.203125,254662.109375,254531.578125,250775.859375,225770.78125,245489.3125,244437.4375,227975.109375,264707.0,1.0,1
245332.21875,254673.546875,254575.390625,250766.109375,225847.046875,245486.890625,244567.25,227969.125,264708.0,1.0,1
245255.953125,254573.953125,254473.8125,250688.421875,225689.328125,245440.3125,244330.15625,227943.1875,264709.0,1.0,1
245235.578125,254504.390625,254373.5,250653.71875,225524.734375,245416.625,244068.90625,227933.796875,264710.0,1.0,1
245283.859375,254545.796875,254399.875,250697.890625,225565.234375,245444.96875,244127.28125,227949.1875,264711.0,1.0,1
245342.328125,254646.015625,254520.484375,250762.984375,225756.921875,245482.96875,244427.328125,227967.515625,264712.0,1.0,1
245316.75,254658.359375,254565.734375,250753.859375,225834.703125,245472.953125,244554.921875,227960.359375,264713.0,1.0,1
245231.640625,254551.609375,254458.171875,250673.84375,225673.140625,245421.0,244313.078125,227933.265625,264714.0,1.0,1
245221.53125,254492.59375,254366.53125,250646.21875,225514.890625,245407.140625,244061.65625,227927.359375,264715.0,1.0,1
245277.140625,254545.796875,254399.78125,250696.8125,225561.828125,245439.515625,244125.5,227942.03125,264716.0,1.0,1
245338.390625,254645.75,254524.78125,250766.734375,225761.296875,245481.984375,244431.625,227966.078125,264717.0,1.0,1
245312.90625,254650.9375,254567.34375,250757.34375,225839.796875,245473.03125,244562.421875,227963.578125,264718.0,1.0,1
245242.546875,254557.140625,254468.984375,250685.203125,225686.015625,245427.4375,244327.015625,227941.578125,264719.0,1.0,1
245233.34375,254502.15625,254376.09375,250655.328125,225527.328125,245410.1875,244071.140625,227936.484375,264720.0,1.0,1
245278.671875,254541.046875,254400.421875,250699.765625,225568.0,245439.0625,244124.6875,227952.578125,264721.0,1.0,1
245342.421875,254645.75,254523.890625,250770.671875,225768.640625,245485.203125,244431.53125,227977.703125,264722.0,1.0,1
245317.46875,254655.578125,254566.09375,250761.1875,225848.390625,245480.90625,244565.46875,227971.0,264723.0,1.0,1
245242.71875,254559.109375,254465.5,250685.28125,225692.28125,245432.265625,244328.625,227945.609375,264724.0,1.0,1
245228.875,254497.421875,254368.234375,250654.0,225529.375,245409.109375,244069.53125,227939.609375,264725.0,1.0,1
245276.796875,254540.421875,254393.359375,250702.453125,225570.234375,245439.421875,244124.875,227953.921875,264726.0,1.0,1
245345.8125,254650.84375,254521.203125,250775.234375,225772.75,245491.28125,244431.890625,227980.03125,264727.0,1.0,1
245326.859375,254668.375,254572.796875,250767.90625,225857.6875,245489.40625,244569.671875,227980.5625,264728.0,1.0,1
245250.0625,254571.0,254473.28125,250691.015625,225705.515625,245445.234375,244339.0,227960.0,264729.0,1.0,1
245235.21875,254503.765625,254373.40625,250654.984375,225541.0,245423.421875,244077.390625,227944.0,264730.0,1.0,1
245284.296875,254544.71875,254397.734375,250701.296875,225575.78125,245454.078125,244127.015625,227954.546875,264731.0,1.0,1
245346.96875,254643.6875,254520.125,250770.84375,225770.15625,245497.09375,244429.5625,227978.5,264732.0,1.0,1
245327.390625,254657.453125,254570.109375,250765.390625,225853.390625,245486.71875,244566.359375,227971.71875,264733.0,1.0,1
245250.140625,254559.734375,254471.140625,250687.515625,225699.703125,245436.296875,244332.5625,227943.28125,264734.0,1.0,1
245235.84375,254495.28125,254373.953125,250650.953125,225531.265625,245412.59375,244068.453125,227932.1875,264735.0,1.0,1
245291.71875,254542.921875,254404.703125,250699.234375,225570.328125,245446.9375,244119.421875,227949.453125,264736.0,1.0,1
245365.921875,254656.390625,254538.640625,250779.96875,225775.96875,245503.34375,244433.140625,227981.90625,264737.0,1.0,1
245345.71875,254671.234375,254585.578125,250774.78125,225857.234375,245494.9375,244570.921875,227975.46875,264738.0,1.0,1
245267.9375,254572.515625,254485.34375,250697.53125,225702.03125,245441.921875,244336.59375,227947.84375,264739.0,1.0,1
245251.21875,254508.15625,254388.609375,250664.359375,225533.046875,245419.578125,244073.546875,227939.96875,264740.0,1.0,1
245307.546875,254558.9375,254421.78125,250718.71875,225574.53125,245458.90625,244128.625,227961.78125,264741.0,1.0,1
245369.953125,254660.40625,254546.6875,250788.8125,225772.03125,245507.734375,244432.703125,227980.390625,264742.0,1.0,1
245348.5,254675.609375,254597.375,250781.125,225858.84375,245501.015625,244575.921875,227974.75,264743.0,1.0,1
245266.421875,254572.796875,254496.171875,250699.0625,225701.40625,245447.203125,244343.734375,227948.46875,264744.0,1.0,1
245245.046875,254505.5625,254396.125,250660.15625,225531.796875,245422.609375,244078.015625,227938.265625,264745.0,1.0,1
245291.71875,254545.96875,254416.59375,250704.0625,225566.3125,245448.8125,244117.1875,227950.515625,264746.0,1.0,1
245356.359375,254648.34375,254540.609375,250778.890625,225767.203125,245496.90625,244422.6875,227977.796875,264747.0,1.0,1
245338.21875,254666.046875,254590.671875,250775.671875,225858.21875,245494.234375,244572.796875,227977.171875,264748.0,1.0,1
245263.921875,254576.28125,254493.578125,250701.46875,225711.140625,245448.1875,244348.203125,227951.5,264749.0,1.0,1
245247.734375,254512.984375,254396.21875,250667.5,225549.59375,245431.203125,244088.125,227947.84375,264750.0,1.0,1
245293.234375,254546.0625,254412.9375,250710.40625,225577.296875,245456.859375,244125.3125,227960.453125,264751.0,1.0,1
245354.125,254644.140625,254527.640625,250775.671875,225769.078125,245494.578125,244420.453125,227976.984375,264752.0,1.0,1
245339.375,254668.1875,254581.28125,250774.875,225862.875,245492.703125,244572.53125,227976.0,264753.0,1.0,1
245253.09375,254565.453125,254479.546875,250694.578125,225711.0625,245439.953125,244346.6875,227948.734375,264754.0,1.0,1
245229.578125,254492.140625,254376.8125,250654.171875,225538.953125,245414.5625,244079.359375,227938.71875,264755.0,1.0,1
245281.265625,254532.203125,254399.96875,250698.421875,225567.640625,245445.859375,244115.84375,227957.140625,264756.0,1.0,1
245344.921875,254631.890625,254517.0,250768.609375,225759.0625,245488.59375,244411.78125,227979.125,264757.0,1.0,1
245327.03125,254653.4375,254567.515625,250766.828125,225853.03125,245485.640625,244565.921875,227971.359375,264758.0,1.0,1
245244.328125,254553.75,254468.1875,250688.59375,225702.203125,245436.734375,244341.765625,227945.25,264759.0,1.0,1
245229.046875,254490.890625,254367.15625,250651.578125,225530.8125,245409.734375,244072.484375,227935.859375,264760.0,1.0,1
245274.015625,254526.296875,254384.59375,250693.59375,225557.546875,245435.484375,244104.484375,227949.984375,264761.0,1.0,1
245333.828125,254624.640625,254505.828125,250762.53125,225752.453125,245480.09375,244403.8125,227968.84375,264762.0,1.0,1
245322.125,254651.921875,254561.703125,250762.359375,225847.046875,245478.578125,244558.40625,227962.859375,264763.0,1.0,1
245249.96875,254563.765625,254471.40625,250687.25,225700.859375,245433.875,244341.5,227940.0625,264764.0,1.0,1
245228.234375,254490.453125,254369.84375,250648.1875,225528.578125,245411.703125,244074.09375,227930.5,264765.0,1.0,1
245274.5625,254530.140625,254387.0,250687.609375,225552.625,245433.4375,244101.453125,227945.609375,264766.0,1.0,1
245336.609375,254629.5625,254504.03125,250756.984375,225745.203125,245475.1875,244396.046875,227967.6875,264767.0,1.0,1
245320.875,254651.828125,254558.046875,250754.3125,225840.34375,245469.640625,244550.359375,227960.09375,264768.0,1.0,1
245249.078125,254567.0625,254470.953125,250684.578125,225701.125,245429.234375,244340.25,227940.234375,264769.0,1.0,1
245227.609375,254493.84375,254367.15625,250647.28125,225528.125,245405.265625,244071.21875,227932.28125,264770.0,1.0,1
245269.1875,254522.453125,254377.796875,250684.65625,225548.15625,245427.0,244095.015625,227943.8125,264771.0,1.0,1
245337.5,254626.609375,254499.75,250756.28125,225741.359375,245472.328125,244393.453125,227965.453125,264772.0,1.0,1
245327.9375,254652.546875,254559.203125,250759.3125,225840.875,245475.28125,244555.28125,227965.984375,264773.0,1.0,1
245251.9375,254560.359375,254468.0,250686.890625,225697.28125,245431.109375,244342.578125,227947.296875,264774.0,1.0,1
245230.484375,254490.453125,254366.34375,250652.109375,225526.609375,245411.609375,244077.65625,227939.53125,264775.0,1.0,1
245278.046875,254532.921875,254383.78125,250692.171875,225548.609375,245439.59375,244101.265625,227949.1875,264776.0,1.0,1
245341.78125,254634.578125,254507.609375,250764.59375,225745.296875,245485.46875,244398.71875,227972.0625,264777.0,1.0,1
245327.65625,254657.640625,254563.9375,250763.078125,225843.46875,245482.0625,244560.546875,227967.859375,264778.0,1.0,1
245252.65625,254568.59375,254473.734375,250690.375,225704.53125,245437.71875,244349.640625,227945.25,264779.0,1.0,1
245228.328125,254493.671875,254367.515625,250647.921875,225528.125,245409.921875,244072.03125,227932.015625,264780.0,1.0,1
245274.015625,254525.859375,254378.6875,250688.328125,225545.109375,245432.171875,244090.265625,227943.453125,264781.0,1.0,1
245335.796875,254622.5,254498.046875,250758.25,225737.34375,245473.03125,244385.3125,227965.359375,264782.0,1.0,1
245328.375,254649.859375,254559.921875,250762.53125,225842.84375,245478.84375,244553.3125,227971.171875,264783.0,1.0,1
245253.71875,254563.140625,254472.296875,250691.71875,225707.296875,245437.640625,244344.453125,227952.40625,264784.0,1.0,1
245240.3125,254501.09375,254377.609375,250659.71875,225542.609375,245417.34375,244077.75,227948.109375,264785.0,1.0,1
245277.5,254525.234375,254385.9375,250694.046875,225554.6875,245440.3125,244090.890625,227956.15625,264786.0,1.0,1
245346.078125,254631.078125,254511.375,250768.34375,225753.078125,245491.359375,244393.09375,227979.578125,264787.0,1.0,1
245333.203125,254659.34375,254569.9375,250770.671875,225855.359375,245489.046875,244560.1875,227978.421875,264788.0,1.0,1
245252.65625,254569.84375,254476.046875,250693.953125,225715.96875,245440.671875,244350.4375,227953.828125,264789.0,1.0,1
245224.75,254489.546875,254367.875,250648.1875,225536.890625,245408.390625,244071.859375,227941.046875,264790.0,1.0,1
245276.96875,254524.78125,254386.5625,250692.625,225556.203125,245439.515625,244093.046875,227956.421875,264791.0,1.0,1
245337.9375,254622.0625,254504.65625,250761.90625,225744.671875,245481.625,244385.3125,227973.140625,264792.0,1.0,1
245324.09375,254650.75,254565.015625,250762.359375,225847.484375,245477.6875,244552.59375,227969.203125,264793.0,1.0,1
245245.234375,254562.328125,254477.65625,250689.9375,225713.828125,245434.421875,244353.9375,227947.84375,264794.0,1.0,1
245225.828125,254495.0,254376.359375,250654.171875,225542.515625,245414.390625,244083.5625,227939.703125,264795.0,1.0,1
245268.390625,254523.171875,254387.359375,250691.09375,225552.71875,245438.796875,244093.3125,227951.859375,264796.0,1.0,1
245333.203125,254623.3125,254509.578125,250766.109375,225746.015625,245485.46875,244388.265625,227978.328125,264797.0,1.0,1
245327.03125,254657.109375,254573.421875,250769.59375,225853.921875,245486.890625,244560.640625,227978.0625,264798.0,1.0,1
245249.875,254570.640625,254484.8125,250693.328125,225716.78125,245439.0625,244356.078125,227951.859375,264799.0,1.0,1
245233.78125,254504.9375,254384.765625,250655.25,225544.671875,245413.5,244085.703125,227944.078125,264800.0,1.0,1
245281.796875,254536.84375,254394.515625,250695.75,225555.75,245436.828125,244094.5625,227958.65625,264801.0,1.0,1
245347.15625,254638.5,254510.921875,250765.125,225744.21875,245479.203125,244386.390625,227979.3125,264802.0,1.0,1
245339.109375,254667.46875,254575.296875,250768.078125,225852.59375,245484.21875,244563.234375,227978.78125,264803.0,1.0,1
245255.328125,254570.203125,254482.765625,250691.90625,225713.46875,245434.953125,244357.234375,227950.96875,264804.0,1.0,1
245232.09375,254499.75,254377.703125,250652.828125,225537.421875,245409.203125,244082.046875,227939.078125,264805.0,1.0,1
245282.78125,254534.703125,254393.984375,250697.453125,225553.515625,245438.609375,244094.734375,227959.28125,264806.0,1.0,1
245347.6875,254634.03125,254512.265625,250770.140625,225746.015625,245485.109375,244386.921875,227983.328125,264807.0,1.0,1
245345.09375,254670.875,254581.546875,250779.078125,225859.734375,245489.671875,244565.5625,227984.3125,264808.0,1.0,1
245267.3125,254581.28125,254497.515625,250707.28125,225729.921875,245449.34375,244369.21875,227959.640625,264809.0,1.0,1
245244.609375,254508.0625,254392.28125,250663.375,225554.953125,245422.25,244090.53125,227947.03125,264810.0,1.0,1
245290.109375,254538.1875,254402.375,250700.75,225565.765625,245447.015625,244093.21875,227959.8125,264811.0,1.0,1
245353.046875,254633.234375,254518.875,250769.421875,225752.359375,245489.9375,244384.515625,227979.125,264812.0,1.0,1
245343.84375,254660.328125,254583.4375,250776.125,225859.109375,245488.6875,244562.609375,227977.875,264813.0,1.0,1
245266.59375,254574.578125,254496.96875,250704.328125,225727.6875,245445.859375,244364.84375,227956.15625,264814.0,1.0,1
245241.828125,254500.90625,254392.09375,250664.8125,225552.265625,245420.109375,244087.859375,227943.90625,264815.0,1.0,1
245284.84375,254529.078125,254397.109375,250700.21875,225557.359375,245439.421875,244086.15625,227951.6875,264816.0,1.0,1
245353.234375,254631.53125,254516.90625,250772.375,225749.140625,245485.46875,244377.796875,227978.328125,264817.0,1.0,1
245354.484375,254671.40625,254588.703125,250787.84375,225867.421875,245495.03125,244565.921875,227986.015625,264818.0,1.0,1
245271.25,254574.671875,254497.875,250709.15625,225732.421875,245441.65625,244367.515625,227954.546875,264819.0,1.0,1
245244.15625,254500.640625,254391.5625,250664.0,225554.59375,245412.328125,244088.390625,227943.640625,264820.0,1.0,1
245285.90625,254530.6875,254397.640625,250699.5,225560.9375,245435.75,244083.5625,227954.640625,264821.0,1.0,1
245348.671875,254632.25,254515.390625,250769.0625,225750.21875,245479.828125,244373.25,227977.4375,264822.0,1.0,1
245345.71875,254668.8125,254582.171875,250778.984375,225865.90625,245488.421875,244556.34375,227980.5625,264823.0,1.0,1
245270.265625,254582.8125,254498.40625,250709.78125,225740.375,245449.078125,244369.484375,227960.890625,264824.0,1.0,1
245240.046875,254502.421875,254391.46875,250666.25,225563.171875,245422.4375,244093.484375,227950.796875,264825.0,1.0,1
245278.578125,254526.921875,254394.96875,250701.296875,225567.015625,245443.4375,244087.59375,227961.875,264826.0,1.0,1
245336.15625,254621.421875,254507.078125,250767.09375,225749.859375,245480.28125,244373.25,227978.328125,264827.0,1.0,1
245329.09375,254656.46875,254571.546875,250771.75,225858.578125,245480.546875,244556.078125,227975.640625,264828.0,1.0,1
245250.59375,254567.96875,254487.671875,250698.15625,225729.65625,245436.65625,244365.46875,227953.203125,264829.0,1.0,1
245226.1875,254492.765625,254382.171875,250654.984375,225551.734375,245415.453125,244089.015625,227946.765625,264830.0,1.0,1
245270.265625,254518.515625,254387.71875,250692.34375,225555.484375,245440.140625,244084.453125,227961.34375,264831.0,1.0,1
245329.453125,254615.34375,254499.484375,250761.640625,225739.484375,245475.984375,244368.328125,227978.953125,264832.0,1.0,1
245324.4375,254651.203125,254564.75,250766.296875,225850.0,245475.453125,244553.390625,227974.578125,264833.0,1.0,1
245250.859375,254568.046875,254482.140625,250696.109375,225725.8125,245436.734375,244367.96875,227955.078125,264834.0,1.0,1
245223.328125,254490.8125,254376.625,250652.390625,225550.03125,245411.265625,244090.53125,227947.03125,264835.0,1.0,1
245260.78125,254511.8125,254379.40625,250688.328125,225549.9375,245434.5,244081.328125,227958.84375,264836.0,1.0,1
245328.28125,254615.890625,254495.28125,250761.46875,225736.171875,245478.84375,244365.734375,227984.5,264837.0,1.0,1
245321.84375,254652.359375,254563.578125,250768.609375,225851.515625,245481.265625,244554.46875,227979.84375,264838.0,1.0,1
245249.515625,254572.515625,254489.015625,250703.703125,225736.890625,245443.71875,244376.90625,227961.703125,264839.0,1.0,1
245229.140625,254503.953125,254385.390625,250660.96875,225563.625,245418.765625,244099.03125,227954.984375,264840.0,1.0,1
245266.15625,254522.453125,254380.125,250689.84375,225554.421875,245437.8125,244076.953125,227961.15625,264841.0,1.0,1
245327.484375,254620.984375,254496.796875,250762.796875,225742.53125,245485.828125,244362.0625,227982.53125,264842.0,1.0,1
245326.859375,254662.109375,254568.59375,250770.9375,225861.796875,245489.484375,244554.375,227981.015625,264843.0,1.0,1
245258.1875,254583.25,254490.8125,250703.34375,225743.328125,245449.796875,244375.390625,227965.28125,264844.0,1.0,1
245236.5625,254509.9375,254387.8125,250663.03125,225569.078125,245425.390625,244098.234375,227957.40625,264845.0,1.0,1
245276.171875,254528.71875,254385.578125,250692.34375,225559.78125,245447.109375,244076.328125,227962.859375,264846.0,1.0,1
245344.65625,254629.125,254502.875,250765.65625,225744.765625,245492.625,244363.40625,227982.796875,264847.0,1.0,1
245345.546875,254671.3125,254575.921875,250776.65625,225865.640625,245499.859375,244559.125,227983.78125,264848.0,1.0,1
245270.078125,254585.046875,254496.609375,250709.25,225746.1875,245461.421875,244381.375,227962.5,264849.0,1.0,1
245241.03125,254506.453125,254388.875,250662.671875,225564.78125,245435.3125,244099.390625,227951.6875,264850.0,1.0,1
245281.796875,254533.71875,254392.015625,250694.40625,225558.4375,245457.125,244084.734375,227968.046875,264851.0,1.0,1
245338.390625,254625.359375,254500.640625,250762.984375,225739.21875,245496.640625,244368.421875,227987.71875,264852.0,1.0,1
245336.875,254665.78125,254575.5625,250777.734375,225864.484375,245501.015625,244567.96875,227989.234375,264853.0,1.0,1
245261.859375,254584.421875,254501.0,250709.515625,225747.4375,245455.875,244389.34375,227967.78125,264854.0,1.0,1
245229.671875,254501.265625,254387.265625,250658.640625,225561.5625,245423.0625,244103.859375,227953.03125,264855.0,1.0,1
245269.09375,254522.8125,254382.625,250689.40625,225551.828125,245441.75,244082.046875,227966.609375,264856.0,1.0,1
245329.8125,254617.765625,254493.578125,250757.890625,225733.3125,245481.796875,244359.46875,227987.984375,264857.0,1.0,1
245334.640625,254660.40625,254567.0625,250772.28125,225855.53125,245483.234375,244555.984375,227989.234375,264858.0,1.0,1
245254.265625,254569.390625,254482.484375,250696.28125,225730.375,245431.375,244372.078125,227953.65625,264859.0,1.0,1
