FZ,C3,CZ,C4,PZ,PO7,OZ,PO8,Counter,Validation,Label
219074.734375,231109.71875,246825.40625,243189.046875,205257.0625,222322.625,219482.78125,206665.21875,220723.0,1.0,3
218896.546875,230693.171875,246537.34375,242804.59375,204834.796875,222208.890625,218086.703125,206338.890625,220724.0,1.0,3
219141.609375,231130.546875,246763.984375,243150.25,205134.3125,222353.28125,218926.671875,206660.03125,220725.0,1.0,3
219459.1875,231799.40625,247176.421875,243727.71875,205724.21875,222552.21875,220787.328125,207165.90625,220726.0,1.0,3
219420.5625,231789.65625,247214.15625,243752.125,205800.203125,222536.578125,221137.0,207172.78125,220727.0,1.0,3
219082.0625,231115.171875,246825.046875,243191.734375,205257.234375,222330.75,219492.796875,206676.671875,220728.0,1.0,3
218898.15625,230689.5,246534.65625,242806.203125,204836.140625,222220.25,218090.984375,206351.671875,220729.0,1.0,3
219141.078125,231129.390625,246757.375,243150.25,205136.1875,222367.859375,218919.796875,206668.0,220730.0,1.0,3
219457.84375,231794.578125,247166.578125,243724.421875,205723.953125,222559.8125,220774.453125,207169.03125,220731.0,1.0,3
219420.640625,231780.890625,247205.828125,243752.3125,205802.171875,222542.375,221135.03125,207178.6875,220732.0,1.0,3
219082.6875,231109.984375,246817.984375,243196.5625,205261.71875,222340.140625,219498.796875,206687.578125,220733.0,1.0,3
218897.703125,230686.109375,246524.640625,242809.6875,204833.546875,222226.78125,218086.78125,206354.71875,220734.0,1.0,3
219133.734375,231117.859375,246743.421875,243145.5,205124.5625,222365.359375,218900.03125,206664.15625,220735.0,1.0,3
219451.5,231786.34375,247158.984375,243725.484375,205716.875,222559.8125,220762.640625,207171.71875,220736.0,1.0,3
219417.34375,231783.40625,247203.953125,243759.28125,205802.265625,222546.140625,221137.703125,207183.6875,220737.0,1.0,3
219088.40625,231124.734375,246824.6875,243207.015625,205269.3125,222348.734375,219510.5,206692.671875,220738.0,1.0,3
218899.046875,230696.828125,246530.640625,242812.109375,204840.96875,222235.53125,218091.25,206359.265625,220739.0,1.0,3
219126.046875,231113.5625,246743.78125,243140.953125,205127.15625,222370.09375,218891.0,206664.328125,220740.0,1.0,3
219446.21875,231786.625,247159.609375,243721.46875,205719.921875,222564.015625,220754.875,207168.140625,220741.0,1.0,3
219421.1875,231796.1875,247211.921875,243763.671875,205812.546875,222551.5,221151.65625,207185.75,220742.0,1.0,3
219088.59375,231130.109375,246828.359375,243210.140625,205278.96875,222352.578125,219529.8125,206691.859375,220743.0,1.0,3
218899.234375,230697.640625,246529.734375,242812.734375,204847.75,222236.078125,218099.84375,206354.4375,220744.0,1.0,3
219130.515625,231117.3125,246742.703125,243139.15625,205133.0625,222373.765625,218891.53125,206657.796875,220745.0,1.0,3
219452.390625,231792.421875,247157.828125,243719.859375,205722.421875,222564.5625,220753.53125,207160.359375,220746.0,1.0,3
219418.859375,231790.28125,247207.796875,243759.28125,205812.09375,222547.84375,221154.96875,207178.6875,220747.0,1.0,3
219081.171875,231122.765625,246824.328125,243204.25,205274.9375,222348.28125,219537.140625,206687.03125,220748.0,1.0,3
218889.21875,230684.59375,246526.4375,242804.421875,204838.90625,222232.3125,218101.71875,206345.765625,220749.0,1.0,3
219121.140625,231097.46875,246736.265625,243128.15625,205118.75,222365.71875,218875.984375,206644.484375,220750.0,1.0,3
219446.84375,231777.859375,247152.09375,243710.734375,205710.265625,222559.640625,220739.140625,207149.625,220751.0,1.0,3
219429.765625,231798.421875,247212.71875,243763.84375,205815.140625,222552.125,221160.328125,207176.0,220752.0,1.0,3
219093.6875,231133.046875,246828.890625,243213.640625,205280.578125,222350.421875,219548.671875,206684.625,220753.0,1.0,3
218899.859375,230692.1875,246526.25,242811.125,204838.640625,222230.171875,218099.21875,206341.03125,220754.0,1.0,3
219129.71875,231104.359375,246733.40625,243129.140625,205111.59375,222362.671875,218857.390625,206641.265625,220755.0,1.0,3
219456.046875,231781.703125,247152.015625,243712.171875,205703.296875,222554.90625,220723.484375,207152.578125,220756.0,1.0,3
219435.484375,231795.46875,247213.078125,243767.875,205807.90625,222544.265625,221157.375,207182.265625,220757.0,1.0,3
219105.578125,231136.546875,246834.4375,243221.5,205278.609375,222348.015625,219554.84375,206695.796875,220758.0,1.0,3
218910.3125,230688.875,246528.390625,242813.09375,204831.9375,222228.03125,218096.625,206346.3125,220759.0,1.0,3
219136.609375,231095.953125,246731.703125,243128.25,205102.390625,222357.9375,218844.0625,206641.625,220760.0,1.0,3
219459.0,231774.640625,247149.15625,243711.90625,205696.234375,222550.34375,220710.609375,207148.375,220761.0,1.0,3
219436.03125,231797.078125,247208.421875,243767.953125,205803.515625,222543.90625,221156.21875,207181.546875,220762.0,1.0,3
219106.296875,231141.1875,246831.3125,243223.828125,205281.5625,222349.4375,219563.78125,206698.484375,220763.0,1.0,3
218906.921875,230693.171875,246524.546875,242814.96875,204835.328125,222226.6875,218100.375,206350.515625,220764.0,1.0,3
219123.375,231086.46875,246719.28125,243122.0,205095.0625,222351.59375,218829.84375,206639.65625,220765.0,1.0,3
219444.609375,231763.546875,247134.9375,243704.296875,205687.109375,222543.28125,220694.703125,207147.578125,220766.0,1.0,3
219425.203125,231790.546875,247201.90625,243769.125,205802.53125,222537.640625,221158.359375,207187.359375,220767.0,1.0,3
219096.640625,231136.265625,246828.8125,243225.796875,205281.296875,222342.734375,219573.359375,206704.375,220768.0,1.0,3
218896.8125,230686.015625,246522.140625,242810.5,204835.328125,222223.109375,218101.1875,206351.40625,220769.0,1.0,3
219114.25,231084.0625,246720.625,243118.859375,205102.390625,222351.59375,218831.1875,206638.765625,220770.0,1.0,3
219438.34375,231763.28125,247138.15625,243701.34375,205698.734375,222549.453125,220702.65625,207149.0,220771.0,1.0,3
219424.5,231797.875,247205.203125,243763.3125,205815.671875,222547.75,221171.0625,207188.875,220772.0,1.0,3
219089.84375,231137.875,246827.015625,243217.65625,205290.140625,222348.09375,219583.8125,206703.671875,220773.0,1.0,3
218885.1875,230676.625,246513.5625,242802.359375,204839.4375,222222.03125,218104.578125,206350.421875,220774.0,1.0,3
219107.71875,231072.96875,246708.734375,243109.03125,205100.0625,222353.203125,218822.78125,206637.328125,220775.0,1.0,3
219432.359375,231753.984375,247124.390625,243691.15625,205690.6875,222547.75,220689.421875,207145.609375,220776.0,1.0,3
219413.9375,231784.734375,247187.953125,243752.9375,205803.609375,222541.578125,221165.0625,207184.40625,220777.0,1.0,3
219084.03125,231132.96875,246814.5,243210.328125,205280.484375,222340.328125,219586.5,206701.171875,220778.0,1.0,3
218887.609375,230678.328125,246507.65625,242796.8125,204831.84375,222215.0625,218103.765625,206347.015625,220779.0,1.0,3
219113.171875,231071.71875,246708.546875,243102.234375,205094.15625,222345.0625,218810.71875,206633.484375,220780.0,1.0,3
219443.359375,231757.5625,247129.390625,243691.6875,205689.96875,222544.171875,220679.234375,207145.15625,220781.0,1.0,3
219426.640625,231795.109375,247195.375,243762.421875,205807.625,222536.03125,221167.75,207189.765625,220782.0,1.0,3
219098.421875,231141.640625,246824.609375,243225.34375,205288.625,222338.53125,219596.953125,206706.703125,220783.0,1.0,3
218894.84375,230681.640625,246511.859375,242803.96875,204830.859375,222211.125,218100.734375,206344.4375,220784.0,1.0,3
219116.21875,231076.28125,246710.609375,243106.53125,205087.546875,222336.75,218795.0625,206628.390625,220785.0,1.0,3
219445.5,231758.28125,247130.28125,243692.234375,205681.921875,222535.765625,220663.5,207141.046875,220786.0,1.0,3
219439.875,231804.859375,247206.015625,243768.765625,205807.625,222537.015625,221166.859375,207188.96875,220787.0,1.0,3
219112.640625,231157.8125,246834.53125,243231.78125,205290.40625,222339.609375,219600.796875,206704.109375,220788.0,1.0,3
218903.421875,230690.3125,246517.765625,242808.53125,204832.5625,222212.375,218099.921875,206341.75,220789.0,1.0,3
219118.09375,231072.25,246704.171875,243101.078125,205081.921875,222338.359375,218778.34375,206617.390625,220790.0,1.0,3
219449.078125,231761.046875,247126.171875,243691.515625,205679.515625,222539.25,220652.765625,207133.09375,220791.0,1.0,3
219441.296875,231813.34375,247202.34375,243770.640625,205808.609375,222537.828125,221171.234375,207184.234375,220792.0,1.0,3
219110.671875,231160.5,246829.875,243232.671875,205291.21875,222343.09375,219613.40625,206704.65625,220793.0,1.0,3
218904.40625,230694.515625,246516.234375,242807.90625,204835.234375,222218.015625,218109.140625,206343.984375,220794.0,1.0,3
219111.921875,231068.5,246702.203125,243097.671875,205081.46875,222342.296875,218775.21875,206618.28125,220795.0,1.0,3
219436.5625,231746.734375,247120.1875,243684.546875,205679.15625,222540.140625,220646.421875,207130.859375,220796.0,1.0,3
219433.25,231806.46875,247202.4375,243769.921875,205817.828125,222542.5625,221180.625,207187.09375,220797.0,1.0,3
219105.125,231160.140625,246836.3125,243235.625,205309.1875,222350.25,219635.9375,206710.1875,220798.0,1.0,3
218889.921875,230679.765625,246514.546875,242802.8125,204843.375,222218.8125,218117.625,206342.015625,220799.0,1.0,3
219098.96875,231048.921875,246695.859375,243087.21875,205082.1875,222339.078125,218767.796875,206610.234375,220800.0,1.0,3
219433.609375,231739.59375,247119.46875,243679.890625,205683.71875,222539.703125,220640.78125,207126.734375,220801.0,1.0,3
219430.21875,231799.40625,247195.640625,243763.75,205816.75,222536.296875,221181.15625,207183.15625,220802.0,1.0,3
219105.671875,231157.1875,246828.71875,243234.640625,205306.234375,222342.109375,219641.578125,206711.265625,220803.0,1.0,3
218899.578125,230685.296875,246514.546875,242808.359375,204847.125,222220.515625,218127.640625,206343.984375,220804.0,1.0,3
219104.6875,231049.1875,246692.28125,243086.234375,205078.96875,222338.0,218764.484375,206603.078125,220805.0,1.0,3
219440.3125,231743.34375,247119.109375,243682.3125,205680.671875,222541.484375,220638.375,207126.46875,220806.0,1.0,3
219445.140625,231816.21875,247211.015625,243780.75,205829.453125,222549.71875,221199.046875,207194.875,220807.0,1.0,3
219116.9375,231166.9375,246842.3125,243244.484375,205314.375,222350.0625,219655.96875,206717.53125,220808.0,1.0,3
218898.6875,230678.421875,246512.65625,242804.515625,204838.375,222215.25,218116.921875,206342.375,220809.0,1.0,3
219111.921875,231048.296875,246693.53125,243086.765625,205075.5625,222339.96875,218746.515625,206608.625,220810.0,1.0,3
219446.125,231742.265625,247119.46875,243682.9375,205677.1875,222543.09375,220621.46875,207126.734375,220811.0,1.0,3
219452.828125,231818.53125,247208.34375,243786.28125,205823.640625,222544.078125,221190.734375,207194.59375,220812.0,1.0,3
219134.375,231182.671875,246846.78125,243255.125,205317.140625,222354.265625,219660.609375,206721.8125,220813.0,1.0,3
218923.90625,230703.625,246524.90625,242819.890625,204845.171875,222223.5625,218120.84375,206346.9375,220814.0,1.0,3
219136.15625,231070.109375,246709.890625,243106.875,205080.65625,222345.59375,218739.8125,206612.203125,220815.0,1.0,3
219466.328125,231753.890625,247129.921875,243690.890625,205674.328125,222540.5,220602.609375,207124.15625,220816.0,1.0,3
219477.421875,231836.421875,247228.546875,243793.890625,205827.921875,222547.65625,221186.171875,207195.140625,220817.0,1.0,3
219154.484375,231200.90625,246867.875,243273.09375,205326.0,222354.8125,219667.234375,206722.625,220818.0,1.0,3
218939.28125,230714.8125,246538.234375,242832.3125,204854.546875,222225.96875,218121.921875,206347.203125,220819.0,1.0,3
219144.109375,231071.8125,246709.53125,243101.421875,205079.234375,222342.015625,218721.03125,206604.609375,220820.0,1.0,3
219481.71875,231764.984375,247135.5625,243697.140625,205678.96875,222540.140625,220596.625,207123.171875,220821.0,1.0,3
219494.40625,231846.96875,247236.859375,243806.84375,205838.390625,222549.71875,221199.84375,207200.328125,220822.0,1.0,3
219171.375,231207.4375,246876.015625,243277.109375,205334.84375,222357.125,219683.765625,206729.5,220823.0,1.0,3
218948.21875,230716.140625,246545.75,242833.46875,204855.796875,222220.078125,218130.328125,206349.609375,220824.0,1.0,3
219148.84375,231066.09375,246715.171875,243101.078125,205076.1875,222336.484375,218719.25,206603.703125,220825.0,1.0,3
219491.734375,231767.125,247146.296875,243701.890625,205684.421875,222542.03125,220597.328125,207127.1875,220826.0,1.0,3
219506.03125,231859.03125,247248.21875,243814.984375,205849.828125,222554.71875,221212.359375,207208.734375,220827.0,1.0,3
219181.03125,231219.15625,246885.40625,243286.40625,205349.859375,222366.15625,219704.96875,206737.375,220828.0,1.0,3
218959.3125,230728.21875,246557.984375,242837.40625,204871.71875,222232.765625,218144.09375,206354.359375,220829.0,1.0,3
219161.8125,231083.796875,246729.109375,243104.375,205091.75,222345.859375,218720.765625,206606.484375,220830.0,1.0,3
219496.375,231773.296875,247149.6875,243696.15625,205689.609375,222545.875,220590.453125,207120.84375,220831.0,1.0,3
219516.3125,231875.578125,247256.625,243814.890625,205859.75,222563.125,221220.953125,207207.921875,220832.0,1.0,3
219192.484375,231243.46875,246899.4375,243287.484375,205358.359375,222364.109375,219720.78125,206737.46875,220833.0,1.0,3
218969.59375,230742.796875,246569.53125,242838.21875,204874.046875,222227.84375,218151.34375,206350.421875,220834.0,1.0,3
219170.84375,231087.015625,246739.125,243103.578125,205090.765625,222347.75,218719.25,206603.078125,220835.0,1.0,3
219507.109375,231781.609375,247164.796875,243698.75,205688.625,222552.21875,220591.34375,207123.25,220836.0,1.0,3
219530.890625,231888.546875,247273.78125,243823.921875,205859.21875,222571.796875,221232.296875,207213.5625,220837.0,1.0,3
219206.609375,231254.640625,246913.5625,243302.6875,205361.3125,222381.359375,219739.734375,206748.109375,220838.0,1.0,3
218981.296875,230757.0,246580.96875,242855.375,204885.390625,222250.015625,218168.765625,206364.375,220839.0,1.0,3
219168.34375,231088.53125,246738.140625,243108.140625,205093.09375,222358.65625,218716.75,206606.390625,220840.0,1.0,3
219505.859375,231785.8125,247165.0625,243701.796875,205694.265625,222563.484375,220588.21875,207128.96875,220841.0,1.0,3
219529.71875,231896.3125,247279.0625,243829.734375,205874.328125,222584.40625,221246.703125,207226.609375,220842.0,1.0,3
219202.5,231256.96875,246918.21875,243304.375,205372.84375,222389.671875,219757.4375,206761.15625,220843.0,1.0,3
218977.1875,230753.4375,246582.484375,242849.5625,204887.90625,222251.0,218174.9375,206373.125,220844.0,1.0,3
219160.921875,231073.953125,246729.65625,243090.703125,205081.828125,222350.515625,218700.296875,206601.203125,220845.0,1.0,3
219491.453125,231760.6875,247143.078125,243678.1875,205671.90625,222541.484375,220556.828125,207112.53125,220846.0,1.0,3
219515.953125,231877.1875,247255.09375,243809.890625,205852.78125,222558.65625,221224.96875,207211.328125,220847.0,1.0,3
219196.140625,231251.25,246905.0625,243296.515625,205365.328125,222370.984375,219753.953125,206754.0,220848.0,1.0,3
218968.34375,230745.828125,246571.40625,242843.3125,204883.34375,222234.28125,218169.75,206365.890625,220849.0,1.0,3
219160.65625,231075.296875,246724.828125,243088.546875,205083.34375,222343.359375,218687.515625,206594.859375,220850.0,1.0,3
219496.203125,231772.671875,247149.15625,243684.90625,205685.140625,222545.421875,220557.8125,207114.84375,220851.0,1.0,3
219518.109375,231883.53125,247262.34375,243819.28125,205868.703125,222567.859375,221240.34375,207217.046875,220852.0,1.0,3
219194.984375,231254.203125,246908.015625,243303.484375,205377.3125,222379.125,219773.625,206755.96875,220853.0,1.0,3
218964.21875,230744.9375,246572.828125,242846.703125,204888.703125,222238.125,218177.4375,206362.9375,220854.0,1.0,3
219151.890625,231063.5,246722.40625,243086.765625,205079.953125,222342.375,218679.28125,206593.34375,220855.0,1.0,3
219488.234375,231756.671875,247144.953125,243682.578125,205677.8125,222546.9375,220545.03125,207116.546875,220856.0,1.0,3
219511.671875,231878.34375,247258.765625,243821.25,205864.765625,222565.53125,221239.71875,207221.609375,220857.0,1.0,3
219192.125,231253.21875,246903.546875,243304.46875,205371.6875,222370.71875,219777.734375,206757.40625,220858.0,1.0,3
218961.1875,230740.109375,246562.109375,242838.65625,204877.078125,222229.1875,218175.65625,206357.84375,220859.0,1.0,3
219138.21875,231048.390625,246703.1875,243068.890625,205062.515625,222330.046875,218662.125,206579.65625,220860.0,1.0,3
219480.015625,231746.296875,247129.65625,243668.171875,205664.40625,222536.578125,220528.125,207103.859375,220861.0,1.0,3
219514.609375,231875.21875,247251.34375,243813.640625,205856.09375,222561.15625,221232.390625,207216.421875,220862.0,1.0,3
219201.875,231260.453125,246904.171875,243309.125,205375.171875,222375.90625,219785.515625,206763.125,220863.0,1.0,3
218964.21875,230737.421875,246555.578125,242842.0625,204873.234375,222226.78125,218172.4375,206359.453125,220864.0,1.0,3
219146.34375,231051.953125,246696.75,243074.609375,205054.90625,222329.0625,218652.375,206582.875,220865.0,1.0,3
219478.671875,231740.484375,247114.1875,243662.546875,205646.703125,222531.5625,220512.046875,207101.96875,220866.0,1.0,3
219513.1875,231874.59375,247242.84375,243812.125,205846.703125,222566.25,221232.125,207218.46875,220867.0,1.0,3
219201.953125,231262.0625,246900.78125,243306.078125,205367.125,222388.328125,219788.5625,206766.078125,220868.0,1.0,3
218967.890625,230741.453125,246560.578125,242840.625,204871.71875,222256.546875,218172.890625,206366.78125,220869.0,1.0,3
219141.34375,231045.515625,246697.28125,243067.28125,205053.65625,222367.140625,218637.359375,206585.203125,220870.0,1.0,3
219482.703125,231747.71875,247123.40625,243663.359375,205658.328125,222575.1875,220505.609375,207109.484375,220871.0,1.0,3
219517.5625,231883.09375,247253.40625,243814.53125,205862.53125,222603.53125,221240.265625,207227.234375,220872.0,1.0,3
219198.296875,231265.828125,246906.765625,243304.65625,205382.859375,222408.625,219804.390625,206771.890625,220873.0,1.0,3
218959.75,230740.28125,246564.703125,242835.890625,204882.890625,222258.25,218183.078125,206368.921875,220874.0,1.0,3
219138.484375,231040.875,246706.59375,243063.25,205060.453125,222354.1875,218640.84375,206586.546875,220875.0,1.0,3
219480.375,231740.3125,247126.625,243657.890625,205654.484375,222549.53125,220504.53125,207104.484375,220876.0,1.0,3
219519.71875,231884.96875,247255.71875,243815.34375,205855.1875,222564.640625,221251.34375,207221.6875,220877.0,1.0,3
219204.46875,231267.34375,246908.203125,243306.890625,205369.984375,222360.703125,219824.765625,206764.90625,220878.0,1.0,3
218963.875,230740.015625,246557.453125,242831.515625,204865.453125,222206.125,218195.765625,206357.390625,220879.0,1.0,3
219139.109375,231039.265625,246692.109375,243051.0,205038.546875,222300.890625,218637.890625,206568.03125,220880.0,1.0,3
219477.515625,231737.796875,247114.734375,243647.265625,205636.5,222513.234375,220504.265625,207090.0,220881.0,1.0,3
219514.4375,231878.703125,247241.15625,243804.609375,205840.171875,222554.90625,221262.515625,207210.421875,220882.0,1.0,3
219191.40625,231253.21875,246885.84375,243290.171875,205351.296875,222358.296875,219840.0625,206755.171875,220883.0,1.0,3
218953.5,230723.296875,246538.328125,242819.4375,204850.34375,222223.203125,218214.1875,206353.375,220884.0,1.0,3
219131.59375,231021.03125,246675.390625,243043.84375,205028.0,222334.875,218650.40625,206565.984375,220885.0,1.0,3
219472.765625,231721.796875,247097.5625,243641.453125,205627.46875,222546.578125,220513.296875,207087.140625,220886.0,1.0,3
219513.453125,231873.078125,247229.796875,243801.9375,205835.890625,222583.953125,221272.71875,207213.828125,220887.0,1.0,3
219199.453125,231264.484375,246890.3125,243306.890625,205367.03125,222403.09375,219863.484375,206774.125,220888.0,1.0,3
218954.921875,230734.5625,246541.625,242833.828125,204863.9375,222259.59375,218226.34375,206371.15625,220889.0,1.0,3
219127.03125,231025.765625,246672.25,243048.5,205029.96875,222352.125,218639.046875,206577.609375,220890.0,1.0,3
219471.25,231732.703125,247102.125,243652.890625,205635.4375,222557.140625,220503.453125,207107.421875,220891.0,1.0,3
219518.8125,231892.75,247240.96875,243822.5,205854.03125,222584.578125,221280.3125,207239.9375,220892.0,1.0,3
219208.03125,231289.875,246901.5,243325.125,205386.4375,222393.25,219874.203125,206793.796875,220893.0,1.0,3
218972.09375,230765.765625,246558.34375,242856.1875,204889.78125,222243.3125,218234.75,206387.609375,220894.0,1.0,3
219136.78125,231046.421875,246682.453125,243067.90625,205052.5,222331.375,218633.0625,206590.296875,220895.0,1.0,3
219473.671875,231737.890625,247097.296875,243658.875,205641.328125,222526.734375,220476.640625,207110.640625,220896.0,1.0,3
219530.078125,231903.734375,247246.609375,243835.90625,205865.03125,222561.96875,221269.671875,207249.5,220897.0,1.0,3
219218.765625,231294.15625,246911.0625,243341.046875,205393.3125,222370.984375,219872.15625,206798.625,220898.0,1.0,3
218975.9375,230752.984375,246559.328125,242862.984375,204881.828125,222222.3125,218220.265625,206381.265625,220899.0,1.0,3
219145.1875,231031.046875,246683.078125,243069.515625,205037.5625,222318.859375,218606.953125,206579.296875,220900.0,1.0,3
219490.5625,231732.171875,247104.890625,243665.3125,205631.953125,222527.546875,220460.90625,207103.140625,220901.0,1.0,3
219546.09375,231903.03125,247254.203125,243842.875,205856.359375,222569.390625,221264.3125,207239.390625,220902.0,1.0,3
219241.125,231303.90625,246922.953125,243352.21875,205393.234375,222394.0625,219876.265625,206799.953125,220903.0,1.0,3
218993.546875,230760.84375,246564.875,242867.546875,204881.734375,222245.109375,218213.5625,206382.25,220904.0,1.0,3
219159.140625,231037.125,246684.6875,243069.15625,205033.984375,222340.234375,218588.1875,206575.09375,220905.0,1.0,3
219499.140625,231739.40625,247107.3125,243665.046875,205631.140625,222547.921875,220445.25,207098.671875,220906.0,1.0,3
219547.609375,231906.78125,247247.59375,243837.25,205850.640625,222582.078125,221254.5625,207235.015625,220907.0,1.0,3
219235.046875,231302.03125,246912.484375,243343.453125,205384.109375,222402.109375,219873.765625,206794.5,220908.0,1.0,3
218986.40625,230763.53125,246562.1875,242860.921875,204877.703125,222259.5,218217.671875,206384.03125,220909.0,1.0,3
219141.78125,231030.859375,246677.796875,243055.828125,205028.265625,222353.375,218577.984375,206574.75,220910.0,1.0,3
219481.71875,231736.28125,247104.265625,243655.84375,205631.5,222563.390625,220438.90625,207102.78125,220911.0,1.0,3
219534.640625,231913.84375,247254.828125,243840.640625,205863.515625,222597.453125,221269.578125,207247.890625,220912.0,1.0,3
219223.140625,231309.71875,246921.078125,243348.015625,205402.171875,222411.9375,219898.078125,206803.796875,220913.0,1.0,3
218977.90625,230768.984375,246572.46875,242866.640625,204892.90625,222264.78125,218236.90625,206385.203125,220914.0,1.0,3
219136.0625,231034.796875,246688.796875,243059.046875,205038.734375,222353.90625,218588.359375,206573.9375,220915.0,1.0,3
219478.671875,231733.953125,247112.765625,243657.1875,205638.03125,222556.15625,220441.9375,207101.4375,220916.0,1.0,3
219540.546875,231918.5,247269.578125,243848.515625,205877.09375,222591.921875,221285.953125,207250.21875,220917.0,1.0,3
219233.875,231318.84375,246937.4375,243356.5,205416.65625,222404.78125,219921.59375,206806.578125,220918.0,1.0,3
218988.359375,230768.359375,246578.640625,242862.984375,204895.40625,222242.6875,218240.203125,206378.671875,220919.0,1.0,3
219145.28125,231029.703125,246693.171875,243052.078125,205038.734375,222329.59375,218579.859375,206561.6875,220920.0,1.0,3
219487.96875,231730.109375,247113.296875,243649.765625,205633.109375,222537.28125,220430.953125,207082.9375,220921.0,1.0,3
219555.75,231919.46875,247272.359375,243846.453125,205872.1875,222581.90625,221285.328125,207235.1875,220922.0,1.0,3
219250.6875,231322.59375,246942.0,243357.40625,205409.953125,222398.96875,219928.84375,206793.796875,220923.0,1.0,3
218998.203125,230768.265625,246580.796875,242861.640625,204885.046875,222241.703125,218243.515625,206364.546875,220924.0,1.0,3
219150.109375,231023.0,246688.265625,243047.78125,205018.4375,222330.484375,218564.75,206543.8125,220925.0,1.0,3
219491.90625,231726.625,247109.0,243643.5,205612.1875,222536.65625,220408.78125,207068.1875,220926.0,1.0,3
219554.40625,231921.171875,247265.921875,243837.421875,205855.90625,222582.609375,221270.5625,207224.28125,220927.0,1.0,3
219248.625,231339.046875,246938.953125,243356.234375,205407.171875,222404.78125,219933.9375,206794.953125,220928.0,1.0,3
218990.421875,230783.109375,246576.140625,242859.3125,204887.71875,222253.421875,218248.875,206372.140625,220929.0,1.0,3
219138.21875,231033.1875,246680.390625,243042.0625,205024.78125,222344.53125,218559.296875,206554.53125,220930.0,1.0,3
219471.34375,231726.796875,247095.953125,243636.078125,205619.96875,222541.3125,220399.296875,207080.078125,220931.0,1.0,3
219535.359375,231921.078125,247254.203125,243839.390625,205870.03125,222583.6875,221273.25,207245.65625,220932.0,1.0,3
219237.546875,231340.65625,246935.828125,243370.640625,205431.859375,222409.078125,219948.5,206821.0625,220933.0,1.0,3
218977.015625,230773.8125,246571.84375,242871.75,204909.71875,222251.1875,218253.703125,206390.75,220934.0,1.0,3
219124.984375,231013.875,246674.21875,243046.890625,205037.296875,222337.109375,218547.046875,206563.03125,220935.0,1.0,3
219468.75,231713.03125,247096.578125,243643.0625,205631.5,222545.953125,220389.546875,207087.046875,220936.0,1.0,3
219544.296875,231919.65625,247268.234375,243853.609375,205887.65625,222598.171875,221286.296875,207257.71875,220937.0,1.0,3
219243.0,231333.0625,246943.515625,243376.09375,205436.234375,222419.0,219960.84375,206825.171875,220938.0,1.0,3
218981.484375,230764.15625,246573.640625,242871.296875,204904.53125,222258.6875,218256.65625,206387.078125,220939.0,1.0,3
219134.375,231009.140625,246676.015625,243043.140625,205031.21875,222342.109375,218536.234375,206558.734375,220940.0,1.0,3
219479.75,231713.390625,247098.453125,243635.09375,205620.765625,222539.609375,220372.75,207081.140625,220941.0,1.0,3
219552.53125,231918.671875,247266.0,243841.625,205868.78125,222575.546875,221271.375,207242.078125,220942.0,1.0,3
219255.515625,231336.0,246947.8125,243368.578125,205420.234375,222389.765625,219955.125,206811.40625,220943.0,1.0,3
218998.46875,230769.796875,246580.25,242865.03125,204885.21875,222227.140625,218246.375,206372.6875,220944.0,1.0,3
219148.765625,231008.328125,246678.421875,243032.859375,205001.359375,222309.484375,218509.953125,206535.765625,220945.0,1.0,3
219491.734375,231711.0625,247098.546875,243627.328125,205592.421875,222512.15625,220347.53125,207058.53125,220946.0,1.0,3
219571.5625,231930.828125,247271.109375,243841.546875,205855.375,222560.265625,221264.3125,207227.765625,220947.0,1.0,3
219274.640625,231357.375,246953.171875,243370.8125,205418.265625,222385.203125,219962.546875,206802.8125,220948.0,1.0,3
219009.203125,230789.46875,246584.8125,242867.1875,204891.296875,222230.53125,218257.109375,206370.0,220949.0,1.0,3
219147.59375,231021.203125,246680.65625,243031.421875,205010.75,222322.4375,218514.59375,206536.125,220950.0,1.0,3
219478.5,231712.40625,247093.71875,243617.390625,205593.953125,222529.859375,220341.625,207057.0,220951.0,1.0,3
219552.53125,231929.125,247269.21875,243836.984375,205863.78125,222589.859375,221272.71875,207240.734375,220952.0,1.0,3
219247.640625,231345.125,246945.75,243363.03125,205423.984375,222416.234375,219975.0625,206818.375,220953.0,1.0,3
218980.140625,230773.71875,246575.0625,242857.796875,204898.359375,222259.140625,218268.734375,206384.65625,220954.0,1.0,3
219116.3125,230998.234375,246662.515625,243016.9375,205008.875,222340.6875,218507.171875,206549.0,220955.0,1.0,3
219466.96875,231708.921875,247089.515625,243619.625,205609.5,222556.15625,220351.640625,207079.890625,220956.0,1.0,3
219542.875,231928.6875,247262.34375,243838.953125,205877.71875,222604.609375,221294.171875,207258.609375,220957.0,1.0,3
219237.09375,231345.578125,246940.46875,243366.078125,205436.6875,222419.09375,220006.078125,206835.546875,220958.0,1.0,3
218972.984375,230771.671875,246570.59375,242856.984375,204901.578125,222257.625,218288.578125,206394.046875,220959.0,1.0,3
219117.109375,230998.234375,246662.6875,243015.15625,205009.40625,222331.296875,218513.703125,206547.296875,220960.0,1.0,3
219461.328125,231696.765625,247077.984375,243602.5625,205594.84375,222523.421875,220337.515625,207063.0,220961.0,1.0,3
219538.75,231916.4375,247250.71875,243820.796875,205857.78125,222564.828125,221280.765625,207235.734375,220962.0,1.0,3
219244.609375,231342.625,246937.53125,243357.671875,205421.84375,222386.09375,220003.046875,206813.546875,220963.0,1.0,3
218984.34375,230770.0625,246572.828125,242851.265625,204885.3125,222226.59375,218279.546875,206372.140625,220964.0,1.0,3
219128.46875,230996.890625,246664.828125,243006.65625,204989.734375,222307.515625,218492.15625,206522.890625,220965.0,1.0,3
219470.8125,231693.546875,247078.515625,243594.59375,205574.015625,222507.6875,220313.46875,207040.46875,220966.0,1.0,3
219560.21875,231927.34375,247262.078125,243826.78125,205850.546875,222556.859375,221276.828125,207224.1875,220967.0,1.0,3
219270.71875,231365.328125,246955.671875,243369.03125,205422.90625,222385.03125,220009.21875,206808.28125,220968.0,1.0,3
219002.84375,230784.0,246581.421875,242852.78125,204884.6875,222226.15625,218275.34375,206364.375,220969.0,1.0,3
219138.484375,230995.359375,246666.171875,243006.03125,204990.625,222312.78125,218477.046875,206518.328125,220970.0,1.0,3
219482.96875,231700.078125,247087.109375,243603.71875,205587.875,222525.03125,220307.390625,207047.34375,220971.0,1.0,3
219567.71875,231939.5,247275.03125,243844.046875,205879.421875,222591.46875,221291.578125,207247.984375,220972.0,1.0,3
219262.671875,231366.765625,246959.34375,243383.0625,205454.390625,222422.484375,220032.640625,206838.671875,220973.0,1.0,3
218989.96875,230781.328125,246581.859375,242868.875,204920.625,222267.453125,218297.078125,206397.625,220974.0,1.0,3
219113.09375,230977.65625,246650.4375,243004.421875,205008.25,222343.625,218471.859375,206538.265625,220975.0,1.0,3
219456.328125,231677.265625,247063.5,243593.875,205594.9375,222551.953125,220291.46875,207061.203125,220976.0,1.0,3
219547.96875,231926.09375,247254.296875,243837.34375,205885.421875,222615.703125,221290.421875,207261.828125,220977.0,1.0,3
219249.796875,231359.15625,246942.53125,243380.015625,205459.65625,222436.25,220044.890625,206845.734375,220978.0,1.0,3
218974.78125,230766.484375,246563.453125,242859.765625,204913.03125,222266.46875,218298.59375,206393.78125,220979.0,1.0,3
219107.71875,230970.6875,246640.25,242997.53125,204997.96875,222336.484375,218463.09375,206532.09375,220980.0,1.0,3
219460.34375,231676.203125,247059.46875,243590.3125,205582.5,222538.265625,220280.46875,207050.75,220981.0,1.0,3
219555.46875,231927.078125,247250.1875,243834.03125,205868.421875,222593.703125,221282.109375,207245.390625,220982.0,1.0,3
219260.78125,231362.921875,246944.046875,243380.015625,205444.109375,222418.109375,220045.328125,206832.765625,220983.0,1.0,3
218988.90625,230773.28125,246566.21875,242857.265625,204898.265625,222250.5625,218297.15625,206379.5625,220984.0,1.0,3
219124.265625,230980.4375,246647.046875,242995.578125,204984.109375,222320.5625,218450.9375,206517.4375,220985.0,1.0,3
219473.40625,231685.3125,247068.6875,243589.765625,205571.15625,222525.75,220267.15625,207037.875,220986.0,1.0,3
219571.65625,231940.671875,247268.328125,243842.171875,205867.53125,222583.515625,221282.546875,207237.15625,220987.0,1.0,3
219281.890625,231383.296875,246966.9375,243392.71875,205450.453125,222405.5,220055.96875,206827.9375,220988.0,1.0,3
219010.453125,230793.03125,246590.53125,242872.90625,204906.3125,222237.5,218305.921875,206375.71875,220989.0,1.0,3
219131.953125,230978.375,246658.484375,243001.46875,204983.03125,222305.8125,218440.484375,206504.109375,220990.0,1.0,3
219478.5,231680.671875,247078.34375,243597.453125,205574.71875,222515.5625,220255.984375,207025.71875,220991.0,1.0,3
219576.125,231943.4375,247279.859375,243851.828125,205879.421875,222579.9375,221287.28125,207234.484375,220992.0,1.0,3
219279.75,231383.84375,246975.96875,243400.859375,205466.28125,222406.125,220069.03125,206829.828125,220993.0,1.0,3
218998.734375,230789.46875,246594.296875,242874.78125,204924.828125,222245.28125,218317.984375,206381.09375,220994.0,1.0,3
219113.171875,230974.265625,246655.171875,242993.78125,205000.90625,222314.390625,218444.140625,206511.171875,220995.0,1.0,3
219452.828125,231670.484375,247066.1875,243582.265625,205583.390625,222522.359375,220254.015625,207034.296875,220996.0,1.0,3
219547.15625,231929.21875,247261.265625,243838.859375,205882.109375,222585.484375,221291.484375,207244.84375,220997.0,1.0,3
219251.9375,231370.515625,246953.53125,243389.5,205467.609375,222414.078125,220081.453125,206843.40625,220998.0,1.0,3
218978.171875,230779.8125,246574.078125,242863.703125,204923.484375,222250.015625,218326.671875,206392.359375,220999.0,1.0,3
219095.921875,230958.078125,246635.859375,242980.640625,204991.34375,222315.921875,218433.421875,206514.578125,221000.0,1.0,3
219445.0625,231664.75,247054.921875,243577.15625,205578.484375,222525.125,220241.84375,207036.53125,221001.0,1.0,3
219544.203125,231929.40625,247255.015625,243835.90625,205879.78125,222587.09375,221286.03125,207248.15625,221002.0,1.0,3
219251.21875,231371.765625,246952.359375,243386.453125,205460.1875,222405.328125,220083.25,206842.609375,221003.0,1.0,3
218979.78125,230779.890625,246570.515625,242860.390625,204906.046875,222236.078125,218319.875,206384.3125,221004.0,1.0,3
219101.46875,230958.703125,246627.546875,242975.71875,204968.375,222299.28125,218414.109375,206502.234375,221005.0,1.0,3
219448.359375,231657.78125,247042.84375,243564.46875,205548.0,222503.765625,220214.046875,207018.640625,221006.0,1.0,3
219555.296875,231929.046875,247252.78125,243827.5,205852.953125,222569.109375,221272.0,207231.4375,221007.0,1.0,3
219278.484375,231396.265625,246966.9375,243394.6875,205458.234375,222405.671875,220093.703125,206837.953125,221008.0,1.0,3
218994.265625,230794.921875,246582.40625,242865.484375,204910.515625,222235.625,218329.796875,206378.671875,221009.0,1.0,3
219108.625,230969.609375,246642.125,242980.28125,204976.234375,222301.25,218415.359375,206496.421875,221010.0,1.0,3
219450.78125,231663.421875,247054.640625,243570.8125,205560.875,222507.0625,220211.453125,207016.40625,221011.0,1.0,3
219557.0,231936.90625,247261.53125,243837.421875,205876.828125,222575.375,221284.421875,207235.015625,221012.0,1.0,3
219274.203125,231401.265625,246973.015625,243405.234375,205482.640625,222409.34375,220114.71875,206842.34375,221013.0,1.0,3
218993.46875,230796.171875,246589.28125,242876.390625,204935.375,222235.265625,218346.25,206386.09375,221014.0,1.0,3
219099.859375,230952.359375,246636.578125,242975.90625,204988.578125,222294.90625,218409.90625,206495.34375,221015.0,1.0,3
219438.625,231646.34375,247044.546875,243561.703125,205567.9375,222499.375,220206.265625,207015.34375,221016.0,1.0,3
219540.984375,231920.453125,247251.078125,243832.6875,205883.984375,222566.796875,221293.09375,207242.171875,221017.0,1.0,3
219253.015625,231375.53125,246955.765625,243395.40625,205482.546875,222394.234375,220128.9375,206847.25,221018.0,1.0,3
218964.046875,230760.3125,246558.34375,242852.078125,204915.34375,222220.25,218345.34375,206378.859375,221019.0,1.0,3
219077.328125,230927.328125,246608.328125,242957.9375,204969.265625,222286.140625,218402.125,206492.484375,221020.0,1.0,3
219423.0625,231628.28125,247022.375,243547.65625,205552.734375,222496.421875,220199.203125,207015.34375,221021.0,1.0,3
219534.734375,231911.96875,247233.90625,243820.0,205867.53125,222569.03125,221293.8125,207240.734375,221022.0,1.0,3
219255.609375,231379.28125,246947.453125,243390.65625,205467.703125,222402.1875,220137.6875,206849.046875,221023.0,1.0,3
218970.9375,230772.109375,246559.0625,242855.65625,204910.25,222234.375,218355.90625,206382.96875,221024.0,1.0,3
219076.875,230926.34375,246603.859375,242950.515625,204952.453125,222293.828125,218389.34375,206482.109375,221025.0,1.0,3
219424.5,231628.640625,247016.734375,243539.34375,205526.53125,222500.453125,220173.453125,206999.875,221026.0,1.0,3
219544.5625,231927.796875,247239.359375,243823.5625,205851.34375,222571.078125,221281.65625,207230.71875,221027.0,1.0,3
219267.3125,231397.421875,246956.75,243393.796875,205459.390625,222404.703125,220134.921875,206840.375,221028.0,1.0,3
218987.109375,230792.59375,246573.015625,242861.8125,204905.6875,222235.71875,218353.9375,206376.4375,221029.0,1.0,3
219093.859375,230943.875,246617.71875,242956.40625,204952.1875,222295.890625,218378.078125,206478.71875,221030.0,1.0,3
219446.75,231650.984375,247037.578125,243550.875,205541.109375,222506.890625,220165.859375,207002.734375,221031.0,1.0,3
219564.421875,231950.046875,247258.234375,243836.625,205874.15625,222579.578125,221282.015625,207236.359375,221032.0,1.0,3
219274.109375,231408.15625,246966.046875,243404.78125,205478.4375,222403.71875,220138.859375,206844.75,221033.0,1.0,3
218979.421875,230783.03125,246570.859375,242860.65625,204911.765625,222218.28125,218346.875,206375.8125,221034.0,1.0,3
219083.859375,230931.890625,246616.46875,242956.140625,204957.453125,222277.5625,218366.8125,206475.5,221035.0,1.0,3
219426.1875,231627.109375,247027.46875,243545.78125,205536.640625,222486.140625,220149.5,206997.09375,221036.0,1.0,3
219535.796875,231920.015625,247241.6875,243828.84375,205863.515625,222553.734375,221274.765625,207232.0625,221037.0,1.0,3
219253.8125,231388.9375,246954.0625,243402.1875,205474.953125,222389.046875,220153.78125,206849.125,221038.0,1.0,3
218968.421875,230773.375,246564.078125,242862.796875,204917.578125,222223.296875,218368.859375,206389.140625,221039.0,1.0,3
219066.15625,230909.0,246597.0625,242943.453125,204949.140625,222279.078125,218366.546875,206481.3125,221040.0,1.0,3
219412.421875,231606.546875,247004.3125,243528.96875,205524.125,222484.453125,220143.140625,206998.890625,221041.0,1.0,3
219534.46875,231912.234375,247230.25,243818.65625,205860.828125,222565.8125,221285.765625,207242.96875,221042.0,1.0,3
219254.890625,231385.625,246944.59375,243392.1875,205471.640625,222401.03125,220170.140625,206856.375,221043.0,1.0,3
218970.75,230770.5,246553.25,242849.484375,204908.546875,222229.375,218374.140625,206385.296875,221044.0,1.0,3
219075.53125,230912.84375,246599.296875,242937.09375,204946.109375,222292.484375,218366.09375,206479.171875,221045.0,1.0,3
219423.859375,231613.703125,247014.421875,243523.703125,205523.3125,222501.703125,220139.65625,206995.84375,221046.0,1.0,3
219552.96875,231933.328125,247247.671875,243823.65625,205864.578125,222580.296875,221291.578125,207239.484375,221047.0,1.0,3
219284.21875,231417.8125,246977.671875,243414.984375,205489.609375,222421.5,220192.859375,206866.75,221048.0,1.0,3
218997.578125,230806.0,246591.078125,242875.40625,204930.546875,222254.484375,218399.53125,206397.1875,221049.0,1.0,3
219093.0625,230934.75,246626.203125,242953.109375,204959.515625,222307.6875,218367.796875,206480.59375,221050.0,1.0,3
219438.703125,231630.328125,247037.03125,243540.328125,205539.859375,222514.125,220134.5625,206999.15625,221051.0,1.0,3
219564.6875,231945.765625,247267.25,243838.765625,205886.3125,222592.0,221292.390625,207246.640625,221052.0,1.0,3
219289.9375,231427.203125,246988.84375,243422.75,205509.8125,222427.859375,220198.40625,206868.09375,221053.0,1.0,3
219001.328125,230804.75,246592.328125,242877.375,204942.265625,222246.625,218393.359375,206393.96875,221054.0,1.0,3
219094.765625,230930.8125,246623.078125,242953.109375,204965.78125,222294.1875,218348.484375,206477.640625,221055.0,1.0,3
219434.78125,231617.734375,247025.765625,243533.359375,205533.859375,222493.390625,220104.515625,206992.265625,221056.0,1.0,3
219564.953125,231938.078125,247256.171875,243838.234375,205882.015625,222574.75,221278.96875,207248.78125,221057.0,1.0,3
219285.203125,231416.109375,246974.984375,243423.390625,205504.90625,222413.640625,220197.421875,206877.296875,221058.0,1.0,3
218984.078125,230783.203125,246570.421875,242871.109375,204930.8125,222234.734375,218386.296875,206401.203125,221059.0,1.0,3
219069.640625,230899.4375,246590.53125,242935.671875,204940.828125,222283.546875,218324.25,206476.21875,221060.0,1.0,3
219410.90625,231593.765625,246994.390625,243517.53125,205513.03125,222487.390625,220085.65625,206990.9375,221061.0,1.0,3
219537.59375,231909.90625,247223.8125,243820.265625,205857.25,222563.03125,221267.34375,207243.0625,221062.0,1.0,3
219264.1875,231394.75,246948.875,243409.078125,205480.3125,222403.71875,220198.125,206869.78125,221063.0,1.0,3
218974.0625,230775.515625,246553.4375,242859.21875,204914.1875,222228.921875,218393.1875,206393.6875,221064.0,1.0,3
219064.890625,230895.59375,246577.84375,242923.234375,204930.09375,222280.421875,218322.8125,206470.3125,221065.0,1.0,3
219417.15625,231596.09375,246992.953125,243511.625,205509.375,222492.40625,220084.859375,206992.0,221066.0,1.0,3
219550.375,231923.859375,247232.921875,243819.453125,205861.8125,222576.53125,221275.75,207245.828125,221067.0,1.0,3
219276.796875,231413.34375,246962.5625,243412.75,205489.34375,222411.578125,220211.984375,206870.234375,221068.0,1.0,3
218987.296875,230788.75,246570.953125,242865.65625,204920.796875,222229.1875,218399.625,206391.90625,221069.0,1.0,3
219077.59375,230905.25,246597.6875,242928.0625,204935.375,222280.15625,218315.21875,206463.703125,221070.0,1.0,3
219429.40625,231607.71875,247011.734375,243518.515625,205517.765625,222492.578125,220071.984375,206982.4375,221071.0,1.0,3
219565.9375,231939.6875,247256.53125,243833.9375,205879.328125,222581.1875,221275.3125,207244.765625,221072.0,1.0,3
219300.671875,231440.609375,246996.171875,243436.53125,205521.53125,222422.046875,220230.671875,206881.59375,221073.0,1.0,3
219002.046875,230806.71875,246597.234375,242882.828125,204947.796875,222237.140625,218413.03125,206396.28125,221074.0,1.0,3
219085.90625,230910.875,246613.875,242939.78125,204955.21875,222284.984375,218315.671875,206462.984375,221075.0,1.0,3
219428.875,231604.234375,247021.125,243524.5,205531.359375,222489.09375,220067.6875,206981.015625,221076.0,1.0,3
219559.765625,231941.109375,247259.5625,243840.109375,205889.703125,222567.78125,221276.734375,207242.171875,221077.0,1.0,3
219291.09375,231440.875,246996.0,243446.8125,205536.015625,222419.8125,220248.640625,206886.234375,221078.0,1.0,3
218989.625,230804.296875,246590.625,242890.25,204960.859375,222241.703125,218430.28125,206403.625,221079.0,1.0,3
219069.8125,230907.203125,246603.046875,242938.796875,204958.890625,222283.109375,218316.921875,206467.1875,221080.0,1.0,3
219416.890625,231602.171875,247012.359375,243520.390625,205530.921875,222493.921875,220067.953125,206984.859375,221081.0,1.0,3
219553.953125,231938.515625,247253.3125,243838.5,205891.40625,222585.203125,221291.3125,207254.859375,221082.0,1.0,3
219281.703125,231433.8125,246983.5625,243437.78125,205524.296875,222427.3125,220261.34375,206893.84375,221083.0,1.0,3
218975.484375,230787.9375,246572.125,242874.609375,204938.859375,222239.921875,218434.9375,206407.734375,221084.0,1.0,3
219051.3125,230879.21875,246577.65625,242917.515625,204929.390625,222279.609375,218309.40625,206468.078125,221085.0,1.0,3
219399.015625,231571.765625,246981.6875,243493.921875,205492.375,222481.3125,220048.375,206978.6875,221086.0,1.0,3
219540.71875,231912.59375,247226.21875,243815.609375,205853.3125,222565.8125,221278.34375,207246.90625,221087.0,1.0,3
219273.390625,231413.4375,246963.1875,243417.578125,205491.9375,222404.34375,220256.15625,206884.625,221088.0,1.0,3
218973.703125,230774.984375,246561.203125,242857.4375,204913.5625,222216.140625,218423.84375,206392.53125,221089.0,1.0,3
219054.609375,230874.390625,246573.109375,242902.859375,204909.0,222257.0,218283.03125,206446.171875,221090.0,1.0,3
219403.03125,231565.78125,246976.15625,243481.5,205474.40625,222459.40625,220008.953125,206954.90625,221091.0,1.0,3
219551.1875,231921.890625,247231.9375,243814.265625,205853.671875,222554.09375,221255.09375,207230.8125,221092.0,1.0,3
219291.28125,231439.0,246978.828125,243427.140625,205508.75,222401.5625,220251.6875,206875.5,221093.0,1.0,3
219002.3125,230814.5,246589.46875,242881.9375,204947.890625,222230.984375,218437.53125,206397.890625,221094.0,1.0,3
219074.28125,230893.890625,246594.5625,242918.234375,204933.140625,222272.28125,218278.390625,206447.25,221095.0,1.0,3
219414.03125,231580.890625,246997.34375,243497.5,205499.625,222475.859375,220006.71875,206954.28125,221096.0,1.0,3
219563.515625,231941.296875,247252.5,243833.84375,205878.171875,222571.96875,221264.484375,207234.921875,221097.0,1.0,3
219306.203125,231457.953125,246999.75,243451.375,205535.296875,222420.703125,220275.375,206887.40625,221098.0,1.0,3
219005.0,230820.03125,246600.90625,242896.328125,204966.046875,222244.125,218453.625,206404.78125,221099.0,1.0,3
219070.890625,230897.375,246599.125,242928.0625,204949.953125,222286.5,218288.578125,206455.109375,221100.0,1.0,3
219409.46875,231582.953125,246997.15625,243505.09375,205515.0,222489.625,220014.484375,206971.171875,221101.0,1.0,3
219559.234375,231938.78125,247249.734375,243838.40625,205890.515625,222583.421875,221280.140625,207255.125,221102.0,1.0,3
219301.109375,231455.359375,246995.1875,243455.03125,205545.84375,222435.359375,220300.5,206909.125,221103.0,1.0,3
218993.734375,230799.296875,246586.421875,242888.46875,204959.515625,222244.390625,218461.484375,206417.296875,221104.0,1.0,3
219066.328125,230874.9375,246584.546875,242914.921875,204935.90625,222280.78125,218277.40625,206460.65625,221105.0,1.0,3
219409.921875,231563.546875,246980.4375,243489.90625,205495.25,222483.375,219997.328125,206971.703125,221106.0,1.0,3
219560.125,231926.265625,247231.859375,243829.734375,205872.359375,222576.359375,221271.46875,207253.609375,221107.0,1.0,3
219305.84375,231453.21875,246982.578125,243453.6875,205534.671875,222429.46875,220309.171875,206910.015625,221108.0,1.0,3
219002.9375,230804.578125,246572.828125,242883.546875,204943.0625,222241.703125,218464.4375,206415.328125,221109.0,1.0,3
219070.890625,230872.515625,246568.28125,242907.234375,204911.59375,222274.515625,218263.09375,206450.828125,221110.0,1.0,3
219415.640625,231558.8125,246975.34375,243484.8125,205474.859375,222479.34375,219975.6875,206959.453125,221111.0,1.0,3
219575.59375,231932.0,247242.765625,243830.90625,205864.046875,222581.984375,221262.609375,207249.046875,221112.0,1.0,3
219324.984375,231466.890625,247001.0,243458.078125,205532.796875,222438.84375,220307.65625,206907.6875,221113.0,1.0,3
219016.53125,230820.125,246597.515625,242894.453125,204954.15625,222259.40625,218470.34375,206417.75,221114.0,1.0,3
219074.28125,230877.4375,246581.59375,242908.671875,204915.53125,222291.78125,218250.125,206445.8125,221115.0,1.0,3
219420.828125,231572.046875,246988.390625,243487.9375,205484.6875,222500.546875,219963.796875,206955.796875,221116.0,1.0,3
219580.6875,231952.28125,247257.515625,243837.0625,205880.859375,222598.4375,221260.203125,207249.140625,221117.0,1.0,3
219327.3125,231486.921875,247016.03125,243465.140625,205550.9375,222448.234375,220314.890625,206910.203125,221118.0,1.0,3
219019.21875,230837.03125,246613.875,242903.390625,204973.015625,222265.125,218480.09375,206421.59375,221119.0,1.0,3
219075.625,230891.46875,246600.453125,242916.0,204933.59375,222293.109375,218256.5625,206451.09375,221120.0,1.0,3
219411.703125,231573.65625,246994.75,243485.515625,205487.015625,222489.28125,219961.46875,206955.890625,221121.0,1.0,3
219566.203125,231952.5625,247257.609375,243837.0625,205878.53125,222583.515625,221274.140625,207250.75,221122.0,1.0,3
219301.46875,231472.265625,247003.328125,243461.5625,205543.4375,222427.9375,220343.421875,206908.59375,221123.0,1.0,3
218991.578125,230821.921875,246592.0625,242894.546875,204961.578125,222238.578125,218511.375,206415.78125,221124.0,1.0,3
219041.390625,230865.71875,246566.03125,242897.484375,204914.8125,222270.234375,218271.140625,206439.921875,221125.0,1.0,3
219378.1875,231545.578125,246953.96875,243463.890625,205466.984375,222477.65625,219970.765625,206948.109375,221126.0,1.0,3
219535.359375,231922.96875,247216.921875,243814.890625,205861.359375,222580.46875,221291.125,207247.4375,221127.0,1.0,3
219283.671875,231453.21875,246969.265625,243444.125,205529.75,222434.46875,220367.734375,206907.6875,221128.0,1.0,3
218983.71875,230808.421875,246565.328125,242879.78125,204949.953125,222253.15625,218533.546875,206415.78125,221129.0,1.0,3
219039.0625,230847.84375,246544.9375,242884.703125,204897.828125,222285.25,218278.03125,206437.0625,221130.0,1.0,3
219382.296875,231528.234375,246938.59375,243455.125,205446.34375,222487.046875,219967.1875,206943.09375,221131.0,1.0,3
219549.65625,231917.15625,247209.953125,243817.9375,205841.96875,222589.765625,221292.5625,207242.4375,221132.0,1.0,3
219306.75,231465.640625,246977.671875,243462.71875,205524.5625,222442.421875,220386.328125,206912.796875,221133.0,1.0,3
218997.390625,230811.8125,246569.703125,242893.828125,204940.296875,222247.25,218535.609375,206413.28125,221134.0,1.0,3
219051.390625,230852.578125,246548.0625,242891.328125,204886.03125,222268.703125,218259.34375,206428.390625,221135.0,1.0,3
219397.9375,231539.765625,246947.8125,243466.5625,205441.0625,222465.84375,219946.625,206936.65625,221136.0,1.0,3
219568.96875,231937.625,247223.1875,243832.421875,205843.84375,222562.953125,221277.453125,207240.828125,221137.0,1.0,3
219330.34375,231495.59375,246994.484375,243481.671875,205536.1875,222416.40625,220379.625,206917.34375,221138.0,1.0,3
219021.984375,230844.890625,246591.703125,242919.21875,204962.015625,222224.265625,218532.84375,206424.0,221139.0,1.0,3
219068.46875,230871.890625,246566.390625,242917.25,204906.140625,222244.203125,218241.734375,206436.078125,221140.0,1.0,3
219408.84375,231548.171875,246958.984375,243487.671875,205456.703125,222446.0,219911.5,206938.546875,221141.0,1.0,3
219581.140625,231949.15625,247237.390625,243859.78125,205867.359375,222553.109375,221254.921875,207251.109375,221142.0,1.0,3
219337.765625,231496.9375,247007.4375,243509.484375,205559.265625,222413.8125,220373.90625,206933.265625,221143.0,1.0,3
219022.078125,230837.03125,246597.234375,242940.765625,204974.8125,222226.421875,218524.875,206440.1875,221144.0,1.0,3
219064.1875,230864.296875,246565.5,242930.390625,204915.796875,222254.671875,218226.34375,206452.515625,221145.0,1.0,3
219407.0625,231549.875,246958.71875,243499.734375,205471.546875,222465.21875,219907.734375,206960.890625,221146.0,1.0,3
219578.984375,231949.609375,247235.15625,243868.890625,205882.46875,222583.6875,221267.625,207276.140625,221147.0,1.0,3
219326.234375,231488.625,246994.296875,243507.515625,205566.234375,222443.953125,220389.1875,206949.359375,221148.0,1.0,3
219010.8125,230831.65625,246580.34375,242931.375,204977.9375,222260.296875,218539.09375,206451.265625,221149.0,1.0,3
219053.1875,230862.328125,246552.1875,242916.796875,204917.765625,222293.5625,218236.359375,206460.390625,221150.0,1.0,3
219387.75,231530.375,246940.46875,243472.734375,205460.46875,222494.734375,219903.71875,206956.875,221151.0,1.0,3
219562.53125,231932.890625,247219.78125,243840.640625,205869.140625,222599.78125,221267.078125,207265.40625,221152.0,1.0,3
219321.671875,231492.640625,246995.015625,243494.015625,205563.546875,222460.390625,220407.25,206942.03125,221153.0,1.0,3
219004.09375,230831.296875,246586.6875,242918.5,204975.4375,222270.3125,218553.046875,206439.109375,221154.0,1.0,3
219045.59375,230855.796875,246555.3125,242899.90625,204908.109375,222291.234375,218231.359375,206441.078125,221155.0,1.0,3
219385.875,231532.875,246951.296875,243463.609375,205457.15625,222491.421875,219897.90625,206941.046875,221156.0,1.0,3
219562.53125,231942.984375,247237.390625,243836.171875,205869.953125,222593.875,221264.9375,207252.53125,221157.0,1.0,3
219322.125,231507.578125,247013.609375,243489.1875,205564.625,222445.5625,220409.484375,206930.046875,221158.0,1.0,3
219006.15625,230846.40625,246607.53125,242915.546875,204975.875,222251.546875,218559.03125,206428.734375,221159.0,1.0,3
219046.390625,230862.5,246573.1875,242893.828125,204908.828125,222269.15625,218226.703125,206429.1875,221160.0,1.0,3
219389.359375,231542.890625,246966.40625,243460.390625,205461.53125,222468.078125,219887.078125,206931.125,221161.0,1.0,3
219566.65625,231956.140625,247249.5625,243839.21875,205880.859375,222576.53125,221265.109375,207248.953125,221162.0,1.0,3
219328.65625,231518.390625,247025.328125,243496.78125,205580.265625,222435.453125,220424.328125,206933.0,221163.0,1.0,3
219018.578125,230856.34375,246614.765625,242924.9375,204996.4375,222246.171875,218572.625,206434.546875,221164.0,1.0,3
219061.859375,230871.453125,246578.734375,242905.53125,204924.828125,222263.796875,218226.53125,206433.84375,221165.0,1.0,3
219398.296875,231538.421875,246965.859375,243467.015625,205465.015625,222464.0625,219876.359375,206931.296875,221166.0,1.0,3
219574.421875,231952.375,247250.1875,243845.734375,205880.59375,222573.234375,221264.484375,207251.28125,221167.0,1.0,3
219334.734375,231518.75,247025.6875,243507.0625,205581.4375,222437.78125,220434.4375,206940.328125,221168.0,1.0,3
219015.1875,230849.1875,246607.078125,242928.34375,204989.28125,222249.21875,218576.375,206436.15625,221169.0,1.0,3
219050.140625,230857.140625,246561.03125,242896.953125,204909.8125,222274.34375,218214.8125,206427.84375,221170.0,1.0,3
219390.078125,231533.78125,246952.453125,243459.59375,205456.171875,222483.546875,219864.640625,206931.390625,221171.0,1.0,3
219565.125,231950.140625,247239.0,243841.359375,205878.171875,222595.578125,221260.734375,207255.9375,221172.0,1.0,3
219326.6875,231520.546875,247017.546875,243502.859375,205585.453125,222459.0625,220444.359375,206948.375,221173.0,1.0,3
219011.171875,230857.59375,246604.03125,242924.21875,204992.421875,222267.640625,218586.484375,206443.046875,221174.0,1.0,3
219040.671875,230857.140625,246552.265625,242888.375,204904.359375,222280.515625,218207.9375,206428.921875,221175.0,1.0,3
219376.921875,231527.25,246936.09375,243443.5,205441.0625,222477.46875,219846.84375,206926.5625,221176.0,1.0,3
219557.078125,231945.765625,247225.421875,243828.046875,205864.40625,222587.53125,221252.6875,207251.109375,221177.0,1.0,3
219326.859375,231520.625,247010.75,243498.84375,205576.6875,222453.15625,220448.375,206942.296875,221178.0,1.0,3
219009.203125,230854.453125,246599.203125,242919.671875,204987.59375,222262.53125,218586.921875,206437.140625,221179.0,1.0,3
219036.203125,230847.9375,246552.453125,242879.96875,204899.96875,222279.703125,218195.59375,206419.796875,221180.0,1.0,3
219379.515625,231525.375,246944.671875,243444.484375,205446.15625,222489.1875,219834.875,206920.03125,221181.0,1.0,3
219566.5625,231958.640625,247241.0625,243839.390625,205879.609375,222603.984375,221252.78125,207250.125,221182.0,1.0,3
219333.03125,231530.015625,247023.359375,243507.515625,205592.15625,222460.03125,220455.171875,206942.65625,221183.0,1.0,3
219016.078125,230857.671875,246608.78125,242928.6875,205005.203125,222260.578125,218590.765625,206437.859375,221184.0,1.0,3
219042.09375,230843.375,246556.375,242883.546875,204906.40625,222266.5625,218180.75,206416.671875,221185.0,1.0,3
219382.03125,231511.328125,246943.96875,243442.78125,205443.46875,222461.640625,219809.21875,206913.234375,221186.0,1.0,3
219576.03125,231948.171875,247244.734375,243845.03125,205881.578125,222579.484375,221239.0,207252.359375,221187.0,1.0,3
219341.078125,231523.578125,247028.984375,243517.171875,205593.59375,222440.09375,220453.921875,206949.71875,221188.0,1.0,3
219018.234375,230851.234375,246612.171875,242932.984375,204994.921875,222242.25,218586.578125,206439.921875,221189.0,1.0,3
219041.65625,230837.296875,246556.109375,242884.265625,204895.859375,222251.09375,218171.8125,206415.421875,221190.0,1.0,3
219381.3125,231505.4375,246940.390625,243438.40625,205433.375,222452.703125,219796.875,206911.71875,221191.0,1.0,3
219571.03125,231942.546875,247239.1875,243839.03125,205870.9375,222569.03125,221236.0625,207252.8125,221192.0,1.0,3
219340.265625,231527.421875,247027.296875,243515.5625,205586.890625,222430.171875,220468.234375,206955.703125,221193.0,1.0,3
219016.625,230854.109375,246611.546875,242933.4375,204992.953125,222239.296875,218605.4375,206446.4375,221194.0,1.0,3
219037.1875,230832.734375,246551.28125,242878.984375,204888.703125,222256.453125,218172.96875,206418.015625,221195.0,1.0,3
219378.359375,231505.875,246936.09375,243433.578125,205423.8125,222466.296875,219793.5625,206913.421875,221196.0,1.0,3
219572.640625,231951.21875,247239.90625,243839.75,205868.515625,222593.609375,221241.875,207259.515625,221197.0,1.0,3
219348.3125,231545.21875,247036.234375,243524.40625,205597.34375,222467.1875,220488.609375,206965.453125,221198.0,1.0,3
219024.671875,230869.484375,246618.078125,242938.0,205001.984375,222275.40625,218619.734375,206453.59375,221199.0,1.0,3
219036.109375,230842.03125,246553.796875,242876.125,204893.171875,222281.9375,218170.375,206414.703125,221200.0,1.0,3
219374.25,231511.875,246940.828125,243428.84375,205429.890625,222494.546875,219785.703125,206908.40625,221201.0,1.0,3
219569.78125,231957.921875,247246.15625,243834.921875,205878.4375,222622.140625,221243.75,207256.203125,221202.0,1.0,3
219345.375,231550.21875,247042.125,243519.3125,205608.875,222486.140625,220500.234375,206962.234375,221203.0,1.0,3
219023.234375,230873.765625,246624.6875,242933.796875,205012.796875,222281.9375,218631.625,206447.25,221204.0,1.0,3
219040.21875,230842.390625,246560.671875,242872.09375,204901.140625,222285.15625,218172.4375,206407.734375,221205.0,1.0,3
219378.890625,231503.734375,246942.078125,243426.421875,205430.78125,222483.28125,219778.71875,206896.78125,221206.0,1.0,3
219578.265625,231949.78125,247248.03125,243837.96875,205878.359375,222602.734375,221240.078125,207243.6875,221207.0,1.0,3
219357.609375,231548.96875,247048.296875,243532.109375,205613.890625,222470.40625,220509.265625,206959.109375,221208.0,1.0,3
219036.734375,230872.96875,246634.609375,242952.390625,205021.46875,222272.828125,218643.078125,206453.421875,221209.0,1.0,3
219048.09375,230832.5625,246566.3125,242886.765625,204908.109375,222276.84375,218168.5,206412.640625,221210.0,1.0,3
219384.4375,231496.484375,246946.46875,243437.234375,205441.0625,222474.96875,219768.4375,206906.53125,221211.0,1.0,3
219578.453125,231940.84375,247243.75,243841.359375,205879.25,222592.1875,221231.40625,207253.34375,221212.0,1.0,3
219355.03125,231544.0625,247042.21875,243532.640625,205613.34375,222460.3125,220511.6875,206971.265625,221213.0,1.0,3
219031.546875,230870.375,246624.953125,242948.8125,205022.8125,222266.65625,218648.703125,206464.953125,221214.0,1.0,3
219041.03125,230825.5,246547.984375,242876.5625,204896.03125,222266.734375,218157.953125,206418.734375,221215.0,1.0,3
219374.25,231481.921875,246921.796875,243420.703125,205413.078125,222461.015625,219744.921875,206902.953125,221216.0,1.0,3
219574.96875,231935.484375,247225.765625,243830.625,205857.4375,222580.46875,221214.875,207250.125,221217.0,1.0,3
219364.5,231554.15625,247038.46875,243537.109375,205609.140625,222460.3125,220516.59375,206976.359375,221218.0,1.0,3
219040.9375,230877.34375,246622.359375,242951.671875,205017.09375,222268.890625,218650.765625,206468.265625,221219.0,1.0,3
219047.203125,230826.75,246546.453125,242875.234375,204889.15625,222271.84375,218151.875,206415.515625,221220.0,1.0,3
219380.421875,231485.40625,246923.9375,243419.71875,205411.5625,222469.421875,219735.0,206902.234375,221221.0,1.0,3
219582.828125,231947.734375,247235.078125,243835.546875,205862.96875,222588.875,221214.234375,207255.484375,221222.0,1.0,3
219364.765625,231561.046875,247043.734375,243535.953125,205607.8125,222464.859375,220517.578125,206977.703125,221223.0,1.0,3
219035.484375,230882.625,246624.78125,242946.3125,205010.484375,222269.6875,218647.09375,206464.328125,221224.0,1.0,3
219038.25,230828.359375,246544.671875,242866.5625,204882.171875,222270.234375,218135.953125,206411.21875,221225.0,1.0,3
219367.8125,231486.125,246919.546875,243410.59375,205406.734375,222473.890625,219718.1875,206898.75,221226.0,1.0,3
219571.296875,231952.921875,247234.53125,243830.71875,205867.09375,222600.671875,221213.171875,207253.609375,221227.0,1.0,3
219355.296875,231568.203125,247044.8125,243535.234375,205618.359375,222476.765625,220532.25,206979.3125,221228.0,1.0,3
219024.671875,230882.0,246623.171875,242945.40625,205020.140625,222284.4375,218664.0,206466.109375,221229.0,1.0,3
219021.796875,230821.015625,246540.921875,242860.484375,204888.703125,222287.578125,218144.453125,206409.875,221230.0,1.0,3
219350.109375,231470.828125,246909.265625,243400.234375,205408.875,222485.96875,219716.671875,206895.09375,221231.0,1.0,3
219555.03125,231937.625,247223.8125,243824.109375,205869.671875,222612.75,221220.40625,207256.203125,221232.0,1.0,3
219340.265625,231553.4375,247034.4375,243528.796875,205621.21875,222484.71875,220550.390625,206983.515625,221233.0,1.0,3
219012.5,230868.59375,246615.84375,242939.6875,205026.390625,222283.453125,218684.375,206470.859375,221234.0,1.0,3
219013.046875,230803.140625,246535.8125,242854.21875,204891.390625,222279.265625,218151.515625,206412.203125,221235.0,1.0,3
219350.828125,231461.09375,246914.453125,243398.890625,205413.25,222478.546875,219722.671875,206895.890625,221236.0,1.0,3
219559.765625,231928.234375,247227.203125,243819.546875,205869.671875,222602.375,221223.546875,207254.765625,221237.0,1.0,3
219350.109375,231549.421875,247039.0,243528.171875,205621.125,222474.875,220556.65625,206984.234375,221238.0,1.0,3
219024.3125,230869.65625,246621.828125,242940.5,205021.65625,222274.078125,218685.28125,206468.703125,221239.0,1.0,3
219027.890625,230806.8125,246539.3125,242850.46875,204881.734375,222266.296875,218136.859375,206405.234375,221240.0,1.0,3
219364.140625,231463.859375,246915.984375,243393.609375,205401.90625,222461.734375,219699.859375,206890.171875,221241.0,1.0,3
219570.5,231934.046875,247231.40625,243819.015625,205859.84375,222583.234375,221208.078125,207250.21875,221242.0,1.0,3
219360.828125,231556.125,247045.890625,243529.953125,205610.484375,222453.953125,220551.109375,206980.375,221243.0,1.0,3
219036.734375,230876.359375,246628.359375,242944.078125,205016.203125,222258.34375,218684.296875,206467.359375,221244.0,1.0,3
219033.15625,230804.65625,246537.078125,242845.28125,204867.609375,222247.96875,218121.65625,206398.15625,221245.0,1.0,3
219363.609375,231454.828125,246903.640625,243379.125,205376.421875,222436.609375,219666.96875,206873.359375,221246.0,1.0,3
219578.546875,231935.03125,247224.078125,243810.875,205842.234375,222563.75,221186.34375,207239.21875,221247.0,1.0,3
219368.875,231561.21875,247037.390625,243525.21875,205598.859375,222440.375,220538.234375,206970.90625,221248.0,1.0,3
219045.671875,230886.109375,246623.265625,242943.265625,205011.46875,222255.75,218677.3125,206462.09375,221249.0,1.0,3
219039.5,230812.53125,246533.3125,242847.515625,204867.15625,222258.6875,218109.9375,206396.640625,221250.0,1.0,3
219371.5625,231467.25,246906.234375,243388.515625,205385.0,222465.671875,219665.359375,206879.359375,221251.0,1.0,3
219576.75,231942.984375,247223.09375,243818.921875,205851.0,222599.328125,221189.5625,207246.375,221252.0,1.0,3
219369.15625,231576.78125,247046.0625,243543.453125,205622.296875,222487.578125,220569.796875,206993.25,221253.0,1.0,3
219040.765625,230894.421875,246629.25,242959.453125,205032.109375,222294.015625,218709.6875,206486.59375,221254.0,1.0,3
219030.65625,230814.234375,246536.890625,242858.0625,204887.640625,222287.9375,218133.453125,206413.625,221255.0,1.0,3
219357.171875,231457.328125,246903.015625,243389.9375,205403.875,222484.0,219676.359375,206892.765625,221256.0,1.0,3
219569.78125,231938.875,247226.046875,243825.625,205878.265625,222615.515625,221211.921875,207264.78125,221257.0,1.0,3
219361.90625,231572.046875,247046.59375,243546.234375,205643.5625,222493.75,220592.328125,207005.0625,221258.0,1.0,3
219032.359375,230887.265625,246630.328125,242960.25,205051.78125,222292.046875,218728.1875,206490.25,221259.0,1.0,3
219017.953125,230798.671875,246530.1875,242848.671875,204890.5,222274.78125,218131.125,206411.03125,221260.0,1.0,3
219345.8125,231441.59375,246893.890625,243377.78125,205393.234375,222464.78125,219663.5625,206884.0,221261.0,1.0,3
219565.125,231925.640625,247218.265625,243815.4375,205865.828125,222596.5625,221206.1875,207255.84375,221262.0,1.0,3
219364.859375,231568.734375,247046.953125,243544.4375,205637.9375,222475.953125,220603.59375,206998.078125,221263.0,1.0,3
219037.09375,230880.484375,246631.21875,242954.796875,205042.125,222276.84375,218734.546875,206479.96875,221264.0,1.0,3
219021.796875,230784.09375,246525.625,242835.4375,204874.578125,222256.375,218114.6875,206390.75,221265.0,1.0,3
219355.46875,231433.015625,246889.515625,243363.921875,205376.328125,222449.84375,219637.734375,206863.53125,221266.0,1.0,3
219576.65625,231924.21875,247216.203125,243803.71875,205848.84375,222581.453125,221186.171875,207237.96875,221267.0,1.0,3
219382.296875,231576.328125,247054.109375,243540.5,205630.34375,222468.890625,220601.625,206989.859375,221268.0,1.0,3
219053.625,230885.84375,246634.34375,242948.28125,205028.625,222260.03125,218727.46875,206467.546875,221269.0,1.0,3
219046.125,230797.6875,246534.75,242835.53125,204864.921875,222248.234375,218104.40625,206382.34375,221270.0,1.0,3
219380.953125,231448.21875,246903.453125,243371.171875,205375.078125,222447.515625,219627.0,206863.171875,221271.0,1.0,3
219601.96875,231947.015625,247231.859375,243813.5625,205850.640625,222580.109375,221178.203125,207239.390625,221272.0,1.0,3
219396.515625,231593.234375,247062.609375,243545.6875,205626.140625,222462.546875,220595.09375,206986.90625,221273.0,1.0,3
219065.25,230906.765625,246646.5,242959.546875,205032.734375,222268.0,218728.109375,206474.34375,221274.0,1.0,3
219046.921875,230809.75,246541.265625,242843.484375,204867.25,222258.609375,218092.15625,206390.203125,221275.0,1.0,3
219370.3125,231448.75,246903.546875,243373.40625,205373.203125,222453.15625,219607.59375,206867.734375,221276.0,1.0,3
219585.96875,231944.234375,247229.890625,243820.4375,205859.046875,222589.671875,221172.21875,207252.8125,221277.0,1.0,3
219378.0,231595.203125,247057.78125,243558.203125,205647.140625,222473.890625,220607.34375,207011.140625,221278.0,1.0,3
219037.625,230900.765625,246638.28125,242967.234375,205055.265625,222278.625,218744.546875,206497.859375,221279.0,1.0,3
219015.1875,230793.125,246530.453125,242845.09375,204886.5625,222269.15625,218104.578125,206410.140625,221280.0,1.0,3
219338.390625,231430.515625,246891.03125,243372.328125,205387.59375,222462.28125,219611.796875,206882.84375,221281.0,1.0,3
219561.28125,231929.40625,247220.59375,243820.265625,205868.609375,222599.0625,221183.484375,207264.703125,221282.0,1.0,3
219367.984375,231590.28125,247057.234375,243562.234375,205657.34375,222488.203125,220632.203125,207020.796875,221283.0,1.0,3
219033.609375,230899.609375,246637.296875,242969.109375,205061.265625,222290.609375,218769.9375,206500.53125,221284.0,1.0,3
219004.546875,230783.03125,246518.75,242831.15625,204876.8125,222268.171875,218108.875,206398.875,221285.0,1.0,3
219330.078125,231416.203125,246874.765625,243351.40625,205370.703125,222458.515625,219607.15625,206864.6875,221286.0,1.0,3
219561.375,231924.65625,247210.9375,243802.015625,205853.140625,222595.765625,221185.546875,207245.109375,221287.0,1.0,3
219367.453125,231586.34375,247048.203125,243545.6875,205639.71875,222479.078125,220641.59375,206999.875,221288.0,1.0,3
219033.875,230892.453125,246624.78125,242951.046875,205037.65625,222270.578125,218770.75,206477.828125,221289.0,1.0,3
219010.71875,230773.375,246506.765625,242812.5625,204845.96875,222241.703125,218089.921875,206370.453125,221290.0,1.0,3
219341.34375,231413.078125,246866.53125,243335.9375,205340.296875,222430.4375,219579.875,206835.28125,221291.0,1.0,3
219575.953125,231926.1875,247205.921875,243792.546875,205829.890625,222571.34375,221161.671875,207222.9375,221292.0,1.0,3
219387.84375,231594.578125,247052.140625,243543.90625,205626.3125,222456.46875,220628.890625,206984.234375,221293.0,1.0,3
219059.0,230907.75,246633.984375,242953.1875,205030.421875,222252.875,218762.53125,206464.0625,221294.0,1.0,3
219025.46875,230782.9375,246511.59375,242810.140625,204841.5,222227.9375,218070.0625,206356.953125,221295.0,1.0,3
219354.125,231422.546875,246877.984375,243340.765625,205346.5625,222428.390625,219564.59375,206836.609375,221296.0,1.0,3
219586.40625,231936.546875,247218.171875,243802.015625,205844.203125,222573.140625,221158.90625,207235.8125,221297.0,1.0,3
219394.1875,231609.953125,247062.875,243557.40625,205646.4375,222462.28125,220641.046875,207006.40625,221298.0,1.0,3
219053.984375,230913.921875,246637.921875,242963.390625,205049.90625,222264.328125,218775.484375,206488.203125,221299.0,1.0,3
219016.078125,230782.9375,246515.703125,242822.84375,204865.453125,222249.03125,218085.0,206387.796875,221300.0,1.0,3
219339.640625,231414.5,246872.703125,243344.34375,205363.375,222452.4375,219567.09375,206862.8125,221301.0,1.0,3
219569.515625,231929.671875,247212.1875,243805.0625,205856.71875,222599.515625,221163.375,207257.90625,221302.0,1.0,3
219378.890625,231605.125,247060.109375,243563.03125,205661.984375,222490.703125,220657.6875,207029.5625,221303.0,1.0,3
219038.25,230908.1875,246637.125,242967.9375,205065.640625,222289.0,218793.546875,206508.140625,221304.0,1.0,3
219000.4375,230776.765625,246508.28125,242821.578125,204872.515625,222266.46875,218087.765625,206398.34375,221305.0,1.0,3
219328.921875,231413.25,246865.734375,243344.703125,205369.0,222461.375,219566.109375,206868.625,221306.0,1.0,3
219564.6875,231933.25,247207.625,243808.1875,205861.28125,222603.09375,221170.609375,207260.3125,221307.0,1.0,3
219375.5,231609.234375,247055.984375,243564.109375,205663.234375,222490.265625,220672.53125,207028.9375,221308.0,1.0,3
219039.859375,230915.078125,246634.796875,242968.21875,205063.140625,222285.78125,218807.3125,206505.625,221309.0,1.0,3
219005.078125,230777.484375,246509.4375,242818.90625,204865.1875,222256.90625,218088.578125,206387.609375,221310.0,1.0,3
219328.921875,231405.296875,246860.1875,243329.953125,205346.46875,222440.90625,219551.71875,206845.375,221311.0,1.0,3
219565.84375,231926.71875,247206.734375,243793.53125,205839.546875,222582.53125,221162.5625,207238.765625,221312.0,1.0,3
219387.03125,231612.0,247064.84375,243558.75,205647.5,222472.203125,220679.5,207012.21875,221313.0,1.0,3
219056.140625,230923.03125,246647.125,242968.03125,205050.359375,222272.28125,218820.109375,206492.40625,221314.0,1.0,3
219017.6875,230779.53125,246515.34375,242809.515625,204844.265625,222242.875,218085.265625,206371.703125,221315.0,1.0,3
219333.125,231397.421875,246858.125,243315.109375,205322.234375,222428.125,219530.796875,206826.78125,221316.0,1.0,3
219571.828125,231926.265625,247205.75,243786.734375,205826.40625,222580.296875,221147.453125,207231.4375,221317.0,1.0,3
219397.140625,231626.84375,247071.09375,243563.65625,205655.453125,222484.265625,220688.625,207018.109375,221318.0,1.0,3
219059.53125,230929.828125,246654.015625,242970.890625,205063.234375,222282.65625,218829.21875,206497.578125,221319.0,1.0,3
219014.5625,230775.328125,246516.234375,242809.609375,204852.046875,222249.671875,218074.265625,206372.234375,221320.0,1.0,3
219332.40625,231395.28125,246861.171875,243320.03125,205332.4375,222431.875,219518.640625,206829.90625,221321.0,1.0,3
219562.171875,231912.234375,247201.1875,243786.640625,205829.890625,222574.03125,221138.15625,207228.578125,221322.0,1.0,3
219379.4375,231602.796875,247057.234375,243558.484375,205649.109375,222468.796875,220679.765625,207009.96875,221323.0,1.0,3
219044.875,230913.203125,246638.375,242967.9375,205058.21875,222271.65625,218820.734375,206489.8125,221324.0,1.0,3
219007.140625,230772.828125,246510.609375,242816.21875,204861.609375,222253.15625,218075.15625,206377.515625,221325.0,1.0,3
219316.3125,231381.6875,246847.671875,243318.0625,205335.109375,222433.125,219503.078125,206831.25,221326.0,1.0,3
219552.171875,231906.875,247194.296875,243788.96875,205837.84375,222581.8125,221132.34375,207238.328125,221327.0,1.0,3
219386.671875,231615.765625,247067.171875,243573.9375,205672.71875,222490.890625,220703.1875,207036.703125,221328.0,1.0,3
219047.90625,230919.015625,246642.578125,242974.734375,205071.28125,222281.578125,218841.015625,206514.578125,221329.0,1.0,3
219003.03125,230773.1875,246507.203125,242810.671875,204860.984375,222256.546875,218077.84375,206391.1875,221330.0,1.0,3
219314.96875,231387.59375,246843.734375,243310.90625,205330.734375,222442.609375,219503.171875,206842.703125,221331.0,1.0,3
219549.3125,231913.3125,247186.078125,243778.234375,205828.546875,222580.5625,221133.0625,207240.921875,221332.0,1.0,3
219378.453125,231619.25,247051.875,243557.40625,205653.765625,222473.359375,220707.9375,207030.1875,221333.0,1.0,3
219043.0,230926.796875,246631.484375,242962.21875,205053.65625,222266.203125,218851.9375,206503.578125,221334.0,1.0,3
218996.6875,230767.28125,246492.8125,242792.34375,204832.375,222229.90625,218068.015625,206367.234375,221335.0,1.0,3
219317.03125,231381.25,246840.703125,243296.875,205307.3125,222417.296875,219489.046875,206818.28125,221336.0,1.0,3
219561.90625,231915.625,247199.125,243777.875,205817.5625,222565.1875,221131.453125,207226.34375,221337.0,1.0,3
219384.4375,231613.609375,247064.75,243558.03125,205643.484375,222460.578125,220708.375,207013.46875,221338.0,1.0,3
219052.921875,230926.078125,246647.125,242969.640625,205050.53125,222268.171875,218853.890625,206493.203125,221339.0,1.0,3
219006.421875,230766.03125,246503.09375,242800.03125,204835.15625,222242.421875,218065.421875,206359.0,221340.0,1.0,3
219321.578125,231375.796875,246842.484375,243302.328125,205308.828125,222424.453125,219479.75,206813.453125,221341.0,1.0,3
219559.40625,231909.109375,247190.90625,243779.765625,205814.34375,222570.1875,221124.75,207225.71875,221342.0,1.0,3
219388.46875,231623.1875,247066.984375,243572.15625,205660.109375,222475.5,220730.28125,207030.984375,221343.0,1.0,3
219054.078125,230933.3125,246654.734375,242982.78125,205075.390625,222279.703125,218883.484375,206515.28125,221344.0,1.0,3
218998.5625,230762.453125,246508.375,242802.0,204848.828125,222250.46875,218069.984375,206374.734375,221345.0,1.0,3
219314.703125,231379.015625,246851.78125,243302.59375,205321.703125,222441.984375,219472.234375,206826.78125,221346.0,1.0,3
219562.890625,231923.046875,247207.0,243785.03125,205837.5,222591.828125,221127.0625,207244.484375,221347.0,1.0,3
219394.09375,231637.3125,247079.859375,243576.625,205677.28125,222494.90625,220736.0,207046.453125,221348.0,1.0,3
219053.0,230938.953125,246659.828125,242979.921875,205081.640625,222291.953125,218884.203125,206526.28125,221349.0,1.0,3
218995.25,230766.03125,246506.140625,242793.25,204852.3125,222255.5625,218063.1875,206382.78125,221350.0,1.0,3
219311.578125,231380.171875,246847.578125,243293.75,205323.671875,222444.921875,219465.703125,206834.015625,221351.0,1.0,3
219557.0,231925.203125,247198.765625,243775.640625,205830.15625,222590.125,221122.953125,207243.59375,221352.0,1.0,3
219387.65625,231641.234375,247073.515625,243573.3125,205669.40625,222486.765625,220745.03125,207044.484375,221353.0,1.0,3
219045.59375,230937.609375,246649.984375,242975.09375,205069.9375,222277.015625,218892.15625,206518.5,221354.0,1.0,3
218988.453125,230757.90625,246496.84375,242786.265625,204830.0625,222231.875,218058.171875,206367.59375,221355.0,1.0,3
219301.734375,231365.953125,246832.828125,243282.03125,205293.625,222407.734375,219448.1875,206811.21875,221356.0,1.0,3
219549.390625,231912.0625,247184.640625,243767.0625,205806.015625,222554.0,221113.390625,207225.171875,221357.0,1.0,3
219389.0,231636.40625,247063.5,243569.65625,205655.90625,222471.03125,220754.421875,207031.171875,221358.0,1.0,3
219052.109375,230939.21875,246641.765625,242976.53125,205060.8125,222269.78125,218908.796875,206508.9375,221359.0,1.0,3
218994.984375,230754.140625,246485.484375,242787.25,204823.265625,222231.875,218068.375,206357.9375,221360.0,1.0,3
219310.3125,231355.765625,246821.65625,243282.03125,205288.0,222421.234375,219452.828125,206803.359375,221361.0,1.0,3
219561.015625,231905.890625,247178.921875,243772.703125,205805.125,222577.15625,221128.59375,207225.71875,221362.0,1.0,3
219398.5625,231634.09375,247061.265625,243579.84375,205657.15625,222486.953125,220781.78125,207040.734375,221363.0,1.0,3
219060.25,230937.4375,246643.375,242989.765625,205065.375,222287.125,218936.953125,206523.6875,221364.0,1.0,3
218998.640625,230752.71875,246488.609375,242799.59375,204828.09375,222254.484375,218085.625,206372.59375,221365.0,1.0,3
219312.46875,231357.375,246823.53125,243291.953125,205291.484375,222441.703125,219460.078125,206817.65625,221366.0,1.0,3
219565.578125,231910.984375,247179.640625,243781.015625,205811.828125,222594.6875,221134.671875,207238.046875,221367.0,1.0,3
219405.265625,231645.984375,247064.84375,243596.125,205675.3125,222501.4375,220799.75,207054.953125,221368.0,1.0,3
219064.0,230945.75,246642.484375,243002.8125,205081.203125,222288.375,218947.78125,206533.96875,221369.0,1.0,3
219001.78125,230758.34375,246487.1875,242807.546875,204840.78125,222243.859375,218077.390625,206380.640625,221370.0,1.0,3
219312.109375,231362.03125,246822.375,243297.765625,205303.109375,222420.796875,219439.15625,206823.46875,221371.0,1.0,3
219569.953125,231926.453125,247187.421875,243794.421875,205827.921875,222573.765625,221121.96875,207248.421875,221372.0,1.0,3
219414.390625,231670.75,247079.234375,243613.375,205693.71875,222484.984375,220799.296875,207071.75,221373.0,1.0,3
219073.578125,230969.703125,246658.21875,243021.59375,205101.671875,222279.4375,218953.40625,206548.375,221374.0,1.0,3
218999.8125,230762.1875,246490.578125,242817.65625,204848.734375,222233.125,218067.203125,206385.5625,221375.0,1.0,3
219309.609375,231361.3125,246821.203125,243305.28125,205305.96875,222418.28125,219421.28125,206825.703125,221376.0,1.0,3
219562.8125,231918.046875,247182.328125,243801.03125,205829.53125,222575.46875,221106.6875,207249.3125,221377.0,1.0,3
219409.734375,231661.453125,247073.421875,243619.625,205696.40625,222489.625,220794.921875,207073.453125,221378.0,1.0,3
219067.3125,230958.703125,246650.796875,243024.625,205103.640625,222286.859375,218951.078125,206549.265625,221379.0,1.0,3
218993.46875,230746.28125,246476.09375,242813.09375,204841.5,222241.96875,218047.625,206377.78125,221380.0,1.0,3
219306.46875,231344.5,246806.546875,243297.765625,205293.265625,222430.796875,219389.171875,206813.453125,221381.0,1.0,3
219568.078125,231914.375,247178.828125,243798.890625,205825.421875,222598.265625,221087.46875,207242.078125,221382.0,1.0,3
219414.296875,231659.65625,247072.0,243616.953125,205692.5625,222509.21875,220787.328125,207064.15625,221383.0,1.0,3
219070.890625,230956.03125,246652.9375,243019.4375,205096.9375,222303.046875,218947.859375,206540.046875,221384.0,1.0,3
219000.609375,230751.46875,246486.640625,242808.703125,204839.890625,222263.875,218045.921875,206371.515625,221385.0,1.0,3
219316.046875,231356.21875,246821.03125,243296.0625,205297.828125,222455.296875,219389.359375,206812.390625,221386.0,1.0,3
219578.984375,231927.875,247190.375,243798.359375,205828.109375,222614.890625,221091.484375,207244.125,221387.0,1.0,3
219430.65625,231680.84375,247088.796875,243621.421875,205699.265625,222524.859375,220804.671875,207073.0,221388.0,1.0,3
219091.625,230978.46875,246672.4375,243027.21875,205108.375,222319.484375,218969.59375,206552.5625,221389.0,1.0,3
219014.5625,230765.234375,246500.859375,242810.3125,204847.578125,222266.921875,218055.046875,206378.046875,221390.0,1.0,3
219326.140625,231361.671875,246829.515625,243291.6875,205296.84375,222444.03125,219378.453125,206810.234375,221391.0,1.0,3
219585.421875,231931.1875,247200.828125,243795.140625,205825.25,222598.625,221079.234375,207241.625,221392.0,1.0,3
219432.625,231684.515625,247101.046875,243625.984375,205706.515625,222510.640625,220809.578125,207074.890625,221393.0,1.0,3
219091.453125,230989.109375,246685.390625,243034.90625,205121.609375,222305.09375,218978.796875,206557.484375,221394.0,1.0,3
219008.390625,230764.34375,246504.53125,242810.671875,204854.546875,222250.109375,218048.25,206379.828125,221395.0,1.0,3
219315.421875,231350.765625,246829.078125,243290.34375,205300.515625,222427.046875,219368.34375,206813.375,221396.0,1.0,3
219579.34375,231924.75,247201.28125,243798.453125,205835.796875,222589.328125,221080.578125,207250.65625,221397.0,1.0,3
219429.140625,231688.984375,247103.734375,243629.015625,205720.015625,222507.15625,220824.609375,207083.828125,221398.0,1.0,3
219084.5625,230986.15625,246682.796875,243031.953125,205127.25,222299.375,218991.140625,206558.03125,221399.0,1.0,3
219003.828125,230757.359375,246500.40625,242805.765625,204851.78125,222246.453125,218048.25,206373.046875,221400.0,1.0,3
219310.671875,231339.40625,246822.640625,243281.140625,205293.890625,222426.6875,219358.25,206802.734375,221401.0,1.0,3
219578.1875,231918.578125,247192.421875,243787.71875,205826.578125,222588.421875,221072.625,207237.25,221402.0,1.0,3
219432.359375,231682.1875,247095.234375,243622.765625,205709.46875,222503.140625,220828.0,207072.5625,221403.0,1.0,3
219087.875,230981.234375,246673.59375,243026.328125,205112.9375,222294.640625,218998.828125,206545.953125,221404.0,1.0,3
219005.171875,230753.4375,246487.1875,242795.296875,204837.5625,222245.015625,218047.890625,206358.28125,221405.0,1.0,3
219308.265625,231333.5,246804.21875,243265.484375,205275.21875,222427.9375,219346.984375,206784.484375,221406.0,1.0,3
219571.03125,231907.3125,247171.765625,243770.90625,205805.65625,222590.9375,221061.984375,207219.71875,221407.0,1.0,3
219426.453125,231678.796875,247080.046875,243610.875,205696.40625,222511.0,220829.96875,207063.265625,221408.0,1.0,3
219081.4375,230977.21875,246663.84375,243016.84375,205106.40625,222301.875,219002.21875,206544.96875,221409.0,1.0,3
218995.609375,230741.0,246482.359375,242785.203125,204828.796875,222247.078125,218039.125,206358.109375,221410.0,1.0,3
219300.9375,231323.75,246801.8125,243257.09375,205268.5,222429.28125,219332.40625,206784.84375,221411.0,1.0,3
219565.390625,231899.359375,247169.265625,243767.0625,205802.09375,222592.453125,221052.5,207224.109375,221412.0,1.0,3
219428.78125,231682.09375,247083.96875,243618.203125,205701.0625,222515.109375,220839.71875,207077.203125,221413.0,1.0,3
219088.5,230991.796875,246674.671875,243031.328125,205121.609375,222311.71875,219021.453125,206564.109375,221414.0,1.0,3
218999.09375,230758.34375,246494.0625,242797.890625,204846.6875,222256.1875,218050.578125,206376.703125,221415.0,1.0,3
219299.6875,231331.796875,246812.4375,243266.46875,205282.984375,222430.984375,219329.0,206800.578125,221416.0,1.0,3
219571.828125,231918.140625,247194.65625,243787.984375,205830.609375,222597.90625,221063.234375,207247.078125,221417.0,1.0,3
219434.0625,231699.359375,247109.0,243638.234375,205727.515625,222519.140625,220854.296875,207096.609375,221418.0,1.0,3
219092.4375,231000.46875,246692.28125,243047.875,205139.046875,222315.109375,219032.53125,206574.75,221419.0,1.0,3
219002.21875,230758.890625,246503.28125,242809.0625,204854.375,222258.0625,218045.21875,206376.171875,221420.0,1.0,3
219301.203125,231331.453125,246814.953125,243269.328125,205283.609375,222428.5625,219311.921875,206794.234375,221421.0,1.0,3
219573.0,231919.75,247192.953125,243785.390625,205827.484375,222590.75,221049.90625,207238.953125,221422.0,1.0,3
219436.828125,231706.15625,247107.75,243638.40625,205731.359375,222509.484375,220860.453125,207092.40625,221423.0,1.0,3
219090.015625,231005.109375,246682.09375,243038.671875,205133.5,222298.75,219031.28125,206562.3125,221424.0,1.0,3
218994.890625,230752.453125,246488.703125,242794.40625,204842.03125,222244.125,218031.71875,206361.0625,221425.0,1.0,3
219294.578125,231321.515625,246800.28125,243254.40625,205268.234375,222426.875,219296.640625,206778.046875,221426.0,1.0,3
219566.03125,231913.484375,247175.34375,243768.9375,205805.84375,222595.578125,221037.125,207222.140625,221427.0,1.0,3
219435.484375,231708.125,247098.375,243628.9375,205716.171875,222524.6875,220866.625,207083.203125,221428.0,1.0,3
219087.875,231001.171875,246676.1875,243030.890625,205124.828125,222319.140625,219047.90625,206559.90625,221429.0,1.0,3
218990.421875,230745.03125,246480.203125,242784.484375,204833.8125,222256.640625,218038.6875,206358.640625,221430.0,1.0,3
219291.8125,231316.78125,246795.546875,243248.140625,205263.328125,222429.734375,219293.15625,206779.84375,221431.0,1.0,3
219566.46875,231912.234375,247175.34375,243765.8125,205806.296875,222591.375,221035.78125,207228.046875,221432.0,1.0,3
219436.734375,231708.828125,247100.0625,243627.859375,205717.953125,222516.8125,220874.859375,207091.96875,221433.0,1.0,3
219093.0625,231007.796875,246689.0625,243039.734375,205135.203125,222308.578125,219066.6875,206572.5,221434.0,1.0,3
218994.453125,230750.296875,246493.265625,242789.84375,204839.53125,222238.578125,218041.71875,206363.46875,221435.0,1.0,3
219293.421875,231315.359375,246802.4375,243250.296875,205264.484375,222414.171875,219281.703125,206779.75,221436.0,1.0,3
219565.671875,231904.546875,247180.171875,243770.8125,205811.390625,222577.15625,221027.46875,207227.765625,221437.0,1.0,3
219439.25,231707.671875,247110.34375,243639.03125,205730.734375,222503.3125,220878.078125,207094.375,221438.0,1.0,3
219098.6875,231015.84375,246701.578125,243053.234375,205149.6875,222299.109375,219071.875,206578.59375,221439.0,1.0,3
218992.5625,230747.4375,246497.90625,242796.375,204848.734375,222233.03125,218036.625,206368.484375,221440.0,1.0,3
219285.734375,231307.03125,246802.4375,243247.34375,205267.078125,222406.125,219263.46875,206779.84375,221441.0,1.0,3
219567.453125,231910.984375,247189.203125,243775.828125,205820.5,222577.078125,221022.90625,207236.4375,221442.0,1.0,3
219443.09375,231717.953125,247121.609375,243650.484375,205741.296875,222508.59375,220886.921875,207108.140625,221443.0,1.0,3
219100.125,231020.75,246707.484375,243061.375,205159.609375,222308.765625,219079.65625,206587.078125,221444.0,1.0,3
218995.15625,230753.703125,246499.609375,242796.734375,204852.578125,222246.625,218031.796875,206367.3125,221445.0,1.0,3
219293.515625,231315.796875,246805.109375,243249.84375,205272.984375,222425.890625,219258.546875,206777.609375,221446.0,1.0,3
219569.515625,231913.125,247182.765625,243772.703125,205819.171875,222595.484375,221014.15625,207226.515625,221447.0,1.0,3
219443.0,231721.265625,247112.40625,243644.3125,205738.34375,222528.25,220893.09375,207096.96875,221448.0,1.0,3
219096.734375,231021.734375,246694.25,243048.59375,205150.125,222323.25,219090.203125,206573.84375,221449.0,1.0,3
218989.890625,230749.859375,246484.671875,242780.28125,204835.859375,222257.984375,218030.8125,206355.25,221450.0,1.0,3
219283.40625,231306.59375,246787.046875,243231.421875,205251.78125,222432.6875,219245.859375,206765.453125,221451.0,1.0,3
219556.453125,231896.59375,247163.71875,243755.34375,205798.953125,222600.046875,221004.9375,207216.328125,221452.0,1.0,3
219438.53125,231711.875,247100.15625,243635.28125,205731.015625,222529.0625,220900.515625,207093.484375,221453.0,1.0,3
219097.703125,231015.484375,246686.5625,243044.125,205144.859375,222316.71875,219099.953125,206573.765625,221454.0,1.0,3
218985.140625,230735.109375,246474.3125,242771.515625,204826.75,222241.796875,218025.8125,206351.21875,221455.0,1.0,3
219276.171875,231284.515625,246774.09375,243214.265625,205234.890625,222408.625,219221.890625,206755.875,221456.0,1.0,3
219557.703125,231888.265625,247160.140625,243745.703125,205787.0625,222576.53125,220987.140625,207212.21875,221457.0,1.0,3
219443.265625,231713.296875,247104.71875,243635.09375,205726.625,222509.84375,220896.84375,207097.234375,221458.0,1.0,3
219103.171875,231023.265625,246697.828125,243047.78125,205148.34375,222302.953125,219101.109375,206580.734375,221459.0,1.0,3
218997.75,230746.8125,246492.375,242781.890625,204840.421875,222237.140625,218028.3125,206363.203125,221460.0,1.0,3
219291.28125,231298.90625,246794.828125,243228.203125,205251.15625,222411.3125,219221.546875,206767.59375,221461.0,1.0,3
219574.515625,231908.84375,247184.46875,243761.96875,205810.84375,222588.0625,220993.3125,207228.390625,221462.0,1.0,3
219463.46875,231741.5625,247131.359375,243653.421875,205753.546875,222527.1875,220914.90625,207112.96875,221463.0,1.0,3
219122.46875,231049.28125,246722.5,243069.0625,205176.859375,222328.15625,219127.03125,206596.828125,221464.0,1.0,3
219009.640625,230764.25,246510.78125,242796.640625,204860.8125,222258.78125,218041.09375,206371.078125,221465.0,1.0,3
219293.6875,231302.5625,246802.515625,243233.296875,205260.1875,222431.703125,219217.421875,206768.671875,221466.0,1.0,3
219579.609375,231913.3125,247188.765625,243767.15625,205813.171875,222601.921875,220989.921875,207224.90625,221467.0,1.0,3
219466.515625,231745.3125,247131.53125,243660.84375,205753.71875,222533.625,220920.0,207108.859375,221468.0,1.0,3
219112.546875,231034.796875,246706.765625,243060.21875,205163.453125,222319.40625,219119.609375,206578.046875,221469.0,1.0,3
218998.734375,230749.234375,246487.984375,242778.40625,204841.234375,222249.84375,218022.765625,206346.671875,221470.0,1.0,3
219283.5,231291.21875,246779.984375,243211.671875,205240.515625,222422.484375,219194.71875,206744.703125,221471.0,1.0,3
219562.625,231897.65625,247164.53125,243742.03125,205794.484375,222593.796875,220972.75,207205.15625,221472.0,1.0,3
219449.078125,231734.046875,247112.671875,243640.828125,205742.8125,222530.9375,220920.359375,207098.671875,221473.0,1.0,3
219105.3125,231036.84375,246702.03125,243053.234375,205162.109375,222327.8125,219135.796875,206584.9375,221474.0,1.0,3
218991.046875,230743.15625,246483.6875,242774.5625,204837.03125,222255.5625,218028.671875,206357.03125,221475.0,1.0,3
219272.953125,231274.9375,246770.0625,243204.78125,205229.4375,222418.28125,219183.0,206751.046875,221476.0,1.0,3
219558.15625,231886.390625,247156.75,243738.984375,205783.671875,222586.1875,220963.09375,207212.84375,221477.0,1.0,3
219449.34375,231727.875,247107.84375,243638.5,205732.96875,222519.859375,220922.59375,207107.78125,221478.0,1.0,3
219106.203125,231028.453125,246696.84375,243052.96875,205150.84375,222308.578125,219138.390625,206589.578125,221479.0,1.0,3
218987.5625,230724.8125,246474.03125,242766.875,204815.65625,222226.15625,218013.46875,206350.78125,221480.0,1.0,3
219275.984375,231263.765625,246768.71875,243203.890625,205215.671875,222391.90625,219169.5,206749.4375,221481.0,1.0,3
219562.453125,231877.453125,247157.640625,243742.5625,205774.90625,222562.234375,220952.453125,207214.1875,221482.0,1.0,3
219462.40625,231732.96875,247116.78125,243654.5,205735.21875,222503.484375,220932.609375,207116.109375,221483.0,1.0,3
219126.140625,231044.09375,246711.5,243071.03125,205162.65625,222298.75,219158.234375,206600.84375,221484.0,1.0,3
219009.375,230743.421875,246494.6875,242787.34375,204836.484375,222229.8125,218030.109375,206361.859375,221485.0,1.0,3
219296.46875,231283.703125,246787.234375,243220.34375,205235.25,222403.265625,219173.34375,206754.265625,221486.0,1.0,3
219584.890625,231905.34375,247181.78125,243759.734375,205800.65625,222576.359375,220966.9375,207220.703125,221487.0,1.0,3
219483.765625,231761.5,247143.609375,243672.5625,205764.625,222523.078125,220956.65625,207123.515625,221488.0,1.0,3
219139.109375,231066.625,246733.140625,243086.046875,205186.15625,222318.421875,219181.484375,206602.640625,221489.0,1.0,3
219013.484375,230757.453125,246502.828125,242790.921875,204851.25,222243.671875,218035.828125,206356.859375,221490.0,1.0,3
219292.625,231283.96875,246783.65625,243213.015625,205237.21875,222410.0625,219159.9375,206741.671875,221491.0,1.0,3
219584.078125,231904.546875,247175.265625,243754.09375,205799.140625,222587.890625,220954.96875,207208.8125,221492.0,1.0,3
219483.234375,231767.125,247137.34375,243670.859375,205767.578125,222533.359375,220960.765625,207116.28125,221493.0,1.0,3
219129.984375,231066.890625,246719.640625,243080.15625,205186.515625,222324.59375,219184.171875,206595.21875,221494.0,1.0,3
218998.734375,230749.40625,246485.125,242779.65625,204841.953125,222245.90625,218025.359375,206348.09375,221495.0,1.0,3
219277.515625,231274.5,246766.3125,243201.65625,205226.21875,222410.0625,219143.578125,206735.5,221496.0,1.0,3
219572.015625,231899.625,247164.625,243748.828125,205796.015625,222590.21875,220948.53125,207209.71875,221497.0,1.0,3
219471.25,231757.03125,247124.65625,243663.078125,205758.640625,222530.046875,220963.8125,207119.328125,221498.0,1.0,3
219124.078125,231057.421875,246712.578125,243075.765625,205175.96875,222315.46875,219195.15625,206599.421875,221499.0,1.0,3
218988.453125,230731.25,246472.15625,242767.40625,204821.734375,222225.078125,218019.1875,206343.359375,221500.0,1.0,3
219265.171875,231249.8125,246749.234375,243183.859375,205197.15625,222383.421875,219118.984375,206726.28125,221501.0,1.0,3
219560.65625,231873.25,247142.265625,243730.9375,205758.28125,222555.53125,220917.5,207199.15625,221502.0,1.0,3
219474.375,231747.453125,247120.1875,243666.03125,205743.25,222507.953125,220959.4375,207122.984375,221503.0,1.0,3
219133.46875,231052.40625,246713.734375,243083.8125,205171.671875,222302.0625,219199.1875,206607.203125,221504.0,1.0,3
219000.078125,230724.015625,246473.0625,242773.578125,204815.84375,222214.53125,218012.484375,206347.109375,221505.0,1.0,3
219278.578125,231246.421875,246754.234375,243194.765625,205199.390625,222377.609375,219110.5,206730.21875,221506.0,1.0,3
219572.015625,231875.578125,247150.484375,243742.921875,205766.234375,222551.140625,220914.375,207204.171875,221507.0,1.0,3
219481.984375,231752.640625,247125.1875,243674.890625,205748.265625,222501.25,220965.875,207125.3125,221508.0,1.0,3
219141.25,231062.59375,246719.375,243090.15625,205175.25,222295.796875,219205.890625,206606.578125,221509.0,1.0,3
219010.265625,230740.90625,246486.90625,242782.25,204827.1875,222214.53125,218016.15625,206348.28125,221510.0,1.0,3
219285.375,231262.6875,246769.4375,243199.234375,205212.71875,222383.421875,219110.5,206730.21875,221511.0,1.0,3
219576.125,231893.1875,247167.921875,243747.21875,205785.71875,222568.046875,220922.78125,207202.5625,221512.0,1.0,3
219480.46875,231768.921875,247137.890625,243675.6875,205768.375,222519.046875,220978.390625,207119.671875,221513.0,1.0,3
219133.390625,231074.3125,246730.015625,243089.53125,205195.8125,222318.859375,219223.78125,206603.359375,221514.0,1.0,3
218997.21875,230744.3125,246493.625,242777.78125,204845.96875,222243.40625,218031.171875,206343.796875,221515.0,1.0,3
219269.109375,231254.28125,246760.953125,243183.765625,205212.984375,222401.828125,219101.46875,206715.296875,221516.0,1.0,3
219564.59375,231886.65625,247159.703125,243735.234375,205785.015625,222581.71875,220917.046875,207194.875,221517.0,1.0,3
219475.640625,231771.15625,247137.4375,243672.828125,205773.125,222534.515625,220991.890625,207125.21875,221518.0,1.0,3
219131.234375,231078.515625,246728.21875,243089.09375,205199.65625,222330.21875,219246.125,206612.390625,221519.0,1.0,3
218991.40625,230741.0,246482.53125,242769.8125,204838.546875,222240.90625,218036.890625,206345.765625,221520.0,1.0,3
219263.734375,231246.59375,246751.015625,243174.828125,205202.53125,222397.625,219094.140625,206716.28125,221521.0,1.0,3
219560.578125,231877.28125,247148.875,243725.75,205773.5625,222575.1875,220908.46875,207195.859375,221522.0,1.0,3
219472.953125,231761.578125,247124.5625,243666.5625,205762.390625,222522.4375,220991.53125,207129.25,221523.0,1.0,3
219132.125,231070.46875,246716.6875,243086.671875,205185.8125,222311.625,219243.71875,206614.4375,221524.0,1.0,3
218995.25,230730.09375,246475.46875,242770.4375,204824.515625,222224.09375,218027.78125,206345.40625,221525.0,1.0,3
219264.28125,231230.15625,246738.953125,243169.015625,205182.046875,222373.9375,219073.296875,206709.203125,221526.0,1.0,3
219564.765625,231865.03125,247137.96875,243721.46875,205751.75,222550.875,220887.8125,207188.515625,221527.0,1.0,3
219483.859375,231755.5,247123.40625,243670.0625,205748.4375,222503.671875,220985.71875,207125.484375,221528.0,1.0,3
219141.96875,231061.703125,246714.359375,243088.734375,205175.25,222293.921875,219238.265625,206611.125,221529.0,1.0,3
219002.21875,230726.25,246474.3125,242770.796875,204817.1875,222207.734375,218012.578125,206344.703125,221530.0,1.0,3
219275.1875,231234.703125,246747.0,243176.359375,205182.234375,222364.640625,219055.78125,206711.984375,221531.0,1.0,3
219576.390625,231875.21875,247149.421875,243735.59375,205759.703125,222545.421875,220879.859375,207192.984375,221532.0,1.0,3
219498.25,231776.25,247136.90625,243685.96875,205763.375,222502.234375,220993.578125,207131.125,221533.0,1.0,3
219161.640625,231095.40625,246737.34375,243110.640625,205202.796875,222300.0,219261.140625,206621.234375,221534.0,1.0,3
219017.875,230749.5,246490.40625,242788.0625,204838.640625,222207.109375,218023.484375,206347.65625,221535.0,1.0,3
219286.359375,231250.53125,246758.078125,243189.765625,205198.6875,222366.25,219053.1875,206711.09375,221536.0,1.0,3
219585.34375,231886.75,247157.375,243742.75,205773.75,222551.328125,220875.390625,207193.171875,221537.0,1.0,3
219512.46875,231798.15625,247152.8125,243702.515625,205787.875,222517.171875,221010.75,207143.90625,221538.0,1.0,3
219170.578125,231114.71875,246757.546875,243130.9375,205230.6875,222324.859375,219291.71875,206638.21875,221539.0,1.0,3
219012.6875,230753.15625,246495.5,242789.390625,204849.015625,222233.21875,218036.1875,206352.65625,221540.0,1.0,3
219274.828125,231246.59375,246753.96875,243182.078125,205204.3125,222390.84375,219058.109375,206718.59375,221541.0,1.0,3
219567.90625,231881.84375,247149.859375,243734.703125,205779.46875,222577.078125,220888.265625,207204.078125,221542.0,1.0,3
219488.328125,231788.40625,247136.453125,243689.1875,205786.078125,222538.890625,221030.875,207150.078125,221543.0,1.0,3
219148.046875,231100.953125,246736.359375,243114.390625,205223.171875,222338.984375,219309.609375,206640.640625,221544.0,1.0,3
218988.1875,230730.984375,246472.34375,242769.734375,204835.953125,222234.109375,218038.5,206354.359375,221545.0,1.0,3
219247.828125,231215.9375,246723.578125,243151.5,205176.59375,222380.90625,219035.578125,206705.015625,221546.0,1.0,3
219548.40625,231855.640625,247125.09375,243707.78125,205749.25,222560.078125,220860.734375,207186.015625,221547.0,1.0,3
219473.84375,231764.53125,247120.09375,243667.640625,205758.453125,222516.09375,221011.5625,207131.65625,221548.0,1.0,3
219136.609375,231081.109375,246721.703125,243094.8125,205195.46875,222307.421875,219290.296875,206621.40625,221549.0,1.0,3
218989.53125,230723.296875,246468.234375,242763.203125,204822.546875,222216.40625,218024.5625,206339.953125,221550.0,1.0,3
219251.671875,231208.15625,246722.6875,243149.625,205165.59375,222367.0625,219014.46875,206694.90625,221551.0,1.0,3
219558.78125,231858.859375,247129.484375,243715.296875,205747.015625,222552.21875,220849.8125,207181.1875,221552.0,1.0,3
219489.578125,231780.71875,247128.59375,243683.640625,205767.75,222515.03125,221017.90625,207131.21875,221553.0,1.0,3
219154.484375,231099.078125,246737.796875,243118.59375,205216.203125,222316.8125,219310.953125,206629.1875,221554.0,1.0,3
219005.171875,230736.4375,246481.28125,242776.53125,204836.84375,222222.3125,218031.53125,206343.359375,221555.0,1.0,3
219261.6875,231214.40625,246728.21875,243152.21875,205172.75,222367.859375,219003.5625,206690.25,221556.0,1.0,3
219568.171875,231863.953125,247134.21875,243714.3125,205753.890625,222553.015625,220841.0625,207179.046875,221557.0,1.0,3
219493.34375,231781.96875,247130.375,243681.234375,205771.234375,222509.921875,221017.015625,207133.625,221558.0,1.0,3
219154.21875,231096.75,246730.640625,243110.8125,205211.28125,222302.953125,219305.84375,206627.140625,221559.0,1.0,3
218998.734375,230727.0625,246469.484375,242765.078125,204826.75,222206.125,218015.625,206335.9375,221560.0,1.0,3
219255.15625,231202.515625,246723.65625,243146.578125,205168.8125,222356.328125,218989.4375,206687.125,221561.0,1.0,3
219564.421875,231856.796875,247135.46875,243715.125,205753.1875,222546.140625,220833.640625,207178.421875,221562.0,1.0,3
219499.234375,231788.765625,247138.875,243694.109375,205776.78125,222513.6875,221027.296875,207141.578125,221563.0,1.0,3
219153.40625,231100.421875,246734.84375,243120.46875,205215.484375,222312.15625,219320.953125,206635.453125,221564.0,1.0,3
218994.53125,230726.25,246467.421875,242769.28125,204827.46875,222219.09375,218021.78125,206344.25,221565.0,1.0,3
219255.78125,231207.4375,246715.171875,243148.015625,205166.5,222369.734375,218984.4375,206696.96875,221566.0,1.0,3
219564.953125,231862.4375,247122.328125,243714.671875,205749.6875,222558.203125,220828.453125,207190.671875,221567.0,1.0,3
219497.984375,231794.21875,247131.265625,243693.84375,205780.546875,222524.328125,221039.8125,207154.640625,221568.0,1.0,3
219155.109375,231110.875,246737.515625,243123.609375,205225.40625,222326.375,219342.6875,206649.3125,221569.0,1.0,3
218989.53125,230724.109375,246470.109375,242765.609375,204830.140625,222230.265625,218029.125,206348.984375,221570.0,1.0,3
219242.90625,231191.078125,246717.5,243137.546875,205161.125,222387.265625,218974.59375,206692.765625,221571.0,1.0,3
219554.21875,231849.5625,247128.5,243708.140625,205747.734375,222583.6875,220822.734375,207185.125,221572.0,1.0,3
219499.6875,231799.40625,247148.078125,243697.328125,205792.875,222560.0,221056.34375,207158.75,221573.0,1.0,3
219159.765625,231118.921875,246753.078125,243124.046875,205238.015625,222355.515625,219363.25,206651.28125,221574.0,1.0,3
218991.5,230729.109375,246480.5625,242759.71875,204834.53125,222249.03125,218035.734375,206343.359375,221575.0,1.0,3
219248.71875,231195.015625,246726.53125,243130.578125,205163.359375,222394.59375,218971.828125,206681.3125,221576.0,1.0,3
219563.25,231855.8125,247139.765625,243701.96875,205748.71875,222579.84375,220820.21875,207173.765625,221577.0,1.0,3
219507.375,231807.625,247153.171875,243692.859375,205785.453125,222538.71875,221058.234375,207144.0,221578.0,1.0,3
219169.421875,231132.78125,246759.15625,243126.28125,205232.921875,222327.09375,219372.375,206639.5625,221579.0,1.0,3
219003.921875,230744.765625,246485.75,242765.171875,204829.96875,222209.703125,218041.71875,206333.25,221580.0,1.0,3
219256.140625,231207.34375,246725.71875,243130.578125,205149.328125,222346.9375,218965.125,206673.09375,221581.0,1.0,3
219565.578125,231863.328125,247132.34375,243698.671875,205729.3125,222530.484375,220814.59375,207167.953125,221582.0,1.0,3
219506.296875,231810.75,247148.25,243692.234375,205774.546875,222512.34375,221072.703125,207146.140625,221583.0,1.0,3
219164.9375,231131.359375,246748.78125,243123.328125,205220.578125,222308.3125,219389.890625,206644.5625,221584.0,1.0,3
218996.6875,230737.875,246472.78125,242761.59375,204823.078125,222211.484375,218058.625,206346.3125,221585.0,1.0,3
219245.046875,231195.1875,246711.0625,243126.828125,205149.140625,222368.671875,218977.1875,206685.15625,221586.0,1.0,3
219551.890625,231846.25,247112.9375,243690.359375,205727.96875,222555.703125,220821.921875,207175.296875,221587.0,1.0,3
219497.625,231800.296875,247130.546875,243687.765625,205774.734375,222533.796875,221089.875,207157.046875,221588.0,1.0,3
219161.453125,231125.359375,246741.1875,243127.453125,205228.90625,222342.375,219420.5625,206661.375,221589.0,1.0,3
218988.359375,230723.921875,246462.234375,242758.015625,204820.9375,222237.234375,218069.4375,206351.84375,221590.0,1.0,3
219237.359375,231186.15625,246699.796875,243120.828125,205139.3125,222382.4375,218970.125,206686.5,221591.0,1.0,3
219555.921875,231858.046875,247118.9375,243702.25,205731.1875,222577.78125,220829.34375,207190.3125,221592.0,1.0,3
219509.15625,231825.421875,247146.5625,243709.578125,205787.421875,222551.5,221110.078125,207179.484375,221593.0,1.0,3
219170.75,231150.9375,246756.03125,243146.9375,205240.875,222343.546875,219438.53125,206678.453125,221594.0,1.0,3
219001.234375,230752.53125,246478.421875,242780.640625,204836.21875,222231.421875,218076.953125,206366.328125,221595.0,1.0,3
219248.09375,231204.21875,246711.0625,243136.03125,205149.5,222365.71875,218953.859375,206690.96875,221596.0,1.0,3
219562.625,231868.78125,247123.9375,243712.4375,205737.625,222554.453125,220805.828125,207187.984375,221597.0,1.0,3
219510.0625,231831.5,247149.6875,243720.9375,205794.3125,222522.0,221101.046875,207174.484375,221598.0,1.0,3
219175.40625,231158.09375,246762.203125,243160.078125,205247.9375,222318.421875,219437.1875,206673.265625,221599.0,1.0,3
219006.34375,230754.765625,246482.0,242786.71875,204834.796875,222210.6875,218067.109375,206354.890625,221600.0,1.0,3
219254.984375,231202.25,246712.046875,243137.8125,205142.359375,222351.953125,218934.984375,206678.359375,221601.0,1.0,3
219570.5,231866.015625,247122.5,243710.921875,205728.953125,222545.421875,220787.328125,207173.765625,221602.0,1.0,3
219524.546875,231835.796875,247151.390625,243726.921875,205792.703125,222525.9375,221097.65625,207169.5625,221603.0,1.0,3
219184.96875,231158.4375,246760.234375,243164.8125,205246.953125,222324.5,219434.78125,206671.75,221604.0,1.0,3
219005.984375,230741.453125,246476.0,242785.640625,204832.296875,222218.8125,218052.8125,206352.828125,221605.0,1.0,3
219247.921875,231182.21875,246706.859375,243133.796875,205139.21875,222367.328125,218912.1875,206677.921875,221606.0,1.0,3
219565.21875,231853.140625,247121.4375,243711.90625,205728.859375,222567.421875,220772.921875,207182.703125,221607.0,1.0,3
219523.734375,231838.203125,247160.140625,243734.703125,205805.3125,222559.28125,221105.703125,207187.8125,221608.0,1.0,3
219186.046875,231165.6875,246776.234375,243176.625,205267.515625,222366.421875,219456.859375,206692.765625,221609.0,1.0,3
219004.1875,230749.046875,246490.484375,242795.125,204852.3125,222263.078125,218071.859375,206369.734375,221610.0,1.0,3
219242.8125,231186.703125,246712.9375,243136.75,205153.96875,222403.71875,218918.625,206685.78125,221611.0,1.0,3
219553.953125,231850.8125,247123.671875,243711.1875,205741.015625,222592.8125,220776.6875,207185.390625,221612.0,1.0,3
219514.703125,231837.484375,247164.53125,243736.484375,205818.265625,222575.46875,221121.609375,207193.703125,221613.0,1.0,3
219177.734375,231166.9375,246777.3125,243176.53125,205274.765625,222370.625,219472.6875,206696.6875,221614.0,1.0,3
218993.734375,230742.796875,246484.59375,242787.4375,204846.234375,222255.46875,218067.296875,206364.09375,221615.0,1.0,3
219232.71875,231179.453125,246707.5625,243126.828125,205144.953125,222392.625,218900.921875,206678.1875,221616.0,1.0,3
219552.34375,231851.609375,247125.1875,243706.0,205736.109375,222582.796875,220764.53125,207180.03125,221617.0,1.0,3
219515.515625,231839.71875,247165.328125,243731.484375,205810.765625,222560.0,221118.046875,207183.421875,221618.0,1.0,3
219187.828125,231175.703125,246786.515625,243178.40625,205278.515625,222363.484375,219486.09375,206693.828125,221619.0,1.0,3
219002.140625,230750.03125,246489.6875,242782.328125,204844.0,222241.34375,218070.515625,206354.359375,221620.0,1.0,3
219244.78125,231187.5,246714.28125,243121.1875,205138.78125,222381.984375,218895.296875,206668.359375,221621.0,1.0,3
219569.6875,231860.640625,247131.0,243700.28125,205729.671875,222575.90625,220755.671875,207169.921875,221622.0,1.0,3
219537.59375,231855.28125,247172.21875,243730.765625,205807.546875,222561.25,221122.421875,207177.796875,221623.0,1.0,3
219202.140625,231186.15625,246786.875,243176.078125,205269.578125,222363.84375,219493.0625,206685.34375,221624.0,1.0,3
219013.046875,230752.53125,246488.078125,242780.453125,204833.90625,222243.046875,218069.53125,206349.796875,221625.0,1.0,3
219251.84375,231181.6875,246709.53125,243117.4375,205127.78125,222379.75,218880.359375,206660.484375,221626.0,1.0,3
219573.09375,231853.578125,247122.953125,243694.46875,205715.71875,222572.515625,220736.359375,207163.390625,221627.0,1.0,3
219538.484375,231852.421875,247168.375,243732.015625,205802.265625,222552.484375,221117.5,207182.4375,221628.0,1.0,3
219197.671875,231180.96875,246787.59375,243179.390625,205267.34375,222350.25,219494.234375,206692.9375,221629.0,1.0,3
219011.171875,230756.921875,246496.03125,242788.953125,204839.984375,222235.890625,218075.609375,206363.828125,221630.0,1.0,3
219241.484375,231178.109375,246709.984375,243118.953125,205128.3125,222371.609375,218871.875,206672.828125,221631.0,1.0,3
219562.09375,231852.15625,247128.9375,243701.890625,205726.625,222572.6875,220741.375,207184.140625,221632.0,1.0,3
219525.96875,231851.171875,247173.921875,243738.71875,205813.796875,222555.703125,221135.109375,207199.078125,221633.0,1.0,3
219192.84375,231193.046875,246792.234375,243186.453125,205281.296875,222354.53125,219516.671875,206702.421875,221634.0,1.0,3
219002.21875,230759.328125,246497.828125,242791.453125,204853.5625,222238.3125,218087.40625,206365.4375,221635.0,1.0,3
219231.546875,231166.578125,246709.71875,243115.828125,205137.96875,222371.53125,218868.65625,206669.515625,221636.0,1.0,3
219552.078125,231838.5625,247123.9375,243692.953125,205730.65625,222565.359375,220728.765625,207173.59375,221637.0,1.0,3
219533.65625,231860.375,247184.90625,243746.140625,205837.140625,222563.9375,221147.453125,207203.0,221638.0,1.0,3
219195.875,231193.765625,246799.125,243190.75,205303.109375,222363.296875,219530.53125,206708.140625,221639.0,1.0,3
219000.703125,230750.125,246493.34375,242783.859375,204858.125,222245.109375,218080.96875,206360.171875,221640.0,1.0,3
219233.15625,231163.09375,246703.015625,243107.859375,205139.046875,222384.765625,218852.734375,206658.0625,221641.0,1.0,3
219564.59375,231845.625,247123.40625,243694.015625,205736.90625,222583.6875,220722.0625,207166.265625,221642.0,1.0,3
219542.234375,231862.796875,247177.578125,243738.90625,205830.15625,222568.9375,221140.921875,207189.859375,221643.0,1.0,3
219212.328125,231206.453125,246801.09375,243187.796875,205296.765625,222366.703125,219531.515625,206701.515625,221644.0,1.0,3
219021.453125,230766.390625,246501.046875,242784.21875,204852.671875,222243.9375,218077.046875,206356.234375,221645.0,1.0,3
219254.0,231177.125,246708.546875,243103.484375,205120.453125,222374.125,218829.21875,206649.484375,221646.0,1.0,3
219575.59375,231851.609375,247124.109375,243684.453125,205707.578125,222567.421875,220695.59375,207155.0,221647.0,1.0,3
219552.171875,231871.734375,247181.34375,243738.0,205806.296875,222554.453125,221129.578125,207185.390625,221648.0,1.0,3
219220.90625,231215.9375,246802.34375,243192.265625,205278.4375,222354.0,219529.28125,206701.078125,221649.0,1.0,3
219020.546875,230767.109375,246494.25,242783.859375,204833.28125,222228.5625,218066.671875,206355.25,221650.0,1.0,3
219242.28125,231168.90625,246695.953125,243098.828125,205105.703125,222359.28125,218811.703125,206652.34375,221651.0,1.0,3
219562.890625,231842.9375,247112.3125,243684.625,205703.296875,222559.28125,220681.640625,207164.109375,221652.0,1.0,3
219541.4375,231863.859375,247174.8125,243744.984375,205813.4375,222551.953125,221134.21875,207200.765625,221653.0,1.0,3
219204.734375,231201.359375,246797.515625,243199.15625,205290.59375,222356.140625,219546.4375,206719.046875,221654.0,1.0,3
219006.96875,230755.484375,246493.171875,242790.203125,204849.359375,222239.5625,218084.1875,206371.34375,221655.0,1.0,3
219225.828125,231152.625,246688.4375,243097.234375,205113.125,222370.28125,218811.609375,206658.25,221656.0,1.0,3
219551.625,231834.09375,247107.484375,243682.03125,205710.359375,222568.671875,220682.625,207171.09375,221657.0,1.0,3
219534.828125,231866.546875,247176.875,243748.28125,205831.5,222567.78125,221154.78125,207214.453125,221658.0,1.0,3
219202.671875,231210.484375,246800.90625,243201.03125,205308.5625,222371.171875,219568.703125,206726.28125,221659.0,1.0,3
219006.78125,230759.234375,246496.03125,242787.15625,204861.703125,222248.953125,218093.484375,206371.15625,221660.0,1.0,3
219227.796875,231155.140625,246694.96875,243092.84375,205123.484375,222373.40625,218813.03125,206655.203125,221661.0,1.0,3
219553.5,231836.953125,247116.25,243679.984375,205722.15625,222564.203125,220687.015625,207163.84375,221662.0,1.0,3
219539.375,231874.6875,247184.90625,243745.421875,205837.671875,222558.75,221166.40625,207203.546875,221663.0,1.0,3
219210.546875,231222.1875,246812.71875,243200.21875,205315.4375,222361.953125,219586.046875,206719.5,221664.0,1.0,3
219012.421875,230770.59375,246505.875,242784.75,204863.140625,222238.125,218103.328125,206360.25,221665.0,1.0,3
219233.4375,231164.25,246701.578125,243087.21875,205118.921875,222363.21875,218807.859375,206640.1875,221666.0,1.0,3
219558.78125,231840.078125,247118.03125,243668.265625,205710.0,222555.34375,220671.546875,207145.96875,221667.0,1.0,3
219546.71875,231875.3125,247187.953125,243736.671875,205826.765625,222550.875,221157.375,207186.734375,221668.0,1.0,3
219218.328125,231225.953125,246812.265625,243195.9375,205304.0,222351.046875,219581.671875,206704.375,221669.0,1.0,3
219008.75,230757.71875,246495.140625,242773.9375,204844.71875,222221.765625,218085.0,206345.59375,221670.0,1.0,3
219227.171875,231146.90625,246687.0,243077.640625,205101.3125,222351.5,218780.140625,206632.859375,221671.0,1.0,3
219551.546875,231823.984375,247102.03125,243663.171875,205695.6875,222549.71875,220646.15625,207148.640625,221672.0,1.0,3
219542.953125,231870.84375,247177.140625,243740.875,205822.03125,222553.5625,221152.734375,207203.71875,221673.0,1.0,3
219213.3125,231220.046875,246804.9375,243204.875,205303.109375,222361.515625,219591.0625,206726.015625,221674.0,1.0,3
218998.734375,230741.1875,246482.4375,242775.890625,204837.5625,222232.671875,218086.078125,206364.1875,221675.0,1.0,3
219218.765625,231126.703125,246673.6875,243072.734375,205089.609375,222362.859375,218769.3125,206647.703125,221676.0,1.0,3
219551.265625,231819.25,247096.578125,243663.0,205689.96875,222565.53125,220644.1875,207163.3125,221677.0,1.0,3
219548.5,231876.03125,247178.46875,243747.125,205827.203125,222572.15625,221167.65625,207221.421875,221678.0,1.0,3
219216.359375,231222.1875,246808.328125,243207.90625,205312.9375,222378.328125,219608.765625,206744.265625,221679.0,1.0,3
219005.171875,230748.0625,246489.15625,242777.859375,204852.3125,222249.484375,218097.96875,206376.96875,221680.0,1.0,3
219222.609375,231128.578125,246676.28125,243070.140625,205102.125,222371.703125,218767.171875,206649.390625,221681.0,1.0,3
219552.078125,231816.296875,247097.5625,243661.109375,205702.484375,222570.453125,220640.421875,207163.9375,221682.0,1.0,3
219545.375,231873.703125,247179.640625,243746.328125,205838.46875,222569.734375,221172.671875,207219.359375,221683.0,1.0,3
219217.0625,231228.984375,246815.03125,243211.671875,205326.359375,222375.28125,219624.140625,206741.75,221684.0,1.0,3
219006.515625,230756.734375,246497.109375,242779.828125,204857.859375,222248.0625,218105.734375,206371.875,221685.0,1.0,3
219219.03125,231129.03125,246678.15625,243063.4375,205096.21875,222366.421875,218755.453125,206635.625,221686.0,1.0,3
219552.078125,231816.125,247098.640625,243652.625,205693.375,222562.859375,220627.28125,207144.625,221687.0,1.0,3
219557.796875,231882.375,247187.0625,243746.140625,205835.34375,222569.5625,221172.84375,207203.453125,221688.0,1.0,3
219231.1875,231234.4375,246819.953125,243210.953125,205322.0625,222375.109375,219626.640625,206723.6875,221689.0,1.0,3
219020.546875,230761.921875,246501.9375,242780.90625,204859.65625,222247.875,218108.15625,206356.328125,221690.0,1.0,3
219225.65625,231125.8125,246678.515625,243059.671875,205091.84375,222368.03125,218746.875,206619.359375,221691.0,1.0,3
219555.296875,231809.859375,247097.46875,243650.03125,205687.015625,222569.5625,220616.28125,207136.671875,221692.0,1.0,3
219553.859375,231876.828125,247182.953125,243747.21875,205834.09375,222576.53125,221177.671875,207207.46875,221693.0,1.0,3
219220.90625,231227.828125,246808.328125,243208.359375,205317.234375,222380.015625,219630.9375,206730.9375,221694.0,1.0,3
219010.09375,230750.484375,246490.9375,242778.671875,204853.84375,222252.25,218103.328125,206363.828125,221695.0,1.0,3
219213.84375,231118.484375,246669.921875,243059.671875,205088.625,222373.140625,218734.09375,206629.640625,221696.0,1.0,3
219542.515625,231807.09375,247088.625,243647.53125,205687.28125,222572.0625,220605.375,207146.859375,221697.0,1.0,3
219547.875,231880.234375,247180.984375,243747.84375,205839.375,222580.46875,221180.890625,207218.921875,221698.0,1.0,3
219222.25,231239.0,246817.265625,243215.59375,205329.578125,222384.765625,219648.1875,206745.328125,221699.0,1.0,3
219003.65625,230755.9375,246494.953125,242778.671875,204860.0,222252.609375,218112.796875,206372.59375,221700.0,1.0,3
219207.40625,231119.46875,246671.0,243055.03125,205091.296875,222373.40625,218733.90625,206635.71875,221701.0,1.0,3
219544.75,231813.625,247096.21875,243647.609375,205692.75,222575.28125,220609.578125,207151.859375,221702.0,1.0,3
219550.5625,231889.796875,247189.828125,243747.65625,205847.5,222585.03125,221193.234375,207220.4375,221703.0,1.0,3
219220.640625,231244.984375,246821.03125,243215.515625,205339.859375,222386.546875,219665.171875,206743.71875,221704.0,1.0,3
219002.21875,230759.0625,246492.8125,242774.109375,204864.390625,222246.359375,218116.734375,206366.0625,221705.0,1.0,3
219203.03125,231115.53125,246663.84375,243045.1875,205088.359375,222363.03125,218722.015625,206623.734375,221706.0,1.0,3
219538.84375,231802.4375,247084.953125,243634.390625,205683.984375,222561.96875,220592.59375,207138.453125,221707.0,1.0,3
219553.0625,231885.40625,247182.859375,243741.5,205839.1875,222572.6875,221189.828125,207212.390625,221708.0,1.0,3
219225.390625,231244.546875,246816.828125,243209.609375,205324.5625,222373.671875,219665.265625,206732.546875,221709.0,1.0,3
219013.84375,230759.234375,246495.140625,242773.3125,204852.046875,222243.3125,218116.46875,206354.71875,221710.0,1.0,3
219215.734375,231111.953125,246662.0625,243039.5625,205071.28125,222356.59375,218703.25,206600.9375,221711.0,1.0,3
219553.0625,231807.625,247087.015625,243637.875,205675.390625,222562.765625,220578.640625,207120.125,221712.0,1.0,3
219564.59375,231893.90625,247188.3125,243752.9375,205841.6875,222579.75,221194.390625,207208.375,221713.0,1.0,3
219229.140625,231244.0,246819.5,243218.109375,205330.828125,222378.671875,219676.359375,206734.25,221714.0,1.0,3
219007.59375,230749.9375,246495.234375,242775.984375,204856.703125,222248.234375,218122.015625,206360.34375,221715.0,1.0,3
219207.40625,231103.28125,246664.75,243044.03125,205078.0625,222363.921875,218704.59375,206615.875,221716.0,1.0,3
219531.609375,231788.5,247077.453125,243630.359375,205671.015625,222560.890625,220567.734375,207132.90625,221717.0,1.0,3
219547.421875,231891.140625,247183.578125,243749.8125,205844.734375,222583.875,221196.625,207224.734375,221718.0,1.0,3
219217.96875,231249.28125,246818.96875,243222.578125,205347.359375,222388.515625,219694.328125,206756.15625,221719.0,1.0,3
218992.390625,230747.078125,246482.984375,242773.578125,204866.078125,222250.375,218123.625,206370.359375,221720.0,1.0,3
219189.078125,231091.203125,246648.734375,243037.953125,205085.046875,222364.90625,218691.984375,206621.0625,221721.0,1.0,3
219527.046875,231790.109375,247073.609375,243632.328125,205686.9375,222567.59375,220565.59375,207143.734375,221722.0,1.0,3
219542.953125,231891.671875,247177.9375,243754.015625,205855.109375,222573.40625,221204.140625,207231.609375,221723.0,1.0,3
219222.609375,231266.0,246820.578125,243233.125,205353.625,222371.078125,219707.828125,206761.875,221724.0,1.0,3
219000.078125,230756.375,246487.265625,242785.015625,204873.953125,222233.84375,218135.0625,206376.078125,221725.0,1.0,3
219201.25,231094.25,246652.5,243041.96875,205086.03125,222348.546875,218684.65625,206620.078125,221726.0,1.0,3
219541.34375,231788.671875,247072.96875,243632.421875,205679.0625,222545.875,220547.71875,207134.25,221727.0,1.0,3
219564.0625,231895.421875,247183.9375,243761.703125,205852.328125,222561.515625,221201.1875,207225.0,221728.0,1.0,3
219242.546875,231263.59375,246826.75,243241.078125,205356.578125,222366.25,219712.03125,206756.6875,221729.0,1.0,3
