FZ,C3,CZ,C4,PZ,PO7,OZ,PO8,Counter,Validation,Label
220159.328125,231830.34375,263862.0,258897.859375,209016.453125,224120.140625,223630.640625,208798.03125,110151.0,1.0,3
220362.375,232313.671875,264168.40625,259314.84375,209482.078125,224263.015625,225198.390625,209170.578125,110152.0,1.0,3
220149.9375,231933.25,263981.1875,259019.890625,209226.640625,224123.015625,224506.65625,208889.046875,110153.0,1.0,3
219829.328125,231240.078125,263576.78125,258441.34375,208625.921875,223904.5,222568.3125,208356.53125,110154.0,1.0,3
219833.53125,231169.359375,263503.03125,258361.953125,208490.90625,223907.71875,222005.5,208299.578125,110155.0,1.0,3
220169.078125,231837.578125,263874.25,258905.453125,209022.171875,224137.40625,223628.859375,208805.359375,110156.0,1.0,3
220372.03125,232323.6875,264178.21875,259321.015625,209489.40625,224277.328125,225199.5625,209176.578125,110157.0,1.0,3
220152.265625,231939.0625,263987.625,259022.484375,209235.3125,224133.734375,224518.640625,208891.546875,110158.0,1.0,3
219820.125,231234.890625,263575.4375,258434.546875,208626.71875,223906.203125,222572.515625,208356.53125,110159.0,1.0,3
219823.515625,231165.6875,263501.875,258354.53125,208493.421875,223906.828125,221999.5,208300.65625,110160.0,1.0,3
220161.03125,231841.78125,263874.0625,258900.453125,209031.203125,224137.3125,223622.78125,208809.921875,110161.0,1.0,3
220362.546875,232328.953125,264173.59375,259313.328125,209492.890625,224274.546875,225194.8125,209175.953125,110162.0,1.0,3
220140.015625,231940.3125,263977.0625,259010.6875,209231.828125,224124.171875,224514.171875,208883.140625,110163.0,1.0,3
219808.3125,231236.5,263559.8125,258418.90625,208617.0625,223891.625,222561.78125,208342.3125,110164.0,1.0,3
219813.953125,231165.15625,263488.0,258339.859375,208479.5625,223892.078125,221981.625,208286.796875,110165.0,1.0,3
220147.96875,231831.765625,263862.09375,258886.234375,209011.890625,224120.859375,223598.546875,208795.96875,110166.0,1.0,3
220354.421875,232320.015625,264166.15625,259306.796875,209479.484375,224263.90625,225185.078125,209169.953125,110167.0,1.0,3
220139.5625,231938.34375,263971.875,259009.171875,209222.0,224117.015625,224516.40625,208879.390625,110168.0,1.0,3
219813.140625,231235.15625,263563.28125,258425.703125,208616.53125,223892.78125,222573.234375,208346.15625,110169.0,1.0,3
219811.171875,231146.109375,263479.34375,258335.3125,208468.03125,223884.5625,221970.53125,208279.734375,110170.0,1.0,3
220146.71875,231809.78125,263846.96875,258873.796875,208995.078125,224110.046875,223574.140625,208784.703125,110171.0,1.0,3
220359.25,232308.75,264160.53125,259300.28125,209470.8125,224254.34375,225173.546875,209162.359375,110172.0,1.0,3
220147.796875,231940.671875,263977.96875,259013.28125,209229.6875,224114.6875,224528.921875,208881.890625,110173.0,1.0,3
219813.40625,231236.3125,263561.40625,258424.265625,208618.9375,223887.25,222581.71875,208346.34375,110174.0,1.0,3
219805.09375,231144.3125,263472.0,258328.875,208464.265625,223881.25,221971.421875,208280.625,110175.0,1.0,3
220144.390625,231812.546875,263843.40625,258874.703125,208994.359375,224117.5625,223580.84375,208792.484375,110176.0,1.0,3
220354.234375,232307.859375,264154.0,259299.109375,209464.828125,224261.859375,225181.40625,209169.328125,110177.0,1.0,3
220150.484375,231944.421875,263976.625,259016.859375,209225.125,224122.828125,224545.09375,208893.953125,110178.0,1.0,3
219819.40625,231234.890625,263566.0625,258427.65625,208619.84375,223896.984375,222597.015625,208357.875,110179.0,1.0,3
219812.078125,231141.28125,263479.0625,258330.484375,208467.75,223889.390625,221972.328125,208289.125,110180.0,1.0,3
220145.109375,231802.359375,263843.84375,258868.171875,208992.484375,224117.640625,223565.46875,208787.828125,110181.0,1.0,3
220362.546875,232308.75,264157.125,259301.609375,209473.765625,224271.0625,225178.640625,209170.671875,110182.0,1.0,3
220155.578125,231946.125,263973.75,259020.4375,209232.984375,224136.328125,224551.71875,208895.484375,110183.0,1.0,3
219821.546875,231239.171875,263556.5,258427.484375,208616.984375,223904.40625,222600.5,208353.140625,110184.0,1.0,3
219814.84375,231145.921875,263470.65625,258326.8125,208461.9375,223901.09375,221968.125,208283.9375,110185.0,1.0,3
220150.484375,231809.859375,263841.53125,258864.78125,208990.78125,224130.515625,223560.453125,208790.25,110186.0,1.0,3
220367.109375,232319.03125,264162.0625,259301.34375,209478.0625,224277.6875,225181.859375,209177.015625,110187.0,1.0,3
220160.484375,231959.796875,263987.09375,259022.9375,209242.640625,224135.25,224564.5,208903.53125,110188.0,1.0,3
219829.78125,231253.03125,263576.53125,258433.03125,208631.109375,223907.09375,222616.765625,208363.0625,110189.0,1.0,3
219822.625,231152.453125,263488.71875,258327.265625,208470.625,223899.671875,221970.09375,208285.71875,110190.0,1.0,3
220155.84375,231810.484375,263853.5,258859.5,208990.96875,224127.75,223551.703125,208787.5625,110191.0,1.0,3
220372.828125,232319.84375,264168.40625,259294.640625,209475.015625,224278.21875,225175.59375,209175.59375,110192.0,1.0,3
220173.28125,231969.0,263997.71875,259023.46875,209249.265625,224146.34375,224582.375,208908.71875,110193.0,1.0,3
219839.078125,231258.3125,263583.3125,258433.921875,208637.453125,223918.984375,222638.40625,208369.140625,110194.0,1.0,3
219817.078125,231141.90625,263482.5625,258320.375,208460.0625,223905.390625,221971.515625,208280.71875,110195.0,1.0,3
220147.96875,231798.859375,263842.34375,258852.96875,208974.34375,224131.953125,223541.6875,208776.125,110196.0,1.0,3
220372.203125,232319.84375,264162.75,259296.875,209461.25,224288.40625,225177.109375,209169.953125,110197.0,1.0,3
220169.15625,231972.40625,263987.4375,259025.703125,209233.34375,224149.65625,224592.03125,208902.0,110198.0,1.0,3
219835.3125,231260.375,263570.96875,258433.203125,208622.25,223917.90625,222648.234375,208360.375,110199.0,1.0,3
219817.171875,231140.5625,263469.9375,258316.703125,208451.390625,223898.421875,221975.28125,208275.53125,110200.0,1.0,3
220144.84375,231787.6875,263825.34375,258844.921875,208963.515625,224114.609375,223536.046875,208773.625,110201.0,1.0,3
220374.890625,232313.578125,264149.8125,259295.09375,209460.171875,224271.0625,225184.1875,209175.234375,110202.0,1.0,3
220171.046875,231958.71875,263972.15625,259023.375,209233.265625,224127.5625,224608.40625,208911.75,110203.0,1.0,3
219834.328125,231245.171875,263559.09375,258435.703125,208624.75,223901.640625,222672.921875,208376.109375,110204.0,1.0,3
219818.234375,231132.6875,263459.84375,258323.234375,208454.4375,223887.953125,221990.734375,208284.65625,110205.0,1.0,3
220144.578125,231780.890625,263814.96875,258848.5,208962.53125,224108.25,223541.328125,208779.25,110206.0,1.0,3
220365.953125,232299.359375,264136.84375,259293.484375,209450.875,224263.5625,225186.328125,209176.390625,110207.0,1.0,3
220168.8125,231959.890625,263968.75,259034.734375,209227.359375,224129.171875,224626.28125,208915.328125,110208.0,1.0,3
219833.796875,231254.5625,263554.15625,258444.828125,208615.1875,223899.84375,222683.375,208373.34375,110209.0,1.0,3
219807.875,231127.6875,263445.8125,258321.171875,208430.828125,223879.203125,221975.09375,208277.59375,110210.0,1.0,3
220141.0,231783.046875,263807.8125,258856.640625,208948.140625,224106.375,223525.140625,208773.96875,110211.0,1.0,3
220374.890625,232320.90625,264139.0625,259314.3125,209452.21875,224269.015625,225183.015625,209177.828125,110212.0,1.0,3
220175.25,231981.25,263971.15625,259051.640625,209236.125,224134.28125,224629.046875,208918.453125,110213.0,1.0,3
219843.0,231273.6875,263558.625,258463.15625,208629.9375,223896.625,222684.1875,208377.28125,110214.0,1.0,3
219818.328125,231143.0625,263455.375,258337.359375,208448.265625,223875.53125,221967.765625,208282.59375,110215.0,1.0,3
220150.484375,231796.28125,263818.46875,258866.5625,208960.203125,224100.921875,223509.234375,208775.765625,110216.0,1.0,3
220378.015625,232327.4375,264148.8125,259319.9375,209458.125,224262.03125,225170.671875,209176.671875,110217.0,1.0,3
220182.21875,231994.125,263987.875,259064.78125,209249.796875,224136.515625,224636.46875,208931.6875,110218.0,1.0,3
219848.28125,231283.078125,263572.0625,258472.453125,208636.828125,223905.03125,222690.890625,208392.296875,110219.0,1.0,3
219823.515625,231151.65625,263462.34375,258345.40625,208448.265625,223881.609375,221960.078125,208288.3125,110220.0,1.0,3
220150.390625,231795.921875,263819.625,258870.40625,208953.765625,224108.53125,223492.515625,208777.640625,110221.0,1.0,3
220383.46875,232330.21875,264148.71875,259322.1875,209457.3125,224272.671875,225162.0,209179.703125,110222.0,1.0,3
220192.5,232004.234375,263990.46875,259069.15625,209254.1875,224144.640625,224642.546875,208931.0625,110223.0,1.0,3
219861.875,231300.15625,263583.84375,258483.09375,208649.875,223919.15625,222708.234375,208396.328125,110224.0,1.0,3
219830.84375,231162.46875,263475.125,258348.09375,208460.515625,223894.125,221967.40625,208291.453125,110225.0,1.0,3
220153.421875,231799.21875,263828.75,258863.96875,208962.984375,224113.796875,223486.078125,208776.390625,110226.0,1.0,3
220388.5625,232337.359375,264161.15625,259320.390625,209467.0625,224279.828125,225160.9375,209185.0625,110227.0,1.0,3
220197.421875,232016.296875,264005.6875,259073.984375,209267.953125,224152.515625,224651.9375,208942.328125,110228.0,1.0,3
219862.40625,231309.625,263594.84375,258483.546875,208659.625,223919.875,222715.65625,208399.984375,110229.0,1.0,3
219829.59375,231161.9375,263482.71875,258345.140625,208465.875,223896.265625,221963.390625,208287.328125,110230.0,1.0,3
220158.34375,231806.015625,263838.3125,258865.484375,208972.734375,224119.25,223477.671875,208773.890625,110231.0,1.0,3
220392.5,232347.921875,264171.15625,259324.765625,209482.078125,224285.640625,225160.75,209182.03125,110232.0,1.0,3
220200.8125,232027.921875,264013.375,259078.546875,209279.578125,224157.4375,224663.5625,208940.890625,110233.0,1.0,3
219857.140625,231306.859375,263593.0625,258477.90625,208662.84375,223916.921875,222716.453125,208394.359375,110234.0,1.0,3
219819.84375,231152.71875,263474.40625,258332.625,208464.359375,223888.046875,221948.90625,208280.453125,110235.0,1.0,3
220141.984375,231785.1875,263823.09375,258846.359375,208961.8125,224105.3125,223452.546875,208761.640625,110236.0,1.0,3
220380.4375,232332.09375,264160.0,259311.1875,209470.453125,224274.203125,225140.90625,209168.265625,110237.0,1.0,3
220198.75,232026.859375,264014.71875,259077.203125,209283.140625,224155.28125,224667.765625,208935.890625,110238.0,1.0,3
219856.0625,231308.015625,263596.90625,258482.109375,208671.34375,223919.15625,222731.921875,208395.96875,110239.0,1.0,3
219811.890625,231142.34375,263467.09375,258325.296875,208458.28125,223883.75,221942.1875,208270.53125,110240.0,1.0,3
220136.984375,231780.984375,263816.75,258838.21875,208957.078125,224104.5,223441.734375,208750.90625,110241.0,1.0,3
220376.140625,232332.984375,264156.59375,259304.921875,209474.21875,224274.203125,225143.859375,209170.9375,110242.0,1.0,3
220189.8125,232023.71875,264004.96875,259064.6875,209282.96875,224148.765625,224674.734375,208932.578125,110243.0,1.0,3
219853.203125,231310.890625,263593.5,258474.25,208676.609375,223921.21875,222745.0625,208393.546875,110244.0,1.0,3
219811.453125,231148.96875,263464.9375,258321.0,208464.8125,223889.484375,221946.84375,208271.234375,110245.0,1.0,3
220133.765625,231780.890625,263810.6875,258832.59375,208955.65625,224107.0,223432.25,208751.265625,110246.0,1.0,3
220368.546875,232325.734375,264144.625,259297.0625,209462.671875,224270.703125,225129.28125,209165.9375,110247.0,1.0,3
220187.40625,232020.953125,263998.0,259062.453125,209272.328125,224146.96875,224670.359375,208935.265625,110248.0,1.0,3
219848.90625,231306.953125,263580.8125,258466.109375,208659.890625,223913.4375,222734.78125,208392.390625,110249.0,1.0,3
219808.046875,231142.34375,263455.8125,258313.21875,208451.65625,223885.546875,221933.25,208269.8125,110250.0,1.0,3
220128.9375,231767.390625,263803.15625,258825.96875,208946.171875,224101.640625,223416.25,208749.125,110251.0,1.0,3
220366.125,232315.1875,264141.5625,259292.59375,209459.09375,224263.28125,225121.234375,209166.65625,110252.0,1.0,3
220188.296875,232019.703125,264000.59375,259064.6875,209280.5625,224144.46875,224678.859375,208939.296875,110253.0,1.0,3
219848.453125,231302.921875,263585.0,258470.125,208672.234375,223909.859375,222745.609375,208393.375,110254.0,1.0,3
219801.515625,231129.03125,263454.03125,258310.0,208455.78125,223876.25,221927.625,208261.765625,110255.0,1.0,3
220124.375,231757.828125,263800.5,258821.40625,208946.4375,224097.609375,223406.40625,208736.96875,110256.0,1.0,3
220364.421875,232310.1875,264139.15625,259289.546875,209455.703125,224264.0,225114.984375,209154.9375,110257.0,1.0,3
220188.921875,232017.640625,264002.53125,259068.4375,209281.265625,224148.125,224685.921875,208938.9375,110258.0,1.0,3
219845.421875,231291.921875,263584.375,258469.0625,208668.5625,223909.859375,222749.8125,208394.625,110259.0,1.0,3
219798.921875,231115.890625,263451.53125,258304.015625,208448.0,223873.390625,221921.0,208262.484375,110260.0,1.0,3
220124.90625,231755.859375,263800.5,258816.5,208941.34375,224098.15625,223395.765625,208745.71875,110261.0,1.0,3
220363.53125,232313.40625,264139.78125,259289.28125,209456.15625,224269.1875,225112.390625,209165.578125,110262.0,1.0,3
220189.546875,232025.875,264002.71875,259066.390625,209281.53125,224153.140625,224692.984375,208942.78125,110263.0,1.0,3
219843.640625,231306.40625,263581.53125,258467.890625,208667.84375,223915.3125,222761.875,208399.0,110264.0,1.0,3
219787.671875,231118.65625,263437.5,258293.90625,208432.078125,223869.71875,221912.953125,208258.015625,110265.0,1.0,3
220112.484375,231746.109375,263786.28125,258805.40625,208920.78125,224089.921875,223378.0625,208734.09375,110266.0,1.0,3
220355.046875,232303.5625,264130.75,259282.390625,209441.9375,224262.65625,225106.03125,209159.59375,110267.0,1.0,3
220181.328125,232015.5,263994.3125,259062.359375,209269.296875,224141.96875,224699.953125,208942.15625,110268.0,1.0,3
219841.578125,231301.40625,263580.09375,258468.96875,208659.265625,223910.21875,222773.859375,208401.0625,110269.0,1.0,3
219787.3125,231118.484375,263441.78125,258297.484375,208430.75,223876.0625,221920.109375,208260.953125,110270.0,1.0,3
220101.03125,231735.5625,263776.78125,258798.34375,208910.046875,224088.046875,223364.21875,208728.015625,110271.0,1.0,3
220347.796875,232299.359375,264121.625,259275.0625,209434.609375,224259.171875,225096.296875,209153.421875,110272.0,1.0,3
220179.265625,232019.515625,263992.0,259060.125,209272.328125,224144.46875,224707.546875,208941.96875,110273.0,1.0,3
219840.5,231307.75,263578.125,258466.734375,208664.625,223909.328125,222783.0625,208399.453125,110274.0,1.0,3
219785.96875,231118.921875,263436.34375,258288.546875,208433.25,223870.078125,221916.0,208257.65625,110275.0,1.0,3
220108.015625,231740.578125,263780.625,258793.96875,208919.796875,224091.890625,223360.640625,208730.96875,110276.0,1.0,3
220358.96875,232307.6875,264132.46875,259277.5625,209449.359375,224266.0625,225099.0625,209160.75,110277.0,1.0,3
220184.625,232026.671875,264002.375,259064.328125,209283.328125,224148.484375,224713.8125,208948.234375,110278.0,1.0,3
219843.09375,231312.5,263592.0,258475.140625,208679.296875,223914.6875,222794.0625,208408.65625,110279.0,1.0,3
219786.59375,231117.9375,263449.28125,258295.15625,208445.9375,223872.125,221916.4375,208259.34375,110280.0,1.0,3
220102.90625,231729.390625,263785.09375,258793.6875,208923.546875,224090.203125,223347.5,208724.4375,110281.0,1.0,3
220354.953125,232302.9375,264132.625,259276.40625,209450.96875,224263.109375,225088.609375,209150.921875,110282.0,1.0,3
220188.75,232036.0625,264008.34375,259073.0,209294.953125,224153.046875,224724.71875,208948.046875,110283.0,1.0,3
219839.078125,231311.15625,263587.15625,258472.28125,208677.0625,223910.3125,222796.921875,208402.21875,110284.0,1.0,3
219779.4375,231110.4375,263439.375,258288.1875,208437.265625,223866.046875,221909.03125,208251.65625,110285.0,1.0,3
220101.75,231728.59375,263777.96875,258788.6875,208914.96875,224084.65625,223338.546875,208719.34375,110286.0,1.0,3
220353.875,232298.734375,264125.9375,259270.328125,209438.8125,224257.65625,225085.296875,209152.703125,110287.0,1.0,3
220189.015625,232029.09375,263999.6875,259064.859375,209282.515625,224145.625,224730.625,208954.84375,110288.0,1.0,3
219847.65625,231310.890625,263586.53125,258473.34375,208677.234375,223912.984375,222814.453125,208414.828125,110289.0,1.0,3
219786.59375,231103.453125,263433.28125,258284.4375,208432.171875,223868.28125,221914.296875,208256.84375,110290.0,1.0,3
220099.78125,231711.96875,263764.09375,258775.453125,208902.359375,224079.203125,223330.5,208717.734375,110291.0,1.0,3
220351.640625,232288.28125,264114.5625,259262.90625,209430.140625,224251.578125,225079.75,209152.171875,110292.0,1.0,3
220190.0,232025.328125,263994.3125,259066.828125,209279.578125,224144.015625,224739.109375,208955.109375,110293.0,1.0,3
219849.625,231312.046875,263582.25,258475.859375,208673.921875,223914.875,222822.9375,208411.875,110294.0,1.0,3
219787.84375,231107.03125,263434.90625,258285.6875,208430.828125,223875.34375,221911.53125,208253.359375,110295.0,1.0,3
220103.265625,231721.34375,263769.65625,258779.84375,208902.453125,224090.375,223319.234375,208715.859375,110296.0,1.0,3
220355.046875,232294.890625,264120.125,259264.6875,209430.140625,224263.828125,225071.4375,209148.765625,110297.0,1.0,3
220196.171875,232037.3125,264005.40625,259071.296875,209286.90625,224157.34375,224745.375,208954.9375,110298.0,1.0,3
219855.703125,231325.015625,263594.21875,258479.515625,208683.578125,223920.859375,222833.40625,208413.3125,110299.0,1.0,3
219792.84375,231114.28125,263443.75,258284.34375,208437.890625,223876.25,221911.34375,208251.84375,110300.0,1.0,3
220104.875,231717.140625,263775.28125,258773.40625,208906.75,224088.140625,223306.640625,208713.359375,110301.0,1.0,3
220362.640625,232300.265625,264130.21875,259266.484375,209443.1875,224266.6875,225072.15625,209153.0625,110302.0,1.0,3
220202.15625,232042.5,264014.25,259075.140625,209301.125,224163.328125,224762.09375,208959.859375,110303.0,1.0,3
219856.0625,231323.21875,263598.59375,258480.40625,208692.96875,223924.34375,222848.6875,208414.296875,110304.0,1.0,3
219790.078125,231106.859375,263445.28125,258283.1875,208438.96875,223877.234375,221910.453125,208251.84375,110305.0,1.0,3
220104.875,231714.015625,263775.8125,258770.453125,208905.40625,224090.015625,223299.84375,208714.703125,110306.0,1.0,3
220358.796875,232294.453125,264127.34375,259261.203125,209436.578125,224265.171875,225063.65625,209153.78125,110307.0,1.0,3
220201.796875,232042.140625,264014.625,259078.09375,209303.0,224162.796875,224763.515625,208966.734375,110308.0,1.0,3
219857.046875,231323.40625,263598.6875,258486.21875,208697.359375,223925.859375,222853.25,208421.890625,110309.0,1.0,3
219782.5625,231099.25,263440.25,258282.734375,208436.203125,223874.09375,221904.46875,208252.109375,110310.0,1.0,3
220093.4375,231696.765625,263766.0625,258764.453125,208895.5625,224083.84375,223279.453125,208706.390625,110311.0,1.0,3
220360.859375,232290.6875,264127.1875,259263.96875,209437.640625,224266.15625,225057.40625,209153.515625,110312.0,1.0,3
220203.3125,232040.53125,264015.0625,259078.359375,209300.671875,224151.890625,224767.28125,208966.296875,110313.0,1.0,3
219859.375,231322.140625,263601.8125,258483.546875,208694.3125,223914.515625,222858.171875,208422.34375,110314.0,1.0,3
219785.96875,231093.625,263437.9375,258272.90625,208426.8125,223860.59375,221891.140625,208245.140625,110315.0,1.0,3
220098.53125,231694.703125,263761.6875,258757.21875,208887.609375,224071.234375,223262.109375,208703.25,110316.0,1.0,3
220358.53125,232284.53125,264119.3125,259255.390625,209430.3125,224255.875,225048.1875,209151.90625,110317.0,1.0,3
220208.234375,232047.6875,264014.875,259078.09375,209305.859375,224159.671875,224777.375,208971.46875,110318.0,1.0,3
219864.109375,231330.46875,263600.65625,258484.34375,208701.46875,223924.53125,222873.8125,208427.4375,110319.0,1.0,3
219786.59375,231094.421875,263433.46875,258270.9375,208430.46875,223864.984375,221896.328125,208247.1875,110320.0,1.0,3
220094.859375,231690.328125,263756.3125,258752.203125,208887.609375,224070.53125,223254.59375,208701.28125,110321.0,1.0,3
220356.5625,232283.71875,264113.40625,259250.203125,209427.453125,224250.59375,225041.21875,209146.71875,110322.0,1.0,3
220209.84375,232048.046875,264010.9375,259077.296875,209304.78125,224155.546875,224786.765625,208971.390625,110323.0,1.0,3
219866.34375,231329.390625,263602.1875,258488.015625,208704.59375,223921.390625,222888.296875,208429.046875,110324.0,1.0,3
219788.203125,231088.53125,263434.0,258270.484375,208434.046875,223866.40625,221902.765625,208248.796875,110325.0,1.0,3
220098.078125,231685.59375,263757.03125,258749.890625,208890.921875,224072.046875,223256.65625,208698.78125,110326.0,1.0,3
220362.640625,232284.96875,264119.40625,259254.859375,209436.921875,224253.546875,225046.3125,209150.734375,110327.0,1.0,3
220213.328125,232056.265625,264017.75,259084.0,209316.59375,224155.015625,224797.9375,208978.890625,110328.0,1.0,3
219866.15625,231338.6875,263604.875,258490.34375,208715.5,223922.296875,222898.671875,208434.140625,110329.0,1.0,3
219781.234375,231087.984375,263432.03125,258267.890625,208440.671875,223865.609375,221897.9375,208246.109375,110330.0,1.0,3
220089.765625,231683.359375,263753.71875,258744.796875,208891.90625,224069.453125,223237.609375,208696.640625,110331.0,1.0,3
220356.5625,232285.234375,264117.6875,259248.953125,209435.3125,224256.765625,225034.0625,209149.84375,110332.0,1.0,3
220208.40625,232055.828125,264016.84375,259077.65625,209313.90625,224158.140625,224797.40625,208975.59375,110333.0,1.0,3
219867.328125,231339.3125,263605.21875,258486.40625,208712.640625,223926.3125,222903.140625,208433.328125,110334.0,1.0,3
219779.796875,231088.34375,263426.84375,258258.953125,208429.84375,223863.109375,221889.625,208241.5625,110335.0,1.0,3
220088.96875,231683.265625,263748.53125,258738.625,208884.03125,224074.28125,223227.6875,208691.453125,110336.0,1.0,3
220359.328125,232286.765625,264112.25,259248.421875,209434.328125,224260.703125,225029.5,209147.078125,110337.0,1.0,3
220216.90625,232064.578125,264015.6875,259085.15625,209321.859375,224163.515625,224808.40625,208978.453125,110338.0,1.0,3
219873.765625,231346.640625,263602.09375,258491.59375,208716.046875,223929.265625,222914.046875,208432.984375,110339.0,1.0,3
219791.0625,231099.25,263427.46875,258266.015625,208434.859375,223868.28125,221893.90625,208244.6875,110340.0,1.0,3
220090.84375,231678.4375,263742.28125,258737.90625,208878.3125,224072.671875,223215.96875,208690.5625,110341.0,1.0,3
220361.65625,232283.453125,264109.125,259247.078125,209428.34375,224260.515625,225022.71875,209149.484375,110342.0,1.0,3
220221.109375,232070.65625,264017.5625,259086.953125,209324.453125,224168.15625,224817.96875,208987.84375,110343.0,1.0,3
219872.59375,231352.375,263599.40625,258488.8125,208718.0,223928.8125,222920.03125,208437.890625,110344.0,1.0,3
219781.9375,231093.625,263419.625,258257.515625,208430.296875,223866.765625,221886.3125,208241.015625,110345.0,1.0,3
220083.421875,231673.78125,263737.71875,258729.859375,208875.1875,224070.265625,223202.5625,208687.609375,110346.0,1.0,3
220356.734375,232281.84375,264106.34375,259242.078125,209429.234375,224258.546875,225013.5,209144.390625,110347.0,1.0,3
220220.84375,232073.53125,264019.90625,259089.453125,209329.109375,224168.875,224822.703125,208987.75,110348.0,1.0,3
219874.828125,231360.0625,263611.84375,258499.71875,208730.53125,223932.03125,222937.203125,208447.015625,110349.0,1.0,3
219781.5,231099.96875,263430.25,258263.78125,208440.578125,223869.8125,221895.703125,208248.078125,110350.0,1.0,3
220082.96875,231679.78125,263742.0,258728.96875,208880.28125,224076.78125,223199.078125,208690.5625,110351.0,1.0,3
220356.5625,232289.53125,264110.0,259243.5,209433.890625,224264.984375,225012.609375,209146.890625,110352.0,1.0,3
220215.65625,232077.734375,264019.09375,259088.015625,209330.4375,224169.953125,224830.3125,208986.5,110353.0,1.0,3
219866.609375,231355.234375,263602.4375,258489.078125,208725.15625,223928.09375,222940.25,208440.21875,110354.0,1.0,3
219776.40625,231089.78125,263418.375,258250.1875,208432.53125,223861.9375,221886.40625,208238.421875,110355.0,1.0,3
220075.109375,231663.0625,263728.78125,258714.65625,208872.234375,224064.890625,223180.921875,208678.125,110356.0,1.0,3
220354.953125,232281.484375,264104.03125,259237.953125,209432.8125,224256.84375,225004.203125,209146.09375,110357.0,1.0,3
220221.5625,232080.5,264019.96875,259093.75,209334.921875,224168.25,224839.6875,208991.328125,110358.0,1.0,3
219879.125,231368.640625,263611.21875,258505.171875,208735.0,223936.328125,222961.515625,208447.28125,110359.0,1.0,3
219784.0,231095.6875,263426.5,258262.265625,208436.734375,223869.71875,221896.421875,208241.734375,110360.0,1.0,3
220083.0625,231666.984375,263737.375,258725.125,208872.859375,224073.203125,223180.484375,208681.96875,110361.0,1.0,3
220357.1875,232283.0,264108.40625,259242.25,209431.75,224264.0,225005.015625,209149.390625,110362.0,1.0,3
220221.375,232080.671875,264023.375,259095.171875,209337.15625,224170.65625,224843.890625,208996.6875,110363.0,1.0,3
219874.390625,231362.46875,263609.78125,258502.40625,208736.15625,223930.78125,222959.5625,208445.9375,110364.0,1.0,3
219776.671875,231092.28125,263419.25,258254.390625,208433.0625,223863.453125,221882.203125,208235.125,110365.0,1.0,3
220076.09375,231665.828125,263725.84375,258712.15625,208864.984375,224066.234375,223159.640625,208668.65625,110366.0,1.0,3
220353.796875,232283.71875,264097.84375,259228.484375,209423.15625,224258.109375,224988.296875,209135.0,110367.0,1.0,3
220221.5625,232087.203125,264017.65625,259086.140625,209331.78125,224169.328125,224843.546875,208988.375,110368.0,1.0,3
219873.859375,231369.71875,263607.1875,258496.421875,208730.4375,223931.765625,222966.625,208444.875,110369.0,1.0,3
219776.125,231092.109375,263417.65625,258251.078125,208427.078125,223862.203125,221880.0625,208235.03125,110370.0,1.0,3
220076.359375,231658.234375,263724.125,258711.53125,208858.640625,224062.921875,223148.390625,208669.90625,110371.0,1.0,3
220356.109375,232278.71875,264099.1875,259233.21875,209422.09375,224257.921875,224982.921875,209137.59375,110372.0,1.0,3
220225.9375,232087.375,264020.96875,259095.265625,209334.640625,224174.5,224855.703125,208994.28125,110373.0,1.0,3
219881.71875,231373.640625,263610.59375,258506.078125,208736.15625,223936.6875,222981.734375,208450.859375,110374.0,1.0,3
219779.265625,231087.640625,263413.53125,258250.546875,208425.28125,223860.78125,221878.984375,208231.1875,110375.0,1.0,3
220076.71875,231652.5,263720.65625,258710.1875,208856.3125,224066.953125,223141.859375,208665.4375,110376.0,1.0,3
220353.078125,232273.4375,264096.0625,259233.9375,209420.296875,224260.421875,224980.953125,209131.0625,110377.0,1.0,3
220226.828125,232090.59375,264023.375,259103.578125,209340.71875,224170.03125,224866.0625,208994.1875,110378.0,1.0,3
219879.484375,231374.71875,263612.375,258512.515625,208743.21875,223930.421875,222994.0625,208453.09375,110379.0,1.0,3
219774.4375,231086.375,263415.78125,258252.421875,208430.921875,223856.125,221878.265625,208231.453125,110380.0,1.0,3
220071.53125,231650.890625,263721.375,258706.515625,208857.75,224058.90625,223124.15625,208660.34375,110381.0,1.0,3
220360.046875,232282.828125,264106.34375,259240.1875,209430.140625,224260.703125,224973.09375,209139.828125,110382.0,1.0,3
220233.8125,232103.03125,264031.4375,259108.9375,209350.5625,224173.609375,224869.734375,209001.609375,110383.0,1.0,3
219886.453125,231381.328125,263618.28125,258512.59375,208746.078125,223928.734375,222997.203125,208452.375,110384.0,1.0,3
219786.765625,231095.5,263424.0,258253.59375,208434.671875,223856.75,221877.375,208229.84375,110385.0,1.0,3
220083.6875,231656.984375,263726.375,258705.1875,208860.609375,224060.25,223116.375,208660.609375,110386.0,1.0,3
220369.4375,232289.984375,264106.15625,259236.078125,209428.796875,224259.71875,224968.171875,209138.125,110387.0,1.0,3
220249.625,232122.4375,264042.96875,259117.34375,209362.625,224185.5,224890.390625,209007.953125,110388.0,1.0,3
219903.171875,231403.515625,263635.4375,258526.28125,208765.21875,223951.34375,223028.84375,208466.0625,110389.0,1.0,3
219794.015625,231104.4375,263434.0,258258.5,208444.875,223877.859375,221895.4375,208238.515625,110390.0,1.0,3
220083.78125,231656.703125,263730.03125,258699.8125,208861.140625,224074.453125,223117.1875,208660.96875,110391.0,1.0,3
220359.953125,232277.1875,264100.53125,259220.703125,209419.9375,224266.234375,224959.671875,209133.21875,110392.0,1.0,3
220243.453125,232113.125,264037.25,259106.984375,209358.78125,224186.125,224893.515625,209010.09375,110393.0,1.0,3
219896.203125,231395.46875,263625.53125,258518.140625,208764.234375,223947.140625,223034.65625,208469.453125,110394.0,1.0,3
219785.96875,231094.875,263421.40625,258248.671875,208442.09375,223868.640625,221886.21875,208238.421875,110395.0,1.0,3
220075.28125,231643.75,263718.0625,258692.046875,208855.25,224062.484375,223100.46875,208659.4375,110396.0,1.0,3
220359.875,232272.984375,264093.125,259219.546875,209416.09375,224252.296875,224947.34375,209130.53125,110397.0,1.0,3
220243.640625,232105.4375,264028.84375,259104.5625,209352.96875,224171.734375,224887.796875,209005.265625,110398.0,1.0,3
219896.921875,231388.125,263620.15625,258515.640625,208756.1875,223931.046875,223032.78125,208466.765625,110399.0,1.0,3
219782.125,231078.96875,263414.78125,258243.75,208426.546875,223849.328125,221876.84375,208231.1875,110400.0,1.0,3
220070.1875,231626.578125,263706.96875,258683.09375,208835.484375,224044.15625,223079.71875,208645.40625,110401.0,1.0,3
220357.984375,232262.703125,264087.40625,259215.25,209407.25,224241.109375,224937.0625,209125.875,110402.0,1.0,3
220249.890625,232106.421875,264034.09375,259110.734375,209355.125,224171.5625,224900.046875,209011.0,110403.0,1.0,3
219907.015625,231398.859375,263630.25,258524.765625,208764.234375,223935.34375,223051.90625,208467.75,110404.0,1.0,3
219782.921875,231078.78125,263413.09375,258241.703125,208427.609375,223848.625,221878.0,208226.890625,110405.0,1.0,3
220076.09375,231628.71875,263707.3125,258682.46875,208839.875,224051.578125,223078.203125,208648.09375,110406.0,1.0,3
220363.09375,232265.296875,264086.0625,259215.78125,209410.203125,224251.671875,224938.3125,209126.953125,110407.0,1.0,3
220250.875,232114.203125,264028.03125,259109.125,209356.640625,224182.734375,224909.609375,209011.890625,110408.0,1.0,3
219906.03125,231400.5625,263622.375,258523.59375,208763.34375,223944.90625,223066.21875,208471.25,110409.0,1.0,3
219785.515625,231082.265625,263410.03125,258243.03125,208427.703125,223858.625,221885.6875,208227.78125,110410.0,1.0,3
220074.390625,231627.296875,263702.21875,258679.609375,208837.09375,224052.109375,223067.5625,208643.53125,110411.0,1.0,3
220361.828125,232261.375,264086.84375,259214.796875,209410.640625,224250.40625,224929.453125,209127.21875,110412.0,1.0,3
220249.1875,232107.140625,264029.625,259108.671875,209358.515625,224175.671875,224907.828125,209010.375,110413.0,1.0,3
219904.703125,231397.078125,263623.28125,258524.40625,208769.421875,223937.9375,223066.75,208471.875,110414.0,1.0,3
219777.65625,231069.484375,263398.25,258233.296875,208424.75,223848.0,221871.828125,208221.703125,110415.0,1.0,3
220065.359375,231611.828125,263683.1875,258668.34375,208828.15625,224045.9375,223045.921875,208635.65625,110416.0,1.0,3
220360.140625,232255.734375,264073.0,259211.9375,209407.6875,224254.4375,224921.953125,209127.671875,110417.0,1.0,3
220253.203125,232110.453125,264024.375,259111.09375,209357.890625,224182.015625,224916.9375,209019.84375,110418.0,1.0,3
219908.625,231400.296875,263624.53125,258527.078125,208769.421875,223946.96875,223082.125,208481.96875,110419.0,1.0,3
219789.09375,231079.3125,263411.375,258240.09375,208430.75,223861.765625,221881.3125,208229.84375,110420.0,1.0,3
220073.3125,231613.890625,263699.09375,258667.90625,208827.796875,224051.9375,223040.921875,208637.1875,110421.0,1.0,3
220362.109375,232254.578125,264083.5625,259204.4375,209401.609375,224254.265625,224911.671875,209121.234375,110422.0,1.0,3
220255.078125,232116.625,264035.1875,259110.46875,209360.3125,224186.75,224921.59375,209017.34375,110423.0,1.0,3
219908.453125,231405.203125,263627.75,258523.5,208770.578125,223948.21875,223086.15625,208476.875,110424.0,1.0,3
219785.875,231085.125,263412.0,258235.171875,208432.984375,223869.625,221885.78125,208226.625,110425.0,1.0,3
220065.546875,231618.984375,263699.0,258661.90625,208831.640625,224066.6875,223043.515625,208634.671875,110426.0,1.0,3
220356.5625,232263.0625,264086.21875,259201.390625,209408.234375,224271.609375,224919.53125,209122.125,110427.0,1.0,3
220249.8125,232126.90625,264036.625,259106.4375,209365.40625,224203.390625,224937.59375,209017.96875,110428.0,1.0,3
219906.390625,231421.390625,263630.4375,258522.703125,208770.9375,223967.703125,223106.0,208480.8125,110429.0,1.0,3
219781.046875,231089.59375,263407.4375,258229.984375,208419.03125,223878.21875,221886.671875,208225.109375,110430.0,1.0,3
220064.015625,231616.03125,263686.9375,258655.296875,208809.375,224068.828125,223033.234375,208630.125,110431.0,1.0,3
220353.703125,232252.421875,264066.65625,259196.390625,209382.921875,224265.609375,224912.296875,209117.03125,110432.0,1.0,3
220253.109375,232123.59375,264020.25,259110.203125,209349.9375,224190.328125,224946.265625,209021.28125,110433.0,1.0,3
219908.0,231415.125,263616.40625,258527.4375,208767.8125,223952.515625,223125.140625,208481.34375,110434.0,1.0,3
219777.921875,231075.65625,263393.59375,258231.6875,208422.0625,223859.703125,221905.0,208222.609375,110435.0,1.0,3
220059.015625,231601.90625,263674.875,258657.171875,208817.875,224049.78125,223045.828125,208625.921875,110436.0,1.0,3
220348.15625,232240.890625,264056.1875,259198.625,209393.5625,224248.890625,224924.90625,209113.359375,110437.0,1.0,3
220247.75,232114.296875,264015.15625,259115.5625,209361.828125,224184.609375,224975.6875,209023.328125,110438.0,1.0,3
219908.359375,231412.890625,263618.625,258535.84375,208777.109375,223955.109375,223163.40625,208495.5625,110439.0,1.0,3
219774.4375,231072.875,263392.625,258233.828125,208421.4375,223861.3125,221921.359375,208234.5,110440.0,1.0,3
220049.71875,231597.796875,263666.65625,258651.8125,208806.15625,224045.5,223037.25,208627.703125,110441.0,1.0,3
220343.953125,232247.421875,264052.25,259198.890625,209380.328125,224247.109375,224915.25,209117.203125,110442.0,1.0,3
220247.9375,232131.1875,264017.65625,259128.078125,209359.328125,224187.46875,224984.265625,209035.578125,110443.0,1.0,3
219902.1875,231425.40625,263611.21875,258548.265625,208775.671875,223952.421875,223166.359375,208503.078125,110444.0,1.0,3
219768.890625,231081.828125,263380.8125,258244.203125,208417.421875,223860.421875,221914.75,208236.1875,110445.0,1.0,3
220042.203125,231601.453125,263658.40625,258659.140625,208799.8125,224046.390625,223026.703125,208631.90625,110446.0,1.0,3
220341.0,232259.140625,264051.8125,259207.828125,209382.484375,224254.703125,224915.15625,209128.65625,110447.0,1.0,3
220247.390625,232144.78125,264017.3125,259132.90625,209358.78125,224195.875,224986.953125,209039.421875,110448.0,1.0,3
219902.015625,231434.984375,263617.8125,258553.09375,208775.5,223960.375,223173.78125,208503.078125,110449.0,1.0,3
219770.046875,231089.59375,263388.40625,258246.875,208420.453125,223867.65625,221913.84375,208237.0,110450.0,1.0,3
220048.375,231606.734375,263661.09375,258659.859375,208800.96875,224054.171875,223007.75,208630.921875,110451.0,1.0,3
220344.671875,232256.453125,264049.5,259208.984375,209382.65625,224258.546875,224896.828125,209126.234375,110452.0,1.0,3
220253.75,232146.03125,264016.21875,259138.453125,209365.765625,224196.140625,224984.984375,209045.6875,110453.0,1.0,3
219919.09375,231454.46875,263624.09375,258566.25,208794.453125,223969.046875,223186.5625,208518.1875,110454.0,1.0,3
219780.15625,231099.4375,263392.15625,258255.375,208429.9375,223873.828125,221913.578125,208246.203125,110455.0,1.0,3
220049.71875,231604.40625,263660.125,258660.296875,208803.21875,224053.984375,222996.65625,208628.875,110456.0,1.0,3
220348.78125,232262.796875,264052.875,259209.34375,209388.375,224262.484375,224890.296875,209126.78125,110457.0,1.0,3
220256.0625,232160.515625,264025.15625,259143.546875,209376.40625,224208.75,224993.75,209050.25,110458.0,1.0,3
219907.296875,231451.875,263624.71875,258562.40625,208792.84375,223970.390625,223187.1875,208514.703125,110459.0,1.0,3
219771.84375,231094.25,263394.03125,258249.921875,208428.234375,223873.828125,221905.53125,208243.171875,110460.0,1.0,3
220048.734375,231604.765625,263668.15625,258660.484375,208807.59375,224061.765625,222986.921875,208634.859375,110461.0,1.0,3
220344.21875,232255.921875,264057.09375,259208.0,209391.6875,224270.796875,224882.796875,209125.078125,110462.0,1.0,3
220254.546875,232149.078125,264029.1875,259142.375,209382.921875,224210.0,224993.75,209044.609375,110463.0,1.0,3
219910.234375,231441.6875,263625.78125,258558.5625,208794.71875,223965.46875,223187.0,208504.59375,110464.0,1.0,3
219772.109375,231086.5625,263391.90625,258243.390625,208425.46875,223867.9375,221899.71875,208229.484375,110465.0,1.0,3
220044.265625,231594.84375,263662.8125,258648.671875,208798.46875,224053.625,222967.6875,208619.84375,110466.0,1.0,3
220345.296875,232257.25,264055.75,259202.546875,209385.078125,224262.65625,224865.53125,209118.734375,110467.0,1.0,3
220261.34375,232163.296875,264033.5625,259144.890625,209381.40625,224204.015625,224996.34375,209045.59375,110468.0,1.0,3
219916.5,231453.046875,263633.65625,258564.453125,208801.25,223965.203125,223203.015625,208514.515625,110469.0,1.0,3
219775.6875,231088.703125,263397.09375,258242.6875,208430.390625,223866.5,221905.0,208235.5625,110470.0,1.0,3
220045.25,231593.3125,263661.90625,258639.015625,208796.953125,224048.171875,222958.390625,208613.046875,110471.0,1.0,3
220343.15625,232252.34375,264052.71875,259190.03125,209383.015625,224254.890625,224857.3125,209110.6875,110472.0,1.0,3
220254.015625,232152.921875,264027.9375,259131.75,209377.46875,224195.78125,224997.671875,209040.3125,110473.0,1.0,3
219906.84375,231444.8125,263626.15625,258552.125,208796.5,223954.46875,223206.765625,208508.796875,110474.0,1.0,3
219761.015625,231077.171875,263384.375,258228.90625,208422.78125,223852.109375,221898.296875,208225.640625,110475.0,1.0,3
220032.28125,231581.421875,263651.625,258634.546875,208794.09375,224040.484375,222949.71875,208613.40625,110476.0,1.0,3
220331.078125,232243.9375,264040.375,259185.75,209375.140625,224244.421875,224849.078125,209112.015625,110477.0,1.0,3
220254.375,232162.9375,264026.40625,259138.1875,209379.890625,224195.25,225007.515625,209048.453125,110478.0,1.0,3
219916.046875,231467.609375,263633.5625,258564.453125,208804.109375,223960.828125,223224.5625,208517.5625,110479.0,1.0,3
219772.546875,231096.65625,263394.59375,258237.5,208424.03125,223861.765625,221903.21875,208233.78125,110480.0,1.0,3
220038.546875,231590.90625,263654.9375,258629.09375,208781.21875,224043.171875,222936.3125,208610.984375,110481.0,1.0,3
220343.421875,232254.21875,264047.59375,259182.078125,209369.34375,224247.828125,224839.515625,209108.359375,110482.0,1.0,3
220266.96875,232173.578125,264033.46875,259137.109375,209382.75,224195.78125,225011.265625,209049.265625,110483.0,1.0,3
219921.78125,231469.84375,263636.0625,258560.078125,208808.75,223958.953125,223231.984375,208518.8125,110484.0,1.0,3
219768.171875,231083.796875,263388.84375,258225.78125,208424.3125,223850.40625,221898.109375,208226.984375,110485.0,1.0,3
220035.046875,231575.609375,263644.5625,258613.265625,208778.984375,224023.859375,222911.359375,208592.84375,110486.0,1.0,3
220348.96875,232252.609375,264046.8125,259176.984375,209378.28125,224240.84375,224827.09375,209098.171875,110487.0,1.0,3
220273.6875,232176.25,264035.625,259137.28125,209393.75,224194.71875,225016.625,209043.53125,110488.0,1.0,3
219929.828125,231476.109375,263641.78125,258564.8125,208821.984375,223960.5625,223247.984375,208520.59375,110489.0,1.0,3
219773.890625,231088.53125,263392.4375,258227.921875,208432.625,223855.234375,221905.53125,208227.34375,110490.0,1.0,3
220038.09375,231575.53125,263648.59375,258615.328125,208782.828125,224033.875,222912.34375,208592.75,110491.0,1.0,3
220344.9375,232241.25,264047.53125,259178.140625,209378.28125,224248.71875,224831.203125,209100.84375,110492.0,1.0,3
220270.90625,232167.9375,264040.28125,259140.59375,209397.5,224202.21875,225031.5625,209051.671875,110493.0,1.0,3
219927.40625,231467.4375,263645.1875,258565.625,208821.71875,223965.734375,223260.046875,208521.125,110494.0,1.0,3
219773.359375,231080.390625,263393.25,258228.46875,208429.9375,223859.890625,221906.875,208222.421875,110495.0,1.0,3
220032.8125,231562.828125,263647.25,258613.546875,208777.90625,224038.78125,222903.140625,208593.1875,110496.0,1.0,3
220338.953125,232237.859375,264045.5625,259171.34375,209367.28125,224247.375,224814.390625,209098.703125,110497.0,1.0,3
220262.6875,232169.28125,264034.09375,259133.265625,209384.53125,224193.8125,225022.53125,209045.328125,110498.0,1.0,3
219926.78125,231480.75,263644.5625,258567.9375,208820.828125,223964.671875,223265.234375,208529.171875,110499.0,1.0,3
219767.8125,231085.046875,263385.8125,258223.71875,208420.28125,223853.71875,221897.484375,208230.203125,110500.0,1.0,3
220029.78125,231565.609375,263634.8125,258603.53125,208765.21875,224028.0625,222881.234375,208590.25,110501.0,1.0,3
220338.234375,232237.234375,264032.75,259165.8125,209358.078125,224239.328125,224801.875,209098.875,110502.0,1.0,3
220269.921875,232175.53125,264034.03125,259142.734375,209389.28125,224199.265625,225039.96875,209057.484375,110503.0,1.0,3
219924.71875,231472.359375,263634.53125,258565.265625,208814.125,223962.515625,223277.84375,208528.734375,110504.0,1.0,3
219770.40625,231077.984375,263379.90625,258220.78125,208414.921875,223854.34375,221903.75,208227.15625,110505.0,1.0,3
220028.265625,231552.8125,263627.75,258599.6875,208756.453125,224030.921875,222876.671875,208590.515625,110506.0,1.0,3
220334.03125,232222.03125,264025.15625,259161.34375,209351.28125,224242.71875,224796.6875,209097.09375,110507.0,1.0,3
220273.234375,232176.609375,264031.875,259140.421875,209386.6875,224200.171875,225044.609375,209056.234375,110508.0,1.0,3
219927.234375,231481.828125,263636.96875,258563.734375,208813.21875,223957.875,223286.609375,208523.1875,110509.0,1.0,3
219764.328125,231076.453125,263375.0,258207.625,208408.65625,223841.375,221896.328125,208211.78125,110510.0,1.0,3
220027.09375,231554.0625,263625.96875,258586.546875,208753.59375,224020.375,222861.46875,208575.578125,110511.0,1.0,3
220338.5,232234.546875,264028.90625,259151.59375,209354.859375,224241.296875,224786.234375,209089.046875,110512.0,1.0,3
220270.90625,232184.125,264031.6875,259130.3125,209394.375,224200.53125,225043.09375,209052.203125,110513.0,1.0,3
219917.75,231475.921875,263630.6875,258552.5625,208819.21875,223954.828125,223287.140625,208517.734375,110514.0,1.0,3
219750.03125,231064.03125,263367.75,258197.625,208413.75,223839.234375,221893.640625,208208.203125,110515.0,1.0,3
220009.578125,231538.421875,263618.8125,258578.671875,208760.65625,224020.90625,222852.359375,208577.015625,110516.0,1.0,3
220316.59375,232213.359375,264017.75,259143.90625,209357.0,224231.109375,224776.484375,209086.625,110517.0,1.0,3
220263.3125,232175.09375,264029.90625,259133.53125,209403.671875,224192.5625,225049.71875,209056.40625,110518.0,1.0,3
219922.9375,231481.03125,263636.4375,258562.671875,208837.1875,223959.484375,223303.765625,208528.109375,110519.0,1.0,3
219757.71875,231072.609375,263370.875,258205.21875,208430.65625,223845.046875,221900.984375,208211.34375,110520.0,1.0,3
220013.5,231537.625,263615.3125,258577.6875,208765.21875,224015.8125,222839.125,208570.84375,110521.0,1.0,3
220322.3125,232213.984375,264013.71875,259143.71875,209360.578125,224231.109375,224763.4375,209088.421875,110522.0,1.0,3
220262.421875,232173.484375,264022.21875,259130.40625,209407.328125,224197.3125,225052.03125,209059.90625,110523.0,1.0,3
219920.078125,231483.890625,263633.84375,258562.046875,208846.484375,223961.546875,223320.21875,208533.828125,110524.0,1.0,3
219752.890625,231067.25,263367.125,258202.359375,208433.421875,223843.875,221908.84375,208213.296875,110525.0,1.0,3
220005.1875,231524.390625,263603.34375,258564.453125,208755.375,224011.34375,222827.140625,208563.78125,110526.0,1.0,3
220318.734375,232207.28125,264005.75,259132.546875,209349.21875,224226.984375,224750.28125,209079.484375,110527.0,1.0,3
220265.359375,232174.546875,264020.0625,259129.6875,209400.890625,224192.75,225050.609375,209056.6875,110528.0,1.0,3
219924.28125,231479.859375,263629.90625,258562.84375,208836.734375,223958.5,223319.859375,208531.234375,110529.0,1.0,3
219756.46875,231066.0,263365.0625,258202.890625,208423.140625,223841.375,221899.375,208213.296875,110530.0,1.0,3
220009.21875,231528.953125,263608.09375,258570.171875,208751.625,224015.09375,222816.328125,208564.671875,110531.0,1.0,3
220316.421875,232201.109375,264003.4375,259133.265625,209344.296875,224230.390625,224740.546875,209074.734375,110532.0,1.0,3
220267.6875,232177.859375,264021.15625,259132.375,209399.46875,224201.6875,225054.890625,209056.6875,110533.0,1.0,3
219932.234375,231495.234375,263638.3125,258572.5,208840.859375,223969.3125,223334.4375,208539.015625,110534.0,1.0,3
219758.25,231071.8125,263368.125,258206.109375,208423.59375,223847.640625,221904.46875,208216.171875,110535.0,1.0,3
220005.453125,231517.859375,263602.71875,258562.671875,208745.1875,224016.703125,222806.671875,208562.265625,110536.0,1.0,3
220318.109375,232199.140625,264005.84375,259131.46875,209348.140625,224236.375,224740.453125,209079.390625,110537.0,1.0,3
220267.59375,232174.828125,264023.5625,259132.09375,209405.8125,224201.234375,225065.359375,209065.171875,110538.0,1.0,3
219930.09375,231489.15625,263636.4375,258568.75,208846.9375,223967.703125,223348.390625,208543.578125,110539.0,1.0,3
219755.390625,231062.875,263364.90625,258201.375,208430.109375,223852.640625,221911.703125,208218.671875,110540.0,1.0,3
219999.734375,231509.1875,263597.625,258557.84375,208748.859375,224019.296875,222798.265625,208561.71875,110541.0,1.0,3
220314.09375,232191.71875,264000.9375,259129.6875,209346.71875,224237.265625,224727.125,209079.65625,110542.0,1.0,3
220267.15625,232178.578125,264026.25,259137.546875,209411.984375,224210.265625,225072.515625,209071.609375,110543.0,1.0,3
219932.953125,231497.296875,263642.9375,258577.859375,208858.828125,223974.859375,223363.046875,208551.4375,110544.0,1.0,3
219755.125,231062.421875,263368.03125,258205.9375,208436.828125,223852.46875,221915.109375,208221.34375,110545.0,1.0,3
219996.609375,231500.0625,263589.03125,258551.140625,208743.671875,224010.09375,222780.65625,208554.65625,110546.0,1.0,3
220318.296875,232189.125,263994.84375,259123.15625,209343.671875,224228.78125,224709.609375,209072.6875,110547.0,1.0,3
220278.0625,232183.671875,264027.21875,259137.734375,209416.09375,224205.171875,225070.1875,209067.140625,110548.0,1.0,3
219938.765625,231499.359375,263644.5625,258575.625,208860.4375,223969.59375,223367.78125,208550.015625,110549.0,1.0,3
219762.453125,231066.625,263370.625,258201.640625,208433.609375,223849.25,221912.953125,208217.234375,110550.0,1.0,3
219998.578125,231499.984375,263592.625,258545.59375,208737.5,224008.203125,222771.265625,208545.453125,110551.0,1.0,3
220315.609375,232189.390625,263998.34375,259117.890625,209340.375,224227.609375,224702.453125,209067.40625,110552.0,1.0,3
220276.984375,232192.171875,264032.0625,259137.109375,209415.65625,224206.515625,225075.28125,209070.984375,110553.0,1.0,3
219936.34375,231507.40625,263647.59375,258578.3125,208861.765625,223973.25,223380.21875,208554.125,110554.0,1.0,3
219753.875,231064.203125,263367.3125,258197.171875,208430.65625,223842.359375,221911.078125,208216.609375,110555.0,1.0,3
219992.578125,231496.671875,263589.5,258537.8125,208732.765625,224000.515625,222757.859375,208546.703125,110556.0,1.0,3
220314.1875,232190.734375,263997.0,259113.59375,209333.65625,224218.671875,224694.859375,209068.75,110557.0,1.0,3
220279.9375,232196.453125,264034.09375,259139.078125,209413.765625,224201.515625,225084.578125,209072.953125,110558.0,1.0,3
219943.859375,231514.8125,263652.59375,258581.359375,208863.296875,223974.234375,223394.609375,208559.21875,110559.0,1.0,3
219755.03125,231063.21875,263364.8125,258192.34375,208427.703125,223844.328125,221915.109375,208215.546875,110560.0,1.0,3
219997.40625,231495.859375,263588.78125,258535.75,208732.578125,224006.875,222756.6875,208549.75,110561.0,1.0,3
220317.046875,232185.28125,263993.59375,259110.46875,209334.296875,224227.703125,224691.28125,209067.671875,110562.0,1.0,3
220279.9375,232193.515625,264027.59375,259133.703125,209416.8125,224206.609375,225087.359375,209069.5625,110563.0,1.0,3
219942.15625,231516.078125,263646.15625,258578.671875,208867.234375,223973.703125,223402.75,208555.546875,110564.0,1.0,3
219752.796875,231065.453125,263362.84375,258194.3125,208432.34375,223847.453125,221923.421875,208217.78125,110565.0,1.0,3
219988.46875,231489.96875,263578.21875,258529.59375,208724.4375,224004.640625,222745.0625,208543.390625,110566.0,1.0,3
220316.5,232187.703125,263990.46875,259111.71875,209332.6875,224229.21875,224684.3125,209071.4375,110567.0,1.0,3
220280.390625,232196.734375,264033.40625,259144.96875,209424.765625,224211.796875,225100.859375,209082.78125,110568.0,1.0,3
219931.15625,231503.015625,263639.375,258578.5,208863.921875,223968.421875,223406.765625,208555.28125,110569.0,1.0,3
219747.609375,231057.6875,263353.71875,258192.25,208426.546875,223841.640625,221913.3125,208212.671875,110570.0,1.0,3
219985.34375,231483.625,263572.5,258531.375,208724.890625,224005.34375,222728.703125,208541.609375,110571.0,1.0,3
220305.421875,232173.84375,263978.21875,259106.265625,209326.15625,224225.46875,224663.5625,209064.1875,110572.0,1.0,3
220277.53125,232194.046875,264021.84375,259143.1875,209421.640625,224210.453125,225092.453125,209078.765625,110573.0,1.0,3
219941.09375,231517.0625,263642.25,258589.40625,208876.078125,223980.40625,223421.515625,208565.84375,110574.0,1.0,3
219751.1875,231059.296875,263355.40625,258197.171875,208432.703125,223851.921875,221921.890625,208217.78125,110575.0,1.0,3
219980.15625,231471.015625,263565.4375,258523.234375,208714.875,224006.328125,222717.703125,208535.609375,110576.0,1.0,3
220308.28125,232175.265625,263978.75,259104.390625,209323.375,224228.15625,224661.5,209063.828125,110577.0,1.0,3
220279.484375,232196.546875,264024.4375,259143.984375,209417.703125,224207.234375,225097.1875,209081.53125,110578.0,1.0,3
219938.3125,231512.140625,263643.03125,258588.0625,208869.640625,223973.609375,223425.015625,208566.8125,110579.0,1.0,3
219753.953125,231062.328125,263357.75,258195.46875,208429.140625,223849.6875,221917.421875,208217.421875,110580.0,1.0,3
219988.46875,231482.09375,263574.8125,258522.875,208720.0625,224009.28125,222707.609375,208535.171875,110581.0,1.0,3
220312.484375,232179.03125,263988.0625,259104.203125,209329.46875,224232.078125,224652.390625,209063.390625,110582.0,1.0,3
220287.0,232208.96875,264038.3125,259149.984375,209433.0,224223.859375,225110.953125,209086.71875,110583.0,1.0,3
219948.59375,231533.59375,263657.0,258593.515625,208886.53125,223990.953125,223448.078125,208572.28125,110584.0,1.0,3
219753.15625,231066.796875,263363.09375,258195.46875,208438.515625,223850.765625,221926.71875,208220.375,110585.0,1.0,3
219984.890625,231476.734375,263571.6875,258517.875,208718.71875,224002.046875,222697.6875,208531.0625,110586.0,1.0,3
220313.46875,232177.140625,263983.3125,259099.015625,209328.203125,224226.71875,224641.484375,209058.46875,110587.0,1.0,3
220293.890625,232212.375,264037.3125,259148.1875,209436.125,224215.984375,225111.3125,209088.328125,110588.0,1.0,3
219954.046875,231530.109375,263655.75,258593.421875,208892.34375,223982.734375,223456.75,208572.28125,110589.0,1.0,3
219755.125,231059.296875,263354.78125,258185.8125,208436.90625,223840.484375,221924.484375,208209.8125,110590.0,1.0,3
219989.015625,231472.796875,263565.25,258508.9375,208718.984375,223996.40625,222689.71875,208523.09375,110591.0,1.0,3
220317.484375,232174.640625,263978.40625,259091.6875,209328.484375,224224.3125,224632.0,209051.40625,110592.0,1.0,3
220296.84375,232214.25,264035.71875,259148.1875,209442.203125,224216.171875,225117.03125,209084.125,110593.0,1.0,3
219958.96875,231541.203125,263657.96875,258595.5625,208900.84375,223982.640625,223468.28125,208573.609375,110594.0,1.0,3
219756.375,231065.015625,263355.96875,258186.625,208444.421875,223844.78125,221929.671875,208212.671875,110595.0,1.0,3
219982.75,231464.65625,263556.5,258499.8125,208716.484375,223996.765625,222675.953125,208521.21875,110596.0,1.0,3
220310.15625,232163.015625,263965.1875,259080.6875,209319.8125,224219.390625,224615.28125,209048.8125,110597.0,1.0,3
220295.234375,232211.296875,264025.875,259140.59375,209433.703125,224213.21875,225117.03125,209081.0,110598.0,1.0,3
219961.03125,231541.109375,263652.59375,258594.140625,208894.40625,223982.28125,223480.703125,208573.96875,110599.0,1.0,3
219762.0,231067.515625,263355.96875,258189.03125,208438.515625,223844.953125,221937.90625,208210.0,110600.0,1.0,3
219988.03125,231467.171875,263557.75,258506.703125,208713.53125,224000.515625,222677.828125,208516.9375,110601.0,1.0,3
220310.515625,232164.546875,263965.25,259087.9375,209317.296875,224223.953125,224614.84375,209047.65625,110602.0,1.0,3
220292.453125,232210.578125,264025.4375,259146.046875,209431.65625,224216.4375,225123.734375,209084.84375,110603.0,1.0,3
219960.125,231543.15625,263653.21875,258601.5625,208895.03125,223987.640625,223494.203125,208581.21875,110604.0,1.0,3
219755.03125,231060.09375,263347.46875,258183.140625,208426.71875,223843.078125,221932.625,208208.5625,110605.0,1.0,3
219976.765625,231449.90625,263544.78125,258488.640625,208689.125,223991.40625,222650.03125,208507.28125,110606.0,1.0,3
220301.3125,232150.421875,263953.90625,259072.109375,209298.4375,224217.15625,224591.5,209037.453125,110607.0,1.0,3
220290.21875,232208.96875,264020.59375,259139.515625,209426.5625,224214.296875,225119.453125,209083.140625,110608.0,1.0,3
219962.546875,231551.65625,263657.15625,258601.109375,208902.0,223992.921875,223504.84375,208586.84375,110609.0,1.0,3
219757.796875,231065.28125,263348.53125,258182.15625,208433.609375,223847.640625,221936.828125,208213.578125,110610.0,1.0,3
219981.765625,231453.484375,263543.34375,258487.125,208697.796875,223999.625,222643.765625,208513.359375,110611.0,1.0,3
220310.609375,232157.125,263953.90625,259072.46875,209308.0,224229.21875,224590.875,209043.8125,110612.0,1.0,3
220293.625,232208.703125,264015.25,259134.875,209427.625,224217.78125,225120.875,209084.125,110613.0,1.0,3
219962.0,231547.453125,263644.75,258591.90625,208896.1875,223985.046875,223501.0,208583.09375,110614.0,1.0,3
219752.796875,231054.546875,263335.40625,258168.828125,208424.578125,223838.34375,221919.9375,208209.453125,110615.0,1.0,3
219974.96875,231440.96875,263534.9375,258476.5625,208690.5625,223988.0,222618.734375,208503.78125,110616.0,1.0,3
220308.90625,232152.734375,263951.5,259068.078125,209304.34375,224216.53125,224570.484375,209038.265625,110617.0,1.0,3
220297.828125,232212.90625,264017.5625,259141.578125,209429.5,224214.03125,225121.234375,209086.1875,110618.0,1.0,3
219966.65625,231546.375,263650.5625,258604.234375,208899.5,223985.046875,223515.3125,208588.09375,110619.0,1.0,3
219758.703125,231054.828125,263345.0625,258182.421875,208428.0625,223837.625,221933.34375,208213.75,110620.0,1.0,3
219978.8125,231439.625,263539.0625,258481.671875,208684.921875,223985.328125,222618.375,208500.84375,110621.0,1.0,3
220304.4375,232138.609375,263946.9375,259062.625,209290.03125,224210.625,224558.6875,209029.140625,110622.0,1.0,3
220301.84375,232212.734375,264020.96875,259140.421875,209425.03125,224211.515625,225123.5625,209083.59375,110623.0,1.0,3
219973.71875,231556.578125,263658.875,258607.640625,208902.90625,223987.203125,223528.453125,208587.921875,110624.0,1.0,3
219764.59375,231064.484375,263351.75,258184.75,208434.3125,223841.90625,221941.484375,208212.140625,110625.0,1.0,3
219978.640625,231437.390625,263541.21875,258477.828125,208686.265625,223987.109375,222610.78125,208499.578125,110626.0,1.0,3
220313.640625,232147.734375,263956.5,259067.8125,209298.890625,224219.125,224561.1875,209035.84375,110627.0,1.0,3
220319.375,232235.625,264039.28125,259159.640625,209448.015625,224230.5625,225152.0,209104.515625,110628.0,1.0,3
219988.921875,231576.78125,263673.25,258625.4375,208923.109375,224007.765625,223563.953125,208610.984375,110629.0,1.0,3
219773.1875,231071.8125,263356.125,258189.75,208439.953125,223854.78125,221960.96875,208222.875,110630.0,1.0,3
219980.875,231435.78125,263537.90625,258476.125,208683.40625,223994.265625,222612.03125,208502.09375,110631.0,1.0,3
220313.375,232144.15625,263953.46875,259065.671875,209296.296875,224223.40625,224556.90625,209037.375,110632.0,1.0,3
220317.578125,232228.90625,264034.8125,259154.90625,209446.671875,224231.90625,225156.90625,209105.40625,110633.0,1.0,3
219986.140625,231571.140625,263666.5625,258614.53125,208922.125,224000.96875,223567.34375,208604.28125,110634.0,1.0,3
219762.546875,231059.03125,263342.28125,258171.78125,208431.546875,223839.140625,221948.984375,208211.78125,110635.0,1.0,3
219976.84375,231430.6875,263529.5,258463.421875,208677.421875,223981.390625,222593.96875,208493.78125,110636.0,1.0,3
220301.390625,232129.40625,263936.375,259046.71875,209275.1875,224201.6875,224529.359375,209022.265625,110637.0,1.0,3
220300.953125,232211.21875,264014.71875,259137.828125,209419.859375,224201.953125,225133.484375,209085.46875,110638.0,1.0,3
219977.296875,231562.03125,263655.03125,258609.703125,208905.578125,223977.90625,223558.671875,208591.671875,110639.0,1.0,3
219761.015625,231058.21875,263342.28125,258177.6875,208431.28125,223832.890625,221947.296875,208206.859375,110640.0,1.0,3
219969.15625,231420.234375,263523.875,258460.203125,208670.796875,223973.96875,222573.234375,208485.453125,110641.0,1.0,3
220307.46875,232140.484375,263943.0,259053.6875,209285.109375,224207.3125,224526.765625,209024.5,110642.0,1.0,3
220310.515625,232232.3125,264029.1875,259148.734375,209437.46875,224216.703125,225152.53125,209092.890625,110643.0,1.0,3
219980.34375,231577.40625,263665.65625,258618.28125,208918.546875,223989.171875,223582.359375,208599.28125,110644.0,1.0,3
219757.796875,231061.796875,263343.4375,258178.671875,208432.171875,223833.328125,221956.3125,208209.28125,110645.0,1.0,3
219966.484375,231417.640625,263522.15625,258456.625,208667.9375,223973.34375,222568.671875,208483.84375,110646.0,1.0,3
220302.5625,232130.390625,263939.4375,259049.40625,209279.9375,224207.140625,224517.828125,209023.953125,110647.0,1.0,3
220307.203125,232225.78125,264026.25,259147.5625,209436.921875,224212.234375,225152.34375,209094.234375,110648.0,1.0,3
219978.8125,231575.609375,263666.46875,258615.15625,208921.3125,223986.03125,223586.75,208600.265625,110649.0,1.0,3
219763.171875,231070.203125,263352.5625,258177.765625,208441.296875,223837.796875,221963.390625,208211.96875,110650.0,1.0,3
219966.921875,231418.796875,263528.0625,258452.25,208675.890625,223978.609375,222566.875,208482.234375,110651.0,1.0,3
220298.171875,232123.234375,263936.21875,259040.734375,209282.875,224210.8125,224508.984375,209017.34375,110652.0,1.0,3
220299.703125,232220.0625,264018.625,259141.046875,209437.46875,224216.890625,225153.875,209095.75,110653.0,1.0,3
219969.15625,231568.546875,263650.8125,258609.609375,208916.3125,223988.8125,223594.25,208605.171875,110654.0,1.0,3
219747.078125,231050.4375,263324.9375,258165.96875,208424.390625,223834.140625,221956.046875,208210.796875,110655.0,1.0,3
219950.65625,231400.296875,263498.8125,258441.25,208651.046875,223971.90625,222547.203125,208476.609375,110656.0,1.0,3
220284.59375,232110.1875,263915.65625,259032.859375,209260.4375,224202.9375,224494.859375,209015.109375,110657.0,1.0,3
220298.984375,232219.171875,264013.71875,259141.84375,209427.71875,224218.671875,225157.984375,209101.65625,110658.0,1.0,3
219972.640625,231577.21875,263657.25,258616.046875,208918.015625,223997.03125,223607.84375,208613.84375,110659.0,1.0,3
219743.40625,231057.59375,263331.1875,258166.421875,208425.640625,223839.046875,221961.6875,208212.40625,110660.0,1.0,3
219946.0,231399.578125,263499.90625,258431.421875,208647.828125,223976.03125,222534.25,208470.34375,110661.0,1.0,3
220281.1875,232109.5625,263915.46875,259020.515625,209259.71875,224208.921875,224479.65625,209007.0625,110662.0,1.0,3
220300.40625,232223.640625,264017.75,259137.28125,209435.765625,224229.84375,225159.5,209099.0625,110663.0,1.0,3
219976.046875,231579.375,263662.53125,258611.484375,208925.25,224006.421875,223616.78125,208610.71875,110664.0,1.0,3
219752.171875,231055.890625,263341.1875,258165.171875,208433.15625,223856.046875,221969.640625,208212.859375,110665.0,1.0,3
219953.875,231402.078125,263510.625,258431.15625,208652.921875,223996.140625,222539.515625,208474.90625,110666.0,1.0,3
220293.796875,232124.578125,263928.78125,259025.078125,209262.046875,224233.15625,224488.5,209014.125,110667.0,1.0,3
220310.0625,232245.90625,264029.46875,259146.859375,209436.21875,224252.203125,225181.234375,209104.953125,110668.0,1.0,3
219982.21875,231604.234375,263667.4375,258623.109375,208922.03125,224025.734375,223649.515625,208613.9375,110669.0,1.0,3
219753.0625,231076.546875,263334.75,258169.09375,208419.65625,223863.734375,221992.4375,208206.6875,110670.0,1.0,3
219950.65625,231408.609375,263496.40625,258426.5,208632.796875,223988.890625,222540.6875,208462.125,110671.0,1.0,3
220286.5625,232114.921875,263905.375,259014.625,209240.140625,224208.921875,224477.5,208999.375,110672.0,1.0,3
220305.78125,232231.6875,264005.75,259136.84375,209420.75,224218.40625,225180.6875,209095.390625,110673.0,1.0,3
219980.421875,231584.015625,263651.28125,258616.84375,208919.0,223991.40625,223658.359375,208612.5,110674.0,1.0,3
219755.296875,231053.125,263323.84375,258167.578125,208424.9375,223834.3125,221999.40625,208210.4375,110675.0,1.0,3
219950.5625,231379.546875,263485.40625,258426.953125,208638.34375,223970.296875,222540.0625,208469.28125,110676.0,1.0,3
220289.234375,232096.765625,263902.6875,259024.0,209252.390625,224207.859375,224486.53125,209011.984375,110677.0,1.0,3
220308.90625,232224.984375,264004.59375,259149.359375,209430.3125,224226.09375,225200.359375,209102.8125,110678.0,1.0,3
219986.859375,231592.0625,263652.34375,258633.484375,208928.921875,224006.515625,223691.4375,208620.015625,110679.0,1.0,3
219755.75,231065.109375,263322.34375,258178.390625,208426.359375,223847.8125,222020.609375,208214.734375,110680.0,1.0,3
219948.234375,231395.109375,263478.8125,258430.53125,208629.3125,223979.15625,222532.453125,208465.4375,110681.0,1.0,3
220286.375,232114.828125,263895.0,259027.140625,209241.9375,224213.21875,224470.796875,209012.328125,110682.0,1.0,3
220314.265625,232252.609375,264005.3125,259161.34375,209430.140625,224234.40625,225201.875,209117.390625,110683.0,1.0,3
219996.34375,231621.9375,263658.78125,258650.375,208935.09375,224019.390625,223700.46875,208637.09375,110684.0,1.0,3
219764.15625,231086.828125,263326.4375,258193.59375,208432.078125,223858.546875,222021.046875,208228.234375,110685.0,1.0,3
219951.546875,231403.0625,263476.375,258436.515625,208626.90625,223980.84375,222514.125,208469.984375,110686.0,1.0,3
220291.03125,232117.609375,263893.5625,259030.265625,209235.5,224212.765625,224447.90625,209009.390625,110687.0,1.0,3
220321.953125,232257.171875,264008.90625,259170.546875,209429.953125,224237.984375,225191.25,209115.6875,110688.0,1.0,3
219999.375,231625.953125,263663.0625,258660.5625,208935.4375,224015.265625,223692.0625,208638.171875,110689.0,1.0,3
219761.375,231085.9375,263329.125,258199.40625,208428.859375,223849.609375,222004.953125,208223.859375,110690.0,1.0,3
219950.65625,231404.046875,263482.46875,258440.984375,208625.296875,223978.265625,222497.046875,208465.796875,110691.0,1.0,3
220294.421875,232123.6875,263904.65625,259040.734375,209241.3125,224217.78125,224440.578125,209013.765625,110692.0,1.0,3
220325.265625,232263.515625,264017.125,259179.578125,209435.9375,224237.09375,225194.375,209124.09375,110693.0,1.0,3
220005.015625,231632.65625,263669.3125,258666.734375,208939.5625,224015.359375,223706.015625,208646.578125,110694.0,1.0,3
219769.0625,231093.4375,263337.53125,258205.671875,208436.828125,223857.015625,222020.515625,208235.390625,110695.0,1.0,3
219950.03125,231395.015625,263486.5,258442.421875,208629.40625,223984.703125,222496.96875,208472.671875,110696.0,1.0,3
220295.234375,232115.359375,263909.125,259039.65625,209244.4375,224220.109375,224436.203125,209019.125,110697.0,1.0,3
220324.203125,232257.25,264022.84375,259177.25,209439.4375,224239.78125,225200.453125,209127.046875,110698.0,1.0,3
220001.171875,231623.09375,263674.96875,258665.671875,208947.328125,224022.25,223719.34375,208647.46875,110699.0,1.0,3
219761.640625,231075.828125,263337.1875,258200.84375,208441.03125,223861.84375,222023.015625,208229.125,110700.0,1.0,3
219941.625,231376.953125,263484.875,258433.921875,208627.96875,223985.046875,222486.40625,208461.046875,110701.0,1.0,3
220279.21875,232092.125,263900.34375,259025.34375,209237.640625,224216.265625,224420.109375,208999.453125,110702.0,1.0,3
220313.734375,232246.171875,264020.6875,259171.53125,209442.296875,224238.96875,225198.03125,209116.84375,110703.0,1.0,3
219996.96875,231627.5625,263679.96875,258663.609375,208951.984375,224016.875,223721.84375,208643.796875,110704.0,1.0,3
219756.640625,231084.6875,263345.40625,258197.171875,208442.546875,223850.578125,222020.6875,208225.375,110705.0,1.0,3
219934.109375,231386.15625,263489.875,258427.125,208628.875,223972.984375,222472.640625,208455.859375,110706.0,1.0,3
220271.0,232100.890625,263902.21875,259015.875,209233.53125,224205.53125,224403.125,208994.359375,110707.0,1.0,3
220314.09375,232261.015625,264027.21875,259169.921875,209443.28125,224236.203125,225201.703125,209120.515625,110708.0,1.0,3
220000.453125,231638.734375,263686.3125,258663.078125,208957.171875,224018.21875,223737.21875,208652.734375,110709.0,1.0,3
219761.28125,231087.90625,263346.125,258192.703125,208443.34375,223849.515625,222025.25,208227.78125,110710.0,1.0,3
219940.1875,231383.390625,263487.375,258419.96875,208625.46875,223969.9375,222464.234375,208453.8125,110711.0,1.0,3
220282.625,232104.640625,263910.09375,259015.0625,209240.140625,224207.765625,224402.765625,209001.0625,110712.0,1.0,3
220322.9375,232268.609375,264037.78125,259171.265625,209454.265625,224239.78125,225214.40625,209124.1875,110713.0,1.0,3
220005.015625,231645.984375,263694.28125,258665.484375,208964.59375,224020.28125,223756.0,208652.921875,110714.0,1.0,3
219757.890625,231089.421875,263346.9375,258188.328125,208441.109375,223846.5625,222031.421875,208227.15625,110715.0,1.0,3
219930.984375,231379.09375,263481.3125,258409.953125,208613.9375,223962.796875,222451.640625,208448.625,110716.0,1.0,3
220275.109375,232103.921875,263901.59375,259008.09375,209228.515625,224203.390625,224389.703125,208992.3125,110717.0,1.0,3
220320.703125,232277.015625,264031.6875,259167.5,209445.328125,224235.390625,225209.84375,209118.28125,110718.0,1.0,3
220006.53125,231657.25,263693.46875,258668.171875,208961.90625,224017.859375,223762.15625,208651.84375,110719.0,1.0,3
219766.65625,231100.421875,263350.78125,258195.828125,208445.5,223850.859375,222039.46875,208227.703125,110720.0,1.0,3
219947.078125,231387.328125,263489.8125,258417.828125,208622.875,223970.5625,222450.109375,208450.40625,110721.0,1.0,3
220289.953125,232105.359375,263906.875,259012.203125,209235.671875,224207.9375,224380.953125,208994.453125,110722.0,1.0,3
220333.578125,232277.8125,264036.78125,259174.125,209456.328125,224239.0625,225215.828125,209127.671875,110723.0,1.0,3
220019.3125,231661.453125,263701.25,258675.5,208980.859375,224022.515625,223780.40625,208666.15625,110724.0,1.0,3
219772.375,231098.359375,263357.90625,258197.171875,208460.96875,223851.921875,222050.640625,208238.421875,110725.0,1.0,3
219944.65625,231381.515625,263492.3125,258411.5625,208630.828125,223968.15625,222443.671875,208453.453125,110726.0,1.0,3
220286.90625,232097.3125,263906.0625,259008.265625,209240.234375,224205.890625,224370.21875,208999.546875,110727.0,1.0,3
220335.015625,232278.53125,264038.75,259177.875,209465.359375,224242.90625,225218.78125,209133.84375,110728.0,1.0,3
220022.984375,231669.578125,263704.375,258683.28125,208990.078125,224032.265625,223793.640625,208669.09375,110729.0,1.0,3
219774.25,231103.8125,263355.6875,258201.546875,208464.09375,223859.078125,222054.671875,208238.15625,110730.0,1.0,3
219941.4375,231369.53125,263482.71875,258410.859375,208623.140625,223967.984375,222430.625,208449.875,110731.0,1.0,3
220282.078125,232079.34375,263895.78125,259000.765625,209224.3125,224199.0,224351.4375,208990.34375,110732.0,1.0,3
220338.234375,232271.828125,264039.1875,259174.921875,209454.359375,224242.1875,225216.453125,209133.296875,110733.0,1.0,3
220023.78125,231660.46875,263703.125,258677.90625,208980.953125,224033.15625,223800.25,208672.140625,110734.0,1.0,3
219767.640625,231088.4375,263347.71875,258187.0625,208448.4375,223857.015625,222051.890625,208233.0625,110735.0,1.0,3
219938.3125,231366.9375,263476.21875,258394.578125,208607.40625,223973.96875,222419.359375,208446.203125,110736.0,1.0,3
220281.015625,232091.859375,263891.0625,258989.9375,209214.84375,224210.1875,224343.671875,208991.859375,110737.0,1.0,3
220331.34375,232282.5625,264029.09375,259167.78125,209446.859375,224245.9375,225214.484375,209132.40625,110738.0,1.0,3
220016.546875,231668.328125,263692.3125,258672.453125,208970.40625,224028.6875,223798.28125,208669.546875,110739.0,1.0,3
219759.953125,231090.21875,263341.28125,258183.046875,208440.390625,223852.46875,222047.25,208232.34375,110740.0,1.0,3
219923.390625,231353.890625,263463.25,258382.421875,208594.171875,223958.5,222396.734375,208432.890625,110741.0,1.0,3
220267.0625,232071.5625,263877.46875,258978.234375,209203.84375,224194.0,224319.4375,208976.921875,110742.0,1.0,3
220327.6875,232272.28125,264027.125,259166.515625,209450.421875,224241.734375,225216.8125,209134.828125,110743.0,1.0,3
220013.59375,231664.84375,263695.6875,258676.390625,208981.125,224024.484375,223815.53125,208680.640625,110744.0,1.0,3
219754.9375,231085.578125,263341.75,258183.765625,208449.875,223844.59375,222058.6875,208238.78125,110745.0,1.0,3
219919.0,231350.765625,263462.0,258381.625,208605.796875,223959.65625,222400.578125,208435.03125,110746.0,1.0,3
220262.421875,232072.09375,263879.6875,258975.90625,209218.234375,224202.40625,224321.140625,208977.46875,110747.0,1.0,3
220321.875,232277.8125,264027.59375,259162.3125,209463.578125,224241.734375,225221.109375,209127.484375,110748.0,1.0,3
220011.625,231677.359375,263698.46875,258672.546875,208996.78125,224027.25,223827.515625,208668.828125,110749.0,1.0,3
219755.484375,231099.703125,263346.3125,258178.75,208464.71875,223850.765625,222067.625,208227.703125,110750.0,1.0,3
219917.125,231359.15625,263464.75,258371.96875,208611.078125,223960.46875,222392.8125,208422.515625,110751.0,1.0,3
220260.265625,232075.046875,263880.0625,258966.25,209217.4375,224196.140625,224310.578125,208964.953125,110752.0,1.0,3
220326.4375,232284.171875,264033.75,259160.796875,209465.71875,224244.609375,225228.96875,209125.875,110753.0,1.0,3
220020.125,231684.78125,263707.875,258675.953125,208999.453125,224032.625,223847.453125,208674.828125,110754.0,1.0,3
219760.03125,231097.015625,263350.9375,258179.46875,208463.375,223851.921875,222078.890625,208231.71875,110755.0,1.0,3
219915.78125,231339.765625,263462.4375,258366.953125,208599.453125,223954.296875,222378.671875,208421.796875,110756.0,1.0,3
220265.984375,232066.28125,263879.53125,258966.703125,209211.171875,224193.1875,224292.53125,208967.359375,110757.0,1.0,3
220334.203125,232281.3125,264035.09375,259166.96875,209467.59375,224245.40625,225225.84375,209133.21875,110758.0,1.0,3
220026.375,231681.5625,263708.21875,258683.90625,209003.75,224034.140625,223853.265625,208683.046875,110759.0,1.0,3
219766.109375,231099.53125,263347.625,258185.8125,208462.578125,223853.453125,222076.484375,208235.75,110760.0,1.0,3
219920.96875,231346.015625,263459.5,258373.578125,208599.984375,223960.90625,222371.53125,208428.5,110761.0,1.0,3
220269.921875,232067.53125,263874.96875,258970.90625,209206.171875,224199.71875,224286.0,208976.125,110762.0,1.0,3
220338.40625,232285.328125,264027.65625,259169.390625,209458.296875,224248.0,225227.453125,209141.796875,110763.0,1.0,3
220030.046875,231686.125,263703.5625,258690.078125,208998.921875,224035.125,223864.625,208693.6875,110764.0,1.0,3
219770.765625,231094.875,263345.40625,258192.609375,208462.296875,223856.75,222086.3125,208246.921875,110765.0,1.0,3
219920.078125,231326.53125,263449.03125,258370.4375,208589.4375,223954.65625,222360.0,208428.421875,110766.0,1.0,3
220268.234375,232048.9375,263865.5625,258966.78125,209195.703125,224192.296875,224270.34375,208970.40625,110767.0,1.0,3
220344.40625,232280.046875,264028.375,259174.03125,209459.8125,224248.265625,225228.171875,209139.296875,110768.0,1.0,3
220034.25,231686.390625,263701.0625,258691.40625,209000.171875,224037.0,223868.28125,208687.875,110769.0,1.0,3
219771.21875,231099.078125,263343.53125,258189.84375,208460.515625,223857.828125,222084.171875,208237.09375,110770.0,1.0,3
219922.84375,231334.671875,263448.5,258363.5625,208584.25,223956.359375,222348.375,208415.8125,110771.0,1.0,3
220274.3125,232064.140625,263868.25,258961.515625,209195.34375,224196.6875,224264.453125,208963.609375,110772.0,1.0,3
220346.453125,232292.03125,264030.4375,259167.78125,209459.8125,224249.078125,225229.78125,209135.71875,110773.0,1.0,3
220036.578125,231697.203125,263705.96875,258687.84375,209004.203125,224036.46875,223880.359375,208687.15625,110774.0,1.0,3
219773.453125,231106.59375,263346.65625,258185.109375,208465.15625,223853.0,222094.359375,208237.171875,110775.0,1.0,3
219922.578125,231335.921875,263450.71875,258355.421875,208590.6875,223953.3125,222346.9375,208416.609375,110776.0,1.0,3
220267.59375,232052.328125,263866.46875,258948.90625,209196.953125,224191.578125,224252.5625,208959.9375,110777.0,1.0,3
220338.234375,232280.328125,264031.0625,259160.796875,209468.125,224246.921875,225233.078125,209137.328125,110778.0,1.0,3
220029.953125,231689.515625,263711.96875,258688.109375,209020.828125,224038.96875,223899.140625,208693.953125,110779.0,1.0,3
219764.953125,231095.953125,263349.6875,258183.140625,208476.875,223858.71875,222106.703125,208233.875,110780.0,1.0,3
219910.234375,231321.25,263448.75,258350.859375,208593.28125,223956.984375,222340.953125,208407.046875,110781.0,1.0,3
220253.296875,232041.875,263860.5625,258942.375,209193.921875,224189.703125,224238.4375,208949.578125,110782.0,1.0,3
220328.390625,232278.71875,264025.78125,259155.890625,209463.84375,224245.3125,225226.203125,209128.75,110783.0,1.0,3
220027.984375,231696.40625,263708.9375,258687.75,209020.03125,224042.546875,223906.375,208694.671875,110784.0,1.0,3
219760.484375,231099.4375,263343.09375,258182.234375,208474.640625,223855.953125,222107.953125,208240.84375,110785.0,1.0,3
219903.796875,231318.578125,263437.9375,258346.296875,208586.84375,223951.171875,222327.09375,208406.609375,110786.0,1.0,3
220250.796875,232041.875,263852.625,258940.765625,209190.703125,224190.59375,224226.28125,208949.296875,110787.0,1.0,3
220326.15625,232278.359375,264020.96875,259156.328125,209461.25,224245.40625,225227.453125,209129.71875,110788.0,1.0,3
220025.21875,231695.328125,263706.34375,258688.1875,209015.375,224039.6875,223914.15625,208693.234375,110789.0,1.0,3
219759.328125,231095.859375,263342.1875,258182.234375,208467.75,223855.6875,222114.75,208239.140625,110790.0,1.0,3
219901.921875,231310.703125,263433.5625,258340.671875,208574.78125,223945.796875,222320.109375,208402.9375,110791.0,1.0,3
220248.375,232030.15625,263845.46875,258932.71875,209177.734375,224182.109375,224214.109375,208946.703125,110792.0,1.0,3
220332.6875,232276.203125,264019.8125,259158.125,209457.9375,224244.421875,225231.828125,209138.484375,110793.0,1.0,3
220029.59375,231693.28125,263704.1875,258688.90625,209013.234375,224033.421875,223924.078125,208698.15625,110794.0,1.0,3
219761.828125,231095.234375,263339.875,258178.484375,208465.4375,223850.9375,222116.53125,208238.515625,110795.0,1.0,3
219904.34375,231312.40625,263430.78125,258332.984375,208571.375,223947.59375,222310.375,208398.734375,110796.0,1.0,3
220252.578125,232033.734375,263841.0625,258924.765625,209169.78125,224181.125,224199.0,208939.921875,110797.0,1.0,3
220337.609375,232286.046875,264016.03125,259153.734375,209455.25,224241.46875,225227.8125,209127.046875,110798.0,1.0,3
220039.25,231712.859375,263709.28125,258692.046875,209020.921875,224037.171875,223938.46875,208693.953125,110799.0,1.0,3
219767.71875,231104.984375,263341.46875,258177.328125,208468.5625,223848.625,222124.3125,208233.78125,110800.0,1.0,3
219901.65625,231303.375,263424.34375,258325.65625,208563.78125,223939.453125,222296.6875,208391.5,110801.0,1.0,3
220251.328125,232024.96875,263840.90625,258923.15625,209172.8125,224178.359375,224192.125,208937.953125,110802.0,1.0,3
220339.03125,232278.890625,264015.78125,259151.6875,209459.1875,224237.453125,225229.59375,209130.890625,110803.0,1.0,3
220042.75,231706.953125,263711.09375,258695.34375,209027.09375,224039.40625,223949.296875,208704.953125,110804.0,1.0,3
219773.890625,231105.0625,263348.96875,258186.4375,208480.90625,223856.578125,222139.15625,208249.421875,110805.0,1.0,3
219907.015625,231306.234375,263433.65625,258331.109375,208577.015625,223943.5625,222301.96875,208399.09375,110806.0,1.0,3
220248.640625,232023.640625,263841.875,258918.0625,209169.875,224175.765625,224179.0625,208934.8125,110807.0,1.0,3
220337.515625,232287.390625,264023.65625,259153.640625,209462.765625,224241.828125,225233.984375,209138.40625,110808.0,1.0,3
220039.171875,231716.515625,263713.5,258694.984375,209033.078125,224041.015625,223963.421875,208712.828125,110809.0,1.0,3
219761.640625,231100.0625,263337.4375,258175.09375,208472.234375,223848.0,222137.1875,208247.015625,110810.0,1.0,3
219891.375,231288.984375,263413.8125,258315.453125,208556.265625,223929.703125,222280.515625,208387.015625,110811.0,1.0,3
220244.625,232014.515625,263831.34375,258911.984375,209161.28125,224169.765625,224168.25,208932.765625,110812.0,1.0,3
220340.203125,232283.625,264017.3125,259153.640625,209459.375,224234.59375,225236.65625,209140.984375,110813.0,1.0,3
220043.375,231712.859375,263707.9375,258694.984375,209024.859375,224031.359375,223972.453125,208712.90625,110814.0,1.0,3
219768.703125,231101.484375,263339.9375,258177.5,208467.578125,223845.40625,222145.234375,208246.390625,110815.0,1.0,3
219889.140625,231281.015625,263411.21875,258308.21875,208545.546875,223927.390625,222269.328125,208383.625,110816.0,1.0,3
220244.625,232013.796875,263830.53125,258906.34375,209152.078125,224174.5,224155.015625,208934.46875,110817.0,1.0,3
220338.59375,232290.78125,264018.5625,259151.6875,209455.796875,224246.484375,225235.5,209145.1875,110818.0,1.0,3
220041.40625,231724.921875,263711.96875,258696.421875,209027.0,224040.3125,223983.4375,208717.015625,110819.0,1.0,3
219762.625,231105.0625,263334.59375,258172.859375,208465.34375,223845.671875,222149.34375,208245.21875,110820.0,1.0,3
219891.203125,231290.765625,263410.21875,258305.359375,208550.546875,223936.859375,222269.421875,208388.8125,110821.0,1.0,3
220236.484375,232009.421875,263822.46875,258896.875,209151.1875,224177.8125,224144.5625,208929.640625,110822.0,1.0,3
220330.546875,232283.1875,264007.71875,259141.9375,209450.703125,224242.28125,225229.421875,209136.875,110823.0,1.0,3
220035.328125,231719.5625,263702.40625,258688.28125,209024.859375,224034.3125,223987.109375,208712.46875,110824.0,1.0,3
219759.953125,231100.78125,263330.21875,258167.578125,208465.609375,223841.734375,222150.515625,208242.8125,110825.0,1.0,3
219887.171875,231282.0,263402.4375,258299.0,208545.359375,223923.453125,222252.171875,208380.046875,110826.0,1.0,3
220235.234375,231999.765625,263810.15625,258888.734375,209142.421875,224161.546875,224120.328125,208918.28125,110827.0,1.0,3
220340.015625,232289.890625,264009.53125,259148.90625,209458.390625,224238.25,225230.84375,209137.140625,110828.0,1.0,3
220048.90625,231734.9375,263712.5,258704.109375,209041.484375,224038.15625,224005.171875,208716.484375,110829.0,1.0,3
219767.375,231111.328125,263334.5,258176.609375,208477.140625,223841.734375,222163.828125,208245.84375,110830.0,1.0,3
219888.15625,231281.203125,263400.03125,258300.703125,208545.453125,223918.171875,222248.859375,208377.984375,110831.0,1.0,3
220236.671875,232001.375,263809.875,258891.78125,209143.046875,224158.953125,224115.40625,208914.34375,110832.0,1.0,3
220339.125,232289.265625,264006.03125,259148.734375,209457.84375,224233.515625,225234.15625,209131.15625,110833.0,1.0,3
220044.34375,231725.375,263705.4375,258699.375,209037.8125,224030.65625,224009.375,208708.34375,110834.0,1.0,3
219765.9375,231104.796875,263333.15625,258175.359375,208480.1875,223840.484375,222166.15625,208237.265625,110835.0,1.0,3
219888.0625,231278.34375,263403.0625,258300.078125,208556.1875,223926.578125,222246.453125,208372.890625,110836.0,1.0,3
220237.734375,232000.5625,263815.96875,258893.828125,209158.15625,224167.71875,224114.96875,208918.1875,110837.0,1.0,3
220342.171875,232295.34375,264014.15625,259155.4375,209475.828125,224243.4375,225244.4375,209143.3125,110838.0,1.0,3
220050.515625,231743.96875,263719.84375,258711.265625,209059.8125,224047.1875,224038.609375,208728.46875,110839.0,1.0,3
219767.1875,231113.109375,263340.9375,258180.90625,208489.84375,223850.40625,222187.796875,208250.046875,110840.0,1.0,3
219880.5625,231269.484375,263397.71875,258293.28125,208546.609375,223923.0,222239.109375,208371.375,110841.0,1.0,3
220225.84375,231985.546875,263805.3125,258879.34375,209140.28125,224159.671875,224095.296875,208910.765625,110842.0,1.0,3
220338.234375,232288.546875,264008.8125,259148.640625,209464.5625,224240.9375,225236.9375,209141.4375,110843.0,1.0,3
220054.1875,231749.78125,263720.09375,258715.546875,209060.078125,224050.140625,224048.53125,208735.703125,110844.0,1.0,3
219766.03125,231120.0,263341.5625,258184.03125,208492.96875,223854.78125,222195.390625,208259.625,110845.0,1.0,3
219873.140625,231270.5625,263396.0,258291.671875,208545.453125,223928.09375,222232.765625,208372.984375,110846.0,1.0,3
220221.375,231987.78125,263803.625,258880.421875,209141.34375,224165.5625,224087.6875,208909.78125,110847.0,1.0,3
220330.453125,232290.15625,264002.90625,259147.296875,209461.78125,224241.203125,225235.328125,209137.140625,110848.0,1.0,3
220046.234375,231747.71875,263710.90625,258713.3125,209055.421875,224048.4375,224051.578125,208729.625,110849.0,1.0,3
219760.578125,231111.953125,263328.25,258175.796875,208481.796875,223849.609375,222187.609375,208247.28125,110850.0,1.0,3
219874.125,231259.828125,263384.5625,258280.671875,208533.109375,223922.015625,222210.765625,208363.6875,110851.0,1.0,3
220221.734375,231976.34375,263794.3125,258870.578125,209125.703125,224158.953125,224063.109375,208905.765625,110852.0,1.0,3
220331.796875,232282.296875,263998.96875,259142.921875,209451.5,224237.453125,225223.703125,209138.671875,110853.0,1.0,3
220050.78125,231747.8125,263710.90625,258712.328125,209049.703125,224044.859375,224053.453125,208732.21875,110854.0,1.0,3
219762.453125,231114.359375,263330.28125,258179.203125,208484.390625,223849.328125,222194.5,208250.859375,110855.0,1.0,3
219871.890625,231260.1875,263382.0625,258277.640625,208534.90625,223920.234375,222205.234375,208360.5625,110856.0,1.0,3
220223.34375,231981.96875,263795.3125,258869.515625,209132.140625,224160.375,224057.203125,208903.265625,110857.0,1.0,3
220339.125,232298.65625,264006.21875,259148.8125,209466.515625,224242.359375,225236.84375,209144.390625,110858.0,1.0,3
220055.703125,231763.109375,263718.78125,258719.125,209066.6875,224050.328125,224078.390625,208742.328125,110859.0,1.0,3
219770.671875,231129.390625,263338.34375,258183.140625,208497.171875,223855.0625,222213.28125,208256.046875,110860.0,1.0,3
219872.6875,231266.0,263385.625,258274.15625,208540.265625,223923.71875,222205.9375,208360.296875,110861.0,1.0,3
220222.359375,231985.015625,263796.03125,258864.421875,209134.90625,224163.328125,224054.4375,208905.9375,110862.0,1.0,3
220336.359375,232300.890625,264004.34375,259142.921875,209468.125,224244.25,225240.421875,209144.125,110863.0,1.0,3
220055.53125,231766.6875,263720.09375,258717.703125,209074.5625,224052.90625,224092.609375,208738.921875,110864.0,1.0,3
219764.5,231121.875,263334.9375,258175.890625,208502.0,223853.984375,222219.171875,208248.53125,110865.0,1.0,3
219868.9375,231257.5,263382.5,258268.875,208544.46875,223926.671875,222199.5,208354.828125,110866.0,1.0,3
220217.71875,231975.625,263788.9375,258857.0,209132.859375,224160.5625,224034.859375,208894.234375,110867.0,1.0,3
220335.8125,232298.65625,264003.53125,259142.65625,209470.8125,224243.265625,225233.4375,209138.578125,110868.0,1.0,3
220053.828125,231767.484375,263720.46875,258719.046875,209078.046875,224053.984375,224096.90625,208738.84375,110869.0,1.0,3
219762.890625,231125.359375,263333.34375,258179.296875,208504.0625,223854.078125,222220.96875,208250.59375,110870.0,1.0,3
219867.140625,231256.703125,263377.0625,258270.3125,208540.984375,223922.203125,222190.125,208352.328125,110871.0,1.0,3
220222.1875,231977.046875,263789.59375,258860.84375,209132.59375,224164.84375,224030.296875,208897.53125,110872.0,1.0,3
220346.640625,232307.140625,264010.6875,259152.9375,209478.40625,224255.6875,225247.21875,209152.25,110873.0,1.0,3
220068.40625,231786.96875,263732.625,258735.21875,209088.78125,224067.84375,224125.0625,208758.953125,110874.0,1.0,3
219772.546875,231143.421875,263345.84375,258192.4375,208513.625,223869.1875,222248.859375,208267.65625,110875.0,1.0,3
219864.109375,231257.78125,263378.9375,258267.0,208537.21875,223932.125,222193.609375,208357.515625,110876.0,1.0,3
220210.734375,231964.453125,263782.59375,258848.140625,209120.421875,224169.671875,224019.296875,208894.5,110877.0,1.0,3
220340.28125,232303.5625,264004.875,259143.90625,209470.640625,224257.828125,225242.921875,209152.96875,110878.0,1.0,3
220065.359375,231786.796875,263728.15625,258730.03125,209089.3125,224067.578125,224131.0625,208762.4375,110879.0,1.0,3
219765.3125,231132.15625,263333.59375,258178.9375,208502.984375,223857.015625,222241.890625,208258.640625,110880.0,1.0,3
219855.703125,231240.875,263362.84375,258251.4375,208521.578125,223912.453125,222170.890625,208341.609375,110881.0,1.0,3
220205.640625,231954.875,263768.65625,258835.984375,209108.71875,224149.828125,223996.046875,208881.265625,110882.0,1.0,3
220338.140625,232297.84375,263996.28125,259137.640625,209465.8125,224241.5625,225233.171875,209141.078125,110883.0,1.0,3
220061.96875,231776.6875,263722.4375,258724.046875,209083.5,224052.46875,224129.984375,208748.140625,110884.0,1.0,3
219767.8125,231125.453125,263334.5,258176.96875,208503.15625,223848.171875,222242.875,208255.5,110885.0,1.0,3
219866.34375,231242.75,263372.84375,258256.8125,208531.0625,223916.390625,222166.34375,208346.4375,110886.0,1.0,3
220218.875,231961.234375,263780.5625,258844.03125,209123.46875,224157.96875,223988.890625,208888.0625,110887.0,1.0,3
220351.546875,232306.96875,264004.59375,259145.6875,209480.015625,224248.625,225235.046875,209150.640625,110888.0,1.0,3
220074.578125,231784.921875,263727.1875,258731.015625,209096.375,224057.921875,224140.625,208756.0,110889.0,1.0,3
219775.421875,231129.125,263337.0,258181.703125,208512.015625,223850.859375,222253.0625,208258.640625,110890.0,1.0,3
219866.4375,231238.375,263367.5625,258252.0625,208528.90625,223913.4375,222159.546875,208341.421875,110891.0,1.0,3
220217.171875,231953.984375,263775.1875,258840.71875,209118.109375,224156.53125,223976.375,208882.34375,110892.0,1.0,3
220350.921875,232306.15625,264005.21875,259148.640625,209480.375,224251.390625,225237.734375,209147.703125,110893.0,1.0,3
220075.46875,231794.125,263734.59375,258738.359375,209102.71875,224064.71875,224160.375,208762.0,110894.0,1.0,3
219771.125,231129.46875,263336.90625,258180.359375,208508.96875,223853.171875,222255.75,208260.328125,110895.0,1.0,3
219854.546875,231221.46875,263357.03125,258239.375,208513.265625,223906.734375,222135.484375,208333.109375,110896.0,1.0,3
220202.515625,231931.453125,263758.71875,258823.921875,209098.515625,224146.25,223949.015625,208873.484375,110897.0,1.0,3
220343.5,232289.796875,263989.3125,259138.359375,209463.296875,224244.875,225224.328125,209150.828125,110898.0,1.0,3
220071.171875,231783.40625,263715.625,258734.328125,209087.171875,224060.0625,224155.640625,208771.46875,110899.0,1.0,3
219772.28125,231128.046875,263325.8125,258185.640625,208505.046875,223861.3125,222264.6875,208273.921875,110900.0,1.0,3
219856.0625,231218.609375,263347.09375,258239.8125,208504.0625,223916.03125,222134.234375,208340.171875,110901.0,1.0,3
220206.984375,231930.921875,263751.3125,258823.203125,209086.546875,224153.671875,223942.5,208876.96875,110902.0,1.0,3
220347.796875,232295.25,263988.6875,259138.453125,209458.46875,224250.234375,225229.15625,209150.921875,110903.0,1.0,3
220071.078125,231783.3125,263716.25,258732.453125,209084.390625,224060.609375,224163.78125,208766.28125,110904.0,1.0,3
219774.4375,231132.609375,263329.40625,258185.375,208507.28125,223858.984375,222267.453125,208267.390625,110905.0,1.0,3
219857.40625,231224.15625,263348.1875,258235.34375,208508.96875,223912.90625,222125.828125,208332.9375,110906.0,1.0,3
220207.25,231932.34375,263753.8125,258817.296875,209094.671875,224152.953125,223931.3125,208870.359375,110907.0,1.0,3
220349.140625,232290.78125,263991.28125,259133.078125,209467.78125,224254.078125,225224.234375,209147.15625,110908.0,1.0,3
220082.171875,231791.984375,263730.3125,258731.921875,209102.375,224069.453125,224179.328125,208771.828125,110909.0,1.0,3
219779.703125,231135.734375,263339.40625,258177.234375,208516.125,223865.15625,222281.84375,208276.875,110910.0,1.0,3
219856.5,231222.734375,263353.4375,258228.109375,208507.625,223924.53125,222129.6875,208342.40625,110911.0,1.0,3
220204.84375,231937.265625,263754.09375,258810.140625,209083.765625,224166.8125,223927.46875,208872.953125,110912.0,1.0,3
220347.984375,232312.78125,263995.21875,259134.15625,209459.734375,224272.859375,225238.359375,209153.0625,110913.0,1.0,3
220073.765625,231809.953125,263726.375,258733.171875,209092.171875,224087.328125,224204.546875,208771.203125,110914.0,1.0,3
219769.421875,231149.0625,263327.34375,258176.34375,208499.765625,223870.34375,222298.5625,208261.578125,110915.0,1.0,3
219852.578125,231235.0625,263343.875,258228.015625,208497.34375,223923.625,222137.640625,208328.90625,110916.0,1.0,3
220191.78125,231930.828125,263734.40625,258801.5625,209071.875,224153.671875,223922.828125,208860.4375,110917.0,1.0,3
220338.234375,232299.8125,263974.21875,259126.734375,209453.375,224252.65625,225241.3125,209144.75,110918.0,1.0,3
220077.875,231808.515625,263715.1875,258737.90625,209098.796875,224070.609375,224228.328125,208774.953125,110919.0,1.0,3
219774.15625,231140.203125,263318.9375,258182.59375,208509.953125,223856.578125,222323.0625,208271.421875,110920.0,1.0,3
219845.15625,231205.03125,263326.625,258222.296875,208495.296875,223905.578125,222139.0625,208330.0625,110921.0,1.0,3
220188.65625,231905.890625,263724.9375,258800.046875,209070.09375,224145.359375,223927.03125,208865.53125,110922.0,1.0,3
220346.640625,232295.703125,263979.125,259140.765625,209461.421875,224256.046875,225262.5,209159.671875,110923.0,1.0,3
220079.671875,231805.03125,263717.78125,258747.828125,209098.703125,224070.703125,224246.5625,208785.234375,110924.0,1.0,3
219773.984375,231146.015625,263319.46875,258191.71875,208506.734375,223861.9375,222336.390625,208281.171875,110925.0,1.0,3
219848.109375,231223.171875,263328.6875,258233.375,208491.984375,223913.890625,222136.46875,208338.75,110926.0,1.0,3
220193.84375,231930.921875,263728.25,258812.109375,209068.65625,224153.859375,223915.046875,208874.296875,110927.0,1.0,3
220340.203125,232310.1875,263974.375,259148.28125,209453.5625,224259.53125,225251.59375,209165.3125,110928.0,1.0,3
220081.8125,231828.28125,263721.0,258769.015625,209103.4375,224084.65625,224258.734375,208804.546875,110929.0,1.0,3
219771.125,231158.265625,263319.375,258205.484375,208504.140625,223868.640625,222341.578125,208293.765625,110930.0,1.0,3
219844.078125,231223.625,263324.65625,258239.28125,208481.078125,223913.171875,222124.859375,208341.25,110931.0,1.0,3
220192.859375,231926.1875,263722.25,258815.515625,209055.15625,224151.890625,223895.203125,208872.234375,110932.0,1.0,3
220346.453125,232312.15625,263974.21875,259156.515625,209447.125,224260.515625,225245.609375,209170.3125,110933.0,1.0,3
220090.671875,231837.9375,263724.65625,258781.265625,209105.140625,224088.59375,224267.84375,208811.171875,110934.0,1.0,3
219788.109375,231177.046875,263330.125,258225.515625,208515.5,223878.125,222355.078125,208302.0,110935.0,1.0,3
219854.265625,231233.453125,263331.1875,258253.046875,208486.4375,223918.09375,222120.375,208347.0625,110936.0,1.0,3
220198.125,231930.921875,263729.125,258826.5,209058.46875,224156.359375,223886.609375,208874.921875,110937.0,1.0,3
220349.140625,232319.484375,263978.3125,259162.671875,209447.296875,224261.671875,225238.890625,209165.40625,110938.0,1.0,3
220101.484375,231855.015625,263740.9375,258795.484375,209115.515625,224096.640625,224279.5625,208815.640625,110939.0,1.0,3
219791.59375,231183.75,263342.375,258229.53125,208522.921875,223884.828125,222361.421875,208303.515625,110940.0,1.0,3
219853.109375,231230.328125,263335.21875,258245.359375,208487.78125,223928.015625,222111.53125,208338.03125,110941.0,1.0,3
220202.6875,231932.0,263736.1875,258820.34375,209064.734375,224170.3125,223877.59375,208870.453125,110942.0,1.0,3
220357.90625,232321.1875,263989.9375,259160.265625,209462.234375,224276.15625,225240.421875,209167.453125,110943.0,1.0,3
220101.296875,231845.171875,263741.5625,258783.953125,209121.5,224098.421875,224279.734375,208808.75,110944.0,1.0,3
219788.46875,231169.703125,263341.46875,258218.8125,208526.40625,223884.828125,222359.453125,208298.515625,110945.0,1.0,3
219848.8125,231212.53125,263338.875,258238.203125,208491.1875,223926.40625,222097.3125,208337.140625,110946.0,1.0,3
220199.46875,231921.0,263742.09375,258818.109375,209069.640625,224167.984375,223859.53125,208874.640625,110947.0,1.0,3
220361.828125,232327.984375,264004.34375,259171.53125,209478.6875,224282.875,225244.890625,209175.59375,110948.0,1.0,3
220105.0625,231858.59375,263754.71875,258796.828125,209136.703125,224104.234375,224294.765625,208816.359375,110949.0,1.0,3
219794.015625,231185.53125,263353.0,258227.921875,208539.015625,223888.21875,222370.625,208305.125,110950.0,1.0,3
219852.75,231228.453125,263347.71875,258242.140625,208502.890625,223928.640625,222097.3125,208337.484375,110951.0,1.0,3
220195.1875,231924.296875,263740.21875,258811.125,209068.75,224162.4375,223844.234375,208860.4375,110952.0,1.0,3
220359.328125,232331.90625,264002.625,259164.375,209473.765625,224275.0,225235.046875,209167.984375,110953.0,1.0,3
220108.71875,231872.53125,263762.03125,258797.546875,209144.921875,224102.09375,224307.90625,208819.3125,110954.0,1.0,3
219796.609375,231195.09375,263361.9375,258229.09375,208549.03125,223883.75,222387.078125,208305.84375,110955.0,1.0,3
219846.578125,231222.8125,263345.6875,258231.328125,208498.421875,223915.3125,222090.515625,208328.015625,110956.0,1.0,3
220190.0,231913.390625,263734.59375,258798.34375,209061.328125,224148.3125,223831.09375,208852.75,110957.0,1.0,3
220353.875,232322.171875,263995.65625,259154.1875,209466.96875,224263.5625,225231.921875,209164.6875,110958.0,1.0,3
220103.8125,231865.296875,263753.09375,258789.21875,209137.0625,224092.4375,224314.421875,208816.625,110959.0,1.0,3
219791.328125,231190.265625,263350.3125,258222.03125,208539.1875,223872.125,222390.5625,208299.578125,110960.0,1.0,3
219844.171875,231219.78125,263333.78125,258227.5625,208486.890625,223904.046875,222077.46875,208319.875,110961.0,1.0,3
220187.765625,231917.421875,263725.46875,258798.34375,209051.140625,224138.5625,223812.140625,208846.484375,110962.0,1.0,3
220350.75,232329.5,263990.03125,259155.96875,209457.671875,224256.3125,225220.5625,209161.828125,110963.0,1.0,3
220108.90625,231880.671875,263759.1875,258799.328125,209136.15625,224089.84375,224319.703125,208821.453125,110964.0,1.0,3
219799.5625,231204.75,263357.375,258232.21875,208540.71875,223873.65625,222396.5625,208306.28125,110965.0,1.0,3
219848.734375,231220.578125,263333.78125,258226.3125,208484.5625,223907.359375,222069.421875,208320.328125,110966.0,1.0,3
220193.578125,231913.125,263724.75,258794.5,209048.640625,224145.0,223799.984375,208843.4375,110967.0,1.0,3
220366.578125,232337.625,263995.65625,259162.3125,209466.96875,224265.609375,225224.59375,209163.703125,110968.0,1.0,3
220117.125,231880.046875,263759.1875,258804.15625,209145.8125,224092.078125,224331.953125,208822.078125,110969.0,1.0,3
219804.203125,231200.46875,263359.25,258235.265625,208549.203125,223874.453125,222404.609375,208305.484375,110970.0,1.0,3
219850.15625,231211.46875,263334.75,258228.640625,208486.4375,223901.28125,222059.859375,208318.09375,110971.0,1.0,3
220188.46875,231895.25,263720.375,258791.109375,209044.15625,224131.859375,223776.015625,208836.109375,110972.0,1.0,3
220366.65625,232331.015625,263996.8125,259164.734375,209470.71875,224259.359375,225213.6875,209161.375,110973.0,1.0,3
220122.578125,231893.09375,263769.65625,258817.921875,209162.8125,224099.3125,224345.1875,208828.953125,110974.0,1.0,3
219800.984375,231205.65625,263362.40625,258242.59375,208562.96875,223882.140625,222416.59375,208311.5625,110975.0,1.0,3
219843.8125,231211.375,263338.6875,258232.046875,208500.390625,223915.140625,222063.78125,208325.953125,110976.0,1.0,3
220183.5625,231893.8125,263722.25,258791.015625,209052.203125,224144.90625,223773.15625,208846.484375,110977.0,1.0,3
220362.109375,232323.953125,263998.625,259162.859375,209475.015625,224267.125,225216.28125,209174.96875,110978.0,1.0,3
220117.21875,231885.234375,263770.90625,258813.546875,209164.140625,224105.21875,224359.765625,208839.328125,110979.0,1.0,3
219799.203125,231202.609375,263362.3125,258235.34375,208557.96875,223887.0625,222428.125,208314.875,110980.0,1.0,3
219837.90625,231204.484375,263326.71875,258212.734375,208479.296875,223907.1875,222049.578125,208314.6875,110981.0,1.0,3
220177.65625,231890.953125,263710.375,258771.96875,209031.921875,224137.046875,223756.625,208831.46875,110982.0,1.0,3
220360.859375,232330.75,263988.15625,259150.703125,209459.734375,224264.453125,225212.875,209162.8125,110983.0,1.0,3
220120.96875,231894.359375,263761.40625,258805.59375,209153.234375,224094.9375,224360.828125,208830.03125,110984.0,1.0,3
219802.328125,231203.59375,263357.75,258230.78125,208550.1875,223870.515625,222428.5625,208307.453125,110985.0,1.0,3
219835.046875,231193.40625,263320.625,258204.0625,208465.96875,223889.828125,222034.109375,208300.65625,110986.0,1.0,3
220177.390625,231883.53125,263708.03125,258765.890625,209019.125,224123.71875,223739.09375,208825.5625,110987.0,1.0,3
220361.921875,232323.953125,263988.78125,259146.578125,209453.5625,224255.15625,225208.671875,209165.125,110988.0,1.0,3
220121.953125,231890.328125,263765.4375,258806.65625,209151.546875,224091.0,224371.5625,208832.265625,110989.0,1.0,3
219800.53125,231202.515625,263354.4375,258229.53125,208547.859375,223868.90625,222435.546875,208306.90625,110990.0,1.0,3
219833.078125,231191.609375,263313.75,258200.484375,208464.71875,223887.25,222033.5625,208298.15625,110991.0,1.0,3
220176.140625,231878.4375,263699.46875,258760.25,209020.109375,224118.890625,223728.546875,208819.21875,110992.0,1.0,3
220359.421875,232325.46875,263984.5625,259143.09375,209456.6875,224248.265625,225202.15625,209157.625,110993.0,1.0,3
220124.015625,231896.046875,263766.15625,258803.171875,209157.4375,224085.375,224376.296875,208832.0,110994.0,1.0,3
219808.765625,231211.734375,263363.375,258227.84375,208558.59375,223867.84375,222443.046875,208309.0625,110995.0,1.0,3
219840.6875,231198.671875,263323.9375,258195.109375,208474.015625,223893.6875,222025.796875,208299.578125,110996.0,1.0,3
220180.421875,231881.75,263709.03125,258755.34375,209030.03125,224131.234375,223721.484375,208818.859375,110997.0,1.0,3
220366.3125,232328.0625,263990.84375,259141.40625,209467.5,224260.703125,225205.90625,209157.625,110998.0,1.0,3
220132.6875,231900.796875,263771.25,258808.171875,209172.640625,224097.96875,224394.359375,208837.8125,110999.0,1.0,3
219807.25,231207.703125,263361.5,258230.515625,208566.46875,223871.5,222456.015625,208311.46875,111000.0,1.0,3
219836.65625,231187.046875,263319.5625,258196.453125,208477.234375,223888.40625,222025.703125,208297.796875,111001.0,1.0,3
220183.5625,231873.96875,263706.78125,258760.703125,209034.953125,224127.75,223714.515625,208821.1875,111002.0,1.0,3
220370.421875,232326.71875,263994.40625,259150.515625,209476.453125,224262.9375,225207.515625,209167.09375,111003.0,1.0,3
220127.765625,231894.984375,263768.84375,258810.234375,209174.703125,224097.171875,224397.125,208840.21875,111004.0,1.0,3
219804.65625,231203.140625,263356.9375,258230.25,208568.78125,223873.65625,222457.171875,208313.078125,111005.0,1.0,3
219832.8125,231181.25,263310.8125,258191.09375,208473.65625,223891.984375,222014.171875,208299.765625,111006.0,1.0,3
220172.375,231865.46875,263692.65625,258746.75,209022.171875,224124.625,223692.515625,208816.4375,111007.0,1.0,3
220363.0,232320.734375,263981.09375,259138.359375,209465.265625,224259.171875,225193.03125,209161.375,111008.0,1.0,3
220130.359375,231901.6875,263767.125,258812.296875,209177.5625,224101.546875,224407.328125,208847.921875,111009.0,1.0,3
219811.625,231212.359375,263362.5625,258236.515625,208577.375,223880.625,222473.265625,208325.421875,111010.0,1.0,3
219834.875,231177.9375,263312.9375,258191.8125,208477.140625,223894.578125,222014.078125,208300.828125,111011.0,1.0,3
220174.265625,231851.96875,263690.34375,258745.5,209018.6875,224124.703125,223681.15625,208815.375,111012.0,1.0,3
220363.890625,232313.21875,263978.6875,259142.46875,209462.765625,224257.125,225190.625,209161.5625,111013.0,1.0,3
220134.734375,231904.8125,263769.1875,258819.625,209179.4375,224104.765625,224421.09375,208847.640625,111014.0,1.0,3
219809.125,231211.640625,263360.34375,258239.015625,208571.5625,223881.25,222479.078125,208319.4375,111015.0,1.0,3
219831.109375,231178.203125,263308.65625,258190.28125,208468.109375,223891.890625,222004.953125,208293.234375,111016.0,1.0,3
220173.015625,231860.109375,263689.0,258743.1875,209013.59375,224125.0625,223669.09375,208809.203125,111017.0,1.0,3
220367.640625,232326.8125,263983.59375,259142.828125,209464.28125,224263.203125,225188.375,209161.203125,111018.0,1.0,3
220138.9375,231918.578125,263774.125,258823.015625,209185.78125,224106.375,224432.0,208849.609375,111019.0,1.0,3
219818.328125,231225.59375,263366.40625,258241.15625,208583.71875,223880.359375,222495.265625,208322.109375,111020.0,1.0,3
219832.8125,231174.53125,263305.15625,258179.734375,208467.9375,223883.046875,221998.609375,208285.90625,111021.0,1.0,3
220172.296875,231849.5625,263683.375,258730.484375,209011.265625,224116.75,223653.4375,208799.640625,111022.0,1.0,3
220364.15625,232315.640625,263976.4375,259133.796875,209465.453125,224252.65625,225185.96875,209153.328125,111023.0,1.0,3
220131.609375,231902.671875,263765.625,258811.21875,209182.65625,224093.0625,224438.4375,208843.71875,111024.0,1.0,3
219808.5,231208.15625,263358.8125,258232.390625,208581.03125,223870.4375,222503.40625,208317.828125,111025.0,1.0,3
219823.875,231161.3125,263298.28125,258173.484375,208467.9375,223878.75,221995.484375,208282.953125,111026.0,1.0,3
220159.234375,231833.734375,263670.84375,258719.9375,209005.265625,224110.140625,223637.4375,208790.6875,111027.0,1.0,3
220353.609375,232305.09375,263965.96875,259121.640625,209455.703125,224243.796875,225169.34375,209146.265625,111028.0,1.0,3
220131.96875,231909.109375,263766.0625,258812.734375,209187.03125,224091.453125,224438.34375,208848.71875,111029.0,1.0,3
219809.65625,231212.359375,263359.1875,258230.4375,208582.28125,223869.8125,222500.984375,208319.515625,111030.0,1.0,3
219824.140625,231156.75,263296.5,258165.4375,208458.546875,223877.5,221980.28125,208277.671875,111031.0,1.0,3
220162.453125,231830.421875,263671.5625,258716.0,208995.96875,224111.65625,223622.15625,208789.078125,111032.0,1.0,3
220367.5625,232313.84375,263975.53125,259130.765625,209460.4375,224254.890625,225176.046875,209158.6875,111033.0,1.0,3
220146.640625,231922.0625,263778.59375,258821.953125,209195.34375,224102.171875,224459.71875,208864.90625,111034.0,1.0,3
219814.75,231216.828125,263363.1875,258233.109375,208582.828125,223871.859375,222515.296875,208327.03125,111035.0,1.0,3
219823.6875,231154.0625,263292.125,258160.421875,208453.453125,223877.40625,221977.234375,208276.515625,111036.0,1.0,3
220160.3125,231820.59375,263662.34375,258705.265625,208984.796875,224107.546875,223607.3125,208785.328125,111037.0,1.0,3
220367.203125,232306.96875,263965.34375,259119.578125,209447.125,224250.953125,225163.890625,209151.90625,111038.0,1.0,3
220148.6875,231924.03125,263769.65625,258818.28125,209187.578125,224106.640625,224464.1875,208856.59375,111039.0,1.0,3
219820.65625,231227.5625,263360.875,258236.78125,208582.109375,223881.4375,222526.640625,208326.40625,111040.0,1.0,3
219824.046875,231156.828125,263290.59375,258162.125,208451.84375,223880.359375,221976.96875,208276.25,111041.0,1.0,3
220159.15625,231823.28125,263663.34375,258705.890625,208984.265625,224108.4375,223602.03125,208782.203125,111042.0,1.0,3
220368.8125,232316.796875,263972.25,259126.375,209454.90625,224253.984375,225170.234375,209154.21875,111043.0,1.0,3
220155.84375,231937.265625,263782.59375,258828.65625,209198.296875,224106.296875,224480.375,208864.90625,111044.0,1.0,3
219828.171875,231234.796875,263371.15625,258242.765625,208591.765625,223878.84375,222539.25,208331.671875,111045.0,1.0,3
219832.09375,231158.0,263295.4375,258161.671875,208455.59375,223876.953125,221969.640625,208275.4375,111046.0,1.0,3
220167.734375,231822.109375,263667.71875,258706.078125,208989.796875,224105.390625,223585.671875,208784.609375,111047.0,1.0,3
220376.140625,232314.125,263974.90625,259126.5625,209459.640625,224251.046875,225157.890625,209154.484375,111048.0,1.0,3
220164.78125,231941.46875,263789.65625,258834.828125,209211.890625,224108.25,224489.578125,208865.796875,111049.0,1.0,3
219836.65625,231240.4375,263378.5625,258249.921875,208603.390625,223880.171875,222553.46875,208331.140625,111050.0,1.0,3
219833.265625,231157.109375,263300.0,258163.46875,208462.03125,223876.25,221970.0,208272.140625,111051.0,1.0,3
220168.453125,231823.1875,263670.21875,258703.484375,208990.515625,224101.90625,223575.5625,208775.046875,111052.0,1.0,3
220377.125,232315.90625,263975.8125,259123.15625,209456.78125,224244.875,225153.328125,209146.171875,111053.0,1.0,3
220168.53125,231946.75,263792.71875,258833.65625,209208.671875,224103.875,224497.4375,208866.328125,111054.0,1.0,3
219835.046875,231240.703125,263379.03125,258245.1875,208599.28125,223876.328125,222555.96875,208331.59375,111055.0,1.0,3
219834.609375,231159.421875,263302.21875,258160.34375,208460.25,223878.75,221965.625,208274.28125,111056.0,1.0,3
220169.96875,231820.140625,263669.59375,258700.71875,208984.796875,224107.359375,223565.28125,208778.171875,111057.0,1.0,3
220383.296875,232314.921875,263978.59375,259125.9375,209455.875,224253.625,225156.546875,209155.125,111058.0,1.0,3
220175.421875,231946.5625,263793.4375,258840.90625,209210.28125,224113.265625,224516.40625,208875.625,111059.0,1.0,3
219842.375,231240.078125,263375.4375,258251.078125,208597.671875,223883.046875,222570.453125,208336.328125,111060.0,1.0,3
219836.125,231150.046875,263291.21875,258157.03125,208447.109375,223877.859375,221954.890625,208272.578125,111061.0,1.0,3
220166.84375,231808.703125,263656.09375,258690.96875,208967.453125,224106.296875,223544.71875,208772.546875,111062.0,1.0,3
220382.125,232312.234375,263970.0,259121.640625,209445.515625,224258.015625,225143.328125,209153.515625,111063.0,1.0,3
220180.25,231954.703125,263795.03125,258845.734375,209213.5,224121.9375,224519.171875,208884.578125,111064.0,1.0,3
219849.171875,231249.640625,263381.71875,258258.859375,208603.390625,223891.625,222580.296875,208346.515625,111065.0,1.0,3
219838.0,231152.359375,263292.65625,258159.703125,208447.734375,223881.703125,221956.046875,208271.421875,111066.0,1.0,3
220171.671875,231812.359375,263657.875,258695.796875,208971.125,224110.40625,223542.84375,208768.703125,111067.0,1.0,3
220388.75,232318.765625,263970.71875,259126.015625,209449.796875,224260.78125,225146.359375,209153.234375,111068.0,1.0,3
220180.25,231959.078125,263792.09375,258848.5,209215.921875,224120.328125,224530.34375,208885.46875,111069.0,1.0,3
219841.125,231244.28125,263375.4375,258256.1875,208602.84375,223886.265625,222587.0,208344.90625,111070.0,1.0,3
219827.546875,231136.359375,263281.5625,258145.859375,208438.4375,223873.828125,221938.265625,208260.78125,111071.0,1.0,3
220159.15625,231793.328125,263646.96875,258678.359375,208959.671875,224098.6875,223516.203125,208757.25,111072.0,1.0,3
220373.375,232300.265625,263961.59375,259112.25,209442.375,224250.859375,225132.140625,209140.8125,111073.0,1.0,3
220168.359375,231945.765625,263788.3125,258835.453125,209212.421875,224111.921875,224529.453125,208873.125,111074.0,1.0,3
219840.6875,231245.890625,263383.3125,258253.671875,208613.671875,223885.90625,222599.609375,208345.0,111075.0,1.0,3
219830.125,231143.515625,263292.65625,258147.8125,208457.03125,223876.0625,221952.921875,208270.796875,111076.0,1.0,3
220157.8125,231797.25,263653.0625,258677.90625,208974.609375,224101.546875,223526.125,208765.84375,111077.0,1.0,3
220373.8125,232309.46875,263968.5625,259114.9375,209458.390625,224252.203125,225147.25,209150.921875,111078.0,1.0,3
220167.734375,231954.4375,263788.78125,258836.15625,209223.328125,224110.9375,224548.40625,208879.65625,111079.0,1.0,3
219831.109375,231242.75,263371.59375,258244.921875,208612.234375,223878.125,222605.234375,208335.796875,111080.0,1.0,3
219815.109375,231132.875,263275.5,258134.859375,208446.484375,223862.828125,221941.03125,208252.90625,111081.0,1.0,3
220148.953125,231791.265625,263641.78125,258666.375,208966.109375,224090.640625,223506.1875,208750.640625,111082.0,1.0,3
220373.546875,232306.78125,263963.03125,259107.953125,209453.828125,224248.0,225136.796875,209143.9375,111083.0,1.0,3
220174.796875,231962.03125,263793.15625,258842.328125,209228.078125,224113.984375,224555.375,208885.28125,111084.0,1.0,3
219841.3125,231254.015625,263380.09375,258256.1875,208616.53125,223882.6875,222615.875,208349.921875,111085.0,1.0,3
219821.734375,231137.078125,263280.125,258142.1875,208445.859375,223868.46875,221939.25,208267.125,111086.0,1.0,3
220147.53125,231783.046875,263633.84375,258667.1875,208955.65625,224091.71875,223488.21875,208757.4375,111087.0,1.0,3
220367.734375,232299.359375,263954.09375,259111.265625,209447.5625,224251.75,225125.4375,209148.953125,111088.0,1.0,3
220161.03125,231952.921875,263778.125,258838.125,209220.109375,224114.34375,224553.859375,208886.09375,111089.0,1.0,3
219838.265625,231260.546875,263375.4375,258258.859375,208620.28125,223896.09375,222629.015625,208360.734375,111090.0,1.0,3
219816.984375,231138.15625,263274.3125,258138.078125,208443.265625,223877.5,221935.75,208269.453125,111091.0,1.0,3
220149.671875,231791.171875,263638.75,258670.5,208963.421875,224108.96875,223491.609375,208764.59375,111092.0,1.0,3
220367.46875,232303.296875,263956.9375,259112.703125,209450.609375,224263.5625,225133.390625,209155.921875,111093.0,1.0,3
220173.546875,231964.890625,263790.125,258854.9375,209235.3125,224129.796875,224580.328125,208903.96875,111094.0,1.0,3
219834.0625,231251.515625,263369.53125,258257.796875,208622.15625,223892.96875,222637.328125,208362.875,111095.0,1.0,3
219809.5625,231127.59375,263262.53125,258130.828125,208441.921875,223875.890625,221929.5,208264.265625,111096.0,1.0,3
220135.71875,231772.046875,263617.65625,258653.328125,208947.96875,224097.4375,223468.453125,208753.140625,111097.0,1.0,3
220357.28125,232289.171875,263938.625,259099.734375,209439.703125,224252.296875,225117.296875,209150.375,111098.0,1.0,3
220167.46875,231958.71875,263778.59375,258846.359375,209233.890625,224126.40625,224583.71875,208901.109375,111099.0,1.0,3
219833.796875,231250.625,263363.375,258255.28125,208625.65625,223895.5625,222649.046875,208362.796875,111100.0,1.0,3
219813.6875,231123.84375,263259.5625,258128.59375,208445.765625,223876.515625,221934.421875,208266.046875,111101.0,1.0,3
220138.3125,231766.5,263615.78125,258648.3125,208954.21875,224096.359375,223464.078125,208750.734375,111102.0,1.0,3
220360.40625,232287.75,263939.34375,259096.25,209448.46875,224249.078125,225117.21875,209147.609375,111103.0,1.0,3
220167.015625,231960.515625,263777.96875,258842.953125,209240.328125,224115.046875,224589.984375,208899.140625,111104.0,1.0,3
219830.046875,231253.84375,263365.875,258251.171875,208631.28125,223881.78125,222656.734375,208359.578125,111105.0,1.0,3
219796.609375,231113.203125,263251.25,258114.65625,208438.25,223858.984375,221920.109375,208253.359375,111106.0,1.0,3
220121.6875,231755.234375,263606.75,258637.6875,208942.421875,224086.265625,223443.34375,208742.5,111107.0,1.0,3
220349.59375,232284.078125,263934.25,259090.53125,209442.921875,224247.828125,225109.609375,209148.40625,111108.0,1.0,3
220165.859375,231968.5625,263781.96875,258847.609375,209246.671875,224121.84375,224603.296875,208907.546875,111109.0,1.0,3
219832.8125,231261.078125,263370.25,258256.53125,208640.84375,223889.03125,222672.296875,208366.375,111110.0,1.0,3
219800.890625,231115.96875,263251.09375,258112.328125,208443.34375,223859.703125,221919.84375,208254.4375,111111.0,1.0,3
220127.671875,231759.96875,263607.71875,258633.828125,208946.625,224085.28125,223436.09375,208740.265625,111112.0,1.0,3
220356.921875,232295.796875,263938.71875,259091.234375,209451.328125,224250.6875,225111.21875,209146.53125,111113.0,1.0,3
220164.78125,231972.578125,263780.90625,258844.03125,209249.984375,224123.359375,224612.328125,208904.78125,111114.0,1.0,3
219829.953125,231264.390625,263369.53125,258253.40625,208641.296875,223891.71875,222681.59375,208366.28125,111115.0,1.0,3
219794.734375,231113.109375,263248.84375,258108.125,208437.984375,223861.140625,221913.84375,208248.625,111116.0,1.0,3
220120.53125,231749.25,263600.46875,258625.609375,208934.8125,224084.296875,223416.609375,208733.75,111117.0,1.0,3
220358.4375,232291.671875,263935.21875,259089.71875,209442.03125,224254.078125,225104.609375,209147.875,111118.0,1.0,3
220169.875,231977.59375,263781.96875,258849.21875,209243.71875,224125.515625,224624.671875,208911.75,111119.0,1.0,3
219832.1875,231266.625,263366.25,258256.265625,208634.140625,223893.40625,222692.5,208367.171875,111120.0,1.0,3
219799.5625,231114.640625,263246.0625,258110.171875,208431.09375,223865.15625,221914.03125,208247.71875,111121.0,1.0,3
220130.09375,231756.390625,263602.71875,258631.25,208928.734375,224088.9375,223411.6875,208732.671875,111122.0,1.0,3
220371.9375,232304.46875,263943.625,259100.71875,209442.65625,224256.9375,225106.484375,209150.109375,111123.0,1.0,3
220189.1875,231999.578125,263797.53125,258866.109375,209255.078125,224134.453125,224639.78125,208920.0625,111124.0,1.0,3
219846.9375,231285.84375,263379.28125,258270.671875,208644.96875,223901.90625,222709.390625,208376.5625,111125.0,1.0,3
219800.625,231115.96875,263249.65625,258112.0625,208434.59375,223871.5,221916.171875,208252.90625,111126.0,1.0,3
220120.703125,231742.359375,263593.15625,258620.953125,208926.953125,224091.1875,223400.59375,208734.375,111127.0,1.0,3
220362.46875,232292.578125,263931.46875,259086.234375,209440.421875,224256.84375,225096.296875,209154.9375,111128.0,1.0,3
220182.578125,231990.640625,263788.875,258853.328125,209253.90625,224132.390625,224643.625,208923.46875,111129.0,1.0,3
219837.375,231272.265625,263369.09375,258254.75,208640.21875,223892.421875,222709.390625,208371.734375,111130.0,1.0,3
219793.65625,231105.96875,263239.53125,258094.265625,208423.046875,223852.546875,221899.28125,208239.046875,111131.0,1.0,3
220114.359375,231733.0625,263582.0625,258603.171875,208912.015625,224064.265625,223372.53125,208715.140625,111132.0,1.0,3
220352.453125,232283.1875,263920.125,259072.640625,209426.46875,224233.515625,225073.5,209130.4375,111133.0,1.0,3
220174.171875,231981.96875,263777.6875,258843.578125,209247.921875,224113.0,224633.4375,208903.796875,111134.0,1.0,3
219839.515625,231271.453125,263363.71875,258250.8125,208641.46875,223877.140625,222702.15625,208360.109375,111135.0,1.0,3
219794.640625,231102.203125,263235.0,258093.453125,208426.09375,223844.859375,221882.734375,208234.9375,111136.0,1.0,3
220124.453125,231737.890625,263586.96875,258609.15625,208921.59375,224068.65625,223356.4375,208723.640625,111137.0,1.0,3
220364.421875,232290.78125,263928.6875,259079.265625,209439.703125,224236.734375,225065.984375,209138.125,111138.0,1.0,3
220188.390625,231999.765625,263793.15625,258856.09375,209265.359375,224121.3125,224644.15625,208913.71875,111139.0,1.0,3
219848.90625,231283.4375,263378.65625,258264.859375,208656.9375,223888.765625,222724.140625,208372.265625,111140.0,1.0,3
219797.40625,231103.546875,263240.8125,258096.40625,208430.46875,223851.75,221891.765625,208232.703125,111141.0,1.0,3
220116.953125,231731.984375,263582.4375,258600.21875,208915.59375,224072.140625,223352.328125,208706.5625,111142.0,1.0,3
220363.359375,232295.34375,263927.71875,259076.84375,209436.484375,224248.171875,225074.125,209135.0,111143.0,1.0,3
220194.734375,232010.765625,263792.09375,258858.34375,209263.65625,224129.796875,224661.5,208920.25,111144.0,1.0,3
219852.125,231293.53125,263376.34375,258264.234375,208650.953125,223892.609375,222735.140625,208372.71875,111145.0,1.0,3
219800.1875,231108.203125,263239.46875,258091.9375,208420.28125,223856.84375,221889.4375,208234.3125,111146.0,1.0,3
220126.0625,231735.203125,263586.625,258601.921875,208912.015625,224079.015625,223347.40625,208712.90625,111147.0,1.0,3
220370.78125,232294.359375,263926.46875,259075.140625,209431.65625,224250.5,225066.703125,209134.203125,111148.0,1.0,3
220198.75,232012.8125,263791.28125,258861.640625,209264.640625,224135.96875,224670.453125,208920.78125,111149.0,1.0,3
219854.984375,231295.953125,263371.5,258267.171875,208651.125,223896.546875,222744.4375,208379.59375,111150.0,1.0,3
219799.734375,231106.234375,263229.8125,258094.625,208420.546875,223855.40625,221885.421875,208237.71875,111151.0,1.0,3
220111.859375,231717.953125,263564.8125,258590.734375,208894.046875,224068.109375,223319.515625,208701.015625,111152.0,1.0,3
220351.375,232276.484375,263906.875,259063.171875,209409.84375,224237.53125,225041.3125,209125.25,111153.0,1.0,3
220180.421875,231998.25,263777.6875,258854.046875,209247.828125,224127.203125,224661.6875,208918.90625,111154.0,1.0,3
219845.328125,231285.21875,263369.90625,258267.625,208647.734375,223896.546875,222750.796875,208383.359375,111155.0,1.0,3
219795.4375,231100.421875,263231.15625,258092.5625,208420.546875,223858.8125,221885.421875,208237.0,111156.0,1.0,3
220114.984375,231719.734375,263573.21875,258591.90625,208904.78125,224080.359375,223318.609375,208706.390625,111157.0,1.0,3
220361.296875,232280.046875,263918.15625,259067.28125,209424.140625,224249.96875,225044.96875,209128.390625,111158.0,1.0,3
220196.703125,232005.3125,263792.71875,258860.484375,209266.34375,224137.671875,224675.09375,208920.25,111159.0,1.0,3
219859.640625,231295.59375,263385.375,258271.5625,208666.421875,223910.21875,222765.90625,208380.9375,111160.0,1.0,3
219800.1875,231101.21875,263239.09375,258087.015625,208425.640625,223872.765625,221882.46875,208230.109375,111161.0,1.0,3
220114.359375,231715.453125,263572.5,258582.15625,208897.71875,224090.375,223302.4375,208697.71875,111162.0,1.0,3
220365.328125,232294.8125,263924.84375,259070.234375,209426.015625,224269.09375,225048.375,209131.96875,111163.0,1.0,3
