FZ,C3,CZ,C4,PZ,PO7,OZ,PO8,Counter,Validation,Label
244460.953125,260033.765625,253202.984375,264533.96875,231455.1875,261862.671875,236224.6875,236667.96875,162546.0,1.0,2
244482.859375,260061.484375,253217.921875,264542.90625,231480.578125,261886.640625,236234.078125,236692.109375,162547.0,1.0,2
244515.21875,260076.421875,253226.140625,264548.8125,231468.953125,261882.265625,236218.078125,236689.515625,162548.0,1.0,2
244512.8125,260061.046875,253213.890625,264543.46875,231435.6875,261855.890625,236200.015625,236664.390625,162549.0,1.0,2
244471.046875,260019.640625,253190.734375,264525.5625,231418.171875,261834.0625,236196.265625,236641.5,162550.0,1.0,2
244458.453125,260032.25,253194.84375,264528.09375,231449.375,261855.4375,236221.46875,236660.375,162551.0,1.0,2
244481.25,260060.40625,253213.09375,264539.96875,231474.3125,261881.1875,236237.203125,236690.59375,162552.0,1.0,2
244512.546875,260070.421875,253221.3125,264544.0,231460.453125,261876.71875,236223.796875,236691.65625,162553.0,1.0,2
244508.34375,260052.1875,253207.09375,264534.34375,231426.484375,261846.40625,236201.71875,236666.0,162554.0,1.0,2
244476.421875,260030.015625,253193.78125,264526.90625,231418.078125,261835.40625,236207.078125,236651.96875,162555.0,1.0,2
244458.171875,260038.0625,253196.90625,264525.84375,231449.109375,261858.125,236226.296875,236671.28125,162556.0,1.0,2
244482.953125,260071.859375,253212.828125,264535.6875,231478.078125,261881.0,236236.765625,236698.375,162557.0,1.0,2
244518.703125,260089.46875,253221.9375,264541.9375,231468.0625,261878.59375,236222.1875,236698.375,162558.0,1.0,2
244516.734375,260065.421875,253209.6875,264533.1875,231430.515625,261848.203125,236199.828125,236667.96875,162559.0,1.0,2
244482.40625,260031.53125,253195.296875,264522.53125,231416.828125,261830.671875,236201.984375,236649.640625,162560.0,1.0,2
244471.046875,260044.5,253203.703125,264526.5625,231451.34375,261854.1875,236226.75,236673.515625,162561.0,1.0,2
244494.203125,260078.921875,253222.390625,264537.90625,231481.03125,261880.921875,236242.03125,236700.328125,162562.0,1.0,2
244523.171875,260090.640625,253230.875,264543.0,231467.171875,261877.25,236225.046875,236696.40625,162563.0,1.0,2
244518.0,260066.5,253218.28125,264532.375,231430.0625,261849.71875,236201.4375,236664.21875,162564.0,1.0,2
244482.765625,260035.734375,253202.265625,264524.3125,231416.65625,261835.953125,236203.765625,236643.65625,162565.0,1.0,2
244470.25,260051.203125,253213.8125,264532.71875,231454.46875,261868.140625,236234.796875,236670.203125,162566.0,1.0,2
244489.109375,260077.9375,253228.109375,264539.25,231478.515625,261890.3125,236240.78125,236694.078125,162567.0,1.0,2
244522.109375,260090.984375,253234.640625,264543.375,231464.03125,261886.734375,236222.09375,236692.296875,162568.0,1.0,2
244520.3125,260070.96875,253223.1875,264535.40625,231427.46875,261860.359375,236201.53125,236664.3125,162569.0,1.0,2
244484.640625,260039.21875,253205.3125,264523.78125,231413.703125,261841.578125,236201.984375,236646.25,162570.0,1.0,2
244468.546875,260052.546875,253208.890625,264527.375,231445.890625,261863.75,236226.75,236669.046875,162571.0,1.0,2
244491.265625,260087.5,253227.03125,264539.25,231475.296875,261885.5625,236242.390625,236699.0,162572.0,1.0,2
244524.34375,260106.640625,253235.265625,264544.625,231463.671875,261881.546875,236229.421875,236699.265625,162573.0,1.0,2
244523.0,260092.421875,253224.625,264536.03125,231429.796875,261855.078125,236209.671875,236674.046875,162574.0,1.0,2
244490.1875,260069.890625,253207.640625,264522.90625,231417.640625,261835.859375,236209.765625,236655.625,162575.0,1.0,2
244469.796875,260077.3125,253210.046875,264524.5,231446.609375,261855.703125,236232.921875,236672.171875,162576.0,1.0,2
244489.109375,260100.828125,253225.703125,264535.5,231472.53125,261876.53125,236241.328125,236699.171875,162577.0,1.0,2
244525.6875,260122.015625,253235.984375,264541.5,231462.78125,261874.921875,236228.796875,236703.90625,162578.0,1.0,2
244522.375,260101.09375,253223.015625,264533.90625,231426.484375,261847.21875,236204.21875,236675.484375,162579.0,1.0,2
244483.75,260065.328125,253203.703125,264521.375,231411.828125,261828.96875,236203.953125,236653.671875,162580.0,1.0,2
244467.296875,260081.328125,253212.546875,264528.71875,231450.265625,261858.75,236235.78125,236682.984375,162581.0,1.0,2
244484.734375,260103.78125,253228.203125,264539.0,231480.046875,261883.78125,236250.625,236714.640625,162582.0,1.0,2
244519.15625,260116.5625,253234.375,264543.0,231469.9375,261882.609375,236236.21875,236716.515625,162583.0,1.0,2
244520.578125,260097.515625,253223.640625,264535.78125,231433.453125,261854.1875,236214.5,236689.078125,162584.0,1.0,2
244484.28125,260058.71875,253203.171875,264526.1875,231417.453125,261836.75,236213.875,236666.8125,162585.0,1.0,2
244465.953125,260063.546875,253204.953125,264527.53125,231449.546875,261857.5,236232.375,236682.90625,162586.0,1.0,2
244487.953125,260097.515625,253223.90625,264537.90625,231483.4375,261885.75,236249.359375,236713.84375,162587.0,1.0,2
244521.921875,260113.515625,253235.265625,264544.09375,231476.109375,261886.375,236236.84375,236719.828125,162588.0,1.0,2
244521.75,260097.703125,253227.21875,264539.625,231447.5,261864.46875,236220.484375,236702.03125,162589.0,1.0,2
244486.609375,260068.375,253208.53125,264529.25,231434.4375,261845.953125,236219.328125,236682.984375,162590.0,1.0,2
244465.328125,260072.84375,253208.53125,264526.90625,231464.75,261864.109375,236239.078125,236697.46875,162591.0,1.0,2
244486.34375,260101.71875,253225.703125,264536.75,231493.71875,261887.890625,236254.109375,236726.703125,162592.0,1.0,2
244522.109375,260116.828125,253236.609375,264545.34375,231481.203125,261887.359375,236243.015625,236730.375,162593.0,1.0,2
244520.765625,260099.21875,253223.28125,264536.21875,231445.53125,261859.734375,236221.375,236705.25,162594.0,1.0,2
244484.5625,260068.734375,253202.71875,264523.34375,231432.46875,261837.828125,236217.625,236683.53125,162595.0,1.0,2
244468.546875,260081.609375,253207.546875,264527.09375,231466.984375,261860.4375,236242.21875,236705.25,162596.0,1.0,2
244494.65625,260118.265625,253230.875,264545.34375,231502.921875,261885.75,236262.78125,236739.5,162597.0,1.0,2
244524.609375,260134.796875,253240.359375,264550.15625,231493.90625,261881.8125,236249.359375,236741.90625,162598.0,1.0,2
244517.71875,260109.765625,253224.09375,264536.5625,231452.140625,261852.484375,236223.34375,236708.109375,162599.0,1.0,2
244483.921875,260085.453125,253203.53125,264525.21875,231436.5,261833.171875,236221.109375,236683.796875,162600.0,1.0,2
244466.3125,260094.828125,253210.671875,264530.9375,231471.28125,261857.40625,236248.828125,236704.265625,162601.0,1.0,2
244483.390625,260114.328125,253225.515625,264539.4375,231494.796875,261879.390625,236256.515625,236724.296875,162602.0,1.0,2
244514.859375,260123.71875,253233.5625,264544.8125,231481.5625,261874.03125,236237.03125,236720.453125,162603.0,1.0,2
244515.84375,260104.046875,253224.171875,264539.625,231446.328125,261849.171875,236215.296875,236694.703125,162604.0,1.0,2
244478.5625,260065.515625,253203.796875,264524.78125,231426.75,261823.875,236210.390625,236669.3125,162605.0,1.0,2
244456.921875,260061.84375,253204.59375,264523.875,231451.515625,261844.703125,236232.296875,236684.78125,162606.0,1.0,2
244477.046875,260088.046875,253220.515625,264534.59375,231478.96875,261872.421875,236247.046875,236711.25,162607.0,1.0,2
244509.5,260102.609375,253229.265625,264539.96875,231470.03125,261873.140625,236234.078125,236710.171875,162608.0,1.0,2
244508.6875,260082.3125,253214.96875,264530.3125,231433.1875,261843.640625,236206.546875,236680.484375,162609.0,1.0,2
244472.3125,260048.515625,253195.296875,264518.6875,231413.25,261819.3125,236201.4375,236656.34375,162610.0,1.0,2
244456.75,260057.90625,253199.765625,264523.4375,231446.609375,261844.984375,236229.96875,236677.8125,162611.0,1.0,2
244478.296875,260091.078125,253218.453125,264536.65625,231477.890625,261870.640625,236243.90625,236705.515625,162612.0,1.0,2
244512.359375,260111.640625,253228.109375,264541.75,231466.265625,261871.171875,236229.875,236707.671875,162613.0,1.0,2
244509.953125,260088.75,253216.21875,264532.375,231428.0,261842.734375,236205.640625,236681.921875,162614.0,1.0,2
244474.453125,260057.546875,253196.1875,264518.34375,231412.53125,261822.359375,236203.328125,236659.484375,162615.0,1.0,2
244458.625,260069.984375,253200.390625,264523.0625,231446.328125,261843.28125,236226.03125,236677.53125,162616.0,1.0,2
244476.859375,260096.09375,253216.578125,264532.5625,231472.984375,261865.09375,236237.203125,236699.078125,162617.0,1.0,2
244509.765625,260109.046875,253228.375,264538.625,231462.25,261865.8125,236224.6875,236701.59375,162618.0,1.0,2
244511.015625,260095.734375,253215.6875,264530.0625,231425.953125,261841.125,236201.09375,236674.9375,162619.0,1.0,2
244477.046875,260067.125,253196.90625,264519.125,231411.375,261821.375,236197.59375,236652.328125,162620.0,1.0,2
244457.28125,260073.734375,253202.09375,264523.78125,231445.078125,261846.046875,236222.90625,236671.375,162621.0,1.0,2
244475.796875,260099.125,253219.265625,264535.3125,231476.015625,261873.671875,236238.109375,236703.640625,162622.0,1.0,2
244513.25,260116.296875,253233.296875,264545.96875,231472.625,261882.96875,236234.4375,236714.90625,162623.0,1.0,2
244513.609375,260098.671875,253218.359375,264535.78125,231434.796875,261851.765625,236208.234375,236686.296875,162624.0,1.0,2
244480.53125,260066.9375,253200.484375,264525.125,231421.75,261830.046875,236203.6875,236665.015625,162625.0,1.0,2
244459.78125,260072.296875,253203.703125,264526.1875,231455.28125,261852.671875,236229.25,236682.984375,162626.0,1.0,2
244482.765625,260104.40625,253225.25,264539.53125,231491.125,261886.546875,236248.921875,236716.421875,162627.0,1.0,2
244517.015625,260114.953125,253236.15625,264546.5,231483.96875,261887.53125,236236.046875,236719.640625,162628.0,1.0,2
244516.921875,260094.484375,253221.9375,264536.75,231447.3125,261859.015625,236207.171875,236689.078125,162629.0,1.0,2
244486.171875,260063.984375,253205.21875,264528.34375,231435.25,261841.21875,236206.984375,236668.0625,162630.0,1.0,2
244468.375,260068.375,253210.9375,264531.9375,231468.78125,261861.34375,236231.671875,236688.71875,162631.0,1.0,2
244485.53125,260099.484375,253228.46875,264542.125,231499.890625,261888.703125,236246.421875,236717.140625,162632.0,1.0,2
244515.578125,260109.765625,253234.8125,264544.625,231488.984375,261886.375,236231.484375,236717.5,162633.0,1.0,2
244519.15625,260094.484375,253224.53125,264536.40625,231456.890625,261860.0,236212.265625,236693.90625,162634.0,1.0,2
244484.015625,260063.71875,253203.609375,264522.71875,231441.59375,261833.984375,236208.859375,236671.015625,162635.0,1.0,2
244468.1875,260073.5625,253209.609375,264529.96875,231478.078125,261856.78125,236239.265625,236693.453125,162636.0,1.0,2
244482.59375,260098.953125,253221.40625,264537.125,231506.5,261878.6875,236253.125,236718.75,162637.0,1.0,2
244509.671875,260106.8125,253223.28125,264534.96875,231489.78125,261870.71875,236229.421875,236713.296875,162638.0,1.0,2
244515.40625,260093.3125,253215.6875,264531.46875,231456.4375,261850.78125,236209.140625,236690.5,162639.0,1.0,2
244484.640625,260061.125,253199.5,264522.0,231433.375,261830.9375,236206.1875,236666.1875,162640.0,1.0,2
244466.40625,260063.71875,253204.859375,264525.9375,231458.046875,261852.671875,236233.8125,236680.3125,162641.0,1.0,2
244483.296875,260087.6875,253221.671875,264535.21875,231482.453125,261875.109375,236244.890625,236702.21875,162642.0,1.0,2
244519.609375,260103.59375,253234.90625,264543.5625,231472.53125,261877.875,236232.375,236702.65625,162643.0,1.0,2
244520.5,260083.484375,253221.859375,264533.90625,231434.078125,261846.859375,236201.796875,236674.3125,162644.0,1.0,2
244486.703125,260051.296875,253203.53125,264524.9375,231419.875,261827.71875,236200.640625,236652.328125,162645.0,1.0,2
244469.171875,260059.25,253210.765625,264531.125,231455.09375,261853.375,236233.0,236674.046875,162646.0,1.0,2
244486.34375,260092.953125,253225.515625,264542.75,231488.984375,261879.671875,236251.953125,236707.21875,162647.0,1.0,2
244522.109375,260113.25,253236.15625,264549.4375,231485.765625,261880.921875,236240.15625,236714.015625,162648.0,1.0,2
244529.265625,260096.53125,253229.453125,264545.96875,231454.921875,261858.828125,236219.140625,236693.0,162649.0,1.0,2
244495.734375,260061.75,253209.421875,264534.6875,231434.53125,261836.484375,236214.859375,236665.828125,162650.0,1.0,2
244476.15625,260063.984375,253213.53125,264537.1875,231463.046875,261857.84375,236239.625,236683.171875,162651.0,1.0,2
244487.5,260085.171875,253225.78125,264542.21875,231489.96875,261879.21875,236248.921875,236706.953125,162652.0,1.0,2
244520.046875,260102.171875,253233.203125,264545.34375,231481.734375,261875.46875,236231.75,236708.03125,162653.0,1.0,2
244527.65625,260093.140625,253226.765625,264540.59375,231452.859375,261854.625,236214.046875,236690.046875,162654.0,1.0,2
244495.546875,260061.125,253208.984375,264531.46875,231438.109375,261832.1875,236211.90625,236669.484375,162655.0,1.0,2
244472.75,260061.484375,253210.140625,264532.28125,231467.4375,261851.953125,236232.5625,236682.984375,162656.0,1.0,2
244492.421875,260090.640625,253229.8125,264545.875,231499.53125,261885.484375,236252.234375,236713.203125,162657.0,1.0,2
244526.84375,260113.703125,253239.546875,264553.5625,231495.15625,261883.515625,236240.15625,236721.171875,162658.0,1.0,2
244531.578125,260109.59375,253228.828125,264545.34375,231464.578125,261855.703125,236216.640625,236699.359375,162659.0,1.0,2
244497.15625,260075.515625,253209.421875,264532.71875,231445.984375,261832.375,236212.625,236674.046875,162660.0,1.0,2
244473.46875,260073.828125,253209.15625,264533.28125,231471.375,261849.625,236236.140625,236687.640625,162661.0,1.0,2
244489.109375,260095.453125,253227.3125,264544.34375,231500.515625,261877.15625,236252.671875,236714.90625,162662.0,1.0,2
244527.015625,260114.765625,253241.15625,264552.9375,231494.875,261878.6875,236240.421875,236721.171875,162663.0,1.0,2
244535.515625,260099.484375,253233.125,264547.5625,231457.15625,261855.265625,236214.953125,236695.78125,162664.0,1.0,2
244501.546875,260065.515625,253213.8125,264534.0625,231434.265625,261833.53125,236209.046875,236667.703125,162665.0,1.0,2
244479.546875,260067.828125,253217.296875,264538.1875,231465.015625,261856.234375,236236.578125,236684.78125,162666.0,1.0,2
244493.234375,260090.359375,253230.4375,264546.5,231494.796875,261878.234375,236249.71875,236712.046875,162667.0,1.0,2
244525.0625,260101.265625,253240.0,264554.71875,231487.015625,261878.6875,236234.171875,236716.703125,162668.0,1.0,2
244532.03125,260086.78125,253231.421875,264551.3125,231454.375,261855.96875,236212.078125,236695.0625,162669.0,1.0,2
244497.34375,260047.09375,253212.015625,264538.53125,231435.421875,261834.34375,236212.0,236672.625,162670.0,1.0,2
244476.15625,260047.09375,253213.0,264538.53125,231465.640625,261855.703125,236238.734375,236686.828125,162671.0,1.0,2
244494.203125,260075.078125,253227.75,264547.125,231499.796875,261882.078125,236252.765625,236715.625,162672.0,1.0,2
244526.3125,260094.484375,253235.984375,264549.625,231493.359375,261884.40625,236236.765625,236717.234375,162673.0,1.0,2
244529.53125,260076.5,253226.046875,264542.21875,231458.671875,261862.671875,236213.515625,236692.5625,162674.0,1.0,2
244496.796875,260043.34375,253206.296875,264532.0,231439.359375,261842.46875,236209.40625,236669.046875,162675.0,1.0,2
244471.859375,260047.53125,253206.03125,264531.3125,231467.703125,261856.234375,236230.765625,236686.296875,162676.0,1.0,2
244486.609375,260072.296875,253220.78125,264542.5625,231500.96875,261881.28125,236246.59375,236715.359375,162677.0,1.0,2
244519.609375,260085.984375,253230.796875,264546.84375,231491.65625,261881.1875,236231.9375,236716.25,162678.0,1.0,2
244528.546875,260080.890625,253223.90625,264541.9375,231459.296875,261857.9375,236212.265625,236692.5625,162679.0,1.0,2
244503.859375,260056.484375,253212.46875,264537.90625,231446.875,261842.5625,236219.234375,236675.21875,162680.0,1.0,2
244477.140625,260055.140625,253208.078125,264533.625,231472.703125,261854.984375,236236.765625,236685.859375,162681.0,1.0,2
244488.578125,260077.484375,253221.859375,264539.53125,231501.40625,261878.5,236246.953125,236709.09375,162682.0,1.0,2
244521.75,260097.515625,253231.421875,264544.8125,231494.609375,261882.171875,236235.515625,236712.578125,162683.0,1.0,2
244529.34375,260087.234375,253221.578125,264538.09375,231460.375,261858.125,236211.09375,236688.4375,162684.0,1.0,2
244495.46875,260052.015625,253202.546875,264527.8125,231436.953125,261833.0,236205.296875,236660.8125,162685.0,1.0,2
244474.984375,260055.046875,253206.03125,264534.4375,231469.21875,261851.6875,236231.578125,236680.3125,162686.0,1.0,2
244485.09375,260082.9375,253218.984375,264539.78125,231502.65625,261877.875,236245.34375,236708.921875,162687.0,1.0,2
244515.9375,260094.75,253227.484375,264542.84375,231495.421875,261878.421875,236232.828125,236709.28125,162688.0,1.0,2
244522.640625,260077.046875,253220.515625,264538.53125,231463.671875,261856.78125,236211.8125,236684.875,162689.0,1.0,2
244488.84375,260041.90625,253199.765625,264522.71875,231441.5,261832.453125,236204.390625,236655.546875,162690.0,1.0,2
244468.109375,260045.03125,253201.921875,264525.03125,231467.171875,261851.6875,236230.234375,236668.234375,162691.0,1.0,2
244483.921875,260070.6875,253219.078125,264535.15625,231496.3125,261876.71875,236246.953125,236692.109375,162692.0,1.0,2
244514.59375,260079.09375,253227.484375,264538.375,231486.125,261874.84375,236230.953125,236690.328125,162693.0,1.0,2
244520.40625,260063.0,253217.734375,264531.46875,231449.015625,261849.890625,236203.765625,236664.65625,162694.0,1.0,2
244492.328125,260039.671875,253202.625,264522.96875,231430.15625,261830.140625,236203.953125,236641.5,162695.0,1.0,2
244470.515625,260041.8125,253204.421875,264526.5625,231459.296875,261850.25,236229.15625,236656.96875,162696.0,1.0,2
244484.375,260063.8125,253221.3125,264535.9375,231492.015625,261878.0625,236241.140625,236685.578125,162697.0,1.0,2
244518.53125,260087.5,253230.875,264541.40625,231487.90625,261879.9375,236227.1875,236691.484375,162698.0,1.0,2
244526.3125,260077.578125,253224.265625,264537.125,231454.65625,261855.53125,236205.5625,236669.84375,162699.0,1.0,2
244495.28125,260041.8125,253206.921875,264529.59375,231434.4375,261835.765625,236202.609375,236642.75,162700.0,1.0,2
244465.59375,260033.765625,253197.984375,264523.0625,231453.21875,261846.671875,236221.296875,236649.375,162701.0,1.0,2
244476.515625,260061.9375,253208.890625,264528.71875,231482.71875,261870.640625,236236.3125,236677.09375,162702.0,1.0,2
244512.09375,260082.859375,253224.09375,264538.625,231481.921875,261878.859375,236228.53125,236689.15625,162703.0,1.0,2
244516.828125,260067.03125,253212.90625,264529.40625,231446.0625,261853.65625,236200.640625,236662.15625,162704.0,1.0,2
244484.5625,260028.859375,253194.671875,264518.5,231426.046875,261832.90625,236197.25,236636.328125,162705.0,1.0,2
244459.515625,260019.828125,253195.03125,264519.84375,231449.734375,261849.359375,236218.609375,236648.921875,162706.0,1.0,2
244474.8125,260048.796875,253209.15625,264528.34375,231481.734375,261876.265625,236233.1875,236674.859375,162707.0,1.0,2
244511.734375,260070.25,253222.5625,264538.375,231480.578125,261884.578125,236222.8125,236680.75,162708.0,1.0,2
244521.921875,260058.890625,253215.234375,264533.1875,231447.5,261861.0625,236197.421875,236654.734375,162709.0,1.0,2
244491.703125,260020.453125,253198.15625,264522.28125,231424.078125,261833.4375,236187.140625,236624.34375,162710.0,1.0,2
244468.46875,260019.015625,253200.65625,264525.9375,231448.84375,261853.46875,236212.0,236638.46875,162711.0,1.0,2
244481.6875,260047.0,253215.765625,264535.3125,231482.546875,261878.6875,236228.984375,236668.59375,162712.0,1.0,2
244512.1875,260060.859375,253225.703125,264541.5,231476.109375,261876.1875,236215.125,236674.046875,162713.0,1.0,2
244527.203125,260062.203125,253225.609375,264545.34375,231451.15625,261860.359375,236200.90625,236659.296875,162714.0,1.0,2
244498.6875,260034.21875,253207.71875,264534.4375,231433.375,261840.234375,236196.609375,236637.296875,162715.0,1.0,2
244475.53125,260032.25,253208.0,264534.78125,231458.5,261856.421875,236219.328125,236651.875,162716.0,1.0,2
244488.3125,260059.875,253224.53125,264547.65625,231491.578125,261883.25,236240.34375,236683.4375,162717.0,1.0,2
244517.71875,260074.890625,253231.953125,264551.78125,231486.03125,261884.046875,236230.140625,236688.265625,162718.0,1.0,2
244521.484375,260061.21875,253218.09375,264542.21875,231451.609375,261859.28125,236207.53125,236665.921875,162719.0,1.0,2
244489.03125,260027.0625,253196.453125,264529.15625,231428.28125,261833.171875,236198.671875,236639.625,162720.0,1.0,2
244467.296875,260032.703125,253197.71875,264531.3125,231456.4375,261851.765625,236222.453125,236652.765625,162721.0,1.0,2
244484.28125,260068.8125,253218.359375,264542.84375,231494.609375,261880.734375,236242.125,236689.703125,162722.0,1.0,2
244517.640625,260092.78125,253229.546875,264548.46875,231490.6875,261883.78125,236232.375,236700.609375,162723.0,1.0,2
244525.234375,260084.28125,253219.703125,264541.65625,231458.40625,261860.4375,236210.46875,236680.390625,162724.0,1.0,2
244493.140625,260049.953125,253199.953125,264529.34375,231434.53125,261837.015625,236205.015625,236653.9375,162725.0,1.0,2
244467.484375,260042.265625,253199.5,264530.5,231461.796875,261857.578125,236229.609375,236668.15625,162726.0,1.0,2
244479.734375,260066.578125,253214.703125,264539.53125,231499.171875,261884.9375,236246.234375,236698.640625,162727.0,1.0,2
244517.453125,260095.28125,253229.71875,264550.625,231503.640625,261893.4375,236243.203125,236712.671875,162728.0,1.0,2
244527.5625,260090.8125,253222.75,264544.0,231473.875,261872.875,236219.859375,236692.734375,162729.0,1.0,2
244495.546875,260052.1875,253203.078125,264531.03125,231450.265625,261848.28125,236208.234375,236663.59375,162730.0,1.0,2
244466.671875,260035.109375,253198.609375,264527.625,231466.984375,261859.28125,236222.71875,236665.734375,162731.0,1.0,2
244483.03125,260063.8125,253218.359375,264541.3125,231502.75,261887.09375,236241.140625,236694.796875,162732.0,1.0,2
244517.71875,260089.03125,253231.234375,264549.34375,231505.796875,261893.078125,236235.6875,236707.125,162733.0,1.0,2
244528.453125,260082.859375,253225.515625,264546.5,231479.6875,261873.859375,236216.375,236689.609375,162734.0,1.0,2
244498.5,260050.046875,253207.8125,264536.65625,231460.015625,261850.34375,236211.453125,236664.84375,162735.0,1.0,2
244471.953125,260047.8125,253206.203125,264536.21875,231485.234375,261863.75,236230.328125,236679.140625,162736.0,1.0,2
244485.53125,260077.40625,253223.015625,264548.90625,231521.53125,261893.875,236249.71875,236710.265625,162737.0,1.0,2
244521.21875,260099.9375,253237.59375,264557.21875,231519.109375,261898.4375,236239.4375,236716.703125,162738.0,1.0,2
244532.125,260089.5625,253233.5625,264554.375,231490.5,261879.75,236221.921875,236699.890625,162739.0,1.0,2
244499.21875,260050.40625,253211.21875,264541.65625,231464.65625,261848.375,236209.578125,236671.453125,162740.0,1.0,2
244472.390625,260045.921875,253205.765625,264537.28125,231483.265625,261857.9375,236222.90625,236676.734375,162741.0,1.0,2
244481.25,260068.015625,253216.9375,264543.46875,231513.484375,261882.96875,236237.75,236704.625,162742.0,1.0,2
244516.03125,260090.90625,253228.296875,264551.6875,231515.890625,261891.203125,236229.875,236714.375,162743.0,1.0,2
244528.1875,260084.28125,253222.5625,264547.65625,231486.125,261873.59375,236209.40625,236693.359375,162744.0,1.0,2
244496.625,260047.1875,253202.1875,264534.0625,231458.40625,261847.03125,236199.390625,236663.40625,162745.0,1.0,2
244471.40625,260047.09375,253201.5625,264534.15625,231481.375,261862.5,236221.921875,236675.125,162746.0,1.0,2
244478.5625,260072.84375,253214.515625,264540.5,231514.546875,261888.25,236239.265625,236703.109375,162747.0,1.0,2
244511.203125,260090.1875,253226.140625,264546.59375,231513.296875,261893.4375,236230.328125,236710.4375,162748.0,1.0,2
244521.75,260076.421875,253217.828125,264540.40625,231475.84375,261867.78125,236205.46875,236683.078125,162749.0,1.0,2
244492.59375,260036.71875,253200.578125,264530.125,231450.8125,261842.734375,236198.859375,236654.46875,162750.0,1.0,2
244471.234375,260037.171875,253202.8125,264532.625,231477.453125,261860.265625,236221.296875,236669.3125,162751.0,1.0,2
244482.59375,260065.515625,253217.828125,264543.625,231513.390625,261889.046875,236237.03125,236699.4375,162752.0,1.0,2
244515.125,260087.421875,253229.453125,264553.21875,231514.28125,261896.03125,236229.421875,236708.03125,162753.0,1.0,2
244525.40625,260076.0625,253223.109375,264549.71875,231482.09375,261872.875,236206.1875,236687.640625,162754.0,1.0,2
244492.328125,260036.984375,253202.71875,264533.625,231455.1875,261844.890625,236197.421875,236659.484375,162755.0,1.0,2
244468.734375,260039.671875,253202.890625,264533.4375,231477.625,261862.59375,236220.9375,236670.5625,162756.0,1.0,2
244483.03125,260072.484375,253221.3125,264544.1875,231512.671875,261896.5625,236243.109375,236700.609375,162757.0,1.0,2
244512.8125,260088.390625,253229.90625,264548.65625,231507.21875,261895.9375,236225.9375,236706.328125,162758.0,1.0,2
244525.765625,260073.734375,253224.09375,264546.40625,231474.59375,261873.859375,236202.78125,236685.671875,162759.0,1.0,2
244498.953125,260038.0625,253206.921875,264537.46875,231448.296875,261846.5,236195.8125,236655.90625,162760.0,1.0,2
244472.3125,260035.296875,253203.96875,264536.5,231468.953125,261858.921875,236215.84375,236665.109375,162761.0,1.0,2
244481.515625,260057.546875,253217.46875,264542.84375,231502.21875,261885.390625,236233.28125,236692.734375,162762.0,1.0,2
244515.75,260079.28125,253230.4375,264550.0,231500.0625,261892.8125,236224.515625,236701.40625,162763.0,1.0,2
244525.765625,260072.21875,253223.46875,264544.4375,231467.171875,261872.0625,236201.0,236679.140625,162764.0,1.0,2
244493.9375,260038.6875,253202.453125,264533.34375,231442.84375,261845.421875,236193.671875,236651.25,162765.0,1.0,2
244465.59375,260028.859375,253199.765625,264531.9375,231464.21875,261860.4375,236217.359375,236661.53125,162766.0,1.0,2
244479.90625,260061.671875,253217.109375,264542.5625,231503.375,261891.734375,236243.203125,236696.3125,162767.0,1.0,2
244513.34375,260080.984375,253227.21875,264548.09375,231503.203125,261891.46875,236232.828125,236704.265625,162768.0,1.0,2
244524.515625,260074.453125,253219.4375,264543.5625,231473.421875,261868.40625,236208.6875,236687.109375,162769.0,1.0,2
244495.015625,260042.078125,253196.1875,264528.71875,231445.0,261840.5,236195.984375,236657.6875,162770.0,1.0,2
244465.78125,260034.125,253191.28125,264525.65625,231462.0625,261852.484375,236212.625,236662.421875,162771.0,1.0,2
244476.234375,260057.015625,253209.0625,264535.9375,231496.484375,261884.046875,236232.203125,236688.71875,162772.0,1.0,2
244511.375,260076.234375,253222.203125,264543.8125,231497.125,261891.375,236226.5625,236696.765625,162773.0,1.0,2
244523.09375,260069.53125,253214.703125,264537.375,231465.375,261868.21875,236201.71875,236676.015625,162774.0,1.0,2
244492.25,260033.140625,253195.03125,264523.78125,231441.859375,261842.296875,236192.140625,236647.578125,162775.0,1.0,2
244464.53125,260024.375,253191.546875,264523.53125,231460.8125,261851.953125,236211.640625,236654.375,162776.0,1.0,2
244477.484375,260056.65625,253207.1875,264536.5625,231498.640625,261881.640625,236232.921875,236688.53125,162777.0,1.0,2
244511.109375,260081.15625,253220.15625,264543.90625,231501.765625,261888.609375,236227.1875,236701.5,162778.0,1.0,2
244522.90625,260076.953125,253214.515625,264539.0,231471.453125,261865.625,236205.734375,236682.453125,162779.0,1.0,2
244495.109375,260041.8125,253195.484375,264527.8125,231444.546875,261838.0,236197.78125,236652.328125,162780.0,1.0,2
244466.859375,260025.71875,253191.90625,264524.15625,231461.265625,261848.015625,236215.21875,236654.921875,162781.0,1.0,2
244474.265625,260056.5625,253205.84375,264532.5625,231496.765625,261876.09375,236232.734375,236683.796875,162782.0,1.0,2
244505.828125,260080.703125,253215.859375,264537.5625,231495.78125,261881.1875,236222.546875,236695.421875,162783.0,1.0,2
244516.921875,260069.265625,253209.25,264532.5625,231461.984375,261859.453125,236198.765625,236675.5625,162784.0,1.0,2
244487.953125,260033.59375,253191.546875,264521.1875,231436.140625,261835.046875,236189.734375,236648.84375,162785.0,1.0,2
244464.703125,260035.375,253191.453125,264522.8125,231461.71875,261853.375,236215.578125,236659.65625,162786.0,1.0,2
244472.3125,260058.265625,253203.171875,264531.3125,231499.4375,261879.9375,236234.171875,236688.890625,162787.0,1.0,2
244504.671875,260075.4375,253215.5,264540.0625,231503.46875,261886.90625,236229.421875,236701.3125,162788.0,1.0,2
244518.796875,260067.125,253209.15625,264534.34375,231471.90625,261868.046875,236205.46875,236679.421875,162789.0,1.0,2
244492.78125,260038.6875,253191.0,264519.9375,231446.421875,261842.46875,236197.25,236649.90625,162790.0,1.0,2
244465.875,260037.078125,253190.828125,264521.8125,231472.171875,261859.375,236220.484375,236663.046875,162791.0,1.0,2
244475.875,260061.578125,253205.3125,264533.625,231508.109375,261888.078125,236239.0,236693.09375,162792.0,1.0,2
244504.765625,260074.09375,253214.15625,264536.75,231502.65625,261889.40625,236227.90625,236697.203125,162793.0,1.0,2
244518.625,260067.5625,253210.3125,264532.5625,231470.296875,261870.28125,236206.625,236678.4375,162794.0,1.0,2
244491.703125,260040.125,253192.96875,264521.5625,231445.890625,261845.25,236200.90625,236653.125,162795.0,1.0,2
244459.96875,260030.90625,253187.875,264519.3125,231462.875,261854.453125,236218.25,236658.671875,162796.0,1.0,2
244467.75,260058.171875,253201.5625,264528.25,231500.421875,261884.140625,236235.78125,236687.640625,162797.0,1.0,2
244500.734375,260078.734375,253212.28125,264533.28125,231503.015625,261891.640625,236229.25,236698.71875,162798.0,1.0,2
244519.0625,260066.9375,253211.125,264533.0,231470.75,261873.859375,236208.59375,236677.984375,162799.0,1.0,2
244493.234375,260034.21875,253194.765625,264523.53125,231443.46875,261849.359375,236200.734375,236648.5625,162800.0,1.0,2
244467.390625,260025.28125,253193.234375,264521.1875,231461.359375,261860.171875,236218.34375,236651.78125,162801.0,1.0,2
244469.0,260041.8125,253202.625,264526.84375,231487.375,261882.265625,236231.03125,236674.671875,162802.0,1.0,2
244502.96875,260065.0625,253215.421875,264535.15625,231489.34375,261890.578125,236224.6875,236687.46875,162803.0,1.0,2
244513.34375,260062.375,253208.359375,264529.78125,231457.78125,261868.9375,236199.921875,236666.8125,162804.0,1.0,2
244486.703125,260030.640625,253192.796875,264522.1875,231433.546875,261846.140625,236192.5,236639.546875,162805.0,1.0,2
244463.546875,260027.25,253192.96875,264525.5625,231457.328125,261858.828125,236216.640625,236653.125,162806.0,1.0,2
244469.625,260050.578125,253206.46875,264532.625,231493.984375,261882.96875,236233.625,236684.15625,162807.0,1.0,2
244502.078125,260078.109375,253220.953125,264540.78125,231502.65625,261892.90625,236229.15625,236698.71875,162808.0,1.0,2
244516.828125,260073.46875,253217.65625,264538.8125,231476.734375,261878.328125,236211.015625,236683.96875,162809.0,1.0,2
244490.28125,260035.640625,253197.265625,264525.03125,231446.421875,261849.0,236199.296875,236652.5,162810.0,1.0,2
244460.421875,260025.09375,253188.953125,264520.21875,231461.796875,261855.4375,236213.78125,236654.65625,162811.0,1.0,2
244467.484375,260048.34375,253203.796875,264529.59375,231498.375,261881.90625,236232.109375,236685.046875,162812.0,1.0,2
244501.625,260067.390625,253217.375,264540.15625,231503.375,261890.390625,236226.390625,236698.1875,162813.0,1.0,2
244518.265625,260062.5625,253213.0,264536.3125,231472.078125,261869.75,236204.390625,236679.59375,162814.0,1.0,2
244491.265625,260029.03125,253193.0625,264524.25,231442.40625,261838.546875,236192.765625,236647.234375,162815.0,1.0,2
244463.640625,260025.984375,253189.75,264522.4375,231461.171875,261851.328125,236212.171875,236653.046875,162816.0,1.0,2
244467.296875,260049.953125,253198.78125,264528.15625,231495.328125,261879.671875,236230.5,236681.828125,162817.0,1.0,2
244497.78125,260066.765625,253210.234375,264534.59375,231499.4375,261884.671875,236224.421875,236691.484375,162818.0,1.0,2
244519.515625,260066.140625,253210.140625,264536.75,231475.921875,261869.109375,236207.875,236679.140625,162819.0,1.0,2
244493.140625,260040.921875,253193.0625,264522.96875,231450.890625,261842.03125,236195.984375,236651.609375,162820.0,1.0,2
244462.734375,260030.015625,253187.25,264519.125,231468.0625,261849.984375,236211.09375,236658.3125,162821.0,1.0,2
244470.421875,260051.296875,253203.53125,264532.8125,231506.0625,261881.359375,236234.53125,236693.453125,162822.0,1.0,2
244498.765625,260060.59375,253213.359375,264538.09375,231501.765625,261883.421875,236222.09375,236697.75,162823.0,1.0,2
244516.828125,260057.90625,253209.6875,264535.6875,231467.078125,261864.5625,236196.796875,236673.78125,162824.0,1.0,2
244491.703125,260023.578125,253190.015625,264519.21875,231436.328125,261836.75,236184.71875,236640.703125,162825.0,1.0,2
244460.0625,260008.28125,253184.296875,264514.5,231450.890625,261843.1875,236201.53125,236642.3125,162826.0,1.0,2
244465.953125,260036.09375,253197.265625,264523.78125,231488.625,261871.4375,236221.5625,236674.671875,162827.0,1.0,2
244499.484375,260058.984375,253210.765625,264532.375,231495.328125,261883.875,236217.09375,236690.328125,162828.0,1.0,2
244516.296875,260052.359375,253208.53125,264531.03125,231464.84375,261866.34375,236196.34375,236674.859375,162829.0,1.0,2
244494.84375,260026.171875,253190.65625,264521.8125,231439.453125,261841.125,236187.234375,236649.015625,162830.0,1.0,2
244477.578125,260036.09375,253196.640625,264529.59375,231471.90625,261862.59375,236218.96875,236666.890625,162831.0,1.0,2
244486.96875,260068.8125,253213.890625,264540.6875,231517.0625,261899.421875,236248.5625,236703.46875,162832.0,1.0,2
244523.625,260096.265625,253232.484375,264553.84375,231532.4375,261916.234375,236252.859375,236724.03125,162833.0,1.0,2
244543.828125,260094.203125,253232.3125,264553.5625,231507.40625,261903.265625,236233.625,236705.703125,162834.0,1.0,2
244518.34375,260062.46875,253212.90625,264539.875,231474.9375,261875.828125,236220.578125,236671.1875,162835.0,1.0,2
244481.6875,260043.609375,253201.28125,264530.9375,231483.171875,261879.125,236234.34375,236669.046875,162836.0,1.0,2
244479.28125,260054.875,253209.78125,264533.53125,231510.703125,261902.640625,236250.265625,236692.109375,162837.0,1.0,2
244503.59375,260066.671875,253214.703125,264532.5625,231500.25,261898.890625,236234.171875,236689.875,162838.0,1.0,2
244514.59375,260055.5,253204.6875,264525.21875,231459.390625,261870.28125,236205.46875,236662.15625,162839.0,1.0,2
244487.0625,260022.5,253182.15625,264510.90625,231430.6875,261836.578125,236191.25,236633.375,162840.0,1.0,2
244457.28125,260011.0625,253176.703125,264507.15625,231453.125,261845.6875,236209.140625,236642.046875,162841.0,1.0,2
244461.3125,260035.734375,253189.21875,264514.40625,231489.609375,261874.921875,236226.03125,236670.203125,162842.0,1.0,2
244491.34375,260059.96875,253201.28125,264522.28125,231496.046875,261885.03125,236219.59375,236683.4375,162843.0,1.0,2
244511.015625,260054.421875,253200.578125,264521.8125,231470.296875,261870.28125,236200.109375,236670.5625,162844.0,1.0,2
244488.84375,260028.234375,253183.859375,264509.75,231444.1875,261843.8125,236191.515625,236644.640625,162845.0,1.0,2
244462.203125,260024.65625,253179.828125,264507.34375,231458.140625,261853.203125,236208.234375,236643.5625,162846.0,1.0,2
244466.859375,260046.015625,253193.328125,264517.1875,231494.703125,261881.984375,236228.71875,236670.03125,162847.0,1.0,2
244497.875,260066.140625,253206.203125,264524.25,231498.453125,261889.859375,236223.171875,236681.375,162848.0,1.0,2
244512.265625,260059.25,253201.46875,264521.03125,231466.546875,261868.3125,236199.203125,236660.734375,162849.0,1.0,2
244483.484375,260024.203125,253178.484375,264504.375,231430.6875,261831.46875,236183.5625,236625.59375,162850.0,1.0,2
244458.984375,260018.84375,253178.765625,264505.71875,231448.03125,261843.375,236206.453125,236632.390625,162851.0,1.0,2
244461.75,260037.875,253191.453125,264513.5,231483.703125,261871.984375,236225.765625,236661.984375,162852.0,1.0,2
244495.734375,260059.703125,253207.1875,264526.28125,231492.109375,261888.25,236224.515625,236676.28125,162853.0,1.0,2
244516.828125,260059.34375,253206.46875,264526.28125,231461.71875,261872.875,236199.65625,236656.4375,162854.0,1.0,2
244489.109375,260023.75,253185.015625,264512.78125,231425.859375,261839.609375,236177.578125,236623.625,162855.0,1.0,2
244454.6875,260006.953125,253176.515625,264506.0,231440.078125,261844.984375,236190.8125,236627.921875,162856.0,1.0,2
244461.046875,260035.203125,253192.890625,264518.4375,231481.296875,261877.15625,236216.203125,236661.09375,162857.0,1.0,2
244500.921875,260075.4375,253215.953125,264535.84375,231502.921875,261893.875,236222.640625,236690.140625,162858.0,1.0,2
244513.4375,260072.125,253210.859375,264528.25,231474.59375,261874.65625,236198.765625,236676.28125,162859.0,1.0,2
244488.578125,260038.6875,253190.921875,264511.71875,231443.5625,261846.9375,236185.625,236645.53125,162860.0,1.0,2
244459.4375,260026.265625,253182.953125,264507.59375,231456.96875,261851.234375,236202.875,236644.09375,162861.0,1.0,2
244460.6875,260043.96875,253191.453125,264513.15625,231491.21875,261875.203125,236220.84375,236670.46875,162862.0,1.0,2
244497.96875,260067.65625,253208.984375,264524.25,231499.171875,261888.34375,236220.484375,236688.984375,162863.0,1.0,2
244517.71875,260065.328125,253208.625,264523.6875,231471.453125,261870.640625,236200.375,236675.5625,162864.0,1.0,2
244494.84375,260033.59375,253190.828125,264513.6875,231440.4375,261841.765625,236190.09375,236647.40625,162865.0,1.0,2
244463.8125,260023.125,253183.3125,264510.28125,231453.125,261848.640625,236204.3125,236647.859375,162866.0,1.0,2
244466.3125,260046.28125,253194.21875,264515.75,231490.953125,261878.0625,236224.6875,236678.703125,162867.0,1.0,2
244501.09375,260072.390625,253209.421875,264526.65625,231501.59375,261889.6875,236223.796875,236695.6875,162868.0,1.0,2
244521.21875,260066.765625,253209.609375,264527.53125,231474.140625,261871.796875,236204.390625,236679.421875,162869.0,1.0,2
244495.28125,260029.203125,253189.671875,264513.96875,231442.046875,261841.3125,236190.984375,236646.609375,162870.0,1.0,2
244465.0625,260021.703125,253183.234375,264509.03125,231457.15625,261847.03125,236207.25,236645.625,162871.0,1.0,2
244468.28125,260048.609375,253197.09375,264517.8125,231497.125,261878.953125,236230.765625,236674.671875,162872.0,1.0,2
244498.6875,260068.453125,253206.75,264524.40625,231500.875,261886.015625,236223.625,236687.015625,162873.0,1.0,2
244513.609375,260062.203125,253200.84375,264519.3125,231465.640625,261865.359375,236197.6875,236667.53125,162874.0,1.0,2
244490.015625,260030.28125,253183.671875,264507.34375,231434.890625,261835.953125,236184.8125,236639.453125,162875.0,1.0,2
244466.578125,260029.203125,253183.5,264506.4375,231452.859375,261845.78125,236206.546875,236648.75,162876.0,1.0,2
244466.3125,260049.859375,253194.765625,264511.90625,231484.328125,261872.515625,236227.1875,236674.40625,162877.0,1.0,2
244495.46875,260069.171875,253207.453125,264519.5,231489.34375,261879.671875,236222.8125,236685.140625,162878.0,1.0,2
244516.203125,260068.375,253206.75,264518.59375,231465.828125,261865.984375,236204.03125,236673.421875,162879.0,1.0,2
244492.875,260040.125,253185.828125,264506.0,231436.59375,261837.828125,236191.609375,236646.25,162880.0,1.0,2
244464.078125,260033.6875,253180.8125,264503.03125,231451.515625,261844.625,236210.203125,236649.375,162881.0,1.0,2
244462.734375,260055.3125,253193.15625,264508.15625,231485.140625,261871.984375,236229.421875,236674.234375,162882.0,1.0,2
244492.6875,260079.09375,253206.03125,264515.125,231491.03125,261880.65625,236227.28125,236689.421875,162883.0,1.0,2
244510.65625,260076.328125,253202.0,264512.4375,231459.484375,261862.59375,236205.46875,236671.640625,162884.0,1.0,2
244486.515625,260040.46875,253184.65625,264502.0625,231430.234375,261835.765625,236193.484375,236641.234375,162885.0,1.0,2
244455.234375,260025.984375,253175.1875,264494.65625,231441.234375,261837.46875,236203.234375,236638.375,162886.0,1.0,2
244462.5625,260056.5625,253190.828125,264503.5,231480.75,261868.40625,236227.546875,236668.6875,162887.0,1.0,2
244491.265625,260077.765625,253203.34375,264512.34375,231487.109375,261876.71875,236222.984375,236683.609375,162888.0,1.0,2
244507.890625,260071.765625,253198.15625,264508.78125,231455.8125,261858.203125,236196.078125,236667.875,162889.0,1.0,2
244482.40625,260039.671875,253178.125,264493.125,231423.171875,261826.640625,236179.453125,236638.015625,162890.0,1.0,2
244454.15625,260032.703125,253175.0,264490.71875,231440.25,261837.46875,236203.328125,236647.140625,162891.0,1.0,2
244455.5,260054.0625,253187.078125,264498.75,231475.75,261867.328125,236226.921875,236678.703125,162892.0,1.0,2
244490.90625,260083.21875,253203.796875,264510.8125,231486.65625,261880.203125,236225.40625,236698.09375,162893.0,1.0,2
244512.09375,260091.53125,253204.859375,264510.46875,231465.5625,261867.78125,236205.296875,236688.359375,162894.0,1.0,2
244486.171875,260063.359375,253183.140625,264495.71875,231435.421875,261838.625,236191.15625,236657.0625,162895.0,1.0,2
244452.71875,260047.71875,253174.015625,264490.96875,231447.3125,261842.5625,236206.625,236657.15625,162896.0,1.0,2
244457.90625,260078.03125,253188.5,264501.4375,231483.4375,261874.484375,236233.0,236688.09375,162897.0,1.0,2
244487.6875,260102.4375,253200.65625,264508.84375,231488.359375,261882.609375,236229.25,236699.890625,162898.0,1.0,2
244507.890625,260097.25,253198.96875,264507.875,231458.40625,261864.375,236203.140625,236679.59375,162899.0,1.0,2
244484.640625,260060.5,253178.3125,264494.5625,231421.75,261832.734375,236185.53125,236640.703125,162900.0,1.0,2
244455.59375,260053.265625,253174.109375,264493.65625,231434.625,261842.46875,236205.734375,236643.65625,162901.0,1.0,2
244455.5,260075.34375,253186.359375,264501.34375,231471.28125,261873.3125,236227.8125,236677.09375,162902.0,1.0,2
244484.828125,260096.171875,253199.328125,264509.21875,231482.546875,261884.9375,236224.875,236695.15625,162903.0,1.0,2
244507.0,260095.90625,253202.09375,264509.5625,231457.0625,261871.625,236204.390625,236681.5625,162904.0,1.0,2
244487.0625,260066.671875,253189.3125,264503.3125,231431.3125,261850.15625,236198.40625,236658.140625,162905.0,1.0,2
244455.046875,260054.328125,253181.078125,264499.75,231448.84375,261857.3125,236219.0625,236665.46875,162906.0,1.0,2
244456.484375,260075.875,253188.765625,264505.28125,231488.171875,261884.671875,236238.375,236693.90625,162907.0,1.0,2
244489.109375,260099.9375,253203.53125,264516.28125,231500.0625,261894.59375,236236.765625,236711.59375,162908.0,1.0,2
244513.4375,260107.171875,253204.859375,264516.46875,231479.6875,261882.34375,236219.234375,236702.390625,162909.0,1.0,2
244492.421875,260077.671875,253185.828125,264503.21875,231448.5625,261854.09375,236206.1875,236672.0,162910.0,1.0,2
244459.703125,260061.046875,253178.3125,264500.0,231457.953125,261858.828125,236221.03125,236669.578125,162911.0,1.0,2
244458.984375,260088.21875,253190.46875,264507.78125,231496.671875,261888.515625,236241.046875,236697.390625,162912.0,1.0,2
244487.765625,260107.796875,253204.0625,264513.6875,231506.59375,261897.28125,236236.765625,236711.6875,162913.0,1.0,2
244509.234375,260106.015625,253204.859375,264512.96875,231480.40625,261879.3125,236213.0625,236697.5625,162914.0,1.0,2
244484.015625,260073.28125,253181.890625,264497.25,231441.6875,261842.5625,236196.171875,236662.421875,162915.0,1.0,2
244452.90625,260054.6875,253173.125,264494.1875,231446.875,261842.109375,236212.0,236659.65625,162916.0,1.0,2
244451.296875,260074.984375,253180.71875,264498.03125,231480.046875,261865.890625,236228.625,236685.21875,162917.0,1.0,2
244482.859375,260105.828125,253197.71875,264509.9375,231490.234375,261878.421875,236226.296875,236702.21875,162918.0,1.0,2
244507.359375,260111.734375,253201.203125,264510.75,231465.28125,261866.96875,236207.796875,236688.53125,162919.0,1.0,2
244481.609375,260077.671875,253176.34375,264491.875,231428.984375,261833.53125,236191.703125,236654.296875,162920.0,1.0,2
244447.359375,260059.078125,253165.34375,264486.0625,231438.28125,261831.296875,236203.765625,236651.078125,162921.0,1.0,2
244447.265625,260078.828125,253180.71875,264495.28125,231475.125,261858.125,236228.453125,236678.609375,162922.0,1.0,2
244477.671875,260100.203125,253194.40625,264503.84375,231483.796875,261869.65625,236228.265625,236692.640625,162923.0,1.0,2
244496.890625,260096.71875,253190.375,264501.15625,231455.09375,261854.1875,236205.203125,236676.203125,162924.0,1.0,2
244474.359375,260062.46875,253170.53125,264486.25,231421.125,261823.34375,236189.203125,236642.671875,162925.0,1.0,2
244440.921875,260040.125,253162.3125,264480.0625,231430.6875,261826.734375,236205.109375,236640.4375,162926.0,1.0,2
244441.453125,260059.34375,253175.984375,264491.59375,231470.203125,261859.015625,236229.421875,236671.28125,162927.0,1.0,2
244473.921875,260086.703125,253190.828125,264501.625,231483.4375,261873.3125,236229.34375,236691.03125,162928.0,1.0,2
244494.65625,260088.046875,253191.09375,264500.1875,231456.796875,261859.734375,236206.453125,236677.171875,162929.0,1.0,2
244473.46875,260059.078125,253172.765625,264488.03125,231422.015625,261829.0625,236188.5625,236644.453125,162930.0,1.0,2
244444.953125,260043.609375,253165.890625,264485.78125,231430.59375,261831.296875,236202.421875,236639.890625,162931.0,1.0,2
244448.875,260062.921875,253181.4375,264495.1875,231470.296875,261864.921875,236228.09375,236673.515625,162932.0,1.0,2
244481.15625,260090.984375,253197.359375,264504.3125,231482.28125,261878.0625,236227.546875,236693.0,162933.0,1.0,2
244503.0625,260094.828125,253195.5625,264503.6875,231455.359375,261860.265625,236202.25,236681.734375,162934.0,1.0,2
244483.75,260070.875,253177.328125,264493.65625,231425.234375,261829.15625,236186.515625,236655.90625,162935.0,1.0,2
244454.328125,260059.515625,253171.34375,264493.84375,231439.625,261832.546875,236203.859375,236662.15625,162936.0,1.0,2
244452.71875,260078.65625,253182.0625,264500.625,231477.625,261861.34375,236229.78125,236695.515625,162937.0,1.0,2
244479.453125,260101.546875,253191.28125,264501.96875,231485.765625,261868.484375,236223.796875,236710.265625,162938.0,1.0,2
244501.453125,260104.40625,253190.921875,264504.125,231461.890625,261855.890625,236202.703125,236700.15625,162939.0,1.0,2
244480.703125,260071.140625,253173.21875,264494.8125,231429.171875,261828.171875,236188.21875,236669.671875,162940.0,1.0,2
244447.71875,260052.453125,253164.28125,264488.84375,231434.796875,261827.984375,236202.078125,236662.703125,162941.0,1.0,2
244446.828125,260077.671875,253174.28125,264492.9375,231471.453125,261856.875,236223.171875,236689.25,162942.0,1.0,2
244476.953125,260103.59375,253190.203125,264503.84375,231487.015625,261874.484375,236227.375,236710.171875,162943.0,1.0,2
244500.203125,260103.0625,253192.703125,264501.96875,231462.96875,261863.03125,236205.5625,236696.578125,162944.0,1.0,2
244479.375,260071.859375,253174.015625,264486.3125,231428.0,261831.125,236186.328125,236662.34375,162945.0,1.0,2
244447.453125,260057.640625,253164.90625,264481.21875,231435.25,261830.578125,236200.546875,236658.671875,162946.0,1.0,2
244443.875,260071.234375,253175.625,264490.96875,231473.78125,261860.984375,236224.953125,236688.53125,162947.0,1.0,2
244470.703125,260089.46875,253185.90625,264497.5,231482.1875,261869.75,236220.21875,236702.84375,162948.0,1.0,2
244497.15625,260095.28125,253187.078125,264497.3125,231461.09375,261859.375,236199.296875,236693.359375,162949.0,1.0,2
244479.734375,260063.71875,253173.578125,264488.90625,231432.390625,261833.4375,236185.984375,236665.203125,162950.0,1.0,2
244446.640625,260040.921875,253164.8125,264485.0,231440.796875,261832.90625,236196.890625,236660.734375,162951.0,1.0,2
244444.40625,260058.984375,253175.1875,264493.21875,231477.0,261862.671875,236218.078125,236687.1875,162952.0,1.0,2
244473.203125,260083.390625,253188.234375,264499.75,231486.828125,261872.0625,236211.453125,236703.734375,162953.0,1.0,2
244494.921875,260085.453125,253186.890625,264498.75,231459.5625,261861.34375,236190.265625,236690.5,162954.0,1.0,2
244472.75,260053.0,253167.21875,264487.40625,231425.59375,261829.59375,236172.65625,236658.765625,162955.0,1.0,2
244441.453125,260033.765625,253160.703125,264481.59375,231431.84375,261830.3125,236189.109375,236654.921875,162956.0,1.0,2
244439.765625,260056.21875,253172.234375,264487.59375,231467.609375,261859.90625,236214.140625,236683.4375,162957.0,1.0,2
244469.796875,260081.515625,253187.875,264497.875,231480.75,261874.21875,236215.484375,236701.046875,162958.0,1.0,2
244493.40625,260080.796875,253191.71875,264499.46875,231455.71875,261862.234375,236197.6875,236686.921875,162959.0,1.0,2
244473.828125,260050.3125,253170.0,264486.9375,231419.609375,261827.359375,236181.15625,236653.046875,162960.0,1.0,2
244442.265625,260035.203125,253160.25,264483.1875,231427.109375,261825.125,236196.609375,236650.09375,162961.0,1.0,2
244438.875,260050.75,253170.890625,264490.71875,231462.421875,261853.921875,236216.28125,236677.171875,162962.0,1.0,2
244471.765625,260078.65625,253187.875,264501.53125,231476.109375,261870.546875,236218.4375,236695.953125,162963.0,1.0,2
244500.203125,260093.3125,253192.890625,264504.125,231458.84375,261862.671875,236203.046875,236690.765625,162964.0,1.0,2
244480.265625,260064.34375,253175.265625,264493.5625,231427.203125,261831.75,236187.59375,236660.453125,162965.0,1.0,2
244447.1875,260042.359375,253163.734375,264487.21875,231432.203125,261829.421875,236200.8125,236653.84375,162966.0,1.0,2
244445.75,260059.703125,253177.15625,264495.4375,231472.171875,261859.1875,236224.59375,236683.796875,162967.0,1.0,2
244476.59375,260081.78125,253194.140625,264505.375,231484.875,261872.328125,236222.09375,236700.421875,162968.0,1.0,2
244505.5625,260087.140625,253198.96875,264508.78125,231463.140625,261864.203125,236201.0,236691.125,162969.0,1.0,2
244491.078125,260061.9375,253182.78125,264499.5625,231432.5625,261837.90625,236185.625,236660.734375,162970.0,1.0,2
244453.984375,260038.0625,253168.125,264489.0,231431.578125,261833.984375,236192.328125,236645.625,162971.0,1.0,2
244447.09375,260042.984375,253175.0,264492.0625,231457.875,261855.4375,236208.859375,236663.953125,162972.0,1.0,2
244478.828125,260064.53125,253190.46875,264503.03125,231469.21875,261869.5625,236210.03125,236681.65625,162973.0,1.0,2
244506.015625,260069.078125,253195.75,264507.6875,231443.203125,261855.34375,236188.03125,236668.953125,162974.0,1.0,2
244487.0625,260035.640625,253178.9375,264498.84375,231407.0,261822.171875,236169.890625,236636.953125,162975.0,1.0,2
244452.09375,260013.390625,253165.890625,264490.34375,231408.421875,261818.953125,236183.828125,236631.140625,162976.0,1.0,2
244447.546875,260033.765625,253174.46875,264494.46875,231446.421875,261846.765625,236204.390625,236659.390625,162977.0,1.0,2
244478.75,260065.859375,253189.125,264503.59375,231461.984375,261861.78125,236204.84375,236678.078125,162978.0,1.0,2
244507.171875,260075.96875,253194.671875,264506.96875,231443.734375,261856.15625,236190.53125,236671.375,162979.0,1.0,2
244487.765625,260046.90625,253175.625,264496.0625,231412.09375,261821.734375,236171.40625,236638.90625,162980.0,1.0,2
244450.140625,260022.328125,253161.234375,264489.0,231416.65625,261814.125,236178.921875,236629.078125,162981.0,1.0,2
244447.8125,260043.609375,253173.125,264500.0,231458.84375,261846.046875,236207.609375,236661.09375,162982.0,1.0,2
244477.9375,260077.578125,253189.578125,264509.9375,231476.46875,261865.8125,236212.078125,236684.421875,162983.0,1.0,2
244501.984375,260084.546875,253189.390625,264508.59375,231453.578125,261857.21875,236192.5,236674.046875,162984.0,1.0,2
244482.671875,260050.40625,253169.109375,264494.71875,231418.53125,261824.59375,236173.8125,236643.203125,162985.0,1.0,2
244447.8125,260024.828125,253156.140625,264487.03125,231421.84375,261819.3125,236184.8125,236636.5,162986.0,1.0,2
244447.265625,260049.234375,253168.75,264496.59375,231462.96875,261849.0,236210.390625,236669.9375,162987.0,1.0,2
244469.0,260069.984375,253177.59375,264497.59375,231472.078125,261859.28125,236208.15625,236683.53125,162988.0,1.0,2
244494.921875,260074.71875,253183.3125,264499.28125,231450.53125,261850.78125,236190.0,236675.390625,162989.0,1.0,2
244479.28125,260043.875,253169.015625,264488.46875,231418.4375,261823.25,236174.4375,236646.953125,162990.0,1.0,2
244447.984375,260018.296875,253158.46875,264484.625,231423.71875,261822.625,236187.765625,236640.875,162991.0,1.0,2
244447.8125,260036.546875,253172.234375,264496.34375,231464.65625,261855.96875,236214.671875,236666.265625,162992.0,1.0,2
244477.84375,260061.9375,253187.78125,264506.09375,231479.765625,261871.265625,236216.28125,236685.140625,162993.0,1.0,2
244504.40625,260070.25,253191.984375,264508.40625,231462.78125,261863.65625,236200.015625,236681.109375,162994.0,1.0,2
244485.0,260038.0625,253170.890625,264493.65625,231427.203125,261828.609375,236179.09375,236648.296875,162995.0,1.0,2
244448.25,260014.546875,253155.6875,264486.15625,231428.09375,261821.734375,236185.890625,236637.125,162996.0,1.0,2
244442.71875,260026.703125,253166.234375,264493.65625,231465.46875,261850.515625,236208.953125,236663.671875,162997.0,1.0,2
244476.78125,260057.546875,253185.1875,264506.25,231482.359375,261867.78125,236214.671875,236684.59375,162998.0,1.0,2
244504.21875,260068.109375,253188.859375,264507.6875,231460.28125,261855.265625,236192.234375,236676.375,162999.0,1.0,2
244484.828125,260039.140625,253167.84375,264493.21875,231424.96875,261819.046875,236169.53125,236644.015625,163000.0,1.0,2
244449.234375,260015.984375,253154.4375,264484.53125,231427.921875,261815.03125,236180.53125,236634.078125,163001.0,1.0,2
244450.40625,260041.90625,253169.1875,264494.28125,231469.84375,261846.9375,236211.015625,236665.921875,163002.0,1.0,2
244477.484375,260069.53125,253180.28125,264499.28125,231480.578125,261857.140625,236212.265625,236682.0,163003.0,1.0,2
244501.1875,260068.734375,253181.890625,264500.09375,231454.109375,261843.375,236188.65625,236669.9375,163004.0,1.0,2
244487.5,260038.78125,253167.3125,264489.8125,231417.90625,261813.0625,236169.4375,236638.28125,163005.0,1.0,2
244457.28125,260026.703125,253159.09375,264486.15625,231423.0,261811.890625,236185.703125,236634.265625,163006.0,1.0,2
244452.28125,260048.34375,253170.71875,264492.6875,231460.640625,261842.65625,236214.046875,236665.921875,163007.0,1.0,2
244481.0625,260067.828125,253185.28125,264503.5,231477.0,261859.453125,236218.078125,236686.296875,163008.0,1.0,2
244505.46875,260066.578125,253184.65625,264502.96875,231451.515625,261846.40625,236191.703125,236671.09375,163009.0,1.0,2
244488.40625,260042.796875,253166.953125,264490.53125,231415.578125,261815.65625,236170.6875,236639.09375,163010.0,1.0,2
244451.390625,260019.109375,253155.0625,264484.09375,231417.640625,261808.953125,236180.96875,236631.765625,163011.0,1.0,2
244442.359375,260027.421875,253161.765625,264488.125,231450.359375,261831.828125,236199.296875,236654.296875,163012.0,1.0,2
244474.09375,260057.1875,253180.71875,264500.375,231469.578125,261852.484375,236206.1875,236676.015625,163013.0,1.0,2
244500.46875,260061.21875,253184.484375,264501.4375,231449.90625,261844.53125,236187.234375,236665.734375,163014.0,1.0,2
244484.828125,260028.140625,253166.234375,264489.375,231413.96875,261813.140625,236167.296875,236634.53125,163015.0,1.0,2
244454.421875,260009.265625,253154.078125,264483.28125,231416.390625,261809.484375,236176.953125,236627.5625,163016.0,1.0,2
244448.875,260027.328125,253165.96875,264489.46875,231454.375,261840.0625,236202.875,236654.921875,163017.0,1.0,2
244477.40625,260049.859375,253182.953125,264500.46875,231471.640625,261857.5,236206.625,236677.359375,163018.0,1.0,2
244509.953125,260061.484375,253189.3125,264505.1875,231455.984375,261849.984375,236191.4375,236675.84375,163019.0,1.0,2
244497.078125,260038.59375,253173.65625,264494.03125,231423.53125,261820.390625,236175.515625,236646.25,163020.0,1.0,2
244459.34375,260012.765625,253159.09375,264485.78125,231420.765625,261813.421875,236180.078125,236633.375,163021.0,1.0,2
244449.5,260029.390625,253164.1875,264488.65625,231451.703125,261837.28125,236197.421875,236656.078125,163022.0,1.0,2
244478.390625,260064.609375,253180.640625,264499.90625,231470.03125,261857.046875,236207.875,236681.203125,163023.0,1.0,2
244505.5625,260073.5625,253184.84375,264502.6875,231452.6875,261849.625,236191.078125,236677.984375,163024.0,1.0,2
244493.578125,260045.65625,253170.53125,264494.65625,231420.578125,261821.46875,236172.203125,236649.546875,163025.0,1.0,2
244459.4375,260023.3125,253158.46875,264487.40625,231420.40625,261814.40625,236179.546875,236639.09375,163026.0,1.0,2
244451.109375,260035.640625,253165.96875,264492.0625,231456.171875,261842.921875,236202.15625,236664.578125,163027.0,1.0,2
244475.4375,260061.75,253180.28125,264501.25,231475.125,261860.171875,236208.0625,236688.09375,163028.0,1.0,2
244501.09375,260065.234375,253185.015625,264504.03125,231454.109375,261850.703125,236188.84375,236681.921875,163029.0,1.0,2
244488.671875,260043.609375,253168.46875,264491.6875,231417.359375,261820.125,236168.8125,236650.53125,163030.0,1.0,2
244456.578125,260021.703125,253157.921875,264486.875,231417.8125,261815.65625,236180.53125,236639.0,163031.0,1.0,2
244448.53125,260029.65625,253168.03125,264494.28125,231453.484375,261844.53125,236204.9375,236663.5,163032.0,1.0,2
244476.234375,260054.15625,253182.0625,264501.34375,231470.828125,261860.359375,236205.921875,236684.78125,163033.0,1.0,2
244504.578125,260059.25,253185.640625,264502.15625,231449.375,261849.625,236183.921875,236675.75,163034.0,1.0,2
244489.46875,260026.171875,253165.53125,264489.625,231412.453125,261819.234375,236162.546875,236645.703125,163035.0,1.0,2
244458.625,260000.328125,253154.4375,264485.625,231410.921875,261812.515625,236172.5625,236634.4375,163036.0,1.0,2
244453.078125,260020.890625,253165.53125,264494.28125,231449.90625,261842.296875,236200.8125,236661.09375,163037.0,1.0,2
244473.828125,260044.3125,253175.625,264498.5,231463.140625,261854.90625,236198.859375,236675.75,163038.0,1.0,2
244498.6875,260046.015625,253178.484375,264497.78125,231439.1875,261845.15625,236177.03125,236662.421875,163039.0,1.0,2
244489.109375,260025.71875,253166.234375,264492.5,231407.359375,261816.453125,236161.484375,236633.453125,163040.0,1.0,2
244454.6875,260003.90625,253153.453125,264484.53125,231408.15625,261809.921875,236171.84375,236626.3125,163041.0,1.0,2
244447.625,260022.0625,253162.03125,264489.28125,231450.359375,261841.671875,236201.53125,236658.40625,163042.0,1.0,2
244474.546875,260045.84375,253177.15625,264499.65625,231471.453125,261859.28125,236207.796875,236683.078125,163043.0,1.0,2
244499.671875,260050.40625,253176.96875,264497.875,231449.546875,261848.015625,236188.03125,236673.6875,163044.0,1.0,2
244486.34375,260025.8125,253158.015625,264484.09375,231412.53125,261818.421875,236168.71875,236643.390625,163045.0,1.0,2
244448.96875,260003.546875,253143.703125,264473.71875,231410.65625,261811.1875,236180.171875,236633.8125,163046.0,1.0,2
244440.203125,260022.421875,253152.921875,264481.15625,231449.46875,261842.03125,236206.546875,236661.0,163047.0,1.0,2
244467.296875,260051.921875,253171.34375,264492.75,231470.46875,261862.40625,236212.625,236683.34375,163048.0,1.0,2
244497.15625,260060.59375,253178.3125,264498.03125,231455.1875,261857.21875,236196.890625,236678.875,163049.0,1.0,2
244483.125,260023.75,253162.9375,264488.21875,231417.09375,261825.484375,236178.015625,236645.34375,163050.0,1.0,2
244450.046875,259996.9375,253149.078125,264479.25,231411.640625,261815.828125,236185.796875,236629.796875,163051.0,1.0,2
244440.828125,260015.796875,253156.671875,264483.5625,231448.03125,261844.265625,236210.125,236653.671875,163052.0,1.0,2
244466.765625,260045.921875,253177.0625,264497.0625,231474.765625,261868.671875,236220.9375,236683.4375,163053.0,1.0,2
244494.84375,260055.578125,253180.71875,264499.28125,231458.671875,261861.515625,236201.984375,236677.625,163054.0,1.0,2
244483.484375,260033.765625,253165.609375,264488.5625,231425.59375,261831.46875,236182.40625,236646.515625,163055.0,1.0,2
244446.640625,260012.21875,253150.234375,264475.96875,231425.0625,261816.09375,236185.4375,236635.609375,163056.0,1.0,2
244437.609375,260030.28125,253159.71875,264480.34375,231463.859375,261847.296875,236213.34375,236662.34375,163057.0,1.0,2
244461.578125,260052.640625,253172.953125,264487.59375,231481.828125,261865.359375,236217.09375,236683.53125,163058.0,1.0,2
244487.234375,260055.234375,253174.46875,264488.84375,231460.640625,261857.3125,236194.828125,236676.203125,163059.0,1.0,2
244481.78125,260034.484375,253159.09375,264480.53125,231427.203125,261830.046875,236176.328125,236650.53125,163060.0,1.0,2
244453.53125,260015.265625,253147.46875,264475.78125,231428.09375,261821.734375,236185.078125,236642.046875,163061.0,1.0,2
244443.25,260026.703125,253155.875,264478.5625,231462.875,261847.65625,236209.21875,236667.25,163062.0,1.0,2
244467.5625,260048.609375,253172.046875,264486.78125,231478.078125,261863.75,236214.859375,236689.25,163063.0,1.0,2
244498.234375,260065.515625,253177.953125,264489.90625,231463.765625,261857.046875,236200.546875,236688.984375,163064.0,1.0,2
244487.234375,260041.8125,253160.78125,264480.59375,231432.203125,261827.71875,236182.3125,236660.640625,163065.0,1.0,2
244450.578125,260011.953125,253145.953125,264470.875,231427.734375,261818.421875,236187.765625,236645.703125,163066.0,1.0,2
244441.375,260029.5625,253155.953125,264478.28125,231467.875,261849.453125,236215.03125,236674.234375,163067.0,1.0,2
244466.578125,260052.8125,253171.609375,264488.125,231489.515625,261870.28125,236220.9375,236698.71875,163068.0,1.0,2
244494.75,260056.390625,253174.90625,264489.09375,231466.265625,261859.640625,236199.203125,236688.71875,163069.0,1.0,2
244483.296875,260031.265625,253158.109375,264479.4375,231430.328125,261828.078125,236180.34375,236657.515625,163070.0,1.0,2
244447.0,260007.9375,253141.125,264465.9375,231426.75,261817.078125,236185.796875,236645.171875,163071.0,1.0,2
244435.203125,260019.109375,253147.90625,264470.5,231460.015625,261842.03125,236206.1875,236668.78125,163072.0,1.0,2
244459.34375,260040.46875,253165.96875,264482.75,231482.09375,261862.953125,236213.6875,236693.1875,163073.0,1.0,2
244489.5625,260052.546875,253173.390625,264485.78125,231466.0,261859.109375,236196.34375,236687.90625,163074.0,1.0,2
244477.484375,260024.65625,253154.53125,264471.40625,231425.765625,261822.265625,236167.015625,236650.984375,163075.0,1.0,2
244442.265625,259994.609375,253138.96875,264463.96875,231418.265625,261808.59375,236168.984375,236631.3125,163076.0,1.0,2
244430.28125,260002.484375,253144.875,264469.53125,231451.4375,261833.984375,236195.09375,236658.046875,163077.0,1.0,2
244456.390625,260030.28125,253162.21875,264481.0625,231474.3125,261855.265625,236207.96875,236685.140625,163078.0,1.0,2
244484.28125,260041.8125,253167.140625,264481.5,231453.84375,261846.234375,236187.234375,236678.515625,163079.0,1.0,2
244474.265625,260016.328125,253152.828125,264471.3125,231416.65625,261814.75,236165.59375,236648.296875,163080.0,1.0,2
244439.765625,259991.21875,253138.96875,264463.96875,231412.8125,261804.390625,236171.046875,236632.5625,163081.0,1.0,2
244429.65625,260003.46875,253145.859375,264470.40625,231446.15625,261832.453125,236196.796875,236655.625,163082.0,1.0,2
244460.5,260039.140625,253165.53125,264483.5625,231473.25,261856.78125,236207.796875,236684.328125,163083.0,1.0,2
244493.671875,260053.078125,253172.328125,264486.9375,231456.703125,261851.859375,236191.96875,236679.140625,163084.0,1.0,2
244484.375,260028.234375,253156.671875,264475.5,231418.625,261822.625,236168.90625,236648.125,163085.0,1.0,2
244449.421875,259999.703125,253142.546875,264465.59375,231411.203125,261811.984375,236172.921875,236634.890625,163086.0,1.0,2
244440.296875,260012.21875,253154.171875,264474.25,231445.984375,261840.15625,236198.671875,236659.390625,163087.0,1.0,2
244464.703125,260037.875,253169.375,264483.375,231462.96875,261859.375,236204.578125,236676.640625,163088.0,1.0,2
244495.8125,260047.1875,253173.65625,264487.3125,231443.828125,261852.578125,236185.171875,236671.015625,163089.0,1.0,2
244486.703125,260024.109375,253161.0625,264479.71875,231411.109375,261823.515625,236165.0625,236644.71875,163090.0,1.0,2
244445.3125,259994.96875,253142.1875,264465.6875,231401.453125,261807.421875,236167.375,236627.296875,163091.0,1.0,2
244436.28125,260010.078125,253153.015625,264475.0625,231441.0625,261838.890625,236196.96875,236653.21875,163092.0,1.0,2
244457.375,260029.5625,253165.53125,264481.59375,231461.796875,261855.890625,236200.8125,236674.40625,163093.0,1.0,2
244489.203125,260040.828125,253172.234375,264484.71875,231443.03125,261847.84375,236182.046875,236665.203125,163094.0,1.0,2
244485.0,260015.4375,253161.40625,264479.875,231409.953125,261822.984375,236166.21875,236636.953125,163095.0,1.0,2
244450.484375,259994.515625,253147.828125,264471.75,231410.125,261812.34375,236175.15625,236628.453125,163096.0,1.0,2
244440.390625,260015.4375,253157.84375,264478.71875,231451.515625,261843.28125,236204.21875,236659.921875,163097.0,1.0,2
244468.109375,260048.609375,253175.453125,264491.6875,231478.96875,261867.59375,236216.640625,236688.265625,163098.0,1.0,2
244497.609375,260058.453125,253181.078125,264495.0,231463.140625,261863.65625,236202.609375,236685.40625,163099.0,1.0,2
244484.5625,260033.234375,253160.421875,264482.9375,231425.5,261831.828125,236179.546875,236654.828125,163100.0,1.0,2
244447.09375,260006.765625,253141.203125,264471.40625,231418.171875,261814.40625,236175.78125,236636.953125,163101.0,1.0,2
244433.953125,260017.9375,253148.1875,264474.4375,231451.703125,261837.015625,236198.140625,236657.0625,163102.0,1.0,2
244455.59375,260036.71875,253164.625,264483.5625,231472.265625,261855.078125,236205.734375,236677.53125,163103.0,1.0,2
244488.9375,260049.859375,253172.40625,264487.125,231457.328125,261849.984375,236188.921875,236675.5625,163104.0,1.0,2
244487.765625,260035.46875,253162.671875,264483.8125,231427.296875,261828.703125,236175.34375,236653.390625,163105.0,1.0,2
244450.3125,260009.625,253146.125,264473.625,231419.609375,261817.078125,236182.671875,236638.203125,163106.0,1.0,2
244437.4375,260024.03125,253153.359375,264478.09375,231455.984375,261843.28125,236209.140625,236662.15625,163107.0,1.0,2
244461.390625,260046.203125,253168.5625,264488.84375,231478.515625,261860.09375,236216.28125,236686.828125,163108.0,1.0,2
244490.71875,260054.421875,253172.953125,264489.90625,231461.09375,261851.953125,236194.375,236680.3125,163109.0,1.0,2
244483.484375,260033.40625,253159.796875,264479.8125,231426.21875,261823.078125,236172.484375,236650.359375,163110.0,1.0,2
244446.203125,259997.828125,253143.984375,264470.59375,231417.28125,261807.6875,236174.890625,236634.0,163111.0,1.0,2
244437.890625,260012.046875,253154.53125,264480.78125,231455.09375,261837.5625,236201.265625,236661.171875,163112.0,1.0,2
244461.75,260040.65625,253170.53125,264492.21875,231477.625,261858.75,236209.40625,236686.828125,163113.0,1.0,2
244490.640625,260053.078125,253174.734375,264492.75,231458.046875,261849.71875,236190.0,236681.375,163114.0,1.0,2
244485.265625,260027.515625,253160.96875,264482.9375,231421.65625,261820.390625,236166.9375,236650.796875,163115.0,1.0,2
244448.609375,259991.75,253142.28125,264472.03125,231410.84375,261805.375,236167.921875,236629.796875,163116.0,1.0,2
244441.109375,260005.703125,253152.921875,264479.34375,231450.984375,261837.375,236200.1875,236658.40625,163117.0,1.0,2
244465.0625,260039.84375,253168.921875,264487.40625,231476.28125,261859.734375,236212.0,236684.953125,163118.0,1.0,2
244491.265625,260048.25,253172.5,264488.46875,231459.125,261852.3125,236191.78125,236679.6875,163119.0,1.0,2
244488.125,260025.359375,253161.859375,264482.125,231425.328125,261826.015625,236172.203125,236649.46875,163120.0,1.0,2
244453.796875,260000.59375,253147.46875,264474.71875,231417.015625,261813.5,236174.71875,236630.328125,163121.0,1.0,2
244434.9375,260010.171875,253149.171875,264473.71875,231446.875,261834.96875,236195.1875,236649.109375,163122.0,1.0,2
244456.84375,260031.796875,253164.1875,264480.53125,231469.140625,261857.40625,236206.0,236672.53125,163123.0,1.0,2
244487.953125,260046.734375,253170.078125,264483.46875,231451.34375,261851.234375,236189.203125,236667.078125,163124.0,1.0,2
244482.59375,260024.46875,253155.6875,264475.5,231416.03125,261823.515625,236169.078125,236638.640625,163125.0,1.0,2
244447.8125,259989.609375,253137.625,264464.59375,231402.34375,261806.265625,236169.265625,236618.796875,163126.0,1.0,2
244435.375,260004.09375,253144.609375,264468.71875,231437.9375,261830.84375,236194.375,236643.65625,163127.0,1.0,2
244457.828125,260034.21875,253161.40625,264480.25,231465.109375,261854.71875,236206.09375,236670.828125,163128.0,1.0,2
244487.234375,260043.6875,253165.53125,264484.0,231447.9375,261847.75,236187.671875,236667.25,163129.0,1.0,2
244478.46875,260016.421875,253150.328125,264474.4375,231410.125,261819.5,236167.375,236640.25,163130.0,1.0,2
244446.28125,259995.59375,253138.25,264466.84375,231406.1875,261809.84375,236173.28125,236626.3125,163131.0,1.0,2
244436.546875,260016.25,253148.0,264472.65625,231446.515625,261838.453125,236203.6875,236651.25,163132.0,1.0,2
244463.0,260048.25,253166.6875,264484.71875,231475.84375,261857.140625,236212.890625,236682.1875,163133.0,1.0,2
244492.25,260050.046875,253172.328125,264487.40625,231457.0625,261850.78125,236192.5,236675.5625,163134.0,1.0,2
244487.59375,260028.578125,253158.640625,264478.1875,231419.609375,261825.125,236170.59375,236644.8125,163135.0,1.0,2
244450.3125,259999.890625,253141.65625,264467.71875,231408.96875,261809.921875,236173.90625,236628.453125,163136.0,1.0,2
244434.484375,260004.984375,253148.71875,264474.09375,231443.203125,261836.390625,236198.859375,236652.328125,163137.0,1.0,2
244460.953125,260036.984375,253168.03125,264490.8125,231471.015625,261860.171875,236211.28125,236682.09375,163138.0,1.0,2
244492.25,260048.796875,253173.75,264493.03125,231455.8125,261856.15625,236195.640625,236682.0,163139.0,1.0,2
244487.59375,260030.015625,253158.640625,264478.1875,231418.796875,261826.828125,236173.109375,236651.609375,163140.0,1.0,2
244450.578125,260004.171875,253141.75,264466.375,231408.421875,261813.0625,236176.328125,236632.828125,163141.0,1.0,2
244434.578125,260014.015625,253148.359375,264474.15625,231446.15625,261841.84375,236207.53125,236657.875,163142.0,1.0,2
244456.390625,260042.265625,253164.453125,264485.875,231473.15625,261864.203125,236220.3125,236683.53125,163143.0,1.0,2
244488.40625,260059.96875,253170.0,264488.03125,231461.171875,261860.890625,236203.5,236681.65625,163144.0,1.0,2
244482.765625,260037.34375,253155.0625,264476.40625,231425.40625,261830.5,236178.640625,236654.109375,163145.0,1.0,2
244448.078125,260010.078125,253140.765625,264468.34375,231418.890625,261815.921875,236182.046875,236640.4375,163146.0,1.0,2
244430.1875,260015.703125,253144.875,264469.96875,231449.109375,261839.609375,236204.578125,236659.5625,163147.0,1.0,2
244450.765625,260041.1875,253160.421875,264479.1875,231471.375,261860.359375,236213.6875,236682.984375,163148.0,1.0,2
244489.5625,260058.984375,253172.953125,264490.25,231463.40625,261858.75,236203.046875,236686.03125,163149.0,1.0,2
244484.828125,260037.53125,253158.46875,264480.875,231426.578125,261827.90625,236178.28125,236656.890625,163150.0,1.0,2
244449.6875,260002.65625,253143.53125,264473.09375,231416.921875,261814.125,236181.328125,236639.359375,163151.0,1.0,2
244433.859375,260013.03125,253148.53125,264475.25,231449.640625,261838.71875,236205.203125,236657.6875,163152.0,1.0,2
244454.328125,260042.53125,253163.375,264483.8125,231475.484375,261859.28125,236215.75,236681.03125,163153.0,1.0,2
244483.84375,260050.3125,253167.84375,264484.09375,231458.578125,261854.09375,236196.171875,236674.9375,163154.0,1.0,2
244477.9375,260024.46875,253151.75,264472.03125,231420.671875,261825.484375,236172.203125,236643.828125,163155.0,1.0,2
244443.703125,259996.3125,253136.921875,264461.75,231409.5,261810.5625,236175.15625,236624.96875,163156.0,1.0,2
244429.921875,260006.40625,253146.296875,264466.84375,231443.46875,261839.171875,236203.6875,236648.921875,163157.0,1.0,2
244452.28125,260037.875,253160.703125,264475.34375,231467.875,261860.359375,236209.765625,236672.703125,163158.0,1.0,2
244485.890625,260051.46875,253168.203125,264479.875,231455.359375,261856.875,236192.6875,236670.390625,163159.0,1.0,2
244480.625,260024.46875,253154.34375,264471.9375,231419.0625,261829.421875,236169.96875,236640.703125,163160.0,1.0,2
244448.796875,259999.890625,253140.84375,264463.53125,231413.078125,261819.671875,236179.984375,236627.109375,163161.0,1.0,2
244436.0,260017.9375,253149.4375,264469.53125,231449.546875,261847.484375,236210.5625,236651.609375,163162.0,1.0,2
244453.359375,260041.640625,253162.21875,264474.875,231472.265625,261863.484375,236216.734375,236674.59375,163163.0,1.0,2
244485.1875,260050.671875,253170.359375,264479.1875,231456.34375,261858.125,236199.203125,236673.421875,163164.0,1.0,2
244486.796875,260031.53125,253159.265625,264473.09375,231419.515625,261833.078125,236180.34375,236646.78125,163165.0,1.0,2
244457.828125,260007.75,253146.65625,264468.1875,231411.90625,261819.765625,236183.65625,236628.984375,163166.0,1.0,2
244439.84375,260011.859375,253149.171875,264470.875,231442.3125,261838.71875,236204.390625,236645.625,163167.0,1.0,2
244456.75,260037.796875,253161.5,264478.1875,231464.390625,261855.265625,236212.171875,236669.578125,163168.0,1.0,2
244488.9375,260052.1875,253171.96875,264483.65625,231452.765625,261854.09375,236196.796875,236667.96875,163169.0,1.0,2
244487.5,260031.796875,253161.40625,264476.40625,231420.9375,261830.84375,236178.375,236642.21875,163170.0,1.0,2
244452.375,260001.5,253142.734375,264465.40625,231411.375,261814.84375,236182.9375,236625.234375,163171.0,1.0,2
244433.40625,260006.5,253143.703125,264465.5,231439.8125,261834.421875,236204.9375,236642.578125,163172.0,1.0,2
244453.171875,260031.625,253157.03125,264473.0,231464.390625,261855.34375,236211.546875,236666.984375,163173.0,1.0,2
244486.875,260043.609375,253164.28125,264475.15625,231447.59375,261850.609375,236192.328125,236661.796875,163174.0,1.0,2
244489.109375,260027.421875,253154.53125,264469.875,231414.421875,261822.796875,236169.703125,236636.328125,163175.0,1.0,2
244458.890625,260003.46875,253141.5625,264464.25,231403.0625,261809.84375,236177.578125,236619.953125,163176.0,1.0,2
244449.78125,260022.234375,253153.8125,264474.625,231442.765625,261844.171875,236212.703125,236652.765625,163177.0,1.0,2
244477.40625,260062.015625,253178.671875,264492.59375,231484.59375,261882.703125,236234.96875,236695.0625,163178.0,1.0,2
244517.71875,260090.359375,253195.5625,264503.6875,231484.6875,261891.296875,236229.703125,236704.265625,163179.0,1.0,2
244519.875,260075.171875,253190.921875,264502.25,231457.875,261873.40625,236217.0,236685.578125,163180.0,1.0,2
244483.921875,260044.046875,253175.359375,264492.9375,231445.34375,261859.640625,236222.453125,236667.34375,163181.0,1.0,2
244462.296875,260053.078125,253174.109375,264493.65625,231470.109375,261878.0625,236244.453125,236680.75,163182.0,1.0,2
244471.859375,260068.1875,253180.09375,264493.5625,231484.6875,261891.203125,236245.515625,236697.03125,163183.0,1.0,2
244498.234375,260069.984375,253182.15625,264491.5,231462.515625,261878.0625,236219.953125,236687.640625,163184.0,1.0,2
244491.96875,260040.75,253163.640625,264479.25,231418.265625,261842.296875,236189.015625,236652.5,163185.0,1.0,2
244452.640625,260001.140625,253140.9375,264462.8125,231398.765625,261818.421875,236182.765625,236627.109375,163186.0,1.0,2
244431.453125,260003.734375,253140.9375,264462.28125,231428.1875,261835.953125,236202.15625,236642.84375,163187.0,1.0,2
244453.265625,260030.90625,253156.40625,264473.28125,231454.46875,261856.59375,236210.125,236664.84375,163188.0,1.0,2
244486.796875,260046.203125,253166.234375,264478.0,231442.9375,261854.09375,236195.1875,236664.84375,163189.0,1.0,2
244485.71875,260023.21875,253153.90625,264468.53125,231407.0,261828.609375,236171.765625,236639.265625,163190.0,1.0,2
244452.640625,259990.234375,253135.3125,264456.71875,231392.953125,261811.265625,236171.578125,236619.6875,163191.0,1.0,2
244437.34375,260004.53125,253142.375,264463.25,231429.265625,261837.734375,236199.921875,236643.65625,163192.0,1.0,2
244456.84375,260027.515625,253158.90625,264476.03125,231456.890625,261863.578125,236212.265625,236671.1875,163193.0,1.0,2
244489.46875,260045.484375,253168.828125,264481.59375,231447.9375,261861.78125,236197.421875,236672.265625,163194.0,1.0,2
244488.84375,260029.125,253158.109375,264474.875,231414.0625,261835.765625,236176.40625,236646.0625,163195.0,1.0,2
244453.265625,259993.984375,253137.0,264459.78125,231396.265625,261815.203125,236170.875,236620.234375,163196.0,1.0,2
244433.328125,260003.28125,253136.734375,264459.5,231426.484375,261836.296875,236193.9375,236638.015625,163197.0,1.0,2
244452.1875,260030.640625,253149.96875,264465.5,231453.046875,261857.765625,236206.71875,236664.03125,163198.0,1.0,2
244489.03125,260048.4375,253161.59375,264471.9375,231443.203125,261858.828125,236195.453125,236666.625,163199.0,1.0,2
244489.109375,260026.890625,253151.40625,264464.78125,231405.5625,261830.84375,236171.765625,236638.734375,163200.0,1.0,2
244455.59375,259999.078125,253133.15625,264454.3125,231388.40625,261809.578125,236168.625,236617.015625,163201.0,1.0,2
244440.828125,260011.859375,253140.578125,264460.40625,231427.203125,261837.203125,236196.53125,236641.0625,163202.0,1.0,2
244458.171875,260036.265625,253156.234375,264469.15625,231457.515625,261861.515625,236210.921875,236668.859375,163203.0,1.0,2
244489.46875,260047.453125,253163.828125,264473.0,231447.046875,261857.40625,236196.890625,236669.9375,163204.0,1.0,2
244487.765625,260026.4375,253150.859375,264464.25,231410.578125,261829.953125,236170.6875,236642.75,163205.0,1.0,2
244455.046875,259997.375,253135.578125,264457.4375,231396.453125,261814.21875,236173.640625,236622.46875,163206.0,1.0,2
244436.09375,260002.390625,253137.546875,264459.40625,231423.09375,261833.53125,236195.71875,236638.46875,163207.0,1.0,2
244454.96875,260022.859375,253152.65625,264467.0,231450.8125,261856.515625,236208.515625,236663.953125,163208.0,1.0,2
244491.703125,260039.40625,253163.640625,264475.34375,231443.296875,261857.046875,236198.578125,236667.703125,163209.0,1.0,2
244495.375,260025.09375,253151.9375,264468.34375,231408.609375,261829.0625,236173.734375,236641.140625,163210.0,1.0,2
244460.140625,259992.734375,253132.890625,264456.5625,231388.671875,261808.859375,236172.203125,236615.484375,163211.0,1.0,2
244442.890625,260005.875,253137.90625,264460.9375,231420.9375,261833.171875,236197.6875,236636.859375,163212.0,1.0,2
244461.390625,260037.171875,253154.703125,264469.34375,231451.34375,261857.21875,236209.40625,236667.609375,163213.0,1.0,2
244490.640625,260046.828125,253162.125,264472.28125,231441.234375,261854.09375,236191.4375,236667.4375,163214.0,1.0,2
244493.140625,260033.40625,253153.1875,264466.03125,231411.46875,261828.609375,236170.515625,236643.921875,163215.0,1.0,2
244463.90625,260010.078125,253136.734375,264458.0625,231399.03125,261807.6875,236172.75,236623.53125,163216.0,1.0,2
244446.375,260016.78125,253144.15625,264462.09375,231431.671875,261832.015625,236199.75,236642.21875,163217.0,1.0,2
244464.890625,260043.25,253162.21875,264473.375,231462.609375,261858.5625,236215.390625,236672.34375,163218.0,1.0,2
244500.921875,260062.203125,253173.125,264479.1875,231455.546875,261860.171875,236204.578125,236678.875,163219.0,1.0,2
244496.71875,260045.296875,253157.125,264468.28125,231417.8125,261832.015625,236181.421875,236652.765625,163220.0,1.0,2
244460.5,260019.109375,253137.265625,264456.46875,231401.0,261812.34375,236181.859375,236631.140625,163221.0,1.0,2
244438.328125,260020.984375,253138.4375,264458.25,231428.71875,261833.171875,236204.578125,236648.296875,163222.0,1.0,2
244453.265625,260042.078125,253150.140625,264464.15625,231453.84375,261854.0,236215.484375,236672.0,163223.0,1.0,2
244486.34375,260058.09375,253160.25,264469.96875,231447.40625,261853.015625,236200.8125,236675.21875,163224.0,1.0,2
244488.046875,260040.03125,253149.25,264461.125,231413.171875,261825.484375,236175.0625,236647.671875,163225.0,1.0,2
244451.03125,260010.53125,253128.59375,264447.34375,231394.125,261798.84375,236169.34375,236621.296875,163226.0,1.0,2
244430.015625,260018.65625,253129.859375,264450.03125,231425.953125,261819.5,236197.6875,236640.96875,163227.0,1.0,2
244445.125,260042.53125,253144.78125,264459.5,231457.6875,261845.875,236212.890625,236672.0,163228.0,1.0,2
244480.265625,260059.515625,253154.34375,264464.25,231446.515625,261843.1875,236197.515625,236674.5,163229.0,1.0,2
244486.796875,260051.921875,253148.984375,264459.40625,231416.109375,261821.46875,236178.46875,236654.375,163230.0,1.0,2
244453.625,260022.421875,253131.640625,264446.90625,231397.078125,261801.4375,236174.265625,236629.96875,163231.0,1.0,2
244434.3125,260025.90625,253134.6875,264447.875,231424.703125,261821.375,236198.765625,236644.90625,163232.0,1.0,2
244451.65625,260051.03125,253151.40625,264457.34375,231452.421875,261847.296875,236213.421875,236672.265625,163233.0,1.0,2
244480.359375,260056.21875,253159.265625,264460.03125,231437.21875,261845.328125,236192.953125,236672.0,163234.0,1.0,2
244483.390625,260045.21875,253150.421875,264451.8125,231403.234375,261821.8125,236170.328125,236647.671875,163235.0,1.0,2
244448.703125,260015.078125,253130.484375,264438.84375,231382.9375,261797.59375,236165.328125,236622.640625,163236.0,1.0,2
244432.703125,260023.40625,253136.921875,264445.65625,231411.90625,261820.390625,236192.328125,236641.328125,163237.0,1.0,2
244451.296875,260054.328125,253155.421875,264459.5,231449.90625,261849.0,236214.40625,236678.078125,163238.0,1.0,2
244486.609375,260077.125,253166.78125,264467.28125,231446.328125,261851.0625,236205.015625,236684.875,163239.0,1.0,2
244486.796875,260065.6875,253154.625,264455.40625,231407.984375,261822.359375,236178.640625,236655.8125,163240.0,1.0,2
244453.171875,260032.078125,253135.75,264443.6875,231386.96875,261800.265625,236176.671875,236630.6875,163241.0,1.0,2
244433.40625,260038.421875,253137.90625,264445.375,231413.96875,261817.53125,236200.1875,236647.671875,163242.0,1.0,2
244446.015625,260066.671875,253151.9375,264452.25,231441.859375,261840.953125,236210.03125,236672.171875,163243.0,1.0,2
244478.390625,260083.75,253160.15625,264458.4375,231432.5625,261840.953125,236195.0,236672.265625,163244.0,1.0,2
244484.375,260069.265625,253151.21875,264452.4375,231398.59375,261817.4375,236175.609375,236648.484375,163245.0,1.0,2
244453.265625,260039.140625,253134.5,264441.4375,231382.140625,261796.515625,236176.953125,236627.109375,163246.0,1.0,2
244434.046875,260040.5625,253137.453125,264446.0,231415.9375,261819.5,236202.609375,236647.40625,163247.0,1.0,2
244453.796875,260075.34375,253157.296875,264461.125,231457.515625,261854.0,236225.859375,236685.40625,163248.0,1.0,2
244483.296875,260087.6875,253166.59375,264468.09375,231449.734375,261855.703125,236208.15625,236688.09375,163249.0,1.0,2
244488.578125,260071.328125,253158.640625,264462.46875,231415.484375,261832.734375,236185.4375,236661.0,163250.0,1.0,2
244454.328125,260036.09375,253137.8125,264447.875,231396.0,261811.0,236180.96875,236634.4375,163251.0,1.0,2
244433.859375,260037.703125,253139.859375,264449.84375,231426.390625,261828.96875,236203.40625,236654.109375,163252.0,1.0,2
244449.6875,260061.9375,253156.234375,264460.3125,231456.890625,261857.21875,236219.953125,236683.96875,163253.0,1.0,2
244487.953125,260079.1875,253170.984375,264469.25,231454.375,261863.484375,236208.234375,236692.296875,163254.0,1.0,2
244492.875,260064.171875,253161.859375,264462.90625,231421.125,261840.234375,236183.5625,236667.171875,163255.0,1.0,2
244460.234375,260031.984375,253141.828125,264451.46875,231399.671875,261813.859375,236177.84375,236639.359375,163256.0,1.0,2
244441.015625,260039.046875,253143.796875,264452.1875,231428.359375,261834.0625,236202.78125,236655.546875,163257.0,1.0,2
244464.265625,260080.34375,253166.0625,264467.1875,231469.765625,261866.703125,236228.09375,236694.34375,163258.0,1.0,2
244498.59375,260101.8125,253178.578125,264475.34375,231467.25,261869.03125,236217.8125,236702.578125,163259.0,1.0,2
244501.8125,260083.390625,253168.125,264469.25,231431.5,261840.859375,236190.984375,236675.84375,163260.0,1.0,2
244471.140625,260051.5625,253148.71875,264457.28125,231412.625,261816.09375,236187.5,236653.578125,163261.0,1.0,2
244445.65625,260050.484375,253144.875,264453.875,231434.265625,261828.25,236206.0,236666.359375,163262.0,1.0,2
244460.953125,260078.296875,253159.359375,264463.0,231460.28125,261852.84375,236222.09375,236692.296875,163263.0,1.0,2
244494.75,260095.734375,253170.984375,264470.40625,231450.984375,261854.359375,236210.46875,236695.328125,163264.0,1.0,2
244502.4375,260083.03125,253166.234375,264469.34375,231418.0,261830.765625,236190.53125,236671.375,163265.0,1.0,2
244469.0,260055.046875,253146.125,264456.71875,231396.53125,261805.375,236186.421875,236643.828125,163266.0,1.0,2
244443.96875,260056.484375,253141.75,264453.59375,231420.3125,261817.890625,236203.765625,236656.53125,163267.0,1.0,2
244460.0625,260085.53125,253158.734375,264467.0,231454.46875,261846.59375,236223.171875,236689.421875,163268.0,1.0,2
244492.421875,260100.46875,253170.078125,264474.15625,231448.484375,261849.71875,236213.609375,236695.15625,163269.0,1.0,2
244493.578125,260082.046875,253157.5625,264464.15625,231410.296875,261818.421875,236185.4375,236665.46875,163270.0,1.0,2
244458.265625,260044.765625,253134.5,264448.5,231386.4375,261791.328125,236174.71875,236633.546875,163271.0,1.0,2
244435.015625,260044.765625,253133.875,264447.4375,231413.25,261811.265625,236197.78125,236648.5625,163272.0,1.0,2
244447.546875,260070.96875,253146.390625,264455.03125,231442.765625,261835.40625,236212.625,236677.53125,163273.0,1.0,2
244479.8125,260086.609375,253157.203125,264461.75,231438.640625,261836.390625,236203.140625,236685.3125,163274.0,1.0,2
244486.796875,260065.15625,253150.859375,264456.03125,231403.78125,261810.28125,236177.75,236660.640625,163275.0,1.0,2
244456.296875,260030.1875,253134.140625,264447.0625,231384.015625,261787.125,236172.75,236635.15625,163276.0,1.0,2
244432.25,260035.375,253133.421875,264445.28125,231410.484375,261806.4375,236192.328125,236649.46875,163277.0,1.0,2
244446.640625,260063.359375,253148.8125,264455.65625,231442.125,261832.453125,236208.59375,236677.890625,163278.0,1.0,2
244484.015625,260084.546875,253161.328125,264466.375,231440.609375,261835.59375,236201.4375,236688.359375,163279.0,1.0,2
244491.53125,260074.265625,253151.75,264460.75,231407.890625,261811.8125,236178.015625,236666.546875,163280.0,1.0,2
244458.265625,260042.890625,253131.546875,264446.1875,231385.71875,261787.75,236172.03125,236639.71875,163281.0,1.0,2
244431.890625,260041.640625,253129.5,264445.65625,231410.578125,261801.796875,236193.390625,236652.0625,163282.0,1.0,2
244445.9375,260064.96875,253144.96875,264455.65625,231442.578125,261829.0625,236209.578125,236682.09375,163283.0,1.0,2
244482.3125,260087.0625,253159.453125,264462.8125,231436.140625,261833.984375,236200.375,236688.984375,163284.0,1.0,2
244490.8125,260077.765625,253152.921875,264459.875,231403.15625,261812.4375,236180.078125,236665.375,163285.0,1.0,2
244458.09375,260046.828125,253132.984375,264448.6875,231380.625,261787.9375,236174.171875,236638.28125,163286.0,1.0,2
244434.671875,260047.625,253134.765625,264449.5,231409.046875,261808.046875,236195.453125,236651.875,163287.0,1.0,2
244444.671875,260069.265625,253146.296875,264456.28125,231439.71875,261832.1875,236209.9375,236677.890625,163288.0,1.0,2
244479.90625,260087.765625,253156.40625,264463.71875,231435.6875,261835.328125,236197.875,236683.796875,163289.0,1.0,2
244491.796875,260078.46875,253150.953125,264462.71875,231406.375,261816.453125,236176.046875,236663.59375,163290.0,1.0,2
244462.03125,260042.265625,253134.140625,264451.1875,231384.546875,261796.25,236172.65625,236639.359375,163291.0,1.0,2
244437.96875,260041.8125,253132.09375,264447.0625,231410.75,261811.71875,236191.515625,236651.515625,163292.0,1.0,2
244446.921875,260061.75,253145.5,264452.71875,231441.5,261837.109375,236208.0625,236677.0,163293.0,1.0,2
244479.453125,260074.71875,253154.625,264457.625,231434.078125,261839.171875,236195.1875,236681.203125,163294.0,1.0,2
244488.125,260064.609375,253146.578125,264453.15625,231402.078125,261816.640625,236173.015625,236660.375,163295.0,1.0,2
244460.421875,260033.765625,253131.734375,264445.1875,231382.140625,261795.53125,236168.625,236635.78125,163296.0,1.0,2
244439.046875,260036.0,253135.21875,264448.0625,231412.71875,261816.546875,236194.375,236648.5625,163297.0,1.0,2
244449.0625,260057.734375,253146.296875,264454.84375,231445.53125,261839.875,236209.140625,236674.046875,163298.0,1.0,2
244484.203125,260077.84375,253155.421875,264462.71875,231444.28125,261843.8125,236199.65625,236683.53125,163299.0,1.0,2
244493.3125,260069.53125,253150.6875,264459.5,231413.796875,261821.734375,236176.40625,236663.234375,163300.0,1.0,2
244462.65625,260034.21875,253133.421875,264447.875,231390.1875,261796.96875,236169.96875,236635.875,163301.0,1.0,2
244433.40625,260023.40625,253130.203125,264445.5625,231409.765625,261811.0,236189.203125,236643.734375,163302.0,1.0,2
244450.578125,260056.390625,253149.078125,264459.40625,231445.265625,261841.3125,236212.265625,236678.34375,163303.0,1.0,2
244486.796875,260081.609375,253162.3125,264466.75,231446.25,261849.171875,236204.578125,236688.984375,163304.0,1.0,2
244490.015625,260069.359375,253149.96875,264455.9375,231411.015625,261821.375,236175.15625,236663.328125,163305.0,1.0,2
244453.890625,260028.5,253127.171875,264441.1875,231385.625,261792.5,236168.0,236634.71875,163306.0,1.0,2
244430.90625,260020.359375,253124.3125,264440.1875,231405.03125,261806.53125,236188.21875,236644.90625,163307.0,1.0,2
244444.328125,260051.296875,253139.78125,264449.84375,231438.90625,261830.9375,236206.1875,236674.9375,163308.0,1.0,2
244479.90625,260077.578125,253154.4375,264457.625,231441.234375,261835.953125,236201.0,236688.09375,163309.0,1.0,2
244490.90625,260070.15625,253145.140625,264451.8125,231409.765625,261812.171875,236177.65625,236666.265625,163310.0,1.0,2
244459.609375,260032.421875,253125.109375,264438.0625,231385.984375,261785.796875,236168.625,236637.84375,163311.0,1.0,2
244436.71875,260027.875,253125.5625,264440.8125,231408.78125,261804.03125,236191.25,236648.390625,163312.0,1.0,2
244452.546875,260059.34375,253142.90625,264454.3125,231442.765625,261835.046875,236210.828125,236677.53125,163313.0,1.0,2
244485.8125,260077.40625,253152.5625,264459.6875,231438.109375,261838.09375,236197.15625,236680.84375,163314.0,1.0,2
244494.484375,260064.34375,253144.515625,264452.8125,231400.828125,261816.359375,236171.140625,236655.984375,163315.0,1.0,2
244462.65625,260027.78125,253126.359375,264442.4375,231380.171875,261792.21875,236166.390625,236634.0,163316.0,1.0,2
244434.3125,260016.96875,253122.4375,264440.1875,231402.703125,261804.828125,236185.359375,236643.296875,163317.0,1.0,2
244448.609375,260041.375,253139.515625,264450.28125,231436.234375,261833.078125,236200.375,236669.484375,163318.0,1.0,2
244487.234375,260064.171875,253157.75,264463.53125,231436.953125,261843.546875,236194.5625,236678.96875,163319.0,1.0,2
244493.859375,260051.65625,253148.0,264454.78125,231401.625,261819.5,236166.484375,236653.484375,163320.0,1.0,2
244464.796875,260021.15625,253132.0,264442.25,231379.640625,261794.46875,236156.03125,236626.03125,163321.0,1.0,2
244438.953125,260014.09375,253129.9375,264440.90625,231400.015625,261807.15625,236175.15625,236633.8125,163322.0,1.0,2
244450.40625,260033.140625,253143.171875,264450.125,231431.578125,261830.9375,236190.8125,236662.34375,163323.0,1.0,2
244488.671875,260060.328125,253157.65625,264459.5,231432.390625,261837.28125,236183.65625,236674.234375,163324.0,1.0,2
244499.671875,260052.546875,253152.203125,264456.375,231398.859375,261816.71875,236162.1875,236651.515625,163325.0,1.0,2
244468.015625,260021.96875,253131.109375,264442.6875,231374.546875,261789.984375,236152.265625,236621.203125,163326.0,1.0,2
244445.21875,260027.25,253133.875,264446.09375,231405.65625,261807.609375,236179.546875,236636.859375,163327.0,1.0,2
244457.828125,260054.421875,253151.3125,264460.125,231443.390625,261838.453125,236201.53125,236672.0,163328.0,1.0,2
244492.25,260078.03125,253164.1875,264469.15625,231444.375,261844.703125,236194.5625,236685.046875,163329.0,1.0,2
244500.921875,260076.953125,253155.6875,264462.46875,231411.734375,261819.671875,236171.140625,236663.953125,163330.0,1.0,2
244470.34375,260047.8125,253137.1875,264451.625,231388.75,261796.25,236165.953125,236638.734375,163331.0,1.0,2
244442.265625,260038.515625,253133.609375,264450.9375,231409.3125,261811.625,236183.5625,236647.9375,163332.0,1.0,2
244450.21875,260051.734375,253142.8125,264455.65625,231433.375,261834.875,236192.5,236667.34375,163333.0,1.0,2
244487.421875,260071.140625,253154.96875,264463.625,231430.328125,261838.453125,236181.15625,236675.75,163334.0,1.0,2
244496.453125,260055.765625,253145.765625,264460.40625,231397.34375,261812.875,236153.703125,236653.484375,163335.0,1.0,2
244466.046875,260022.421875,253127.890625,264448.59375,231374.09375,261789.8125,236149.59375,236628.8125,163336.0,1.0,2
244437.609375,260015.703125,253125.296875,264445.65625,231396.09375,261804.65625,236174.0,236640.609375,163337.0,1.0,2
244449.328125,260041.015625,253140.140625,264455.40625,231432.03125,261834.78125,236197.0625,236672.4375,163338.0,1.0,2
244481.6875,260060.59375,253151.484375,264461.46875,231437.296875,261840.421875,236187.59375,236687.375,163339.0,1.0,2
244492.25,260053.4375,253145.40625,264456.375,231408.78125,261817.265625,236162.734375,236668.15625,163340.0,1.0,2
244460.0625,260021.796875,253124.125,264442.25,231384.109375,261789.28125,236153.34375,236639.453125,163341.0,1.0,2
244435.828125,260019.015625,253124.84375,264442.96875,231408.609375,261808.046875,236180.4375,236650.09375,163342.0,1.0,2
244448.875,260047.890625,253140.484375,264452.96875,231443.296875,261837.46875,236197.875,236678.875,163343.0,1.0,2
244483.21875,260068.90625,253150.421875,264458.53125,231440.96875,261840.5,236185.53125,236683.4375,163344.0,1.0,2
244497.15625,260055.234375,253147.28125,264456.28125,231408.875,261823.609375,236164.875,236663.5,163345.0,1.0,2
244472.9375,260029.84375,253132.984375,264448.875,231386.515625,261803.21875,236167.109375,236641.5,163346.0,1.0,2
244440.5625,260025.09375,253125.734375,264444.03125,231405.65625,261809.484375,236177.21875,236646.6875,163347.0,1.0,2
244445.578125,260050.40625,253137.8125,264449.84375,231436.765625,261833.078125,236187.046875,236670.828125,163348.0,1.0,2
244477.140625,260066.765625,253151.046875,264457.0,231436.765625,261839.34375,236178.828125,236678.96875,163349.0,1.0,2
244490.453125,260062.203125,253148.453125,264453.59375,231405.203125,261822.453125,236159.0625,236657.421875,163350.0,1.0,2
244458.8125,260024.03125,253127.34375,264439.375,231373.921875,261791.328125,236148.6875,236621.921875,163351.0,1.0,2
244433.6875,260021.796875,253124.046875,264438.125,231393.40625,261802.234375,236171.046875,236631.578125,163352.0,1.0,2
244445.125,260052.1875,253139.59375,264448.6875,231429.4375,261830.21875,236190.265625,236662.78125,163353.0,1.0,2
244478.5625,260068.8125,253152.109375,264455.03125,231430.421875,261837.46875,236182.671875,236671.8125,163354.0,1.0,2
244489.921875,260063.359375,253146.84375,264450.28125,231399.671875,261820.21875,236162.828125,236653.484375,163355.0,1.0,2
244461.046875,260035.46875,253128.421875,264441.28125,231376.6875,261796.34375,236157.453125,236628.625,163356.0,1.0,2
244436.28125,260028.046875,253127.34375,264441.71875,231400.921875,261810.375,236176.859375,236637.296875,163357.0,1.0,2
244445.3125,260046.828125,253143.890625,264451.375,231437.484375,261838.8125,236196.96875,236666.625,163358.0,1.0,2
244480.53125,260064.703125,253157.125,264459.6875,231436.671875,261844.984375,236189.28125,236676.734375,163359.0,1.0,2
244493.671875,260049.6875,253153.09375,264456.90625,231404.84375,261826.640625,236165.953125,236657.421875,163360.0,1.0,2
244465.78125,260017.234375,253132.71875,264443.21875,231380.890625,261799.640625,236154.953125,236628.90625,163361.0,1.0,2
244439.40625,260012.578125,253129.3125,264442.0625,231404.3125,261813.421875,236176.5,236637.9375,163362.0,1.0,2
244444.046875,260036.0,253139.859375,264448.78125,231437.65625,261838.265625,236193.84375,236665.28125,163363.0,1.0,2
244478.296875,260059.15625,253151.9375,264457.4375,231440.96875,261844.796875,236188.84375,236677.359375,163364.0,1.0,2
244492.328125,260053.703125,253146.84375,264454.78125,231411.375,261827.71875,236168.8125,236657.6875,163365.0,1.0,2
244460.0625,260012.3125,253125.109375,264441.09375,231383.125,261798.21875,236155.9375,236626.671875,163366.0,1.0,2
244436.28125,260008.734375,253125.203125,264441.09375,231403.515625,261810.203125,236176.328125,236633.640625,163367.0,1.0,2
244447.453125,260037.171875,253142.015625,264452.34375,231437.9375,261840.59375,236197.6875,236663.765625,163368.0,1.0,2
244479.09375,260057.015625,253151.84375,264456.8125,231437.578125,261845.25,236188.03125,236673.328125,163369.0,1.0,2
244490.359375,260053.078125,253146.125,264452.96875,231406.8125,261826.375,236163.453125,236653.75,163370.0,1.0,2
244460.234375,260020.453125,253124.671875,264440.28125,231378.203125,261799.375,236156.296875,236621.921875,163371.0,1.0,2
244434.84375,260011.859375,253120.46875,264439.03125,231399.3125,261811.265625,236176.953125,236627.921875,163372.0,1.0,2
244443.25,260037.609375,253133.875,264445.28125,231436.953125,261837.203125,236195.71875,236656.34375,163373.0,1.0,2
244477.484375,260063.0,253149.96875,264454.0625,231443.03125,261846.9375,236190.890625,236672.265625,163374.0,1.0,2
244487.328125,260048.4375,253144.34375,264450.65625,231413.609375,261829.859375,236169.265625,236655.28125,163375.0,1.0,2
244460.6875,260016.78125,253127.609375,264440.8125,231390.1875,261805.640625,236164.078125,236631.3125,163376.0,1.0,2
244432.25,260017.671875,253124.40625,264436.4375,231410.84375,261814.125,236182.671875,236640.078125,163377.0,1.0,2
244440.75,260044.140625,253138.875,264445.375,231448.390625,261844.53125,236202.609375,236669.3125,163378.0,1.0,2
244474.984375,260063.546875,253150.328125,264453.5,231451.703125,261851.6875,236196.609375,236679.328125,163379.0,1.0,2
244486.34375,260052.359375,253143.0,264447.34375,231419.953125,261828.609375,236170.875,236657.953125,163380.0,1.0,2
244451.828125,260008.28125,253118.59375,264431.96875,231388.40625,261798.03125,236155.84375,236623.890625,163381.0,1.0,2
244426.890625,260005.703125,253117.78125,264433.65625,231410.125,261811.53125,236177.578125,236633.734375,163382.0,1.0,2
244438.15625,260037.171875,253136.5625,264444.84375,231448.5625,261843.28125,236198.140625,236666.359375,163383.0,1.0,2
244469.4375,260060.6875,253147.90625,264451.375,231448.484375,261850.96875,236190.625,236675.75,163384.0,1.0,2
244483.03125,260049.140625,253141.296875,264449.40625,231414.421875,261829.0625,236166.125,236656.34375,163385.0,1.0,2
244454.609375,260014.640625,253121.359375,264437.59375,231385.359375,261801.609375,236154.421875,236625.6875,163386.0,1.0,2
244425.28125,260004.796875,253114.828125,264436.4375,231400.296875,261811.0,236170.6875,236628.625,163387.0,1.0,2
244437.609375,260034.9375,253132.796875,264449.21875,231439.265625,261840.78125,236195.453125,236662.34375,163388.0,1.0,2
244469.0,260054.953125,253145.234375,264454.3125,231441.5,261845.875,236189.640625,236675.921875,163389.0,1.0,2
244484.375,260049.5,253141.921875,264450.375,231413.25,261824.6875,236166.046875,236660.90625,163390.0,1.0,2
244457.828125,260020.625,253123.328125,264439.3125,231385.8125,261795.09375,236153.4375,236632.125,163391.0,1.0,2
244428.9375,260013.921875,253120.375,264437.59375,231404.046875,261806.53125,236175.421875,236638.015625,163392.0,1.0,2
244437.4375,260035.921875,253137.71875,264450.125,231442.3125,261839.25,236200.46875,236670.296875,163393.0,1.0,2
244474.71875,260061.75,253154.625,264459.875,231449.46875,261849.796875,236198.765625,236684.515625,163394.0,1.0,2
244491.96875,260060.6875,253151.3125,264456.1875,231420.9375,261830.5,236176.765625,236664.9375,163395.0,1.0,2
244463.8125,260025.09375,253133.34375,264445.1875,231395.90625,261805.734375,236168.0,236634.890625,163396.0,1.0,2
244432.96875,260011.234375,253125.734375,264439.125,231414.234375,261812.25,236181.328125,236636.859375,163397.0,1.0,2
244438.59375,260031.796875,253138.609375,264445.125,231449.734375,261838.984375,236198.40625,236665.46875,163398.0,1.0,2
244472.84375,260056.75,253154.171875,264455.65625,231452.5,261851.234375,236195.453125,236678.875,163399.0,1.0,2
244487.234375,260045.21875,253148.359375,264452.4375,231417.8125,261831.46875,236169.078125,236658.84375,163400.0,1.0,2
244463.0,260015.265625,253131.109375,264443.9375,231392.15625,261806.984375,236160.3125,236633.734375,163401.0,1.0,2
244433.953125,260012.046875,253127.078125,264439.84375,231412.1875,261818.328125,236180.875,236641.328125,163402.0,1.0,2
244439.140625,260036.1875,253139.15625,264446.8125,231447.59375,261845.6875,236200.734375,236668.234375,163403.0,1.0,2
244470.703125,260055.3125,253149.96875,264453.0625,231447.3125,261851.6875,236191.96875,236675.75,163404.0,1.0,2
244488.84375,260055.234375,253148.1875,264452.25,231421.390625,261835.140625,236171.578125,236659.390625,163405.0,1.0,2
244460.421875,260020.359375,253130.203125,264439.46875,231393.5,261805.375,236159.0625,236630.59375,163406.0,1.0,2
244433.40625,260012.3125,253126.546875,264438.75,231410.21875,261814.125,236177.84375,236634.625,163407.0,1.0,2
244440.484375,260033.328125,253140.140625,264448.15625,231443.203125,261840.328125,236196.078125,236663.328125,163408.0,1.0,2
244474.71875,260055.234375,253151.75,264457.09375,231445.078125,261849.796875,236188.125,236674.859375,163409.0,1.0,2
244490.71875,260051.828125,253146.65625,264453.6875,231417.09375,261832.453125,236163.171875,236656.4375,163410.0,1.0,2
244463.71875,260019.734375,253128.15625,264442.6875,231391.171875,261806.265625,236154.6875,236628.71875,163411.0,1.0,2
244432.96875,260009.265625,253123.140625,264439.375,231407.078125,261815.65625,236171.765625,236629.890625,163412.0,1.0,2
244437.171875,260032.515625,253134.765625,264445.46875,231441.859375,261842.109375,236192.765625,236656.53125,163413.0,1.0,2
244470.078125,260055.578125,253147.28125,264452.0,231446.421875,261849.890625,236188.03125,236669.21875,163414.0,1.0,2
244488.84375,260053.265625,253145.859375,264451.625,231419.875,261837.375,236167.375,236656.265625,163415.0,1.0,2
244461.21875,260011.59375,253125.296875,264440.09375,231386.703125,261809.390625,236154.953125,236625.859375,163416.0,1.0,2
244428.9375,259994.609375,253117.328125,264436.15625,231398.234375,261815.03125,236170.59375,236627.109375,163417.0,1.0,2
244434.3125,260021.25,253129.046875,264442.78125,231433.015625,261839.703125,236188.65625,236654.375,163418.0,1.0,2
244468.546875,260044.765625,253143.984375,264453.34375,231438.015625,261848.203125,236181.421875,236669.765625,163419.0,1.0,2
244490.640625,260044.765625,253144.96875,264455.40625,231410.484375,261832.28125,236161.921875,236659.03125,163420.0,1.0,2
244465.15625,260013.65625,253124.671875,264443.3125,231380.265625,261802.15625,236153.25,236627.734375,163421.0,1.0,2
244428.234375,259991.296875,253114.5625,264436.625,231391.4375,261804.125,236162.28125,236622.8125,163422.0,1.0,2
244435.375,260016.875,253132.09375,264447.25,231431.21875,261837.109375,236185.53125,236653.671875,163423.0,1.0,2
244471.140625,260047.0,253146.125,264454.9375,231439.0,261848.546875,236183.75,236669.3125,163424.0,1.0,2
244492.875,260051.390625,253146.125,264457.28125,231416.03125,261834.6875,236168.546875,236659.75,163425.0,1.0,2
244464.96875,260018.390625,253126.90625,264445.1875,231389.375,261807.609375,236163.09375,236635.15625,163426.0,1.0,2
244435.015625,260007.390625,253121.0,264439.5625,231404.578125,261815.390625,236179.09375,236639.453125,163427.0,1.0,2
244444.046875,260037.609375,253136.5625,264449.84375,231443.03125,261846.3125,236200.109375,236671.546875,163428.0,1.0,2
244474.09375,260062.296875,253147.640625,264454.15625,231449.46875,261855.078125,236195.8125,236684.328125,163429.0,1.0,2
244491.796875,260065.953125,253144.421875,264449.84375,231424.875,261838.625,236173.375,236666.625,163430.0,1.0,2
244467.125,260036.09375,253127.171875,264441.0,231399.75,261810.28125,236163.984375,236641.421875,163431.0,1.0,2
244434.125,260015.890625,253119.921875,264435.90625,231410.65625,261815.734375,236178.375,236642.125,163432.0,1.0,2
244441.28125,260035.5625,253132.890625,264442.96875,231439.265625,261845.15625,236198.765625,236662.421875,163433.0,1.0,2
244474.546875,260056.21875,253146.296875,264453.34375,231444.09375,261856.515625,236195.1875,236673.421875,163434.0,1.0,2
244489.109375,260050.9375,253141.203125,264449.3125,231411.828125,261834.515625,236168.71875,236653.84375,163435.0,1.0,2
244459.703125,260015.171875,253120.109375,264434.84375,231378.5625,261805.453125,236155.21875,236621.921875,163436.0,1.0,2
244427.515625,259993.265625,253110.359375,264429.03125,231388.9375,261809.390625,236170.234375,236622.015625,163437.0,1.0,2
244433.6875,260015.265625,253122.96875,264437.59375,231423.53125,261836.75,236189.90625,236649.109375,163438.0,1.0,2
244464.703125,260037.171875,253135.125,264443.15625,231429.609375,261846.140625,236182.21875,236662.515625,163439.0,1.0,2
244485.984375,260040.296875,253137.0,264444.3125,231404.3125,261833.71875,236165.953125,236649.375,163440.0,1.0,2
244462.65625,260006.59375,253118.40625,264433.75,231375.078125,261806.984375,236155.671875,236620.578125,163441.0,1.0,2
244430.1875,259987.1875,253110.1875,264429.09375,231386.703125,261811.71875,236168.1875,236620.140625,163442.0,1.0,2
244435.921875,260009.8125,253124.21875,264437.5,231426.3125,261839.796875,236187.59375,236648.484375,163443.0,1.0,2
244470.609375,260035.734375,253139.515625,264446.90625,231435.875,261851.6875,236184.015625,236663.046875,163444.0,1.0,2
244488.21875,260033.859375,253137.8125,264445.125,231408.78125,261837.203125,236163.09375,236645.796875,163445.0,1.0,2
244463.8125,260005.78125,253118.859375,264431.78125,231382.046875,261811.890625,236150.390625,236615.484375,163446.0,1.0,2
244434.125,259992.90625,253111.53125,264430.625,231398.328125,261820.125,236168.625,236619.953125,163447.0,1.0,2
244437.53125,260007.84375,253124.671875,264439.3125,231431.578125,261849.53125,236190.171875,236646.0625,163448.0,1.0,2
244472.484375,260032.078125,253140.046875,264448.78125,231439.625,261861.703125,236188.65625,236661.265625,163449.0,1.0,2
244490.1875,260031.625,253135.125,264444.5,231409.671875,261839.171875,236165.765625,236645.796875,163450.0,1.0,2
244464.53125,260000.328125,253113.3125,264428.84375,231376.421875,261803.578125,236146.90625,236610.296875,163451.0,1.0,2
244436.984375,259987.28125,253109.640625,264427.21875,231390.90625,261811.984375,236165.59375,236612.453125,163452.0,1.0,2
244440.125,260010.53125,253121.265625,264434.65625,231426.21875,261840.78125,236189.828125,236644.359375,163453.0,1.0,2
244470.96875,260032.78125,253134.40625,264444.21875,231432.203125,261850.96875,236187.5,236659.03125,163454.0,1.0,2
244493.765625,260037.078125,253136.375,264446.375,231405.46875,261837.90625,236166.125,236643.203125,163455.0,1.0,2
244469.4375,260009.546875,253118.671875,264434.90625,231375.96875,261808.953125,236153.34375,236612.1875,163456.0,1.0,2
244435.828125,259996.84375,253109.640625,264429.46875,231386.96875,261811.359375,236163.171875,236609.859375,163457.0,1.0,2
244440.203125,260015.4375,253125.03125,264443.3125,231426.390625,261842.46875,236185.078125,236638.734375,163458.0,1.0,2
244475.875,260043.6875,253143.796875,264451.625,231440.609375,261857.21875,236187.765625,236658.578125,163459.0,1.0,2
244496.71875,260046.46875,253143.265625,264449.59375,231416.65625,261842.109375,236167.46875,236646.328125,163460.0,1.0,2
244472.9375,260016.25,253124.484375,264439.125,231386.96875,261812.25,236153.078125,236616.109375,163461.0,1.0,2
244443.421875,260006.953125,253120.90625,264437.15625,231404.578125,261819.046875,236172.828125,236622.8125,163462.0,1.0,2
244444.328125,260026.890625,253131.90625,264443.9375,231443.203125,261849.171875,236197.6875,236654.296875,163463.0,1.0,2
244477.484375,260049.234375,253146.03125,264454.9375,231451.34375,261860.890625,236191.703125,236668.6875,163464.0,1.0,2
244495.46875,260048.703125,253142.546875,264452.09375,231418.96875,261843.453125,236165.765625,236649.828125,163465.0,1.0,2
244474.265625,260015.359375,253122.703125,264441.09375,231386.796875,261811.890625,236149.59375,236619.875,163466.0,1.0,2
244440.484375,259998.71875,253112.234375,264435.71875,231398.328125,261811.1875,236163.265625,236618.890625,163467.0,1.0,2
244438.875,260017.765625,253122.078125,264442.25,231432.390625,261838.890625,236184.71875,236647.671875,163468.0,1.0,2
244469.359375,260041.1875,253134.765625,264448.6875,231440.96875,261851.765625,236181.6875,236661.625,163469.0,1.0,2
244485.890625,260035.5625,253130.296875,264446.4375,231413.796875,261831.390625,236153.703125,236646.0625,163470.0,1.0,2
244464.4375,260007.484375,253111.4375,264434.84375,231383.75,261800.546875,236141.1875,236617.453125,163471.0,1.0,2
244435.015625,259992.203125,253104.640625,264432.0625,231396.265625,261805.546875,236160.5,236618.96875,163472.0,1.0,2
244436.453125,260009.71875,253118.5,264441.09375,231431.671875,261834.515625,236182.84375,236646.953125,163473.0,1.0,2
244468.015625,260032.875,253132.0,264447.71875,231437.125,261843.90625,236177.75,236659.65625,163474.0,1.0,2
244487.328125,260036.0,253132.09375,264444.9375,231411.90625,261828.609375,236157.28125,236644.28125,163475.0,1.0,2
244467.125,260007.390625,253117.0625,264436.875,231383.75,261802.328125,236145.203125,236615.3125,163476.0,1.0,2
244433.328125,259992.734375,253106.609375,264428.40625,231392.953125,261805.734375,236157.1875,236611.90625,163477.0,1.0,2
244434.3125,260010.796875,253117.328125,264433.03125,231426.484375,261833.359375,236177.125,236637.75,163478.0,1.0,2
244469.09375,260035.734375,253134.953125,264445.375,231440.078125,261847.84375,236180.171875,236655.71875,163479.0,1.0,2
244492.515625,260039.84375,253137.625,264445.03125,231414.59375,261834.78125,236162.640625,236643.65625,163480.0,1.0,2
244471.234375,260009.09375,253121.265625,264433.65625,231384.734375,261806.984375,236149.140625,236616.375,163481.0,1.0,2
244439.5,259993.171875,253111.25,264428.21875,231397.15625,261812.34375,236164.515625,236616.734375,163482.0,1.0,2
244441.015625,260016.328125,253122.25,264436.25,231436.59375,261840.859375,236187.59375,236645.703125,163483.0,1.0,2
244473.921875,260040.125,253139.421875,264447.34375,231448.921875,261851.953125,236183.5625,236663.046875,163484.0,1.0,2
244494.203125,260040.390625,253138.703125,264444.40625,231422.28125,261834.34375,236159.0625,236649.640625,163485.0,1.0,2
244474.09375,260014.1875,253121.8125,264432.59375,231395.640625,261805.8125,236148.6875,236625.0625,163486.0,1.0,2
244441.8125,259994.703125,253113.671875,264429.09375,231404.765625,261805.90625,236161.75,236622.109375,163487.0,1.0,2
244444.953125,260011.78125,253126.640625,264436.625,231437.578125,261832.1875,236180.34375,236647.9375,163488.0,1.0,2
244479.90625,260039.40625,253143.4375,264448.96875,231450.625,261847.125,236181.234375,236666.1875,163489.0,1.0,2
244500.375,260048.078125,253143.890625,264449.75,231431.21875,261838.09375,236165.765625,236658.84375,163490.0,1.0,2
244476.0625,260015.890625,253119.484375,264435.28125,231397.609375,261804.65625,236151.015625,236627.46875,163491.0,1.0,2
244439.3125,259988.171875,253105.984375,264428.03125,231401.625,261802.78125,236160.765625,236620.765625,163492.0,1.0,2
244442.625,260010.875,253121.09375,264437.25,231440.609375,261834.515625,236185.4375,236648.390625,163493.0,1.0,2
244474.8125,260038.234375,253139.15625,264446.1875,231455.90625,261849.71875,236187.140625,236668.421875,163494.0,1.0,2
244492.6875,260035.203125,253135.578125,264443.9375,231429.34375,261832.015625,236161.921875,236654.828125,163495.0,1.0,2
244470.34375,260005.703125,253115.640625,264431.15625,231397.78125,261801.171875,236145.03125,236622.546875,163496.0,1.0,2
244439.671875,259996.3125,253108.84375,264428.5625,231411.46875,261805.8125,236162.46875,236623.890625,163497.0,1.0,2
244440.296875,260018.125,253123.328125,264438.6875,231451.515625,261837.640625,236188.75,236655.1875,163498.0,1.0,2
244470.96875,260043.34375,253136.46875,264444.9375,231462.609375,261850.609375,236187.859375,236671.015625,163499.0,1.0,2
244496.171875,260049.953125,253139.859375,264446.4375,231439.625,261838.625,236167.65625,236660.640625,163500.0,1.0,2
244476.859375,260019.90625,253122.609375,264437.6875,231409.234375,261810.5625,236155.671875,236629.34375,163501.0,1.0,2
244441.90625,260000.25,253112.59375,264433.03125,231416.03125,261808.859375,236170.78125,236624.078125,163502.0,1.0,2
244433.5,260005.875,253117.6875,264432.59375,231443.65625,261831.390625,236180.875,236644.28125,163503.0,1.0,2
244465.515625,260033.59375,253132.4375,264440.46875,231450.453125,261845.875,236178.640625,236656.796875,163504.0,1.0,2
244490.90625,260040.03125,253135.484375,264442.25,231427.734375,261834.875,236160.671875,236644.90625,163505.0,1.0,2
244470.96875,260009.0,253118.671875,264434.65625,231397.78125,261808.5,236150.578125,236617.1875,163506.0,1.0,2
244437.703125,259993.359375,253109.203125,264429.09375,231406.375,261807.421875,236164.34375,236615.484375,163507.0,1.0,2
244434.84375,260014.1875,253116.890625,264433.03125,231440.34375,261832.28125,236183.296875,236641.59375,163508.0,1.0,2
244468.46875,260038.234375,253134.5,264444.9375,231450.890625,261850.96875,236187.140625,236657.875,163509.0,1.0,2
244493.140625,260041.640625,253136.921875,264446.0,231425.859375,261838.625,236166.578125,236643.109375,163510.0,1.0,2
244471.140625,260008.109375,253119.21875,264434.84375,231394.125,261806.796875,236149.40625,236612.8125,163511.0,1.0,2
244437.4375,259987.09375,253109.5625,264428.40625,231400.109375,261805.28125,236161.75,236607.984375,163512.0,1.0,2
244440.203125,260013.46875,253122.515625,264437.15625,231438.828125,261833.71875,236186.0625,236639.1875,163513.0,1.0,2
244475.4375,260043.421875,253141.65625,264449.75,231456.796875,261849.53125,236190.8125,236662.875,163514.0,1.0,2
244496.453125,260040.828125,253140.765625,264449.125,231430.421875,261834.421875,236167.65625,236649.28125,163515.0,1.0,2
244475.4375,260007.125,253120.203125,264433.125,231392.953125,261801.078125,236146.546875,236613.34375,163516.0,1.0,2
244445.03125,259991.390625,253113.046875,264428.75,231400.5625,261802.0625,236163.53125,236610.21875,163517.0,1.0,2
244448.875,260018.296875,253129.5,264442.4375,231446.0625,261836.578125,236195.453125,236644.546875,163518.0,1.0,2
244471.859375,260036.0,253136.296875,264447.53125,231453.671875,261847.125,236187.59375,236658.5,163519.0,1.0,2
244495.375,260040.5625,253137.0,264447.71875,231429.703125,261835.234375,236163.890625,236646.328125,163520.0,1.0,2
244473.921875,260010.796875,253115.09375,264432.40625,231392.6875,261801.34375,236143.421875,236612.359375,163521.0,1.0,2
244436.359375,259985.9375,253103.390625,264427.40625,231394.03125,261799.640625,236152.890625,236602.875,163522.0,1.0,2
244438.0625,260007.84375,253118.140625,264437.15625,231434.265625,261832.109375,236179.8125,236634.625,163523.0,1.0,2
244471.140625,260040.921875,253132.796875,264446.0,231449.734375,261847.75,236181.5,236658.5,163524.0,1.0,2
244495.015625,260046.46875,253134.859375,264445.65625,231428.0,261838.09375,236161.296875,236647.859375,163525.0,1.0,2
244473.46875,260011.859375,253116.4375,264432.59375,231394.203125,261807.25,236146.015625,236614.953125,163526.0,1.0,2
244437.609375,259985.84375,253105.4375,264427.40625,231399.21875,261807.421875,236161.296875,236610.921875,163527.0,1.0,2
244437.703125,260003.8125,253118.5,264434.125,231436.765625,261836.75,236185.625,236640.25,163528.0,1.0,2
244469.4375,260028.5,253135.125,264441.0,231449.203125,261849.53125,236182.671875,236657.421875,163529.0,1.0,2
244495.375,260036.546875,253139.59375,264441.96875,231426.3125,261837.203125,236162.1875,236643.828125,163530.0,1.0,2
244471.953125,259999.53125,253116.078125,264427.75,231388.21875,261800.546875,236142.34375,236608.25,163531.0,1.0,2
244438.515625,259971.453125,253101.78125,264419.4375,231386.875,261794.109375,236150.578125,236596.265625,163532.0,1.0,2
244438.515625,259999.96875,253115.015625,264427.9375,231428.625,261826.015625,236178.015625,236629.171875,163533.0,1.0,2
244470.875,260029.65625,253132.625,264441.1875,231446.78125,261845.15625,236180.703125,236651.703125,163534.0,1.0,2
244501.09375,260042.53125,253140.40625,264446.1875,231429.890625,261839.609375,236164.703125,236647.671875,163535.0,1.0,2
244491.265625,260027.25,253132.359375,264443.15625,231411.203125,261818.421875,236156.65625,236633.015625,163536.0,1.0,2
244464.703125,260021.609375,253131.109375,264446.53125,231431.140625,261830.21875,236185.0,236643.296875,163537.0,1.0,2
244468.015625,260049.140625,253146.75,264458.96875,231478.25,261867.59375,236217.625,236679.859375,163538.0,1.0,2
244498.953125,260076.328125,253162.84375,264468.53125,231492.46875,261885.390625,236220.21875,236700.609375,163539.0,1.0,2
244519.6875,260077.9375,253163.5625,264469.96875,231466.1875,261874.921875,236199.203125,236688.625,163540.0,1.0,2
244491.703125,260030.8125,253139.59375,264452.25,231421.390625,261838.546875,236175.609375,236650.71875,163541.0,1.0,2
244451.390625,260003.1875,253122.703125,264439.5625,231417.453125,261829.78125,236181.328125,236637.125,163542.0,1.0,2
244442.265625,260011.6875,253123.234375,264438.125,231441.15625,261846.9375,236192.765625,236650.53125,163543.0,1.0,2
244475.875,260038.0625,253140.3125,264449.125,231453.578125,261860.265625,236194.828125,236668.6875,163544.0,1.0,2
244499.671875,260039.671875,253141.203125,264446.0,231427.296875,261846.40625,236169.796875,236652.40625,163545.0,1.0,2
244475.4375,260002.75,253117.15625,264429.5625,231384.015625,261807.25,236144.5,236611.46875,163546.0,1.0,2
244440.125,259979.5,253105.09375,264425.71875,231390.09375,261804.390625,236159.0625,236603.59375,163547.0,1.0,2
244438.78125,259999.703125,253117.96875,264432.5,231429.609375,261833.359375,236184.8125,236634.625,163548.0,1.0,2
244473.203125,260028.5,253138.875,264446.0,231445.890625,261851.953125,236188.125,236660.453125,163549.0,1.0,2
244502.53125,260041.375,253144.0625,264447.71875,231425.59375,261842.46875,236169.078125,236656.078125,163550.0,1.0,2
244484.828125,260012.765625,253126.1875,264435.0,231392.0625,261813.421875,236151.828125,236626.75,163551.0,1.0,2
244446.109375,259987.640625,253113.21875,264428.65625,231393.765625,261809.390625,236161.484375,236617.453125,163552.0,1.0,2
244442.625,260004.4375,253123.5,264436.625,231431.671875,261838.359375,236184.90625,236643.828125,163553.0,1.0,2
244475.609375,260037.609375,253140.484375,264448.34375,231449.28125,261853.46875,236189.015625,236664.9375,163554.0,1.0,2
244500.921875,260039.40625,253144.34375,264452.53125,231428.1875,261841.578125,236172.828125,236656.078125,163555.0,1.0,2
244481.34375,260002.828125,253124.84375,264436.71875,231392.6875,261810.46875,236153.609375,236623.453125,163556.0,1.0,2
244447.359375,259989.609375,253111.4375,264427.0625,231397.15625,261806.890625,236159.953125,236616.109375,163557.0,1.0,2
244443.609375,260009.890625,253121.890625,264434.90625,231436.765625,261836.390625,236185.359375,236646.0625,163558.0,1.0,2
