FZ,C3,CZ,C4,PZ,PO7,OZ,PO8,Counter,Validation,Label
231553.4375,272520.0,391095.65625,342354.53125,242353.265625,276912.75,248463.25,245333.5625,20864.0,1.0,3
231371.5,272389.90625,391142.3125,342425.4375,241966.765625,276680.625,248428.390625,245306.03125,20865.0,1.0,3
231784.828125,273237.5625,392284.75,342775.71875,243062.09375,276957.0,248856.375,245845.953125,20866.0,1.0,3
232217.109375,273894.09375,392958.71875,342926.125,244138.546875,277356.375,249161.4375,246218.6875,20867.0,1.0,3
232081.125,273464.65625,392228.6875,342663.0,243711.09375,277343.84375,248927.453125,245901.5625,20868.0,1.0,3
231546.46875,272527.15625,391098.25,342345.875,242373.484375,276924.625,248478.90625,245333.921875,20869.0,1.0,3
231358.71875,272391.15625,391133.65625,342417.46875,241976.515625,276686.4375,248443.3125,245309.515625,20870.0,1.0,3
231777.671875,273237.84375,392274.21875,342771.25,243066.203125,276961.46875,248870.953125,245852.75,20871.0,1.0,3
232223.28125,273904.625,392958.625,342924.15625,244151.328125,277366.46875,249177.171875,246221.828125,20872.0,1.0,3
232089.34375,273477.09375,392234.40625,342663.53125,243735.859375,277352.15625,248942.65625,245912.390625,20873.0,1.0,3
231557.921875,272535.1875,391095.90625,342344.96875,242392.703125,276927.75,248480.875,245338.390625,20874.0,1.0,3
231374.1875,272391.25,391117.90625,342409.875,241981.703125,276686.90625,248435.71875,245291.0,20875.0,1.0,3
231777.671875,273224.59375,392252.03125,342760.8125,243060.5625,276951.28125,248855.65625,245839.875,20876.0,1.0,3
232222.125,273894.71875,392941.09375,342916.28125,244144.8125,277354.59375,249162.859375,246220.21875,20877.0,1.0,3
232095.515625,273475.9375,392222.0,342654.40625,243729.515625,277343.5,248931.84375,245905.671875,20878.0,1.0,3
231566.046875,272537.6875,391081.4375,342334.6875,242386.359375,276922.75,248470.140625,245327.484375,20879.0,1.0,3
231363.71875,272373.375,391091.625,342393.6875,241959.96875,276676.0625,248416.140625,245282.78125,20880.0,1.0,3
231774.90625,273211.09375,392230.3125,342749.96875,243037.140625,276947.78125,248850.46875,245834.0625,20881.0,1.0,3
232232.046875,273896.15625,392931.875,342912.6875,244135.421875,277359.78125,249173.0625,246227.359375,20882.0,1.0,3
232099.625,273475.3125,392215.375,342649.03125,243731.125,277340.5625,248935.859375,245914.984375,20883.0,1.0,3
231567.296875,272533.65625,391071.0625,342325.03125,242386.796875,276917.90625,248470.59375,245335.359375,20884.0,1.0,3
231368.375,272370.25,391072.125,342381.1875,241952.453125,276668.5625,248413.1875,245285.1875,20885.0,1.0,3
231780.359375,273210.125,392206.78125,342737.90625,243023.90625,276936.78125,248843.953125,245830.84375,20886.0,1.0,3
232225.0625,273887.90625,392912.46875,342902.875,244124.78125,277344.40625,249163.21875,246222.71875,20887.0,1.0,3
232096.0625,273473.875,392209.03125,342646.96875,243732.90625,277343.5,248945.0625,245927.21875,20888.0,1.0,3
231571.5,272538.40625,391066.40625,342322.875,242391.984375,276931.875,248493.203125,245354.21875,20889.0,1.0,3
231369.09375,272366.125,391056.9375,342374.84375,241949.515625,276667.75,248425.25,245292.171875,20890.0,1.0,3
231768.375,273190.625,392186.5,342726.28125,243018.09375,276924.53125,248846.984375,245825.5625,20891.0,1.0,3
232226.140625,273881.5625,392905.15625,342893.21875,244136.765625,277339.65625,249172.34375,246223.78125,20892.0,1.0,3
232116.078125,273485.125,392210.625,342639.125,243759.28125,277342.15625,248944.625,245933.21875,20893.0,1.0,3
231579.109375,272536.53125,391055.78125,342312.15625,242414.34375,276924.28125,248488.921875,245359.84375,20894.0,1.0,3
231366.859375,272356.375,391037.4375,342360.0625,241962.109375,276670.875,248423.203125,245285.109375,20895.0,1.0,3
231773.03125,273188.65625,392167.625,342711.09375,243022.84375,276929.09375,248833.578125,245815.375,20896.0,1.0,3
232228.734375,273881.65625,392890.03125,342881.0625,244136.40625,277340.375,249161.609375,246214.21875,20897.0,1.0,3
232109.640625,273483.09375,392202.3125,342629.1875,243766.171875,277347.6875,248941.21875,245914.078125,20898.0,1.0,3
231575.171875,272539.21875,391049.96875,342304.5625,242425.59375,276930.78125,248482.390625,245336.78125,20899.0,1.0,3
231369.984375,272363.53125,391028.9375,342359.71875,241967.75,276675.90625,248422.125,245287.34375,20900.0,1.0,3
231765.34375,273186.4375,392152.25,342713.59375,243016.484375,276929.71875,248839.296875,245829.859375,20901.0,1.0,3
232218.359375,273879.875,392878.25,342879.53125,244133.1875,277341.71875,249159.828125,246207.25,20902.0,1.0,3
232110.1875,273496.5,392199.90625,342631.15625,243773.765625,277349.03125,248945.515625,245919.984375,20903.0,1.0,3
231577.765625,272551.46875,391043.6875,342304.5625,242429.796875,276934.28125,248485.15625,245347.515625,20904.0,1.0,3
231362.5625,272364.4375,391009.28125,342353.28125,241955.5,276678.21875,248421.140625,245279.5625,20905.0,1.0,3
231758.71875,273188.21875,392128.84375,342702.15625,242997.71875,276925.625,248834.828125,245812.34375,20906.0,1.0,3
232210.859375,273883.0,392863.5,342874.96875,244123.796875,277337.6875,249166.34375,246219.859375,20907.0,1.0,3
232104.90625,273504.375,392191.78125,342625.625,243774.03125,277348.78125,248955.703125,245937.421875,20908.0,1.0,3
231578.65625,272563.53125,391038.6875,342296.25,242435.96875,276933.5625,248491.59375,245356.09375,20909.0,1.0,3
231360.421875,272362.46875,390991.75,342338.96875,241952.546875,276668.375,248420.78125,245286.453125,20910.0,1.0,3
231755.0625,273180.0,392108.8125,342690.625,242992.796875,276921.84375,248832.421875,245809.921875,20911.0,1.0,3
232211.484375,273884.34375,392852.75,342869.4375,244128.359375,277340.5625,249169.125,246221.734375,20912.0,1.0,3
232116.078125,273513.3125,392192.3125,342625.96875,243793.890625,277353.96875,248963.125,245946.0,20913.0,1.0,3
231596.359375,272570.6875,391036.53125,342293.125,242454.03125,276934.28125,248490.875,245360.75,20914.0,1.0,3
231376.59375,272361.28125,390982.0,342333.15625,241959.34375,276672.59375,248414.265625,245281.265625,20915.0,1.0,3
231763.375,273172.125,392095.75,342684.09375,242993.515625,276922.5625,248828.03125,245810.90625,20916.0,1.0,3
232224.171875,273881.46875,392846.84375,342859.5,244130.765625,277335.0,249154.1875,246217.796875,20917.0,1.0,3
232135.9375,273519.28125,392191.875,342615.875,243806.9375,277353.25,248946.859375,245947.796875,20918.0,1.0,3
231607.265625,272577.65625,391032.0625,342291.3125,242473.609375,276955.46875,248507.875,245382.640625,20919.0,1.0,3
231377.484375,272365.3125,390965.375,342329.15625,241967.03125,276690.8125,248428.03125,245297.890625,20920.0,1.0,3
231756.671875,273166.84375,392071.25,342672.90625,242985.015625,276928.46875,248823.828125,245813.140625,20921.0,1.0,3
232224.265625,273889.875,392833.96875,342854.9375,244132.109375,277347.78125,249162.6875,246229.328125,20922.0,1.0,3
232135.390625,273536.46875,392187.9375,342611.84375,243818.296875,277361.75,248958.21875,245960.9375,20923.0,1.0,3
231595.640625,272580.875,391016.78125,342273.4375,242472.8125,276943.40625,248482.390625,245367.890625,20924.0,1.0,3
231354.609375,272350.65625,390936.0625,342305.0,241951.65625,276673.5625,248399.15625,245271.78125,20925.0,1.0,3
231742.546875,273158.625,392044.6875,342655.21875,242968.75,276919.4375,248819.71875,245789.71875,20926.0,1.0,3
232211.484375,273882.09375,392813.0625,342839.03125,244113.96875,277335.1875,249162.234375,246214.765625,20927.0,1.0,3
232122.515625,273528.40625,392172.46875,342598.96875,243805.421875,277355.5625,248953.828125,245949.75,20928.0,1.0,3
231595.640625,272580.0625,391006.3125,342260.03125,242465.75,276943.125,248488.015625,245353.328125,20929.0,1.0,3
231355.59375,272349.84375,390920.6875,342290.4375,241940.484375,276671.25,248404.25,245256.578125,20930.0,1.0,3
231733.59375,273151.21875,392023.0625,342638.40625,242948.625,276912.125,248812.84375,245782.390625,20931.0,1.0,3
232211.125,273882.28125,392799.375,342824.71875,244106.453125,277325.875,249155.0,246207.25,20932.0,1.0,3
232128.421875,273534.40625,392168.0,342585.75,243812.65625,277350.65625,248952.3125,245944.125,20933.0,1.0,3
231597.25,272583.90625,390997.5625,342248.9375,242477.375,276952.34375,248494.90625,245366.90625,20934.0,1.0,3
231351.296875,272345.125,390902.0,342279.15625,241942.265625,276687.53125,248417.75,245276.609375,20935.0,1.0,3
231729.75,273141.09375,391998.5625,342622.21875,242943.984375,276908.09375,248808.453125,245787.9375,20936.0,1.0,3
232202.0,273871.8125,392777.65625,342808.375,244104.671875,277325.4375,249151.15625,246215.03125,20937.0,1.0,3
232119.5625,273531.90625,392154.75,342576.1875,243822.765625,277359.3125,248964.203125,245966.5625,20938.0,1.0,3
231590.375,272580.625,390982.0,342237.0625,242487.203125,276950.46875,248489.09375,245375.046875,20939.0,1.0,3
231345.484375,272334.84375,390878.65625,342264.0625,241943.875,276680.1875,248405.765625,245281.171875,20940.0,1.0,3
231722.25,273127.96875,391976.125,342610.3125,242941.484375,276915.59375,248811.9375,245800.71875,20941.0,1.0,3
232194.3125,273857.78125,392759.59375,342795.21875,244102.609375,277322.84375,249146.5,246211.984375,20942.0,1.0,3
232115.90625,273521.78125,392146.71875,342562.59375,243826.78125,277359.5,248965.1875,245958.15625,20943.0,1.0,3
231598.859375,272579.8125,390978.875,342228.65625,242494.171875,276954.03125,248493.203125,245376.203125,20944.0,1.0,3
231351.65625,272326.5,390865.78125,342255.375,241939.671875,276674.90625,248400.578125,245274.015625,20945.0,1.0,3
231724.84375,273117.59375,391959.59375,342605.5,242928.6875,276918.53125,248820.4375,245797.859375,20946.0,1.0,3
232204.5,273855.03125,392752.1875,342797.0,244096.078125,277326.40625,249157.234375,246221.90625,20947.0,1.0,3
232130.921875,273528.40625,392143.59375,342562.9375,243829.828125,277357.96875,248960.265625,245965.40625,20948.0,1.0,3
231608.078125,272585.71875,390976.46875,342230.78125,242500.25,276961.46875,248501.703125,245389.71875,20949.0,1.0,3
231353.4375,272321.0625,390849.875,342248.75,241931.09375,276673.03125,248394.328125,245278.578125,20950.0,1.0,3
231716.4375,273097.90625,391936.25,342587.34375,242908.578125,276898.875,248784.765625,245770.671875,20951.0,1.0,3
232193.15625,273843.21875,392738.3125,342784.75,244084.90625,277316.6875,249142.03125,246207.515625,20952.0,1.0,3
232131.015625,273536.1875,392144.9375,342560.4375,243833.40625,277364.40625,248960.359375,245965.40625,20953.0,1.0,3
231613.4375,272596.34375,390971.09375,342224.90625,242505.078125,276969.6875,248497.5,245376.65625,20954.0,1.0,3
231354.875,272325.71875,390834.75,342239.90625,241930.015625,276670.875,248384.3125,245256.140625,20955.0,1.0,3
231720.015625,273102.3125,391920.5,342585.03125,242907.6875,276892.53125,248787.625,245772.734375,20956.0,1.0,3
232204.328125,273854.03125,392734.90625,342785.125,244093.75,277319.09375,249149.984375,246216.90625,20957.0,1.0,3
232143.171875,273548.8125,392150.1875,342559.625,243853.34375,277363.625,248967.328125,245975.421875,20958.0,1.0,3
231618.171875,272602.875,390972.71875,342219.25,242525.296875,276965.9375,248498.75,245387.03125,20959.0,1.0,3
231359.4375,272325.96875,390826.875,342232.5,241943.875,276681.15625,248394.234375,245268.46875,20960.0,1.0,3
231731.546875,273106.21875,391909.15625,342577.78125,242913.765625,276906.46875,248794.5,245782.75,20961.0,1.0,3
232211.75,273858.3125,392725.4375,342779.65625,244100.546875,277330.0,249151.234375,246227.984375,20962.0,1.0,3
232156.765625,273556.125,392144.65625,342553.5625,243868.984375,277372.5625,248972.78125,245983.640625,20963.0,1.0,3
231631.40625,272604.125,390959.9375,342208.625,242538.171875,276968.875,248495.796875,245386.21875,20964.0,1.0,3
231370.078125,272325.4375,390807.65625,342219.8125,241945.84375,276679.03125,248385.46875,245256.40625,20965.0,1.0,3
231730.921875,273098.1875,391887.53125,342566.78125,242908.578125,276904.5,248790.65625,245767.1875,20966.0,1.0,3
232204.5,273847.6875,392705.25,342766.4375,244094.109375,277321.59375,249143.46875,246208.859375,20967.0,1.0,3
232150.59375,273554.4375,392128.90625,342543.0,243870.59375,277364.96875,248964.375,245975.6875,20968.0,1.0,3
231631.9375,272612.625,390949.375,342203.78125,242545.578125,276972.90625,248511.0,245395.875,20969.0,1.0,3
231365.0625,272325.0,390791.125,342215.40625,241943.25,276679.21875,248404.15625,245276.34375,20970.0,1.0,3
231717.953125,273089.96875,391864.0,342558.375,242895.609375,276894.9375,248790.84375,245780.0625,20971.0,1.0,3
232196.8125,273849.46875,392687.625,342760.4375,244087.046875,277317.46875,249148.65625,246214.671875,20972.0,1.0,3
232149.078125,273563.28125,392120.34375,342539.96875,243870.0625,277365.40625,248970.546875,245987.046875,20973.0,1.0,3
231629.96875,272614.59375,390937.5625,342200.03125,242545.40625,276968.625,248502.953125,245406.4375,20974.0,1.0,3
231363.640625,272325.4375,390768.3125,342207.09375,241933.59375,276681.96875,248395.03125,245266.953125,20975.0,1.0,3
231714.109375,273087.90625,391841.5625,342549.71875,242881.484375,276903.96875,248789.953125,245763.34375,20976.0,1.0,3
232192.609375,273844.90625,392667.25,342749.34375,244072.921875,277310.78125,249136.484375,246203.140625,20977.0,1.0,3
232150.140625,273567.125,392110.6875,342531.1875,243870.5,277365.40625,248962.140625,245977.734375,20978.0,1.0,3
231630.0625,272615.84375,390926.9375,342187.0,242546.65625,276961.90625,248487.390625,245390.25,20979.0,1.0,3
231358.625,272312.03125,390748.375,342187.78125,241927.421875,276659.1875,248367.765625,245251.9375,20980.0,1.0,3
231708.46875,273072.34375,391813.5,342525.65625,242868.078125,276872.6875,248762.046875,245751.0,20981.0,1.0,3
232195.03125,273842.40625,392652.03125,342733.09375,244070.328125,277297.46875,249127.8125,246199.109375,20982.0,1.0,3
232150.6875,273566.6875,392105.59375,342521.0,243881.0625,277361.5625,248970.90625,245990.34375,20983.0,1.0,3
231631.40625,272618.53125,390920.21875,342176.6875,242557.125,276966.375,248502.59375,245400.078125,20984.0,1.0,3
231356.484375,272306.3125,390727.375,342172.59375,241923.9375,276660.59375,248371.609375,245251.21875,20985.0,1.0,3
231702.390625,273059.75,391788.46875,342510.5625,242854.3125,276867.0625,248761.96875,245746.4375,20986.0,1.0,3
232194.484375,273835.71875,392640.0625,342721.90625,244064.609375,277295.21875,249128.625,246192.9375,20987.0,1.0,3
232156.9375,273568.5625,392101.125,342507.0625,243883.109375,277360.65625,248962.140625,245979.4375,20988.0,1.0,3
231634.171875,272617.53125,390910.03125,342157.75,242558.109375,276963.53125,248494.546875,245388.109375,20989.0,1.0,3
231354.15625,272301.40625,390711.46875,342156.59375,241917.953125,276656.40625,248370.09375,245241.75,20990.0,1.0,3
231709.453125,273059.5625,391773.78125,342498.75,242844.921875,276863.125,248752.125,245736.703125,20991.0,1.0,3
232198.25,273831.9375,392621.90625,342709.125,244053.171875,277282.25,249119.953125,246195.625,20992.0,1.0,3
232160.609375,273568.75,392090.65625,342502.40625,243883.109375,277353.0625,248966.34375,245987.671875,20993.0,1.0,3
231642.9375,272621.125,390902.53125,342157.9375,242565.078125,276965.40625,248503.9375,245395.515625,20994.0,1.0,3
231357.203125,272295.9375,390692.6875,342150.3125,241912.40625,276663.28125,248375.8125,245240.140625,20995.0,1.0,3
231704.90625,273048.5625,391749.9375,342492.84375,242832.84375,276878.21875,248775.734375,245743.859375,20996.0,1.0,3
232193.15625,273826.125,392605.90625,342707.78125,244049.140625,277298.71875,249146.0625,246208.046875,20997.0,1.0,3
232157.484375,273567.84375,392075.71875,342493.65625,243884.71875,277357.8125,248975.46875,245987.046875,20998.0,1.0,3
231646.25,272627.5625,390887.15625,342149.34375,242568.828125,276970.03125,248508.140625,245404.828125,20999.0,1.0,3
231351.109375,272288.0625,390667.28125,342138.0,241904.1875,276658.1875,248366.78125,245242.71875,21000.0,1.0,3
231690.0625,273031.65625,391720.0625,342471.9375,242812.203125,276859.90625,248748.640625,245718.453125,21001.0,1.0,3
232190.203125,273827.5625,392593.75,342695.875,244037.25,277294.9375,249135.421875,246192.5,21002.0,1.0,3
232164.984375,273588.75,392085.46875,342497.6875,243894.921875,277379.875,248991.203125,245998.21875,21003.0,1.0,3
231648.9375,272639.34375,390891.71875,342144.875,242579.5625,276980.6875,248503.3125,245398.390625,21004.0,1.0,3
231359.703125,272298.71875,390659.59375,342131.09375,241909.015625,276654.34375,248355.4375,245237.8125,21005.0,1.0,3
231699.890625,273041.15625,391709.5,342469.875,242816.21875,276857.9375,248745.515625,245728.203125,21006.0,1.0,3
232195.5625,273833.75,392586.875,342689.0,244047.71875,277288.96875,249121.203125,246194.015625,21007.0,1.0,3
232169.015625,273593.84375,392085.65625,342490.25,243913.25,277372.03125,248983.609375,246007.328125,21008.0,1.0,3
231656.34375,272652.84375,390895.1875,342142.90625,242602.53125,276989.8125,248512.96875,245417.0625,21009.0,1.0,3
231355.765625,272305.5,390651.46875,342122.875,241917.5,276672.6875,248367.234375,245240.671875,21010.0,1.0,3
231689.796875,273041.15625,391695.21875,342459.3125,242810.5,276868.03125,248748.109375,245727.140625,21011.0,1.0,3
232184.65625,273834.375,392577.125,342683.46875,244040.375,277301.46875,249132.828125,246196.34375,21012.0,1.0,3
232161.859375,273600.03125,392080.09375,342482.28125,243910.65625,277377.03125,248983.96875,245999.109375,21013.0,1.0,3
231653.9375,272658.3125,390888.65625,342134.875,242602.984375,276993.46875,248519.484375,245415.28125,21014.0,1.0,3
231353.890625,272298.96875,390636.53125,342114.3125,241909.984375,276667.3125,248367.140625,245242.90625,21015.0,1.0,3
231684.6875,273028.625,391673.9375,342450.8125,242796.109375,276859.8125,248747.390625,245725.96875,21016.0,1.0,3
232181.078125,273826.6875,392560.125,342676.21875,244029.296875,277286.1875,249122.71875,246196.15625,21017.0,1.0,3
232164.09375,273599.40625,392070.71875,342475.9375,243909.671875,277357.0,248970.375,246001.796875,21018.0,1.0,3
231662.34375,272660.375,390880.0,342130.46875,242606.375,276976.3125,248509.75,245414.828125,21019.0,1.0,3
231360.859375,272301.125,390625.625,342113.21875,241908.296875,276663.1875,248367.234375,245240.484375,21020.0,1.0,3
231686.296875,273029.15625,391662.125,342452.96875,242785.375,276856.15625,248752.21875,245727.046875,21021.0,1.0,3
232191.546875,273835.78125,392559.3125,342685.875,244025.625,277286.28125,249137.828125,246213.859375,21022.0,1.0,3
232178.9375,273615.21875,392080.8125,342487.03125,243919.40625,277370.15625,248990.484375,246021.28125,21023.0,1.0,3
231671.1875,272672.4375,390884.46875,342133.96875,242616.9375,276992.65625,248525.65625,245417.15625,21024.0,1.0,3
231368.109375,272304.875,390613.5625,342107.40625,241905.34375,276669.8125,248376.984375,245230.203125,21025.0,1.0,3
231692.921875,273025.9375,391643.625,342442.78125,242776.25,276856.6875,248746.140625,245709.515625,21026.0,1.0,3
232195.125,273834.71875,392546.1875,342672.46875,244018.921875,277287.875,249124.421875,246185.796875,21027.0,1.0,3
232200.125,273631.6875,392083.5,342482.75,243931.65625,277382.5625,248994.421875,246011.453125,21028.0,1.0,3
231689.515625,272684.9375,390886.6875,342132.0,242635.4375,277004.65625,248534.6875,245432.265625,21029.0,1.0,3
231372.578125,272302.71875,390601.21875,342100.15625,241913.203125,276678.9375,248372.234375,245241.921875,21030.0,1.0,3
231698.90625,273023.53125,391623.875,342430.15625,242775.09375,276860.34375,248741.046875,245713.0,21031.0,1.0,3
232196.453125,273831.3125,392528.9375,342661.5625,244018.828125,277283.3125,249123.171875,246193.484375,21032.0,1.0,3
232196.1875,273631.3125,392077.59375,342475.21875,243941.9375,277383.8125,249002.015625,246020.203125,21033.0,1.0,3
231692.03125,272691.5625,390883.9375,342125.46875,242649.65625,277011.71875,248545.859375,245437.09375,21034.0,1.0,3
231378.828125,272306.9375,390593.90625,342094.28125,241924.390625,276685.8125,248386.28125,245248.53125,21035.0,1.0,3
231693.90625,273013.6875,391613.75,342429.0,242776.875,276863.46875,248748.640625,245720.703125,21036.0,1.0,3
232197.4375,273829.34375,392525.96875,342665.3125,244025.984375,277289.40625,249131.578125,246206.171875,21037.0,1.0,3
232202.71875,273636.875,392072.0625,342472.625,243950.53125,277380.6875,248997.46875,246023.0625,21038.0,1.0,3
231702.03125,272698.90625,390881.875,342125.03125,242659.578125,277014.84375,248543.0,245437.453125,21039.0,1.0,3
231384.203125,272309.625,390585.125,342091.125,241920.8125,276679.5625,248373.3125,245241.109375,21040.0,1.0,3
231693.984375,273011.0,391596.6875,342417.84375,242762.75,276846.75,248730.3125,245710.140625,21041.0,1.0,3
232193.328125,273826.125,392513.375,342651.53125,244016.421875,277281.28125,249131.21875,246203.671875,21042.0,1.0,3
232203.609375,273643.75,392069.90625,342461.8125,243955.984375,277382.125,249008.28125,246032.71875,21043.0,1.0,3
231699.71875,272703.53125,390871.15625,342109.65625,242663.515625,277015.03125,248547.296875,245439.875,21044.0,1.0,3
231381.875,272310.34375,390562.59375,342074.5,241916.34375,276685.375,248378.140625,245240.484375,21045.0,1.0,3
231682.453125,273004.125,391565.03125,342400.5625,242750.5,276845.0625,248735.234375,245704.0625,21046.0,1.0,3
232177.953125,273821.21875,392486.71875,342636.6875,244004.796875,277273.5,249133.71875,246194.375,21047.0,1.0,3
232193.59375,273647.40625,392058.46875,342454.125,243958.21875,277384.09375,249019.359375,246036.75,21048.0,1.0,3
231690.0625,272709.0,390860.875,342098.21875,242669.5,277013.125,248550.875,245440.21875,21049.0,1.0,3
231371.40625,272312.03125,390549.375,342065.5625,241917.046875,276686.96875,248385.375,245241.921875,21050.0,1.0,3
231675.3125,273002.34375,391549.90625,342392.0,242743.265625,276847.8125,248738.8125,245703.53125,21051.0,1.0,3
232174.828125,273820.9375,392475.90625,342628.5625,244000.859375,277277.53125,249139.171875,246194.015625,21052.0,1.0,3
232189.484375,273647.875,392048.625,342444.21875,243962.59375,277381.5,249014.625,246031.75,21053.0,1.0,3
231683.625,272706.40625,390844.15625,342083.53125,242677.28125,277007.5,248537.90625,245429.3125,21054.0,1.0,3
231359.703125,272301.125,390519.3125,342046.15625,241920.0,276680.0,248373.125,245230.921875,21055.0,1.0,3
231658.859375,272991.0625,391516.40625,342374.125,242740.765625,276850.6875,248735.5,245692.078125,21056.0,1.0,3
232162.03125,273815.84375,392447.65625,342611.59375,243996.84375,277271.09375,249118.609375,246173.90625,21057.0,1.0,3
232184.921875,273655.625,392035.21875,342434.375,243971.1875,277382.5625,249011.671875,246029.78125,21058.0,1.0,3
231685.671875,272721.25,390837.96875,342083.0,242691.765625,277020.28125,248555.515625,245457.21875,21059.0,1.0,3
231357.828125,272306.9375,390502.59375,342035.96875,241919.828125,276684.5625,248372.0625,245230.296875,21060.0,1.0,3
231654.65625,272987.5,391492.53125,342358.5625,242728.15625,276844.0625,248727.1875,245682.703125,21061.0,1.0,3
232161.765625,273817.1875,392434.875,342604.6875,243994.25,277278.0625,249133.71875,246184.359375,21062.0,1.0,3
232185.28125,273665.28125,392031.09375,342431.6875,243976.984375,277397.15625,249033.578125,246038.53125,21063.0,1.0,3
231685.140625,272733.6875,390832.6875,342078.28125,242696.234375,277035.9375,248572.78125,245454.265625,21064.0,1.0,3
231352.90625,272314.0,390490.1875,342031.3125,241912.859375,276698.96875,248398.796875,245240.21875,21065.0,1.0,3
231651.703125,272997.875,391478.125,342353.5625,242714.5625,276852.125,248743.90625,245691.1875,21066.0,1.0,3
232157.65625,273828.71875,392419.03125,342595.03125,243979.3125,277274.125,249136.40625,246186.953125,21067.0,1.0,3
232188.59375,273684.875,392024.9375,342425.4375,243974.75,277399.8125,249040.203125,246050.34375,21068.0,1.0,3
231693.546875,272751.75,390827.0625,342071.46875,242698.734375,277040.125,248572.234375,245465.34375,21069.0,1.0,3
231351.109375,272318.03125,390473.1875,342021.03125,241906.953125,276696.1875,248386.09375,245247.015625,21070.0,1.0,3
231645.53125,272991.53125,391458.46875,342347.5625,242703.828125,276849.71875,248738.1875,245703.796875,21071.0,1.0,3
232153.0,273825.5,392407.0625,342590.84375,243973.140625,277277.78125,249139.796875,246196.703125,21072.0,1.0,3
232186.625,273685.59375,392022.71875,342419.4375,243979.40625,277409.5625,249041.453125,246052.3125,21073.0,1.0,3
231690.859375,272748.4375,390822.875,342059.21875,242706.515625,277041.84375,248563.390625,245458.203125,21074.0,1.0,3
231352.015625,272307.90625,390459.875,342009.0625,241911.59375,276695.5625,248373.578125,245235.65625,21075.0,1.0,3
231650.453125,272984.46875,391444.25,342333.0625,242704.375,276852.65625,248736.390625,245689.578125,21076.0,1.0,3
232164.71875,273827.03125,392401.875,342579.9375,243981.90625,277280.90625,249145.4375,246192.046875,21077.0,1.0,3
232198.0625,273689.0,392021.0,342406.65625,243993.078125,277400.53125,249034.65625,246050.515625,21078.0,1.0,3
231702.75,272753.78125,390824.125,342047.96875,242725.390625,277044.0,248570.28125,245466.953125,21079.0,1.0,3
231356.921875,272305.25,390453.15625,341991.1875,241917.140625,276698.875,248382.078125,245239.78125,21080.0,1.0,3
231647.046875,272972.03125,391428.0625,342313.9375,242696.421875,276849.34375,248740.859375,245691.640625,21081.0,1.0,3
232160.703125,273814.4375,392392.59375,342566.875,243976.984375,277284.3125,249157.140625,246204.03125,21082.0,1.0,3
232196.453125,273683.34375,392021.46875,342399.9375,244001.40625,277413.0625,249061.484375,246070.90625,21083.0,1.0,3
231705.171875,272757.28125,390821.6875,342039.375,242736.015625,277057.125,248589.234375,245469.8125,21084.0,1.0,3
231357.46875,272303.1875,390439.125,341978.65625,241916.78125,276702.375,248386.359375,245231.453125,21085.0,1.0,3
231637.3125,272956.65625,391409.1875,342300.0,242684.703125,276844.25,248731.296875,245673.3125,21086.0,1.0,3
232148.984375,273799.84375,392377.21875,342552.9375,243963.84375,277269.65625,249130.40625,246175.421875,21087.0,1.0,3
232193.953125,273681.03125,392015.46875,342389.125,243999.703125,277403.3125,249037.15625,246050.78125,21088.0,1.0,3
231703.828125,272760.5,390816.4375,342031.875,242737.1875,277050.78125,248576.71875,245472.40625,21089.0,1.0,3
231355.234375,272306.84375,390424.46875,341972.125,241912.046875,276698.78125,248379.125,245229.765625,21090.0,1.0,3
231634.53125,272960.78125,391388.28125,342293.65625,242674.0625,276841.03125,248722.453125,245673.3125,21091.0,1.0,3
232143.34375,273808.71875,392364.6875,342548.375,243957.140625,277272.96875,249135.78125,246181.59375,21092.0,1.0,3
232195.65625,273700.875,392017.96875,342387.0625,244005.328125,277410.90625,249051.015625,246058.828125,21093.0,1.0,3
231706.59375,272774.625,390818.65625,342029.1875,242743.0,277052.375,248585.203125,245474.828125,21094.0,1.0,3
231356.75,272315.25,390422.5,341967.59375,241913.390625,276707.8125,248391.640625,245237.546875,21095.0,1.0,3
231632.21875,272962.5625,391380.75,342288.0,242671.921875,276845.9375,248731.65625,245678.578125,21096.0,1.0,3
232143.078125,273808.53125,392357.0,342542.375,243956.875,277270.8125,249139.796875,246189.1875,21097.0,1.0,3
232199.953125,273705.875,392014.125,342380.8125,244012.75,277408.6875,249054.765625,246065.8125,21098.0,1.0,3
231714.640625,272781.875,390819.65625,342024.25,242760.78125,277062.40625,248598.890625,245492.171875,21099.0,1.0,3
231355.59375,272309.0,390411.3125,341957.46875,241919.5625,276709.34375,248389.21875,245238.34375,21100.0,1.0,3
231630.78125,272953.96875,391362.34375,342271.75,242666.28125,276842.09375,248722.71875,245659.265625,21101.0,1.0,3
232140.578125,273799.40625,392340.53125,342527.53125,243953.296875,277262.9375,249127.640625,246170.765625,21102.0,1.0,3
232204.78125,273708.125,392010.8125,342374.1875,244022.859375,277411.1875,249056.828125,246063.921875,21103.0,1.0,3
231722.953125,272786.875,390817.21875,342021.3125,242776.34375,277072.6875,248609.4375,245492.078125,21104.0,1.0,3
231359.609375,272302.46875,390398.4375,341953.1875,241925.734375,276716.40625,248398.875,245247.46875,21105.0,1.0,3
231632.5625,272939.75,391342.75,342267.4375,242661.375,276838.96875,248717.796875,245669.640625,21106.0,1.0,3
232150.234375,273797.53125,392331.59375,342525.65625,243954.109375,277265.0,249123.078125,246170.765625,21107.0,1.0,3
232211.921875,273708.125,392008.75,342375.375,244034.5625,277413.40625,249054.859375,246068.484375,21108.0,1.0,3
231729.84375,272786.5,390809.8125,342016.125,242784.296875,277065.8125,248587.4375,245479.828125,21109.0,1.0,3
231368.375,272302.03125,390383.875,341948.4375,241924.828125,276712.90625,248386.546875,245235.578125,21110.0,1.0,3
231630.0625,272932.34375,391318.34375,342259.6875,242647.234375,276834.6875,248719.671875,245666.609375,21111.0,1.0,3
232140.21875,273787.15625,392307.8125,342519.65625,243939.703125,277266.59375,249134.515625,246173.71875,21112.0,1.0,3
232206.5625,273703.21875,391995.15625,342373.75,244032.0625,277414.21875,249062.015625,246076.453125,21113.0,1.0,3
231731.0,272790.1875,390801.9375,342018.0,242789.9375,277074.375,248608.625,245502.0,21114.0,1.0,3
231360.59375,272297.46875,390362.25,341936.8125,241919.375,276713.34375,248384.125,245233.15625,21115.0,1.0,3
231615.40625,272922.3125,391296.4375,342247.4375,242637.578125,276844.59375,248717.890625,245652.5625,21116.0,1.0,3
232131.015625,273784.65625,392294.5,342511.25,243934.796875,277271.71875,249131.921875,246174.171875,21117.0,1.0,3
232204.140625,273713.03125,391985.15625,342361.25,244035.828125,277418.0625,249058.4375,246076.453125,21118.0,1.0,3
231724.21875,272793.125,390786.125,341999.84375,242798.34375,277074.375,248595.390625,245495.296875,21119.0,1.0,3
231351.828125,272289.21875,390338.28125,341921.0,241923.765625,276711.84375,248379.125,245231.109375,21120.0,1.0,3
231614.59375,272915.25,391270.625,342236.59375,242637.671875,276837.46875,248716.28125,245664.375,21121.0,1.0,3
232135.484375,273783.9375,392271.875,342500.96875,243934.703125,277267.5,249133.53125,246182.21875,21122.0,1.0,3
232213.984375,273721.0,391978.8125,342358.1875,244047.796875,277425.5625,249072.296875,246092.359375,21123.0,1.0,3
231734.5,272798.84375,390781.03125,341996.71875,242815.0625,277079.65625,248603.625,245506.5625,21124.0,1.0,3
231368.109375,272297.375,390329.25,341912.6875,241934.21875,276720.96875,248384.046875,245228.6875,21125.0,1.0,3
231624.796875,272915.78125,391256.5625,342224.8125,242636.78125,276845.40625,248718.0625,245657.578125,21126.0,1.0,3
232137.265625,273779.28125,392255.53125,342486.9375,243932.015625,277264.28125,249121.375,246172.828125,21127.0,1.0,3
232213.09375,273717.34375,391964.3125,342342.71875,244050.484375,277415.375,249060.21875,246083.859375,21128.0,1.0,3
231748.171875,272807.96875,390772.71875,341987.25,242822.84375,277080.1875,248613.015625,245516.40625,21129.0,1.0,3
231372.125,272294.59375,390309.84375,341904.1875,241929.84375,276717.65625,248392.09375,245247.46875,21130.0,1.0,3
231618.359375,272900.40625,391224.65625,342209.96875,242617.375,276829.0625,248697.234375,245646.046875,21131.0,1.0,3
232133.25,273768.375,392236.375,342479.15625,243917.796875,277252.9375,249116.8125,246173.71875,21132.0,1.0,3
232219.171875,273719.5625,391959.5,342339.6875,244048.25,277412.78125,249064.875,246085.65625,21133.0,1.0,3
231749.78125,272807.4375,390766.96875,341982.875,242822.75,277083.9375,248621.234375,245510.5,21134.0,1.0,3
231369.71875,272291.8125,390294.5625,341900.15625,241921.703125,276725.78125,248398.171875,245247.375,21135.0,1.0,3
231607.796875,272893.34375,391199.09375,342201.8125,242597.4375,276826.375,248694.640625,245645.140625,21136.0,1.0,3
232134.859375,273775.1875,392214.75,342470.40625,243905.5625,277253.46875,249110.203125,246157.890625,21137.0,1.0,3
232221.3125,273730.03125,391942.3125,342330.65625,244047.890625,277416.8125,249058.796875,246078.765625,21138.0,1.0,3
231746.109375,272817.09375,390746.34375,341968.375,242824.0,277078.3125,248604.609375,245504.78125,21139.0,1.0,3
231360.140625,272289.3125,390260.21875,341878.34375,241912.3125,276704.25,248369.640625,245227.53125,21140.0,1.0,3
231602.890625,272887.53125,391164.40625,342185.03125,242587.34375,276815.46875,248690.703125,245636.390625,21141.0,1.0,3
232125.734375,273769.53125,392190.6875,342460.40625,243900.90625,277251.15625,249124.421875,246169.25,21142.0,1.0,3
232214.703125,273731.53125,391932.6875,342322.78125,244055.578125,277418.875,249076.859375,246095.671875,21143.0,1.0,3
231745.3125,272821.28125,390738.5625,341959.1875,242838.578125,277089.59375,248612.03125,245506.828125,21144.0,1.0,3
231361.484375,272290.3125,390246.0,341863.5,241920.546875,276710.5,248362.578125,245214.5625,21145.0,1.0,3
231597.25,272879.6875,391144.0,342164.8125,242581.96875,276803.9375,248670.953125,245620.734375,21146.0,1.0,3
232117.421875,273762.84375,392176.84375,342441.625,243895.8125,277236.65625,249102.25,246156.375,21147.0,1.0,3
232213.53125,273736.28125,391932.59375,342313.3125,244067.203125,277412.25,249064.34375,246093.96875,21148.0,1.0,3
231743.96875,272826.21875,390741.5,341952.5625,242855.5625,277083.9375,248611.9375,245519.265625,21149.0,1.0,3
231356.75,272286.375,390241.8125,341857.34375,241928.953125,276706.28125,248372.15625,245228.421875,21150.0,1.0,3
231594.75,272871.90625,391133.1875,342157.9375,242578.484375,276807.40625,248677.109375,245621.359375,21151.0,1.0,3
232111.078125,273747.09375,392164.59375,342435.90625,243887.140625,277232.1875,249104.65625,246154.859375,21152.0,1.0,3
232218.984375,273733.78125,391930.09375,342311.875,244066.578125,277409.46875,249067.203125,246094.59375,21153.0,1.0,3
231760.6875,272834.15625,390742.5,341953.625,242863.96875,277085.375,248618.28125,245521.234375,21154.0,1.0,3
231356.5625,272277.4375,390225.96875,341849.03125,241924.390625,276700.65625,248362.140625,245216.171875,21155.0,1.0,3
231581.875,272852.0625,391108.6875,342148.90625,242562.125,276799.8125,248669.421875,245612.0625,21156.0,1.0,3
232111.515625,273742.1875,392149.03125,342430.625,243874.171875,277229.0625,249102.25,246148.15625,21157.0,1.0,3
232212.734375,273726.625,391922.46875,342306.6875,244062.375,277408.6875,249066.125,246091.46875,21158.0,1.0,3
231746.828125,272823.09375,390733.90625,341946.3125,242858.6875,277086.375,248613.640625,245519.4375,21159.0,1.0,3
231351.5625,272270.09375,390212.5625,341842.5,241916.421875,276708.09375,248370.0,245224.046875,21160.0,1.0,3
231578.296875,272843.8125,391092.78125,342143.25,242549.96875,276801.875,248676.3125,245625.828125,21161.0,1.0,3
232101.515625,273733.6875,392137.0625,342426.96875,243866.125,277222.71875,249101.0,246165.859375,21162.0,1.0,3
232213.890625,273737.625,391925.59375,342308.84375,244068.90625,277410.03125,249073.71875,246123.203125,21163.0,1.0,3
231758.90625,272841.84375,390735.5,341940.40625,242867.546875,277088.40625,248611.046875,245529.453125,21164.0,1.0,3
231362.375,272282.71875,390203.28125,341830.96875,241917.046875,276712.03125,248365.890625,245215.90625,21165.0,1.0,3
231584.296875,272849.71875,391074.71875,342129.9375,242541.734375,276807.25,248668.796875,245608.3125,21166.0,1.0,3
232112.234375,273743.15625,392125.78125,342419.0,243866.484375,277239.25,249111.71875,246156.5625,21167.0,1.0,3
232227.125,273749.59375,391920.0625,342300.1875,244078.46875,277422.96875,249078.640625,246110.234375,21168.0,1.0,3
231770.4375,272855.28125,390736.84375,341940.84375,242888.46875,277107.375,248631.34375,245543.484375,21169.0,1.0,3
231368.90625,272288.78125,390194.875,341827.46875,241926.703125,276723.71875,248373.765625,245228.0625,21170.0,1.0,3
231586.53125,272843.5625,391057.125,342118.40625,242539.234375,276802.75,248657.71875,245600.265625,21171.0,1.0,3
232112.0625,273735.5625,392108.8125,342401.5625,243858.4375,277218.34375,249087.40625,246142.96875,21172.0,1.0,3
232232.671875,273750.9375,391913.8125,342289.96875,244085.171875,277415.46875,249077.03125,246110.234375,21173.0,1.0,3
231781.875,272860.8125,390730.9375,341931.28125,242900.265625,277099.15625,248622.125,245535.359375,21174.0,1.0,3
231372.84375,272284.21875,390180.46875,341815.84375,241930.015625,276712.46875,248366.609375,245212.15625,21175.0,1.0,3
231582.328125,272834.875,391036.71875,342112.40625,242531.546875,276802.125,248665.140625,245599.109375,21176.0,1.0,3
232102.84375,273723.59375,392087.875,342395.5625,243846.28125,277212.15625,249084.1875,246135.453125,21177.0,1.0,3
232234.546875,273749.34375,391903.34375,342285.25,244084.09375,277403.75,249066.9375,246103.0,21178.0,1.0,3
231783.046875,272859.5625,390722.625,341924.3125,242904.109375,277095.84375,248618.28125,245536.96875,21179.0,1.0,3
231375.703125,272281.8125,390166.0,341807.8125,241929.296875,276713.71875,248361.15625,245218.765625,21180.0,1.0,3
231580.796875,272825.75,391015.28125,342099.28125,242520.8125,276795.34375,248657.453125,245597.765625,21181.0,1.0,3
232100.890625,273725.03125,392077.15625,342387.15625,243840.46875,277221.46875,249094.203125,246143.765625,21182.0,1.0,3
232231.859375,273759.53125,391898.59375,342272.90625,244082.671875,277412.15625,249071.84375,246106.9375,21183.0,1.0,3
231777.859375,272868.15625,390716.90625,341911.53125,242905.53125,277107.1875,248630.171875,245539.828125,21184.0,1.0,3
231373.109375,272293.34375,390154.8125,341800.3125,241926.53125,276733.65625,248384.046875,245226.0,21185.0,1.0,3
231578.828125,272836.125,390999.625,342092.46875,242513.21875,276809.46875,248672.375,245603.484375,21186.0,1.0,3
232099.28125,273729.65625,392061.5,342379.5625,243831.96875,277223.4375,249090.796875,246148.515625,21187.0,1.0,3
232235.890625,273764.90625,391891.09375,342268.15625,244085.796875,277412.0625,249068.890625,246113.375,21188.0,1.0,3
231789.296875,272878.0625,390715.3125,341909.46875,242917.875,277109.4375,248632.765625,245556.546875,21189.0,1.0,3
231380.703125,272288.78125,390145.59375,341790.28125,241933.421875,276727.46875,248378.234375,245233.703125,21190.0,1.0,3
231573.203125,272815.21875,390978.53125,342077.1875,242503.75,276798.125,248662.546875,245608.40625,21191.0,1.0,3
232100.796875,273719.28125,392044.34375,342364.90625,243828.21875,277217.25,249089.734375,246142.515625,21192.0,1.0,3
232238.296875,273765.6875,391883.84375,342258.6875,244096.171875,277414.65625,249078.546875,246112.921875,21193.0,1.0,3
231791.71875,272883.0625,390706.71875,341898.90625,242932.265625,277115.25,248641.625,245547.328125,21194.0,1.0,3
231370.875,272281.625,390122.4375,341778.9375,241936.546875,276733.46875,248375.8125,245219.484375,21195.0,1.0,3
231567.578125,272807.4375,390948.3125,342064.84375,242498.296875,276797.125,248656.28125,245585.15625,21196.0,1.0,3
232094.359375,273711.34375,392019.75,342354.0,243819.359375,277208.125,249087.671875,246133.125,21197.0,1.0,3
232233.03125,273759.09375,391868.375,342250.46875,244091.703125,277397.59375,249069.25,246115.421875,21198.0,1.0,3
231791.09375,272879.0625,390694.03125,341889.78125,242931.5625,277097.28125,248623.296875,245546.078125,21199.0,1.0,3
231367.203125,272269.375,390101.09375,341764.34375,241924.75,276708.25,248354.09375,245210.625,21200.0,1.0,3
231562.390625,272794.84375,390928.1875,342057.625,242481.21875,276782.03125,248647.796875,245589.453125,21201.0,1.0,3
232090.515625,273702.03125,392004.375,342353.46875,243807.390625,277202.875,249086.78125,246143.140625,21202.0,1.0,3
232235.796875,273760.59375,391862.03125,342247.96875,244090.8125,277402.15625,249077.484375,246118.015625,21203.0,1.0,3
231791.09375,272885.5625,390689.65625,341888.1875,242936.296875,277108.96875,248639.03125,245560.203125,21204.0,1.0,3
231369.796875,272274.03125,390090.625,341757.90625,241924.65625,276712.28125,248355.34375,245216.171875,21205.0,1.0,3
231561.046875,272787.5,390907.09375,342042.59375,242467.984375,276773.53125,248634.375,245578.453125,21206.0,1.0,3
232089.625,273698.375,391988.65625,342341.46875,243796.125,277201.59375,249087.9375,246134.921875,21207.0,1.0,3
232236.6875,273767.5625,391857.03125,342243.5,244093.484375,277409.84375,249088.828125,246123.109375,21208.0,1.0,3
231793.6875,272889.875,390681.78125,341877.1875,242940.046875,277105.40625,248634.640625,245548.5,21209.0,1.0,3
231371.234375,272277.15625,390072.75,341747.625,241921.078125,276708.25,248354.359375,245208.84375,21210.0,1.0,3
231553.625,272784.71875,390881.0625,342032.75,242456.53125,276772.1875,248633.3125,245570.046875,21211.0,1.0,3
232078.265625,273695.4375,391971.46875,342338.0,243788.515625,277201.53125,249093.390625,246137.0625,21212.0,1.0,3
232235.796875,273773.9375,391854.4375,342242.25,244099.203125,277410.90625,249096.609375,246127.5,21213.0,1.0,3
231801.546875,272901.5,390685.1875,341879.0625,242954.71875,277117.125,248647.96875,245558.78125,21214.0,1.0,3
231372.390625,272279.03125,390067.09375,341743.625,241928.671875,276723.1875,248368.390625,245209.640625,21215.0,1.0,3
231553.265625,272780.53125,390863.90625,342018.8125,242451.078125,276774.15625,248638.84375,245566.296875,21216.0,1.0,3
232073.796875,273689.53125,391952.53125,342321.71875,243781.71875,277198.46875,249096.875,246143.953125,21217.0,1.0,3
232228.828125,273770.875,391842.90625,342232.75,244101.984375,277406.8125,249094.640625,246139.75,21218.0,1.0,3
231801.453125,272901.75,390670.875,341867.4375,242962.84375,277102.71875,248637.953125,245552.875,21219.0,1.0,3
231371.765625,272272.34375,390046.09375,341729.9375,241928.234375,276707.71875,248351.046875,245201.234375,21220.0,1.0,3
231546.921875,272765.59375,390841.71875,342009.5,242441.421875,276762.4375,248624.015625,245555.03125,21221.0,1.0,3
232076.03125,273679.875,391933.46875,342311.0,243773.234375,277184.53125,249074.53125,246115.609375,21222.0,1.0,3
232228.015625,273763.1875,391831.65625,342220.25,244100.8125,277401.0625,249087.765625,246122.046875,21223.0,1.0,3
231797.53125,272901.3125,390667.84375,341859.84375,242966.875,277114.875,248655.484375,245563.96875,21224.0,1.0,3
231369.625,272269.84375,390037.15625,341722.34375,241928.140625,276715.9375,248365.984375,245213.484375,21225.0,1.0,3
231541.828125,272755.5,390825.0,342000.75,242433.109375,276758.0625,248624.640625,245567.546875,21226.0,1.0,3
232070.484375,273671.8125,391920.5,342302.0625,243764.375,277179.625,249068.625,246116.671875,21227.0,1.0,3
232237.671875,273772.125,391829.0625,342215.3125,244103.953125,277400.625,249083.5625,246123.03125,21228.0,1.0,3
231804.234375,272909.8125,390663.90625,341850.625,242973.671875,277112.75,248639.828125,245559.40625,21229.0,1.0,3
231367.390625,272270.46875,390021.5,341709.28125,241927.0625,276714.4375,248350.15625,245207.859375,21230.0,1.0,3
231544.59375,272756.90625,390802.21875,341986.0,242422.65625,276763.59375,248614.078125,245545.8125,21231.0,1.0,3
232073.875,273673.78125,391902.90625,342290.96875,243755.53125,277187.5625,249069.796875,246109.96875,21232.0,1.0,3
232245.359375,273779.5625,391823.6875,342210.9375,244111.546875,277411.625,249097.15625,246134.828125,21233.0,1.0,3
231818.984375,272923.5,390664.6875,341853.59375,242993.96875,277140.0,248669.515625,245583.28125,21234.0,1.0,3
231382.40625,272282.4375,390013.1875,341705.71875,241941.109375,276741.53125,248380.375,245211.703125,21235.0,1.0,3
231544.6875,272752.8125,390784.15625,341976.96875,242421.9375,276770.3125,248627.859375,245544.921875,21236.0,1.0,3
232066.28125,273666.1875,391886.1875,342282.46875,243752.40625,277179.96875,249067.28125,246108.453125,21237.0,1.0,3
232233.65625,273779.65625,391817.78125,342204.25,244112.53125,277405.375,249096.25,246134.203125,21238.0,1.0,3
231813.34375,272930.375,390663.8125,341846.0625,242998.15625,277128.84375,248665.3125,245583.1875,21239.0,1.0,3
231371.234375,272277.96875,389999.4375,341694.71875,241934.21875,276725.34375,248359.8125,245208.65625,21240.0,1.0,3
231530.640625,272743.78125,390757.3125,341960.78125,242403.25,276749.375,248603.796875,245533.828125,21241.0,1.0,3
232056.359375,273660.75,391863.75,342269.6875,243733.71875,277165.59375,249054.234375,246097.90625,21242.0,1.0,3
232235.890625,273782.59375,391804.46875,342196.1875,244109.5,277397.40625,249080.875,246126.515625,21243.0,1.0,3
231821.484375,272935.71875,390655.21875,341843.40625,243007.546875,277126.15625,248654.40625,245580.6875,21244.0,1.0,3
231379.375,272276.53125,389987.25,341691.40625,241939.859375,276719.34375,248349.0,245205.984375,21245.0,1.0,3
231535.390625,272734.125,390742.5625,341960.78125,242403.96875,276752.875,248600.859375,245530.171875,21246.0,1.0,3
232064.40625,273655.625,391853.28125,342269.875,243736.9375,277171.21875,249054.40625,246095.484375,21247.0,1.0,3
232245.09375,273781.96875,391800.53125,342191.625,244114.5,277398.46875,249084.1875,246123.828125,21248.0,1.0,3
231827.65625,272933.84375,390650.75,341832.21875,243012.734375,277127.75,248658.703125,245578.71875,21249.0,1.0,3
231384.28125,272274.75,389978.15625,341680.21875,241937.890625,276725.96875,248357.9375,245208.21875,21250.0,1.0,3
231542.53125,272733.6875,390729.34375,341947.65625,242391.453125,276758.59375,248611.671875,245538.75,21251.0,1.0,3
232066.28125,273650.71875,391838.96875,342253.25,243724.0625,277172.71875,249061.125,246099.78125,21252.0,1.0,3
232254.21875,273789.21875,391797.40625,342178.75,244118.875,277409.3125,249099.296875,246137.0625,21253.0,1.0,3
231839.8125,272946.03125,390648.53125,341819.96875,243023.828125,277137.25,248665.9375,245591.40625,21254.0,1.0,3
231386.4375,272275.375,389964.09375,341665.125,241942.265625,276733.28125,248362.84375,245215.1875,21255.0,1.0,3
231529.9375,272723.3125,390705.03125,341931.375,242385.8125,276761.625,248609.171875,245538.03125,21256.0,1.0,3
232062.34375,273651.25,391819.5625,342245.1875,243721.640625,277175.9375,249064.515625,246107.109375,21257.0,1.0,3
232251.0,273792.78125,391786.9375,342176.25,244127.375,277409.9375,249097.421875,246144.484375,21258.0,1.0,3
231829.796875,272943.25,390635.46875,341812.09375,243034.015625,277132.6875,248658.609375,245582.921875,21259.0,1.0,3
231382.046875,272273.3125,389943.28125,341657.4375,241950.5,276730.78125,248360.796875,245205.71875,21260.0,1.0,3
231532.171875,272719.0,390677.5,341928.0625,242385.71875,276762.0,248606.9375,245530.703125,21261.0,1.0,3
232053.234375,273633.5625,391788.625,342234.90625,243713.515625,277158.875,249040.5625,246086.1875,21262.0,1.0,3
232248.046875,273785.625,391769.78125,342172.5,244129.96875,277404.75,249091.96875,246138.5,21263.0,1.0,3
231839.546875,272947.96875,390629.3125,341814.96875,243045.734375,277140.71875,248667.546875,245595.34375,21264.0,1.0,3
231380.171875,272261.78125,389927.375,341651.53125,241949.0625,276727.5625,248354.0,245211.703125,21265.0,1.0,3
231521.25,272696.9375,390654.15625,341915.53125,242370.078125,276744.84375,248588.15625,245520.0625,21266.0,1.0,3
232048.578125,273622.65625,391777.1875,342231.96875,243704.296875,277160.125,249047.078125,246089.40625,21267.0,1.0,3
232250.640625,273785.5625,391768.625,342166.34375,244129.25,277405.71875,249101.53125,246134.375,21268.0,1.0,3
231845.359375,272950.21875,390625.28125,341802.28125,243049.296875,277134.90625,248672.015625,245592.3125,21269.0,1.0,3
231388.125,272265.09375,389917.96875,341639.09375,241947.984375,276724.53125,248355.4375,245208.84375,21270.0,1.0,3
231528.859375,272703.625,390643.34375,341907.59375,242362.75,276750.625,248599.328125,245522.484375,21271.0,1.0,3
232048.578125,273628.09375,391767.4375,342223.09375,243693.921875,277154.21875,249043.0625,246087.796875,21272.0,1.0,3
232245.1875,273791.625,391763.875,342159.53125,244126.65625,277396.15625,249093.21875,246135.359375,21273.0,1.0,3
231849.375,272972.5625,390628.40625,341801.28125,243059.765625,277140.90625,248674.703125,245588.46875,21274.0,1.0,3
231394.296875,272288.59375,389913.78125,341633.28125,241954.78125,276733.03125,248355.703125,245201.515625,21275.0,1.0,3
231522.515625,272710.25,390627.25,341893.8125,242355.59375,276755.65625,248601.5625,245515.6875,21276.0,1.0,3
232055.46875,273645.1875,391761.46875,342217.46875,243694.734375,277171.75,249066.3125,246098.625,21277.0,1.0,3
232255.921875,273812.5625,391762.71875,342153.625,244136.40625,277405.1875,249103.859375,246147.34375,21278.0,1.0,3
231851.34375,272984.90625,390626.34375,341797.71875,243076.65625,277145.09375,248678.28125,245600.796875,21279.0,1.0,3
231394.03125,272295.125,389904.375,341631.0625,241970.15625,276729.71875,248350.15625,245208.21875,21280.0,1.0,3
231522.421875,272709.4375,390604.875,341883.71875,242360.6875,276733.21875,248574.296875,245500.75,21281.0,1.0,3
232040.265625,273630.4375,391731.6875,342200.84375,243692.5,277143.9375,249035.90625,246072.875,21282.0,1.0,3
232244.734375,273812.8125,391751.34375,342150.5,244150.53125,277403.9375,249104.484375,246142.078125,21283.0,1.0,3
231850.546875,272997.875,390621.875,341798.6875,243093.65625,277153.15625,248688.828125,245610.453125,21284.0,1.0,3
231394.296875,272300.40625,389892.3125,341629.25,241974.0,276738.40625,248361.328125,245220.375,21285.0,1.0,3
231515.890625,272703.0,390584.78125,341881.9375,242352.203125,276743.5625,248585.828125,245517.203125,21286.0,1.0,3
232040.71875,273633.90625,391715.6875,342199.40625,243682.125,277151.28125,249044.21875,246078.953125,21287.0,1.0,3
232259.3125,273828.28125,391741.6875,342146.5625,244148.109375,277410.1875,249112.265625,246144.65625,21288.0,1.0,3
231859.484375,273003.3125,390613.28125,341790.03125,243093.375,277157.71875,248690.53125,245612.421875,21289.0,1.0,3
231401.453125,272305.9375,389881.3125,341623.28125,241970.25,276749.75,248375.8125,245223.859375,21290.0,1.0,3
231523.21875,272706.0625,390572.0,341876.375,242338.34375,276751.34375,248601.03125,245520.328125,21291.0,1.0,3
232044.109375,273629.25,391710.21875,342194.0625,243665.9375,277154.03125,249056.375,246084.140625,21292.0,1.0,3
232267.8125,273835.15625,391756.71875,342152.21875,244147.484375,277429.78125,249141.3125,246171.3125,21293.0,1.0,3
231876.46875,273023.34375,390631.53125,341793.78125,243102.328125,277172.90625,248717.96875,245630.3125,21294.0,1.0,3
231409.3125,272313.0,389877.21875,341606.46875,241965.875,276739.28125,248368.484375,245206.609375,21295.0,1.0,3
231521.078125,272700.875,390556.15625,341855.03125,242324.75,276741.25,248591.734375,245507.109375,21296.0,1.0,3
232043.390625,273630.96875,391694.59375,342176.53125,243654.671875,277151.28125,249049.140625,246081.453125,21297.0,1.0,3
232270.21875,273843.21875,391742.78125,342127.96875,244144.71875,277416.90625,249110.296875,246150.46875,21298.0,1.0,3
231880.40625,273032.03125,390618.125,341767.84375,243108.9375,277163.53125,248687.578125,245614.5625,21299.0,1.0,3
231407.4375,272314.34375,389863.96875,341584.03125,241971.140625,276744.90625,248359.71875,245211.515625,21300.0,1.0,3
231518.75,272700.59375,390539.1875,341832.65625,242322.34375,276746.78125,248577.609375,245500.125,21301.0,1.0,3
232041.609375,273629.09375,391683.0625,342154.8125,243652.09375,277157.25,249036.53125,246066.609375,21302.0,1.0,3
232262.171875,273838.3125,391741.96875,342113.40625,244150.984375,277423.34375,249115.03125,246152.625,21303.0,1.0,3
231874.765625,273034.625,390629.03125,341768.5625,243127.890625,277187.46875,248711.265625,245639.515625,21304.0,1.0,3
231407.890625,272315.59375,389865.125,341588.0625,241986.875,276763.96875,248375.1875,245229.3125,21305.0,1.0,3
231510.078125,272689.5,390527.65625,341831.3125,242320.1875,276752.59375,248587.078125,245502.71875,21306.0,1.0,3
232035.703125,273624.625,391677.5,342156.59375,243652.4375,277160.65625,249046.90625,246074.484375,21307.0,1.0,3
232265.921875,273847.25,391742.3125,342115.0,244157.59375,277425.65625,249118.078125,246152.265625,21308.0,1.0,3
231884.15625,273044.09375,390628.65625,341763.46875,243137.015625,277185.25,248708.671875,245629.5,21309.0,1.0,3
231402.609375,272307.5625,389856.71875,341580.34375,241985.8125,276763.6875,248374.296875,245221.71875,21310.0,1.0,3
231502.921875,272675.90625,390509.9375,341825.5,242308.484375,276753.9375,248580.109375,245496.109375,21311.0,1.0,3
232026.40625,273610.5,391654.53125,342149.15625,243634.109375,277151.4375,249034.03125,246065.984375,21312.0,1.0,3
232252.15625,273829.28125,391724.09375,342108.75,244148.5625,277415.03125,249115.484375,246155.578125,21313.0,1.0,3
231868.25,273025.9375,390609.8125,341757.84375,243131.46875,277180.0625,248713.140625,245636.5625,21314.0,1.0,3
231396.625,272300.84375,389833.03125,341572.03125,241975.890625,276760.125,248374.921875,245222.609375,21315.0,1.0,3
231498.015625,272669.3125,390481.6875,341811.28125,242292.296875,276741.0,248575.109375,245495.84375,21316.0,1.0,3
232013.4375,273594.84375,391625.75,342132.71875,243617.75,277138.125,249028.578125,246063.296875,21317.0,1.0,3
232247.6875,273832.03125,391712.375,342101.96875,244147.484375,277416.1875,249115.484375,246162.359375,21318.0,1.0,3
231874.859375,273044.375,390604.25,341750.9375,243139.609375,277181.03125,248708.140625,245642.109375,21319.0,1.0,3
231407.703125,272317.40625,389824.71875,341563.46875,241987.6875,276763.25,248374.734375,245225.015625,21320.0,1.0,3
231501.3125,272675.375,390463.90625,341802.09375,242294.796875,276747.78125,248574.296875,245492.265625,21321.0,1.0,3
232017.28125,273606.28125,391616.53125,342127.8125,243623.5625,277151.0,249041.1875,246071.4375,21322.0,1.0,3
232264.859375,273856.34375,391716.65625,342097.75,244167.15625,277428.4375,249141.234375,246171.75,21323.0,1.0,3
231888.09375,273062.15625,390606.40625,341740.5625,243160.890625,277183.46875,248708.59375,245636.5625,21324.0,1.0,3
231404.484375,272318.8125,389812.125,341549.25,241997.96875,276767.4375,248363.03125,245210.984375,21325.0,1.0,3
231493.265625,272672.59375,390443.96875,341788.84375,242297.65625,276750.71875,248577.703125,245486.625,21326.0,1.0,3
232013.359375,273604.6875,391597.3125,342114.46875,243621.59375,277148.21875,249040.375,246059.28125,21327.0,1.0,3
232259.484375,273853.75,391708.875,342092.46875,244172.96875,277435.78125,249139.625,246167.46875,21328.0,1.0,3
231893.90625,273070.46875,390608.375,341746.03125,243176.625,277197.6875,248726.109375,245657.484375,21329.0,1.0,3
231412.0,272321.40625,389804.96875,341544.59375,242001.09375,276763.15625,248367.328125,245211.875,21330.0,1.0,3
231500.25,272667.4375,390434.375,341783.03125,242290.15625,276744.03125,248571.890625,245484.296875,21331.0,1.0,3
232028.546875,273609.25,391597.125,342118.15625,243619.28125,277149.9375,249038.5,246071.625,21332.0,1.0,3
232275.046875,273859.9375,391705.75,342089.53125,244172.875,277422.53125,249123.53125,246163.890625,21333.0,1.0,3
231898.734375,273068.25,390602.28125,341738.6875,243182.703125,277191.6875,248717.34375,245644.875,21334.0,1.0,3
231425.953125,272324.09375,389798.15625,341543.15625,242007.625,276771.03125,248378.671875,245221.359375,21335.0,1.0,3
231508.03125,272656.78125,390413.65625,341774.1875,242279.59375,276742.6875,248576.53125,245481.078125,21336.0,1.0,3
232023.640625,273588.3125,391573.875,342105.71875,243603.09375,277139.125,249039.84375,246060.0,21337.0,1.0,3
232270.9375,273849.03125,391698.78125,342084.15625,244167.609375,277419.125,249139.078125,246173.546875,21338.0,1.0,3
231907.5,273073.34375,390603.8125,341734.0625,243185.375,277193.75,248729.953125,245656.234375,21339.0,1.0,3
231428.71875,272322.21875,389791.8125,341537.1875,242006.015625,276770.21875,248378.5,245222.96875,21340.0,1.0,3
231506.328125,272651.34375,390396.75,341765.15625,242274.5,276741.78125,248574.484375,245480.1875,21341.0,1.0,3
232017.203125,273585.1875,391554.84375,342095.0,243598.171875,277140.28125,249040.5625,246067.328125,21342.0,1.0,3
232264.140625,273852.5,391686.4375,342073.34375,244173.515625,277425.75,249140.78125,246180.515625,21343.0,1.0,3
231903.46875,273075.125,390592.0,341718.59375,243198.25,277194.53125,248729.234375,245661.234375,21344.0,1.0,3
231418.703125,272316.15625,389769.125,341514.28125,242009.234375,276767.09375,248380.28125,245227.34375,21345.0,1.0,3
231493.625,272643.28125,390367.5,341740.84375,242263.421875,276734.71875,248569.203125,245473.75,21346.0,1.0,3
232008.53125,273576.34375,391532.21875,342073.625,243588.25,277127.03125,249028.484375,246058.46875,21347.0,1.0,3
232267.359375,273855.375,391678.21875,342058.78125,244177.984375,277414.3125,249136.578125,246184.265625,21348.0,1.0,3
231913.125,273087.71875,390587.625,341708.03125,243211.21875,277197.9375,248731.75,245664.734375,21349.0,1.0,3
231422.109375,272319.4375,389757.40625,341501.21875,242017.09375,276772.375,248379.21875,245225.375,21350.0,1.0,3
231484.0625,272630.15625,390350.71875,341732.34375,242262.34375,276738.03125,248575.734375,245479.65625,21351.0,1.0,3
231997.96875,273565.96875,391513.8125,342068.4375,243580.734375,277130.0,249038.671875,246065.71875,21352.0,1.0,3
232265.390625,273858.0625,391665.6875,342055.03125,244177.171875,277423.25,249148.203125,246187.671875,21353.0,1.0,3
231908.390625,273090.59375,390581.03125,341709.375,243217.65625,277209.75,248754.0,245678.3125,21354.0,1.0,3
231412.625,272314.90625,389739.25,341497.5625,242015.84375,276771.28125,248375.546875,245217.6875,21355.0,1.0,3
231471.8125,272616.28125,390315.3125,341717.0625,242240.796875,276719.625,248540.765625,245453.71875,21356.0,1.0,3
231988.234375,273553.0,391480.09375,342051.96875,243555.703125,277112.84375,249012.390625,246034.875,21357.0,1.0,3
232258.859375,273849.21875,391647.28125,342047.96875,244164.75,277407.6875,249134.171875,246179.796875,21358.0,1.0,3
231903.921875,273085.75,390567.96875,341701.5,243211.21875,277191.3125,248734.96875,245682.25,21359.0,1.0,3
231402.96875,272305.6875,389721.71875,341486.3125,242005.125,276761.46875,248370.625,245216.796875,21360.0,1.0,3
231465.015625,272612.4375,390297.0625,341710.0,242228.90625,276723.0,248558.828125,245457.65625,21361.0,1.0,3
231986.265625,273554.875,391464.625,342044.125,243547.125,277114.0,249019.8125,246041.671875,21362.0,1.0,3
232250.640625,273847.15625,391633.53125,342030.78125,244161.34375,277400.0,249127.453125,246172.109375,21363.0,1.0,3
231896.5,273087.46875,390558.125,341684.6875,243215.25,277196.59375,248732.734375,245665.625,21364.0,1.0,3
231415.84375,272322.40625,389715.28125,341479.78125,242014.328125,276778.1875,248388.515625,245227.796875,21365.0,1.0,3
231475.390625,272616.375,390277.75,341696.0625,242226.765625,276725.25,248556.5,245457.21875,21366.0,1.0,3
231983.484375,273545.21875,391442.90625,342025.78125,243538.453125,277104.15625,249004.078125,246033.359375,21367.0,1.0,3
232256.71875,273851.96875,391630.5625,342024.96875,244169.75,277403.5,249134.171875,246183.109375,21368.0,1.0,3
231915.546875,273106.5,390568.78125,341685.21875,243239.921875,277210.5625,248759.8125,245693.609375,21369.0,1.0,3
231425.40625,272331.34375,389716.625,341469.125,242029.890625,276784.25,248388.953125,245232.984375,21370.0,1.0,3
231473.609375,272612.96875,390267.09375,341679.59375,242227.03125,276717.375,248540.0625,245450.59375,21371.0,1.0,3
231981.53125,273543.0,391435.21875,342018.53125,243539.515625,277102.0,249002.640625,246035.40625,21372.0,1.0,3
232262.625,273863.6875,391629.65625,342022.3125,244179.59375,277409.65625,249136.484375,246189.09375,21373.0,1.0,3
231921.796875,273119.90625,390562.0625,341677.53125,243250.109375,277207.78125,248745.0625,245686.1875,21374.0,1.0,3
231427.203125,272336.25,389703.21875,341462.625,242037.9375,276782.375,248382.4375,245230.921875,21375.0,1.0,3
231472.078125,272610.84375,390253.4375,341678.875,242226.765625,276725.25,248554.359375,245457.125,21376.0,1.0,3
231990.203125,273550.21875,391430.84375,342020.25,243540.0625,277114.09375,249019.984375,246044.34375,21377.0,1.0,3
232276.5625,273875.59375,391638.25,342028.28125,244189.25,277422.90625,249153.65625,246199.734375,21378.0,1.0,3
231937.890625,273131.625,390579.21875,341689.96875,243270.046875,277224.0625,248764.5625,245710.765625,21379.0,1.0,3
231442.578125,272340.0,389705.46875,341467.78125,242046.34375,276781.75,248381.53125,245244.96875,21380.0,1.0,3
231480.125,272606.1875,390239.40625,341678.25,242222.828125,276723.375,248550.609375,245456.9375,21381.0,1.0,3
231994.84375,273544.40625,391416.4375,342021.84375,243534.15625,277115.6875,249016.953125,246046.9375,21382.0,1.0,3
232278.53125,273872.1875,391623.3125,342021.40625,244185.84375,277412.34375,249140.25,246193.390625,21383.0,1.0,3
231937.625,273128.125,390560.90625,341673.0625,243269.0625,277205.53125,248742.65625,245688.0625,21384.0,1.0,3
231436.765625,272331.625,389687.5625,341456.25,242046.6875,276783.09375,248381.0,245236.828125,21385.0,1.0,3
231472.265625,272596.78125,390215.4375,341665.46875,242214.15625,276726.15625,248537.015625,245443.625,21386.0,1.0,3
231984.75,273536.0,391387.375,341999.9375,243518.515625,277102.28125,248995.859375,246012.515625,21387.0,1.0,3
232273.4375,273873.53125,391611.15625,342009.34375,244186.46875,277413.6875,249142.65625,246181.59375,21388.0,1.0,3
231942.453125,273145.125,390564.21875,341669.75,243284.71875,277224.9375,248760.09375,245700.21875,21389.0,1.0,3
231446.78125,272354.84375,389688.375,341450.625,242061.625,276795.4375,248392.4375,245250.0625,21390.0,1.0,3
231487.546875,272615.125,390208.625,341655.625,242220.0625,276724.8125,248540.59375,245449.703125,21391.0,1.0,3
231992.4375,273546.5625,391379.40625,341991.71875,243522.359375,277101.375,248996.03125,246021.109375,21392.0,1.0,3
232280.140625,273891.125,391610.1875,342006.125,244198.546875,277417.875,249145.78125,246192.3125,21393.0,1.0,3
231949.96875,273163.8125,390568.21875,341668.15625,243307.328125,277235.9375,248772.78125,245711.21875,21394.0,1.0,3
231449.734375,272360.75,389679.15625,341442.5,242075.125,276801.25,248391.46875,245245.046875,21395.0,1.0,3
231478.078125,272604.84375,390184.5,341645.8125,242218.359375,276720.875,248534.6875,245447.109375,21396.0,1.0,3
231987.78125,273538.25,391359.9375,341986.96875,243521.1875,277099.5,248999.875,246027.359375,21397.0,1.0,3
232284.53125,273886.84375,391599.71875,342003.0625,244204.4375,277412.34375,249148.109375,246201.703125,21398.0,1.0,3
231957.390625,273162.375,390560.09375,341668.15625,243318.78125,277227.8125,248773.046875,245718.90625,21399.0,1.0,3
231460.28125,272364.34375,389666.21875,341440.71875,242085.3125,276798.75,248394.6875,245239.859375,21400.0,1.0,3
231478.078125,272596.78125,390158.21875,341635.625,242213.4375,276719.15625,248538.796875,245436.734375,21401.0,1.0,3
231974.546875,273518.84375,391331.0625,341973.75,243506.53125,277093.59375,249001.75,246019.5,21402.0,1.0,3
232277.375,273878.96875,391583.53125,341992.625,244201.671875,277412.0625,249156.0625,246197.234375,21403.0,1.0,3
231956.84375,273164.15625,390550.96875,341659.84375,243328.796875,277237.0,248791.734375,245723.828125,21404.0,1.0,3
231449.734375,272349.9375,389647.6875,341426.84375,242086.21875,276802.125,248401.921875,245243.359375,21405.0,1.0,3
231470.46875,272578.90625,390136.65625,341625.78125,242206.546875,276726.5,248544.171875,245431.640625,21406.0,1.0,3
231972.765625,273504.90625,391314.34375,341973.9375,243500.359375,277097.71875,249009.53125,246023.34375,21407.0,1.0,3
232268.609375,273865.75,391576.90625,341995.21875,244203.734375,277412.78125,249160.890625,246216.1875,21408.0,1.0,3
231955.5,273157.375,390548.125,341653.75,243332.640625,277231.46875,248774.390625,245721.765625,21409.0,1.0,3
231453.9375,272344.5625,389638.125,341416.65625,242088.0,276793.28125,248383.953125,245234.671875,21410.0,1.0,3
231460.640625,272560.65625,390116.375,341610.5,242196.265625,276710.9375,248530.75,245428.953125,21411.0,1.0,3
231955.78125,273487.09375,391291.1875,341949.25,243486.765625,277081.96875,248987.265625,246001.515625,21412.0,1.0,3
232266.46875,273865.75,391560.84375,341969.1875,244200.953125,277402.40625,249139.625,246182.390625,21413.0,1.0,3
231954.078125,273163.625,390537.3125,341636.78125,243344.171875,277239.25,248783.25,245722.578125,21414.0,1.0,3
231443.46875,272342.53125,389620.34375,341399.03125,242096.5,276803.375,248395.3125,245241.203125,21415.0,1.0,3
231452.140625,272557.09375,390089.1875,341590.1875,242193.234375,276706.90625,248523.0625,245415.28125,21416.0,1.0,3
231955.5,273491.3125,391271.15625,341935.3125,243483.90625,277078.0625,248989.5,245999.5625,21417.0,1.0,3
232261.375,273869.5,391551.96875,341960.59375,244208.5625,277404.21875,249155.625,246189.546875,21418.0,1.0,3
231949.703125,273169.96875,390532.1875,341625.6875,243356.78125,277236.3125,248786.109375,245718.8125,21419.0,1.0,3
231443.203125,272351.5625,389610.78125,341388.3125,242104.359375,276804.71875,248399.59375,245234.671875,21420.0,1.0,3
231441.234375,272549.40625,390066.84375,341576.5,242186.171875,276704.6875,248520.828125,245412.421875,21421.0,1.0,3
231944.78125,273478.625,391246.125,341919.46875,243470.59375,277066.0625,248978.859375,245994.90625,21422.0,1.0,3
232258.78125,273867.53125,391541.875,341953.09375,244205.96875,277396.875,249155.0,246199.296875,21423.0,1.0,3
231949.0625,273168.1875,390527.1875,341620.5,243360.53125,277230.3125,248784.9375,245725.078125,21424.0,1.0,3
231446.78125,272346.90625,389601.5625,341381.25,242106.0625,276796.6875,248390.390625,245242.546875,21425.0,1.0,3
231444.8125,272540.375,390049.21875,341568.75,242178.21875,276696.8125,248515.828125,245424.125,21426.0,1.0,3
231942.359375,273465.125,391227.34375,341912.9375,243459.765625,277065.09375,248976.265625,245990.53125,21427.0,1.0,3
232267.71875,273866.09375,391532.03125,341948.28125,244206.953125,277395.4375,249148.5625,246190.34375,21428.0,1.0,3
231959.359375,273169.25,390521.84375,341613.625,243370.90625,277226.09375,248783.15625,245727.40625,21429.0,1.0,3
231451.515625,272345.03125,389593.4375,341375.15625,242113.921875,276800.09375,248395.65625,245244.515625,21430.0,1.0,3
231449.640625,272537.59375,390038.21875,341564.71875,242178.125,276708.4375,248527.1875,245419.125,21431.0,1.0,3
231949.0625,273463.40625,391219.75,341912.78125,243457.359375,277075.53125,248996.125,246008.859375,21432.0,1.0,3
232275.9375,273867.71875,391527.3125,341942.71875,244205.421875,277395.71875,249148.65625,246202.78125,21433.0,1.0,3
231975.625,273185.71875,390520.75,341610.75,243380.921875,277238.8125,248783.875,245735.359375,21434.0,1.0,3
231463.40625,272359.15625,389587.25,341371.40625,242124.03125,276818.40625,248408.71875,245253.28125,21435.0,1.0,3
231444.546875,272533.40625,390017.03125,341546.90625,242172.125,276705.84375,248512.421875,245409.109375,21436.0,1.0,3
231939.0625,273459.21875,391197.125,341892.75,243447.4375,277067.15625,248976.546875,245988.015625,21437.0,1.0,3
232269.328125,273874.25,391521.3125,341930.375,244206.953125,277399.375,249152.046875,246197.40625,21438.0,1.0,3
231973.390625,273197.4375,390522.1875,341599.3125,243386.375,277241.125,248790.9375,245737.421875,21439.0,1.0,3
231454.109375,272360.3125,389578.21875,341356.3125,242118.9375,276816.1875,248402.015625,245251.21875,21440.0,1.0,3
231448.125,272543.25,390009.625,341543.15625,242167.390625,276712.09375,248529.859375,245426.453125,21441.0,1.0,3
231944.875,273468.78125,391191.21875,341890.34375,243445.734375,277066.0625,248982.703125,246001.875,21442.0,1.0,3
232274.875,273885.40625,391521.125,341932.0,244215.4375,277400.625,249153.390625,246204.5625,21443.0,1.0,3
231981.078125,273212.34375,390528.96875,341605.40625,243406.75,277248.0,248798.890625,245747.875,21444.0,1.0,3
231467.34375,272372.8125,389578.5,341355.0625,242135.921875,276814.03125,248399.5,245243.171875,21445.0,1.0,3
231448.65625,272539.5625,389993.96875,341535.5625,242165.421875,276708.875,248516.625,245400.34375,21446.0,1.0,3
231937.890625,273459.21875,391173.25,341882.5625,243431.78125,277063.03125,248977.25,245983.109375,21447.0,1.0,3
232273.53125,273880.78125,391512.71875,341927.25,244208.015625,277397.9375,249160.546875,246208.671875,21448.0,1.0,3
231985.640625,273211.8125,390525.0625,341600.46875,243406.390625,277251.3125,248809.171875,245754.21875,21449.0,1.0,3
231463.765625,272363.53125,389562.21875,341346.46875,242128.5,276811.4375,248400.3125,245247.203125,21450.0,1.0,3
231438.734375,272520.0,389965.53125,341521.96875,242143.796875,276691.28125,248500.53125,245400.96875,21451.0,1.0,3
231932.984375,273444.1875,391146.96875,341867.53125,243409.4375,277047.90625,248959.375,245974.515625,21452.0,1.0,3
232272.71875,273876.65625,391498.4375,341915.90625,244202.125,277390.78125,249149.8125,246196.78125,21453.0,1.0,3
231995.03125,273220.3125,390524.0625,341600.125,243416.953125,277253.71875,248813.90625,245762.71875,21454.0,1.0,3
231479.953125,272374.09375,389561.0625,341348.0,242135.75,276819.84375,248404.609375,245253.09375,21455.0,1.0,3
231457.953125,272525.4375,389957.3125,341520.90625,242142.984375,276701.90625,248509.921875,245401.0625,21456.0,1.0,3
231945.5,273444.0,391138.90625,341870.3125,243406.671875,277052.21875,248969.484375,245989.984375,21457.0,1.0,3
232283.0,273881.84375,391497.15625,341919.375,244203.28125,277395.53125,249162.859375,246215.65625,21458.0,1.0,3
232004.59375,273224.96875,390520.125,341593.59375,243422.671875,277256.6875,248815.703125,245762.890625,21459.0,1.0,3
231488.4375,272373.90625,389550.96875,341337.0,242139.140625,276822.875,248410.0625,245261.046875,21460.0,1.0,3
231456.96875,272516.5,389934.34375,341504.28125,242135.390625,276705.5,248514.65625,245396.140625,21461.0,1.0,3
231940.75,273435.25,391113.96875,341850.625,243397.1875,277051.125,248967.0625,245972.109375,21462.0,1.0,3
232279.875,273877.46875,391481.71875,341905.625,244202.921875,277391.25,249157.046875,246202.953125,21463.0,1.0,3
231998.953125,273223.90625,390512.09375,341583.65625,243431.25,277253.8125,248816.765625,245762.0,21464.0,1.0,3
231483.4375,272376.6875,389542.09375,341333.15625,242151.921875,276833.25,248429.015625,245266.515625,21465.0,1.0,3
231452.234375,272518.375,389920.84375,341502.5,242142.09375,276708.4375,248521.546875,245401.953125,21466.0,1.0,3
231938.15625,273437.3125,391100.21875,341849.28125,243397.546875,277052.375,248966.34375,245978.90625,21467.0,1.0,3
232285.953125,273890.59375,391479.03125,341907.3125,244214.1875,277398.03125,249166.34375,246216.8125,21468.0,1.0,3
232010.140625,273241.3125,390512.34375,341585.0,243448.234375,277257.21875,248822.84375,245775.953125,21469.0,1.0,3
231495.78125,272386.78125,389530.65625,341326.875,242162.03125,276822.53125,248412.46875,245266.859375,21470.0,1.0,3
231452.6875,272509.71875,389894.46875,341490.78125,242134.765625,276696.8125,248508.5,245401.953125,21471.0,1.0,3
231937.984375,273426.125,391075.78125,341836.78125,243386.8125,277046.5625,248962.328125,245968.984375,21472.0,1.0,3
232277.46875,273873.0625,391456.59375,341890.6875,244205.421875,277381.0625,249145.703125,246202.953125,21473.0,1.0,3
232007.359375,273232.125,390497.15625,341573.65625,243451.71875,277249.625,248814.359375,245770.859375,21474.0,1.0,3
231491.03125,272375.15625,389510.09375,341312.59375,242160.328125,276815.09375,248405.046875,245257.484375,21475.0,1.0,3
231445.53125,272496.03125,389868.09375,341473.78125,242119.828125,276688.3125,248499.640625,245392.125,21476.0,1.0,3
231932.53125,273417.1875,391054.0625,341826.125,243370.546875,277039.59375,248959.015625,245971.125,21477.0,1.0,3
232284.796875,273881.84375,391453.09375,341887.65625,244201.84375,277389.0,249154.375,246206.09375,21478.0,1.0,3
232016.75,273244.8125,390502.0625,341568.90625,243457.09375,277260.0,248815.96875,245774.25,21479.0,1.0,3
231491.84375,272382.65625,389512.78125,341304.90625,242165.875,276827.1875,248408.8125,245260.609375,21480.0,1.0,3
231438.28125,272497.28125,389858.875,341460.90625,242114.28125,276694.59375,248495.359375,245383.0,21481.0,1.0,3
231918.9375,273413.78125,391042.09375,341813.0,243357.84375,277040.3125,248959.015625,245963.609375,21482.0,1.0,3
232277.109375,273889.96875,391449.875,341881.46875,244199.609375,277395.25,249174.578125,246217.0,21483.0,1.0,3
232012.109375,273257.78125,390499.21875,341562.46875,243458.078125,277265.34375,248827.234375,245772.1875,21484.0,1.0,3
231497.828125,272400.1875,389505.375,341302.5625,242165.96875,276838.4375,248420.34375,245258.640625,21485.0,1.0,3
231442.578125,272503.1875,389843.78125,341460.09375,242109.453125,276692.34375,248494.90625,245380.234375,21486.0,1.0,3
231917.15625,273411.5625,391025.09375,341811.9375,243352.484375,277027.625,248945.515625,245957.984375,21487.0,1.0,3
232277.90625,273895.25,391442.0,341884.0625,244205.515625,277390.875,249165.28125,246214.578125,21488.0,1.0,3
232019.96875,273273.5,390503.40625,341573.21875,243481.5,277276.71875,248840.109375,245792.125,21489.0,1.0,3
231491.9375,272398.3125,389497.40625,341303.65625,242178.484375,276826.90625,248416.046875,245274.46875,21490.0,1.0,3
231440.515625,272503.8125,389828.84375,341458.75,242112.234375,276689.9375,248496.25,245389.265625,21491.0,1.0,3
231920.015625,273418.53125,391011.0625,341811.84375,243355.4375,277034.96875,248956.515625,245967.453125,21492.0,1.0,3
232274.953125,273898.125,391431.46875,341883.4375,244215.0,277395.71875,249180.203125,246227.640625,21493.0,1.0,3
232021.9375,273285.125,390494.90625,341569.375,243493.296875,277272.59375,248848.859375,245808.5,21494.0,1.0,3
231502.921875,272417.0,389487.9375,341299.96875,242193.859375,276840.125,248427.671875,245278.75,21495.0,1.0,3
231438.28125,272501.84375,389807.28125,341449.5625,242113.03125,276696.5625,248495.359375,245382.203125,21496.0,1.0,3
231911.421875,273411.5625,390984.59375,341797.875,243342.921875,277035.84375,248954.453125,245960.75,21497.0,1.0,3
232280.046875,273903.03125,391414.1875,341867.09375,244204.078125,277389.0,249160.625,246209.578125,21498.0,1.0,3
232034.28125,273294.15625,390488.46875,341557.125,243496.609375,277279.40625,248842.25,245793.109375,21499.0,1.0,3
231511.15625,272422.34375,389478.71875,341285.9375,242192.703125,276853.625,248433.296875,245272.3125,21500.0,1.0,3
231442.671875,272506.125,389790.46875,341431.0625,242100.515625,276714.96875,248504.203125,245371.03125,21501.0,1.0,3
231923.234375,273421.21875,390973.6875,341782.40625,243332.90625,277045.15625,248957.765625,245949.3125,21502.0,1.0,3
232289.0,273921.625,391412.6875,341857.34375,244201.9375,277404.28125,249185.125,246222.0,21503.0,1.0,3
232040.53125,273318.84375,390489.71875,341548.34375,243499.015625,277299.78125,248869.34375,245806.703125,21504.0,1.0,3
231510.53125,272440.59375,389470.59375,341270.90625,242187.515625,276859.90625,248435.984375,245274.640625,21505.0,1.0,3
231439.1875,272514.34375,389770.28125,341415.65625,242083.4375,276705.3125,248494.09375,245377.8125,21506.0,1.0,3
231916.53125,273422.28125,390953.5625,341769.0,243312.421875,277034.6875,248942.921875,245948.234375,21507.0,1.0,3
232282.203125,273920.8125,391404.0,341849.5625,244194.15625,277395.71875,249165.90625,246211.0,21508.0,1.0,3
232037.40625,273321.71875,390487.6875,341541.75,243499.734375,277290.9375,248849.578125,245801.34375,21509.0,1.0,3
231515.71875,272443.90625,389464.59375,341267.0,242192.875,276858.03125,248426.59375,245275.53125,21510.0,1.0,3
231441.59375,272514.0,389758.21875,341410.65625,242081.921875,276706.46875,248493.5625,245373.96875,21511.0,1.0,3
231912.0625,273418.34375,390941.59375,341763.65625,243305.90625,277040.125,248953.5625,245948.421875,21512.0,1.0,3
232281.3125,273921.8125,391399.09375,341846.15625,244195.765625,277402.96875,249179.21875,246224.328125,21513.0,1.0,3
232042.140625,273325.09375,390485.34375,341536.8125,243514.484375,277294.875,248848.953125,245808.765625,21514.0,1.0,3
231520.71875,272444.1875,389457.71875,341263.6875,242206.546875,276864.28125,248430.984375,245284.84375,21515.0,1.0,3
231440.078125,272498.625,389738.96875,341402.25,242079.234375,276702.8125,248489.546875,245371.734375,21516.0,1.0,3
231917.515625,273405.84375,390924.25,341755.875,243302.765625,277039.0625,248949.265625,245947.96875,21517.0,1.0,3
232289.984375,273917.59375,391394.8125,341842.3125,244202.921875,277407.96875,249187.0,246232.8125,21518.0,1.0,3
232049.5625,273322.40625,390486.4375,341532.53125,243528.609375,277298.53125,248856.734375,245817.875,21519.0,1.0,3
231528.140625,272443.8125,389455.75,341257.15625,242220.140625,276873.75,248440.453125,245292.4375,21520.0,1.0,3
231441.5,272493.71875,389724.0625,341392.59375,242082.015625,276711.84375,248494.90625,245379.78125,21521.0,1.0,3
231905.4375,273392.0625,390898.84375,341739.15625,243290.171875,277028.6875,248931.65625,245938.578125,21522.0,1.0,3
232278.453125,273910.375,391378.25,341827.3125,244195.859375,277400.09375,249171.984375,246222.453125,21523.0,1.0,3
232050.71875,273332.78125,390487.125,341526.53125,243537.734375,277309.4375,248872.828125,245833.265625,21524.0,1.0,3
231523.046875,272445.6875,389446.875,341243.21875,242218.625,276867.21875,248439.203125,245295.390625,21525.0,1.0,3
231430.6875,272487.8125,389702.40625,341370.15625,242066.1875,276703.25,248477.734375,245356.625,21526.0,1.0,3
231895.25,273388.9375,390877.125,341723.0625,243275.953125,277032.28125,248933.984375,245930.984375,21527.0,1.0,3
232269.0625,273910.625,391357.875,341813.53125,244186.109375,277390.625,249163.9375,246224.0625,21528.0,1.0,3
232048.765625,273340.75,390466.3125,341511.4375,243534.609375,277296.03125,248851.1875,245818.421875,21529.0,1.0,3
231520.90625,272450.34375,389421.0625,341228.28125,242217.28125,276865.15625,248423.46875,245280.09375,21530.0,1.0,3
231425.0625,272483.875,389674.34375,341361.65625,242059.65625,276707.625,248477.375,245358.328125,21531.0,1.0,3
231882.46875,273376.40625,390847.8125,341714.03125,243262.0,277018.59375,248918.15625,245926.6875,21532.0,1.0,3
232273.265625,273919.03125,391344.90625,341812.8125,244189.953125,277388.28125,249162.59375,246219.9375,21533.0,1.0,3
232052.0625,273350.5,390461.40625,341512.59375,243548.828125,277295.03125,248853.0625,245824.765625,21534.0,1.0,3
231521.796875,272454.46875,389419.53125,341231.21875,242230.6875,276872.3125,248432.234375,245291.453125,21535.0,1.0,3
231428.359375,272482.875,389665.03125,341359.15625,242061.171875,276706.46875,248480.15625,245357.875,21536.0,1.0,3
231890.6875,273378.75,390838.6875,341713.40625,243262.625,277018.9375,248922.53125,245924.71875,21537.0,1.0,3
232278.796875,273920.71875,391344.71875,341811.5625,244196.484375,277394.90625,249173.59375,246226.203125,21538.0,1.0,3
232057.34375,273354.25,390467.90625,341511.5,243565.265625,277307.28125,248869.78125,245835.140625,21539.0,1.0,3
231526.796875,272458.125,389417.03125,341228.1875,242242.765625,276872.6875,248432.5,245294.84375,21540.0,1.0,3
231427.46875,272477.6875,389651.28125,341352.5625,242062.15625,276699.78125,248470.234375,245357.25,21541.0,1.0,3
231881.390625,273364.96875,390821.15625,341700.4375,243254.578125,277014.5625,248917.4375,245920.515625,21542.0,1.0,3
232273.625,273912.15625,391335.78125,341800.03125,244196.9375,277390.0,249162.234375,246214.9375,21543.0,1.0,3
232067.984375,273363.625,390474.09375,341506.875,243581.8125,277316.59375,248873.8125,245832.0,21544.0,1.0,3
231534.046875,272461.53125,389418.0,341219.96875,242258.59375,276884.21875,248442.78125,245296.453125,21545.0,1.0,3
231424.875,272469.03125,389633.75,341338.96875,242056.078125,276697.8125,248467.640625,245350.546875,21546.0,1.0,3
231884.609375,273362.5625,390810.0625,341696.59375,243248.859375,277018.9375,248922.265625,245920.703125,21547.0,1.0,3
232279.96875,273917.78125,391332.9375,341797.96875,244197.375,277393.46875,249175.828125,246228.890625,21548.0,1.0,3
232067.265625,273361.3125,390464.59375,341497.46875,243579.3125,277307.375,248872.734375,245847.46875,21549.0,1.0,3
231536.1875,272457.40625,389400.84375,341204.5,242249.921875,276873.40625,248430.984375,245295.125,21550.0,1.0,3
231424.078125,272458.9375,389614.4375,341325.46875,242045.078125,276695.03125,248470.046875,245348.3125,21551.0,1.0,3
231881.296875,273351.9375,390787.375,341680.75,243229.734375,277009.28125,248917.078125,245922.3125,21552.0,1.0,3
232272.546875,273905.25,391314.0625,341782.875,244179.234375,277378.8125,249155.359375,246221.375,21553.0,1.0,3
232065.5625,273360.78125,390455.40625,341486.21875,243575.375,277307.75,248864.953125,245837.734375,21554.0,1.0,3
231542.171875,272461.6875,389389.65625,341195.625,242255.28125,276878.3125,248442.25,245296.90625,21555.0,1.0,3
231425.234375,272454.28125,389587.4375,341309.1875,242041.6875,276691.375,248463.609375,245343.578125,21556.0,1.0,3
231874.234375,273336.53125,390752.40625,341660.5625,243221.859375,276995.96875,248895.71875,245901.75,21557.0,1.0,3
232269.859375,273899.90625,391292.15625,341768.125,244185.40625,277368.25,249148.375,246214.671875,21558.0,1.0,3
232062.609375,273359.6875,390442.625,341473.96875,243593.171875,277295.75,248860.84375,245839.78125,21559.0,1.0,3
231538.78125,272460.1875,389373.9375,341183.5625,242267.078125,276871.6875,248433.390625,245301.28125,21560.0,1.0,3
231420.3125,272446.78125,389566.34375,341296.3125,242042.84375,276689.40625,248461.375,245350.8125,21561.0,1.0,3
231869.5,273327.78125,390736.0625,341651.0,243220.609375,276997.5,248906.0,245914.078125,21562.0,1.0,3
232268.25,273896.3125,391284.375,341764.90625,244192.734375,277375.0625,249169.03125,246235.859375,21563.0,1.0,3
232067.796875,273362.90625,390439.03125,341470.21875,243608.015625,277303.25,248878.109375,245861.421875,21564.0,1.0,3
231540.5625,272457.3125,389362.3125,341172.65625,242279.15625,276873.84375,248433.75,245292.890625,21565.0,1.0,3
231421.21875,272438.625,389545.6875,341283.71875,242042.046875,276681.4375,248449.3125,245328.828125,21566.0,1.0,3
231865.5625,273316.59375,390714.6875,341637.75,243210.78125,276984.96875,248895.265625,245895.21875,21567.0,1.0,3
232267.53125,273897.03125,391274.375,341754.0625,244186.921875,277366.3125,249161.171875,246215.921875,21568.0,1.0,3
232076.46875,273377.75,390439.03125,341462.78125,243612.203125,277299.15625,248872.46875,245843.09375,21569.0,1.0,3
231546.015625,272469.5625,389359.28125,341165.5,242276.828125,276873.5625,248438.40625,245296.546875,21570.0,1.0,3
231421.125,272447.125,389534.0625,341276.71875,242029.890625,276692.53125,248465.40625,245336.15625,21571.0,1.0,3
231862.078125,273324.65625,390699.9375,341629.71875,243195.21875,276995.875,248911.8125,245903.625,21572.0,1.0,3
232267.890625,273905.71875,391263.28125,341740.125,244175.75,277363.71875,249162.953125,246220.03125,21573.0,1.0,3
232085.234375,273389.21875,390436.09375,341451.34375,243611.578125,277296.1875,248868.453125,245850.96875,21574.0,1.0,3
231561.9375,272482.625,389350.875,341156.5625,242281.828125,276870.53125,248428.03125,245303.078125,21575.0,1.0,3
231422.640625,272440.40625,389507.34375,341260.375,242017.375,276668.9375,248435.0,245323.90625,21576.0,1.0,3
231862.609375,273319.5625,390674.625,341618.53125,243183.0625,276983.53125,248893.296875,245895.046875,21577.0,1.0,3
232282.5625,273922.25,391257.125,341746.03125,244184.859375,277378.625,249181.375,246241.40625,21578.0,1.0,3
232089.53125,273401.71875,390430.09375,341453.84375,243626.96875,277305.40625,248875.15625,245869.46875,21579.0,1.0,3
231557.828125,272485.46875,389339.15625,341148.15625,242293.453125,276876.71875,248427.3125,245295.828125,21580.0,1.0,3
231421.921875,272440.875,389493.75,341255.8125,242027.65625,276684.3125,248448.234375,245333.75,21581.0,1.0,3
231858.328125,273309.8125,390655.03125,341611.90625,243180.203125,276984.53125,248885.25,245890.921875,21582.0,1.0,3
232276.125,273910.4375,391240.75,341734.40625,244181.734375,277373.4375,249156.96875,246217.265625,21583.0,1.0,3
232090.59375,273403.6875,390427.875,341452.3125,243639.484375,277324.1875,248887.484375,245862.765625,21584.0,1.0,3
231555.859375,272488.25,389339.15625,341155.75,242305.96875,276899.15625,248451.625,245314.4375,21585.0,1.0,3
231416.03125,272434.59375,389481.59375,341255.8125,242023.1875,276692.625,248452.34375,245335.078125,21586.0,1.0,3
231854.921875,273303.90625,390642.15625,341608.96875,243171.4375,276987.5625,248885.171875,245891.1875,21587.0,1.0,3
232264.046875,273900.4375,391235.125,341732.8125,244177.359375,277373.28125,249157.234375,246230.21875,21588.0,1.0,3
232087.375,273403.34375,390431.09375,341451.53125,243647.53125,277318.90625,248880.25,245876.171875,21589.0,1.0,3
231561.21875,272492.28125,389336.84375,341151.03125,242314.203125,276893.6875,248438.578125,245315.234375,21590.0,1.0,3
231415.3125,272429.875,389468.09375,341249.28125,242021.578125,276691.0,248444.921875,245332.40625,21591.0,1.0,3
231850.09375,273298.28125,390629.75,341605.3125,243168.03125,276991.6875,248898.21875,245903.359375,21592.0,1.0,3
232267.1875,273905.96875,391233.96875,341732.34375,244180.125,277380.78125,249178.0625,246243.546875,21593.0,1.0,3
232094.53125,273413.71875,390432.78125,341449.09375,243653.34375,277328.65625,248894.90625,245873.671875,21594.0,1.0,3
231568.90625,272499.875,389334.5,341146.65625,242322.609375,276906.3125,248453.59375,245322.125,21595.0,1.0,3
231411.203125,272420.65625,389449.21875,341234.53125,242014.421875,276688.15625,248439.734375,245330.171875,21596.0,1.0,3
231837.765625,273280.5625,390604.1875,341586.875,243147.921875,276978.1875,248876.140625,245883.421875,21597.0,1.0,3
232265.296875,273906.25,391216.25,341716.625,244171.1875,277370.5,249156.875,246226.65625,21598.0,1.0,3
232099.71875,273426.9375,390425.375,341438.5625,243663.4375,277332.5,248898.671875,245877.78125,21599.0,1.0,3
231564.078125,272500.78125,389319.40625,341129.5625,242323.953125,276903.34375,248447.78125,245316.484375,21600.0,1.0,3
231408.34375,272422.0,389429.0,341217.53125,242002.890625,276687.25,248430.171875,245319.34375,21601.0,1.0,3
231842.671875,273284.59375,390585.21875,341571.59375,243133.890625,276976.65625,248867.28125,245875.375,21602.0,1.0,3
232268.078125,273908.75,391206.25,341710.28125,244167.34375,277367.28125,249161.875,246229.15625,21603.0,1.0,3
232102.21875,273431.21875,390426.25,341435.25,243667.90625,277330.4375,248904.03125,245887.265625,21604.0,1.0,3
231572.125,272507.65625,389321.28125,341127.25,242331.640625,276907.71875,248454.9375,245326.671875,21605.0,1.0,3
231412.625,272418.875,389420.34375,341214.5,242001.984375,276689.21875,248440.8125,245323.375,21606.0,1.0,3
231847.421875,273283.0,390575.125,341574.8125,243130.21875,276981.75,248883.015625,245885.828125,21607.0,1.0,3
232270.9375,273898.65625,391197.03125,341706.15625,244166.71875,277362.4375,249157.234375,246233.0,21608.0,1.0,3
232109.015625,273423.4375,390417.21875,341426.125,243674.96875,277319.96875,248891.25,245883.859375,21609.0,1.0,3
231580.265625,272499.875,389304.8125,341116.15625,242335.484375,276897.34375,248438.40625,245320.515625,21610.0,1.0,3
231410.21875,272397.25,389392.8125,341206.09375,241996.71875,276680.71875,248435.359375,245331.6875,21611.0,1.0,3
231833.109375,273250.0,390542.3125,341560.875,243115.375,276963.78125,248870.765625,245890.296875,21612.0,1.0,3
232265.75,273886.3125,391178.25,341694.8125,244159.375,277361.03125,249156.25,246225.125,21613.0,1.0,3
232108.84375,273422.5625,390410.15625,341416.5625,243679.265625,277328.3125,248899.5625,245876.890625,21614.0,1.0,3
231577.5,272497.8125,389294.8125,341104.0,242342.90625,276906.9375,248451.90625,245314.875,21615.0,1.0,3
231407.984375,272395.96875,389375.0,341187.0625,241995.734375,276689.84375,248434.109375,245304.6875,21616.0,1.0,3
231831.953125,273247.5,390523.25,341541.46875,243108.671875,276975.15625,248868.0,245860.53125,21617.0,1.0,3
232259.3125,273881.65625,391165.90625,341681.65625,244159.03125,277361.375,249166.265625,246222.71875,21618.0,1.0,3
232113.3125,273433.65625,390408.09375,341408.34375,243693.296875,277330.53125,248910.375,245886.09375,21619.0,1.0,3
231583.21875,272509.625,389290.6875,341093.8125,242355.328125,276918.53125,248460.75,245319.609375,21620.0,1.0,3
231404.046875,272394.5625,389355.59375,341169.90625,241990.1875,276691.375,248438.40625,245308.796875,21621.0,1.0,3
231827.65625,273247.0625,390504.5625,341530.90625,243104.734375,276981.125,248889.90625,245870.71875,21622.0,1.0,3
232261.375,273885.59375,391153.03125,341672.90625,244162.6875,277360.84375,249163.765625,246225.125,21623.0,1.0,3
232105.984375,273426.03125,390391.65625,341391.1875,243698.9375,277320.96875,248893.484375,245875.375,21624.0,1.0,3
231576.515625,272499.53125,389272.28125,341075.03125,242363.015625,276904.59375,248446.53125,245312.28125,21625.0,1.0,3
231402.171875,272383.28125,389332.28125,341152.53125,241995.015625,276677.9375,248422.21875,245296.375,21626.0,1.0,3
231814.15625,273224.34375,390471.9375,341504.53125,243093.46875,276951.34375,248851.734375,245844.25,21627.0,1.0,3
232252.875,273875.59375,391132.5625,341653.125,244157.421875,277350.46875,249157.234375,246216.1875,21628.0,1.0,3
232112.5,273438.5625,390390.03125,341386.53125,243710.828125,277330.90625,248910.734375,245890.65625,21629.0,1.0,3
231582.765625,272509.875,389267.1875,341073.875,242371.234375,276913.4375,248462.546875,245324.359375,21630.0,1.0,3
231400.734375,272379.625,389314.9375,341148.78125,241989.46875,276679.75,248436.171875,245300.390625,21631.0,1.0,3
231812.015625,273216.46875,390449.78125,341497.75,243079.34375,276941.4375,248852.625,245839.421875,21632.0,1.0,3
232246.171875,273869.78125,391117.71875,341647.40625,244150.0,277334.75,249145.609375,246207.515625,21633.0,1.0,3
232114.921875,273444.375,390387.4375,341387.59375,243717.4375,277319.71875,248908.234375,245902.453125,21634.0,1.0,3
231582.953125,272509.875,389258.875,341070.65625,242375.53125,276902.0,248456.90625,245336.609375,21635.0,1.0,3
231394.921875,272370.59375,389293.5625,341136.28125,241980.4375,276667.84375,248427.140625,245292.890625,21636.0,1.0,3
231809.328125,273210.03125,390432.59375,341494.0,243072.109375,276946.875,248869.15625,245848.453125,21637.0,1.0,3
232254.390625,273876.21875,391112.4375,341648.9375,244151.953125,277346.34375,249168.140625,246229.59375,21638.0,1.0,3
232116.0,273445.34375,390383.4375,341384.8125,243724.953125,277324.375,248928.171875,245918.203125,21639.0,1.0,3
231583.125,272510.4375,389250.0,341062.96875,242382.0625,276907.625,248464.0625,245339.734375,21640.0,1.0,3
231391.171875,272366.9375,389275.0625,341125.28125,241974.71875,276674.375,248422.578125,245291.90625,21641.0,1.0,3
231800.46875,273203.6875,390409.28125,341477.09375,243058.15625,276941.25,248854.953125,245835.3125,21642.0,1.0,3
232249.03125,273875.125,391100.03125,341632.65625,244144.546875,277339.65625,249158.84375,246211.71875,21643.0,1.0,3
232121.359375,273459.46875,390382.25,341371.15625,243728.890625,277329.625,248924.140625,245903.53125,21644.0,1.0,3
231595.015625,272527.78125,389248.40625,341053.3125,242390.015625,276916.5,248467.90625,245333.46875,21645.0,1.0,3
231393.859375,272369.53125,389263.53125,341114.0,241971.59375,276675.625,248422.125,245294.671875,21646.0,1.0,3
231798.859375,273202.78125,390399.4375,341469.5,243049.9375,276945.5625,248859.5,245850.96875,21647.0,1.0,3
232247.875,273878.4375,391096.71875,341632.125,244143.640625,277346.1875,249172.15625,246233.0,21648.0,1.0,3
232122.4375,273471.1875,390385.03125,341374.0,243741.140625,277337.875,248938.453125,245919.71875,21649.0,1.0,3
231594.03125,272540.03125,389250.5625,341055.375,242408.171875,276932.125,248484.359375,245340.453125,21650.0,1.0,3
231389.65625,272374.71875,389251.96875,341110.34375,241979.734375,276676.875,248420.78125,245284.5625,21651.0,1.0,3
231790.8125,273199.21875,390375.75,341462.0625,243044.65625,276930.625,248831.078125,245818.59375,21652.0,1.0,3
232242.0625,273879.59375,391080.625,341627.125,244141.953125,277344.84375,249157.953125,246212.34375,21653.0,1.0,3
232122.875,273475.84375,390377.34375,341369.625,243748.734375,277346.4375,248934.875,245916.59375,21654.0,1.0,3
231593.59375,272535.375,389234.90625,341045.96875,242408.4375,276927.21875,248470.859375,245343.84375,21655.0,1.0,3
231398.59375,272370.25,389230.4375,341104.0,241971.859375,276679.90625,248426.515625,245295.921875,21656.0,1.0,3
231798.59375,273190.0,390355.96875,341459.125,243037.328125,276947.4375,248853.609375,245836.03125,21657.0,1.0,3
232250.109375,273866.375,391064.1875,341624.78125,244140.875,277342.5,249161.796875,246225.578125,21658.0,1.0,3
232136.203125,273468.78125,390367.78125,341367.21875,243755.984375,277341.0,248935.234375,245930.984375,21659.0,1.0,3
231610.484375,272536.96875,389226.21875,341043.28125,242421.046875,276933.84375,248485.703125,245357.078125,21660.0,1.0,3
231399.671875,272358.53125,389210.9375,341094.25,241971.859375,276682.25,248427.9375,245299.046875,21661.0,1.0,3
231793.328125,273177.125,390330.78125,341443.75,243027.84375,276938.65625,248854.59375,245843.546875,21662.0,1.0,3
232235.53125,273857.4375,391041.375,341605.65625,244133.625,277342.5,249177.53125,246226.65625,21663.0,1.0,3
232127.4375,273475.125,390357.0625,341354.6875,243764.828125,277348.5,248943.453125,245926.328125,21664.0,1.0,3
231599.3125,272538.5,389205.03125,341023.96875,242422.46875,276924.4375,248467.71875,245340.265625,21665.0,1.0,3
231387.59375,272354.15625,389176.96875,341069.5625,241959.078125,276662.21875,248407.828125,245276.25,21666.0,1.0,3
231781.609375,273171.9375,390298.75,341421.84375,243010.59375,276922.125,248832.953125,245815.828125,21667.0,1.0,3
232235.4375,273865.3125,391029.125,341596.4375,244129.609375,277340.0,249171.265625,246225.578125,21668.0,1.0,3
232124.390625,273478.25,390352.84375,341346.8125,243769.203125,277341.0,248942.828125,245941.984375,21669.0,1.0,3
231600.109375,272541.625,389201.8125,341016.03125,242427.84375,276919.1875,248467.1875,245349.828125,21670.0,1.0,3
231391.171875,272356.71875,389171.0625,341065.375,241959.515625,276665.0,248404.96875,245281.890625,21671.0,1.0,3
231779.640625,273165.96875,390286.875,341414.5,242999.0625,276915.15625,248823.46875,245817.25,21672.0,1.0,3
232230.25,273857.6875,391020.4375,341587.34375,244117.09375,277321.9375,249148.109375,246216.1875,21673.0,1.0,3
232130.203125,273483.625,390351.96875,341342.34375,243769.921875,277333.84375,248932.109375,245935.453125,21674.0,1.0,3
231609.953125,272551.65625,389204.78125,341018.625,242434.09375,276929.90625,248478.359375,245358.78125,21675.0,1.0,3
231393.40625,272353.59375,389164.4375,341066.8125,241952.109375,276672.5,248421.328125,245291.09375,21676.0,1.0,3
231781.703125,273162.90625,390282.75,341422.28125,242990.203125,276919.1875,248842.34375,245832.09375,21677.0,1.0,3
232237.140625,273860.125,391022.875,341595.375,244117.09375,277324.53125,249162.234375,246228.4375,21678.0,1.0,3
232144.78125,273494.71875,390362.875,341348.4375,243781.375,277342.15625,248943.8125,245940.09375,21679.0,1.0,3
231618.53125,272555.65625,389206.5625,341018.875,242442.671875,276939.03125,248491.421875,245361.28125,21680.0,1.0,3
231391.796875,272346.53125,389150.5,341059.28125,241947.453125,276677.875,248419.09375,245280.28125,21681.0,1.0,3
231775.890625,273151.90625,390263.96875,341411.375,242981.625,276929.1875,248834.65625,245811.53125,21682.0,1.0,3
232239.015625,273861.71875,391015.4375,341589.5625,244118.34375,277334.28125,249165.28125,246224.6875,21683.0,1.0,3
232145.765625,273496.75,390360.8125,341344.40625,243793.34375,277345.28125,248948.640625,245946.0,21684.0,1.0,3
231622.828125,272559.59375,389201.90625,341012.1875,242459.671875,276938.84375,248487.75,245363.875,21685.0,1.0,3
231398.328125,272348.96875,389137.4375,341052.21875,241959.515625,276681.8125,248415.875,245284.84375,21686.0,1.0,3
231789.125,273158.28125,390245.84375,341401.0,242983.953125,276927.84375,248832.5,245808.3125,21687.0,1.0,3
232249.484375,273870.40625,391002.9375,341579.375,244123.796875,277340.71875,249170.46875,246225.9375,21688.0,1.0,3
232155.59375,273511.6875,390356.4375,341332.53125,243805.78125,277355.03125,248953.5625,245949.125,21689.0,1.0,3
231636.765625,272577.125,389197.8125,341002.0,242471.5625,276951.8125,248494.546875,245367.0,21690.0,1.0,3
231411.015625,272357.28125,389123.59375,341040.0625,241957.90625,276678.9375,248411.75,245289.671875,21691.0,1.0,3
231781.703125,273147.8125,390222.84375,341383.65625,242965.0,276910.6875,248817.21875,245814.03125,21692.0,1.0,3
232242.421875,273863.34375,390983.875,341562.65625,244105.5625,277321.59375,249152.765625,246213.859375,21693.0,1.0,3
232159.625,273518.21875,390350.625,341326.09375,243802.828125,277351.8125,248953.65625,245945.546875,21694.0,1.0,3
231636.859375,272580.625,389191.0,340999.3125,242473.609375,276953.59375,248498.921875,245372.984375,21695.0,1.0,3
231406.09375,272354.21875,389104.1875,341033.0,241949.234375,276682.6875,248413.640625,245281.703125,21696.0,1.0,3
231781.96875,273145.46875,390204.34375,341380.53125,242954.359375,276914.0,248824.453125,245798.03125,21697.0,1.0,3
232242.765625,273866.46875,390980.65625,341567.3125,244105.828125,277328.9375,249170.28125,246217.53125,21698.0,1.0,3
232155.328125,273523.84375,390356.4375,341334.3125,243810.421875,277356.8125,248967.78125,245959.859375,21699.0,1.0,3
231635.25,272586.59375,389193.6875,341004.65625,242480.859375,276957.4375,248508.140625,245377.546875,21700.0,1.0,3
231392.78125,272340.46875,389087.84375,341025.15625,241939.140625,276669.1875,248408.1875,245265.796875,21701.0,1.0,3
231762.828125,273122.78125,390180.84375,341372.21875,242937.015625,276896.03125,248810.15625,245784.171875,21702.0,1.0,3
232236.25,273857.25,390963.9375,341564.90625,244100.1875,277318.03125,249163.3125,246217.078125,21703.0,1.0,3
232163.015625,273530.28125,390346.875,341329.84375,243823.21875,277353.0625,248965.625,245952.703125,21704.0,1.0,3
231637.671875,272585.4375,389176.6875,340992.25,242491.3125,276949.40625,248500.71875,245373.96875,21705.0,1.0,3
231393.9375,272339.75,389069.15625,341018.0625,241944.859375,276673.3125,248411.125,245275.8125,21706.0,1.0,3
231766.6875,273130.65625,390162.59375,341363.1875,242937.546875,276901.75,248809.4375,245786.40625,21707.0,1.0,3
232236.515625,273866.5625,390952.0625,341553.09375,244101.53125,277320.96875,249159.90625,246211.890625,21708.0,1.0,3
232165.875,273549.4375,390345.96875,341321.96875,243833.765625,277368.25,248981.015625,245962.546875,21709.0,1.0,3
231642.5,272607.0625,389171.4375,340980.71875,242502.40625,276963.96875,248509.296875,245368.515625,21710.0,1.0,3
231388.046875,272347.34375,389052.34375,340998.78125,241945.84375,276683.125,248407.828125,245263.296875,21711.0,1.0,3
231756.390625,273131.28125,390141.03125,341341.5625,242929.40625,276911.46875,248815.875,245784.359375,21712.0,1.0,3
232229.625,273872.90625,390932.84375,341531.0,244094.921875,277321.5,249158.125,246208.40625,21713.0,1.0,3
232161.328125,273558.0,390333.625,341300.875,243836.359375,277365.9375,248968.21875,245959.859375,21714.0,1.0,3
231639.90625,272618.25,389163.65625,340965.5,242509.203125,276974.875,248512.515625,245379.78125,21715.0,1.0,3
231390.8125,272361.28125,389035.15625,340985.96875,241940.5625,276690.90625,248421.40625,245274.203125,21716.0,1.0,3
231755.5,273141.90625,390121.65625,341333.78125,242915.8125,276916.03125,248822.21875,245782.296875,21717.0,1.0,3
232226.859375,273883.8125,390927.5625,341534.75,244091.25,277336.34375,249178.25,246219.140625,21718.0,1.0,3
232154.171875,273567.5625,390331.03125,341304.4375,243836.984375,277373.375,248974.390625,245967.015625,21719.0,1.0,3
231630.421875,272627.28125,389156.84375,340970.0625,242509.375,276983.8125,248518.859375,245386.765625,21720.0,1.0,3
231380.265625,272364.5,389022.84375,340991.875,241937.0,276704.96875,248421.5,245278.484375,21721.0,1.0,3
231738.421875,273132.0625,390100.0,341329.5625,242904.375,276907.5625,248794.953125,245781.765625,21722.0,1.0,3
232214.609375,273880.3125,390910.9375,341528.78125,244084.28125,277329.0,249149.625,246214.40625,21723.0,1.0,3
232152.921875,273576.6875,390331.125,341307.5,243848.875,277379.4375,248974.65625,245980.421875,21724.0,1.0,3
231632.125,272632.1875,389157.65625,340968.09375,242524.84375,276983.625,248510.90625,245395.25,21725.0,1.0,3
231380.890625,272358.96875,389014.78125,340983.375,241942.171875,276699.59375,248412.203125,245271.875,21726.0,1.0,3
231740.9375,273126.625,390096.15625,341328.78125,242908.75,276920.15625,248808.359375,245781.046875,21727.0,1.0,3
232215.953125,273874.96875,390915.3125,341525.65625,244090.625,277336.4375,249160.984375,246224.328125,21728.0,1.0,3
232155.78125,273574.53125,390342.3125,341300.5,243863.359375,277385.78125,248977.25,245974.703125,21729.0,1.0,3
231637.671875,272636.125,389166.875,340961.03125,242541.390625,276991.78125,248514.125,245389.625,21730.0,1.0,3
231377.484375,272355.125,389008.78125,340972.9375,241944.953125,276703.0,248410.859375,245267.578125,21731.0,1.0,3
231731.359375,273117.59375,390082.3125,341315.1875,242900.984375,276921.3125,248808.09375,245766.203125,21732.0,1.0,3
232209.328125,273874.40625,390905.21875,341516.25,244088.484375,277337.6875,249162.421875,246209.75,21733.0,1.0,3
232165.25,273590.90625,390341.125,341293.1875,243873.71875,277388.28125,248991.828125,245984.453125,21734.0,1.0,3
231654.109375,272649.4375,389165.78125,340955.40625,242554.078125,276999.71875,248537.546875,245414.125,21735.0,1.0,3
231384.46875,272350.3125,388995.375,340959.15625,241941.375,276699.59375,248402.640625,245263.203125,21736.0,1.0,3
231734.671875,273110.0,390061.5625,341297.5625,242885.953125,276910.6875,248794.5,245760.65625,21737.0,1.0,3
232218.359375,273872.1875,390891.25,341503.03125,244076.140625,277327.9375,249157.671875,246207.0625,21738.0,1.0,3
232175.890625,273593.78125,390334.25,341287.375,243868.8125,277379.4375,248984.859375,245979.4375,21739.0,1.0,3
231654.296875,272644.34375,389153.8125,340948.53125,242545.578125,276990.0625,248523.15625,245405.09375,21740.0,1.0,3
231387.6875,272348.0625,388978.3125,340955.125,241928.40625,276693.96875,248407.109375,245271.34375,21741.0,1.0,3
231742.546875,273111.59375,390046.09375,341297.84375,242867.625,276912.375,248800.859375,245761.90625,21742.0,1.0,3
232226.671875,273879.4375,390885.34375,341506.34375,244067.828125,277333.40625,249174.390625,246214.9375,21743.0,1.0,3
232179.921875,273597.96875,390334.875,341289.34375,243873.015625,277377.03125,248998.71875,246000.1875,21744.0,1.0,3
231673.15625,272659.65625,389151.40625,340944.40625,242554.4375,276984.53125,248522.0,245401.6875,21745.0,1.0,3
231395.8125,272346.09375,388960.875,340942.71875,241926.890625,276686.09375,248400.671875,245253.09375,21746.0,1.0,3
231736.734375,273096.21875,390022.03125,341285.40625,242858.953125,276895.9375,248800.765625,245762.625,21747.0,1.0,3
232222.75,273868.875,390869.8125,341496.5,244065.328125,277323.46875,249173.765625,246216.8125,21748.0,1.0,3
232188.6875,273605.5625,390330.15625,341281.375,243885.078125,277388.90625,248998.53125,245990.703125,21749.0,1.0,3
231674.859375,272661.0625,389142.375,340933.78125,242568.203125,276993.8125,248523.15625,245398.390625,21750.0,1.0,3
231395.90625,272343.0625,388942.53125,340931.71875,241933.953125,276690.75,248397.890625,245254.53125,21751.0,1.0,3
231738.78125,273092.5625,390000.21875,341271.0,242861.90625,276898.53125,248792.546875,245753.15625,21752.0,1.0,3
232217.921875,273863.25,390850.03125,341483.0,244069.96875,277328.75,249170.640625,246211.71875,21753.0,1.0,3
232188.59375,273611.125,390319.5,341271.1875,243896.96875,277394.0,249006.578125,245996.0625,21754.0,1.0,3
231674.6875,272668.3125,389133.34375,340925.0,242579.109375,277006.25,248544.609375,245407.6875,21755.0,1.0,3
231386.875,272342.53125,388925.8125,340920.09375,241931.1875,276701.5625,248409.796875,245258.734375,21756.0,1.0,3
231724.75,273084.78125,389974.75,341256.09375,242843.9375,276895.75,248787.265625,245752.34375,21757.0,1.0,3
232214.78125,273863.5,390832.15625,341466.8125,244052.8125,277310.5,249149.546875,246207.703125,21758.0,1.0,3
232182.421875,273612.375,390313.875,341257.78125,243893.578125,277385.53125,248995.5,246001.796875,21759.0,1.0,3
231673.34375,272675.46875,389129.9375,340915.78125,242584.203125,277004.28125,248534.0625,245420.015625,21760.0,1.0,3
231390.453125,272345.65625,388909.28125,340905.96875,241926.171875,276692.34375,248397.359375,245258.8125,21761.0,1.0,3
231719.734375,273075.03125,389951.78125,341242.40625,242829.546875,276887.4375,248776.890625,245742.78125,21762.0,1.0,3
232212.375,273859.03125,390815.25,341460.5625,244044.671875,277310.6875,249149.09375,246202.515625,21763.0,1.0,3
232189.578125,273619.34375,390306.53125,341254.90625,243897.953125,277392.40625,249006.3125,246002.78125,21764.0,1.0,3
231674.953125,272678.40625,389119.03125,340906.40625,242586.09375,277014.03125,248546.40625,245414.203125,21765.0,1.0,3
231381.6875,272336.625,388888.28125,340893.53125,241914.1875,276700.40625,248403.078125,245252.65625,21766.0,1.0,3
231712.765625,273065.8125,389927.0,341227.90625,242812.109375,276881.8125,248775.46875,245739.5625,21767.0,1.0,3
232197.359375,273843.03125,390791.9375,341442.65625,244031.078125,277295.84375,249146.953125,246195.359375,21768.0,1.0,3
232177.328125,273608.6875,390293.65625,341243.75,243899.03125,277385.78125,249011.765625,246003.84375,21769.0,1.0,3
231674.046875,272673.9375,389110.90625,340902.46875,242597.0,277015.5625,248557.765625,245429.859375,21770.0,1.0,3
231378.828125,272324.5625,388868.78125,340884.5,241919.296875,276699.3125,248410.6875,245255.59375,21771.0,1.0,3
231700.96875,273042.21875,389898.46875,341212.1875,242804.6875,276874.125,248775.375,245729.640625,21772.0,1.0,3
232187.078125,273826.5,390774.5,341434.34375,244028.9375,277296.46875,249150.796875,246203.9375,21773.0,1.0,3
232181.703125,273610.3125,390285.09375,341235.0625,243910.734375,277386.15625,249012.484375,246009.921875,21774.0,1.0,3
231677.71875,272672.34375,389094.34375,340885.21875,242608.890625,277010.09375,248544.96875,245415.734375,21775.0,1.0,3
231374.890625,272311.21875,388842.5,340863.9375,241920.625,276697.09375,248395.03125,245242.71875,21776.0,1.0,3
231696.046875,273031.59375,389873.28125,341198.40625,242802.265625,276880.1875,248775.90625,245732.5,21777.0,1.0,3
232194.484375,273834.28125,390759.375,341425.40625,244034.125,277301.21875,249155.0,246206.796875,21778.0,1.0,3
232184.203125,273618.8125,390276.75,341223.34375,243919.6875,277385.6875,249001.125,246003.21875,21779.0,1.0,3
231679.421875,272683.96875,389088.90625,340875.46875,242619.4375,277016.71875,248548.375,245419.84375,21780.0,1.0,3
231377.765625,272324.71875,388828.8125,340856.15625,241923.21875,276703.34375,248404.875,245249.25,21781.0,1.0,3
231693.90625,273036.59375,389849.65625,341183.21875,242789.75,276876.78125,248764.90625,245716.765625,21782.0,1.0,3
232186.890625,273834.71875,390740.875,341410.65625,244021.6875,277300.75,249149.984375,246188.65625,21783.0,1.0,3
232179.109375,273625.25,390272.65625,341220.21875,243922.0,277396.4375,249019.28125,246008.9375,21784.0,1.0,3
231677.1875,272694.5,389084.6875,340873.0625,242622.46875,277023.59375,248557.40625,245425.65625,21785.0,1.0,3
231368.375,272323.03125,388812.5625,340845.6875,241907.9375,276697.96875,248402.640625,245240.046875,21786.0,1.0,3
231686.390625,273035.25,389835.375,341179.90625,242773.125,276876.34375,248774.5625,245718.546875,21787.0,1.0,3
232179.734375,273835.875,390730.40625,341408.78125,244010.078125,277292.625,249153.203125,246196.25,21788.0,1.0,3
232180.09375,273632.75,390269.34375,341216.65625,243920.484375,277386.3125,249018.921875,246012.078125,21789.0,1.0,3
231677.265625,272698.28125,389079.78125,340866.1875,242624.796875,277016.96875,248556.421875,245423.953125,21790.0,1.0,3
231367.296875,272322.40625,388797.4375,340839.53125,241907.84375,276697.875,248397.71875,245241.203125,21791.0,1.0,3
231676.734375,273022.625,389812.375,341170.875,242764.8125,276868.03125,248765.1875,245725.078125,21792.0,1.0,3
232174.828125,273829.09375,390715.5625,341399.21875,244003.8125,277285.375,249145.78125,246201.265625,21793.0,1.0,3
232184.65625,273639.0,390266.03125,341211.8125,243928.4375,277392.6875,249025.09375,246019.3125,21794.0,1.0,3
231686.390625,272704.25,389077.8125,340864.9375,242639.109375,277023.34375,248562.046875,245440.671875,21795.0,1.0,3
231370.25,272310.15625,388782.78125,340827.90625,241907.84375,276683.125,248383.953125,245234.59375,21796.0,1.0,3
231680.140625,273008.6875,389796.375,341164.34375,242756.59375,276858.28125,248754.453125,245712.5625,21797.0,1.0,3
232171.421875,273812.375,390705.46875,341399.3125,244003.546875,277288.5,249152.046875,246203.765625,21798.0,1.0,3
232185.8125,273635.96875,390269.25,341213.625,243942.75,277403.3125,249037.78125,246034.78125,21799.0,1.0,3
231695.59375,272710.78125,389079.53125,340860.375,242655.828125,277032.28125,248561.609375,245444.078125,21800.0,1.0,3
231375.078125,272312.46875,388774.0,340822.71875,241915.359375,276694.59375,248388.78125,245247.28125,21801.0,1.0,3
231678.703125,273003.3125,389778.0625,341150.75,242754.265625,276860.6875,248756.875,245721.140625,21802.0,1.0,3
232174.546875,273810.84375,390693.59375,341386.34375,244000.859375,277284.40625,249148.109375,246206.625,21803.0,1.0,3
232186.984375,273636.78125,390259.5,341200.65625,243946.140625,277394.0,249027.6875,246028.96875,21804.0,1.0,3
231698.90625,272715.34375,389072.28125,340851.96875,242664.859375,277034.0625,248565.359375,245439.15625,21805.0,1.0,3
231373.203125,272309.96875,388761.3125,340815.75,241914.46875,276698.15625,248396.28125,245247.203125,21806.0,1.0,3
231671.46875,272993.84375,389759.90625,341142.1875,242739.0625,276860.4375,248763.296875,245718.640625,21807.0,1.0,3
232175.53125,273812.71875,390678.5625,341376.25,243987.265625,277273.75,249133.265625,246193.390625,21808.0,1.0,3
232192.078125,273642.84375,390255.125,341193.6875,243944.625,277384.8125,249009.0,246024.59375,21809.0,1.0,3
231700.703125,272715.625,389064.5,340840.78125,242663.609375,277026.5625,248552.390625,245436.921875,21810.0,1.0,3
231371.6875,272303.09375,388740.3125,340800.8125,241902.03125,276692.71875,248383.859375,245237.1875,21811.0,1.0,3
231667.078125,272981.6875,389732.71875,341126.875,242719.390625,276855.6875,248746.5,245697.984375,21812.0,1.0,3
232181.625,273812.5625,390666.65625,341370.53125,243981.640625,277289.40625,249149.8125,246190.171875,21813.0,1.0,3
232208.796875,273659.03125,390258.71875,341193.84375,243953.921875,277402.40625,249035.453125,246040.0625,21814.0,1.0,3
231711.0625,272729.46875,389068.96875,340841.3125,242675.046875,277046.84375,248575.28125,245458.46875,21815.0,1.0,3
231379.8125,272312.03125,388735.46875,340796.53125,241904.625,276703.78125,248393.421875,245245.40625,21816.0,1.0,3
231678.4375,272991.0,389724.40625,341119.28125,242717.515625,276856.15625,248744.625,245700.125,21817.0,1.0,3
232174.375,273807.8125,390654.78125,341357.90625,243978.515625,277279.75,249139.625,246191.421875,21818.0,1.0,3
232200.390625,273656.8125,390250.375,341178.03125,243961.34375,277398.3125,249035.90625,246038.984375,21819.0,1.0,3
231717.328125,272739.9375,389060.21875,340823.09375,242690.609375,277044.625,248573.21875,245454.0,21820.0,1.0,3
231388.484375,272319.1875,388720.28125,340777.125,241918.65625,276715.59375,248396.5625,245239.421875,21821.0,1.0,3
231674.6875,272982.6875,389698.3125,341096.75,242718.59375,276856.59375,248744.0,245690.296875,21822.0,1.0,3
232174.828125,273807.90625,390636.4375,341340.75,243983.96875,277282.4375,249146.953125,246190.53125,21823.0,1.0,3
232210.859375,273672.28125,390247.4375,341171.40625,243980.65625,277409.65625,249041.71875,246045.15625,21824.0,1.0,3
231725.109375,272753.4375,389056.8125,340817.28125,242710.546875,277051.0625,248572.421875,245456.40625,21825.0,1.0,3
231384.28125,272318.75,388701.3125,340763.09375,241920.984375,276701.5625,248384.046875,245232.53125,21826.0,1.0,3
231664.046875,272977.9375,389679.875,341088.25,242711.703125,276855.6875,248742.828125,245687.078125,21827.0,1.0,3
232176.15625,273815.40625,390630.5625,341337.0,243981.1875,277279.125,249145.4375,246192.765625,21828.0,1.0,3
232216.046875,273682.1875,390247.875,341167.03125,243982.171875,277404.125,249050.21875,246058.828125,21829.0,1.0,3
231728.0625,272762.90625,389059.65625,340815.21875,242717.609375,277063.21875,248594.953125,245471.703125,21830.0,1.0,3
231384.90625,272320.34375,388695.15625,340761.9375,241920.1875,276711.65625,248396.640625,245244.515625,21831.0,1.0,3
231669.046875,272976.59375,389664.96875,341082.8125,242704.109375,276852.21875,248739.171875,245691.109375,21832.0,1.0,3
232169.640625,273805.84375,390612.21875,341329.75,243969.390625,277274.375,249137.203125,246186.234375,21833.0,1.0,3
232211.921875,273681.375,390237.875,341161.5,243980.203125,277403.84375,249041.0,246046.140625,21834.0,1.0,3
231731.71875,272767.65625,389052.15625,340811.1875,242720.640625,277058.90625,248594.859375,245470.625,21835.0,1.0,3
231384.90625,272317.5,388679.6875,340754.6875,241918.484375,276711.5625,248401.921875,245239.6875,21836.0,1.0,3
231656.171875,272964.6875,389643.3125,341070.90625,242691.671875,276851.3125,248734.609375,245677.6875,21837.0,1.0,3
232169.28125,273806.375,390601.59375,341322.15625,243965.09375,277275.5625,249139.796875,246180.609375,21838.0,1.0,3
232221.3125,273694.1875,390241.71875,341164.34375,243994.78125,277419.75,249059.328125,246058.125,21839.0,1.0,3
231739.140625,272770.34375,389047.875,340808.15625,242736.734375,277061.59375,248585.75,245469.90625,21840.0,1.0,3
231393.234375,272314.4375,388665.75,340746.90625,241924.125,276706.03125,248383.421875,245233.515625,21841.0,1.0,3
231662.25,272957.625,389628.75,341067.625,242692.390625,276849.0625,248736.75,245681.171875,21842.0,1.0,3
232168.46875,273798.4375,390593.53125,341319.28125,243969.125,277273.5,249145.609375,246179.359375,21843.0,1.0,3
232222.5625,273688.90625,390236.4375,341153.09375,244007.5625,277408.75,249052.71875,246052.65625,21844.0,1.0,3
231745.21875,272775.6875,389047.25,340799.75,242755.78125,277069.46875,248597.8125,245480.015625,21845.0,1.0,3
231395.015625,272313.90625,388654.65625,340734.3125,241932.703125,276715.875,248389.3125,245237.546875,21846.0,1.0,3
231658.671875,272948.4375,389605.9375,341046.875,242686.140625,276846.5,248726.015625,245674.390625,21847.0,1.0,3
232170.796875,273796.28125,390571.1875,341300.25,243964.65625,277268.03125,249134.875,246183.734375,21848.0,1.0,3
232231.859375,273696.59375,390226.4375,341140.65625,244014.359375,277407.25,249049.046875,246061.609375,21849.0,1.0,3
231748.796875,272776.3125,389035.96875,340783.21875,242760.78125,277063.46875,248588.6875,245476.609375,21850.0,1.0,3
231394.125,272311.3125,388635.15625,340720.53125,241927.609375,276713.625,248391.28125,245241.5625,21851.0,1.0,3
231663.6875,272951.125,389581.28125,341037.125,242671.65625,276844.875,248728.890625,245671.96875,21852.0,1.0,3
232170.265625,273793.3125,390553.5625,341293.1875,243951.875,277266.53125,249141.859375,246178.1875,21853.0,1.0,3
232224.359375,273692.65625,390215.0,341135.8125,244008.109375,277404.21875,249055.75,246060.984375,21854.0,1.0,3
231743.515625,272776.40625,389023.625,340780.4375,242757.484375,277060.53125,248597.09375,245481.703125,21855.0,1.0,3
231391.34375,272305.9375,388613.15625,340713.125,241914.375,276706.125,248391.8125,245234.234375,21856.0,1.0,3
231659.921875,272940.5625,389557.5,341028.71875,242654.484375,276838.875,248729.0625,245668.296875,21857.0,1.0,3
232167.671875,273788.40625,390536.75,341289.53125,243938.015625,277265.4375,249146.234375,246188.390625,21858.0,1.0,3
232230.796875,273698.5625,390210.15625,341133.9375,244006.3125,277406.4375,249064.875,246075.375,21859.0,1.0,3
231756.578125,272785.875,389021.03125,340773.90625,242760.4375,277064.90625,248598.4375,245477.6875,21860.0,1.0,3
231391.078125,272306.5625,388604.75,340707.9375,241913.921875,276714.34375,248392.359375,245232.890625,21861.0,1.0,3
231652.6875,272932.4375,389538.4375,341019.15625,242640.796875,276825.5625,248717.53125,245665.796875,21862.0,1.0,3
232160.703125,273786.1875,390521.375,341282.46875,243928.890625,277261.0625,249150.4375,246189.453125,21863.0,1.0,3
232229.984375,273704.375,390205.5,341131.28125,244014.984375,277409.21875,249064.0625,246070.453125,21864.0,1.0,3
231752.640625,272787.125,389009.96875,340763.4375,242768.921875,277055.59375,248572.59375,245469.46875,21865.0,1.0,3
231389.828125,272299.15625,388577.3125,340685.03125,241906.765625,276697.25,248355.875,245209.5625,21866.0,1.0,3
231644.8125,272921.15625,389510.8125,340999.9375,242628.203125,276822.6875,248695.0,245642.015625,21867.0,1.0,3
232156.859375,273781.6875,390504.65625,341264.84375,243922.625,277251.9375,249117.0,246162.09375,21868.0,1.0,3
232224.890625,273703.90625,390199.6875,341117.5,244019.015625,277401.625,249048.6875,246066.078125,21869.0,1.0,3
231755.0625,272796.625,389015.21875,340765.5,242785.28125,277071.6875,248605.5,245504.953125,21870.0,1.0,3
231393.234375,272309.34375,388581.34375,340694.15625,241922.0625,276715.3125,248391.109375,245243.625,21871.0,1.0,3
231644.90625,272920.28125,389502.21875,340996.34375,242628.640625,276823.96875,248703.40625,245644.875,21872.0,1.0,3
232155.421875,273777.3125,390494.1875,341256.71875,243917.171875,277243.625,249111.28125,246157.890625,21873.0,1.0,3
232231.78125,273713.75,390199.0625,341115.0,244026.171875,277403.59375,249049.3125,246066.25,21874.0,1.0,3
231760.421875,272808.78125,389014.34375,340761.375,242796.546875,277074.03125,248598.53125,245494.3125,21875.0,1.0,3
231394.484375,272309.71875,388567.125,340682.1875,241918.84375,276707.28125,248374.46875,245229.578125,21876.0,1.0,3
231639.1875,272911.78125,389482.65625,340989.5625,242617.828125,276819.46875,248697.859375,245651.3125,21877.0,1.0,3
232153.546875,273774.71875,390481.0625,341257.34375,243916.1875,277250.25,249126.828125,246178.640625,21878.0,1.0,3
232235.796875,273722.4375,390195.21875,341117.0625,244034.84375,277413.15625,249071.3125,246089.859375,21879.0,1.0,3
231766.046875,272812.875,389008.71875,340754.25,242809.78125,277080.65625,248614.796875,245499.859375,21880.0,1.0,3
231382.9375,272298.8125,388543.625,340666.4375,241918.21875,276709.0625,248390.484375,245231.015625,21881.0,1.0,3
231628.09375,272903.90625,389454.40625,340976.25,242609.953125,276822.4375,248713.6875,245645.953125,21882.0,1.0,3
232141.5625,273767.40625,390458.09375,341242.21875,243904.65625,277242.125,249125.9375,246163.078125,21883.0,1.0,3
232224.796875,273717.40625,390180.75,341103.71875,244034.390625,277407.0625,249071.40625,246080.921875,21884.0,1.0,3
231746.5625,272801.96875,388985.0,340739.3125,242801.921875,277066.6875,248602.015625,245500.390625,21885.0,1.0,3
231368.546875,272285.9375,388515.4375,340651.34375,241903.375,276698.4375,248363.75,245223.0625,21886.0,1.0,3
231613.34375,272887.1875,389425.4375,340958.8125,242589.65625,276809.90625,248686.6875,245636.5625,21887.0,1.0,3
232129.046875,273754.875,390437.96875,341231.3125,243893.125,277230.125,249109.125,246162.546875,21888.0,1.0,3
232221.84375,273717.25,390170.375,341096.75,244036.171875,277399.28125,249056.375,246077.703125,21889.0,1.0,3
231757.734375,272817.90625,388985.90625,340740.1875,242816.84375,277077.4375,248608.546875,245510.140625,21890.0,1.0,3
231378.296875,272295.75,388511.875,340652.03125,241915.0,276715.9375,248385.65625,245228.953125,21891.0,1.0,3
231616.203125,272888.34375,389415.34375,340956.46875,242590.109375,276815.09375,248703.484375,245647.375,21892.0,1.0,3
232126.453125,273755.59375,390427.40625,341221.125,243887.40625,277229.5,249112.625,246161.921875,21893.0,1.0,3
232222.65625,273725.1875,390167.96875,341082.28125,244038.40625,277404.75,249064.15625,246067.6875,21894.0,1.0,3
231767.3125,272832.28125,388989.3125,340730.46875,242827.21875,277090.03125,248620.34375,245503.796875,21895.0,1.0,3
231383.125,272300.0625,388503.28125,340636.03125,241916.34375,276711.5625,248375.09375,245217.78125,21896.0,1.0,3
231620.40625,272885.65625,389397.4375,340936.4375,242581.96875,276810.375,248684.71875,245618.6875,21897.0,1.0,3
232135.484375,273754.78125,390415.0625,341207.53125,243886.25,277230.125,249107.34375,246148.0625,21898.0,1.0,3
232228.46875,273724.03125,390165.28125,341074.5,244044.671875,277402.15625,249058.53125,246075.015625,21899.0,1.0,3
231766.046875,272826.46875,388984.125,340719.71875,242836.25,277082.25,248610.78125,245504.953125,21900.0,1.0,3
231383.75,272297.09375,388492.65625,340627.28125,241919.296875,276711.3125,248376.265625,245221.8125,21901.0,1.0,3
231610.390625,272877.8125,389383.15625,340930.28125,242574.90625,276811.09375,248690.4375,245625.203125,21902.0,1.0,3
232127.703125,273756.5,390411.40625,341210.5625,243885.96875,277238.53125,249126.390625,246164.328125,21903.0,1.0,3
232227.296875,273732.875,390170.28125,341083.53125,244058.625,277414.3125,249081.5,246103.796875,21904.0,1.0,3
231769.453125,272834.4375,388986.625,340723.84375,242854.21875,277088.15625,248617.390625,245523.546875,21905.0,1.0,3
231385.8125,272294.78125,388485.6875,340629.15625,241930.734375,276716.5625,248382.4375,245244.78125,21906.0,1.0,3
231612.984375,272867.6875,389364.71875,340927.25,242574.640625,276808.84375,248683.203125,245636.109375,21907.0,1.0,3
232129.671875,273745.21875,390390.65625,341200.46875,243881.140625,277229.40625,249108.421875,246153.875,21908.0,1.0,3
232230.96875,273729.9375,390159.8125,341073.875,244063.265625,277408.40625,249070.78125,246089.671875,21909.0,1.0,3
231776.328125,272838.28125,388978.75,340716.875,242862.09375,277090.46875,248617.484375,245518.015625,21910.0,1.0,3
231383.578125,272291.90625,388467.15625,340617.4375,241926.796875,276717.28125,248378.671875,245227.4375,21911.0,1.0,3
