FZ,C3,CZ,C4,PZ,PO7,OZ,PO8,Counter,Validation,Label
243868.265625,260533.203125,247593.765625,255991.328125,233609.8125,260744.640625,235005.8125,237096.671875,281875.0,1.0,3
243814.453125,260545.71875,247603.34375,255999.546875,233637.34375,260767.53125,235028.25,237121.71875,281876.0,1.0,3
243872.828125,260579.234375,247613.984375,256005.453125,233652.265625,260785.328125,235034.6875,237144.953125,281877.0,1.0,3
243970.203125,260590.234375,247618.359375,256009.03125,233635.015625,260784.078125,235021.984375,237137.71875,281878.0,1.0,3
243967.328125,260561.984375,247603.515625,255998.828125,233607.75,260757.875,235005.890625,237107.671875,281879.0,1.0,3
243861.484375,260530.25,247589.484375,255988.8125,233605.328125,260744.90625,235005.984375,237092.921875,281880.0,1.0,3
243806.21875,260543.21875,247598.25,255996.15625,233636.359375,260767.0,235027.53125,237116.796875,281881.0,1.0,3
243864.875,260574.328125,247608.4375,256001.96875,233653.96875,260784.34375,235031.109375,237138.078125,281882.0,1.0,3
243964.203125,260590.59375,247612.71875,256004.90625,233641.546875,260783.625,235019.75,237139.59375,281883.0,1.0,3
243961.171875,260559.296875,247597.34375,255995.609375,233613.109375,260756.453125,235003.65625,237111.15625,281884.0,1.0,3
243860.671875,260527.46875,247582.234375,255985.25,233606.765625,260741.421875,235004.203125,237092.390625,281885.0,1.0,3
243804.4375,260539.28125,247589.75,255990.96875,233636.890625,260760.296875,235023.515625,237114.296875,281886.0,1.0,3
243852.09375,260556.890625,247602.171875,255999.734375,233647.984375,260774.328125,235024.046875,237132.34375,281887.0,1.0,3
243946.765625,260562.171875,247605.65625,256001.15625,233631.265625,260769.953125,235008.9375,237129.125,281888.0,1.0,3
243959.734375,260550.71875,247596.8125,255995.53125,233611.40625,260751.34375,234999.375,237109.734375,281889.0,1.0,3
243867.921875,260532.03125,247585.1875,255989.984375,233611.859375,260745.1875,235005.359375,237096.046875,281890.0,1.0,3
243807.125,260538.5625,247594.84375,255997.671875,233639.046875,260769.5,235028.421875,237115.359375,281891.0,1.0,3
243853.78125,260559.484375,247605.125,256001.6875,233647.984375,260782.203125,235025.296875,237128.6875,281892.0,1.0,3
243952.140625,260572.09375,247607.8125,256001.421875,233629.921875,260775.765625,235006.4375,237121.0,281893.0,1.0,3
243959.28125,260550.359375,247596.71875,255991.234375,233603.28125,260751.703125,234990.875,237093.375,281894.0,1.0,3
243866.390625,260525.421875,247588.140625,255985.875,233604.34375,260742.859375,234999.375,237081.03125,281895.0,1.0,3
243808.28125,260534.09375,247596.0,255995.96875,233631.0,260761.984375,235019.484375,237102.75,281896.0,1.0,3
243856.375,260559.484375,247607.453125,256002.671875,233646.734375,260778.078125,235021.0,237126.71875,281897.0,1.0,3
243957.765625,260575.046875,247609.15625,256002.40625,233637.078125,260778.53125,235011.078125,237129.9375,281898.0,1.0,3
243969.484375,260559.75,247600.921875,255996.78125,233615.171875,260758.234375,235002.046875,237110.0,281899.0,1.0,3
243876.3125,260539.015625,247591.265625,255989.09375,233615.609375,260748.578125,235010.09375,237097.75,281900.0,1.0,3
243818.65625,260554.65625,247597.96875,255994.90625,233643.515625,260769.140625,235030.125,237120.453125,281901.0,1.0,3
243863.71875,260574.234375,247609.59375,255999.734375,233652.984375,260783.53125,235032.984375,237139.5,281902.0,1.0,3
243961.875,260581.203125,247615.9375,256004.015625,233639.75,260783.0,235021.265625,237138.703125,281903.0,1.0,3
243974.046875,260562.875,247604.859375,255997.578125,233616.234375,260760.5625,235008.84375,237112.765625,281904.0,1.0,3
243867.015625,260526.578125,247587.6875,255985.0625,233605.15625,260740.0,235003.484375,237086.84375,281905.0,1.0,3
243806.671875,260533.28125,247593.140625,255991.765625,233632.328125,260760.734375,235020.734375,237104.90625,281906.0,1.0,3
243860.40625,260559.484375,247604.40625,255999.375,233647.796875,260778.984375,235026.28125,237128.140625,281907.0,1.0,3
243965.640625,260574.5,247610.765625,256004.734375,233636.984375,260781.125,235016.265625,237127.875,281908.0,1.0,3
243972.34375,260549.640625,247597.96875,255996.15625,233610.515625,260757.25,235001.78125,237102.046875,281909.0,1.0,3
243875.0625,260523.546875,247587.875,255987.484375,233607.84375,260743.03125,235005.359375,237089.703125,281910.0,1.0,3
243815.171875,260535.34375,247593.0625,255991.046875,233635.109375,260762.265625,235019.75,237112.328125,281911.0,1.0,3
243859.875,260554.390625,247605.21875,256000.359375,233647.359375,260780.859375,235021.90625,237130.03125,281912.0,1.0,3
243959.640625,260565.296875,247612.28125,256005.359375,233632.78125,260780.40625,235011.53125,237127.25,281913.0,1.0,3
243969.84375,260547.765625,247598.6875,255995.609375,233607.21875,260756.359375,235000.625,237101.140625,281914.0,1.0,3
243873.640625,260521.03125,247586.265625,255986.765625,233604.703125,260741.6875,235002.859375,237085.765625,281915.0,1.0,3
243807.5625,260527.03125,247588.59375,255989.09375,233629.46875,260758.859375,235019.03125,237104.28125,281916.0,1.0,3
243852.53125,260550.71875,247603.34375,256002.046875,233646.90625,260779.78125,235027.265625,237130.390625,281917.0,1.0,3
243953.75,260561.890625,247609.59375,256007.0625,233633.765625,260780.3125,235013.3125,237127.796875,281918.0,1.0,3
243967.328125,260547.234375,247599.578125,256000.4375,233609.8125,260760.921875,235006.78125,237104.984375,281919.0,1.0,3
243868.8125,260520.953125,247581.703125,255987.484375,233601.765625,260743.21875,235006.96875,237087.5625,281920.0,1.0,3
243803.09375,260528.640625,247584.296875,255988.734375,233625.625,260758.5,235018.5,237103.5625,281921.0,1.0,3
243841.984375,260545.265625,247590.734375,255991.234375,233633.234375,260770.125,235014.296875,237117.15625,281922.0,1.0,3
243947.75,260563.78125,247599.765625,256000.0,233626.34375,260774.5,235009.03125,237121.890625,281923.0,1.0,3
243958.84375,260544.015625,247589.75,255992.390625,233605.25,260754.65625,234998.03125,237100.875,281924.0,1.0,3
243866.9375,260521.484375,247580.546875,255984.703125,233602.46875,260742.328125,235002.59375,237086.578125,281925.0,1.0,3
243803.90625,260529.171875,247583.84375,255987.203125,233624.109375,260760.015625,235014.296875,237100.078125,281926.0,1.0,3
243842.703125,260543.03125,247593.5,255992.3125,233631.359375,260771.640625,235015.90625,237113.03125,281927.0,1.0,3
243937.65625,260547.953125,247597.53125,255994.453125,233617.578125,260768.421875,235001.875,237113.390625,281928.0,1.0,3
243950.34375,260528.8125,247586.0,255988.375,233592.546875,260748.9375,234990.421875,237090.859375,281929.0,1.0,3
243859.6875,260507.53125,247572.40625,255976.125,233588.53125,260736.0625,234995.875,237075.484375,281930.0,1.0,3
243795.046875,260511.828125,247578.9375,255979.703125,233614.09375,260754.21875,235014.125,237095.15625,281931.0,1.0,3
243838.671875,260531.765625,247592.34375,255988.109375,233627.234375,260769.40625,235019.484375,237115.625,281932.0,1.0,3
243944.8125,260555.546875,247601.375,255994.09375,233618.390625,260772.265625,235009.03125,237119.203125,281933.0,1.0,3
243954.8125,260536.234375,247591.09375,255987.390625,233594.0625,260750.453125,234994.453125,237095.78125,281934.0,1.0,3
243853.96875,260503.96875,247577.046875,255978.09375,233585.9375,260732.484375,234993.015625,237075.578125,281935.0,1.0,3
243793.890625,260518.625,247585.640625,255985.421875,233613.65625,260752.875,235012.328125,237096.859375,281936.0,1.0,3
243844.40625,260549.015625,247599.5,255994.984375,233630.453125,260772.265625,235018.40625,237120.8125,281937.0,1.0,3
243949.546875,260566.28125,247609.421875,256001.515625,233623.03125,260776.03125,235010.640625,237122.515625,281938.0,1.0,3
243963.140625,260546.34375,247603.609375,255997.84375,233600.421875,260758.59375,235001.6875,237098.015625,281939.0,1.0,3
243866.03125,260517.015625,247589.75,255987.03125,233595.59375,260742.140625,235001.78125,237078.171875,281940.0,1.0,3
243798.625,260524.4375,247590.375,255988.546875,233616.78125,260757.609375,235016.71875,237092.203125,281941.0,1.0,3
243843.5,260551.171875,247601.8125,255996.59375,233634.125,260776.296875,235023.0625,237116.609375,281942.0,1.0,3
243945.34375,260565.390625,247610.484375,256001.609375,233625.0,260778.53125,235015.46875,237123.3125,281943.0,1.0,3
243956.515625,260543.390625,247597.34375,255990.875,233597.109375,260750.71875,235000.171875,237096.3125,281944.0,1.0,3
243863.0,260514.78125,247587.515625,255983.8125,233594.421875,260739.640625,235003.921875,237079.15625,281945.0,1.0,3
243806.140625,260529.078125,247594.671875,255990.609375,233622.953125,260763.234375,235025.125,237100.15625,281946.0,1.0,3
243845.109375,260546.078125,247602.359375,255997.484375,233632.609375,260778.34375,235026.640625,237117.234375,281947.0,1.0,3
243949.71875,260561.8125,247612.453125,256007.0625,233625.453125,260783.53125,235020.921875,237121.71875,281948.0,1.0,3
243970.734375,260546.96875,247603.609375,256000.625,233606.40625,260764.765625,235006.609375,237102.75,281949.0,1.0,3
243873.90625,260517.90625,247588.9375,255990.609375,233600.421875,260745.625,235003.125,237084.34375,281950.0,1.0,3
243801.484375,260514.59375,247592.4375,255992.75,233621.875,260759.578125,235018.859375,237096.765625,281951.0,1.0,3
243837.96875,260532.03125,247599.046875,255997.578125,233627.59375,260769.234375,235017.703125,237109.1875,281952.0,1.0,3
243952.3125,260559.75,247612.453125,256010.453125,233624.734375,260778.078125,235012.328125,237119.125,281953.0,1.0,3
243966.625,260540.890625,247599.046875,255998.390625,233599.34375,260755.1875,234995.53125,237091.484375,281954.0,1.0,3
243869.53125,260507.625,247584.109375,255986.21875,233591.46875,260737.40625,234998.03125,237070.65625,281955.0,1.0,3
243806.40625,260519.421875,247589.03125,255989.0,233615.609375,260753.40625,235013.40625,237090.234375,281956.0,1.0,3
243846.640625,260543.65625,247601.90625,255998.390625,233630.453125,260771.46875,235015.734375,237110.890625,281957.0,1.0,3
243947.390625,260557.0625,247607.265625,256004.203125,233620.359375,260773.4375,235004.546875,237112.5,281958.0,1.0,3
243966.703125,260540.796875,247598.15625,255997.484375,233597.5625,260753.765625,234992.578125,237090.234375,281959.0,1.0,3
243872.921875,260512.984375,247589.296875,255989.984375,233595.328125,260743.75,235006.15625,237075.484375,281960.0,1.0,3
243802.828125,260518.09375,247592.96875,255992.125,233621.25,260763.328125,235019.75,237092.921875,281961.0,1.0,3
243847.796875,260548.671875,247608.875,256003.296875,233639.046875,260784.515625,235028.25,237114.828125,281962.0,1.0,3
243953.75,260568.515625,247619.25,256012.6875,233632.25,260789.078125,235025.5625,237120.90625,281963.0,1.0,3
243965.453125,260542.578125,247602.171875,255999.09375,233601.484375,260761.8125,235004.28125,237091.578125,281964.0,1.0,3
243872.109375,260515.9375,247583.21875,255985.25,233593.890625,260741.6875,235001.6875,237072.8125,281965.0,1.0,3
243805.953125,260525.515625,247586.0,255987.296875,233618.03125,260759.125,235016.625,237090.234375,281966.0,1.0,3
243842.4375,260545.984375,247597.96875,255994.359375,233634.578125,260777.015625,235021.453125,237113.21875,281967.0,1.0,3
243942.84375,260561.359375,247609.78125,256005.359375,233629.65625,260784.515625,235017.96875,237121.265625,281968.0,1.0,3
243970.28125,260554.828125,247604.40625,256003.84375,233610.78125,260771.828125,235011.890625,237106.953125,281969.0,1.0,3
243876.859375,260527.75,247586.625,255991.328125,233603.28125,260754.21875,235006.078125,237086.125,281970.0,1.0,3
243796.125,260519.515625,247583.40625,255987.296875,233620.359375,260761.625,235016.0,237093.546875,281971.0,1.0,3
243836.0,260544.109375,247595.921875,255999.1875,233637.703125,260783.890625,235027.078125,237117.78125,281972.0,1.0,3
243945.25,260567.53125,247605.65625,256007.140625,233630.8125,260785.421875,235020.375,237123.5,281973.0,1.0,3
243967.15625,260549.734375,247595.734375,255998.46875,233606.5,260759.3125,235000.078125,237100.515625,281974.0,1.0,3
243871.046875,260516.203125,247579.640625,255985.0625,233599.25,260743.296875,234997.671875,237076.109375,281975.0,1.0,3
243799.96875,260522.015625,247584.5625,255987.65625,233625.890625,260762.4375,235016.4375,237091.671875,281976.0,1.0,3
243831.078125,260538.5625,247593.953125,255994.0,233635.46875,260775.40625,235019.390625,237108.84375,281977.0,1.0,3
243938.09375,260557.515625,247610.140625,256008.671875,233634.125,260783.984375,235019.65625,237121.984375,281978.0,1.0,3
243957.40625,260538.390625,247597.34375,255998.03125,233607.484375,260759.3125,234997.84375,237096.59375,281979.0,1.0,3
243861.125,260506.28125,247577.859375,255983.546875,233594.6875,260737.84375,234992.84375,237072.984375,281980.0,1.0,3
243791.46875,260511.5625,247579.109375,255985.0625,233616.328125,260753.9375,235010.640625,237087.015625,281981.0,1.0,3
243833.9375,260539.015625,247595.828125,255998.46875,233638.234375,260778.625,235023.15625,237113.03125,281982.0,1.0,3
243940.78125,260559.125,247607.8125,256005.984375,233633.3125,260783.453125,235014.5625,237121.0,281983.0,1.0,3
243958.484375,260535.609375,247593.765625,255993.46875,233601.484375,260752.6875,234992.3125,237086.578125,281984.0,1.0,3
243867.015625,260509.234375,247578.578125,255982.203125,233595.046875,260735.34375,234992.65625,237068.421875,281985.0,1.0,3
243796.296875,260515.234375,247580.71875,255984.625,233620.53125,260752.875,235008.3125,237085.765625,281986.0,1.0,3
243834.921875,260538.734375,247591.0,255993.109375,233634.296875,260770.125,235013.40625,237107.671875,281987.0,1.0,3
243936.84375,260552.234375,247596.28125,255998.828125,233622.40625,260766.28125,235000.171875,237109.375,281988.0,1.0,3
243960.984375,260534.625,247585.640625,255991.859375,233595.234375,260741.515625,234980.234375,237083.265625,281989.0,1.0,3
243873.28125,260508.515625,247576.875,255986.21875,233593.078125,260731.234375,234988.015625,237067.53125,281990.0,1.0,3
243796.84375,260508.515625,247579.109375,255985.421875,233615.96875,260751.0,235007.234375,237082.109375,281991.0,1.0,3
243826.078125,260524.703125,247590.734375,255991.953125,233626.96875,260767.625,235013.40625,237102.671875,281992.0,1.0,3
243927.8125,260540.34375,247597.171875,255997.484375,233616.234375,260769.328125,235001.875,237106.515625,281993.0,1.0,3
243953.390625,260528.640625,247588.671875,255991.40625,233591.296875,260748.3125,234985.328125,237083.53125,281994.0,1.0,3
243860.5,260500.03125,247575.71875,255983.640625,233585.390625,260732.578125,234986.5,237063.328125,281995.0,1.0,3
243788.078125,260502.53125,247579.640625,255987.03125,233609.984375,260749.46875,234999.71875,237077.1875,281996.0,1.0,3
243825.265625,260527.5625,247592.25,255995.609375,233624.28125,260766.546875,235006.875,237095.0625,281997.0,1.0,3
243932.46875,260547.953125,247604.5,256003.21875,233619.109375,260772.359375,235001.0625,237100.34375,281998.0,1.0,3
243960.0,260532.578125,247598.515625,256001.421875,233597.46875,260756.453125,234990.515625,237081.296875,281999.0,1.0,3
243873.28125,260508.96875,247584.203125,255991.953125,233591.921875,260741.25,234991.859375,237065.828125,282000.0,1.0,3
243801.671875,260515.5,247586.53125,255990.78125,233617.046875,260755.90625,235007.5,237082.546875,282001.0,1.0,3
243839.484375,260542.5,247602.71875,256003.296875,233636.984375,260779.328125,235020.015625,237107.859375,282002.0,1.0,3
243925.40625,260544.1875,247598.6875,255996.515625,233611.5,260767.265625,234996.234375,237093.734375,282003.0,1.0,3
243947.578125,260526.484375,247587.78125,255988.90625,233582.984375,260743.125,234974.328125,237063.59375,282004.0,1.0,3
243859.328125,260499.671875,247575.890625,255983.28125,233576.28125,260726.3125,234977.90625,237043.390625,282005.0,1.0,3
243798.625,260517.46875,247589.03125,255995.875,233613.296875,260754.390625,235009.734375,237074.953125,282006.0,1.0,3
243830.1875,260536.859375,247602.171875,256004.5625,233632.875,260774.5,235017.78125,237100.515625,282007.0,1.0,3
243932.640625,260554.125,247607.359375,256003.390625,233623.9375,260775.046875,235000.0,237100.4375,282008.0,1.0,3
243955.0,260536.5,247591.09375,255989.625,233594.609375,260748.40625,234980.765625,237072.359375,282009.0,1.0,3
243861.03125,260505.484375,247572.046875,255976.75,233580.65625,260726.9375,234981.125,237048.125,282010.0,1.0,3
243783.96875,260504.046875,247574.453125,255979.078125,233599.703125,260743.484375,234997.484375,237061.546875,282011.0,1.0,3
243825.625,260532.03125,247595.03125,255995.96875,233624.5625,260773.4375,235015.640625,237096.40625,282012.0,1.0,3
243935.59375,260556.4375,247604.234375,256004.203125,233619.453125,260778.53125,235006.34375,237105.625,282013.0,1.0,3
243964.296875,260540.265625,247591.53125,255994.625,233593.53125,260755.28125,234988.8125,237080.3125,282014.0,1.0,3
243868.625,260504.9375,247574.734375,255981.046875,233583.078125,260732.21875,234985.15625,237056.359375,282015.0,1.0,3
243792.09375,260510.40625,247579.640625,255983.1875,233610.609375,260750.28125,235004.546875,237073.15625,282016.0,1.0,3
243824.1875,260534.265625,247591.265625,255992.75,233629.203125,260770.9375,235013.671875,237096.9375,282017.0,1.0,3
243928.53125,260551.703125,247601.734375,256000.265625,233624.109375,260779.875,235004.375,237104.09375,282018.0,1.0,3
243957.953125,260536.140625,247591.890625,255992.578125,233598.1875,260760.828125,234989.359375,237080.578125,282019.0,1.0,3
243870.5,260507.0,247576.6875,255982.734375,233590.40625,260745.625,234990.875,237062.703125,282020.0,1.0,3
243794.421875,260509.5,247575.53125,255981.484375,233611.765625,260756.71875,235006.703125,237076.203125,282021.0,1.0,3
243821.875,260526.9375,247584.5625,255986.765625,233626.078125,260770.03125,235011.265625,237092.828125,282022.0,1.0,3
243923.53125,260544.546875,247592.609375,255991.59375,233617.3125,260773.25,235001.875,237093.546875,282023.0,1.0,3
243952.046875,260526.9375,247584.65625,255984.078125,233592.453125,260753.765625,234988.453125,237070.5625,282024.0,1.0,3
243867.46875,260503.6875,247570.890625,255976.921875,233586.46875,260738.65625,234993.640625,237059.125,282025.0,1.0,3
243793.265625,260510.125,247570.890625,255980.0625,233608.203125,260752.609375,235008.9375,237075.390625,282026.0,1.0,3
243818.390625,260528.1875,247578.578125,255983.015625,233619.375,260767.890625,235008.578125,237091.3125,282027.0,1.0,3
243909.40625,260534.265625,247581.515625,255980.6875,233601.484375,260763.875,234989.625,237083.984375,282028.0,1.0,3
243942.5625,260523.09375,247580.09375,255981.671875,233580.296875,260745.09375,234980.0625,237065.65625,282029.0,1.0,3
243864.78125,260505.125,247570.265625,255977.015625,233578.0625,260733.109375,234988.734375,237054.484375,282030.0,1.0,3
243789.953125,260506.734375,247572.9375,255978.984375,233601.9375,260751.34375,235007.234375,237071.203125,282031.0,1.0,3
243813.5625,260523.0,247580.453125,255983.1875,233615.4375,260767.625,235009.734375,237090.328125,282032.0,1.0,3
243916.015625,260543.921875,247587.0625,255989.53125,233607.75,260770.3125,235001.6875,237097.84375,282033.0,1.0,3
243941.671875,260524.703125,247573.203125,255978.8125,233579.859375,260745.625,234983.28125,237072.53125,282034.0,1.0,3
243852.171875,260491.796875,247558.1875,255966.640625,233567.96875,260722.203125,234981.3125,237049.109375,282035.0,1.0,3
243777.171875,260496.265625,247563.375,255971.65625,233592.640625,260738.828125,234998.203125,237063.859375,282036.0,1.0,3
243801.484375,260515.578125,247576.78125,255980.5,233606.9375,260757.515625,235005.09375,237082.109375,282037.0,1.0,3
243901.796875,260532.21875,247583.21875,255983.546875,233596.84375,260759.75,234997.578125,237084.15625,282038.0,1.0,3
243942.75,260527.75,247577.40625,255977.015625,233577.53125,260744.375,234986.671875,237066.28125,282039.0,1.0,3
243863.09375,260502.53125,247569.546875,255974.15625,233574.75,260730.703125,234993.46875,237052.15625,282040.0,1.0,3
243782.359375,260496.8125,247568.734375,255973.890625,233591.46875,260740.890625,235004.109375,237061.890625,282041.0,1.0,3
243814.359375,260521.9375,247583.046875,255982.375,233610.34375,260761.359375,235007.859375,237083.4375,282042.0,1.0,3
243919.59375,260543.484375,247591.625,255990.15625,233605.78125,260763.421875,234999.015625,237088.8125,282043.0,1.0,3
243954.375,260533.46875,247583.9375,255986.671875,233584.765625,260745.890625,234984.703125,237071.90625,282044.0,1.0,3
243856.828125,260491.4375,247565.78125,255973.890625,233566.625,260721.484375,234978.359375,237042.140625,282045.0,1.0,3
243780.296875,260493.953125,247567.9375,255976.65625,233589.0625,260735.4375,234994.0,237054.65625,282046.0,1.0,3
243816.78125,260522.640625,247585.90625,255990.78125,233615.609375,260761.8125,235007.421875,237082.46875,282047.0,1.0,3
243925.140625,260547.859375,247592.078125,255994.8125,233609.53125,260763.15625,234995.796875,237089.96875,282048.0,1.0,3
243960.453125,260536.328125,247585.71875,255988.8125,233586.828125,260744.28125,234983.71875,237072.09375,282049.0,1.0,3
243874.625,260505.921875,247576.25,255981.84375,233578.515625,260728.1875,234984.890625,237052.421875,282050.0,1.0,3
243782.0,260490.1875,247569.1875,255975.234375,233587.0,260731.953125,234988.28125,237052.421875,282051.0,1.0,3
243808.1875,260512.28125,247579.28125,255982.375,233599.703125,260747.78125,234993.640625,237067.625,282052.0,1.0,3
243917.796875,260538.828125,247595.734375,255994.453125,233600.59375,260759.75,234994.265625,237078.609375,282053.0,1.0,3
243950.796875,260526.484375,247586.4375,255985.0625,233577.796875,260738.296875,234976.03125,237058.671875,282054.0,1.0,3
243868.09375,260502.171875,247574.015625,255975.9375,233572.703125,260720.6875,234976.484375,237043.03125,282055.0,1.0,3
243800.328125,260515.3125,247584.296875,255984.4375,233604.171875,260744.640625,235000.984375,237066.90625,282056.0,1.0,3
243841.546875,260552.59375,247612.71875,256008.9375,233638.140625,260781.75,235027.625,237108.125,282057.0,1.0,3
243951.78125,260577.625,247626.859375,256021.1875,233638.59375,260794.625,235028.421875,237121.265625,282058.0,1.0,3
243998.1875,260575.9375,247621.40625,256020.109375,233623.3125,260781.03125,235021.359375,237108.125,282059.0,1.0,3
243916.90625,260552.515625,247609.78125,256014.65625,233619.546875,260767.625,235026.28125,237090.328125,282060.0,1.0,3
243826.25,260542.578125,247606.015625,256009.03125,233634.390625,260776.5625,235037.09375,237094.265625,282061.0,1.0,3
243840.28125,260550.8125,247610.765625,256010.71875,233644.859375,260790.421875,235033.25,237106.953125,282062.0,1.0,3
243929.34375,260556.0,247608.34375,256005.53125,233628.40625,260784.609375,235014.5625,237098.203125,282063.0,1.0,3
243952.578125,260530.25,247591.0,255991.6875,233593.265625,260753.765625,234988.1875,237062.4375,282064.0,1.0,3
243863.4375,260495.5625,247572.671875,255977.015625,233574.21875,260729.09375,234981.9375,237034.71875,282065.0,1.0,3
243789.5,260500.5625,247574.453125,255980.328125,233598.09375,260741.515625,234996.0625,237050.625,282066.0,1.0,3
243815.796875,260520.859375,247586.171875,255990.15625,233617.046875,260758.0625,235005.53125,237076.65625,282067.0,1.0,3
243906.625,260528.09375,247588.765625,255989.09375,233603.8125,260755.1875,234988.453125,237077.71875,282068.0,1.0,3
243948.5625,260524.078125,247583.578125,255986.5,233585.390625,260741.875,234977.46875,237062.53125,282069.0,1.0,3
243874.171875,260503.515625,247574.28125,255982.734375,233584.0625,260731.40625,234984.53125,237048.390625,282070.0,1.0,3
243795.3125,260508.515625,247572.9375,255981.484375,233605.953125,260743.296875,234999.8125,237061.09375,282071.0,1.0,3
243820.890625,260531.59375,247586.796875,255990.34375,233627.6875,260768.0625,235010.453125,237084.96875,282072.0,1.0,3
243918.4375,260545.265625,247591.265625,255990.25,233617.9375,260768.78125,235000.34375,237084.875,282073.0,1.0,3
243953.03125,260531.59375,247580.984375,255980.0625,233590.84375,260746.4375,234983.359375,237060.640625,282074.0,1.0,3
243866.125,260497.609375,247568.015625,255972.09375,233578.953125,260726.765625,234980.40625,237037.84375,282075.0,1.0,3
243779.84375,260492.609375,247565.34375,255972.09375,233598.265625,260738.65625,234995.078125,237049.65625,282076.0,1.0,3
243802.921875,260517.546875,247573.921875,255978.984375,233617.84375,260756.796875,235004.015625,237077.359375,282077.0,1.0,3
243902.15625,260534.09375,247575.359375,255980.0625,233603.015625,260753.765625,234986.5,237077.0,282078.0,1.0,3
243946.859375,260525.78125,247579.109375,255985.421875,233585.03125,260746.4375,234984.171875,237062.703125,282079.0,1.0,3
243868.984375,260498.6875,247569.625,255979.4375,233579.046875,260733.296875,234988.1875,237045.265625,282080.0,1.0,3
243787.0,260498.328125,247568.296875,255977.203125,233597.015625,260743.65625,235002.140625,237054.921875,282081.0,1.0,3
243810.6875,260520.6875,247580.890625,255985.25,233617.40625,260764.3125,235009.921875,237079.515625,282082.0,1.0,3
243916.90625,260545.796875,247593.765625,255994.90625,233612.21875,260771.375,235001.6875,237091.046875,282083.0,1.0,3
243957.859375,260538.390625,247589.75,255992.125,233590.3125,260753.3125,234989.796875,237075.3125,282084.0,1.0,3
243876.59375,260504.859375,247580.09375,255984.34375,233583.421875,260737.21875,234992.9375,237059.578125,282085.0,1.0,3
243793.890625,260504.140625,247578.65625,255983.8125,233600.6875,260746.875,235003.21875,237066.1875,282086.0,1.0,3
243815.609375,260528.015625,247590.375,255994.359375,233619.28125,260766.734375,235011.796875,237086.84375,282087.0,1.0,3
243912.796875,260540.0,247598.15625,255999.546875,233611.765625,260769.046875,234999.015625,237090.59375,282088.0,1.0,3
243949.28125,260523.546875,247585.375,255985.953125,233583.609375,260746.171875,234978.796875,237064.484375,282089.0,1.0,3
243867.28125,260494.03125,247570.265625,255975.671875,233570.5625,260724.890625,234976.21875,237040.0,282090.0,1.0,3
243779.765625,260489.65625,247570.890625,255977.109375,233590.671875,260736.59375,234992.3125,237052.515625,282091.0,1.0,3
243800.59375,260510.578125,247586.078125,255990.078125,233611.328125,260758.328125,235007.859375,237080.859375,282092.0,1.0,3
243905.203125,260532.125,247592.78125,255995.796875,233604.34375,260760.65625,234996.234375,237085.234375,282093.0,1.0,3
243946.59375,260521.578125,247585.1875,255989.890625,233580.75,260740.984375,234984.171875,237063.59375,282094.0,1.0,3
243865.046875,260490.640625,247572.3125,255980.765625,233569.125,260722.203125,234984.703125,237044.546875,282095.0,1.0,3
243785.84375,260493.234375,247578.03125,255987.484375,233594.421875,260742.5,235005.359375,237062.703125,282096.0,1.0,3
243810.15625,260523.0,247591.09375,255995.34375,233616.328125,260762.4375,235016.09375,237090.859375,282097.0,1.0,3
243912.34375,260543.484375,247600.65625,256001.34375,233613.65625,260766.453125,235009.734375,237096.859375,282098.0,1.0,3
243955.09375,260534.890625,247591.8125,255993.015625,233588.078125,260745.265625,234993.828125,237075.671875,282099.0,1.0,3
243868.984375,260500.03125,247574.546875,255980.0625,233575.828125,260720.328125,234990.0625,237053.578125,282100.0,1.0,3
243784.859375,260499.21875,247573.203125,255982.203125,233595.234375,260731.765625,235000.890625,237062.875,282101.0,1.0,3
243807.46875,260526.484375,247586.171875,255989.984375,233615.96875,260755.375,235012.875,237086.21875,282102.0,1.0,3
243905.640625,260544.28125,247591.53125,255991.765625,233608.734375,260756.265625,235004.46875,237093.09375,282103.0,1.0,3
243941.9375,260528.1875,247581.4375,255981.75,233580.125,260732.3125,234984.609375,237070.125,282104.0,1.0,3
243852.09375,260489.296875,247562.75,255964.765625,233561.796875,260710.21875,234977.109375,237042.671875,282105.0,1.0,3
243774.21875,260495.109375,247566.234375,255966.921875,233586.734375,260724.53125,234994.890625,237056.0,282106.0,1.0,3
243792.984375,260515.578125,247576.96875,255971.828125,233603.375,260740.4375,235003.125,237074.59375,282107.0,1.0,3
243895.1875,260534.890625,247585.28125,255975.671875,233595.5,260744.015625,234994.359375,237079.15625,282108.0,1.0,3
243944.625,260530.6875,247583.671875,255974.515625,233576.71875,260732.03125,234986.84375,237068.6875,282109.0,1.0,3
243863.4375,260500.109375,247569.359375,255966.640625,233566.171875,260715.59375,234990.96875,237051.796875,282110.0,1.0,3
243781.640625,260500.75,247572.5,255967.625,233588.96875,260731.40625,235009.65625,237067.796875,282111.0,1.0,3
243807.5625,260530.0625,247587.953125,255976.921875,233613.203125,260751.4375,235024.84375,237097.03125,282112.0,1.0,3
243908.328125,260549.203125,247594.9375,255981.21875,233606.234375,260753.9375,235014.828125,237105.796875,282113.0,1.0,3
243946.140625,260534.0,247584.390625,255972.71875,233578.0625,260736.6875,234994.984375,237083.4375,282114.0,1.0,3
243860.40625,260497.4375,247564.0,255956.71875,233559.015625,260711.296875,234986.40625,237055.375,282115.0,1.0,3
243778.6875,260499.671875,247560.609375,255952.4375,233577.4375,260717.546875,234998.03125,237064.046875,282116.0,1.0,3
243796.84375,260524.53125,247572.671875,255960.75,233600.0625,260740.265625,235009.375,237088.90625,282117.0,1.0,3
243894.734375,260546.078125,247583.9375,255968.25,233596.84375,260750.015625,235006.96875,237099.0,282118.0,1.0,3
243943.734375,260545.0,247580.8125,255967.546875,233578.0625,260736.421875,234996.78125,237087.921875,282119.0,1.0,3
243865.5,260517.375,247563.734375,255955.109375,233563.3125,260710.3125,234989.0,237062.25,282120.0,1.0,3
243777.34375,260515.9375,247562.75,255953.234375,233582.984375,260720.6875,235003.125,237072.265625,282121.0,1.0,3
243797.640625,260543.03125,247575.359375,255963.0625,233605.78125,260744.828125,235014.65625,237098.46875,282122.0,1.0,3
243894.109375,260560.015625,247582.421875,255968.4375,233596.03125,260745.453125,235000.34375,237102.75,282123.0,1.0,3
243942.75,260554.75,247578.9375,255964.859375,233574.3125,260728.90625,234986.671875,237085.859375,282124.0,1.0,3
243869.25,260529.625,247566.328125,255954.3125,233565.453125,260712.015625,234988.90625,237064.671875,282125.0,1.0,3
243779.578125,260521.65625,247567.21875,255955.03125,233584.953125,260724.078125,235005.265625,237073.875,282126.0,1.0,3
243802.296875,260550.09375,247577.859375,255963.25,233604.4375,260744.203125,235012.421875,237098.015625,282127.0,1.0,3
243908.953125,260576.921875,247589.921875,255973.171875,233604.625,260754.65625,235008.125,237113.03125,282128.0,1.0,3
243954.28125,260563.859375,247583.125,255969.5,233583.34375,260739.109375,234992.03125,237094.796875,282129.0,1.0,3
243872.65625,260527.203125,247566.234375,255957.171875,233568.40625,260718.625,234990.421875,237068.78125,282130.0,1.0,3
243783.25,260516.125,247560.6875,255950.546875,233580.75,260724.625,235000.625,237070.125,282131.0,1.0,3
243799.703125,260538.296875,247572.765625,255958.328125,233601.84375,260745.265625,235007.859375,237092.03125,282132.0,1.0,3
243903.671875,260561.265625,247583.9375,255968.078125,233599.4375,260755.015625,235001.6875,237102.3125,282133.0,1.0,3
243955.984375,260552.421875,247581.171875,255966.734375,233580.921875,260741.78125,234991.859375,237087.375,282134.0,1.0,3
243873.1875,260518.625,247564.265625,255952.703125,233565.09375,260719.25,234987.828125,237060.375,282135.0,1.0,3
243787.0,260518.625,247564.796875,255955.296875,233586.734375,260730.609375,235006.875,237074.59375,282136.0,1.0,3
243802.921875,260543.921875,247577.140625,255964.953125,233609.984375,260751.96875,235017.515625,237101.859375,282137.0,1.0,3
243901.265625,260567.34375,247586.796875,255972.28125,233611.40625,260760.203125,235012.59375,237113.578125,282138.0,1.0,3
243948.03125,260559.578125,247580.265625,255967.984375,233589.234375,260744.375,234997.21875,237097.125,282139.0,1.0,3
243870.78125,260528.640625,247566.234375,255956.640625,233574.9375,260721.484375,234992.65625,237070.296875,282140.0,1.0,3
243789.0625,260534.1875,247566.59375,255955.296875,233594.15625,260730.609375,235006.15625,237078.34375,282141.0,1.0,3
243805.59375,260557.96875,247579.828125,255966.5625,233615.078125,260752.15625,235020.5625,237103.375,282142.0,1.0,3
243899.390625,260570.75,247589.484375,255973.703125,233605.421875,260756.625,235013.21875,237104.90625,282143.0,1.0,3
243946.859375,260560.90625,247583.84375,255968.25,233582.53125,260738.921875,234998.296875,237086.484375,282144.0,1.0,3
243868.453125,260529.4375,247567.84375,255956.09375,233566.625,260715.5,234991.328125,237060.734375,282145.0,1.0,3
243790.125,260535.875,247573.828125,255963.703125,233590.84375,260734.0,235015.109375,237076.375,282146.0,1.0,3
243808.640625,260562.25,247583.484375,255968.171875,233609.359375,260753.140625,235024.9375,237100.4375,282147.0,1.0,3
243905.90625,260581.921875,247589.03125,255970.84375,233601.9375,260752.875,235009.5625,237105.34375,282148.0,1.0,3
243953.921875,260571.828125,247585.1875,255968.078125,233581.828125,260740.171875,234994.890625,237089.078125,282149.0,1.0,3
243875.25,260536.328125,247566.6875,255956.0,233567.515625,260717.109375,234990.34375,237063.6875,282150.0,1.0,3
243791.5625,260535.34375,247568.109375,255957.53125,233587.1875,260728.90625,235006.96875,237075.3125,282151.0,1.0,3
243806.40625,260557.515625,247578.9375,255964.40625,233607.484375,260748.9375,235018.140625,237100.4375,282152.0,1.0,3
243901.703125,260570.390625,247582.953125,255965.84375,233599.796875,260751.796875,235004.375,237103.109375,282153.0,1.0,3
243948.5625,260554.125,247576.515625,255963.609375,233576.546875,260735.34375,234985.6875,237084.078125,282154.0,1.0,3
243874.078125,260521.125,247565.34375,255958.15625,233561.4375,260714.25,234981.671875,237058.40625,282155.0,1.0,3
243784.5,260516.65625,247563.1875,255955.375,233576.71875,260721.578125,234992.484375,237062.703125,282156.0,1.0,3
243801.21875,260547.5,247577.046875,255967.625,233604.265625,260746.875,235009.5625,237092.828125,282157.0,1.0,3
243895.09375,260562.609375,247581.4375,255970.046875,233594.609375,260745.890625,234998.109375,237099.53125,282158.0,1.0,3
243938.375,260545.265625,247572.578125,255961.28125,233566.359375,260723.8125,234980.59375,237079.875,282159.0,1.0,3
243863.625,260513.53125,247555.953125,255949.296875,233553.203125,260704.046875,234975.578125,237054.296875,282160.0,1.0,3
243790.75,260523.71875,247560.609375,255957.53125,233581.28125,260724.890625,234996.859375,237071.90625,282161.0,1.0,3
243799.703125,260542.765625,247569.359375,255962.625,233599.25,260743.03125,235005.0,237093.546875,282162.0,1.0,3
243886.421875,260549.921875,247572.671875,255962.265625,233583.875,260737.046875,234986.84375,237089.25,282163.0,1.0,3
243936.765625,260540.0,247568.296875,255960.390625,233560.90625,260720.328125,234972.09375,237070.5625,282164.0,1.0,3
243866.3125,260513.890625,247557.03125,255953.234375,233550.96875,260701.734375,234970.125,237048.484375,282165.0,1.0,3
243785.21875,260519.078125,247563.28125,255959.578125,233576.09375,260719.25,234993.203125,237062.703125,282166.0,1.0,3
243798.453125,260547.765625,247573.390625,255964.234375,233597.109375,260737.046875,235003.75,237089.34375,282167.0,1.0,3
243892.140625,260565.296875,247579.640625,255967.984375,233592.1875,260741.34375,234995.171875,237096.3125,282168.0,1.0,3
243938.09375,260549.296875,247571.15625,255962.890625,233562.859375,260721.671875,234973.53125,237073.703125,282169.0,1.0,3
243863.171875,260515.859375,247552.5625,255949.21875,233543.828125,260696.0,234965.65625,237045.09375,282170.0,1.0,3
243776.09375,260513.265625,247550.59375,255948.046875,233560.359375,260707.625,234981.046875,237053.765625,282171.0,1.0,3
243793.265625,260540.796875,247568.203125,255961.734375,233585.84375,260734.546875,234994.09375,237080.578125,282172.0,1.0,3
243889.1875,260556.796875,247583.125,255973.53125,233584.0625,260743.9375,234990.875,237088.359375,282173.0,1.0,3
243942.75,260550.1875,247574.734375,255966.828125,233559.203125,260724.96875,234973.34375,237068.25,282174.0,1.0,3
243868.1875,260517.015625,247558.453125,255956.359375,233543.90625,260704.046875,234967.546875,237041.0625,282175.0,1.0,3
243776.265625,260507.890625,247558.359375,255958.515625,233563.046875,260713.796875,234983.546875,237051.078125,282176.0,1.0,3
243793.265625,260539.640625,247573.921875,255969.421875,233591.203125,260739.015625,234998.46875,237082.8125,282177.0,1.0,3
243893.21875,260564.671875,247586.34375,255976.21875,233592.734375,260747.234375,234993.828125,237096.234375,282178.0,1.0,3
243947.046875,260555.90625,247582.953125,255974.328125,233571.359375,260733.46875,234979.703125,237081.5625,282179.0,1.0,3
243866.125,260517.109375,247564.265625,255962.625,233553.03125,260710.21875,234975.9375,237054.5625,282180.0,1.0,3
243775.921875,260511.46875,247560.875,255959.765625,233569.21875,260716.921875,234989.625,237057.0625,282181.0,1.0,3
243792.1875,260537.125,247572.5,255967.890625,233593.984375,260738.828125,235000.703125,237086.125,282182.0,1.0,3
243891.15625,260557.0625,247582.59375,255975.234375,233592.546875,260747.0625,234996.6875,237096.40625,282183.0,1.0,3
243948.5625,260554.5625,247576.96875,255972.28125,233572.96875,260733.375,234983.28125,237080.578125,282184.0,1.0,3
243867.203125,260516.125,247557.03125,255955.65625,233550.96875,260704.046875,234971.296875,237047.234375,282185.0,1.0,3
243781.8125,260519.078125,247561.046875,255957.265625,233575.46875,260719.609375,234994.265625,237060.28125,282186.0,1.0,3
243794.25,260550.28125,247572.21875,255964.859375,233599.703125,260743.484375,235007.765625,237088.0,282187.0,1.0,3
243892.234375,260572.890625,247580.265625,255972.015625,233596.578125,260748.84375,235000.265625,237095.328125,282188.0,1.0,3
243940.6875,260560.640625,247571.328125,255963.0625,233568.3125,260727.5625,234981.21875,237073.875,282189.0,1.0,3
243862.109375,260524.25,247553.09375,255949.75,233545.96875,260698.15625,234970.046875,237040.96875,282190.0,1.0,3
243774.3125,260524.171875,247553.71875,255950.734375,233566.703125,260711.03125,234990.421875,237050.625,282191.0,1.0,3
243787.453125,260550.984375,247567.9375,255958.421875,233595.5,260737.671875,235004.546875,237079.515625,282192.0,1.0,3
243878.375,260563.328125,247574.90625,255963.15625,233589.515625,260742.140625,234989.796875,237085.046875,282193.0,1.0,3
243930.5,260549.828125,247563.109375,255951.984375,233560.265625,260721.671875,234969.421875,237061.984375,282194.0,1.0,3
243863.71875,260516.65625,247549.515625,255941.96875,233544.453125,260700.921875,234965.9375,237037.84375,282195.0,1.0,3
243777.25,260511.203125,247549.25,255943.9375,233564.390625,260709.953125,234980.140625,237048.671875,282196.0,1.0,3
243781.8125,260528.453125,247557.921875,255948.59375,233585.671875,260730.15625,234986.046875,237073.96875,282197.0,1.0,3
243884.90625,260550.546875,247575.4375,255963.78125,233591.125,260745.265625,234987.390625,237090.6875,282198.0,1.0,3
243945.78125,260545.0,247573.03125,255964.234375,233569.390625,260730.703125,234976.65625,237074.59375,282199.0,1.0,3
243878.28125,260516.84375,247555.421875,255951.890625,233553.5625,260706.375,234971.46875,237047.6875,282200.0,1.0,3
243785.03125,260507.359375,247554.4375,255952.15625,233570.90625,260714.6875,234988.640625,237056.71875,282201.0,1.0,3
243792.8125,260529.171875,247565.15625,255958.953125,233592.453125,260732.9375,234997.84375,237082.109375,282202.0,1.0,3
243895.1875,260555.109375,247577.40625,255969.859375,233593.078125,260743.296875,234989.984375,237090.328125,282203.0,1.0,3
243947.75,260547.5,247570.890625,255964.046875,233567.25,260728.015625,234976.21875,237070.484375,282204.0,1.0,3
243868.984375,260510.3125,247552.375,255949.03125,233547.671875,260701.28125,234969.328125,237042.9375,282205.0,1.0,3
243767.953125,260495.015625,247545.671875,255944.109375,233560.0,260705.03125,234976.75,237044.109375,282206.0,1.0,3
243775.5625,260521.21875,247558.71875,255954.21875,233582.71875,260728.546875,234988.1875,237067.796875,282207.0,1.0,3
243874.4375,260546.78125,247571.421875,255962.71875,233581.828125,260739.015625,234986.5,237081.65625,282208.0,1.0,3
243934.703125,260547.5,247567.75,255960.296875,233563.140625,260727.203125,234976.65625,237069.234375,282209.0,1.0,3
243861.203125,260513.4375,247549.515625,255947.875,233546.328125,260699.140625,234967.1875,237042.3125,282210.0,1.0,3
243766.171875,260506.015625,247547.015625,255947.15625,233562.421875,260707.71875,234984.4375,237050.984375,282211.0,1.0,3
243773.234375,260528.640625,247556.671875,255952.78125,233581.375,260724.53125,234992.484375,237071.375,282212.0,1.0,3
243867.5625,260543.921875,247565.78125,255958.421875,233574.9375,260729.171875,234978.890625,237074.59375,282213.0,1.0,3
243924.953125,260534.890625,247561.5,255957.265625,233554.640625,260718.1875,234966.375,237061.359375,282214.0,1.0,3
243859.25,260503.25,247545.84375,255946.625,233539.796875,260698.0625,234963.78125,237036.421875,282215.0,1.0,3
243773.140625,260501.015625,247548.796875,255948.5,233557.328125,260709.328125,234981.9375,237041.609375,282216.0,1.0,3
243775.109375,260520.140625,247557.03125,255951.265625,233579.234375,260728.734375,234987.296875,237064.21875,282217.0,1.0,3
243872.65625,260540.171875,247569.984375,255960.390625,233580.921875,260740.984375,234983.28125,237077.1875,282218.0,1.0,3
243931.84375,260530.34375,247563.109375,255956.0,233552.40625,260723.09375,234964.328125,237055.015625,282219.0,1.0,3
243857.8125,260488.671875,247541.921875,255939.828125,233527.546875,260692.96875,234953.328125,237020.5,282220.0,1.0,3
243765.09375,260478.921875,247542.359375,255941.34375,233546.765625,260704.40625,234972.359375,237031.234375,282221.0,1.0,3
243772.34375,260501.09375,247557.65625,255953.0625,233570.28125,260725.15625,234981.484375,237059.84375,282222.0,1.0,3
243872.75,260528.09375,247570.265625,255960.828125,233568.046875,260729.171875,234974.328125,237072.09375,282223.0,1.0,3
243939.34375,260530.875,247569.625,255961.28125,233551.875,260716.578125,234963.96875,237063.859375,282224.0,1.0,3
243869.53125,260497.4375,247554.609375,255951.984375,233535.5,260692.96875,234960.46875,237038.109375,282225.0,1.0,3
243770.1875,260483.671875,247548.078125,255946.890625,233545.796875,260698.15625,234970.671875,237035.875,282226.0,1.0,3
243773.765625,260506.828125,247555.140625,255952.515625,233565.90625,260719.4375,234982.46875,237055.640625,282227.0,1.0,3
243874.171875,260535.34375,247563.1875,255959.5,233566.53125,260727.5625,234977.546875,237068.6875,282228.0,1.0,3
243931.21875,260529.53125,247553.09375,255951.171875,233544.09375,260711.125,234960.65625,237053.5,282229.0,1.0,3
243859.328125,260493.140625,247536.015625,255938.03125,233526.203125,260685.1875,234951.984375,237025.78125,282230.0,1.0,3
243764.921875,260482.765625,247536.1875,255936.0625,233544.09375,260693.0625,234969.421875,237031.59375,282231.0,1.0,3
243769.390625,260504.765625,247549.96875,255945.453125,233568.671875,260716.484375,234985.78125,237055.015625,282232.0,1.0,3
243865.671875,260524.703125,247558.28125,255953.328125,233566.4375,260722.46875,234978.796875,237066.015625,282233.0,1.0,3
243932.203125,260522.828125,247553.890625,255952.4375,233545.875,260710.40625,234961.28125,237052.421875,282234.0,1.0,3
243864.15625,260488.21875,247536.8125,255940.8125,233524.421875,260684.203125,234952.609375,237021.03125,282235.0,1.0,3
243768.671875,260476.6875,247538.078125,255940.8125,233539.53125,260692.875,234965.390625,237024.078125,282236.0,1.0,3
243769.203125,260495.375,247545.40625,255943.84375,233558.390625,260709.78125,234971.734375,237042.3125,282237.0,1.0,3
243870.0625,260523.1875,247557.5625,255954.484375,233559.203125,260720.140625,234972.359375,237058.5,282238.0,1.0,3
243937.109375,260524.25,247558.1875,255956.09375,233544.359375,260712.453125,234960.65625,237049.734375,282239.0,1.0,3
243860.21875,260477.59375,247535.84375,255937.859375,233522.1875,260684.46875,234947.421875,237014.25,282240.0,1.0,3
243767.15625,260467.21875,247537.171875,255939.015625,233540.0625,260693.953125,234964.046875,237019.609375,282241.0,1.0,3
243778.59375,260502.984375,247554.4375,255953.0625,233571.453125,260721.125,234986.140625,237054.484375,282242.0,1.0,3
243876.046875,260528.28125,247565.609375,255959.046875,233573.953125,260729.890625,234980.234375,237070.21875,282243.0,1.0,3
243943.546875,260526.9375,247565.34375,255956.8125,233555.265625,260720.859375,234963.25,237056.4375,282244.0,1.0,3
243876.5,260493.046875,247546.921875,255943.046875,233532.734375,260690.28125,234953.0625,237024.078125,282245.0,1.0,3
243778.78125,260476.328125,247543.703125,255940.1875,233544.09375,260694.671875,234963.609375,237026.40625,282246.0,1.0,3
243774.9375,260491.984375,247553.265625,255947.875,233565.375,260716.125,234972.09375,237048.21875,282247.0,1.0,3
243869.609375,260518.0,247563.828125,255954.125,233565.8125,260725.515625,234969.953125,237062.25,282248.0,1.0,3
243935.6875,260517.46875,247562.390625,255953.765625,233544.359375,260712.8125,234956.546875,237048.84375,282249.0,1.0,3
243873.09375,260491.09375,247546.125,255943.21875,233530.5,260688.859375,234951.796875,237027.75,282250.0,1.0,3
243780.5625,260485.0,247542.453125,255940.265625,233547.046875,260694.21875,234962.265625,237030.609375,282251.0,1.0,3
243771.171875,260497.34375,247551.65625,255946.625,233563.765625,260713.171875,234967.453125,237043.03125,282252.0,1.0,3
243859.6875,260514.15625,247563.546875,255955.203125,233559.109375,260720.5,234961.28125,237047.953125,282253.0,1.0,3
243924.421875,260509.953125,247559.96875,255952.515625,233535.15625,260705.3125,234947.15625,237030.421875,282254.0,1.0,3
243868.265625,260486.96875,247545.84375,255943.671875,233523.96875,260684.46875,234945.8125,237008.96875,282255.0,1.0,3
243777.171875,260479.90625,247546.390625,255947.0625,233545.796875,260696.546875,234968.96875,237018.171875,282256.0,1.0,3
243775.921875,260500.203125,247554.609375,255953.140625,233570.90625,260717.28125,234979.515625,237044.46875,282257.0,1.0,3
243863.53125,260518.796875,247556.671875,255951.71875,233564.46875,260719.609375,234965.390625,237051.796875,282258.0,1.0,3
243933.8125,260522.109375,247555.953125,255950.203125,233545.34375,260710.40625,234953.765625,237041.953125,282259.0,1.0,3
243871.671875,260488.671875,247543.609375,255942.6875,233528.71875,260689.390625,234951.796875,237019.15625,282260.0,1.0,3
243779.046875,260479.109375,247542.625,255945.09375,233545.96875,260695.46875,234967.1875,237020.953125,282261.0,1.0,3
243774.21875,260495.375,247555.234375,255953.765625,233568.765625,260716.390625,234978.171875,237041.25,282262.0,1.0,3
243867.921875,260514.953125,247567.84375,255961.640625,233571.984375,260728.1875,234974.875,237058.328125,282263.0,1.0,3
243939.0,260516.65625,247565.96875,255960.921875,233554.1875,260719.515625,234964.765625,237049.109375,282264.0,1.0,3
243877.296875,260484.375,247550.765625,255948.9375,233534.25,260692.25,234955.921875,237019.515625,282265.0,1.0,3
243781.1875,260472.578125,247544.6875,255941.875,233543.015625,260692.703125,234960.125,237014.59375,282266.0,1.0,3
243781.375,260497.4375,247558.8125,255953.765625,233570.203125,260718.453125,234979.78125,237041.25,282267.0,1.0,3
243876.3125,260523.265625,247570.703125,255964.046875,233574.40625,260730.609375,234979.96875,237058.59375,282268.0,1.0,3
243942.296875,260518.71875,247567.75,255963.421875,233555.4375,260717.828125,234961.28125,237044.640625,282269.0,1.0,3
243886.875,260496.1875,247555.0625,255952.78125,233539.265625,260694.9375,234954.125,237018.890625,282270.0,1.0,3
243793.171875,260489.828125,247551.65625,255948.765625,233553.484375,260698.421875,234968.515625,237023.625,282271.0,1.0,3
243787.0,260507.8125,247560.515625,255956.0,233576.09375,260719.4375,234980.140625,237048.578125,282272.0,1.0,3
243876.40625,260528.640625,247570.890625,255964.5,233574.125,260729.171875,234975.046875,237058.40625,282273.0,1.0,3
243950.796875,260532.921875,247571.78125,255965.390625,233557.859375,260721.9375,234967.265625,237049.46875,282274.0,1.0,3
243882.21875,260489.921875,247553.1875,255950.828125,233532.109375,260692.078125,234956.71875,237011.734375,282275.0,1.0,3
243779.21875,260471.59375,247546.828125,255946.625,233542.125,260694.84375,234968.25,237011.03125,282276.0,1.0,3
243774.03125,260492.703125,247554.796875,255952.78125,233563.9375,260718.53125,234975.859375,237034.265625,282277.0,1.0,3
243868.8125,260518.71875,247566.40625,255961.640625,233566.703125,260727.5625,234971.296875,237048.84375,282278.0,1.0,3
243941.046875,260524.34375,247564.0,255960.65625,233549.453125,260717.109375,234958.953125,237041.6875,282279.0,1.0,3
243875.25,260489.296875,247543.703125,255946.171875,233526.484375,260689.125,234946.890625,237009.953125,282280.0,1.0,3
243777.34375,260476.953125,247541.5625,255944.828125,233542.296875,260695.65625,234963.25,237011.828125,282281.0,1.0,3
243772.96875,260500.75,247554.34375,255954.21875,233568.140625,260720.328125,234981.125,237040.53125,282282.0,1.0,3
243866.484375,260526.140625,247560.25,255958.59375,233567.515625,260728.375,234978.0,237052.234375,282283.0,1.0,3
243928.171875,260515.9375,247550.140625,255950.640625,233540.96875,260709.953125,234956.8125,237035.4375,282284.0,1.0,3
243854.5,260466.859375,247523.140625,255927.9375,233507.171875,260671.15625,234934.453125,236994.21875,282285.0,1.0,3
243773.765625,260470.515625,247531.546875,255935.0,233531.390625,260687.609375,234960.828125,237011.03125,282286.0,1.0,3
243774.75,260498.953125,247549.875,255950.828125,233565.28125,260720.140625,234985.515625,237046.078125,282287.0,1.0,3
243864.875,260519.078125,247557.296875,255956.359375,233565.015625,260728.640625,234980.5,237058.046875,282288.0,1.0,3
243928.171875,260513.4375,247551.390625,255951.0,233540.6875,260712.546875,234961.453125,237042.671875,282289.0,1.0,3
243867.640625,260479.734375,247536.46875,255941.875,233521.5625,260685.453125,234952.703125,237013.703125,282290.0,1.0,3
243771.359375,260469.359375,247529.84375,255936.421875,233530.046875,260685.640625,234959.40625,237011.03125,282291.0,1.0,3
243764.375,260490.1875,247540.75,255942.5,233554.375,260707.0,234971.921875,237034.359375,282292.0,1.0,3
243859.6875,260516.75,247552.28125,255951.09375,233559.109375,260717.46875,234969.953125,237049.734375,282293.0,1.0,3
243928.265625,260513.4375,247548.984375,255948.3125,233537.03125,260706.015625,234956.71875,237034.265625,282294.0,1.0,3
243868.546875,260477.765625,247531.71875,255935.890625,233515.296875,260680.71875,234950.1875,237004.671875,282295.0,1.0,3
243769.921875,260464.625,247526.265625,255930.890625,233527.28125,260683.578125,234958.234375,237006.90625,282296.0,1.0,3
243760.8125,260482.6875,247534.9375,255937.765625,233550.96875,260704.234375,234967.1875,237030.875,282297.0,1.0,3
243851.640625,260504.046875,247547.28125,255948.3125,233554.90625,260718.265625,234968.171875,237047.59375,282298.0,1.0,3
243918.875,260497.703125,247540.578125,255943.671875,233528.890625,260703.703125,234947.953125,237028.734375,282299.0,1.0,3
243866.75,260468.375,247528.234375,255936.515625,233513.25,260681.703125,234947.515625,237006.109375,282300.0,1.0,3
243772.875,260458.28125,247527.15625,255935.625,233527.375,260683.84375,234959.84375,237007.71875,282301.0,1.0,3
243765.09375,260479.109375,247535.390625,255939.015625,233546.953125,260704.40625,234961.453125,237026.140625,282302.0,1.0,3
243856.828125,260503.25,247548.078125,255948.9375,233549.359375,260713.984375,234957.171875,237036.59375,282303.0,1.0,3
243928.078125,260504.5,247547.1875,255948.140625,233530.40625,260703.078125,234948.046875,237023.359375,282304.0,1.0,3
243867.921875,260466.59375,247526.71875,255932.3125,233506.265625,260674.90625,234939.109375,236993.59375,282305.0,1.0,3
243770.375,260452.1875,247523.5,255929.8125,233520.75,260678.484375,234953.59375,237001.375,282306.0,1.0,3
243764.375,260476.6875,247536.734375,255941.4375,233548.5625,260703.703125,234968.796875,237030.0625,282307.0,1.0,3
243856.734375,260502.0,247548.53125,255948.9375,233549.8125,260712.015625,234960.296875,237041.0625,282308.0,1.0,3
243925.84375,260496.546875,247545.484375,255944.5625,233528.265625,260697.609375,234940.8125,237024.796875,282309.0,1.0,3
243868.984375,260465.25,247529.578125,255932.671875,233508.328125,260671.875,234934.375,236995.921875,282310.0,1.0,3
243771.0,260453.171875,247529.21875,255933.828125,233523.53125,260678.390625,234953.765625,237002.796875,282311.0,1.0,3
243765.984375,260477.59375,247544.953125,255944.734375,233553.203125,260705.3125,234975.765625,237035.171875,282312.0,1.0,3
243868.71875,260513.078125,247563.1875,255958.421875,233563.484375,260725.25,234980.6875,237059.578125,282313.0,1.0,3
243934.078125,260505.296875,247557.03125,255953.6875,233536.21875,260709.859375,234960.828125,237038.46875,282314.0,1.0,3
243874.265625,260471.421875,247538.703125,255940.09375,233512.625,260680.265625,234944.03125,237007.0,282315.0,1.0,3
243779.21875,260464.71875,247535.921875,255937.953125,233527.28125,260685.546875,234956.71875,237010.671875,282316.0,1.0,3
243773.140625,260491.09375,247546.5625,255946.171875,233556.875,260712.375,234974.0625,237039.453125,282317.0,1.0,3
243859.15625,260510.84375,247554.796875,255951.265625,233558.21875,260720.421875,234967.546875,237049.015625,282318.0,1.0,3
243922.1875,260498.5,247547.734375,255944.296875,233528.796875,260700.125,234947.0625,237026.5,282319.0,1.0,3
243868.09375,260468.015625,247532.890625,255935.171875,233511.90625,260678.125,234948.671875,237003.875,282320.0,1.0,3
243777.53125,260464.359375,247530.734375,255934.28125,233531.125,260687.328125,234966.203125,237013.34375,282321.0,1.0,3
243769.828125,260488.40625,247538.875,255938.21875,233552.5,260704.59375,234969.234375,237031.234375,282322.0,1.0,3
243859.59375,260514.15625,247553.984375,255950.546875,233558.390625,260718.890625,234970.21875,237047.6875,282323.0,1.0,3
243930.765625,260513.703125,247555.328125,255954.3125,233541.9375,260711.46875,234960.75,237039.09375,282324.0,1.0,3
243871.578125,260476.328125,247535.65625,255939.828125,233516.90625,260681.609375,234947.953125,237007.71875,282325.0,1.0,3
243774.3125,260464.171875,247528.0625,255934.546875,233528.359375,260682.0625,234956.90625,237007.625,282326.0,1.0,3
243757.765625,260478.84375,247533.328125,255939.375,233550.796875,260702.171875,234967.625,237027.5625,282327.0,1.0,3
243851.28125,260507.625,247550.40625,255950.375,233558.125,260718.71875,234968.515625,237044.46875,282328.0,1.0,3
243927.375,260509.421875,247547.640625,255948.859375,233537.109375,260704.5,234954.21875,237034.71875,282329.0,1.0,3
243869.25,260470.34375,247529.125,255935.359375,233513.328125,260673.484375,234940.453125,237004.046875,282330.0,1.0,3
243772.96875,260459.890625,247526.8125,255935.171875,233529.25,260681.875,234959.671875,237006.640625,282331.0,1.0,3
243764.65625,260487.515625,247537.453125,255942.328125,233554.640625,260709.328125,234973.96875,237030.78125,282332.0,1.0,3
243849.9375,260509.234375,247547.734375,255950.203125,233554.375,260715.59375,234966.734375,237039.28125,282333.0,1.0,3
243916.015625,260499.671875,247542.28125,255947.15625,233529.421875,260699.046875,234945.984375,237022.734375,282334.0,1.0,3
243868.0,260470.796875,247530.828125,255941.796875,233513.875,260676.609375,234943.484375,237001.28125,282335.0,1.0,3
243769.65625,260460.59375,247524.390625,255938.75,233524.515625,260679.015625,234955.375,237001.375,282336.0,1.0,3
243746.140625,260473.65625,247528.953125,255940.09375,233541.40625,260697.265625,234963.25,237017.28125,282337.0,1.0,3
243838.234375,260502.359375,247544.234375,255950.375,233551.0625,260711.65625,234963.34375,237040.34375,282338.0,1.0,3
243923.078125,260510.75,247549.0625,255954.125,233538.015625,260705.578125,234953.859375,237035.875,282339.0,1.0,3
243880.703125,260487.78125,247537.09375,255945.546875,233521.296875,260684.296875,234951.53125,237011.203125,282340.0,1.0,3
243773.046875,260466.046875,247526.984375,255938.21875,233526.390625,260682.0625,234959.40625,237005.65625,282341.0,1.0,3
243755.34375,260482.234375,247533.78125,255942.59375,233549.09375,260700.65625,234967.890625,237029.0,282342.0,1.0,3
243843.234375,260502.171875,247543.4375,255950.109375,233551.0625,260708.609375,234964.5,237041.515625,282343.0,1.0,3
243924.6875,260504.046875,247542.984375,255950.203125,233532.203125,260700.203125,234951.796875,237029.359375,282344.0,1.0,3
243872.203125,260469.0,247527.078125,255939.203125,233509.84375,260674.015625,234937.765625,236996.71875,282345.0,1.0,3
243772.078125,260455.328125,247526.359375,255938.296875,233523.171875,260680.453125,234953.140625,236999.046875,282346.0,1.0,3
243754.09375,260475.4375,247533.875,255943.484375,233541.046875,260698.78125,234963.15625,237019.78125,282347.0,1.0,3
243844.765625,260501.015625,247544.859375,255951.71875,233544.453125,260708.796875,234960.75,237034.0,282348.0,1.0,3
243919.40625,260498.859375,247543.171875,255949.21875,233523.703125,260699.9375,234946.53125,237021.84375,282349.0,1.0,3
243868.265625,260464.4375,247531.015625,255939.203125,233502.6875,260674.546875,234939.828125,236995.375,282350.0,1.0,3
243770.46875,260453.796875,247525.90625,255935.078125,233513.421875,260675.359375,234951.796875,236996.984375,282351.0,1.0,3
243755.625,260478.03125,247539.234375,255944.390625,233540.421875,260701.734375,234967.453125,237028.015625,282352.0,1.0,3
243836.359375,260494.65625,247545.40625,255949.65625,233538.015625,260706.921875,234960.296875,237038.109375,282353.0,1.0,3
243917.71875,260498.328125,247542.546875,255948.3125,233519.328125,260699.5,234945.09375,237025.59375,282354.0,1.0,3
243875.0625,260472.578125,247532.890625,255943.046875,233505.375,260680.265625,234940.453125,237002.796875,282355.0,1.0,3
243774.9375,260458.71875,247532.96875,255944.46875,233520.21875,260683.140625,234956.71875,237005.390625,282356.0,1.0,3
243756.328125,260475.625,247540.3125,255949.296875,233540.96875,260701.8125,234969.234375,237025.421875,282357.0,1.0,3
243839.390625,260496.265625,247548.53125,255953.765625,233540.96875,260712.640625,234965.125,237038.828125,282358.0,1.0,3
243915.75,260496.09375,247541.203125,255948.59375,233521.828125,260703.609375,234950.015625,237029.71875,282359.0,1.0,3
243872.921875,260470.078125,247526.453125,255939.28125,233506.265625,260679.28125,234940.8125,237004.046875,282360.0,1.0,3
243775.734375,260457.65625,247522.421875,255938.296875,233518.875,260679.921875,234952.515625,237002.984375,282361.0,1.0,3
243752.046875,260471.234375,247530.921875,255943.84375,233541.765625,260699.21875,234965.03125,237023.1875,282362.0,1.0,3
243833.21875,260489.921875,247538.25,255947.609375,233542.03125,260707.984375,234958.953125,237034.453125,282363.0,1.0,3
243917.0,260495.203125,247540.03125,255948.140625,233525.046875,260696.71875,234947.59375,237029.0,282364.0,1.0,3
243867.921875,260465.96875,247521.53125,255934.28125,233502.6875,260669.546875,234938.578125,237003.875,282365.0,1.0,3
243766.890625,260450.5,247516.4375,255930.25,233511.1875,260671.515625,234948.578125,237001.640625,282366.0,1.0,3
243749.890625,260471.953125,247527.4375,255937.765625,233537.75,260698.15625,234967.0,237025.0625,282367.0,1.0,3
243836.359375,260498.5,247539.765625,255943.578125,233541.046875,260709.515625,234962.796875,237037.046875,282368.0,1.0,3
243914.40625,260497.34375,247540.84375,255944.390625,233519.59375,260698.78125,234945.09375,237024.796875,282369.0,1.0,3
243865.859375,260463.546875,247525.203125,255934.8125,233499.125,260675.0,234936.96875,236998.328125,282370.0,1.0,3
243766.171875,260447.09375,247517.15625,255930.96875,233506.71875,260674.90625,234946.4375,236994.578125,282371.0,1.0,3
243743.109375,260462.46875,247523.9375,255936.421875,233528.4375,260692.96875,234958.234375,237015.9375,282372.0,1.0,3
243824.546875,260483.125,247532.96875,255942.234375,233528.4375,260701.640625,234951.171875,237027.125,282373.0,1.0,3
243904.390625,260486.4375,247532.890625,255940.265625,233511.015625,260694.578125,234938.484375,237019.25,282374.0,1.0,3
243856.921875,260453.0,247520.09375,255932.84375,233489.734375,260671.875,234932.578125,236990.640625,282375.0,1.0,3
243757.234375,260438.875,247513.9375,255928.46875,233500.8125,260673.75,234944.65625,236989.921875,282376.0,1.0,3
243736.578125,260457.5625,247521.890625,255932.671875,233524.59375,260691.8125,234956.71875,237015.046875,282377.0,1.0,3
243822.765625,260481.515625,247533.421875,255941.96875,233528.359375,260698.78125,234952.875,237028.734375,282378.0,1.0,3
243908.859375,260489.75,247539.859375,255947.6875,233517.53125,260698.15625,234944.828125,237025.234375,282379.0,1.0,3
243866.9375,260463.015625,247526.8125,255935.890625,233499.65625,260676.0625,234936.6875,236998.953125,282380.0,1.0,3
243769.5625,260452.90625,247522.421875,255934.109375,233510.109375,260676.15625,234952.515625,236999.140625,282381.0,1.0,3
243749.890625,260475.796875,247532.53125,255942.328125,233537.203125,260698.59375,234967.546875,237025.59375,282382.0,1.0,3
243831.796875,260496.09375,247543.25,255947.421875,233541.765625,260708.609375,234959.9375,237036.421875,282383.0,1.0,3
243912.078125,260496.09375,247544.15625,255947.875,233523.703125,260700.125,234949.125,237029.171875,282384.0,1.0,3
243864.0625,260460.0625,247526.265625,255936.6875,233497.328125,260673.03125,234940.09375,236998.59375,282385.0,1.0,3
243761.703125,260439.40625,247514.5625,255928.46875,233500.734375,260668.65625,234943.484375,236989.296875,282386.0,1.0,3
243740.328125,260457.46875,247523.40625,255934.640625,233524.25,260689.84375,234959.40625,237011.921875,282387.0,1.0,3
243812.75,260471.15625,247530.65625,255938.578125,233520.578125,260696.71875,234952.875,237021.03125,282388.0,1.0,3
243894.921875,260474.8125,247529.75,255937.234375,233504.9375,260690.109375,234936.15625,237013.796875,282389.0,1.0,3
243862.375,260455.5,247519.921875,255932.5,233491.15625,260671.0625,234935.0,236993.953125,282390.0,1.0,3
243766.34375,260444.78125,247516.4375,255931.328125,233503.40625,260672.84375,234950.546875,236994.578125,282391.0,1.0,3
243737.296875,260454.78125,247523.40625,255934.90625,233523.796875,260689.84375,234961.1875,237015.234375,282392.0,1.0,3
243815.875,260473.296875,247529.578125,255935.984375,233522.8125,260693.765625,234945.09375,237021.578125,282393.0,1.0,3
243891.34375,260468.28125,247526.09375,255930.4375,233500.90625,260679.734375,234926.140625,237005.75,282394.0,1.0,3
243856.734375,260442.8125,247513.84375,255922.921875,233484.28125,260660.0625,234922.125,236980.625,282395.0,1.0,3
243761.78125,260433.234375,247509.90625,255921.9375,233495.28125,260661.9375,234936.78125,236977.9375,282396.0,1.0,3
243739.609375,260452.28125,247523.859375,255932.046875,233522.71875,260684.75,234951.984375,237002.265625,282397.0,1.0,3
243834.484375,260489.03125,247545.671875,255951.265625,233539.625,260704.59375,234962.265625,237032.9375,282398.0,1.0,3
243926.03125,260505.03125,247551.578125,255957.265625,233529.703125,260703.609375,234955.5625,237034.453125,282399.0,1.0,3
243891.515625,260483.125,247538.78125,255949.125,233514.140625,260685.546875,234952.15625,237013.265625,282400.0,1.0,3
243802.015625,260483.578125,247547.015625,255956.8125,233538.453125,260703.15625,234981.484375,237025.59375,282401.0,1.0,3
243782.796875,260508.96875,247564.171875,255970.140625,233574.125,260735.53125,235006.96875,237057.34375,282402.0,1.0,3
243855.3125,260524.703125,247570.890625,255976.296875,233571.984375,260741.96875,235000.34375,237064.765625,282403.0,1.0,3
243925.40625,260512.640625,247559.53125,255966.203125,233540.25,260722.921875,234973.0,237044.28125,282404.0,1.0,3
243873.453125,260468.828125,247533.0625,255943.484375,233506.09375,260685.453125,234946.890625,237002.0,282405.0,1.0,3
243766.609375,260440.578125,247522.875,255937.140625,233507.796875,260677.765625,234951.09375,236991.625,282406.0,1.0,3
243746.234375,260463.640625,247534.140625,255946.171875,233535.328125,260699.21875,234965.21875,237017.8125,282407.0,1.0,3
243824.640625,260488.3125,247544.953125,255955.296875,233539.078125,260708.796875,234962.71875,237033.203125,282408.0,1.0,3
243903.859375,260487.875,247542.71875,255953.59375,233513.421875,260695.46875,234946.078125,237019.609375,282409.0,1.0,3
243864.78125,260455.328125,247523.9375,255939.828125,233486.0625,260665.15625,234933.65625,236989.203125,282410.0,1.0,3
243757.5,260430.734375,247508.828125,255929.1875,233487.3125,260656.3125,234935.265625,236978.921875,282411.0,1.0,3
243736.046875,260457.203125,247522.515625,255940.71875,233519.765625,260683.578125,234956.984375,237013.171875,282412.0,1.0,3
243814.09375,260480.09375,247537.71875,255950.46875,233525.765625,260699.21875,234956.09375,237028.546875,282413.0,1.0,3
243903.140625,260487.0625,247542.28125,255952.875,233509.21875,260694.75,234946.34375,237022.015625,282414.0,1.0,3
243873.546875,260467.03125,247530.828125,255944.296875,233492.234375,260673.484375,234938.125,236997.4375,282415.0,1.0,3
243767.515625,260445.484375,247520.1875,255935.625,233499.5625,260669.90625,234946.53125,236988.671875,282416.0,1.0,3
243734.515625,260457.65625,247523.3125,255937.671875,233519.234375,260686.890625,234955.5625,237007.453125,282417.0,1.0,3
243819.453125,260486.34375,247537.0,255947.953125,233527.546875,260700.828125,234953.859375,237025.328125,282418.0,1.0,3
243900.90625,260486.171875,247536.28125,255945.28125,233507.34375,260694.3125,234937.671875,237014.6875,282419.0,1.0,3
243858.96875,260452.015625,247518.40625,255932.046875,233479.0,260666.765625,234926.859375,236981.15625,282420.0,1.0,3
243760.09375,260439.40625,247512.765625,255929.625,233488.484375,260665.875,234938.84375,236978.484375,282421.0,1.0,3
243727.28125,260449.609375,247516.4375,255934.734375,233512.984375,260685.546875,234955.375,237002.078125,282422.0,1.0,3
243804.25,260470.171875,247525.375,255940.09375,233518.78125,260695.921875,234954.03125,237019.609375,282423.0,1.0,3
243898.140625,260483.75,247531.359375,255943.484375,233508.15625,260692.875,234941.796875,237013.625,282424.0,1.0,3
243862.015625,260455.859375,247520.1875,255935.53125,233489.828125,260674.015625,234935.984375,236990.28125,282425.0,1.0,3
243753.828125,260432.875,247510.796875,255928.734375,233492.234375,260670.703125,234941.078125,236981.25,282426.0,1.0,3
243730.5,260456.84375,247519.5625,255935.625,233517.71875,260691.890625,234955.828125,237004.40625,282427.0,1.0,3
243806.5,260476.875,247528.6875,255943.125,233521.203125,260702.265625,234951.171875,237018.71875,282428.0,1.0,3
243890.453125,260473.203125,247525.546875,255938.296875,233498.84375,260689.84375,234928.640625,237001.453125,282429.0,1.0,3
243857.90625,260444.234375,247511.421875,255927.578125,233476.046875,260666.59375,234917.296875,236972.84375,282430.0,1.0,3
243757.5,260426.359375,247507.40625,255927.75,233486.875,260665.703125,234930.4375,236973.03125,282431.0,1.0,3
243726.921875,260442.265625,247517.421875,255936.515625,233511.28125,260685.375,234948.5,236996.984375,282432.0,1.0,3
243808.015625,260471.328125,247532.53125,255945.375,233518.96875,260701.28125,234949.84375,237013.34375,282433.0,1.0,3
243893.21875,260471.5,247535.84375,255945.71875,233500.453125,260692.78125,234934.640625,237002.53125,282434.0,1.0,3
243862.8125,260445.671875,247522.6875,255936.0625,233479.09375,260666.328125,234924.09375,236978.84375,282435.0,1.0,3
243767.421875,260436.640625,247514.5625,255931.78125,233489.828125,260665.703125,234936.34375,236980.625,282436.0,1.0,3
243739.796875,260455.40625,247522.609375,255940.8125,233518.78125,260691.0,234956.09375,237009.234375,282437.0,1.0,3
243804.703125,260464.71875,247526.0,255942.0625,233513.78125,260694.484375,234942.421875,237013.890625,282438.0,1.0,3
243887.3125,260464.078125,247527.796875,255942.78125,233494.828125,260686.4375,234932.578125,237003.6875,282439.0,1.0,3
243861.03125,260443.515625,247516.53125,255934.015625,233476.859375,260664.09375,234929.453125,236984.5625,282440.0,1.0,3
243762.59375,260431.546875,247510.625,255929.1875,233487.046875,260663.375,234942.765625,236985.546875,282441.0,1.0,3
243735.765625,260457.203125,247519.921875,255935.625,233514.140625,260685.375,234961.640625,237013.078125,282442.0,1.0,3
243803.546875,260476.15625,247529.40625,255940.625,233516.546875,260694.9375,234958.328125,237027.125,282443.0,1.0,3
243889.90625,260481.609375,247528.765625,255935.796875,233496.34375,260683.765625,234939.375,237015.046875,282444.0,1.0,3
243854.59375,260449.953125,247510.625,255921.859375,233471.046875,260652.640625,234924.796875,236986.171875,282445.0,1.0,3
243750.4375,260426.625,247501.59375,255916.578125,233477.21875,260648.265625,234932.40625,236979.28125,282446.0,1.0,3
243724.234375,260449.609375,247514.828125,255926.234375,233504.75,260672.671875,234950.28125,237004.046875,282447.0,1.0,3
243805.0625,260478.390625,247531.453125,255937.671875,233517.0,260690.375,234955.46875,237026.046875,282448.0,1.0,3
243892.5,260482.140625,247531.09375,255935.796875,233500.453125,260681.4375,234942.234375,237020.234375,282449.0,1.0,3
243861.203125,260454.25,247514.828125,255919.34375,233476.765625,260652.5625,234929.359375,236991.4375,282450.0,1.0,3
243760.453125,260435.296875,247505.265625,255911.21875,233484.359375,260648.71875,234938.578125,236988.578125,282451.0,1.0,3
243733.984375,260455.59375,247515.984375,255921.140625,233515.84375,260673.484375,234962.078125,237018.71875,282452.0,1.0,3
243802.921875,260471.5,247524.390625,255925.15625,233516.375,260680.265625,234955.375,237031.59375,282453.0,1.0,3
243887.765625,260475.078125,247524.390625,255925.25,233495.359375,260673.921875,234930.53125,237017.1875,282454.0,1.0,3
243864.15625,260452.546875,247513.9375,255917.46875,233475.25,260653.453125,234925.703125,236996.984375,282455.0,1.0,3
243760.984375,260430.46875,247503.921875,255906.390625,233477.484375,260646.203125,234930.96875,236989.828125,282456.0,1.0,3
243729.421875,260449.328125,247515.265625,255914.078125,233506.984375,260669.09375,234948.859375,237016.84375,282457.0,1.0,3
243801.390625,260470.515625,247526.1875,255921.765625,233514.859375,260682.59375,234950.28125,237036.234375,282458.0,1.0,3
243889.640625,260476.6875,247527.96875,255922.65625,233496.53125,260676.421875,234939.640625,237030.96875,282459.0,1.0,3
243853.96875,260442.359375,247506.59375,255906.296875,233463.890625,260641.828125,234921.40625,236994.125,282460.0,1.0,3
243744.359375,260418.75,247494.078125,255895.203125,233461.5625,260632.703125,234922.296875,236977.765625,282461.0,1.0,3
243712.4375,260441.640625,247504.546875,255901.734375,233489.734375,260655.859375,234941.34375,237004.140625,282462.0,1.0,3
243789.59375,260471.0625,247518.484375,255909.609375,233498.046875,260669.453125,234942.859375,237022.203125,282463.0,1.0,3
243887.765625,260489.390625,247523.9375,255913.625,233488.125,260670.078125,234935.984375,237023.71875,282464.0,1.0,3
243868.1875,260472.21875,247516.34375,255912.109375,233474.796875,260653.71875,234935.53125,237005.84375,282465.0,1.0,3
243763.671875,260450.5,247507.765625,255905.046875,233478.5625,260649.609375,234941.4375,236994.578125,282466.0,1.0,3
243724.59375,260463.546875,247513.21875,255906.75,233500.28125,260666.859375,234946.078125,237011.828125,282467.0,1.0,3
243803.8125,260495.5625,247527.515625,255917.5625,233514.234375,260683.484375,234951.984375,237032.9375,282468.0,1.0,3
243898.9375,260508.4375,247531.8125,255921.578125,233499.921875,260680.265625,234941.96875,237027.125,282469.0,1.0,3
243871.84375,260481.4375,247517.78125,255911.296875,233476.859375,260655.421875,234931.515625,237000.828125,282470.0,1.0,3
243772.96875,260462.296875,247509.640625,255906.5625,233485.0,260654.25,234943.671875,236999.84375,282471.0,1.0,3
243732.640625,260467.21875,247512.140625,255907.28125,233508.5,260674.453125,234951.890625,237020.234375,282472.0,1.0,3
243810.515625,260495.203125,247525.46875,255917.46875,233518.609375,260688.5,234951.0,237036.859375,282473.0,1.0,3
243902.515625,260504.40625,247529.84375,255919.96875,233503.328125,260684.03125,234939.28125,237030.515625,282474.0,1.0,3
243871.484375,260474.1875,247514.203125,255909.25,233476.671875,260657.203125,234928.015625,237001.734375,282475.0,1.0,3
243766.703125,260451.125,247504.640625,255903.171875,233479.625,260652.90625,234940.625,236994.75,282476.0,1.0,3
243726.46875,260458.90625,247511.15625,255907.640625,233504.296875,260674.90625,234953.59375,237016.03125,282477.0,1.0,3
243798.265625,260484.03125,247519.109375,255911.578125,233509.40625,260686.4375,234949.484375,237029.0,282478.0,1.0,3
243883.734375,260486.265625,247518.9375,255911.125,233488.5625,260679.203125,234933.296875,237019.515625,282479.0,1.0,3
243856.296875,260456.21875,247503.921875,255900.75,233463.171875,260651.578125,234916.484375,236990.109375,282480.0,1.0,3
243758.5625,260440.84375,247502.75,255898.875,233472.390625,260649.25,234929.265625,236985.8125,282481.0,1.0,3
243726.828125,260462.125,247516.875,255908.078125,233501.625,260674.8125,234949.5625,237014.875,282482.0,1.0,3
243802.296875,260491.359375,247528.953125,255919.078125,233506.265625,260684.75,234950.1875,237030.15625,282483.0,1.0,3
243897.78125,260503.6875,247533.328125,255922.296875,233493.3125,260678.65625,234939.828125,237027.03125,282484.0,1.0,3
243869.078125,260474.09375,247515.0,255909.96875,233469.96875,260651.65625,234923.375,236998.0625,282485.0,1.0,3
243767.78125,260457.5625,247505.890625,255905.484375,233477.578125,260650.953125,234933.390625,236991.265625,282486.0,1.0,3
243733.09375,260478.484375,247516.078125,255911.484375,233505.46875,260674.640625,234953.765625,237014.15625,282487.0,1.0,3
243808.1875,260504.59375,247526.53125,255918.015625,233510.921875,260682.421875,234951.53125,237029.0,282488.0,1.0,3
243891.421875,260500.65625,247520.8125,255913.53125,233484.640625,260667.390625,234929.265625,237012.359375,282489.0,1.0,3
243863.0,260470.4375,247501.59375,255899.859375,233458.796875,260639.765625,234913.890625,236983.75,282490.0,1.0,3
243758.03125,260445.9375,247490.78125,255891.8125,233459.421875,260632.171875,234920.78125,236973.109375,282491.0,1.0,3
243728.0,260466.671875,247507.40625,255904.328125,233491.78125,260659.0,234941.875,237002.625,282492.0,1.0,3
243803.8125,260496.09375,247524.75,255919.53125,233507.171875,260678.484375,234947.953125,237027.390625,282493.0,1.0,3
243889.546875,260494.21875,247524.390625,255921.3125,233491.15625,260670.609375,234932.671875,237023.09375,282494.0,1.0,3
243863.09375,260464.796875,247503.828125,255905.9375,233462.640625,260640.9375,234915.328125,236992.703125,282495.0,1.0,3
243760.8125,260442.890625,247491.125,255897.359375,233464.15625,260634.3125,234920.78125,236982.859375,282496.0,1.0,3
243719.5,260453.09375,247497.390625,255902.09375,233484.453125,260654.25,234935.0,237004.046875,282497.0,1.0,3
243782.078125,260467.578125,247507.140625,255907.546875,233485.96875,260665.15625,234932.84375,237016.921875,282498.0,1.0,3
243878.828125,260479.734375,247512.59375,255909.96875,233475.515625,260663.734375,234922.75,237016.921875,282499.0,1.0,3
243864.515625,260461.40625,247501.234375,255898.703125,233456.203125,260640.3125,234910.9375,236992.34375,282500.0,1.0,3
243761.078125,260437.890625,247495.875,255895.203125,233458.703125,260634.859375,234918.984375,236980.265625,282501.0,1.0,3
243719.234375,260451.921875,247501.953125,255900.125,233484.90625,260657.828125,234934.734375,237001.546875,282502.0,1.0,3
243787.53125,260476.875,247510.625,255906.46875,233492.953125,260669.984375,234933.203125,237018.890625,282503.0,1.0,3
243875.0625,260481.078125,247509.90625,255906.203125,233473.375,260661.3125,234918.359375,237009.421875,282504.0,1.0,3
243854.0625,260458.453125,247495.78125,255897.53125,233449.3125,260633.78125,234906.75,236982.953125,282505.0,1.0,3
243762.859375,260448.171875,247491.84375,255894.859375,233460.140625,260633.78125,234921.859375,236986.96875,282506.0,1.0,3
243724.78125,260462.5625,247501.421875,255902.359375,233489.1875,260657.828125,234939.90625,237014.25,282507.0,1.0,3
243793.265625,260486.703125,247514.203125,255912.203125,233499.75,260674.015625,234939.015625,237032.484375,282508.0,1.0,3
243888.296875,260497.796875,247519.921875,255915.953125,233487.3125,260672.21875,234929.453125,237028.734375,282509.0,1.0,3
243868.546875,260474.28125,247506.875,255908.625,233466.125,260647.8125,234921.5,237000.75,282510.0,1.0,3
243764.65625,260452.375,247496.234375,255903.25,233465.5,260637.359375,234929.71875,236989.03125,282511.0,1.0,3
243715.46875,260457.015625,247500.078125,255905.21875,233483.828125,260651.65625,234937.3125,237003.25,282512.0,1.0,3
243786.109375,260483.125,247512.40625,255913.09375,233493.3125,260666.859375,234934.1875,237020.6875,282513.0,1.0,3
243886.25,260495.5625,247520.1875,255920.515625,233484.640625,260670.4375,234927.9375,237023.546875,282514.0,1.0,3
243865.40625,260467.296875,247504.8125,255910.3125,233462.90625,260642.71875,234917.921875,236999.40625,282515.0,1.0,3
243769.828125,260451.75,247503.828125,255910.3125,233474.890625,260643.796875,234938.21875,237000.828125,282516.0,1.0,3
243739.4375,260475.265625,247517.78125,255918.90625,233507.96875,260674.015625,234953.140625,237025.78125,282517.0,1.0,3
243807.03125,260497.609375,247529.3125,255926.6875,233518.15625,260687.609375,234952.515625,237042.3125,282518.0,1.0,3
243898.484375,260501.71875,247531.09375,255926.234375,233501.53125,260680.453125,234942.6875,237037.671875,282519.0,1.0,3
243876.859375,260471.328125,247513.9375,255911.65625,233474.625,260653.359375,234925.421875,237007.71875,282520.0,1.0,3
243772.703125,260447.8125,247502.3125,255903.4375,233474.625,260641.296875,234930.796875,236995.203125,282521.0,1.0,3
243732.015625,260462.03125,247510.53125,255910.140625,233500.28125,260661.859375,234942.140625,237018.453125,282522.0,1.0,3
243797.734375,260485.28125,247521.359375,255919.53125,233508.0625,260675.984375,234941.171875,237035.875,282523.0,1.0,3
243886.0625,260488.671875,247517.5,255916.40625,233487.5,260666.953125,234922.5625,237023.359375,282524.0,1.0,3
243874.078125,260468.640625,247510.0,255912.28125,233470.953125,260648.984375,234915.6875,237000.296875,282525.0,1.0,3
243769.390625,260444.78125,247501.421875,255905.578125,233473.734375,260643.34375,234926.046875,236989.828125,282526.0,1.0,3
243723.875,260459.796875,247505.265625,255906.5625,233496.609375,260660.609375,234941.34375,237010.40625,282527.0,1.0,3
243787.71875,260485.0,247513.21875,255909.0625,233504.390625,260671.875,234941.4375,237027.828125,282528.0,1.0,3
243886.6875,260503.15625,247516.34375,255911.75,233490.890625,260666.40625,234929.90625,237023.09375,282529.0,1.0,3
243871.671875,260480.625,247502.9375,255902.453125,233466.671875,260640.390625,234918.09375,236996.09375,282530.0,1.0,3
243772.421875,260458.8125,247496.9375,255899.6875,233472.03125,260637.359375,234927.65625,236989.125,282531.0,1.0,3
243722.625,260465.609375,247506.6875,255908.625,233493.84375,260656.3125,234941.703125,237004.140625,282532.0,1.0,3
243792.453125,260495.46875,247519.109375,255917.109375,233505.015625,260670.890625,234942.140625,237020.59375,282533.0,1.0,3
243883.65625,260503.15625,247520.640625,255916.578125,233487.3125,260666.6875,234926.953125,237013.53125,282534.0,1.0,3
243867.640625,260477.671875,247503.921875,255902.984375,233462.109375,260641.375,234913.1875,236987.59375,282535.0,1.0,3
243765.359375,260450.40625,247494.703125,255896.109375,233463.265625,260635.5625,234919.890625,236979.546875,282536.0,1.0,3
243725.484375,260464.625,247503.203125,255902.90625,233491.078125,260659.171875,234938.125,237003.6875,282537.0,1.0,3
243800.328125,260496.359375,247522.25,255920.78125,233509.671875,260681.96875,234949.75,237029.984375,282538.0,1.0,3
243892.328125,260500.75,247523.59375,255921.859375,233490.453125,260676.875,234935.078125,237021.84375,282539.0,1.0,3
243868.09375,260460.421875,247505.265625,255903.875,233456.921875,260645.140625,234912.28125,236982.421875,282540.0,1.0,3
243771.09375,260437.0,247496.765625,255898.96875,233458.078125,260635.5625,234917.203125,236970.25,282541.0,1.0,3
243725.3125,260448.0,247509.375,255908.359375,233486.515625,260660.609375,234935.890625,236994.484375,282542.0,1.0,3
243793.96875,260478.484375,247525.640625,255919.4375,233501.71875,260677.140625,234943.671875,237015.40625,282543.0,1.0,3
243883.296875,260481.34375,247524.921875,255917.734375,233480.609375,260667.046875,234922.03125,237002.984375,282544.0,1.0,3
243866.84375,260451.84375,247509.46875,255907.28125,233454.0625,260641.828125,234901.921875,236972.484375,282545.0,1.0,3
243773.140625,260437.265625,247506.328125,255907.015625,233463.0,260640.21875,234915.5,236969.984375,282546.0,1.0,3
243732.546875,260455.140625,247515.984375,255914.703125,233491.34375,260662.296875,234931.15625,236990.8125,282547.0,1.0,3
243800.234375,260483.484375,247530.03125,255925.34375,233504.9375,260677.859375,234937.3125,237010.125,282548.0,1.0,3
243900.09375,260499.046875,247537.265625,255929.1875,233493.046875,260676.421875,234933.03125,237011.03125,282549.0,1.0,3
243888.203125,260474.640625,247526.71875,255922.484375,233470.328125,260653.1875,234917.65625,236988.21875,282550.0,1.0,3
243786.28125,260453.0,247515.0,255916.21875,233471.671875,260644.328125,234925.25,236978.65625,282551.0,1.0,3
243741.5,260469.1875,247520.015625,255920.609375,233499.828125,260666.765625,234941.34375,237000.5625,282552.0,1.0,3
243800.140625,260489.390625,247530.828125,255926.234375,233506.265625,260680.0,234940.1875,237014.25,282553.0,1.0,3
243903.234375,260506.734375,247539.0625,255931.953125,233498.40625,260680.984375,234935.53125,237016.484375,282554.0,1.0,3
243894.5625,260481.78125,247526.625,255923.109375,233476.046875,260657.734375,234926.140625,236992.421875,282555.0,1.0,3
243781.640625,260443.875,247510.984375,255910.046875,233468.28125,260644.953125,234923.015625,236971.0625,282556.0,1.0,3
243720.390625,260440.125,247508.5625,255906.75,233483.296875,260656.046875,234926.59375,236978.65625,282557.0,1.0,3
243790.3125,260473.734375,247522.6875,255919.34375,233502.6875,260675.984375,234933.46875,237007.0,282558.0,1.0,3
243898.671875,260496.890625,247536.46875,255932.84375,233501.625,260686.265625,234937.953125,237019.15625,282559.0,1.0,3
243882.84375,260468.46875,247520.1875,255919.703125,233475.25,260658.453125,234922.484375,236989.03125,282560.0,1.0,3
243776.71875,260435.65625,247510.53125,255912.28125,233473.28125,260648.4375,234925.78125,236974.28125,282561.0,1.0,3
243727.28125,260444.6875,247516.25,255917.5625,233496.171875,260665.96875,234941.515625,236993.234375,282562.0,1.0,3
243792.1875,260473.03125,247531.1875,255929.546875,233509.484375,260681.796875,234945.984375,237015.140625,282563.0,1.0,3
243890.796875,260485.359375,247534.765625,255929.359375,233493.484375,260675.796875,234931.0625,237008.515625,282564.0,1.0,3
243874.703125,260454.875,247518.3125,255916.21875,233463.984375,260649.421875,234917.03125,236977.59375,282565.0,1.0,3
243769.390625,260426.171875,247503.828125,255905.84375,233460.671875,260638.25,234920.78125,236961.671875,282566.0,1.0,3
243720.390625,260443.515625,247507.5,255909.25,233484.359375,260656.40625,234937.671875,236980.09375,282567.0,1.0,3
243783.25,260474.546875,247522.515625,255920.6875,233498.9375,260673.390625,234948.40625,237006.5625,282568.0,1.0,3
243879.09375,260487.953125,247525.828125,255921.5,233483.5625,260668.828125,234935.0,237007.453125,282569.0,1.0,3
243868.984375,260462.125,247513.125,255912.46875,233457.8125,260643.703125,234917.828125,236981.78125,282570.0,1.0,3
243766.34375,260437.625,247503.03125,255905.046875,233456.46875,260635.203125,234924.71875,236969.1875,282571.0,1.0,3
243722.1875,260457.5625,247509.28125,255909.34375,233483.03125,260658.09375,234942.140625,236992.421875,282572.0,1.0,3
243778.953125,260480.171875,247516.171875,255912.640625,233492.0625,260670.265625,234939.28125,237007.984375,282573.0,1.0,3
243872.65625,260487.515625,247518.671875,255915.5,233476.859375,260668.015625,234928.109375,237004.40625,282574.0,1.0,3
243864.78125,260458.28125,247507.9375,255909.96875,233455.84375,260647.375,234920.0625,236980.453125,282575.0,1.0,3
243760.09375,260430.015625,247491.765625,255895.390625,233452.71875,260632.171875,234912.734375,236959.53125,282576.0,1.0,3
243707.96875,260440.921875,247498.015625,255898.609375,233476.765625,260653.265625,234926.140625,236973.921875,282577.0,1.0,3
243765.28125,260464.0,247510.796875,255907.1875,233486.609375,260668.109375,234928.734375,236991.890625,282578.0,1.0,3
243861.296875,260473.03125,247514.296875,255910.046875,233470.59375,260662.296875,234915.421875,236987.78125,282579.0,1.0,3
243851.203125,260442.625,247499.53125,255898.96875,233446.90625,260636.734375,234902.453125,236961.140625,282580.0,1.0,3
243756.875,260420.984375,247488.453125,255889.125,233448.609375,260626.984375,234906.828125,236950.59375,282581.0,1.0,3
243715.65625,260438.96875,247504.28125,255902.09375,233481.6875,260654.796875,234932.484375,236979.109375,282582.0,1.0,3
243777.4375,260464.53125,247521.359375,255914.34375,233498.046875,260676.15625,234942.234375,237007.0,282583.0,1.0,3
243874.890625,260475.265625,247521.890625,255912.828125,233479.625,260669.90625,234924.890625,236999.765625,282584.0,1.0,3
243863.625,260445.9375,247509.640625,255905.140625,233451.546875,260642.984375,234908.703125,236968.109375,282585.0,1.0,3
243755.0,260413.296875,247495.953125,255896.1875,233447.0,260628.859375,234909.6875,236951.390625,282586.0,1.0,3
243698.3125,260419.65625,247496.140625,255895.125,233467.46875,260643.078125,234922.390625,236968.109375,282587.0,1.0,3
243756.78125,260447.1875,247505.890625,255899.859375,233476.59375,260656.046875,234923.734375,236986.703125,282588.0,1.0,3
243852.8125,260460.234375,247507.21875,255899.328125,233465.59375,260656.21875,234911.390625,236985.546875,282589.0,1.0,3
243849.140625,260440.296875,247497.484375,255893.953125,233446.015625,260636.90625,234900.125,236965.875,282590.0,1.0,3
243758.84375,260426.09375,247492.5625,255892.078125,233450.75,260633.15625,234910.5,236958.8125,282591.0,1.0,3
243703.671875,260433.515625,247496.59375,255893.78125,233472.125,260647.1875,234924.53125,236972.3125,282592.0,1.0,3
243753.46875,260450.578125,247504.546875,255897.71875,233478.828125,260658.28125,234925.703125,236988.859375,282593.0,1.0,3
243853.15625,260464.796875,247510.625,255902.0,233466.484375,260659.890625,234912.28125,236990.734375,282594.0,1.0,3
243859.421875,260453.625,247502.3125,255896.28125,233447.078125,260643.890625,234905.3125,236967.65625,282595.0,1.0,3
243761.703125,260430.5625,247489.171875,255887.96875,233447.796875,260632.625,234911.125,236954.515625,282596.0,1.0,3
243705.28125,260435.03125,247491.765625,255890.734375,233470.78125,260649.15625,234924.09375,236973.03125,282597.0,1.0,3
243756.78125,260456.484375,247499.625,255896.8125,233480.4375,260665.078125,234926.234375,236990.546875,282598.0,1.0,3
243854.0625,260465.421875,247505.171875,255899.859375,233465.234375,260663.1875,234914.96875,236986.34375,282599.0,1.0,3
243843.234375,260432.171875,247488.265625,255887.96875,233435.46875,260633.6875,234898.96875,236954.515625,282600.0,1.0,3
243746.953125,260409.453125,247476.203125,255880.015625,233436.359375,260622.25,234902.546875,236941.828125,282601.0,1.0,3
243694.015625,260419.5625,247480.21875,255883.9375,233463.359375,260640.21875,234913.984375,236962.75,282602.0,1.0,3
243751.0625,260444.234375,247497.03125,255896.90625,233479.0,260659.625,234921.40625,236986.96875,282603.0,1.0,3
243853.15625,260458.546875,247504.453125,255901.921875,233469.796875,260660.515625,234916.21875,236988.9375,282604.0,1.0,3
243844.9375,260429.3125,247486.484375,255885.546875,233439.9375,260631.90625,234894.140625,236952.828125,282605.0,1.0,3
243745.15625,260403.734375,247476.203125,255877.5,233437.78125,260621.703125,234899.953125,236935.296875,282606.0,1.0,3
243693.296875,260413.75,247484.609375,255884.484375,233463.890625,260644.515625,234918.09375,236955.140625,282607.0,1.0,3
243751.859375,260440.390625,247496.234375,255893.15625,233477.21875,260658.8125,234921.40625,236978.03125,282608.0,1.0,3
243848.515625,260449.953125,247500.515625,255897.09375,233465.140625,260654.078125,234909.609375,236977.765625,282609.0,1.0,3
243850.75,260433.859375,247494.4375,255891.90625,233445.296875,260635.5625,234902.359375,236957.46875,282610.0,1.0,3
243748.28125,260406.59375,247482.8125,255884.65625,233439.9375,260623.40625,234904.59375,236936.546875,282611.0,1.0,3
243694.28125,260420.71875,247488.8125,255889.84375,233466.125,260645.40625,234921.140625,236959.4375,282612.0,1.0,3
243752.125,260448.265625,247501.859375,255896.90625,233481.6875,260665.25,234931.15625,236983.75,282613.0,1.0,3
243853.875,260460.859375,247506.515625,255901.828125,233469.4375,260661.9375,234918.0,236983.125,282614.0,1.0,3
243851.828125,260436.375,247490.5,255889.671875,233440.46875,260633.0625,234895.5625,236954.34375,282615.0,1.0,3
243750.171875,260410.890625,247478.796875,255880.453125,233435.734375,260622.0625,234901.46875,236940.21875,282616.0,1.0,3
243693.578125,260421.890625,247484.96875,255885.46875,233461.296875,260641.5625,234920.875,236962.5625,282617.0,1.0,3
243747.484375,260444.328125,247495.953125,255895.03125,233474.796875,260658.90625,234924.890625,236985.71875,282618.0,1.0,3
243846.375,260455.328125,247504.28125,255900.84375,233465.6875,260661.40625,234911.296875,236987.78125,282619.0,1.0,3
243845.203125,260429.3125,247488.546875,255888.5,233440.375,260635.125,234898.15625,236958.359375,282620.0,1.0,3
243741.9375,260398.109375,247472.53125,255876.96875,233433.40625,260616.96875,234901.734375,236936.453125,282621.0,1.0,3
243690.0,260412.9375,247482.375,255886.53125,233463.171875,260641.296875,234922.5625,236959.796875,282622.0,1.0,3
243747.03125,260438.421875,247497.296875,255898.34375,233477.84375,260660.78125,234930.96875,236984.921875,282623.0,1.0,3
243852.890625,260457.65625,247503.921875,255903.875,233467.5625,260661.671875,234919.4375,236986.890625,282624.0,1.0,3
243858.53125,260437.078125,247496.046875,255897.625,233447.625,260642.625,234908.171875,236962.296875,282625.0,1.0,3
243751.421875,260399.53125,247481.203125,255887.15625,233440.5625,260624.84375,234910.140625,236942.625,282626.0,1.0,3
243687.84375,260406.234375,247482.453125,255888.421875,233458.53125,260636.1875,234920.875,236955.5,282627.0,1.0,3
243742.03125,260434.84375,247497.296875,255899.6875,233476.671875,260655.0625,234921.859375,236979.90625,282628.0,1.0,3
243843.78125,260448.0,247504.8125,255904.78125,233464.78125,260657.03125,234907.1875,236977.765625,282629.0,1.0,3
243843.59375,260420.640625,247493.8125,255896.46875,233433.40625,260633.78125,234894.40625,236949.421875,282630.0,1.0,3
243744.796875,260393.90625,247483.171875,255889.671875,233429.65625,260622.15625,234901.640625,236933.953125,282631.0,1.0,3
243684.625,260402.03125,247490.328125,255894.765625,233454.59375,260639.234375,234920.78125,236951.125,282632.0,1.0,3
243738.28125,260429.390625,247504.546875,255901.640625,233469.796875,260657.203125,234923.90625,236971.328125,282633.0,1.0,3
243843.0625,260449.15625,247513.484375,255907.28125,233461.125,260660.6875,234910.671875,236967.84375,282634.0,1.0,3
243856.109375,260437.703125,247510.4375,255909.875,233446.90625,260647.109375,234907.640625,236954.515625,282635.0,1.0,3
243754.8125,260403.921875,247493.28125,255894.5,233437.96875,260628.78125,234905.046875,236933.78125,282636.0,1.0,3
243700.28125,260416.515625,247500.4375,255899.234375,233462.1875,260649.0625,234918.453125,236949.875,282637.0,1.0,3
243745.421875,260432.796875,247509.8125,255905.9375,233472.5625,260663.28125,234916.21875,236967.03125,282638.0,1.0,3
243840.203125,260439.3125,247510.53125,255904.953125,233458.078125,260660.6875,234905.046875,236966.328125,282639.0,1.0,3
243853.15625,260425.46875,247503.03125,255902.546875,233439.21875,260643.4375,234897.71875,236948.796875,282640.0,1.0,3
243766.265625,260413.578125,247496.9375,255901.734375,233444.671875,260639.40625,234909.15625,236939.765625,282641.0,1.0,3
243701.625,260419.296875,247495.78125,255901.296875,233465.6875,260653.1875,234921.40625,236952.46875,282642.0,1.0,3
243744.796875,260435.75,247504.28125,255908.984375,233476.765625,260665.78125,234923.375,236972.40625,282643.0,1.0,3
243856.5625,260458.8125,247515.09375,255917.296875,233471.84375,260669.28125,234917.828125,236980.09375,282644.0,1.0,3
243869.25,260442.0,247506.0625,255909.515625,233451.203125,260646.5625,234906.390625,236958.8125,282645.0,1.0,3
243770.546875,260412.3125,247494.53125,255901.296875,233448.515625,260633.515625,234910.046875,236944.59375,282646.0,1.0,3
243707.78125,260418.3125,247496.234375,255901.921875,233471.21875,260653.0,234926.234375,236962.5625,282647.0,1.0,3
243760.453125,260445.125,247505.796875,255909.96875,233485.4375,260670.34375,234932.21875,236981.34375,282648.0,1.0,3
243852.625,260446.828125,247507.5,255909.25,233468.984375,260664.53125,234913.0,236971.78125,282649.0,1.0,3
243863.265625,260429.21875,247500.34375,255903.875,233448.6875,260647.109375,234903.171875,236951.21875,282650.0,1.0,3
243765.8125,260406.15625,247487.015625,255894.5,233442.875,260633.875,234905.578125,236933.515625,282651.0,1.0,3
243704.390625,260415.71875,247491.40625,255896.90625,233465.5,260648.078125,234922.03125,236952.203125,282652.0,1.0,3
243746.765625,260434.484375,247502.125,255903.796875,233475.421875,260661.046875,234929.8125,236971.859375,282653.0,1.0,3
243850.75,260455.59375,247507.40625,255906.828125,233463.890625,260663.015625,234914.25,236973.828125,282654.0,1.0,3
243865.953125,260443.078125,247504.09375,255905.21875,233447.984375,260648.4375,234904.6875,236954.34375,282655.0,1.0,3
243768.859375,260415.8125,247491.765625,255896.46875,233441.984375,260631.90625,234903.703125,236933.953125,282656.0,1.0,3
243702.875,260418.046875,247495.328125,255899.859375,233461.65625,260647.28125,234921.40625,236949.328125,282657.0,1.0,3
243754.8125,260443.609375,247509.640625,255908.984375,233475.0625,260665.078125,234928.640625,236970.4375,282658.0,1.0,3
243853.15625,260456.75,247513.9375,255910.59375,233460.046875,260661.9375,234910.9375,236968.734375,282659.0,1.0,3
243856.921875,260432.171875,247497.75,255898.96875,233433.046875,260632.171875,234892.53125,236942.09375,282660.0,1.0,3
243767.515625,260413.390625,247492.203125,255896.734375,233439.390625,260625.015625,234902.453125,236935.125,282661.0,1.0,3
243711.28125,260429.21875,247500.34375,255902.625,233469.875,260648.625,234922.125,236957.65625,282662.0,1.0,3
243753.109375,260444.0625,247509.8125,255909.78125,233478.375,260662.5625,234924.796875,236972.21875,282663.0,1.0,3
243857.71875,260458.28125,247517.234375,255915.78125,233468.1875,260662.125,234915.5,236975.265625,282664.0,1.0,3
243866.390625,260432.703125,247502.75,255905.046875,233439.9375,260635.296875,234896.546875,236945.40625,282665.0,1.0,3
243770.015625,260405.25,247489.171875,255894.40625,233434.828125,260621.703125,234897.265625,236925.90625,282666.0,1.0,3
243700.015625,260408.203125,247493.546875,255898.25,233456.03125,260637.453125,234911.578125,236941.109375,282667.0,1.0,3
243744.625,260431.09375,247504.1875,255907.375,233470.59375,260653.09375,234916.484375,236960.6875,282668.0,1.0,3
243845.734375,260445.125,247508.65625,255910.234375,233461.125,260652.734375,234904.328125,236961.40625,282669.0,1.0,3
243864.0625,260434.578125,247502.75,255905.671875,233440.375,260634.671875,234895.203125,236943.078125,282670.0,1.0,3
243769.390625,260405.796875,247488.453125,255893.25,233433.765625,260617.328125,234893.953125,236925.640625,282671.0,1.0,3
243702.6875,260411.78125,247491.578125,255897.359375,233458.4375,260635.75,234911.578125,236943.171875,282672.0,1.0,3
243746.40625,260436.1875,247499.625,255903.875,233472.296875,260652.375,234917.203125,236965.875,282673.0,1.0,3
243848.953125,260452.90625,247504.640625,255907.015625,233461.484375,260652.90625,234905.046875,236968.109375,282674.0,1.0,3
243865.140625,260437.703125,247499.890625,255903.796875,233442.078125,260636.90625,234894.5,236948.796875,282675.0,1.0,3
243776.265625,260416.875,247492.65625,255898.515625,233442.609375,260629.046875,234903.53125,236936.109375,282676.0,1.0,3
243699.109375,260410.0,247489.34375,255895.75,233455.046875,260636.1875,234911.921875,236938.875,282677.0,1.0,3
243745.515625,260434.40625,247502.84375,255906.203125,233472.46875,260656.21875,234922.03125,236962.921875,282678.0,1.0,3
243849.859375,260454.78125,247510.359375,255911.75,233464.875,260659.171875,234914.875,236969.625,282679.0,1.0,3
243857.640625,260428.953125,247499.265625,255902.0,233438.59375,260633.421875,234900.21875,236945.21875,282680.0,1.0,3
243761.96875,260400.703125,247485.59375,255890.296875,233434.03125,260618.046875,234897.09375,236925.640625,282681.0,1.0,3
243697.953125,260406.6875,247487.203125,255893.421875,233458.703125,260634.40625,234913.09375,236943.25,282682.0,1.0,3
243748.734375,260437.53125,247505.171875,255908.625,233481.328125,260661.9375,234930.4375,236975.796875,282683.0,1.0,3
243854.765625,260458.71875,247514.203125,255914.875,233474.984375,260664.53125,234921.21875,236981.34375,282684.0,1.0,3
243863.984375,260435.75,247498.203125,255903.171875,233447.078125,260637.0,234899.40625,236953.453125,282685.0,1.0,3
243760.0,260399.0,247481.828125,255891.359375,233435.015625,260617.859375,234895.03125,236926.265625,282686.0,1.0,3
243691.609375,260402.65625,247486.125,255896.015625,233456.65625,260635.125,234910.140625,236938.609375,282687.0,1.0,3
243723.609375,260413.296875,247489.96875,255897.171875,233461.203125,260644.6875,234906.921875,236947.453125,282688.0,1.0,3
243825.453125,260428.953125,247496.234375,255899.328125,233447.890625,260646.390625,234897.53125,236950.3125,282689.0,1.0,3
243844.84375,260416.25,247486.75,255891.546875,233423.21875,260622.15625,234884.75,236930.640625,282690.0,1.0,3
243754.453125,260390.328125,247476.109375,255883.40625,233422.40625,260608.65625,234890.109375,236918.046875,282691.0,1.0,3
243687.578125,260395.15625,247477.984375,255883.9375,233445.828125,260627.96875,234905.578125,236933.0625,282692.0,1.0,3
243734.515625,260424.03125,247492.109375,255894.9375,233463.359375,260647.375,234912.015625,236956.484375,282693.0,1.0,3
243832.78125,260437.265625,247499.625,255900.484375,233452.1875,260647.375,234899.328125,236955.859375,282694.0,1.0,3
243843.15625,260414.203125,247488.71875,255891.359375,233425.8125,260625.375,234884.03125,236928.6875,282695.0,1.0,3
243753.734375,260391.75,247479.6875,255885.28125,233422.5,260615.09375,234889.75,236914.015625,282696.0,1.0,3
243695.890625,260408.296875,247486.65625,255892.890625,233452.265625,260637.796875,234913.09375,236938.609375,282697.0,1.0,3
243733.625,260425.46875,247493.09375,255896.375,233465.234375,260652.90625,234913.8125,236960.78125,282698.0,1.0,3
243832.78125,260439.234375,247497.5625,255897.890625,233452.890625,260652.640625,234900.390625,236960.15625,282699.0,1.0,3
243858.96875,260427.703125,247493.90625,255896.8125,233435.109375,260635.03125,234892.265625,236942.359375,282700.0,1.0,3
243767.15625,260402.390625,247480.765625,255886.71875,233432.515625,260619.75,234897.265625,236927.703125,282701.0,1.0,3
243691.25,260400.34375,247479.953125,255885.90625,233451.015625,260632.078125,234908.265625,236935.5625,282702.0,1.0,3
243728.796875,260420.71875,247488.1875,255891.359375,233459.875,260645.578125,234908.359375,236951.5625,282703.0,1.0,3
243830.546875,260436.640625,247491.40625,255892.890625,233446.546875,260644.59375,234896.1875,236952.734375,282704.0,1.0,3
243853.25,260425.46875,247486.578125,255891.359375,233429.46875,260628.78125,234892.796875,236939.046875,282705.0,1.0,3
243755.625,260392.109375,247471.109375,255880.375,233423.390625,260610.71875,234892.609375,236920.8125,282706.0,1.0,3
243687.578125,260395.6875,247477.09375,255885.828125,233448.25,260628.78125,234908.984375,236937.625,282707.0,1.0,3
243733.359375,260421.796875,247492.46875,255895.203125,233464.96875,260650.140625,234919.34375,236963.1875,282708.0,1.0,3
243831.171875,260430.640625,247494.984375,255894.671875,233450.484375,260646.5625,234896.375,236957.734375,282709.0,1.0,3
243848.328125,260412.234375,247483.0,255887.34375,233427.6875,260623.59375,234882.515625,236932.890625,282710.0,1.0,3
243752.046875,260382.71875,247465.921875,255877.59375,233422.140625,260608.203125,234884.484375,236913.21875,282711.0,1.0,3
243686.78125,260390.953125,247467.796875,255881.796875,233446.375,260626.53125,234904.234375,236931.28125,282712.0,1.0,3
243734.703125,260419.03125,247487.828125,255895.75,233469.078125,260652.28125,234918.28125,236962.390625,282713.0,1.0,3
243838.59375,260436.09375,247497.21875,255902.265625,233460.234375,260653.625,234907.453125,236964.984375,282714.0,1.0,3
243854.6875,260417.953125,247482.90625,255890.65625,233431.34375,260626.359375,234885.828125,236936.90625,282715.0,1.0,3
243751.78125,260375.484375,247464.578125,255875.546875,233416.6875,260604.1875,234881.4375,236910.4375,282716.0,1.0,3
243675.6875,260369.84375,247468.328125,255876.34375,233433.9375,260619.75,234896.375,236919.828125,282717.0,1.0,3
243729.515625,260409.546875,247489.078125,255892.171875,233459.15625,260648.0,234909.421875,236951.484375,282718.0,1.0,3
243831.078125,260426.53125,247492.65625,255894.140625,233447.625,260646.921875,234898.0625,236953.265625,282719.0,1.0,3
243844.671875,260404.359375,247479.78125,255883.59375,233417.40625,260622.15625,234879.203125,236928.59375,282720.0,1.0,3
243747.21875,260371.640625,247467.34375,255875.359375,233410.25,260607.859375,234881.625,236910.171875,282721.0,1.0,3
243680.609375,260380.484375,247472.359375,255877.328125,233435.375,260625.28125,234898.34375,236924.5625,282722.0,1.0,3
243722.8125,260407.84375,247482.640625,255885.109375,233451.28125,260642.28125,234905.9375,236947.546875,282723.0,1.0,3
243822.9375,260418.21875,247486.03125,255888.328125,233438.234375,260641.640625,234895.390625,236950.9375,282724.0,1.0,3
243838.859375,260394.4375,247469.234375,255875.546875,233408.015625,260616.796875,234873.65625,236922.328125,282725.0,1.0,3
243747.03125,260366.09375,247455.8125,255865.96875,233401.21875,260598.46875,234873.390625,236898.109375,282726.0,1.0,3
243686.59375,260382.375,247467.171875,255878.40625,233433.5,260623.3125,234898.609375,236920.1875,282727.0,1.0,3
243723.703125,260405.96875,247479.953125,255890.109375,233453.15625,260643.796875,234907.8125,236947.375,282728.0,1.0,3
243821.15625,260418.21875,247485.953125,255894.671875,233446.453125,260647.109375,234900.3125,236954.34375,282729.0,1.0,3
243844.84375,260405.078125,247473.609375,255883.234375,233420.265625,260624.75,234883.234375,236927.78125,282730.0,1.0,3
243749.890625,260374.234375,247456.078125,255869.546875,233406.9375,260600.609375,234881.34375,236903.015625,282731.0,1.0,3
243675.875,260369.9375,247457.6875,255872.328125,233426.703125,260610.890625,234891.1875,236914.015625,282732.0,1.0,3
243707.875,260384.953125,247468.421875,255881.796875,233439.21875,260626.984375,234895.203125,236933.859375,282733.0,1.0,3
243808.09375,260401.5,247473.96875,255885.828125,233426.78125,260626.625,234884.125,236935.125,282734.0,1.0,3
243832.328125,260389.25,247469.234375,255883.859375,233408.015625,260609.015625,234876.34375,236915.53125,282735.0,1.0,3
243742.75,260364.578125,247455.28125,255873.21875,233401.21875,260592.203125,234871.96875,236895.875,282736.0,1.0,3
243659.859375,260355.640625,247453.9375,255867.859375,233415.34375,260603.46875,234880.28125,236902.9375,282737.0,1.0,3
243705.90625,260390.421875,247474.953125,255883.859375,233439.75,260630.203125,234896.8125,236934.84375,282738.0,1.0,3
243813.5625,260415.984375,247482.734375,255890.203125,233433.21875,260634.5,234886.796875,236941.109375,282739.0,1.0,3
243838.140625,260401.234375,247473.78125,255885.546875,233413.5625,260615.90625,234878.046875,236921.0,282740.0,1.0,3
243752.21875,260381.65625,247466.8125,255882.609375,233414.1875,260607.046875,234888.234375,236909.640625,282741.0,1.0,3
243692.59375,260403.734375,247478.4375,255892.625,233450.03125,260634.140625,234920.328125,236939.59375,282742.0,1.0,3
243736.3125,260436.734375,247494.625,255904.15625,233476.140625,260664.625,234934.1875,236973.5625,282743.0,1.0,3
243842.171875,260455.6875,247503.921875,255910.3125,233469.875,260672.140625,234923.8125,236980.265625,282744.0,1.0,3
243871.484375,260443.96875,247497.21875,255908.171875,233450.390625,260656.84375,234915.765625,236963.109375,282745.0,1.0,3
243761.78125,260395.0625,247474.59375,255889.3125,233428.21875,260628.6875,234907.375,236928.40625,282746.0,1.0,3
243676.578125,260383.4375,247470.296875,255883.59375,233441.265625,260636.109375,234914.4375,236932.4375,282747.0,1.0,3
243700.28125,260391.671875,247472.359375,255883.5,233443.5,260639.765625,234906.390625,236940.125,282748.0,1.0,3
243793.265625,260399.53125,247472.265625,255880.453125,233417.9375,260631.453125,234883.59375,236932.890625,282749.0,1.0,3
243818.828125,260386.484375,247464.578125,255874.828125,233384.5,260610.71875,234868.5625,236910.703125,282750.0,1.0,3
243729.0625,260358.3125,247454.828125,255870.625,233376.984375,260594.359375,234871.34375,236894.078125,282751.0,1.0,3
243658.4375,260364.671875,247460.109375,255876.078125,233399.96875,260608.203125,234887.78125,236909.1875,282752.0,1.0,3
243691.875,260385.234375,247469.671875,255880.90625,233414.890625,260623.859375,234890.734375,236928.59375,282753.0,1.0,3
243799.78125,260409.453125,247480.140625,255888.421875,233412.21875,260629.75,234888.6875,236938.421875,282754.0,1.0,3
243831.703125,260399.09375,247473.25,255883.5,233391.203125,260612.765625,234874.46875,236919.203125,282755.0,1.0,3
243734.703125,260357.609375,247455.90625,255869.90625,233373.5,260587.921875,234864.359375,236886.84375,282756.0,1.0,3
243662.453125,260362.34375,247462.515625,255878.765625,233398.359375,260604.90625,234888.59375,236904.1875,282757.0,1.0,3
243702.515625,260394.078125,247475.9375,255890.828125,233422.234375,260627.96875,234899.953125,236933.421875,282758.0,1.0,3
243803.71875,260410.4375,247482.546875,255895.921875,233417.125,260632.796875,234891.625,236940.75,282759.0,1.0,3
243835.546875,260399.71875,247474.765625,255891.359375,233398.09375,260616.078125,234880.09375,236924.390625,282760.0,1.0,3
243749.890625,260373.34375,247462.25,255881.796875,233392.8125,260599.71875,234880.375,236904.8125,282761.0,1.0,3
243673.984375,260377.984375,247465.65625,255883.859375,233418.5625,260616.875,234899.953125,236919.921875,282762.0,1.0,3
243708.234375,260404.8125,247477.09375,255893.515625,233438.234375,260636.375,234907.09375,236942.8125,282763.0,1.0,3
243808.28125,260417.328125,247480.40625,255893.59375,233426.703125,260634.046875,234887.96875,236940.21875,282764.0,1.0,3
243836.359375,260397.484375,247469.578125,255884.84375,233398.171875,260610.984375,234871.421875,236911.609375,282765.0,1.0,3
243747.03125,260365.734375,247458.671875,255877.328125,233389.953125,260596.3125,234873.75,236893.1875,282766.0,1.0,3
243674.34375,260370.921875,247464.484375,255883.5,233415.96875,260615.1875,234894.578125,236913.65625,282767.0,1.0,3
243703.140625,260388.984375,247471.28125,255886.0,233430.8125,260628.6875,234896.8125,236933.0625,282768.0,1.0,3
243807.203125,260408.65625,247479.328125,255889.578125,233424.015625,260631.453125,234887.703125,236938.875,282769.0,1.0,3
243833.5,260391.3125,247470.5625,255881.265625,233397.734375,260610.0,234874.109375,236915.265625,282770.0,1.0,3
243747.84375,260368.875,247458.765625,255871.515625,233392.8125,260597.578125,234879.203125,236899.984375,282771.0,1.0,3
243674.796875,260377.0,247464.3125,255877.15625,233420.796875,260615.625,234899.046875,236917.140625,282772.0,1.0,3
243709.671875,260405.703125,247478.171875,255889.3125,233443.6875,260634.765625,234906.390625,236944.953125,282773.0,1.0,3
243810.875,260425.1875,247482.734375,255891.90625,233432.953125,260635.390625,234889.3125,236944.59375,282774.0,1.0,3
243836.984375,260407.40625,247469.40625,255881.625,233405.0625,260612.59375,234870.796875,236917.6875,282775.0,1.0,3
243741.765625,260368.953125,247450.28125,255864.28125,233388.609375,260587.109375,234865.171875,236890.234375,282776.0,1.0,3
243670.328125,260376.015625,247459.578125,255869.546875,233416.234375,260604.640625,234884.03125,236908.296875,282777.0,1.0,3
243697.859375,260397.296875,247472.09375,255877.15625,233431.890625,260622.96875,234887.609375,236929.484375,282778.0,1.0,3
243804.703125,260418.21875,247486.578125,255888.859375,233430.09375,260632.796875,234884.921875,236941.734375,282779.0,1.0,3
243833.21875,260397.75,247475.75,255881.703125,233402.203125,260610.984375,234868.03125,236917.421875,282780.0,1.0,3
243742.75,260361.453125,247456.625,255868.75,233385.921875,260583.984375,234860.875,236889.609375,282781.0,1.0,3
243670.859375,260369.578125,247461.890625,255872.953125,233410.0625,260602.578125,234881.53125,236905.96875,282782.0,1.0,3
243707.25,260403.46875,247478.890625,255885.109375,233431.890625,260628.421875,234896.8125,236933.515625,282783.0,1.0,3
243819.28125,260430.921875,247491.40625,255896.375,233432.421875,260637.984375,234896.90625,236948.53125,282784.0,1.0,3
243853.34375,260415.8125,247481.5625,255888.6875,233410.78125,260618.046875,234881.4375,236930.375,282785.0,1.0,3
243765.8125,260382.90625,247465.828125,255877.953125,233400.140625,260595.328125,234878.40625,236905.96875,282786.0,1.0,3
243680.34375,260377.1875,247464.84375,255876.53125,233415.171875,260604.1875,234891.71875,236914.46875,282787.0,1.0,3
243708.140625,260400.25,247476.109375,255885.109375,233431.4375,260620.546875,234899.40625,236937.078125,282788.0,1.0,3
243812.484375,260421.796875,247489.4375,255894.234375,233426.96875,260628.953125,234894.140625,236943.34375,282789.0,1.0,3
243854.953125,260420.09375,247485.234375,255888.5,233409.984375,260615.265625,234885.1875,236927.25,282790.0,1.0,3
243761.078125,260381.921875,247464.84375,255870.625,233394.609375,260589.875,234875.453125,236901.140625,282791.0,1.0,3
243672.65625,260372.359375,247459.84375,255866.59375,233409.171875,260598.640625,234886.359375,236911.421875,282792.0,1.0,3
243702.953125,260401.328125,247469.9375,255874.375,233428.578125,260617.234375,234897.53125,236940.125,282793.0,1.0,3
243805.953125,260421.625,247479.78125,255879.390625,233421.78125,260622.78125,234888.0625,236947.015625,282794.0,1.0,3
243841.546875,260407.578125,247471.734375,255869.1875,233399.78125,260603.296875,234874.734375,236927.609375,282795.0,1.0,3
243755.703125,260374.953125,247459.21875,255860.15625,233392.28125,260586.65625,234877.15625,236909.375,282796.0,1.0,3
243672.46875,260370.203125,247455.640625,255858.015625,233408.640625,260595.96875,234891.90625,236920.90625,282797.0,1.0,3
243700.90625,260396.046875,247467.34375,255865.609375,233425.8125,260613.21875,234901.203125,236945.9375,282798.0,1.0,3
243804.34375,260418.3125,247477.984375,255871.515625,233421.15625,260616.796875,234888.0625,236951.296875,282799.0,1.0,3
243835.1875,260400.875,247469.765625,255864.09375,233396.03125,260597.03125,234872.234375,236931.0,282800.0,1.0,3
243752.3125,260370.828125,247459.390625,255856.9375,233386.109375,260578.703125,234873.21875,236909.375,282801.0,1.0,3
243681.765625,260382.453125,247466.359375,255864.09375,233413.828125,260597.578125,234896.453125,236927.609375,282802.0,1.0,3
243708.140625,260409.453125,247478.609375,255872.59375,233433.9375,260620.1875,234905.3125,236953.984375,282803.0,1.0,3
243809.171875,260432.875,247487.828125,255879.109375,233429.46875,260625.375,234897.625,236963.1875,282804.0,1.0,3
243841.359375,260419.65625,247477.09375,255871.421875,233405.953125,260603.375,234881.078125,236942.09375,282805.0,1.0,3
243755.265625,260388.265625,247458.5,255856.40625,233390.125,260578.796875,234874.5625,236912.3125,282806.0,1.0,3
243678.46875,260394.4375,247460.109375,255855.875,233411.140625,260593.546875,234891.625,236924.203125,282807.0,1.0,3
243704.125,260420.984375,247473.609375,255862.75,233429.921875,260613.21875,234901.921875,236948.703125,282808.0,1.0,3
243806.9375,260444.328125,247482.546875,255868.75,233426.515625,260619.828125,234893.234375,236957.734375,282809.0,1.0,3
243846.640625,260438.34375,247475.671875,255865.265625,233405.328125,260602.3125,234878.046875,236939.140625,282810.0,1.0,3
243758.21875,260402.65625,247458.765625,255853.1875,233392.015625,260581.484375,234874.5625,236914.203125,282811.0,1.0,3
243677.484375,260401.953125,247460.734375,255857.21875,233414.8125,260596.859375,234892.078125,236926.890625,282812.0,1.0,3
243709.125,260432.796875,247476.015625,255870.0,233441.09375,260623.59375,234905.9375,236956.9375,282813.0,1.0,3
243806.765625,260448.96875,247483.09375,255874.640625,233437.078125,260628.953125,234897.09375,236963.640625,282814.0,1.0,3
243841.359375,260429.9375,247473.4375,255867.40625,233411.328125,260609.640625,234885.90625,236941.640625,282815.0,1.0,3
243759.28125,260395.78125,247453.3125,255852.65625,233393.4375,260587.46875,234877.78125,236912.765625,282816.0,1.0,3
243677.921875,260395.6875,247454.390625,255854.171875,233411.046875,260597.921875,234891.90625,236922.953125,282817.0,1.0,3
243706.796875,260423.40625,247474.859375,255869.90625,233434.125,260625.203125,234904.234375,236952.640625,282818.0,1.0,3
243794.875,260423.046875,247479.515625,255870.53125,233414.890625,260621.265625,234885.828125,236946.109375,282819.0,1.0,3
243840.375,260417.765625,247473.78125,255867.5,233394.15625,260603.734375,234870.71875,236927.703125,282820.0,1.0,3
243768.046875,260398.46875,247465.828125,255864.28125,233394.609375,260591.9375,234878.125,236918.578125,282821.0,1.0,3
243689.09375,260402.21875,247470.390625,255869.46875,233421.875,260610.0,234899.671875,236935.65625,282822.0,1.0,3
243707.78125,260422.328125,247479.328125,255876.171875,233437.421875,260626.1875,234907.640625,236955.234375,282823.0,1.0,3
243811.140625,260444.234375,247489.4375,255880.71875,233430.453125,260629.3125,234899.953125,236960.953125,282824.0,1.0,3
243852.890625,260436.8125,247482.640625,255872.40625,233404.609375,260609.375,234881.53125,236938.875,282825.0,1.0,3
243764.03125,260400.078125,247466.546875,255861.234375,233388.96875,260586.21875,234876.25,236912.953125,282826.0,1.0,3
243686.15625,260401.953125,247471.28125,255866.953125,233412.484375,260602.671875,234897.4375,236927.515625,282827.0,1.0,3
243710.5625,260430.015625,247482.453125,255874.109375,233429.921875,260621.359375,234907.09375,236950.234375,282828.0,1.0,3
243811.5,260451.84375,247489.078125,255878.40625,233426.34375,260625.015625,234899.953125,236960.515625,282829.0,1.0,3
243852.453125,260439.5,247481.75,255872.328125,233404.34375,260605.609375,234883.671875,236940.296875,282830.0,1.0,3
243762.859375,260399.265625,247464.484375,255859.171875,233385.65625,260579.0625,234876.34375,236906.515625,282831.0,1.0,3
243676.859375,260397.203125,247459.9375,255855.25,233398.71875,260585.140625,234882.953125,236907.9375,282832.0,1.0,3
243698.75,260421.4375,247472.09375,255863.921875,233416.421875,260604.90625,234891.0,236931.453125,282833.0,1.0,3
243804.171875,260443.796875,247481.390625,255871.875,233413.5625,260611.609375,234885.1875,236942.265625,282834.0,1.0,3
243848.25,260432.796875,247474.765625,255868.75,233391.65625,260597.03125,234873.125,236926.0,282835.0,1.0,3
243763.484375,260398.015625,247464.125,255861.234375,233381.546875,260581.828125,234875.546875,236904.546875,282836.0,1.0,3
243689.8125,260406.6875,247471.28125,255865.890625,233410.421875,260602.125,234898.78125,236925.28125,282837.0,1.0,3
243706.359375,260426.171875,247479.328125,255871.515625,233427.421875,260620.8125,234905.3125,236946.46875,282838.0,1.0,3
243802.640625,260441.28125,247483.625,255875.453125,233417.84375,260620.90625,234894.140625,236949.0625,282839.0,1.0,3
243842.171875,260425.109375,247471.109375,255864.90625,233392.09375,260597.921875,234875.546875,236932.25,282840.0,1.0,3
243761.78125,260393.453125,247454.921875,255854.265625,233379.84375,260577.09375,234869.28125,236909.453125,282841.0,1.0,3
243672.5625,260383.625,247451.171875,255851.84375,233392.71875,260584.15625,234879.390625,236906.0625,282842.0,1.0,3
243693.84375,260409.71875,247466.453125,255862.9375,233417.671875,260609.640625,234894.046875,236934.140625,282843.0,1.0,3
243793.4375,260432.703125,247474.59375,255868.828125,233413.109375,260614.828125,234885.828125,236944.78125,282844.0,1.0,3
243827.5,260408.203125,247462.25,255860.078125,233380.03125,260587.640625,234863.734375,236918.3125,282845.0,1.0,3
243753.03125,260382.09375,247449.921875,255851.765625,233370.375,260568.515625,234869.109375,236902.578125,282846.0,1.0,3
243680.25,260393.640625,247453.84375,255853.546875,233393.53125,260588.359375,234886.09375,236917.234375,282847.0,1.0,3
243700.71875,260420.28125,247465.203125,255860.078125,233413.28125,260608.296875,234891.09375,236939.953125,282848.0,1.0,3
243797.109375,260435.296875,247476.5625,255870.09375,233411.328125,260615.546875,234886.09375,236947.375,282849.0,1.0,3
243841.359375,260424.75,247472.625,255867.9375,233390.671875,260599.8125,234872.234375,236927.25,282850.0,1.0,3
243767.59375,260399.984375,247462.96875,255861.0625,233382.53125,260580.40625,234874.28125,236906.421875,282851.0,1.0,3
243681.140625,260396.21875,247458.234375,255854.703125,233398.09375,260587.28125,234882.953125,236910.53125,282852.0,1.0,3
243692.671875,260414.28125,247463.953125,255855.328125,233413.828125,260605.53125,234886.71875,236930.375,282853.0,1.0,3
243792.015625,260433.859375,247473.96875,255863.734375,233409.71875,260612.234375,234881.4375,236940.9375,282854.0,1.0,3
243839.125,260427.15625,247468.953125,255861.859375,233390.9375,260597.390625,234869.546875,236927.78125,282855.0,1.0,3
243765.1875,260398.90625,247459.65625,255857.390625,233382.4375,260580.9375,234871.515625,236907.484375,282856.0,1.0,3
243681.859375,260394.96875,247459.390625,255858.90625,233403.28125,260594.171875,234887.15625,236916.34375,282857.0,1.0,3
243693.578125,260411.96875,247467.625,255866.328125,233420.265625,260611.703125,234894.5,236937.71875,282858.0,1.0,3
243796.125,260436.640625,247475.9375,255868.65625,233414.453125,260614.921875,234883.3125,236944.5,282859.0,1.0,3
243841.359375,260424.5625,247466.28125,255861.859375,233390.75,260596.5,234866.234375,236924.84375,282860.0,1.0,3
243759.546875,260386.390625,247449.46875,255851.21875,233378.0625,260575.125,234865.703125,236899.890625,282861.0,1.0,3
243686.15625,260392.03125,247457.15625,255859.09375,233406.9375,260593.453125,234887.703125,236919.203125,282862.0,1.0,3
243708.40625,260419.921875,247469.234375,255869.375,233429.5625,260614.921875,234898.15625,236945.3125,282863.0,1.0,3
243806.765625,260437.265625,247477.0,255876.796875,233425.0,260619.828125,234886.453125,236950.765625,282864.0,1.0,3
243854.140625,260426.265625,247473.875,255874.734375,233402.828125,260604.90625,234874.640625,236931.546875,282865.0,1.0,3
243779.84375,260397.5625,247458.671875,255863.46875,233389.234375,260582.734375,234870.625,236908.921875,282866.0,1.0,3
243694.375,260393.1875,247457.15625,255861.859375,233406.140625,260590.421875,234883.671875,236918.046875,282867.0,1.0,3
243706.359375,260410.890625,247466.90625,255866.515625,233421.25,260608.125,234893.515625,236939.5,282868.0,1.0,3
243800.0625,260426.359375,247473.875,255870.625,233415.875,260614.46875,234886.71875,236947.71875,282869.0,1.0,3
243845.734375,260418.84375,247464.75,255862.84375,233392.71875,260593.015625,234867.9375,236928.40625,282870.0,1.0,3
243771.625,260393.71875,247453.3125,255852.921875,233381.8125,260570.125,234865.703125,236902.75,282871.0,1.0,3
243689.8125,260398.28125,247457.34375,255857.03125,233404.609375,260586.03125,234885.1875,236911.78125,282872.0,1.0,3
243702.421875,260417.5,247469.046875,255865.171875,233423.75,260606.15625,234893.15625,236933.859375,282873.0,1.0,3
243799.875,260436.90625,247477.8125,255870.625,233419.640625,260609.375,234884.921875,236938.6875,282874.0,1.0,3
243847.796875,260427.875,247471.46875,255865.609375,233395.859375,260593.375,234870.171875,236915.1875,282875.0,1.0,3
243766.265625,260389.15625,247454.75,255854.34375,233381.8125,260571.015625,234864.359375,236890.328125,282876.0,1.0,3
243681.953125,260387.203125,247455.109375,255854.0,233404.265625,260582.375,234880.015625,236900.25,282877.0,1.0,3
243704.65625,260417.328125,247468.78125,255866.15625,233429.46875,260608.921875,234894.578125,236925.375,282878.0,1.0,3
243805.859375,260442.625,247482.375,255878.671875,233429.03125,260621.265625,234889.21875,236936.109375,282879.0,1.0,3
243849.046875,260429.03125,247474.5,255873.21875,233402.828125,260603.828125,234869.015625,236915.890625,282880.0,1.0,3
