FZ,C3,CZ,C4,PZ,PO7,OZ,PO8,Counter,Validation,Label
241237.828125,256162.0,277187.125,265477.84375,227717.796875,246930.546875,246620.484375,231045.796875,111953.0,1.0,3
241533.953125,256407.328125,277409.75,265640.21875,228032.328125,247019.25,247097.03125,231095.5,111954.0,1.0,3
241481.828125,256392.046875,277418.34375,265583.96875,228037.6875,246984.015625,247144.234375,231071.71875,111955.0,1.0,3
241175.6875,256152.609375,277208.9375,265390.6875,227722.171875,246872.96875,246700.5,231009.484375,111956.0,1.0,3
241020.125,256011.4375,277066.0625,265314.25,227509.296875,246836.046875,246368.71875,230990.359375,111957.0,1.0,3
241235.5,256163.78125,277192.40625,265467.5625,227698.21875,246928.9375,246621.828125,231042.21875,111958.0,1.0,3
241535.109375,256406.96875,277415.28125,265634.21875,228017.390625,247019.0625,247101.140625,231092.546875,111959.0,1.0,3
241491.390625,256400.890625,277428.96875,265584.59375,228032.421875,246987.59375,247157.203125,231075.921875,111960.0,1.0,3
241182.75,256157.984375,277221.1875,265395.3125,227727.71875,246880.390625,246719.375,231018.171875,111961.0,1.0,3
241024.234375,256015.1875,277078.125,265324.15625,227519.578125,246851.15625,246386.234375,230997.25,111962.0,1.0,3
241239.078125,256172.640625,277199.28125,265475.53125,227702.15625,246942.171875,246631.65625,231043.734375,111963.0,1.0,3
241532.515625,256410.546875,277418.34375,265639.15625,228020.890625,247034.078125,247109.09375,231093.265625,111964.0,1.0,3
241484.140625,256395.078125,277428.15625,265585.75,228036.625,246999.03125,247161.578125,231075.75,111965.0,1.0,3
241181.0625,256157.796875,277221.8125,265399.34375,227735.5,246889.6875,246725.265625,231019.140625,111966.0,1.0,3
241018.6875,256011.171875,277072.59375,265324.34375,227525.65625,246850.265625,246386.328125,230997.515625,111967.0,1.0,3
241223.4375,256156.09375,277186.84375,265471.3125,227705.1875,246935.015625,246622.28125,231044.625,111968.0,1.0,3
241521.875,256397.140625,277406.0,265635.21875,228022.40625,247023.796875,247097.03125,231095.6875,111969.0,1.0,3
241483.78125,256391.328125,277420.375,265585.75,228045.03125,246988.125,247158.453125,231076.015625,111970.0,1.0,3
241180.609375,256151.546875,277212.0625,265395.5,227741.046875,246878.25,246725.09375,231014.140625,111971.0,1.0,3
241014.3125,255998.125,277064.375,265317.8125,227526.28125,246841.859375,246384.8125,230996.4375,111972.0,1.0,3
241220.84375,256146.890625,277180.34375,265465.78125,227704.46875,246931.265625,246616.734375,231044.0,111973.0,1.0,3
241514.1875,256386.5,277390.4375,265625.375,228016.0625,247013.515625,247085.9375,231087.90625,111974.0,1.0,3
241482.265625,256387.21875,277405.53125,265578.0,228039.84375,246977.9375,247153.796875,231071.09375,111975.0,1.0,3
241184.09375,256154.40625,277204.03125,265394.78125,227743.8125,246874.671875,246728.21875,231018.515625,111976.0,1.0,3
241018.96875,256005.625,277056.6875,265317.375,227530.390625,246840.703125,246384.09375,230998.234375,111977.0,1.0,3
241228.796875,256156.453125,277173.96875,265466.3125,227709.84375,246934.21875,246616.015625,231050.34375,111978.0,1.0,3
241531.0,256399.90625,277393.03125,265629.3125,228025.265625,247018.34375,247089.515625,231095.234375,111979.0,1.0,3
241496.578125,256394.28125,277413.875,265585.125,228050.75,246985.984375,247161.3125,231074.765625,111980.0,1.0,3
241198.484375,256159.59375,277213.0625,265398.09375,227751.953125,246881.375,246731.4375,231014.40625,111981.0,1.0,3
241030.40625,256002.234375,277060.25,265315.125,227529.234375,246840.515625,246378.46875,230990.265625,111982.0,1.0,3
241223.34375,256134.640625,277167.71875,265452.625,227693.03125,246922.234375,246596.4375,231034.796875,111983.0,1.0,3
241516.78125,256368.265625,277381.0625,265610.96875,228003.984375,247005.03125,247066.1875,231078.78125,111984.0,1.0,3
241499.25,256378.453125,277413.875,265573.25,228043.5,246984.828125,247156.21875,231069.390625,111985.0,1.0,3
241198.046875,256146.625,277217.53125,265389.875,227748.1875,246881.46875,246735.46875,231015.03125,111986.0,1.0,3
241025.84375,255991.765625,277068.21875,265311.1875,227528.4375,246844.546875,246384.625,230994.03125,111987.0,1.0,3
241216.640625,256123.46875,277172.65625,265451.5625,227688.828125,246925.984375,246597.421875,231038.90625,111988.0,1.0,3
241522.40625,256371.03125,277396.0625,265621.96875,228009.984375,247015.578125,247077.53125,231087.90625,111989.0,1.0,3
241503.640625,256383.8125,277428.15625,265586.21875,228051.734375,246991.171875,247172.84375,231075.5625,111990.0,1.0,3
241201.703125,256152.53125,277229.5,265399.875,227754.546875,246884.421875,246749.6875,231017.0,111991.0,1.0,3
241019.671875,255992.03125,277068.125,265310.40625,227523.0625,246839.09375,246383.5625,230990.625,111992.0,1.0,3
241210.375,256130.078125,277171.84375,265449.0625,227681.5,246923.84375,246590.796875,231040.96875,111993.0,1.0,3
241517.140625,256381.671875,277393.65625,265621.53125,228003.8125,247015.046875,247070.828125,231092.90625,111994.0,1.0,3
241503.90625,256401.34375,277425.125,265587.71875,228048.78125,246992.15625,247168.546875,231075.46875,111995.0,1.0,3
241198.046875,256170.21875,277221.90625,265400.25,227752.9375,246887.28125,246746.375,231023.53125,111996.0,1.0,3
241014.40625,256008.21875,277061.40625,265313.96875,227523.15625,246845.609375,246383.921875,231006.09375,111997.0,1.0,3
241200.015625,256137.6875,277155.375,265444.0625,227674.703125,246919.546875,246578.46875,231029.515625,111998.0,1.0,3
241513.921875,256392.578125,277383.28125,265621.96875,228004.703125,247015.046875,247065.828125,231083.4375,111999.0,1.0,3
241503.640625,256414.21875,277417.875,265592.1875,228057.09375,246994.484375,247174.359375,231074.21875,112000.0,1.0,3
241204.65625,256186.140625,277221.46875,265405.4375,227768.75,246892.734375,246759.609375,231018.609375,112001.0,1.0,3
241014.3125,256014.390625,277056.6875,265309.9375,227529.6875,246843.296875,246386.515625,230991.703125,112002.0,1.0,3
241199.921875,256139.296875,277154.3125,265444.78125,227683.546875,246922.328125,246584.359375,231035.0625,112003.0,1.0,3
241507.21875,256381.765625,277372.09375,265611.875,228004.703125,247011.546875,247060.453125,231079.40625,112004.0,1.0,3
241499.796875,256398.75,277403.5,265578.0,228053.875,246987.328125,247166.3125,231069.03125,112005.0,1.0,3
241196.4375,256160.921875,277196.875,265388.71875,227758.828125,246873.234375,246744.859375,231013.34375,112006.0,1.0,3
241013.953125,255995.96875,277036.28125,265301.375,227525.921875,246825.9375,246375.25,230991.703125,112007.0,1.0,3
241202.6875,256127.9375,277136.4375,265441.28125,227678.546875,246910.703125,246571.3125,231032.109375,112008.0,1.0,3
241515.609375,256381.578125,277363.34375,265615.4375,228001.125,247004.671875,247053.484375,231082.53125,112009.0,1.0,3
241506.046875,256395.0,277399.375,265583.34375,228051.8125,246979.90625,247162.5625,231069.484375,112010.0,1.0,3
241205.203125,256157.984375,277203.125,265396.03125,227759.90625,246877.078125,246748.875,231013.15625,112011.0,1.0,3
241023.703125,255996.6875,277044.875,265306.53125,227525.125,246831.84375,246379.625,230989.109375,112012.0,1.0,3
241212.265625,256128.03125,277148.0625,265444.3125,227679.796875,246918.75,246575.96875,231037.75,112013.0,1.0,3
241523.65625,256374.609375,277370.9375,265616.4375,228002.640625,247013.4375,247055.90625,231086.734375,112014.0,1.0,3
241528.046875,256404.203125,277411.1875,265588.34375,228059.6875,246993.578125,247174.453125,231074.9375,112015.0,1.0,3
241230.859375,256176.84375,277214.84375,265402.5625,227770.015625,246890.59375,246763.453125,231020.75,112016.0,1.0,3
241036.65625,256005.1875,277051.0625,265310.125,227528.78125,246847.21875,246389.28125,230994.828125,112017.0,1.0,3
241212.265625,256124.71875,277145.1875,265440.375,227671.75,246923.578125,246570.953125,231032.828125,112018.0,1.0,3
241519.90625,256371.75,277370.59375,265614.09375,227998.171875,247021.03125,247055.625,231087.1875,112019.0,1.0,3
241518.65625,256395.796875,277411.8125,265585.84375,228056.109375,246999.84375,247179.640625,231074.046875,112020.0,1.0,3
241220.390625,256170.40625,277218.34375,265401.21875,227771.96875,246895.40625,246771.671875,231016.5625,112021.0,1.0,3
241019.5,255994.0,277048.1875,265300.5625,227525.84375,246840.96875,246387.140625,230988.75,112022.0,1.0,3
241196.53125,256119.625,277144.125,265434.84375,227672.28125,246924.5625,246569.53125,231037.296875,112023.0,1.0,3
241506.59375,256370.3125,277365.40625,265612.125,227995.9375,247019.0625,247048.84375,231088.078125,112024.0,1.0,3
241514.90625,256405.546875,277411.53125,265590.25,228061.828125,246998.328125,247177.765625,231075.921875,112025.0,1.0,3
241211.453125,256174.25,277214.9375,265403.65625,227775.28125,246890.765625,246770.515625,231021.65625,112026.0,1.0,3
241014.671875,256000.890625,277044.0,265306.1875,227531.921875,246843.203125,246385.890625,230995.359375,112027.0,1.0,3
241187.9375,256123.28125,277132.40625,265436.09375,227669.875,246921.4375,246555.578125,231037.75,112028.0,1.0,3
241496.84375,256368.984375,277349.5,265608.5625,227987.09375,247010.125,247028.453125,231085.21875,112029.0,1.0,3
241509.890625,256405.8125,277398.84375,265591.21875,228059.234375,246996.0,247166.234375,231076.8125,112030.0,1.0,3
241206.8125,256176.9375,277200.4375,265400.4375,227774.296875,246889.875,246762.015625,231016.375,112031.0,1.0,3
241005.28125,256003.390625,277031.375,265299.3125,227527.625,246841.5,246377.921875,230987.3125,112032.0,1.0,3
241177.65625,256121.59375,277121.78125,265429.3125,227664.15625,246925.984375,246547.984375,231031.125,112033.0,1.0,3
241490.3125,256366.75,277343.6875,265604.625,227986.734375,247022.1875,247029.34375,231086.65625,112034.0,1.0,3
241509.71875,256404.390625,277395.53125,265587.71875,228061.828125,247004.140625,247169.53125,231073.15625,112035.0,1.0,3
241204.125,256164.5,277196.6875,265393.625,227770.546875,246891.21875,246761.125,231007.703125,112036.0,1.0,3
241009.125,255990.703125,277032.375,265298.59375,227525.21875,246845.34375,246379.265625,230985.4375,112037.0,1.0,3
241180.15625,256107.734375,277117.84375,265430.46875,227658.515625,246924.734375,246546.015625,231032.46875,112038.0,1.0,3
241485.84375,256348.421875,277335.09375,265601.21875,227978.328125,247011.640625,247022.1875,231077.171875,112039.0,1.0,3
241513.109375,256393.921875,277394.90625,265589.78125,228060.671875,246996.53125,247173.296875,231071.8125,112040.0,1.0,3
241219.046875,256168.53125,277203.84375,265403.5625,227779.390625,246892.28125,246776.0625,231013.609375,112041.0,1.0,3
241010.5625,255986.140625,277032.09375,265300.1875,227526.375,246842.65625,246386.15625,230985.890625,112042.0,1.0,3
241175.875,256097.0,277119.71875,265429.3125,227657.359375,246920.984375,246546.734375,231028.171875,112043.0,1.0,3
241493.171875,256348.953125,277345.71875,265608.28125,227984.578125,247011.734375,247025.765625,231079.046875,112044.0,1.0,3
241517.578125,256391.515625,277400.90625,265591.5,228066.296875,246994.921875,247176.0625,231067.25,112045.0,1.0,3
241223.53125,256165.671875,277207.0625,265399.8125,227781.0,246882.71875,246771.40625,231008.953125,112046.0,1.0,3
241016.546875,255985.953125,277035.21875,265296.0,227529.0625,246830.859375,246379.265625,230985.890625,112047.0,1.0,3
241174.96875,256089.40625,277112.75,265417.0625,227651.546875,246907.21875,246530.359375,231021.46875,112048.0,1.0,3
241491.125,256342.6875,277334.28125,265592.65625,227974.296875,247002.875,247010.5625,231073.421875,112049.0,1.0,3
241518.03125,256391.421875,277392.125,265578.4375,228060.3125,246989.828125,247169.71875,231064.296875,112050.0,1.0,3
241235.59375,256183.28125,277212.4375,265401.3125,227794.421875,246899.171875,246789.109375,231014.765625,112051.0,1.0,3
241028.703125,256002.234375,277039.34375,265298.5,227543.8125,246851.25,246397.328125,230988.578125,112052.0,1.0,3
241178.734375,256099.859375,277114.0,265418.3125,227662.1875,246925.1875,246541.0,231031.75,112053.0,1.0,3
241487.71875,256345.203125,277332.9375,265595.15625,227986.109375,247023.171875,247018.34375,231087.90625,112054.0,1.0,3
241515.796875,256390.25,277386.875,265580.65625,228070.140625,247006.015625,247175.96875,231075.75,112055.0,1.0,3
241222.546875,256166.46875,277197.75,265396.40625,227792.265625,246901.046875,246788.75,231018.078125,112056.0,1.0,3
241015.65625,255984.625,277024.75,265293.125,227537.46875,246848.125,246396.96875,230991.703125,112057.0,1.0,3
241170.6875,256090.125,277103.0,265412.3125,227654.671875,246922.6875,246540.109375,231031.9375,112058.0,1.0,3
241473.859375,256329.8125,277318.46875,265584.59375,227969.75,247011.90625,247005.03125,231075.203125,112059.0,1.0,3
241502.203125,256375.5,277377.65625,265572.71875,228054.328125,246993.046875,247160.78125,231061.96875,112060.0,1.0,3
241216.8125,256156.640625,277196.25,265394.0625,227781.546875,246887.1875,246776.953125,231005.5625,112061.0,1.0,3
241016.09375,255981.046875,277026.71875,265290.90625,227529.328125,246830.859375,246384.359375,230979.265625,112062.0,1.0,3
241170.5,256089.84375,277106.5625,265410.09375,227646.359375,246902.921875,246522.5,231024.515625,112063.0,1.0,3
241474.21875,256338.21875,277325.625,265584.59375,227961.515625,246992.328125,246987.0625,231067.34375,112064.0,1.0,3
241507.03125,256393.390625,277391.6875,265580.9375,228052.53125,246982.234375,247153.625,231064.5625,112065.0,1.0,3
241233.8125,256192.484375,277217.625,265407.65625,227788.78125,246885.671875,246786.421875,231016.109375,112066.0,1.0,3
241037.640625,256021.546875,277051.5,265307.875,227541.484375,246838.015625,246410.65625,230989.640625,112067.0,1.0,3
241178.734375,256117.390625,277120.78125,265420.8125,227648.140625,246905.0625,246542.53125,231023.890625,112068.0,1.0,3
241472.4375,256360.484375,277332.21875,265591.125,227959.546875,246998.765625,246999.390625,231076.453125,112069.0,1.0,3
241500.15625,256409.484375,277390.875,265584.59375,228050.03125,246990.8125,247163.90625,231075.46875,112070.0,1.0,3
241225.765625,256198.921875,277210.375,265407.65625,227786.734375,246893.53125,246800.46875,231019.0625,112071.0,1.0,3
241042.921875,256035.125,277052.21875,265315.3125,227552.21875,246854.109375,246437.203125,230997.0625,112072.0,1.0,3
241180.4375,256122.390625,277114.09375,265423.21875,227654.40625,246914.1875,246557.1875,231028.09375,112073.0,1.0,3
241467.875,256353.15625,277321.78125,265589.15625,227964.640625,247005.828125,247007.0,231077.890625,112074.0,1.0,3
241501.9375,256402.0625,277386.15625,265584.25,228063.796875,246999.3125,247174.453125,231073.15625,112075.0,1.0,3
241243.640625,256197.3125,277216.28125,265415.96875,227812.390625,246898.1875,246816.5625,231022.1875,112076.0,1.0,3
241060.453125,256024.671875,277052.21875,265318.34375,227572.515625,246845.96875,246441.3125,230996.171875,112077.0,1.0,3
241181.953125,256091.90625,277102.1875,265416.96875,227665.140625,246903.375,246547.0,231027.28125,112078.0,1.0,3
241453.65625,256303.078125,277292.53125,265574.59375,227957.5,246986.15625,246973.90625,231070.109375,112079.0,1.0,3
241490.046875,256352.890625,277356.1875,265573.59375,228054.953125,246985.171875,247138.953125,231066.171875,112080.0,1.0,3
241240.6875,256157.796875,277191.6875,265410.71875,227808.359375,246896.125,246794.828125,231018.4375,112081.0,1.0,3
241058.5625,255987.390625,277030.5625,265314.875,227562.765625,246845.96875,246424.328125,230993.046875,112082.0,1.0,3
241186.78125,256074.03125,277092.09375,265420.0,227654.859375,246913.828125,246532.515625,231028.625,112083.0,1.0,3
241450.265625,256294.765625,277290.65625,265578.4375,227949.453125,247010.390625,246961.125,231078.328125,112084.0,1.0,3
241480.125,256342.515625,277350.65625,265571.90625,228039.125,247003.5,247116.78125,231072.25,112085.0,1.0,3
241233.8125,256147.34375,277185.6875,265407.21875,227793.34375,246916.421875,246772.75,231023.890625,112086.0,1.0,3
241053.921875,255978.53125,277023.875,265309.3125,227552.296875,246865.015625,246409.75,230992.953125,112087.0,1.0,3
241175.6875,256061.78125,277078.59375,265402.21875,227641.53125,246928.140625,246513.015625,231023.0,112088.0,1.0,3
241423.890625,256269.921875,277268.84375,265550.71875,227929.78125,247015.3125,246931.0,231067.78125,112089.0,1.0,3
241442.921875,256310.140625,277326.25,265542.21875,228018.5625,247006.28125,247088.984375,231063.046875,112090.0,1.0,3
241196.34375,256113.984375,277164.9375,265382.375,227777.25,246917.765625,246750.9375,231017.625,112091.0,1.0,3
241023.15625,255946.265625,277009.75,265288.84375,227540.328125,246869.03125,246392.59375,230991.609375,112092.0,1.0,3
241141.1875,256018.328125,277061.96875,265381.46875,227622.671875,246925.90625,246494.421875,231017.0,112093.0,1.0,3
241385.078125,256222.890625,277246.3125,265527.65625,227902.234375,246999.3125,246903.28125,231053.03125,112094.0,1.0,3
241409.140625,256272.234375,277304.78125,265521.65625,227990.84375,246985.625,247058.765625,231046.234375,112095.0,1.0,3
241175.953125,256093.515625,277146.625,265367.0,227748.28125,246886.46875,246723.484375,231000.734375,112096.0,1.0,3
241010.46875,255945.015625,276994.71875,265278.65625,227512.15625,246833.09375,246368.625,230980.078125,112097.0,1.0,3
241115.515625,256022.171875,277040.3125,265369.65625,227587.625,246885.484375,246454.1875,231007.4375,112098.0,1.0,3
241347.0,256230.046875,277215.5625,265512.1875,227860.75,246966.046875,246853.21875,231049.375,112099.0,1.0,3
241378.5625,256291.734375,277276.1875,265514.0625,227956.0625,246964.53125,247018.609375,231049.015625,112100.0,1.0,3
241156.375,256124.453125,277123.65625,265367.0,227723.875,246871.90625,246692.8125,231004.484375,112101.0,1.0,3
240999.828125,255987.921875,276979.53125,265282.84375,227496.875,246821.03125,246343.328125,230985.4375,112102.0,1.0,3
241106.40625,256071.4375,277028.59375,265374.9375,227580.203125,246880.75,246432.015625,231020.3125,112103.0,1.0,3
241331.171875,256272.421875,277203.40625,265518.1875,227857.625,246968.453125,246832.65625,231061.609375,112104.0,1.0,3
241347.625,256314.796875,277254.375,265511.46875,227947.578125,246961.3125,246992.421875,231051.953125,112105.0,1.0,3
241130.71875,256148.953125,277110.3125,265368.0625,227724.328125,246876.640625,246676.1875,231008.78125,112106.0,1.0,3
240973.8125,256003.484375,276967.09375,265280.4375,227492.21875,246826.21875,246323.203125,230985.078125,112107.0,1.0,3
241071.53125,256071.703125,277014.21875,265364.03125,227561.875,246880.65625,246401.890625,231013.609375,112108.0,1.0,3
241280.203125,256250.328125,277179.09375,265497.0625,227819.984375,246953.796875,246779.28125,231049.546875,112109.0,1.0,3
241311.046875,256298.4375,277238.625,265497.6875,227914.578125,246946.46875,246938.6875,231044.625,112110.0,1.0,3
241099.421875,256128.46875,277093.59375,265355.09375,227689.90625,246861.53125,246628.796875,231002.421875,112111.0,1.0,3
240946.71875,255980.765625,276950.71875,265269.53125,227460.84375,246821.65625,246289.234375,230986.0625,112112.0,1.0,3
241049.984375,256052.75,277000.34375,265360.625,227540.40625,246889.15625,246376.5,231016.640625,112113.0,1.0,3
241283.15625,256252.03125,277177.90625,265502.15625,227815.15625,246969.53125,246761.390625,231051.15625,112114.0,1.0,3
241322.5,256306.390625,277242.90625,265505.125,227917.0,246956.65625,246923.125,231044.8125,112115.0,1.0,3
241121.78125,256142.328125,277105.21875,265366.4375,227701.875,246866.171875,246618.4375,231003.5,112116.0,1.0,3
240979.71875,256001.515625,276968.875,265285.8125,227482.46875,246818.703125,246280.828125,230985.703125,112117.0,1.0,3
241080.03125,256070.984375,277016.0,265369.03125,227556.0625,246878.609375,246360.84375,231016.5625,112118.0,1.0,3
241308.375,256269.46875,277191.0625,265508.15625,227826.609375,246964.96875,246753.078125,231058.3125,112119.0,1.0,3
241352.71875,256331.875,277259.46875,265514.875,227932.015625,246964.53125,246934.125,231055.53125,112120.0,1.0,3
241150.5625,256172.375,277121.78125,265372.34375,227716.09375,246880.578125,246644.1875,231012.890625,112121.0,1.0,3
241004.03125,256031.109375,276984.96875,265288.5,227490.796875,246832.734375,246309.796875,230994.46875,112122.0,1.0,3
241092.28125,256086.0,277025.375,265367.0,227553.375,246884.5,246377.390625,231020.40625,112123.0,1.0,3
241311.953125,256271.171875,277192.125,265504.59375,227817.3125,246963.90625,246761.75,231058.3125,112124.0,1.0,3
241364.96875,256341.078125,277269.8125,265517.375,227936.75,246968.109375,246954.25,231061.96875,112125.0,1.0,3
241167.640625,256187.03125,277137.6875,265376.375,227726.640625,246881.828125,246665.375,231022.359375,112126.0,1.0,3
241014.84375,256042.734375,276998.3125,265291.78125,227501.703125,246834.796875,246325.984375,231001.359375,112127.0,1.0,3
241098.09375,256096.28125,277029.21875,265365.03125,227558.03125,246881.828125,246379.171875,231021.296875,112128.0,1.0,3
241313.375,256276.796875,277192.125,265499.75,227823.5625,246959.609375,246756.5625,231056.875,112129.0,1.0,3
241365.140625,256341.53125,277270.09375,265517.1875,227946.140625,246969.71875,246955.140625,231063.765625,112130.0,1.0,3
241174.796875,256188.46875,277141.53125,265383.4375,227740.234375,246887.453125,246673.234375,231020.046875,112131.0,1.0,3
241020.75,256039.328125,277000.1875,265294.3125,227508.84375,246830.234375,246329.375,230996.796875,112132.0,1.0,3
241107.390625,256094.765625,277034.78125,265368.5,227562.859375,246881.46875,246384.71875,231015.921875,112133.0,1.0,3
241323.390625,256275.453125,277195.1875,265499.9375,227818.375,246955.765625,246759.875,231046.15625,112134.0,1.0,3
241376.765625,256340.453125,277271.875,265514.5,227938.71875,246960.59375,246958.453125,231046.859375,112135.0,1.0,3
241176.3125,256184.0,277140.625,265378.53125,227734.6875,246879.671875,246680.484375,231005.828125,112136.0,1.0,3
241019.5,256037.453125,276996.15625,265288.03125,227500.359375,246824.15625,246334.828125,230985.0,112137.0,1.0,3
241102.828125,256091.8125,277026.09375,265361.09375,227551.40625,246871.359375,246388.46875,231005.5625,112138.0,1.0,3
241328.75,256282.796875,277193.125,265499.5,227817.9375,246949.6875,246770.875,231040.15625,112139.0,1.0,3
241393.21875,256358.609375,277273.59375,265519.15625,227944.078125,246957.1875,246969.890625,231037.296875,112140.0,1.0,3
241194.203125,256204.5625,277143.3125,265383.53125,227744.171875,246874.765625,246692.734375,231000.90625,112141.0,1.0,3
241032.46875,256054.09375,276995.875,265290.28125,227512.609375,246822.1875,246346.640625,230983.5625,112142.0,1.0,3
241113.46875,256105.5,277027.09375,265364.3125,227563.203125,246871.0,246395.984375,231008.953125,112143.0,1.0,3
241340.5625,256297.546875,277199.09375,265503.40625,227832.6875,246950.3125,246782.140625,231046.5,112144.0,1.0,3
241406.546875,256372.203125,277283.5,265523.625,227961.703125,246958.890625,246989.375,231052.3125,112145.0,1.0,3
241219.046875,256223.78125,277164.875,265395.78125,227770.1875,246885.9375,246724.28125,231019.859375,112146.0,1.0,3
241051.59375,256065.078125,277017.15625,265300.375,227535.046875,246831.578125,246376.40625,230994.296875,112147.0,1.0,3
241126.96875,256107.109375,277045.6875,265373.6875,227582.171875,246881.90625,246422.09375,231015.65625,112148.0,1.0,3
241367.46875,256309.96875,277225.65625,265524.25,227859.234375,246971.953125,246815.21875,231059.734375,112149.0,1.0,3
241439.359375,256389.984375,277309.6875,265543.21875,227987.09375,246978.296875,247028.625,231060.359375,112150.0,1.0,3
241241.5,256234.234375,277183.625,265407.03125,227784.84375,246898.984375,246757.8125,231017.53125,112151.0,1.0,3
241063.84375,256068.296875,277029.84375,265306.90625,227538.796875,246839.359375,246398.84375,230991.078125,112152.0,1.0,3
241144.40625,256116.046875,277059.53125,265380.84375,227583.328125,246892.109375,246444.0,231018.34375,112153.0,1.0,3
241400.015625,256329.8125,277249.8125,265538.5625,227869.421875,246995.015625,246850.171875,231066.359375,112154.0,1.0,3
241472.34375,256407.953125,277332.59375,265556.875,228002.640625,246997.25,247064.125,231064.921875,112155.0,1.0,3
241259.203125,256240.234375,277197.3125,265412.59375,227798.0,246904.625,246788.578125,231023.0,112156.0,1.0,3
241071.171875,256070.359375,277038.1875,265311.03125,227553.203125,246844.453125,246422.546875,230996.890625,112157.0,1.0,3
241145.109375,256116.21875,277055.78125,265381.75,227595.84375,246887.1875,246453.203125,231018.171875,112158.0,1.0,3
241394.109375,256322.125,277233.0,265533.625,227877.921875,246978.5625,246851.515625,231061.796875,112159.0,1.0,3
241473.6875,256405.546875,277319.8125,265560.90625,228022.046875,246989.296875,247080.125,231068.140625,112160.0,1.0,3
241268.9375,256247.203125,277187.65625,265421.0,227823.03125,246904.796875,246809.21875,231027.28125,112161.0,1.0,3
241085.03125,256082.25,277031.375,265316.84375,227573.046875,246848.75,246437.828125,231006.453125,112162.0,1.0,3
241152.453125,256119.171875,277049.15625,265380.9375,227604.96875,246892.828125,246460.453125,231026.84375,112163.0,1.0,3
241415.921875,256332.40625,277239.0625,265542.40625,227891.875,246993.9375,246868.6875,231071.546875,112164.0,1.0,3
241509.8125,256427.546875,277339.84375,265577.4375,228042.4375,247009.5,247109.984375,231076.1875,112165.0,1.0,3
241297.28125,256264.109375,277208.5,265434.21875,227840.8125,246921.703125,246838.109375,231036.9375,112166.0,1.0,3
241098.09375,256080.015625,277042.8125,265323.0,227584.578125,246856.078125,246454.28125,231007.171875,112167.0,1.0,3
241161.296875,256102.09375,277056.5,265385.9375,227608.71875,246894.15625,246461.171875,231025.3125,112168.0,1.0,3
241421.65625,256308.890625,277246.75,265547.9375,227893.296875,246989.296875,246859.46875,231074.484375,112169.0,1.0,3
241518.65625,256401.875,277349.21875,265581.75,228048.328125,247004.140625,247108.296875,231079.046875,112170.0,1.0,3
241311.765625,256238.4375,277219.21875,265437.34375,227850.203125,246917.046875,246843.296875,231036.5,112171.0,1.0,3
241110.328125,256055.875,277054.1875,265326.03125,227591.90625,246859.65625,246460.984375,231009.140625,112172.0,1.0,3
241171.125,256082.15625,277069.1875,265389.6875,227614.625,246900.953125,246466.34375,231032.828125,112173.0,1.0,3
241433.546875,256291.46875,277254.71875,265549.09375,227898.75,246997.875,246870.375,231076.90625,112174.0,1.0,3
241543.328125,256403.3125,277369.875,265593.375,228067.28125,247024.875,247135.296875,231085.84375,112175.0,1.0,3
241335.1875,256249.0,277244.4375,265448.0,227871.390625,246938.328125,246871.546875,231043.828125,112176.0,1.0,3
241118.734375,256056.40625,277072.15625,265326.65625,227602.546875,246868.59375,246477.078125,231007.703125,112177.0,1.0,3
241176.9375,256084.9375,277087.53125,265392.28125,227624.640625,246914.71875,246484.40625,231032.203125,112178.0,1.0,3
241431.75,256291.375,277266.78125,265547.59375,227901.34375,247001.625,246885.21875,231075.296875,112179.0,1.0,3
241539.484375,256397.859375,277376.125,265590.3125,228065.3125,247018.796875,247148.96875,231084.421875,112180.0,1.0,3
241329.46875,256240.328125,277248.1875,265447.4375,227868.359375,246933.40625,246885.3125,231041.59375,112181.0,1.0,3
241110.609375,256049.171875,277073.65625,265326.9375,227599.78125,246867.703125,246491.03125,231007.609375,112182.0,1.0,3
241165.953125,256080.734375,277085.46875,265391.21875,227622.125,246915.265625,246489.78125,231034.171875,112183.0,1.0,3
241429.078125,256298.078125,277271.96875,265553.75,227904.5625,247009.671875,246890.140625,231083.96875,112184.0,1.0,3
241546.109375,256414.9375,277388.375,265601.3125,228076.578125,247034.703125,247161.046875,231100.328125,112185.0,1.0,3
241331.265625,256254.171875,277259.09375,265454.59375,227882.578125,246950.046875,246899.703125,231054.546875,112186.0,1.0,3
241105.234375,256056.59375,277080.65625,265330.78125,227613.015625,246881.90625,246500.234375,231016.5625,112187.0,1.0,3
241151.46875,256074.734375,277078.84375,265384.59375,227618.015625,246915.53125,246480.65625,231030.6875,112188.0,1.0,3
241419.5,256291.375,277264.8125,265548.9375,227902.953125,247012.265625,246882.546875,231079.140625,112189.0,1.0,3
241537.875,256403.84375,277382.5625,265597.84375,228082.21875,247043.921875,247159.875,231092.109375,112190.0,1.0,3
241325.1875,256241.125,277252.03125,265450.03125,227888.46875,246955.3125,246900.78125,231042.484375,112191.0,1.0,3
241105.859375,256051.9375,277071.78125,265322.90625,227611.484375,246881.015625,246498.453125,231008.328125,112192.0,1.0,3
241154.859375,256074.46875,277074.84375,265379.15625,227618.828125,246918.484375,246484.140625,231030.40625,112193.0,1.0,3
241422.90625,256293.25,277262.75,265543.5625,227901.703125,247013.875,246884.328125,231073.78125,112194.0,1.0,3
241542.625,256416.453125,277383.28125,265594.53125,228077.75,247038.828125,247163.1875,231085.671875,112195.0,1.0,3
241331.890625,256260.796875,277256.0625,265446.75,227885.703125,246943.96875,246910.171875,231039.796875,112196.0,1.0,3
241110.15625,256069.28125,277077.4375,265322.5625,227612.734375,246872.609375,246511.5,231006.09375,112197.0,1.0,3
241151.546875,256088.515625,277073.3125,265375.125,227611.765625,246906.859375,246483.6875,231023.625,112198.0,1.0,3
241417.625,256308.71875,277260.09375,265539.1875,227892.671875,246999.484375,246882.546875,231071.8125,112199.0,1.0,3
241539.21875,256430.765625,277379.0,265591.65625,228069.515625,247023.0,247162.109375,231081.375,112200.0,1.0,3
241329.203125,256277.15625,277252.21875,265448.15625,227881.234375,246933.40625,246913.296875,231036.5,112201.0,1.0,3
241108.71875,256088.78125,277075.625,265324.34375,227609.796875,246858.484375,246515.078125,231007.609375,112202.0,1.0,3
241149.140625,256101.65625,277070.1875,265373.96875,227604.609375,246891.03125,246485.9375,231023.703125,112203.0,1.0,3
241410.65625,256309.796875,277250.96875,265534.4375,227881.234375,246984.640625,246879.234375,231064.03125,112204.0,1.0,3
241535.015625,256427.625,277367.1875,265587.09375,228061.5625,247009.859375,247161.9375,231076.09375,112205.0,1.0,3
241336.359375,256284.046875,277247.65625,265450.75,227883.203125,246926.078125,246920.359375,231034.890625,112206.0,1.0,3
241112.65625,256089.40625,277069.46875,265324.59375,227610.15625,246852.3125,246516.6875,231002.15625,112207.0,1.0,3
241147.53125,256095.296875,277062.40625,265372.53125,227608.890625,246886.296875,246482.71875,231019.59375,112208.0,1.0,3
241404.125,256299.59375,277240.40625,265532.75,227888.65625,246981.328125,246873.78125,231064.65625,112209.0,1.0,3
241528.21875,256416.71875,277359.40625,265585.75,228070.859375,247009.671875,247160.0625,231076.71875,112210.0,1.0,3
241330.546875,256264.8125,277242.75,265449.59375,227894.734375,246928.5,246925.0,231037.125,112211.0,1.0,3
241109.890625,256062.3125,277063.5625,265323.625,227620.875,246856.25,246519.453125,231002.609375,112212.0,1.0,3
241151.90625,256072.140625,277060.71875,265373.59375,227618.46875,246891.921875,246482.078125,231022.1875,112213.0,1.0,3
241418.609375,256287.34375,277247.375,265534.4375,227898.671875,246987.59375,246872.796875,231065.8125,112214.0,1.0,3
241546.375,256411.453125,277373.4375,265589.78125,228084.0,247016.828125,247160.78125,231074.046875,112215.0,1.0,3
241340.109375,256257.84375,277252.3125,265448.625,227899.734375,246930.734375,246921.34375,231028.890625,112216.0,1.0,3
241116.140625,256064.90625,277073.40625,265321.9375,227620.875,246861.0,246514.625,230997.0625,112217.0,1.0,3
241143.234375,256068.484375,277059.625,265364.46875,227602.8125,246890.765625,246462.59375,231012.359375,112218.0,1.0,3
241402.421875,256281.1875,277241.40625,265526.75,227876.3125,246987.140625,246851.875,231056.96875,112219.0,1.0,3
241533.765625,256411.984375,277369.875,265585.6875,228062.28125,247014.234375,247146.109375,231071.265625,112220.0,1.0,3
241334.125,256269.640625,277256.0625,265448.25,227886.234375,246926.078125,246914.640625,231028.171875,112221.0,1.0,3
241110.6875,256077.875,277079.65625,265322.625,227610.0625,246853.21875,246513.203125,230996.890625,112222.0,1.0,3
241136.53125,256081.53125,277069.03125,265368.9375,227594.328125,246884.953125,246468.5,231018.171875,112223.0,1.0,3
241390.984375,256289.3125,277245.96875,265527.28125,227863.625,246974.8125,246855.1875,231060.90625,112224.0,1.0,3
241526.875,256419.046875,277368.4375,265582.8125,228049.40625,246997.875,247145.75,231067.34375,112225.0,1.0,3
241339.21875,256285.296875,277262.0625,265452.5625,227886.6875,246923.671875,246927.59375,231034.4375,112226.0,1.0,3
241110.78125,256088.859375,277083.3125,265324.0625,227614.171875,246852.953125,246525.09375,231002.515625,112227.0,1.0,3
241129.640625,256084.484375,277062.65625,265362.4375,227593.34375,246878.609375,246465.359375,231013.515625,112228.0,1.0,3
241387.59375,256290.84375,277242.375,265526.3125,227867.640625,246974.265625,246846.515625,231062.59375,112229.0,1.0,3
241530.640625,256426.015625,277376.125,265592.75,228065.953125,247014.140625,247149.515625,231080.296875,112230.0,1.0,3
241339.75,256284.671875,277266.78125,265459.96875,227901.078125,246938.953125,246928.765625,231039.984375,112231.0,1.0,3
241105.859375,256075.71875,277078.75,265320.21875,227616.671875,246859.828125,246513.203125,231000.640625,112232.0,1.0,3
241132.515625,256071.703125,277063.125,265362.4375,227596.203125,246890.9375,246454.640625,231019.234375,112233.0,1.0,3
241390.0,256273.84375,277242.90625,265527.28125,227871.578125,246991.96875,246839.796875,231066.796875,112234.0,1.0,3
241536.09375,256410.109375,277374.25,265590.3125,228066.921875,247027.296875,247143.15625,231079.140625,112235.0,1.0,3
241346.453125,256267.953125,277263.9375,265453.25,227902.59375,246947.359375,246924.5625,231035.515625,112236.0,1.0,3
241115.515625,256060.53125,277078.84375,265315.75,227622.578125,246867.421875,246512.75,230998.859375,112237.0,1.0,3
241141.265625,256058.375,277060.4375,265357.0625,227600.40625,246898.28125,246449.09375,231017.625,112238.0,1.0,3
241401.171875,256265.359375,277235.5,265518.96875,227871.84375,246989.828125,246828.453125,231067.609375,112239.0,1.0,3
241545.03125,256395.890625,277365.3125,265584.15625,228063.4375,247013.4375,247132.25,231080.390625,112240.0,1.0,3
241354.953125,256259.09375,277257.3125,265449.40625,227900.625,246931.0,246918.296875,231033.8125,112241.0,1.0,3
241119.640625,256059.1875,277073.03125,265312.625,227620.4375,246852.5,246506.5,230999.84375,112242.0,1.0,3
241130.984375,256048.71875,277043.4375,265344.1875,227584.21875,246877.078125,246429.515625,231015.21875,112243.0,1.0,3
241388.84375,256256.421875,277217.4375,265507.96875,227850.828125,246972.75,246810.921875,231060.8125,112244.0,1.0,3
241542.34375,256401.4375,277354.125,265581.125,228054.765625,247005.390625,247126.984375,231074.671875,112245.0,1.0,3
241353.96875,256270.0,277249.875,265450.9375,227899.109375,246929.828125,246918.65625,231035.59375,112246.0,1.0,3
241112.578125,256064.015625,277061.875,265312.0,227612.828125,246853.03125,246500.765625,230998.234375,112247.0,1.0,3
241118.03125,256047.5625,277029.84375,265341.25,227570.546875,246870.921875,246416.734375,231006.265625,112248.0,1.0,3
241383.734375,256260.34375,277212.34375,265511.5625,227847.4375,246972.390625,246805.296875,231059.65625,112249.0,1.0,3
241535.734375,256398.390625,277346.625,265580.125,228048.953125,247004.578125,247121.25,231072.875,112250.0,1.0,3
241358.4375,256273.578125,277249.0,265451.75,227895.53125,246927.421875,246920.0,231033.359375,112251.0,1.0,3
241115.96875,256064.09375,277062.9375,265313.15625,227613.09375,246849.28125,246505.15625,230998.5,112252.0,1.0,3
241114.1875,256037.28125,277029.59375,265339.34375,227570.09375,246875.75,246417.359375,231006.453125,112253.0,1.0,3
241379.984375,256249.171875,277212.53125,265507.71875,227843.40625,246980.34375,246799.921875,231054.375,112254.0,1.0,3
241540.390625,256398.65625,277357.8125,265584.59375,228057.359375,247022.375,247131.53125,231077.625,112255.0,1.0,3
241351.90625,256263.484375,277254.0,265452.5625,227904.5625,246943.0625,246935.375,231038.1875,112256.0,1.0,3
241103.71875,256050.515625,277063.84375,265309.6875,227618.828125,246861.078125,246513.640625,230997.515625,112257.0,1.0,3
241106.40625,256033.078125,277030.9375,265335.875,227575.28125,246884.6875,246420.21875,231006.453125,112258.0,1.0,3
241366.484375,256242.5625,277205.09375,265498.59375,227842.34375,246982.859375,246796.265625,231052.3125,112259.0,1.0,3
241530.453125,256394.453125,277347.6875,265574.59375,228054.59375,247022.015625,247124.75,231073.15625,112260.0,1.0,3
241348.96875,256270.1875,277247.21875,265444.21875,227903.140625,246942.984375,246932.609375,231032.203125,112261.0,1.0,3
241107.03125,256067.859375,277063.65625,265308.875,227620.25,246865.640625,246521.78125,230997.78125,112262.0,1.0,3
241107.03125,256051.21875,277030.21875,265336.0625,227572.15625,246885.765625,246427.453125,231008.953125,112263.0,1.0,3
241365.140625,256260.609375,277201.53125,265496.90625,227833.046875,246975.4375,246794.03125,231050.796875,112264.0,1.0,3
241537.96875,256423.421875,277350.65625,265579.78125,228052.265625,247015.484375,247130.734375,231073.5,112265.0,1.0,3
241367.203125,256307.375,277259.46875,265456.40625,227911.890625,246941.546875,246951.828125,231035.421875,112266.0,1.0,3
241120.171875,256100.578125,277071.96875,265315.03125,227628.484375,246862.328125,246540.828125,231000.46875,112267.0,1.0,3
241105.6875,256068.84375,277023.40625,265329.71875,227567.234375,246874.21875,246432.546875,231006.71875,112268.0,1.0,3
241362.734375,256271.171875,277194.71875,265492.78125,227827.765625,246968.734375,246801.890625,231052.046875,112269.0,1.0,3
241533.3125,256424.765625,277343.21875,265573.53125,228047.171875,247015.125,247143.515625,231074.9375,112270.0,1.0,3
241358.96875,256301.5625,277249.25,265448.0625,227906.796875,246943.0625,246964.96875,231036.140625,112271.0,1.0,3
241112.84375,256089.84375,277059.1875,265306.53125,227619.53125,246859.734375,246544.40625,230998.3125,112272.0,1.0,3
241098.171875,256051.5,277010.90625,265325.3125,227559.8125,246870.5625,246427.71875,231005.015625,112273.0,1.0,3
241347.359375,256240.328125,277170.84375,265479.8125,227815.15625,246956.03125,246783.46875,231043.015625,112274.0,1.0,3
241518.296875,256389.984375,277315.0625,265560.28125,228032.78125,246994.828125,247118.125,231060.984375,112275.0,1.0,3
241344.9375,256265.71875,277222.34375,265438.25,227892.140625,246920.53125,246939.84375,231023.625,112276.0,1.0,3
241099.15625,256057.390625,277032.71875,265296.25,227605.40625,246839.171875,246522.3125,230983.5625,112277.0,1.0,3
241089.59375,256028.6875,276992.40625,265319.5,227547.5625,246859.734375,246411.28125,230994.375,112278.0,1.0,3
241338.140625,256223.15625,277159.59375,265480.0,227803.359375,246950.21875,246769.265625,231036.21875,112279.0,1.0,3
241513.375,256378.1875,277310.59375,265563.0625,228026.515625,246990.09375,247110.703125,231056.609375,112280.0,1.0,3
241345.03125,256259.09375,277222.25,265439.40625,227892.578125,246915.078125,246937.53125,231017.625,112281.0,1.0,3
241101.65625,256052.390625,277035.65625,265299.46875,227607.015625,246834.796875,246523.578125,230980.4375,112282.0,1.0,3
241085.75,256018.765625,276986.21875,265313.0625,227539.34375,246844.71875,246401.890625,230982.765625,112283.0,1.0,3
241342.609375,256223.328125,277160.84375,265479.8125,227802.90625,246943.78125,246769.078125,231034.796875,112284.0,1.0,3
241521.78125,256386.40625,277313.375,265564.5,228026.515625,246984.828125,247112.5,231053.125,112285.0,1.0,3
241359.328125,256274.65625,277228.53125,265447.4375,227895.53125,246912.765625,246946.28125,231021.921875,112286.0,1.0,3
241109.171875,256061.859375,277040.125,265302.34375,227608.09375,246832.03125,246528.484375,230982.765625,112287.0,1.0,3
241087.53125,256026.109375,276988.46875,265312.71875,227535.5,246842.65625,246401.0,230984.640625,112288.0,1.0,3
241343.0625,256229.40625,277160.21875,265478.9375,227797.015625,246941.640625,246769.265625,231034.4375,112289.0,1.0,3
241524.109375,256392.671875,277317.125,265566.09375,228027.5,246986.4375,247123.9375,231054.828125,112290.0,1.0,3
241355.125,256275.640625,277232.8125,265444.3125,227894.015625,246911.59375,246959.34375,231012.4375,112291.0,1.0,3
241104.609375,256059.359375,277047.125,265300.46875,227606.65625,246826.921875,246541.359375,230971.859375,112292.0,1.0,3
241080.65625,256015.546875,276996.6875,265312.625,227539.34375,246839.4375,246411.640625,230983.03125,112293.0,1.0,3
241336.625,256215.28125,277164.9375,265475.15625,227801.921875,246939.84375,246772.65625,231034.609375,112294.0,1.0,3
241520.171875,256375.5,277314.875,265560.09375,228027.140625,246980.53125,247118.84375,231054.109375,112295.0,1.0,3
241357.1875,256265.0,277228.6875,265441.375,227896.4375,246905.0625,246956.484375,231014.859375,112296.0,1.0,3
241102.375,256053.734375,277036.5625,265296.09375,227603.359375,246823.984375,246532.875,230974.359375,112297.0,1.0,3
241079.125,256018.953125,276988.03125,265310.65625,227533.53125,246845.703125,246400.546875,230985.703125,112298.0,1.0,3
241329.375,256211.796875,277151.4375,265473.28125,227788.515625,246945.484375,246756.203125,231036.40625,112299.0,1.0,3
241522.328125,256380.6875,277309.96875,265569.5,228025.890625,246996.4375,247115.0,231065.734375,112300.0,1.0,3
241361.296875,256267.046875,277225.125,265451.5625,227904.75,246926.96875,246960.234375,231026.125,112301.0,1.0,3
241109.4375,256052.5625,277034.15625,265302.15625,227618.640625,246846.953125,246535.640625,230982.578125,112302.0,1.0,3
241083.609375,256008.125,276979.625,265310.75,227543.359375,246862.421875,246393.21875,230987.765625,112303.0,1.0,3
241346.1875,256209.5625,277153.0625,265480.0,227806.578125,246967.03125,246754.6875,231039.53125,112304.0,1.0,3
241545.03125,256379.078125,277319.71875,265573.875,228046.640625,247017.90625,247116.34375,231060.1875,112305.0,1.0,3
241391.78125,256270.71875,277247.75,265459.96875,227932.375,246950.84375,246974.0,231026.65625,112306.0,1.0,3
241135.90625,256052.75,277058.46875,265306.71875,227640.90625,246863.9375,246551.203125,230981.328125,112307.0,1.0,3
241101.84375,256001.25,277001.4375,265313.25,227557.671875,246869.3125,246402.609375,230985.0,112308.0,1.0,3
241346.015625,256189.359375,277159.78125,265470.4375,227801.484375,246955.671875,246746.734375,231031.75,112309.0,1.0,3
241539.3125,256363.53125,277321.15625,265565.90625,228037.609375,247001.453125,247112.046875,231056.96875,112310.0,1.0,3
241394.203125,256272.78125,277253.28125,265461.5,227930.21875,246939.21875,246983.65625,231033.90625,112311.0,1.0,3
241126.078125,256055.15625,277051.9375,265302.25,227628.484375,246843.734375,246557.09375,230987.234375,112312.0,1.0,3
241082.4375,256011.890625,276986.75,265302.34375,227536.5625,246848.03125,246404.390625,230990.8125,112313.0,1.0,3
241336.796875,256219.9375,277152.78125,265469.34375,227787.71875,246946.90625,246757.1875,231042.65625,112314.0,1.0,3
241534.65625,256403.578125,277317.75,265569.59375,228027.859375,246997.421875,247129.03125,231069.84375,112315.0,1.0,3
241376.859375,256307.28125,277239.78125,265457.8125,227913.5,246927.875,246994.296875,231033.359375,112316.0,1.0,3
241118.828125,256098.875,277051.75,265312.09375,227626.25,246841.59375,246574.53125,230994.46875,112317.0,1.0,3
241069.46875,256042.203125,276983.0,265310.21875,227533.96875,246838.90625,246409.390625,230993.484375,112318.0,1.0,3
241322.234375,256243.1875,277149.3125,265475.78125,227792.453125,246940.03125,246761.578125,231047.578125,112319.0,1.0,3
241526.703125,256421.734375,277316.9375,265580.3125,228043.140625,246997.609375,247135.109375,231079.59375,112320.0,1.0,3
241380.875,256323.46875,277245.34375,265469.71875,227937.640625,246931.71875,247002.609375,231042.578125,112321.0,1.0,3
241116.59375,256101.5625,277049.78125,265315.125,227643.5,246842.9375,246574.265625,230995.28125,112322.0,1.0,3
241066.171875,256035.765625,276983.625,265314.59375,227547.125,246850.890625,246406.8125,230995.984375,112323.0,1.0,3
241313.640625,256223.953125,277146.71875,265477.59375,227792.984375,246952.71875,246750.125,231042.296875,112324.0,1.0,3
241521.515625,256402.328125,277317.03125,265584.5,228040.46875,247011.28125,247127.515625,231071.265625,112325.0,1.0,3
241384.015625,256306.75,277253.1875,265480.96875,227939.609375,246951.109375,247006.71875,231036.84375,112326.0,1.0,3
241121.78125,256087.4375,277063.46875,265326.75,227648.59375,246866.0,246583.921875,230992.140625,112327.0,1.0,3
241074.65625,256027.4375,276998.375,265325.15625,227553.203125,246874.5,246418.875,230996.890625,112328.0,1.0,3
241331.96875,256227.796875,277164.3125,265491.875,227806.484375,246974.8125,246764.609375,231048.03125,112329.0,1.0,3
241544.9375,256414.9375,277336.0,265593.90625,228059.234375,247029.171875,247142.265625,231074.671875,112330.0,1.0,3
241399.296875,256321.40625,277268.3125,265481.59375,227957.859375,246957.640625,247018.078125,231036.671875,112331.0,1.0,3
241134.65625,256101.109375,277075.1875,265323.8125,227663.53125,246866.171875,246594.921875,230993.578125,112332.0,1.0,3
241082.171875,256040.671875,277005.4375,265320.21875,227561.78125,246869.3125,246422.71875,230997.25,112333.0,1.0,3
241330.09375,256236.921875,277165.75,265481.96875,227805.0625,246962.734375,246760.59375,231046.328125,112334.0,1.0,3
241539.9375,256422.4375,277337.40625,265586.75,228052.984375,247012.984375,247140.296875,231075.03125,112335.0,1.0,3
241401.796875,256331.78125,277275.09375,265481.34375,227953.03125,246942.0,247026.65625,231036.40625,112336.0,1.0,3
241144.21875,256115.59375,277083.3125,265325.84375,227656.375,246847.84375,246605.28125,230990.265625,112337.0,1.0,3
241089.5,256050.328125,277009.28125,265316.84375,227544.609375,246845.171875,246421.203125,230989.375,112338.0,1.0,3
241336.359375,256241.84375,277168.875,265478.5625,227785.921875,246939.484375,246754.6875,231039.078125,112339.0,1.0,3
241552.28125,256425.390625,277345.1875,265590.875,228041.265625,246997.78125,247141.640625,231071.71875,112340.0,1.0,3
241416.46875,256332.328125,277285.375,265489.46875,227950.796875,246943.875,247039.625,231043.28125,112341.0,1.0,3
241152.171875,256108.984375,277093.59375,265334.0,227661.46875,246863.3125,246624.515625,230998.9375,112342.0,1.0,3
241094.328125,256040.765625,277019.5625,265323.09375,227552.75,246858.84375,246431.921875,230992.140625,112343.0,1.0,3
241328.578125,256215.734375,277170.84375,265474.625,227786.015625,246947.0,246753.34375,231032.109375,112344.0,1.0,3
241547.453125,256403.40625,277347.15625,265584.59375,228045.5625,247012.984375,247142.625,231060.8125,112345.0,1.0,3
241415.65625,256316.046875,277284.84375,265480.09375,227954.1875,246949.59375,247034.265625,231025.5,112346.0,1.0,3
241150.296875,256099.59375,277091.71875,265323.1875,227663.34375,246860.359375,246609.3125,230982.765625,112347.0,1.0,3
241085.390625,256029.953125,277013.21875,265308.78125,227550.875,246861.171875,246417.53125,230984.1875,112348.0,1.0,3
241327.859375,256218.6875,277169.59375,265470.875,227789.234375,246958.890625,246748.25,231035.328125,112349.0,1.0,3
241552.0,256415.296875,277349.5,265584.5,228049.046875,247020.765625,247142.71875,231067.78125,112350.0,1.0,3
241416.640625,256330.078125,277292.09375,265483.9375,227961.875,246956.65625,247043.828125,231036.671875,112351.0,1.0,3
241149.046875,256112.640625,277098.4375,265328.09375,227667.375,246865.734375,246617.8125,230990.890625,112352.0,1.0,3
241082.265625,256042.46875,277018.6875,265312.90625,227553.109375,246862.875,246421.640625,230993.75,112353.0,1.0,3
241328.40625,256236.484375,277175.78125,265477.5,227795.21875,246964.078125,246753.4375,231049.375,112354.0,1.0,3
241554.0625,256433.34375,277355.84375,265595.96875,228058.078125,247029.34375,247153.4375,231078.875,112355.0,1.0,3
241424.15625,256347.515625,277298.25,265493.6875,227974.03125,246963.984375,247057.953125,231039.625,112356.0,1.0,3
241155.671875,256125.171875,277099.59375,265331.125,227676.9375,246867.15625,246626.125,230995.71875,112357.0,1.0,3
241075.109375,256034.59375,277001.96875,265304.03125,227541.65625,246848.5625,246406.265625,230986.96875,112358.0,1.0,3
241317.140625,256215.015625,277154.3125,265462.03125,227774.03125,246942.359375,246727.234375,231032.015625,112359.0,1.0,3
241544.671875,256409.390625,277337.15625,265582.28125,228039.75,247010.03125,247128.3125,231064.65625,112360.0,1.0,3
241419.859375,256325.890625,277283.78125,265485.8125,227961.078125,246950.40625,247042.046875,231034.96875,112361.0,1.0,3
241154.859375,256099.5,277089.21875,265326.5,227668.890625,246860.359375,246620.125,230994.65625,112362.0,1.0,3
241081.28125,256014.484375,277003.03125,265305.75,227545.859375,246859.46875,246412.796875,230994.65625,112363.0,1.0,3
241315.53125,256190.609375,277150.375,265459.4375,227771.34375,246954.875,246727.6875,231033.28125,112364.0,1.0,3
241542.890625,256383.8125,277332.40625,265576.46875,228035.015625,247020.859375,247129.921875,231062.328125,112365.0,1.0,3
241423.625,256309.796875,277283.0625,265480.71875,227963.84375,246966.5,247050.890625,231033.8125,112366.0,1.0,3
241155.671875,256089.9375,277091.90625,265319.6875,227673.0,246877.796875,246626.828125,230993.3125,112367.0,1.0,3
241079.40625,256008.125,277008.40625,265299.65625,227548.015625,246870.109375,246414.140625,230991.25,112368.0,1.0,3
241313.734375,256185.328125,277153.96875,265459.0625,227775.640625,246961.671875,246726.25,231039.265625,112369.0,1.0,3
241548.515625,256384.984375,277334.5625,265582.1875,228042.25,247020.21875,247127.0625,231070.5625,112370.0,1.0,3
241433.546875,256314.4375,277286.28125,265489.46875,227972.25,246953.171875,247047.671875,231038.90625,112371.0,1.0,3
241154.6875,256083.859375,277081.0,265320.6875,227670.859375,246848.921875,246613.78125,230989.28125,112372.0,1.0,3
241070.015625,256000.4375,276984.8125,265294.375,227537.734375,246836.859375,246391.421875,230985.703125,112373.0,1.0,3
241303.984375,256187.578125,277131.4375,265451.375,227764.640625,246928.5,246703.640625,231035.78125,112374.0,1.0,3
241532.6875,256388.640625,277313.71875,265570.5625,228030.359375,246992.6875,247105.609375,231067.515625,112375.0,1.0,3
241419.6875,256325.609375,277270.53125,265480.625,227962.234375,246939.484375,247039.53125,231034.796875,112376.0,1.0,3
241156.640625,256120.0625,277080.5625,265324.53125,227673.53125,246854.640625,246625.21875,230993.484375,112377.0,1.0,3
241065.8125,256031.46875,276983.375,265295.28125,227533.4375,246847.046875,246400.375,230987.765625,112378.0,1.0,3
241293.078125,256202.234375,277125.0625,265445.5625,227749.4375,246932.96875,246698.8125,231029.78125,112379.0,1.0,3
241539.046875,256410.734375,277315.15625,265572.71875,228026.515625,247001.71875,247113.203125,231068.140625,112380.0,1.0,3
241429.34375,256345.90625,277273.65625,265484.09375,227964.203125,246948.34375,247051.703125,231038.015625,112381.0,1.0,3
241152.09375,256117.03125,277077.25,265322.0,227671.125,246852.953125,246623.890625,230990.453125,112382.0,1.0,3
241058.125,256014.390625,276973.8125,265285.8125,227529.421875,246834.625,246386.234375,230978.828125,112383.0,1.0,3
241297.90625,256193.46875,277121.6875,265447.625,227754.625,246931.984375,246691.75,231027.375,112384.0,1.0,3
241543.953125,256401.875,277315.875,265579.875,228036.265625,247008.0625,247112.40625,231068.40625,112385.0,1.0,3
241429.421875,256326.421875,277269.5625,265482.15625,227971.796875,246945.75,247047.765625,231035.15625,112386.0,1.0,3
241152.0,256089.40625,277066.96875,265313.625,227670.5,246843.203125,246617.890625,230984.640625,112387.0,1.0,3
241058.125,255988.1875,276969.96875,265284.65625,227527.265625,246831.125,246383.375,230976.046875,112388.0,1.0,3
241296.125,256169.6875,277122.125,265445.21875,227757.046875,246934.65625,246691.828125,231029.96875,112389.0,1.0,3
241541.546875,256382.03125,277313.1875,265572.53125,228034.109375,247005.46875,247107.578125,231063.765625,112390.0,1.0,3
241435.859375,256324.1875,277275.5625,265485.8125,227976.984375,246946.828125,247051.078125,231033.71875,112391.0,1.0,3
241158.96875,256101.203125,277078.5,265320.5,227679.53125,246850.078125,246625.40625,230986.0625,112392.0,1.0,3
241056.515625,256003.296875,276971.46875,265283.46875,227523.875,246831.40625,246378.828125,230976.5,112393.0,1.0,3
241287.1875,256183.09375,277113.46875,265441.5625,227740.234375,246922.6875,246671.71875,231025.859375,112394.0,1.0,3
241532.421875,256394.28125,277303.71875,265570.375,228017.671875,246988.390625,247087.734375,231060.09375,112395.0,1.0,3
241427.90625,256334.640625,277271.96875,265484.09375,227967.15625,246936.359375,247043.828125,231030.40625,112396.0,1.0,3
241159.6875,256122.65625,277083.5,265323.625,227680.609375,246847.40625,246628.171875,230989.734375,112397.0,1.0,3
241053.46875,256020.734375,276973.96875,265283.5625,227526.546875,246828.09375,246380.4375,230985.078125,112398.0,1.0,3
241279.40625,256194.453125,277111.84375,265435.375,227741.484375,246924.109375,246677.0,231031.3125,112399.0,1.0,3
241534.125,256413.40625,277311.40625,265572.625,228028.578125,247003.78125,247102.65625,231067.703125,112400.0,1.0,3
241436.484375,256358.25,277280.5625,265489.84375,227980.03125,246947.71875,247059.921875,231037.46875,112401.0,1.0,3
241157.09375,256127.84375,277082.34375,265320.125,227682.84375,246848.296875,246634.875,230986.96875,112402.0,1.0,3
241053.390625,256019.671875,276976.03125,265281.78125,227528.34375,246830.0625,246382.390625,230978.734375,112403.0,1.0,3
241279.765625,256186.59375,277117.375,265438.0625,227743.1875,246923.125,246669.65625,231026.296875,112404.0,1.0,3
241521.96875,256390.875,277306.125,265566.375,228021.515625,246992.15625,247086.828125,231060.28125,112405.0,1.0,3
241431.75,256340.640625,277278.6875,265488.125,227982.796875,246949.328125,247057.78125,231039.796875,112406.0,1.0,3
241157.546875,256118.90625,277083.6875,265322.28125,227692.9375,246856.25,246638.375,230991.078125,112407.0,1.0,3
241045.515625,256009.65625,276972.0,265280.15625,227531.921875,246837.75,246379.53125,230979.453125,112408.0,1.0,3
241264.390625,256172.546875,277105.40625,265430.28125,227736.921875,246921.609375,246658.578125,231024.609375,112409.0,1.0,3
241510.515625,256379.34375,277292.0,265559.375,228014.71875,246987.234375,247077.359375,231059.5625,112410.0,1.0,3
241423.34375,256335.453125,277265.625,265482.5,227978.5,246938.953125,247055.90625,231036.9375,112411.0,1.0,3
241147.96875,256110.765625,277069.90625,265313.25,227686.5,246842.9375,246636.84375,230988.484375,112412.0,1.0,3
241042.125,256004.46875,276963.25,265273.28125,227529.328125,246827.734375,246381.859375,230980.875,112413.0,1.0,3
241262.6875,256173.625,277097.09375,265425.8125,227736.65625,246920.265625,246663.765625,231026.75,112414.0,1.0,3
241511.859375,256386.328125,277288.875,265559.125,228020.171875,246996.53125,247087.640625,231064.390625,112415.0,1.0,3
241424.6875,256339.828125,277266.34375,265481.78125,227984.234375,246949.859375,247066.09375,231037.828125,112416.0,1.0,3
241151.109375,256117.5625,277072.3125,265316.03125,227688.46875,246852.859375,246643.28125,230986.875,112417.0,1.0,3
241039.078125,256004.734375,276959.9375,265270.78125,227522.265625,246828.984375,246379.359375,230974.265625,112418.0,1.0,3
241257.40625,256163.515625,277092.34375,265419.5625,227723.703125,246917.859375,246653.84375,231019.234375,112419.0,1.0,3
241509.625,256374.15625,277285.21875,265554.65625,228004.875,246988.484375,247075.5625,231057.59375,112420.0,1.0,3
241432.015625,256332.046875,277270.625,265485.09375,227977.4375,246945.65625,247064.390625,231032.203125,112421.0,1.0,3
241164.0625,256109.515625,277084.65625,265319.6875,227688.828125,246850.984375,246651.421875,230985.4375,112422.0,1.0,3
241051.0625,255991.765625,276971.5625,265272.125,227519.765625,246822.09375,246380.078125,230972.5625,112423.0,1.0,3
241267.6875,256150.375,277102.8125,265421.34375,227721.28125,246908.734375,246651.15625,231017.71875,112424.0,1.0,3
241523.84375,256366.390625,277296.46875,265559.21875,228007.390625,246981.6875,247077.53125,231055.625,112425.0,1.0,3
241447.21875,256333.296875,277280.46875,265489.46875,227979.671875,246936.546875,247067.4375,231032.375,112426.0,1.0,3
241169.515625,256115.59375,277087.53125,265320.40625,227687.3125,246840.875,246651.6875,230984.640625,112427.0,1.0,3
241051.140625,256006.34375,276972.28125,265270.59375,227518.328125,246817.625,246385.34375,230975.96875,112428.0,1.0,3
241260.359375,256168.171875,277097.53125,265414.8125,227716.359375,246900.953125,246648.109375,231017.984375,112429.0,1.0,3
241511.140625,256386.953125,277287.96875,265551.625,228000.765625,246976.859375,247070.734375,231055.71875,112430.0,1.0,3
241434.171875,256353.0625,277267.5,265481.78125,227976.71875,246931.171875,247061.4375,231029.25,112431.0,1.0,3
241159.328125,256132.40625,277070.8125,265312.8125,227688.5625,246835.421875,246647.046875,230980.875,112432.0,1.0,3
241045.0625,256023.234375,276956.09375,265268.1875,227522.265625,246818.53125,246379.171875,230974.625,112433.0,1.0,3
241256.25,256183.90625,277081.8125,265415.71875,227721.015625,246908.375,246642.484375,231020.3125,112434.0,1.0,3
241509.8125,256394.90625,277275.46875,265555.8125,228010.0625,246986.15625,247064.921875,231058.75,112435.0,1.0,3
241443.640625,256361.46875,277264.375,265489.21875,227991.921875,246947.1875,247062.609375,231035.6875,112436.0,1.0,3
241172.5625,256137.0625,277075.1875,265323.8125,227702.5,246853.484375,246652.9375,230987.671875,112437.0,1.0,3
241054.1875,256015.015625,276960.125,265276.5,227532.546875,246836.859375,246381.6875,230984.546875,112438.0,1.0,3
241263.84375,256165.84375,277085.1875,265422.875,227728.4375,246932.078125,246642.390625,231034.96875,112439.0,1.0,3
241516.59375,256374.34375,277276.625,265560.0,228013.28125,247010.296875,247069.125,231071.453125,112440.0,1.0,3
241449.453125,256337.59375,277264.71875,265491.34375,227994.421875,246966.578125,247070.46875,231033.71875,112441.0,1.0,3
241185.609375,256115.78125,277077.875,265325.3125,227707.421875,246869.125,246661.796875,230982.3125,112442.0,1.0,3
241067.15625,255991.140625,276962.34375,265274.0,227533.890625,246846.59375,246386.953125,230970.25,112443.0,1.0,3
241268.578125,256131.78125,277080.1875,265411.59375,227716.546875,246926.265625,246630.953125,231012.171875,112444.0,1.0,3
241518.828125,256340.640625,277272.0625,265544.5625,227998.265625,246995.8125,247050.796875,231051.875,112445.0,1.0,3
241467.34375,256326.15625,277274.5625,265490.71875,227992.984375,246965.234375,247072.265625,231034.171875,112446.0,1.0,3
241209.484375,256119.890625,277092.875,265330.59375,227712.515625,246873.859375,246674.84375,230982.84375,112447.0,1.0,3
241089.140625,256006.875,276973.71875,265274.71875,227532.546875,246843.734375,246398.125,230966.046875,112448.0,1.0,3
241278.6875,256152.4375,277086.375,265409.625,227706.625,246919.828125,246639.078125,231007.34375,112449.0,1.0,3
241529.65625,256370.765625,277281.71875,265548.40625,227990.3125,246993.84375,247064.390625,231052.765625,112450.0,1.0,3
241473.953125,256353.421875,277279.9375,265492.34375,227981.28125,246954.6875,247082.453125,231037.5625,112451.0,1.0,3
241228.171875,256160.484375,277107.28125,265342.9375,227709.84375,246868.6875,246697.640625,230997.59375,112452.0,1.0,3
241109.53125,256047.5625,276989.90625,265295.46875,227533.96875,246835.6875,246417.53125,230977.3125,112453.0,1.0,3
241293.171875,256179.171875,277093.96875,265423.03125,227702.5,246899.265625,246642.84375,231010.75,112454.0,1.0,3
241547.0,256394.453125,277286.90625,265562.34375,227991.734375,246975.078125,247068.234375,231052.140625,112455.0,1.0,3
241493.0,256378.015625,277288.0625,265507.4375,227991.46875,246941.09375,247092.640625,231034.703125,112456.0,1.0,3
241241.578125,256172.109375,277104.34375,265347.6875,227713.140625,246845.53125,246698.09375,230989.015625,112457.0,1.0,3
241124.734375,256059.0,276988.375,265299.46875,227538.796875,246825.671875,246422.71875,230980.171875,112458.0,1.0,3
241313.296875,256198.921875,277102.0,265436.71875,227717.703125,246914.375,246658.484375,231028.625,112459.0,1.0,3
241560.328125,256406.078125,277289.84375,265571.625,228001.3125,246990.09375,247071.1875,231065.8125,112460.0,1.0,3
241504.625,256386.234375,277287.09375,265512.90625,227999.515625,246954.953125,247088.625,231043.640625,112461.0,1.0,3
241241.3125,256170.5,277100.40625,265348.21875,227723.515625,246859.46875,246691.5625,230996.34375,112462.0,1.0,3
241115.609375,256047.375,276973.96875,265289.65625,227543.359375,246830.5,246403.59375,230979.71875,112463.0,1.0,3
241307.5625,256193.65625,277090.65625,265427.25,227726.5625,246923.21875,246640.609375,231025.140625,112464.0,1.0,3
241552.09375,256403.9375,277280.03125,265562.96875,228009.703125,247001.0,247056.171875,231065.375,112465.0,1.0,3
241502.828125,256389.453125,277286.46875,265509.78125,228015.15625,246972.484375,247086.390625,231048.921875,112466.0,1.0,3
241247.125,256181.9375,277112.03125,265349.90625,227739.25,246883.34375,246695.859375,231000.109375,112467.0,1.0,3
241115.703125,256056.765625,276990.59375,265293.3125,227554.1875,246857.6875,246408.859375,230984.71875,112468.0,1.0,3
241290.765625,256184.796875,277093.96875,265422.15625,227719.578125,246936.546875,246628.71875,231024.15625,112469.0,1.0,3
241543.0625,256398.125,277288.4375,265561.34375,228003.8125,247016.109375,247049.375,231066.53125,112470.0,1.0,3
241497.109375,256385.515625,277293.53125,265507.53125,228007.734375,246981.328125,247085.3125,231049.375,112471.0,1.0,3
241238.984375,256179.171875,277115.6875,265348.03125,227732.09375,246884.328125,246697.46875,231003.765625,112472.0,1.0,3
241109.0,256059.1875,276993.28125,265286.25,227541.75,246852.046875,246405.203125,230985.4375,112473.0,1.0,3
241297.28125,256204.109375,277108.96875,265422.0625,227714.578125,246938.859375,246637.03125,231027.828125,112474.0,1.0,3
241545.75,256415.640625,277298.09375,265558.40625,227995.046875,247017.546875,247059.125,231067.875,112475.0,1.0,3
241499.4375,256404.109375,277303.09375,265508.0625,228002.5625,246989.109375,247100.6875,231048.828125,112476.0,1.0,3
241240.25,256196.515625,277123.125,265345.625,227724.859375,246893.0,246708.203125,231000.1875,112477.0,1.0,3
241102.5625,256067.3125,276994.09375,265284.71875,227530.125,246856.171875,246407.78125,230985.890625,112478.0,1.0,3
241272.609375,256195.171875,277093.0625,265409.46875,227692.84375,246928.9375,246623.703125,231024.421875,112479.0,1.0,3
241519.90625,256404.109375,277283.3125,265546.59375,227981.8125,247004.3125,247049.1875,231067.703125,112480.0,1.0,3
241477.265625,256394.015625,277288.875,265495.65625,227995.5,246972.21875,247095.0625,231048.46875,112481.0,1.0,3
241209.125,256179.875,277100.03125,265328.71875,227717.171875,246871.71875,246696.75,230996.703125,112482.0,1.0,3
241067.234375,256042.46875,276960.375,265260.5,227518.6875,246833.546875,246384.1875,230976.234375,112483.0,1.0,3
241246.765625,256170.40625,277056.21875,265389.53125,227677.828125,246909.71875,246591.515625,231014.859375,112484.0,1.0,3
241507.296875,256389.09375,277247.5625,265532.84375,227968.5,246988.9375,247016.109375,231058.390625,112485.0,1.0,3
241464.828125,256378.359375,277255.0,265486.34375,227987.53125,246954.25,247064.75,231042.9375,112486.0,1.0,3
241199.390625,256166.921875,277071.625,265322.90625,227714.046875,246856.96875,246667.609375,230998.046875,112487.0,1.0,3
241057.046875,256034.234375,276936.25,265256.03125,227517.34375,246822.8125,246351.8125,230981.5,112488.0,1.0,3
241238.015625,256164.5,277040.3125,265390.40625,227682.65625,246907.484375,246563.984375,231021.109375,112489.0,1.0,3
241504.4375,256382.203125,277242.8125,265542.65625,227983.953125,246999.125,247003.421875,231068.40625,112490.0,1.0,3
241467.34375,256377.46875,277253.8125,265493.84375,228000.671875,246972.21875,247054.828125,231048.921875,112491.0,1.0,3
241190.359375,256158.609375,277064.5625,265321.5625,227718.515625,246878.515625,246650.703125,230999.484375,112492.0,1.0,3
241036.578125,256014.203125,276931.0625,265256.375,227520.03125,246849.09375,246331.25,230990.984375,112493.0,1.0,3
241218.703125,256146.171875,277037.8125,265391.03125,227685.078125,246935.015625,246543.421875,231037.296875,112494.0,1.0,3
241487.71875,256364.953125,277238.625,265539.53125,227981.640625,247017.359375,246983.84375,231074.40625,112495.0,1.0,3
241449.015625,256348.859375,277252.65625,265493.5,227998.984375,246980.796875,247044.8125,231054.28125,112496.0,1.0,3
241175.6875,256127.3125,277067.78125,265324.0625,227714.046875,246882.625,246643.109375,231007.078125,112497.0,1.0,3
241018.328125,255976.03125,276921.59375,265243.59375,227496.78125,246837.390625,246306.125,230977.9375,112498.0,1.0,3
241202.0625,256105.046875,277027.34375,265380.3125,227657.09375,246920.1875,246517.21875,231019.6875,112499.0,1.0,3
241479.5,256331.0625,277236.84375,265535.0625,227959.015625,247003.859375,246966.3125,231063.765625,112500.0,1.0,3
241450.0,256329.734375,277260.0,265491.25,227984.234375,246967.921875,247033.1875,231046.5,112501.0,1.0,3
241161.828125,256100.125,277064.5625,265309.3125,227690.703125,246861.4375,246620.21875,230989.546875,112502.0,1.0,3
241005.375,255956.1875,276925.15625,265238.0625,227481.578125,246833.546875,246288.609375,230977.84375,112503.0,1.0,3
241194.46875,256089.578125,277029.59375,265375.21875,227639.828125,246919.734375,246496.484375,231023.4375,112504.0,1.0,3
241472.4375,256315.515625,277232.53125,265530.0625,227939.53125,247003.78125,246946.46875,231065.375,112505.0,1.0,3
241442.21875,256314.265625,277244.875,265481.875,227963.03125,246968.8125,247013.96875,231047.578125,112506.0,1.0,3
241158.4375,256094.140625,277053.90625,265309.5,227676.9375,246875.75,246605.640625,230997.0625,112507.0,1.0,3
240991.875,255939.640625,276905.59375,265231.625,227459.953125,246843.203125,246260.453125,230978.203125,112508.0,1.0,3
241179.53125,256068.390625,277005.625,265363.84375,227621.0625,246928.5,246465.015625,231025.234375,112509.0,1.0,3
241471.1875,256298.703125,277217.0,265525.6875,227938.625,247022.1875,246928.046875,231075.5625,112510.0,1.0,3
241453.75,256308.359375,277239.34375,265485.1875,227980.734375,247001.453125,247011.90625,231055.265625,112511.0,1.0,3
241160.9375,256075.0,277039.6875,265302.875,227694.015625,246901.5,246598.9375,230997.6875,112512.0,1.0,3
240988.828125,255913.453125,276882.0625,265218.3125,227472.46875,246863.140625,246250.4375,230975.34375,112513.0,1.0,3
241176.234375,256045.859375,276982.21875,265355.28125,227633.3125,246947.71875,246452.484375,231022.015625,112514.0,1.0,3
241477.171875,256285.375,277199.28125,265521.84375,227951.953125,247040.875,246921.703125,231070.109375,112515.0,1.0,3
241453.75,256282.515625,277219.03125,265475.53125,227984.578125,247005.921875,247006.28125,231045.875,112516.0,1.0,3
241156.921875,256051.40625,277019.21875,265289.1875,227690.890625,246896.84375,246590.09375,230986.875,112517.0,1.0,3
240981.59375,255896.28125,276866.4375,265207.46875,227464.859375,246854.28125,246233.265625,230966.21875,112518.0,1.0,3
241171.9375,256032.8125,276971.3125,265345.71875,227619.71875,246934.3125,246434.96875,231014.046875,112519.0,1.0,3
241478.6875,256287.625,277192.5,265514.40625,227936.9375,247023.984375,246910.96875,231066.53125,112520.0,1.0,3
241468.953125,256312.46875,277228.4375,265481.59375,227986.28125,246998.953125,247018.265625,231053.03125,112521.0,1.0,3
241168.453125,256085.5625,277030.84375,265294.125,227696.25,246892.828125,246609.3125,230997.953125,112522.0,1.0,3
240990.171875,255930.96875,276876.25,265209.1875,227465.40625,246850.703125,246250.796875,230974.09375,112523.0,1.0,3
241174.703125,256065.265625,276974.34375,265345.4375,227613.546875,246928.3125,246445.875,231017.453125,112524.0,1.0,3
241481.203125,256317.296875,277199.90625,265521.125,227938.359375,247023.4375,246932.78125,231074.484375,112525.0,1.0,3
241480.65625,256350.03125,277243.625,265495.46875,227994.421875,247001.890625,247052.859375,231059.109375,112526.0,1.0,3
241184.546875,256127.75,277048.28125,265307.53125,227701.796875,246892.109375,246640.96875,230999.03125,112527.0,1.0,3
240992.3125,255956.8125,276883.78125,265211.5,227461.015625,246842.125,246272.34375,230971.671875,112528.0,1.0,3
241174.265625,256084.484375,276984.875,265346.25,227608.359375,246925.0,246465.640625,231017.53125,112529.0,1.0,3
241487.71875,256338.671875,277213.78125,265522.28125,227933.09375,247021.65625,246952.90625,231072.25,112530.0,1.0,3
241487.1875,256360.9375,277254.375,265496.53125,227991.65625,247000.375,247079.6875,231060.8125,112531.0,1.0,3
241190.625,256132.765625,277065.53125,265315.75,227712.875,246900.15625,246679.671875,231007.875,112532.0,1.0,3
241002.875,255965.390625,276905.40625,265224.90625,227477.5625,246855.09375,246310.953125,230982.765625,112533.0,1.0,3
241195.0,256098.078125,277006.15625,265362.25,227628.5625,246942.171875,246503.984375,231022.546875,112534.0,1.0,3
241511.328125,256350.296875,277231.1875,265536.59375,227954.1875,247037.390625,246990.90625,231077.703125,112535.0,1.0,3
241518.828125,256382.03125,277278.59375,265516.75,228020.4375,247014.234375,247120.546875,231068.859375,112536.0,1.0,3
241218.609375,256154.046875,277082.96875,265328.0,227736.921875,246908.109375,246711.0625,231007.4375,112537.0,1.0,3
241025.046875,255985.875,276915.6875,265232.0625,227498.390625,246859.03125,246333.9375,230981.953125,112538.0,1.0,3
241210.203125,256117.5625,277011.4375,265371.8125,227650.5625,246941.90625,246521.96875,231030.59375,112539.0,1.0,3
241532.609375,256374.796875,277242.90625,265553.125,227985.921875,247039.359375,247015.125,231085.046875,112540.0,1.0,3
241545.65625,256412.875,277296.1875,265530.0625,228060.046875,247023.984375,247156.125,231073.328125,112541.0,1.0,3
241241.140625,256184.359375,277095.3125,265337.03125,227772.328125,246910.4375,246743.78125,231010.921875,112542.0,1.0,3
241038.984375,256011.796875,276924.0,265237.53125,227523.515625,246856.078125,246356.296875,230985.984375,112543.0,1.0,3
241214.9375,256137.234375,277012.4375,265365.71875,227656.28125,246927.875,246528.125,231027.828125,112544.0,1.0,3
241536.984375,256397.234375,277241.3125,265547.5,227984.140625,247023.984375,247018.609375,231082.625,112545.0,1.0,3
241557.734375,256438.8125,277295.84375,265530.5,228058.609375,247008.0625,247167.21875,231074.484375,112546.0,1.0,3
241263.125,256222.796875,277107.8125,265346.4375,227778.328125,246902.828125,246771.40625,231019.59375,112547.0,1.0,3
241054.28125,256043.53125,276937.40625,265242.625,227527.890625,246849.453125,246384.0,230990.09375,112548.0,1.0,3
241225.484375,256159.59375,277026.625,265371.625,227661.375,246925.359375,246551.375,231031.84375,112549.0,1.0,3
241547.09375,256414.578125,277252.125,265549.28125,227982.34375,247019.421875,247032.5625,231083.25,112550.0,1.0,3
241570.15625,256455.796875,277311.65625,265537.9375,228065.140625,247004.3125,247183.578125,231077.171875,112551.0,1.0,3
241272.609375,256231.921875,277123.46875,265349.90625,227783.328125,246896.3125,246783.75,231018.25,112552.0,1.0,3
241053.65625,256041.5625,276949.75,265242.0,227525.390625,246839.625,246387.140625,230983.828125,112553.0,1.0,3
241224.421875,256157.890625,277038.53125,265370.90625,227655.125,246920.265625,246550.125,231024.953125,112554.0,1.0,3
241540.5625,256408.140625,277263.125,265550.71875,227976.984375,247014.6875,247030.953125,231073.15625,112555.0,1.0,3
241571.9375,256458.390625,277328.375,265542.125,228063.625,247002.53125,247186.875,231064.828125,112556.0,1.0,3
241264.734375,256229.6875,277138.03125,265351.6875,227781.09375,246895.953125,246790.265625,231007.4375,112557.0,1.0,3
241046.671875,256043.984375,276962.625,265243.0625,227520.828125,246841.140625,246395.0,230976.953125,112558.0,1.0,3
241209.046875,256155.390625,277042.8125,265368.15625,227640.90625,246917.140625,246549.671875,231016.828125,112559.0,1.0,3
241540.390625,256420.65625,277276.1875,265554.03125,227970.90625,247020.40625,247039.8125,231068.671875,112560.0,1.0,3
241579.71875,256480.109375,277342.6875,265546.875,228060.765625,247011.46875,247202.609375,231062.59375,112561.0,1.0,3
241273.859375,256254.171875,277150.8125,265356.625,227779.84375,246905.25,246806.90625,231005.015625,112562.0,1.0,3
241044.359375,256054.171875,276963.15625,265238.25,227514.65625,246843.203125,246397.421875,230970.0625,112563.0,1.0,3
241205.828125,256157.53125,277037.46875,265358.21875,227633.84375,246915.359375,246539.03125,231007.25,112564.0,1.0,3
241545.75,256427.625,277275.09375,265546.25,227970.90625,247019.515625,247026.21875,231060.640625,112565.0,1.0,3
241593.046875,256492.984375,277347.25,265546.0625,228071.125,247009.3125,247198.5,231057.421875,112566.0,1.0,3
241287.625,256263.03125,277154.125,265356.875,227792.546875,246898.8125,246804.21875,231005.828125,112567.0,1.0,3
241054.8125,256065.4375,276966.1875,265242.625,227527.0,246836.046875,246391.96875,230976.046875,112568.0,1.0,3
241210.203125,256167.28125,277036.84375,265358.40625,227638.3125,246903.109375,246520.703125,231008.6875,112569.0,1.0,3
241543.953125,256428.515625,277266.0625,265543.125,227970.109375,247007.0,247004.765625,231061.53125,112570.0,1.0,3
241585.359375,256479.125,277328.21875,265534.90625,228062.8125,246998.765625,247175.265625,231054.546875,112571.0,1.0,3
241292.546875,256257.21875,277143.59375,265348.46875,227792.890625,246899.890625,246792.6875,231002.703125,112572.0,1.0,3
241066.34375,256062.3125,276965.5625,265239.03125,227533.265625,246846.78125,246389.8125,230977.390625,112573.0,1.0,3
241217.4375,256160.75,277034.96875,265356.25,227642.421875,246918.296875,246522.40625,231016.46875,112574.0,1.0,3
241551.109375,256424.859375,277268.21875,265544.46875,227975.5625,247024.515625,247012.984375,231070.640625,112575.0,1.0,3
241589.203125,256471.4375,277336.0625,265537.5,228068.8125,247010.5625,247189.5625,231061.890625,112576.0,1.0,3
241287.09375,256242.734375,277146.8125,265349.09375,227793.703125,246901.578125,246804.3125,231007.34375,112577.0,1.0,3
241061.703125,256050.515625,276962.53125,265233.84375,227528.78125,246841.859375,246393.03125,230975.96875,112578.0,1.0,3
241211.453125,256145.375,277034.96875,265353.21875,227640.375,246915.625,246527.140625,231016.109375,112579.0,1.0,3
241537.609375,256397.140625,277261.15625,265538.65625,227970.1875,247015.21875,247014.765625,231069.75,112580.0,1.0,3
241594.03125,256466.96875,277338.21875,265544.375,228077.75,247010.03125,247205.484375,231068.234375,112581.0,1.0,3
241297.546875,256249.890625,277155.75,265359.3125,227808.546875,246903.109375,246826.21875,231013.875,112582.0,1.0,3
241054.453125,256043.0,276961.65625,265236.0,227532.0,246832.46875,246403.234375,230977.03125,112583.0,1.0,3
241193.9375,256132.578125,277018.9375,265346.6875,227628.03125,246899.890625,246515.96875,231013.421875,112584.0,1.0,3
241533.765625,256402.328125,277253.8125,265541.59375,227964.921875,247006.546875,247006.640625,231070.640625,112585.0,1.0,3
241584.640625,256465.8125,277328.84375,265543.46875,228073.453125,246998.046875,247198.59375,231064.65625,112586.0,1.0,3
241281.90625,256241.75,277135.1875,265351.25,227800.234375,246886.734375,246816.734375,231003.859375,112587.0,1.0,3
241053.5625,256051.21875,276948.5,265233.0625,227533.890625,246831.484375,246403.9375,230975.421875,112588.0,1.0,3
241189.109375,256138.390625,277008.5,265341.9375,227633.125,246898.625,246515.4375,231014.59375,112589.0,1.0,3
241514.8125,256392.765625,277234.0625,265529.78125,227965.09375,247002.078125,246998.40625,231071.546875,112590.0,1.0,3
241580.34375,256466.875,277317.9375,265541.25,228086.59375,247009.671875,247207.625,231072.703125,112591.0,1.0,3
241290.765625,256254.625,277139.125,265356.15625,227824.1875,246911.78125,246839.890625,231015.84375,112592.0,1.0,3
241044.625,256043.53125,276944.75,265228.75,227544.609375,246844.09375,246412.265625,230979.1875,112593.0,1.0,3
241174.34375,256116.21875,276994.71875,265333.5625,227631.96875,246901.140625,246509.53125,231014.3125,112594.0,1.0,3
241510.078125,256372.734375,277222.09375,265522.09375,227963.390625,247001.546875,246991.34375,231072.796875,112595.0,1.0,3
241581.15625,256447.65625,277311.03125,265535.96875,228086.6875,247002.4375,247203.6875,231074.84375,112596.0,1.0,3
241290.765625,256230.21875,277129.28125,265350.4375,227821.78125,246895.40625,246832.828125,231014.3125,112597.0,1.0,3
241050.078125,256024.5,276936.25,265226.875,227545.78125,246832.65625,246408.234375,230977.65625,112598.0,1.0,3
241180.4375,256103.96875,276991.9375,265334.53125,227635.8125,246899.96875,246511.234375,231015.84375,112599.0,1.0,3
241512.046875,256364.78125,277217.78125,265520.40625,227962.234375,247000.28125,246993.40625,231067.25,112600.0,1.0,3
241585.796875,256449.0,277309.25,265535.0625,228086.6875,247002.25,247212.265625,231065.90625,112601.0,1.0,3
241288.96875,256229.5,277129.28125,265347.59375,227821.6875,246893.625,246846.6875,231007.875,112602.0,1.0,3
241047.484375,256027.265625,276935.96875,265218.9375,227538.890625,246826.75,246418.25,230970.875,112603.0,1.0,3
241179.453125,256112.640625,276993.75,265325.59375,227624.0,246890.765625,246515.171875,231008.6875,112604.0,1.0,3
241511.140625,256371.484375,277220.46875,265515.75,227951.234375,246991.796875,246995.734375,231065.375,112605.0,1.0,3
241592.59375,256463.125,277315.5,265536.59375,228082.484375,246996.890625,247219.78125,231070.28125,112606.0,1.0,3
241300.328125,256247.921875,277134.03125,265347.6875,227818.46875,246884.5,246849.09375,231011.90625,112607.0,1.0,3
241053.921875,256039.953125,276940.4375,265220.28125,227535.9375,246814.953125,246415.828125,230971.140625,112608.0,1.0,3
241178.90625,256118.1875,276995.96875,265326.3125,227620.15625,246882.8125,246505.328125,231004.578125,112609.0,1.0,3
241509.453125,256378.015625,277225.40625,265519.34375,227951.328125,246991.34375,246990.28125,231062.953125,112610.0,1.0,3
241592.234375,256465.53125,277319.34375,265538.90625,228082.046875,246998.5,247220.59375,231063.84375,112611.0,1.0,3
241310.078125,256258.375,277145.8125,265354.65625,227820.4375,246899.078125,246864.75,231011.640625,112612.0,1.0,3
241064.296875,256052.65625,276955.75,265228.5,227540.59375,246838.640625,246435.5,230977.390625,112613.0,1.0,3
241178.546875,256124.359375,277002.59375,265328.71875,227617.921875,246903.015625,246512.390625,231007.96875,112614.0,1.0,3
241503.1875,256379.53125,277228.875,265518.4375,227947.125,247008.875,246991.53125,231062.15625,112615.0,1.0,3
241586.25,256465.890625,277325.625,265540.4375,228085.703125,247017.8125,247223.984375,231065.453125,112616.0,1.0,3
241295.765625,256249.890625,277144.75,265353.125,227824.640625,246908.828125,246861.890625,231009.40625,112617.0,1.0,3
241044.265625,256037.015625,276943.5,265219.1875,227534.515625,246834.890625,246421.375,230972.296875,112618.0,1.0,3
241154.859375,256101.296875,276984.4375,265314.25,227602.28125,246892.90625,246489.859375,231001.796875,112619.0,1.0,3
241481.828125,256356.90625,277211.90625,265505.75,227930.140625,247000.203125,246968.734375,231058.3125,112620.0,1.0,3
241572.296875,256454.359375,277314.34375,265532.75,228073.546875,247010.84375,247209.59375,231062.328125,112621.0,1.0,3
241292.546875,256248.453125,277143.9375,265352.3125,227823.5625,246911.953125,246859.296875,231006.265625,112622.0,1.0,3
241038.1875,256032.0,276946.71875,265220.8125,227539.078125,246844.984375,246423.4375,230972.484375,112623.0,1.0,3
241145.203125,256095.65625,276986.5,265313.34375,227603.171875,246901.765625,246489.421875,231006.625,112624.0,1.0,3
241478.875,256359.234375,277216.4375,265505.5625,227932.109375,247009.765625,246972.75,231062.0625,112625.0,1.0,3
241573.90625,256459.453125,277319.34375,265533.5625,228077.03125,247019.953125,247221.75,231065.734375,112626.0,1.0,3
241299.078125,256255.15625,277149.9375,265356.625,227828.84375,246918.296875,246874.046875,231012.078125,112627.0,1.0,3
241043.453125,256037.71875,276947.4375,265219.8125,227536.828125,246844.09375,246428.4375,230970.25,112628.0,1.0,3
241146.640625,256093.6875,276984.8125,265313.53125,227600.3125,246903.015625,246491.109375,231004.03125,112629.0,1.0,3
241482.265625,256350.203125,277213.9375,265507.25,227929.421875,247010.296875,246968.8125,231059.203125,112630.0,1.0,3
241584.453125,256450.78125,277319.09375,265536.3125,228078.640625,247020.140625,247213.34375,231062.328125,112631.0,1.0,3
241301.578125,256239.875,277144.03125,265351.34375,227825.4375,246911.0625,246862.875,231006.0,112632.0,1.0,3
241046.234375,256022.4375,276941.625,265217.0625,227536.65625,246832.46875,246420.65625,230967.375,112633.0,1.0,3
241153.34375,256084.9375,276979.15625,265311.03125,227601.03125,246887.453125,246478.0625,230999.390625,112634.0,1.0,3
241477.984375,256338.125,277201.53125,265502.625,227926.921875,246993.40625,246953.53125,231056.875,112635.0,1.0,3
241577.125,256437.828125,277306.75,265534.0,228078.640625,247003.15625,247207.09375,231062.875,112636.0,1.0,3
241302.203125,256238.4375,277139.65625,265356.0,227833.9375,246902.75,246870.296875,231009.140625,112637.0,1.0,3
241040.328125,256017.609375,276933.21875,265213.65625,227537.1875,246822.015625,246420.578125,230967.109375,112638.0,1.0,3
241139.65625,256074.375,276968.15625,265304.5,227597.1875,246881.28125,246471.625,231001.09375,112639.0,1.0,3
241474.484375,256336.515625,277195.875,265499.5,227926.828125,246992.234375,246949.140625,231061.171875,112640.0,1.0,3
241585.09375,256447.203125,277308.1875,265534.1875,228081.953125,247005.65625,247209.5,231069.3125,112641.0,1.0,3
241305.515625,256243.0,277138.75,265352.9375,227835.28125,246902.921875,246870.828125,231013.15625,112642.0,1.0,3
241046.046875,256025.46875,276940.625,265221.625,227550.6875,246837.390625,246432.734375,230979.1875,112643.0,1.0,3
241141.890625,256077.875,276971.03125,265310.3125,227605.234375,246896.125,246475.5625,231012.171875,112644.0,1.0,3
241476.1875,256337.421875,277192.59375,265502.625,227930.5,247005.46875,246944.140625,231069.3125,112645.0,1.0,3
241589.109375,256447.75,277304.78125,265539.90625,228090.71875,247022.28125,247208.0625,231074.21875,112646.0,1.0,3
241306.9375,256239.609375,277134.71875,265356.71875,227844.390625,246914.28125,246868.40625,231010.921875,112647.0,1.0,3
241047.84375,256021.625,276932.59375,265216.96875,227552.03125,246842.390625,246422.8125,230974.0,112648.0,1.0,3
241144.9375,256076.4375,276963.96875,265304.125,227605.234375,246904.171875,246468.765625,231005.109375,112649.0,1.0,3
241477.796875,256333.578125,277189.28125,265499.40625,227935.140625,247014.859375,246947.8125,231061.34375,112650.0,1.0,3
241586.875,256438.53125,277300.59375,265535.78125,228096.34375,247025.953125,247211.5625,231065.90625,112651.0,1.0,3
241311.140625,256236.75,277136.25,265357.40625,227855.125,246921.875,246880.9375,231011.015625,112652.0,1.0,3
241044.171875,256012.78125,276930.78125,265215.34375,227555.25,246845.703125,246431.03125,230972.484375,112653.0,1.0,3
241134.828125,256066.15625,276957.15625,265297.15625,227599.515625,246898.359375,246462.0625,231001.796875,112654.0,1.0,3
241460.453125,256315.421875,277173.1875,265486.0625,227916.375,246993.9375,246925.8125,231051.78125,112655.0,1.0,3
241591.796875,256441.125,277300.84375,265537.3125,228092.046875,247015.21875,247211.46875,231066.359375,112656.0,1.0,3
241314.453125,256237.640625,277136.0,265357.0625,227853.15625,246910.171875,246883.25,231008.6875,112657.0,1.0,3
241040.234375,256007.59375,276927.75,265211.34375,227550.0625,246831.9375,246427.453125,230968.71875,112658.0,1.0,3
241125.625,256057.3125,276949.84375,265291.34375,227587.265625,246884.0625,246454.546875,230997.515625,112659.0,1.0,3
241462.421875,256321.0625,277175.875,265488.59375,227910.828125,246994.203125,246929.484375,231059.828125,112660.0,1.0,3
241589.734375,256445.328125,277297.46875,265535.4375,228083.109375,247012.53125,247213.078125,231073.421875,112661.0,1.0,3
241318.65625,256251.234375,277138.65625,265360.5625,227853.609375,246914.640625,246897.015625,231018.078125,112662.0,1.0,3
241042.65625,256020.921875,276924.28125,265208.65625,227549.796875,246834.4375,246434.96875,230970.25,112663.0,1.0,3
241119.640625,256058.5625,276941.15625,265282.40625,227583.59375,246883.875,246448.921875,230993.9375,112664.0,1.0,3
241451.25,256315.953125,277165.125,265478.125,227908.765625,246991.171875,246914.28125,231050.984375,112665.0,1.0,3
241580.609375,256441.390625,277289.21875,265526.84375,228079.984375,247006.8125,247194.296875,231059.65625,112666.0,1.0,3
241307.5625,256238.53125,277124.53125,265347.9375,227843.328125,246899.96875,246871.984375,231001.53125,112667.0,1.0,3
241039.703125,256012.328125,276920.34375,265204.25,227545.78125,246824.15625,246420.03125,230965.5,112668.0,1.0,3
241123.390625,256058.5625,276942.0625,265283.9375,227583.421875,246880.296875,246439.96875,231000.28125,112669.0,1.0,3
241452.40625,256311.40625,277165.59375,265481.4375,227909.65625,246993.578125,246911.953125,231057.765625,112670.0,1.0,3
241584.90625,256431.921875,277291.09375,265532.375,228085.96875,247012.625,247202.96875,231065.640625,112671.0,1.0,3
241318.46875,256239.34375,277130.09375,265352.59375,227849.765625,246907.75,246885.578125,231006.71875,112672.0,1.0,3
241047.125,256016.890625,276925.0625,265207.84375,227551.765625,246832.109375,246430.59375,230967.5625,112673.0,1.0,3
241116.765625,256050.0625,276936.4375,265283.03125,227579.296875,246880.578125,246435.859375,230995.71875,112674.0,1.0,3
241447.9375,256303.703125,277160.75,265482.3125,227903.140625,246995.640625,246904.71875,231058.046875,112675.0,1.0,3
241586.703125,256431.203125,277291.8125,265535.875,228083.828125,247019.0625,247202.171875,231069.125,112676.0,1.0,3
241321.78125,256238.71875,277134.90625,265360.28125,227853.421875,246917.234375,246890.765625,231008.78125,112677.0,1.0,3
241048.015625,256011.796875,276927.3125,265212.40625,227551.046875,246840.875,246435.234375,230970.515625,112678.0,1.0,3
241123.921875,256050.328125,276944.21875,265289.1875,227582.609375,246895.234375,246446.859375,231003.59375,112679.0,1.0,3
241452.859375,256304.515625,277166.46875,265484.09375,227905.1875,247000.5625,246909.71875,231064.03125,112680.0,1.0,3
241591.796875,256440.234375,277297.625,265534.4375,228090.71875,247020.765625,247207.890625,231069.84375,112681.0,1.0,3
241323.65625,256247.828125,277136.6875,265354.28125,227861.109375,246913.109375,246894.78125,231002.421875,112682.0,1.0,3
241048.640625,256018.40625,276926.875,265207.3125,227556.6875,246832.46875,246432.90625,230962.015625,112683.0,1.0,3
241121.59375,256053.1875,276940.28125,265280.96875,227580.28125,246883.4375,246431.21875,230991.609375,112684.0,1.0,3
241454.546875,256313.1875,277160.84375,265476.6875,227902.421875,246994.5625,246898.546875,231051.875,112685.0,1.0,3
241600.546875,256451.140625,277294.3125,265532.75,228093.578125,247023.53125,247211.734375,231069.578125,112686.0,1.0,3
241337.515625,256262.9375,277138.5,265357.0625,227869.078125,246922.953125,246911.953125,231017.984375,112687.0,1.0,3
241050.25,256023.234375,276923.375,265202.21875,227560.4375,246840.078125,246446.859375,230975.609375,112688.0,1.0,3
241109.078125,256049.078125,276927.3125,265269.25,227574.65625,246882.453125,246433.0,230999.84375,112689.0,1.0,3
241439.890625,256307.015625,277149.3125,265467.125,227894.375,246989.375,246894.78125,231058.3125,112690.0,1.0,3
241590.453125,256446.671875,277288.875,265527.84375,228088.65625,247014.140625,247209.046875,231068.046875,112691.0,1.0,3
241330.28125,256258.921875,277133.65625,265354.8125,227865.140625,246911.15625,246902.5625,231007.609375,112692.0,1.0,3
241046.671875,256022.890625,276916.3125,265201.84375,227555.34375,246826.03125,246429.609375,230960.234375,112693.0,1.0,3
241105.421875,256046.9375,276919.1875,265267.21875,227566.421875,246868.765625,246407.15625,230982.3125,112694.0,1.0,3
241438.015625,256304.515625,277140.375,265464.8125,227884.8125,246980.4375,246869.484375,231046.328125,112695.0,1.0,3
241597.609375,256450.34375,277285.90625,265535.78125,228085.796875,247014.421875,247192.609375,231070.375,112696.0,1.0,3
241337.875,256265.09375,277135.09375,265362.5,227868.0,246913.828125,246899.96875,231012.4375,112697.0,1.0,3
241057.40625,256034.328125,276924.1875,265210.0,227564.46875,246835.59375,246434.96875,230966.125,112698.0,1.0,3
241109.703125,256052.03125,276926.15625,265272.65625,227571.96875,246877.796875,246410.828125,230991.515625,112699.0,1.0,3
241439.265625,256302.90625,277145.90625,265469.28125,227891.25,246990.28125,246870.734375,231053.21875,112700.0,1.0,3
241595.640625,256446.765625,277289.5,265536.3125,228093.65625,247022.640625,247196.984375,231068.765625,112701.0,1.0,3
241342.34375,256265.359375,277141.34375,265366.0,227879.359375,246918.84375,246909.546875,231011.09375,112702.0,1.0,3
241065.359375,256033.703125,276929.0,265212.75,227571.53125,246840.609375,246444.71875,230972.296875,112703.0,1.0,3
241110.421875,256043.625,276920.96875,265266.3125,227568.3125,246877.53125,246409.9375,230991.34375,112704.0,1.0,3
241435.78125,256291.109375,277132.59375,265459.15625,227879.0,246980.171875,246861.890625,231047.125,112705.0,1.0,3
241602.96875,256438.359375,277280.5625,265530.25,228087.3125,247014.328125,247194.5625,231065.90625,112706.0,1.0,3
241355.125,256259.28125,277140.375,265365.8125,227881.328125,246919.828125,246916.96875,231015.21875,112707.0,1.0,3
241072.15625,256024.140625,276929.8125,265212.9375,227572.328125,246840.609375,246450.96875,230969.796875,112708.0,1.0,3
241115.796875,256036.921875,276920.875,265266.65625,227568.9375,246877.890625,246411.8125,230988.21875,112709.0,1.0,3
241440.25,256284.9375,277133.84375,265456.84375,227881.234375,246980.4375,246861.53125,231046.5,112710.0,1.0,3
241607.796875,256438.71875,277283.3125,265528.8125,228088.296875,247010.5625,247192.78125,231064.921875,112711.0,1.0,3
241359.78125,256266.703125,277143.75,265364.21875,227878.640625,246913.46875,246916.25,231011.453125,112712.0,1.0,3
241066.703125,256023.234375,276924.28125,265201.9375,227557.40625,246823.703125,246443.28125,230961.296875,112713.0,1.0,3
241107.390625,256033.25,276914.0,265256.9375,227548.1875,246862.875,246401.078125,230981.5,112714.0,1.0,3
241442.390625,256295.3125,277133.75,265459.53125,227867.1875,246982.140625,246861.890625,231045.796875,112715.0,1.0,3
241603.953125,256441.84375,277278.15625,265528.28125,228074.34375,247016.203125,247197.515625,231063.140625,112716.0,1.0,3
241353.703125,256262.21875,277136.0,265362.25,227869.875,246921.4375,246924.921875,231010.203125,112717.0,1.0,3
241071.0,256027.53125,276919.1875,265206.9375,227558.5625,246838.015625,246453.65625,230967.828125,112718.0,1.0,3
241109.796875,256036.03125,276908.1875,265261.75,227551.671875,246874.21875,246403.59375,230989.203125,112719.0,1.0,3
241437.65625,256290.296875,277126.5,265458.09375,227869.703125,246986.4375,246856.515625,231047.84375,112720.0,1.0,3
241609.765625,256443.546875,277278.9375,265534.34375,228086.953125,247027.015625,247199.671875,231067.78125,112721.0,1.0,3
241367.65625,256269.375,277144.5625,265372.09375,227889.8125,246931.4375,246934.84375,231016.375,112722.0,1.0,3
241076.71875,256028.15625,276929.28125,265211.5,227575.8125,246845.796875,246464.734375,230969.4375,112723.0,1.0,3
241111.671875,256029.5,276916.75,265265.0625,227563.484375,246885.125,246409.484375,230990.8125,112724.0,1.0,3
241440.6875,256282.4375,277132.78125,265463.8125,227877.03125,246991.265625,246853.921875,231050.796875,112725.0,1.0,3
241614.40625,256439.15625,277280.90625,265535.34375,228087.140625,247015.578125,247189.734375,231066.53125,112726.0,1.0,3
241377.125,256275.71875,277149.65625,265376.375,227892.578125,246918.125,246936.625,231021.734375,112727.0,1.0,3
241091.109375,256049.4375,276941.0,265222.0625,227584.671875,246839.0,246478.15625,230984.8125,112728.0,1.0,3
241114.0,256053.8125,276921.84375,265267.75,227564.375,246877.171875,246418.875,231002.15625,112729.0,1.0,3
241430.953125,256301.5625,277130.875,265461.21875,227869.25,246981.25,246861.625,231059.296875,112730.0,1.0,3
241608.15625,256464.28125,277280.03125,265538.5625,228082.046875,247013.96875,247206.8125,231078.78125,112731.0,1.0,3
241365.953125,256299.515625,277138.40625,265372.09375,227877.03125,246914.1875,246942.4375,231020.75,112732.0,1.0,3
241072.421875,256068.21875,276922.46875,265212.75,227562.234375,246832.5625,246471.71875,230978.375,112733.0,1.0,3
241100.40625,256078.578125,276905.59375,265260.59375,227543.546875,246867.875,246407.515625,230995.984375,112734.0,1.0,3
241425.765625,256334.90625,277119.4375,265458.8125,227857.1875,246978.390625,246855.453125,231057.234375,112735.0,1.0,3
241607.609375,256497.28125,277278.6875,265542.40625,228084.28125,247019.0625,247209.5,231082.09375,112736.0,1.0,3
241374.53125,256334.640625,277149.40625,265385.21875,227899.5625,246927.15625,246958.71875,231031.046875,112737.0,1.0,3
241078.59375,256094.953125,276929.1875,265222.0625,227582.34375,246836.671875,246479.9375,230983.296875,112738.0,1.0,3
241100.234375,256087.171875,276908.71875,265269.625,227559.453125,246873.6875,246409.390625,231006.71875,112739.0,1.0,3
241418.609375,256324.0,277118.625,265463.71875,227866.75,246983.921875,246849.640625,231065.375,112740.0,1.0,3
241605.734375,256483.421875,277277.96875,265547.0625,228092.765625,247023.09375,247205.828125,231085.671875,112741.0,1.0,3
241381.328125,256326.0625,277157.53125,265396.21875,227911.625,246935.203125,246964.53125,231035.328125,112742.0,1.0,3
241080.734375,256074.5625,276936.6875,265229.9375,227590.484375,246844.09375,246486.375,230986.875,112743.0,1.0,3
241090.046875,256051.046875,276905.84375,265266.84375,227555.34375,246871.625,246402.328125,230998.9375,112744.0,1.0,3
241418.609375,256298.4375,277121.6875,265466.125,227866.84375,246987.328125,246846.6875,231060.09375,112745.0,1.0,3
241627.375,256480.296875,277295.125,265560.0,228104.21875,247038.109375,247218.890625,231087.453125,112746.0,1.0,3
241403.046875,256325.796875,277173.71875,265402.75,227925.75,246947.0,246981.515625,231038.8125,112747.0,1.0,3
241105.6875,256083.765625,276955.5625,265236.09375,227609.96875,246858.9375,246505.6875,230992.6875,112748.0,1.0,3
241119.09375,256071.78125,276925.34375,265273.46875,227572.59375,246887.640625,246418.15625,231008.515625,112749.0,1.0,3
241436.21875,256309.4375,277133.40625,265465.25,227874.171875,246992.421875,246848.5625,231065.1875,112750.0,1.0,3
241636.9375,256485.65625,277306.3125,265557.0625,228111.546875,247040.25,247218.984375,231092.28125,112751.0,1.0,3
241412.4375,256331.96875,277182.3125,265400.59375,227928.53125,246947.09375,246982.9375,231042.03125,112752.0,1.0,3
241103.71875,256078.859375,276953.875,265229.03125,227600.5,246848.03125,246496.84375,230989.546875,112753.0,1.0,3
241114.890625,256065.796875,276923.46875,265268.90625,227564.546875,246876.8125,246406.171875,231006.453125,112754.0,1.0,3
241445.96875,256320.96875,277142.15625,265471.9375,227879.890625,246993.84375,246850.796875,231073.59375,112755.0,1.0,3
241645.53125,256497.640625,277310.34375,265559.125,228112.171875,247036.671875,247220.9375,231092.015625,112756.0,1.0,3
241419.140625,256342.6875,277189.71875,265401.3125,227932.28125,246944.59375,246989.203125,231041.40625,112757.0,1.0,3
241113.90625,256091.015625,276969.59375,265233.84375,227609.34375,246851.875,246509.890625,230992.859375,112758.0,1.0,3
241115.25,256067.3125,276936.4375,265268.09375,227565.09375,246881.28125,246410.828125,231005.921875,112759.0,1.0,3
241439.359375,256310.859375,277148.6875,265467.3125,227872.203125,246995.453125,246844.71875,231067.25,112760.0,1.0,3
241637.921875,256481.0,277314.0,265555.625,228107.875,247039.1875,247212.625,231090.578125,112761.0,1.0,3
241421.375,256330.265625,277198.46875,265406.9375,227938.984375,246953.890625,246992.515625,231045.609375,112762.0,1.0,3
241116.6875,256079.65625,276979.96875,265239.84375,227618.375,246861.0,246516.78125,230996.265625,112763.0,1.0,3
241113.015625,256056.671875,276940.90625,265266.3125,227564.90625,246878.0625,246406.453125,231003.328125,112764.0,1.0,3
241420.671875,256293.25,277145.375,265458.1875,227860.9375,246984.375,246830.421875,231061.609375,112765.0,1.0,3
241617.625,256469.5625,277310.96875,265548.40625,228095.8125,247032.46875,247207.984375,231086.46875,112766.0,1.0,3
241406.1875,256330.984375,277195.34375,265399.96875,227925.75,246946.015625,246992.59375,231041.40625,112767.0,1.0,3
241105.6875,256089.046875,276973.09375,265230.71875,227600.578125,246854.5625,246513.640625,230989.734375,112768.0,1.0,3
241098.71875,256061.859375,276929.90625,265257.0,227542.828125,246876.015625,246401.890625,230995.71875,112769.0,1.0,3
241409.21875,256301.46875,277134.1875,265449.59375,227841.171875,246986.515625,246827.734375,231057.234375,112770.0,1.0,3
241611.546875,256484.140625,277302.8125,265544.46875,228081.5,247033.28125,247204.765625,231085.578125,112771.0,1.0,3
241399.125,256341.34375,277187.46875,265395.5,227917.4375,246945.84375,246987.5,231035.859375,112772.0,1.0,3
241099.875,256093.875,276968.34375,265225.1875,227600.21875,246853.125,246512.578125,230985.796875,112773.0,1.0,3
241098.359375,256067.671875,276931.25,265255.59375,227551.859375,246880.03125,246403.234375,231003.953125,112774.0,1.0,3
241412.359375,256305.765625,277131.4375,265447.1875,227848.6875,246990.71875,246820.84375,231064.390625,112775.0,1.0,3
241616.375,256480.734375,277298.78125,265541.78125,228088.03125,247035.875,247190.90625,231087.359375,112776.0,1.0,3
241411.28125,256335.625,277187.65625,265396.9375,227928.171875,246947.53125,246976.6875,231038.734375,112777.0,1.0,3
241125.796875,256097.625,276976.84375,265238.5,227619.09375,246861.34375,246511.859375,230996.625,112778.0,1.0,3
241118.65625,256059.8125,276934.1875,265265.5,227561.328125,246883.4375,246397.6875,231006.0,112779.0,1.0,3
241428.4375,256287.625,277135.09375,265456.125,227856.734375,246996.71875,246815.03125,231065.546875,112780.0,1.0,3
241630.6875,256459.375,277302.46875,265549.46875,228096.703125,247048.03125,247189.109375,231096.21875,112781.0,1.0,3
241427.109375,256318.734375,277191.96875,265406.0625,227938.546875,246968.734375,246992.421875,231052.59375,112782.0,1.0,3
241143.6875,256085.640625,276983.375,265243.4375,227626.953125,246883.34375,246536.4375,231001.453125,112783.0,1.0,3
241139.125,256059.09375,276945.0,265266.75,227569.921875,246907.9375,246425.84375,231010.125,112784.0,1.0,3
241433.359375,256282.796875,277139.21875,265447.71875,227854.046875,247015.3125,246836.765625,231061.96875,112785.0,1.0,3
241632.5625,256455.96875,277308.1875,265543.28125,228093.296875,247067.875,247216.921875,231088.34375,112786.0,1.0,3
241432.296875,256315.875,277202.59375,265403.1875,227941.578125,246986.15625,247022.375,231041.328125,112787.0,1.0,3
241152.359375,256081.171875,276994.09375,265241.90625,227636.25,246892.015625,246565.953125,230994.65625,112788.0,1.0,3
241139.03125,256042.203125,276947.59375,265262.46875,227576.796875,246908.46875,246446.234375,231004.75,112789.0,1.0,3
241427.46875,256261.78125,277132.125,265440.3125,227857.8125,247004.765625,246837.5625,231055.0,112790.0,1.0,3
241609.9375,256423.0625,277288.25,265528.71875,228094.28125,247043.921875,247197.875,231078.609375,112791.0,1.0,3
241407.609375,256276.171875,277177.5625,265385.6875,227940.515625,246954.25,246997.609375,231031.046875,112792.0,1.0,3
241139.390625,256048.984375,276972.71875,265230.46875,227636.53125,246866.890625,246547.53125,230988.21875,112793.0,1.0,3
241138.5,256026.640625,276933.03125,265260.6875,227583.5,246897.109375,246436.9375,231006.71875,112794.0,1.0,3
241417.359375,256241.578125,277115.15625,265436.71875,227856.5625,246999.390625,246824.875,231058.21875,112795.0,1.0,3
241606.984375,256409.75,277278.21875,265530.5,228092.046875,247051.703125,247191.53125,231086.46875,112796.0,1.0,3
241415.03125,256278.3125,277179.875,265398.71875,227947.03125,246974.984375,247007.53125,231043.109375,112797.0,1.0,3
241133.671875,256043.09375,276967.28125,265234.84375,227635.09375,246876.375,246553.171875,230990.09375,112798.0,1.0,3
241111.40625,256005.984375,276912.375,265248.6875,227559.1875,246883.34375,246414.671875,230994.296875,112799.0,1.0,3
241379.71875,256216.984375,277088.59375,265420.8125,227827.234375,246982.671875,246787.765625,231046.953125,112800.0,1.0,3
241560.234375,256376.75,277241.5625,265509.3125,228060.3125,247031.40625,247144.40625,231072.53125,112801.0,1.0,3
241370.0625,256245.234375,277136.0625,265374.3125,227915.390625,246947.890625,246955.234375,231028.984375,112802.0,1.0,3
241106.40625,256031.90625,276936.15625,265222.5,227614.890625,246860.28125,246514.625,230984.453125,112803.0,1.0,3
241080.921875,255997.140625,276887.78125,265237.25,227543.984375,246874.84375,246382.75,230990.984375,112804.0,1.0,3
241335.375,256199.546875,277058.28125,265402.65625,227806.390625,246971.140625,246752.546875,231040.609375,112805.0,1.0,3
241507.03125,256356.28125,277206.96875,265487.59375,228032.5,247014.859375,247103.546875,231062.0625,112806.0,1.0,3
241319.640625,256227.984375,277099.6875,265352.875,227882.484375,246931.0,246913.75,231015.921875,112807.0,1.0,3
241052.21875,256004.28125,276892.34375,265195.5,227577.515625,246837.828125,246464.46875,230970.59375,112808.0,1.0,3
241021.375,255955.921875,276836.125,265207.125,227501.34375,246839.53125,246318.03125,230974.359375,112809.0,1.0,3
241282.09375,256158.421875,277006.0,265373.96875,227761.96875,246931.09375,246674.578125,231023.265625,112810.0,1.0,3
241463.578125,256319.984375,277159.3125,265462.28125,227989.5,246975.703125,247018.609375,231045.609375,112811.0,1.0,3
241288.796875,256199.375,277067.84375,265338.5625,227853.0625,246901.21875,246842.75,231009.484375,112812.0,1.0,3
241026.828125,255976.125,276866.34375,265183.15625,227551.765625,246811.8125,246400.640625,230962.90625,112813.0,1.0,3
240997.0625,255928.375,276809.28125,265190.3125,227468.4375,246822.640625,246253.828125,230966.75,112814.0,1.0,3
241247.125,256126.421875,276977.375,265354.1875,227718.421875,246919.734375,246606.1875,231016.109375,112815.0,1.0,3
241426.203125,256291.734375,277131.875,265442.09375,227942.65625,246970.78125,246955.40625,231038.734375,112816.0,1.0,3
241258.125,256182.125,277047.28125,265322.28125,227815.25,246906.140625,246799.5625,231006.265625,112817.0,1.0,3
241000.71875,255970.3125,276853.1875,265171.0,227522.34375,246821.296875,246373.09375,230964.96875,112818.0,1.0,3
240973.71875,255935.625,276800.96875,265181.1875,227443.9375,246830.765625,246226.109375,230965.6875,112819.0,1.0,3
241210.296875,256128.65625,276959.9375,265342.3125,227691.859375,246920.625,246571.671875,231011.8125,112820.0,1.0,3
241386.25,256294.765625,277108.34375,265430.46875,227918.609375,246960.0625,246916.515625,231035.328125,112821.0,1.0,3
241221.46875,256189.0,277022.53125,265308.875,227792.09375,246885.21875,246758.359375,230997.875,112822.0,1.0,3
240967.1875,255982.03125,276827.96875,265158.59375,227498.484375,246798.046875,246332.234375,230955.21875,112823.0,1.0,3
240934.03125,255943.578125,276772.1875,265169.84375,227419.625,246811.015625,246186.421875,230962.28125,112824.0,1.0,3
241170.953125,256130.53125,276931.0625,265330.0625,227669.15625,246905.25,246529.375,231010.03125,112825.0,1.0,3
241355.3125,256296.828125,277087.96875,265425.625,227905.640625,246955.671875,246882.546875,231033.09375,112826.0,1.0,3
241200.1875,256192.046875,277004.8125,265306.09375,227783.15625,246880.296875,246726.4375,230993.671875,112827.0,1.0,3
240953.15625,255977.46875,276810.8125,265155.09375,227488.28125,246786.6875,246297.28125,230947.796875,112828.0,1.0,3
240925.984375,255928.734375,276752.15625,265160.0,227403.796875,246792.78125,246144.9375,230951.5625,112829.0,1.0,3
241181.40625,256127.671875,276920.15625,265327.1875,227660.84375,246897.921875,246496.03125,231005.109375,112830.0,1.0,3
241372.125,256293.515625,277082.34375,265423.5,227897.765625,246954.875,246855.890625,231033.546875,112831.0,1.0,3
241215.484375,256177.828125,277003.40625,265305.75,227778.140625,246883.078125,246711.0625,230996.703125,112832.0,1.0,3
240979.625,255974.15625,276822.53125,265162.34375,227494.546875,246804.9375,246303.1875,230951.46875,112833.0,1.0,3
240948.421875,255928.921875,276766.71875,265168.875,227410.6875,246821.03125,246163.171875,230959.0625,112834.0,1.0,3
241187.671875,256118.109375,276929.46875,265330.5,227661.109375,246922.765625,246514.1875,231006.09375,112835.0,1.0,3
241377.75,256289.046875,277089.40625,265426.1875,227897.40625,246973.109375,246876.28125,231028.796875,112836.0,1.0,3
241232.546875,256193.03125,277015.375,265313.4375,227784.046875,246896.125,246742.96875,230988.390625,112837.0,1.0,3
240992.3125,255992.65625,276834.3125,265169.125,227504.015625,246809.671875,246339.921875,230950.21875,112838.0,1.0,3
240952.703125,255938.9375,276772.8125,265169.3125,227415.515625,246807.796875,246188.734375,230953.078125,112839.0,1.0,3
241189.28125,256126.421875,276928.125,265327.65625,227660.21875,246896.578125,246531.96875,230998.671875,112840.0,1.0,3
241386.875,256308.625,277091.8125,265426.34375,227907.0625,246951.828125,246903.546875,231028.625,112841.0,1.0,3
241249.625,256219.046875,277021.90625,265318.71875,227804.96875,246880.84375,246779.625,230997.25,112842.0,1.0,3
241006.984375,256016.984375,276836.90625,265175.125,227524.59375,246789.015625,246369.34375,230954.859375,112843.0,1.0,3
240972.734375,255970.140625,276780.59375,265180.3125,227441.34375,246797.328125,246217.53125,230962.828125,112844.0,1.0,3
241209.21875,256154.84375,276934.0,265334.34375,227685.96875,246890.140625,246553.078125,231006.71875,112845.0,1.0,3
241413.421875,256334.5625,277102.71875,265439.125,227938.265625,246946.640625,246928.765625,231039.53125,112846.0,1.0,3
241277.609375,256238.4375,277032.625,265331.03125,227835.28125,246877.359375,246809.140625,231005.828125,112847.0,1.0,3
241041.140625,256033.703125,276850.0625,265189.96875,227556.859375,246795.453125,246402.421875,230970.953125,112848.0,1.0,3
241004.484375,255979.96875,276785.59375,265191.9375,227464.328125,246804.21875,246238.359375,230979.0,112849.0,1.0,3
241249.0,256170.5,276942.5,265350.71875,227707.953125,246902.125,246575.25,231025.046875,112850.0,1.0,3
241454.46875,256350.734375,277110.15625,265454.78125,227957.671875,246962.5625,246954.515625,231056.15625,112851.0,1.0,3
241319.640625,256253.640625,277045.0625,265347.75,227857.984375,246897.46875,246836.5,231017.890625,112852.0,1.0,3
241070.640625,256041.5625,276861.25,265200.59375,227575.28125,246814.59375,246426.921875,230969.34375,112853.0,1.0,3
241016.546875,255979.96875,276792.3125,265193.34375,227473.359375,246819.953125,246257.9375,230964.4375,112854.0,1.0,3
241254.109375,256165.21875,276948.0625,265349.0,227712.15625,246918.65625,246587.40625,231007.25,112855.0,1.0,3
241460.90625,256347.34375,277117.5625,265456.40625,227961.78125,246979.453125,246964.34375,231034.4375,112856.0,1.0,3
241320.890625,256258.296875,277051.3125,265348.125,227862.28125,246911.78125,246851.609375,230997.953125,112857.0,1.0,3
241066.796875,256047.5625,276868.75,265196.40625,227574.203125,246826.125,246441.046875,230953.796875,112858.0,1.0,3
241012.703125,255987.65625,276803.03125,265187.28125,227467.359375,246829.703125,246270.375,230955.3125,112859.0,1.0,3
241254.109375,256181.671875,276962.90625,265349.5625,227708.765625,246929.390625,246613.328125,231008.953125,112860.0,1.0,3
241461.703125,256368.796875,277137.25,265457.71875,227963.84375,246986.4375,247003.59375,231036.046875,112861.0,1.0,3
241322.671875,256276.890625,277075.90625,265349.90625,227866.03125,246915.171875,246895.953125,230999.84375,112862.0,1.0,3
241062.40625,256060.34375,276885.03125,265193.8125,227571.4375,246819.5,246477.703125,230958.0,112863.0,1.0,3
241005.015625,255994.453125,276814.03125,265183.34375,227461.203125,246819.6875,246294.59375,230960.859375,112864.0,1.0,3
241243.109375,256180.953125,276970.75,265339.71875,227698.03125,246915.53125,246625.578125,231010.5625,112865.0,1.0,3
241460.0,256368.796875,277146.53125,265450.9375,227953.203125,246970.34375,247011.828125,231038.8125,112866.0,1.0,3
241331.96875,256285.03125,277089.21875,265352.3125,227865.046875,246904.71875,246906.671875,231003.953125,112867.0,1.0,3
241069.828125,256068.75,276897.8125,265199.25,227574.65625,246812.625,246487.359375,230960.765625,112868.0,1.0,3
241002.421875,255992.84375,276819.75,265186.28125,227462.1875,246814.234375,246300.5,230964.078125,112869.0,1.0,3
241240.953125,256177.640625,276974.59375,265348.125,227703.578125,246914.375,246628.53125,231015.921875,112870.0,1.0,3
241460.453125,256368.359375,277146.4375,265459.78125,227961.703125,246978.109375,247017.0,231042.75,112871.0,1.0,3
241337.25,256286.984375,277091.09375,265361.8125,227882.125,246919.109375,246925.984375,231014.40625,112872.0,1.0,3
241081.375,256071.15625,276903.78125,265208.1875,227597.1875,246830.953125,246513.015625,230981.59375,112873.0,1.0,3
241013.953125,255992.484375,276821.28125,265192.1875,227479.34375,246826.21875,246317.84375,230979.359375,112874.0,1.0,3
241250.25,256169.6875,276970.5,265349.5625,227714.84375,246923.578125,246635.515625,231014.59375,112875.0,1.0,3
241476.546875,256361.203125,277150.28125,265468.8125,227984.40625,246987.765625,247027.296875,231043.90625,112876.0,1.0,3
241351.46875,256281.53125,277090.75,265367.78125,227905.8125,246919.203125,246932.78125,231008.15625,112877.0,1.0,3
241089.765625,256062.578125,276898.25,265211.96875,227618.015625,246826.75,246515.078125,230968.0,112878.0,1.0,3
241024.328125,255986.3125,276819.125,265197.46875,227506.890625,246826.125,246323.75,230972.921875,112879.0,1.0,3
241259.90625,256163.703125,276968.0,265353.5,227742.46875,246924.296875,246644.453125,231019.6875,112880.0,1.0,3
241485.578125,256354.3125,277143.6875,265469.90625,228006.578125,246988.84375,247040.25,231053.21875,112881.0,1.0,3
241371.671875,256280.546875,277097.09375,265377.96875,227935.140625,246929.203125,246958.890625,231023.4375,112882.0,1.0,3
241127.859375,256076.078125,276920.4375,265233.3125,227659.234375,246849.8125,246554.421875,230989.375,112883.0,1.0,3
241060.09375,255999.1875,276842.09375,265215.09375,227538.265625,246842.75,246353.25,230983.75,112884.0,1.0,3
241289.15625,256168.171875,276983.1875,265366.28125,227759.546875,246925.984375,246657.765625,231023.96875,112885.0,1.0,3
241517.671875,256361.015625,277163.34375,265485.8125,228024.015625,246993.3125,247056.4375,231058.3125,112886.0,1.0,3
241411.71875,256292.890625,277122.21875,265396.03125,227954.8125,246939.046875,246986.609375,231032.921875,112887.0,1.0,3
241160.84375,256077.953125,276941.625,265243.6875,227672.5625,246853.21875,246582.21875,230990.1875,112888.0,1.0,3
241093.609375,255999.1875,276860.6875,265222.78125,227547.296875,246850.078125,246378.828125,230987.671875,112889.0,1.0,3
241325.359375,256174.515625,277010.625,265378.34375,227775.375,246949.59375,246694.0625,231035.328125,112890.0,1.0,3
241555.671875,256370.859375,277194.46875,265496.96875,228046.453125,247018.34375,247100.78125,231067.96875,112891.0,1.0,3
241451.609375,256306.03125,277154.75,265407.21875,227979.21875,246960.5,247032.75,231038.1875,112892.0,1.0,3
241192.765625,256089.765625,276970.75,265249.40625,227690.96875,246869.484375,246619.5,230993.75,112893.0,1.0,3
241103.265625,255998.65625,276873.84375,265219.8125,227552.03125,246856.078125,246395.71875,230986.0625,112894.0,1.0,3
241333.5,256179.171875,277020.84375,265378.59375,227783.0625,246957.1875,246707.484375,231037.203125,112895.0,1.0,3
241559.421875,256378.015625,277201.96875,265498.40625,228051.8125,247025.765625,247109.984375,231070.28125,112896.0,1.0,3
241448.65625,256311.3125,277157.625,265406.78125,227986.28125,246972.84375,247046.0625,231042.03125,112897.0,1.0,3
241191.609375,256100.84375,276974.6875,265252.90625,227704.828125,246886.734375,246639.53125,230999.84375,112898.0,1.0,3
241113.109375,256021.28125,276887.96875,265229.65625,227575.28125,246883.171875,246424.15625,231000.546875,112899.0,1.0,3
241341.546875,256199.46875,277032.0,265384.40625,227798.984375,246984.734375,246730.71875,231047.3125,112900.0,1.0,3
241567.03125,256393.5625,277212.875,265504.40625,228067.203125,247053.21875,247137.265625,231079.40625,112901.0,1.0,3
241453.296875,256325.265625,277168.0,265411.875,228002.5625,246994.65625,247072.53125,231049.1875,112902.0,1.0,3
241191.703125,256111.125,276976.9375,265250.65625,227709.75,246901.671875,246654.546875,231004.484375,112903.0,1.0,3
241107.828125,256024.5,276884.75,265223.21875,227570.8125,246893.890625,246430.3125,231001.453125,112904.0,1.0,3
241324.734375,256185.0625,277019.125,265371.0,227779.125,246980.4375,246719.28125,231041.859375,112905.0,1.0,3
241554.15625,256377.46875,277202.875,265492.78125,228045.203125,247046.421875,247118.3125,231071.8125,112906.0,1.0,3
241443.640625,256308.265625,277160.9375,265403.375,227980.109375,246984.46875,247051.609375,231037.03125,112907.0,1.0,3
241184.1875,256094.671875,276974.6875,265246.1875,227689.546875,246889.25,246633.984375,230990.890625,112908.0,1.0,3
241106.3125,256013.046875,276888.59375,265222.78125,227555.609375,246882.890625,246410.65625,230988.578125,112909.0,1.0,3
241328.9375,256183.546875,277032.09375,265378.0625,227772.78125,246975.796875,246706.765625,231033.90625,112910.0,1.0,3
241552.546875,256378.71875,277212.53125,265498.0625,228038.40625,247038.828125,247106.6875,231065.453125,112911.0,1.0,3
241451.421875,256322.84375,277181.21875,265414.8125,227984.859375,246988.3125,247060.640625,231040.25,112912.0,1.0,3
241192.859375,256115.0625,276998.65625,265258.90625,227699.5625,246898.359375,246653.84375,230997.59375,112913.0,1.0,3
241106.40625,256031.28125,276907.09375,265233.21875,227561.6875,246888.0,246427.8125,230992.6875,112914.0,1.0,3
241319.8125,256199.46875,277040.84375,265377.4375,227767.421875,246973.28125,246711.140625,231034.171875,112915.0,1.0,3
241555.671875,256406.796875,277226.5625,265501.90625,228037.6875,247047.40625,247117.328125,231067.0625,112916.0,1.0,3
241456.25,256354.046875,277193.21875,265418.65625,227985.65625,246995.546875,247073.515625,231038.109375,112917.0,1.0,3
241189.015625,256137.328125,277003.125,265257.09375,227696.78125,246899.796875,246666.265625,230994.203125,112918.0,1.0,3
241101.03125,256052.75,276907.8125,265227.6875,227552.84375,246888.703125,246435.234375,230994.109375,112919.0,1.0,3
241313.921875,256217.796875,277042.375,265378.34375,227766.875,246980.703125,246720.359375,231042.390625,112920.0,1.0,3
241543.59375,256413.953125,277219.9375,265500.90625,228036.171875,247046.15625,247120.453125,231072.703125,112921.0,1.0,3
241449.71875,256359.40625,277185.59375,265418.5625,227989.6875,246990.1875,247078.96875,231041.859375,112922.0,1.0,3
241194.015625,256147.515625,277002.21875,265262.5625,227713.234375,246901.765625,246675.46875,231002.703125,112923.0,1.0,3
241096.75,256045.5,276894.75,265224.5625,227565.890625,246883.171875,246431.03125,230995.90625,112924.0,1.0,3
241313.375,256205.546875,277023.78125,265371.53125,227778.0625,246975.078125,246710.4375,231040.96875,112925.0,1.0,3
241546.109375,256398.578125,277204.125,265493.40625,228048.515625,247044.984375,247112.40625,231071.0,112926.0,1.0,3
241452.578125,256345.375,277166.21875,265410.15625,228001.03125,246991.078125,247069.578125,231040.6875,112927.0,1.0,3
241190.625,256126.953125,276972.09375,265250.125,227713.421875,246891.65625,246657.0625,230997.15625,112928.0,1.0,3
241100.59375,256031.5625,276872.5,265220.8125,227569.296875,246881.109375,246420.3125,230996.078125,112929.0,1.0,3
241312.65625,256189.8125,277002.84375,265367.0,227774.65625,246974.546875,246695.234375,231039.0,112930.0,1.0,3
241556.125,256396.15625,277190.25,265495.03125,228049.140625,247050.53125,247103.546875,231070.640625,112931.0,1.0,3
241477.078125,256353.875,277165.59375,265417.40625,228012.5625,247002.53125,247073.328125,231042.21875,112932.0,1.0,3
241214.3125,256135.71875,276975.6875,265257.1875,227726.921875,246907.484375,246663.5,230996.703125,112933.0,1.0,3
241114.359375,256033.703125,276874.46875,265222.59375,227576.359375,246894.96875,246419.859375,230994.03125,112934.0,1.0,3
241317.140625,256184.625,277000.90625,265361.53125,227775.1875,246983.296875,246690.140625,231035.78125,112935.0,1.0,3
241552.1875,256382.65625,277183.71875,265484.5625,228045.296875,247057.234375,247092.640625,231067.15625,112936.0,1.0,3
241466.796875,256334.203125,277158.59375,265405.625,228004.25,247008.15625,247062.421875,231035.953125,112937.0,1.0,3
241218.15625,256127.9375,276982.46875,265252.8125,227726.203125,246920.09375,246667.25,230995.984375,112938.0,1.0,3
241122.21875,256027.359375,276880.5625,265215.625,227565.453125,246898.28125,246416.375,230989.28125,112939.0,1.0,3
241328.75,256181.671875,277010.1875,265360.5625,227759.09375,246982.9375,246682.453125,231034.796875,112940.0,1.0,3
241561.390625,256380.421875,277191.78125,265483.5625,228025.4375,247045.53125,247084.15625,231061.34375,112941.0,1.0,3
241477.078125,256339.109375,277168.4375,265405.15625,227984.9375,246987.953125,247059.296875,231029.703125,112942.0,1.0,3
241213.421875,256131.515625,276981.75,265244.5,227697.328125,246891.75,246657.59375,230991.078125,112943.0,1.0,3
241106.671875,256034.6875,276875.90625,265201.03125,227535.046875,246868.765625,246407.78125,230978.734375,112944.0,1.0,3
241308.109375,256192.21875,277000.25,265339.90625,227725.75,246948.703125,246669.578125,231018.34375,112945.0,1.0,3
241549.0625,256405.015625,277190.625,265474.625,228004.171875,247025.953125,247085.84375,231061.53125,112946.0,1.0,3
241472.875,256375.6875,277173.96875,265408.5625,227979.671875,246980.890625,247078.78125,231040.34375,112947.0,1.0,3
241205.28125,256167.453125,276980.78125,265244.84375,227692.578125,246880.484375,246675.390625,230994.375,112948.0,1.0,3
241089.765625,256065.4375,276870.0,265203.0,227531.5625,246858.9375,246416.375,230989.90625,112949.0,1.0,3
241282.890625,256220.296875,276989.28125,265343.5625,227724.046875,246939.3125,246669.75,231032.203125,112950.0,1.0,3
241522.234375,256433.171875,277171.375,265473.125,228004.078125,247004.140625,247076.28125,231062.421875,112951.0,1.0,3
241449.28125,256404.5625,277157.0,265406.5,227985.921875,246960.234375,247069.84375,231038.734375,112952.0,1.0,3
241188.5625,256195.171875,276972.46875,265250.3125,227708.234375,246870.734375,246675.03125,230998.765625,112953.0,1.0,3
241071.890625,256081.359375,276855.875,265203.625,227540.6875,246846.328125,246412.171875,230989.546875,112954.0,1.0,3
241269.296875,256225.65625,276971.125,265342.03125,227726.5625,246928.9375,246660.28125,231028.171875,112955.0,1.0,3
241519.8125,256431.390625,277160.03125,265478.75,228005.0625,247001.625,247071.453125,231064.921875,112956.0,1.0,3
241456.78125,256396.6875,277150.28125,265418.03125,227988.609375,246962.109375,247071.71875,231045.703125,112957.0,1.0,3
241196.96875,256184.703125,276966.46875,265255.84375,227707.421875,246867.34375,246674.3125,231001.171875,112958.0,1.0,3
241080.921875,256067.234375,276855.34375,265207.75,227540.765625,246848.125,246408.0625,230990.8125,112959.0,1.0,3
241277.796875,256206.609375,276969.875,265342.5625,227728.4375,246931.625,246649.8125,231029.34375,112960.0,1.0,3
241536.1875,256421.375,277164.5,265482.15625,228017.21875,247017.1875,247067.4375,231070.640625,112961.0,1.0,3
241474.125,256389.0,277153.6875,265416.78125,228002.90625,246976.0625,247068.5,231047.84375,112962.0,1.0,3
241217.4375,256174.421875,276973.71875,265255.21875,227724.046875,246877.53125,246673.328125,231002.078125,112963.0,1.0,3
241103.265625,256058.203125,276866.25,265212.3125,227557.046875,246858.3125,246409.578125,230995.546875,112964.0,1.0,3
241293.890625,256196.875,276979.96875,265345.34375,227739.515625,246939.140625,246651.59375,231033.984375,112965.0,1.0,3
241551.46875,256414.578125,277176.9375,265485.71875,228030.359375,247025.953125,247076.015625,231077.53125,112966.0,1.0,3
241490.84375,256386.5,277172.46875,265424.5625,228018.921875,246985.53125,247086.390625,231054.90625,112967.0,1.0,3
241233.265625,256179.25,276991.25,265262.75,227737.640625,246884.328125,246690.3125,231006.90625,112968.0,1.0,3
241115.515625,256064.8125,276878.03125,265212.21875,227565.171875,246860.359375,246421.640625,230996.34375,112969.0,1.0,3
241306.9375,256207.78125,276992.5625,265348.21875,227743.984375,246944.859375,246663.765625,231037.65625,112970.0,1.0,3
241547.984375,256413.40625,277180.5,265480.53125,228021.953125,247022.1875,247080.9375,231072.875,112971.0,1.0,3
241490.578125,256391.859375,277179.625,265422.78125,228015.875,246986.25,247104.265625,231056.34375,112972.0,1.0,3
241235.765625,256183.734375,277003.03125,265262.90625,227740.953125,246892.375,246717.671875,231017.453125,112973.0,1.0,3
241114.265625,256062.40625,276887.15625,265208.03125,227562.140625,246858.578125,246437.375,230998.234375,112974.0,1.0,3
241301.484375,256200.984375,276994.46875,265336.3125,227734.875,246932.515625,246664.5625,231027.109375,112975.0,1.0,3
