FZ,C3,CZ,C4,PZ,PO7,OZ,PO8,Counter,Validation,Label
220947.359375,231159.421875,325830.4375,321065.21875,211566.953125,225552.71875,226319.109375,208972.8125,17718.0,1.0,3
221111.609375,231355.140625,325913.65625,321211.125,211643.9375,225667.78125,226374.8125,209141.796875,17719.0,1.0,3
221566.6875,232249.65625,326411.125,321899.46875,212350.171875,225971.5,228560.640625,209842.921875,17720.0,1.0,3
221700.34375,232634.640625,326649.5625,322198.71875,212732.921875,226070.203125,229918.375,210133.140625,17721.0,1.0,3
221321.0,231960.421875,326285.78125,321678.53125,212247.796875,225830.765625,228528.1875,209600.09375,17722.0,1.0,3
220947.71875,231161.65625,325817.8125,321054.5625,211564.546875,225581.765625,226329.3125,208976.125,17723.0,1.0,3
221100.515625,231342.171875,325893.71875,321189.40625,211630.890625,225669.296875,226357.296875,209133.484375,17724.0,1.0,3
221558.375,232241.25,326394.6875,321880.875,212344.984375,225955.671875,228543.734375,209837.375,17725.0,1.0,3
221700.265625,232639.203125,326638.3125,322187.96875,212738.546875,226047.046875,229921.671875,210136.890625,17726.0,1.0,3
221317.234375,231968.03125,326272.71875,321666.46875,212253.515625,225804.125,228540.703125,209601.078125,17727.0,1.0,3
220944.5,231170.0625,325810.75,321046.0625,211575.90625,225568.984375,226342.453125,208979.796875,17728.0,1.0,3
221096.84375,231346.5625,325885.6875,321182.34375,211640.0,225666.171875,226354.875,209136.515625,17729.0,1.0,3
221554.609375,232241.96875,326380.28125,321868.625,212344.625,225952.71875,228528.359375,209830.859375,17730.0,1.0,3
221694.453125,232635.984375,326619.625,322172.96875,212731.84375,226038.734375,229910.765625,210127.953125,17731.0,1.0,3
221317.15625,231970.609375,326262.25,321662.53125,212258.796875,225796.265625,228557.59375,209603.21875,17732.0,1.0,3
220943.34375,231166.40625,325793.6875,321037.9375,211576.96875,225548.875,226353.265625,208977.46875,17733.0,1.0,3
221091.671875,231329.5625,325859.75,321160.53125,211626.6875,225633.984375,226333.859375,209122.9375,17734.0,1.0,3
221551.484375,232228.28125,326360.25,321853.34375,212338.1875,225928.671875,228508.0625,209832.015625,17735.0,1.0,3
221690.609375,232624.359375,326603.53125,322161.34375,212733.71875,226021.828125,229911.484375,210134.84375,17736.0,1.0,3
221319.296875,231968.296875,326252.96875,321652.625,212265.140625,225786.6875,228571.28125,209609.75,17737.0,1.0,3
220944.59375,231161.578125,325785.71875,321026.125,211582.609375,225548.15625,226360.6875,208981.40625,17738.0,1.0,3
221091.3125,231321.609375,325848.3125,321144.875,211625.703125,225640.609375,226324.203125,209116.578125,17739.0,1.0,3
221547.109375,232216.84375,326340.3125,321829.0,212324.5,225925.90625,228484.109375,209813.421875,17740.0,1.0,3
221698.5625,232634.828125,326596.09375,322153.75,212740.15625,226030.328125,229917.921875,210134.390625,17741.0,1.0,3
221325.109375,231981.078125,326244.125,321648.3125,212275.328125,225799.125,228592.109375,209613.59375,17742.0,1.0,3
220951.03125,231180.53125,325776.6875,321018.28125,211588.328125,225564.515625,226378.296875,208986.046875,17743.0,1.0,3
221083.703125,231321.4375,325830.4375,321126.0,211621.59375,225656.609375,226317.234375,209117.125,17744.0,1.0,3
221532.4375,232199.59375,326318.5,321805.15625,212310.5625,225947.625,228461.296875,209811.8125,17745.0,1.0,3
221690.25,232625.609375,326576.875,322134.53125,212725.671875,226056.171875,229907.90625,210135.28125,17746.0,1.0,3
221321.265625,231976.515625,326228.46875,321633.03125,212267.546875,225818.4375,228602.484375,209616.28125,17747.0,1.0,3
220937.53125,231160.328125,325753.53125,320996.375,211573.046875,225566.484375,226373.921875,208978.453125,17748.0,1.0,3
221073.96875,231305.15625,325807.1875,321104.8125,211606.125,225648.03125,226296.21875,209108.265625,17749.0,1.0,3
221535.65625,232201.734375,326303.84375,321794.25,212311.0,225936.8125,228451.828125,209808.140625,17750.0,1.0,3
221693.015625,232631.78125,326559.71875,322124.59375,212727.28125,226032.203125,229911.03125,210131.703125,17751.0,1.0,3
221335.828125,232000.125,326222.46875,321634.375,212276.671875,225805.734375,228628.578125,209629.953125,17752.0,1.0,3
220952.71875,231182.671875,325751.84375,320997.09375,211584.84375,225564.34375,226401.28125,208993.109375,17753.0,1.0,3
221080.578125,231308.109375,325797.96875,321092.3125,211605.21875,225646.5,226291.484375,209105.234375,17754.0,1.0,3
221535.65625,232193.859375,326288.375,321772.875,212298.40625,225934.390625,228428.21875,209798.3125,17755.0,1.0,3
221702.40625,232636.609375,326558.8125,322116.1875,212729.703125,226042.75,229913.09375,210133.765625,17756.0,1.0,3
221340.75,232004.5,326220.0625,321625.625,212285.609375,225809.671875,228647.984375,209631.828125,17757.0,1.0,3
220953.796875,231179.71875,325745.65625,320983.03125,211591.71875,225561.296875,226414.59375,208989.09375,17758.0,1.0,3
221076.5625,231296.484375,325787.5,321071.03125,211610.5,225635.6875,226286.203125,209096.375,17759.0,1.0,3
221535.296875,232188.765625,326279.78125,321755.6875,212310.015625,225924.65625,228421.78125,209794.28125,17760.0,1.0,3
221707.234375,232641.96875,326554.4375,322105.8125,212741.5,226040.609375,229921.765625,210138.6875,17761.0,1.0,3
221344.953125,232011.5625,326219.15625,321619.4375,212294.015625,225812.984375,228663.8125,209637.734375,17762.0,1.0,3
220958.0,231189.734375,325743.0625,320975.90625,211595.84375,225570.0625,226423.890625,208992.046875,17763.0,1.0,3
221071.546875,231292.109375,325771.5,321047.0625,211592.890625,225645.15625,226260.8125,209084.84375,17764.0,1.0,3
221535.21875,232184.5625,326267.625,321737.0,212292.5,225945.65625,228394.421875,209789.109375,17765.0,1.0,3
221709.46875,232639.5625,326543.4375,322092.84375,212731.484375,226055.984375,229910.953125,210142.703125,17766.0,1.0,3
221344.78125,232010.046875,326203.96875,321608.0,212289.375,225824.875,228671.140625,209642.296875,17767.0,1.0,3
220962.921875,231190.71875,325727.53125,320967.125,211595.390625,225579.890625,226429.703125,208994.0,17768.0,1.0,3
221075.578125,231288.359375,325756.5,321042.21875,211598.25,225645.4375,226255.453125,209087.53125,17769.0,1.0,3
221525.28125,232168.109375,326242.5,321719.3125,212288.46875,225927.59375,228371.265625,209777.296875,17770.0,1.0,3
221697.84375,232633.125,326522.6875,322077.84375,212733.625,226043.734375,229905.671875,210135.828125,17771.0,1.0,3
221339.859375,232013.0,326191.375,321598.15625,212297.59375,225815.484375,228684.46875,209649.453125,17772.0,1.0,3
220957.734375,231194.75,325720.09375,320958.90625,211607.375,225571.484375,226449.203125,209006.96875,17773.0,1.0,3
221065.828125,231283.53125,325739.9375,321021.21875,211593.515625,225638.375,226249.203125,209089.578125,17774.0,1.0,3
221525.375,232172.59375,326229.90625,321701.53125,212284.265625,225931.53125,228361.96875,209782.84375,17775.0,1.0,3
221704.90625,232646.53125,326514.375,322065.6875,212736.578125,226056.609375,229912.109375,210144.9375,17776.0,1.0,3
221350.140625,232039.1875,326187.59375,321589.6875,212310.5625,225839.4375,228716.375,209663.21875,17777.0,1.0,3
220952.71875,231203.140625,325703.65625,320937.8125,211607.109375,225592.328125,226466.546875,209016.0,17778.0,1.0,3
221062.25,231292.375,325727.34375,321004.5,211598.703125,225660.890625,226255.8125,209099.6875,17779.0,1.0,3
221515.0,232166.59375,326212.1875,321678.09375,212278.90625,225947.8125,228353.296875,209783.296875,17780.0,1.0,3
221698.828125,232640.1875,326499.1875,322045.375,212731.9375,226064.484375,229913.8125,210146.90625,17781.0,1.0,3
221352.109375,232034.625,326175.8125,321578.40625,212310.296875,225836.21875,228729.796875,209663.21875,17782.0,1.0,3
220953.53125,231193.84375,325690.875,320923.78125,211604.78125,225574.171875,226474.765625,209005.453125,17783.0,1.0,3
221051.25,231260.453125,325699.4375,320971.34375,211574.375,225624.421875,226222.28125,209072.78125,17784.0,1.0,3
221509.546875,232141.03125,326182.96875,321649.65625,212256.109375,225910.703125,228308.78125,209758.703125,17785.0,1.0,3
221705.71875,232636.4375,326483.09375,322035.46875,212725.671875,226036.765625,229896.734375,210133.671875,17786.0,1.0,3
221356.21875,232036.6875,326160.59375,321569.46875,212304.921875,225811.8125,228724.34375,209649.1875,17787.0,1.0,3
220963.28125,231202.703125,325681.125,320922.15625,211605.578125,225562.546875,226470.390625,208995.609375,17788.0,1.0,3
221073.421875,231278.34375,325700.875,320979.46875,211585.921875,225631.84375,226220.234375,209074.828125,17789.0,1.0,3
221525.734375,232148.71875,326181.09375,321649.65625,212262.375,225911.140625,228300.1875,209759.953125,17790.0,1.0,3
221718.9375,232642.875,326478.09375,322030.09375,212727.90625,226035.421875,229893.328125,210133.765625,17791.0,1.0,3
221369.09375,232048.765625,326162.21875,321570.625,212318.0625,225811.734375,228747.5,209663.03125,17792.0,1.0,3
220976.328125,231212.53125,325684.15625,320919.75,211618.546875,225559.59375,226493.71875,209011.171875,17793.0,1.0,3
221071.453125,231269.671875,325690.78125,320961.40625,211580.90625,225621.296875,226210.03125,209072.953125,17794.0,1.0,3
221523.140625,232143.703125,326166.40625,321631.59375,212254.765625,225908.5625,228281.421875,209756.5625,17795.0,1.0,3
221719.84375,232645.734375,326466.09375,322020.53125,212729.875,226039.453125,229896.28125,210137.25,17796.0,1.0,3
221379.203125,232058.859375,326153.90625,321565.4375,212322.0,225829.15625,228766.359375,209666.890625,17797.0,1.0,3
220978.390625,231208.78125,325663.21875,320901.875,211607.90625,225573.71875,226495.875,209006.609375,17798.0,1.0,3
221068.6875,231260.90625,325666.1875,320937.625,211567.234375,225628.890625,226192.328125,209062.578125,17799.0,1.0,3
221517.421875,232129.578125,326145.84375,321611.84375,212246.71875,225921.96875,228261.125,209747.703125,17800.0,1.0,3
221720.546875,232636.875,326447.15625,322006.21875,212723.34375,226057.6875,229886.71875,210137.078125,17801.0,1.0,3
221387.515625,232068.25,326140.84375,321563.21875,212329.953125,225847.765625,228784.234375,209680.296875,17802.0,1.0,3
220986.96875,231224.6875,325652.78125,320905.1875,211625.515625,225593.125,226521.625,209021.546875,17803.0,1.0,3
221070.125,231264.84375,325649.1875,320931.625,211578.578125,225644.359375,226197.078125,209068.390625,17804.0,1.0,3
221512.859375,232121.453125,326121.0,321590.46875,212242.15625,225918.21875,228245.296875,209745.5625,17805.0,1.0,3
221716.703125,232632.234375,326430.0625,321986.0,212722.546875,226047.578125,229883.59375,210142.4375,17806.0,1.0,3
221378.65625,232064.21875,326127.6875,321543.1875,212335.40625,225832.46875,228793.71875,209687.359375,17807.0,1.0,3
220976.59375,231219.859375,325642.21875,320884.15625,211630.265625,225569.4375,226528.59375,209027.171875,17808.0,1.0,3
221056.890625,231250.71875,325630.96875,320901.875,211570.0,225606.53125,226179.375,209062.140625,17809.0,1.0,3
221512.859375,232124.9375,326112.6875,321571.78125,212247.171875,225894.515625,228234.65625,209745.734375,17810.0,1.0,3
221721.625,232647.15625,326425.6875,321974.125,212738.90625,226037.484375,229894.671875,210148.96875,17811.0,1.0,3
221386.265625,232077.1875,326123.9375,321531.125,212350.703125,225827.109375,228819.015625,209696.296875,17812.0,1.0,3
220977.40625,231219.78125,325631.0625,320863.15625,211633.5625,225567.640625,226539.765625,209026.109375,17813.0,1.0,3
221056.34375,231247.9375,325624.78125,320884.15625,211574.921875,225629.875,226177.21875,209063.75,17814.0,1.0,3
221497.65625,232104.453125,326093.46875,321542.71875,212235.015625,225920.71875,228209.171875,209740.28125,17815.0,1.0,3
221701.234375,232626.59375,326399.3125,321943.71875,212716.828125,226071.015625,229873.9375,210138.953125,17816.0,1.0,3
221381.796875,232083.890625,326107.125,321519.40625,212336.9375,225887.28125,228831.359375,209696.828125,17817.0,1.0,3
220972.75,231235.609375,325611.09375,320853.5,211617.03125,225630.59375,226558.90625,209022.796875,17818.0,1.0,3
221040.875,231246.875,325587.40625,320860.75,211542.640625,225672.4375,226173.015625,209049.265625,17819.0,1.0,3
221484.609375,232102.578125,326053.125,321521.71875,212204.703125,225943.328125,228201.390625,209727.5,17820.0,1.0,3
221706.421875,232638.84375,326374.71875,321942.46875,212707.078125,226079.6875,229893.609375,210140.828125,17821.0,1.0,3
221376.421875,232080.140625,326079.59375,321513.125,212331.84375,225863.671875,228863.71875,209700.765625,17822.0,1.0,3
220966.765625,231218.96875,325583.65625,320848.84375,211618.734375,225586.328125,226592.78125,209035.765625,17823.0,1.0,3
221032.921875,231218.078125,325553.0,320845.375,211531.828125,225592.0625,226172.125,209050.421875,17824.0,1.0,3
221487.375,232084.15625,326028.46875,321511.71875,212200.59375,225854.28125,228200.234375,209732.78125,17825.0,1.0,3
221706.875,232626.5,326347.65625,321931.5625,212702.609375,225987.140625,229902.28125,210149.6875,17826.0,1.0,3
221388.234375,232091.671875,326063.96875,321516.34375,212336.9375,225783.65625,228896.625,209719.28125,17827.0,1.0,3
220975.078125,231236.140625,325565.59375,320846.875,211618.546875,225505.15625,226614.875,209047.296875,17828.0,1.0,3
221038.828125,231235.328125,325536.46875,320843.03125,211532.625,225523.5625,226177.671875,209063.75,17829.0,1.0,3
221483.984375,232094.359375,326009.25,321505.09375,212191.109375,225808.15625,228188.609375,209738.140625,17830.0,1.0,3
221713.484375,232651.359375,326339.96875,321935.15625,212698.671875,225968.09375,229902.359375,210160.859375,17831.0,1.0,3
221396.90625,232127.4375,326060.8125,321524.84375,212342.203125,225779.265625,228912.265625,209734.46875,17832.0,1.0,3
220982.40625,231266.265625,325565.34375,320854.46875,211624.890625,225521.421875,226625.0625,209060.34375,17833.0,1.0,3
221046.25,231255.71875,325534.75,320846.4375,211534.234375,225570.328125,226162.375,209066.6875,17834.0,1.0,3
221494.984375,232110.453125,326007.28125,321506.0625,212192.8125,225862.421875,228161.34375,209741.09375,17835.0,1.0,3
221722.515625,232667.015625,326338.34375,321938.09375,212706.09375,226013.34375,229891.1875,210168.015625,17836.0,1.0,3
221403.96875,232130.484375,326059.40625,321528.59375,212348.90625,225815.65625,228915.21875,209741.71875,17837.0,1.0,3
220995.109375,231269.84375,325568.1875,320862.71875,211636.703125,225556.03125,226634.359375,209069.90625,17838.0,1.0,3
221048.296875,231247.21875,325525.375,320839.375,211534.78125,225584.015625,226148.53125,209064.546875,17839.0,1.0,3
221499.453125,232106.875,325998.96875,321499.28125,212196.828125,225868.046875,228146.765625,209738.859375,17840.0,1.0,3
221727.890625,232668.078125,326337.4375,321937.09375,212717.890625,226020.046875,229894.140625,210171.859375,17841.0,1.0,3
221407.265625,232136.109375,326058.40625,321523.34375,212359.640625,225820.9375,228931.140625,209747.078125,17842.0,1.0,3
220987.328125,231267.078125,325556.3125,320843.40625,211635.984375,225551.828125,226636.953125,209064.375,17843.0,1.0,3
221038.46875,231241.59375,325513.21875,320818.28125,211533.171875,225579.8125,226135.734375,209057.578125,17844.0,1.0,3
221484.34375,232092.84375,325981.34375,321474.875,212192.09375,225863.578125,228123.25,209729.203125,17845.0,1.0,3
221715.28125,232655.390625,326317.4375,321910.09375,212714.5,226020.046875,229878.9375,210159.96875,17846.0,1.0,3
221410.125,232142.453125,326050.625,321511.875,212371.796875,225836.3125,228943.203125,209746.640625,17847.0,1.0,3
220994.390625,231274.046875,325555.3125,320836.59375,211653.421875,225570.78125,226659.484375,209070.1875,17848.0,1.0,3
221045.890625,231240.703125,325510.53125,320808.25,211541.21875,225600.09375,226142.625,209063.390625,17849.0,1.0,3
221490.0625,232085.859375,325976.15625,321462.1875,212188.15625,225882.890625,228115.390625,209734.828125,17850.0,1.0,3
221724.125,232656.71875,326314.75,321906.1875,212712.53125,226029.171875,229880.453125,210172.296875,17851.0,1.0,3
221414.78125,232148.265625,326045.1875,321507.25,212368.3125,225829.34375,228957.515625,209750.921875,17852.0,1.0,3
220992.421875,231281.828125,325542.34375,320823.375,211642.421875,225554.859375,226664.484375,209063.46875,17853.0,1.0,3
221023.359375,231223.71875,325480.03125,320775.53125,211515.640625,225568.265625,226108.5625,209034.859375,17854.0,1.0,3
221476.5625,232073.796875,325948.53125,321430.96875,212168.40625,225853.75,228073.71875,209707.828125,17855.0,1.0,3
221720.734375,232658.6875,326295.15625,321880.96875,212704.03125,226015.75,229862.40625,210155.140625,17856.0,1.0,3
221415.3125,232158.28125,326033.8125,321490.875,212374.03125,225828.625,228967.078125,209754.5,17857.0,1.0,3
220994.84375,231287.90625,325537.15625,320813.34375,211653.859375,225551.828125,226676.5625,209072.421875,17858.0,1.0,3
221031.046875,231229.25,325476.1875,320761.5,211524.671875,225563.984375,226102.65625,209036.828125,17859.0,1.0,3
221477.71875,232071.5625,325943.78125,321412.5625,212174.921875,225848.828125,228058.25,209704.4375,17860.0,1.0,3
221717.25,232652.25,326288.0,321862.375,212705.828125,226002.25,229850.953125,210152.71875,17861.0,1.0,3
221412.453125,232156.5,326024.34375,321474.59375,212376.890625,225807.890625,228968.59375,209748.328125,17862.0,1.0,3
220988.9375,231285.40625,325522.25,320794.5,211652.96875,225538.5,226676.296875,209061.515625,17863.0,1.0,3
221024.25,231227.5625,325466.53125,320747.46875,211523.859375,225566.125,226090.859375,209028.609375,17864.0,1.0,3
221469.234375,232069.59375,325931.53125,321395.125,212170.375,225853.296875,228034.46875,209691.015625,17865.0,1.0,3
221718.5,232669.0625,326288.625,321857.28125,212718.515625,226019.328125,229854.4375,210150.125,17866.0,1.0,3
221417.828125,232177.953125,326035.0625,321479.15625,212400.59375,225829.875,228997.296875,209755.578125,17867.0,1.0,3
220995.1875,231303.90625,325534.9375,320797.78125,211680.6875,225558.171875,226705.171875,209072.5,17868.0,1.0,3
221028.28125,231236.140625,325471.0,320741.375,211546.484375,225575.15625,226099.96875,209033.609375,17869.0,1.0,3
221468.78125,232068.609375,325922.4375,321379.3125,212177.875,225849.375,228023.828125,209687.0,17870.0,1.0,3
221719.921875,232665.9375,326272.53125,321841.09375,212718.96875,226007.796875,229844.078125,210147.890625,17871.0,1.0,3
221424.171875,232181.625,326022.5625,321467.46875,212407.03125,225815.578125,229007.9375,209761.125,17872.0,1.0,3
220999.390625,231305.96875,325525.09375,320787.5,211687.921875,225536.796875,226717.59375,209076.96875,17873.0,1.0,3
221016.734375,231219.328125,325451.6875,320721.25,211540.140625,225537.34375,226084.15625,209022.96875,17874.0,1.0,3
221460.5625,232056.890625,325910.1875,321365.71875,212180.296875,225805.296875,228007.734375,209682.4375,17875.0,1.0,3
221715.546875,232663.515625,326267.0,321833.84375,212729.078125,225951.65625,229843.53125,210148.515625,17876.0,1.0,3
221420.328125,232179.296875,326013.53125,321459.5,212412.296875,225751.640625,229015.453125,209765.046875,17877.0,1.0,3
221004.671875,231305.34375,325516.25,320777.3125,211692.3125,225483.6875,226728.859375,209084.390625,17878.0,1.0,3
221023.71875,231217.90625,325441.59375,320702.21875,211542.828125,225499.34375,226082.1875,209026.375,17879.0,1.0,3
221460.296875,232041.421875,325894.875,321336.125,212170.8125,225785.359375,227985.125,209677.515625,17880.0,1.0,3
221720.375,232656.8125,326261.90625,321815.25,212726.921875,225966.9375,229838.796875,210154.328125,17881.0,1.0,3
221429.265625,232186.453125,326016.21875,321450.5625,212417.484375,225792.953125,229036.453125,209779.53125,17882.0,1.0,3
221005.203125,231314.8125,325516.34375,320769.28125,211693.375,225531.609375,226747.640625,209087.53125,17883.0,1.0,3
221015.046875,231216.828125,325426.75,320685.40625,211523.953125,225544.484375,226068.0625,209016.0,17884.0,1.0,3
221456.265625,232044.5625,325873.6875,321320.5625,212148.375,225829.515625,227959.640625,209669.921875,17885.0,1.0,3
221724.046875,232664.953125,326237.9375,321801.3125,212707.34375,226005.5625,229821.359375,210151.375,17886.0,1.0,3
221438.5625,232201.640625,326000.3125,321447.25,212412.03125,225839.265625,229046.203125,209783.296875,17887.0,1.0,3
221004.765625,231313.75,325491.84375,320755.5,211682.921875,225573.1875,226755.15625,209086.8125,17888.0,1.0,3
221009.40625,231196.890625,325399.75,320664.21875,211509.921875,225577.84375,226054.015625,209012.328125,17889.0,1.0,3
221455.28125,232028.828125,325856.875,321307.78125,212144.34375,225864.5625,227947.484375,209673.40625,17890.0,1.0,3
221721.53125,232653.78125,326223.09375,321790.21875,212706.09375,226035.15625,229824.046875,210156.75,17891.0,1.0,3
221439.28125,232196.1875,325985.28125,321435.34375,212411.953125,225851.6875,229061.9375,209788.828125,17892.0,1.0,3
221010.296875,231316.96875,325481.90625,320747.5625,211690.609375,225567.015625,226775.09375,209096.90625,17893.0,1.0,3
221010.75,231195.90625,325385.625,320649.65625,211514.484375,225554.140625,226051.0625,209016.171875,17894.0,1.0,3
221445.71875,232014.34375,325834.09375,321282.46875,212140.234375,225822.8125,227924.234375,209666.890625,17895.0,1.0,3
221712.421875,232644.484375,326203.875,321766.875,212705.828125,225991.25,229812.421875,210147.0,17896.0,1.0,3
221443.578125,232214.4375,325984.90625,321429.1875,212431.4375,225827.1875,229086.171875,209795.265625,17897.0,1.0,3
221015.671875,231336.8125,325484.15625,320741.1875,211707.59375,225553.515625,226795.828125,209104.78125,17898.0,1.0,3
221011.828125,231203.859375,325385.71875,320637.9375,211521.8125,225552.171875,226056.078125,209015.109375,17899.0,1.0,3
221447.859375,232019.34375,325834.90625,321267.1875,212141.671875,225837.296875,227919.765625,209658.125,17900.0,1.0,3
221714.5625,232649.578125,326206.1875,321754.53125,212708.421875,226022.546875,229814.921875,210145.921875,17901.0,1.0,3
221439.640625,232213.890625,325983.40625,321419.53125,212439.296875,225857.59375,229103.875,209798.046875,17902.0,1.0,3
221007.890625,231325.90625,325474.75,320726.4375,211707.59375,225580.515625,226809.875,209099.234375,17903.0,1.0,3
221007.0,231191.25,325372.46875,320618.96875,211518.6875,225581.5,226048.65625,209008.3125,17904.0,1.0,3
221437.484375,231998.59375,325811.1875,321242.15625,212131.65625,225848.65625,227889.015625,209649.625,17905.0,1.0,3
221703.921875,232630.53125,326179.5625,321732.625,212700.109375,226014.5,229792.578125,210141.546875,17906.0,1.0,3
221439.015625,232212.46875,325962.21875,321404.59375,212434.5625,225845.96875,229105.03125,209801.171875,17907.0,1.0,3
221009.046875,231331.09375,325458.75,320717.6875,211710.734375,225572.03125,226821.046875,209115.59375,17908.0,1.0,3
221006.109375,231193.3125,325355.40625,320608.625,211518.40625,225567.640625,226044.1875,209023.421875,17909.0,1.0,3
221431.40625,231987.78125,325787.5,321220.5,212118.59375,225830.765625,227866.484375,209650.34375,17910.0,1.0,3
221711.96875,232638.578125,326164.8125,321717.34375,212690.8125,226010.65625,229783.984375,210144.234375,17911.0,1.0,3
221444.640625,232216.046875,325948.875,321390.5625,212428.75,225848.921875,229115.40625,209806.453125,17912.0,1.0,3
221007.359375,231324.46875,325440.25,320696.6875,211702.6875,225568.359375,226828.828125,209109.78125,17913.0,1.0,3
220998.6875,231173.640625,325328.9375,320579.65625,211505.0,225560.5,226028.359375,209007.6875,17914.0,1.0,3
221427.65625,231975.265625,325763.09375,321196.0,212109.84375,225830.6875,227845.921875,209643.8125,17915.0,1.0,3
221711.96875,232633.21875,326150.59375,321705.8125,212694.03125,226017.0,229783.453125,210148.78125,17916.0,1.0,3
221448.21875,232219.890625,325941.125,321386.1875,212439.75,225855.0,229134.453125,209817.265625,17917.0,1.0,3
221011.734375,231331.0,325433.71875,320691.40625,211713.859375,225578.90625,226849.828125,209122.84375,17918.0,1.0,3
220990.71875,231170.78125,325316.4375,320563.1875,211507.765625,225563.359375,226026.578125,209013.40625,17919.0,1.0,3
221420.6875,231974.90625,325753.1875,321181.53125,212112.96875,225835.875,227833.21875,209644.171875,17920.0,1.0,3
221708.84375,232638.21875,326143.78125,321694.90625,212704.3125,226028.984375,229781.75,210149.59375,17921.0,1.0,3
221444.640625,232228.28125,325933.6875,321373.84375,212448.609375,225865.8125,229147.234375,209814.765625,17922.0,1.0,3
221005.921875,231336.453125,325425.0625,320677.71875,211719.484375,225584.640625,226861.546875,209111.578125,17923.0,1.0,3
220993.671875,231174.984375,325308.90625,320547.625,211510.8125,225579.09375,226023.171875,208998.921875,17924.0,1.0,3
221423.640625,231971.59375,325745.5625,321162.21875,212115.203125,225853.296875,227825.171875,209630.40625,17925.0,1.0,3
221716.0,232632.5,326138.25,321679.25,212709.3125,226044.546875,229783.90625,210144.671875,17926.0,1.0,3
221461.625,232230.34375,325935.21875,321372.0625,212466.484375,225884.59375,229176.921875,209823.96875,17927.0,1.0,3
221023.171875,231339.046875,325427.8125,320677.53125,211738.53125,225603.859375,226896.0625,209129.546875,17928.0,1.0,3
220999.578125,231165.59375,325301.84375,320536.71875,211512.875,225585.171875,226027.46875,208999.8125,17929.0,1.0,3
221427.203125,231961.765625,325730.90625,321145.3125,212105.375,225856.4375,227804.96875,209621.015625,17930.0,1.0,3
221722.96875,232640.359375,326127.0,321666.46875,212703.59375,226051.515625,229776.921875,210140.921875,17931.0,1.0,3
221474.0625,232254.65625,325930.28125,321366.6875,212466.484375,225896.03125,229189.34375,209830.40625,17932.0,1.0,3
221033.46875,231365.0625,325423.0,320674.5,211737.734375,225604.125,226906.25,209131.96875,17933.0,1.0,3
220998.5,231176.328125,325289.0625,320523.6875,211505.359375,225570.6875,226017.8125,208998.125,17934.0,1.0,3
221423.984375,231968.296875,325719.75,321134.0625,212099.46875,225839.09375,227792.1875,209626.109375,17935.0,1.0,3
221715.09375,232635.0,326107.75,321652.875,212690.625,226025.671875,229762.984375,210144.3125,17936.0,1.0,3
221462.34375,232243.125,325905.71875,321345.9375,212448.609375,225866.359375,229181.03125,209822.625,17937.0,1.0,3
221024.34375,231353.0,325398.78125,320651.0,211722.96875,225588.84375,226900.890625,209122.125,17938.0,1.0,3
220990.015625,231158.171875,325261.09375,320496.21875,211485.875,225565.953125,225995.1875,208982.03125,17939.0,1.0,3
221421.671875,231950.671875,325693.28125,321105.53125,212082.125,225837.03125,227760.703125,209610.375,17940.0,1.0,3
221711.078125,232620.515625,326083.4375,321624.8125,212675.34375,226023.078125,229741.4375,210130.8125,17941.0,1.0,3
221457.875,232236.78125,325888.8125,321329.3125,212445.921875,225863.578125,229189.25,209822.453125,17942.0,1.0,3
221027.109375,231357.203125,325388.5625,320642.59375,211727.453125,225581.0625,226922.078125,209130.171875,17943.0,1.0,3
220989.109375,231155.671875,325248.375,320482.71875,211486.765625,225553.78125,226000.203125,208983.28125,17944.0,1.0,3
221411.109375,231936.828125,325676.1875,321089.1875,212079.4375,225824.953125,227750.25,209607.15625,17945.0,1.0,3
221709.640625,232618.640625,326072.28125,321615.40625,212681.59375,226017.1875,229744.828125,210135.734375,17946.0,1.0,3
221466.546875,232249.484375,325882.46875,321328.4375,212458.96875,225865.28125,229212.40625,209835.765625,17947.0,1.0,3
221022.640625,231356.484375,325372.3125,320630.4375,211736.125,225582.671875,226937.0,209133.65625,17948.0,1.0,3
220978.46875,231142.890625,325226.65625,320459.375,211490.34375,225553.78125,225992.15625,208975.3125,17949.0,1.0,3
221412.453125,231934.234375,325659.375,321069.6875,212085.34375,225832.375,227738.53125,209602.421875,17950.0,1.0,3
221718.234375,232626.234375,326064.84375,321606.9375,212699.296875,226029.703125,229752.25,210141.359375,17951.0,1.0,3
221463.0625,232246.171875,325869.21875,321314.75,212476.5,225866.625,229231.546875,209837.375,17952.0,1.0,3
221028.1875,231360.953125,325368.5625,320625.25,211759.546875,225591.34375,226969.09375,209139.734375,17953.0,1.0,3
220973.734375,231138.421875,325212.0,320444.375,211494.984375,225552.359375,225996.078125,208972.8125,17954.0,1.0,3
221393.234375,231916.171875,325629.875,321042.875,212071.03125,225818.515625,227713.59375,209590.0,17955.0,1.0,3
221711.34375,232625.25,326043.46875,321591.09375,212692.765625,226024.34375,229742.859375,210137.34375,17956.0,1.0,3
221472.53125,232266.28125,325861.1875,321314.21875,212484.359375,225869.125,229252.28125,209845.875,17957.0,1.0,3
221025.5,231362.46875,325346.46875,320610.3125,211750.609375,225584.359375,226971.96875,209141.609375,17958.0,1.0,3
220974.984375,231135.28125,325195.8125,320431.59375,211489.171875,225554.953125,225986.34375,208976.921875,17959.0,1.0,3
221399.21875,231912.140625,325617.8125,321028.5625,212065.21875,225825.578125,227692.578125,209590.171875,17960.0,1.0,3
221705.265625,232608.453125,326019.53125,321567.5,212673.90625,226024.78125,229716.40625,210129.75,17961.0,1.0,3
221480.3125,232272.546875,325853.84375,321309.125,212485.34375,225891.03125,229264.0,209855.078125,17962.0,1.0,3
221033.1875,231373.734375,325345.125,320613.34375,211759.8125,225607.703125,226992.890625,209155.390625,17963.0,1.0,3
220978.125,231138.6875,325186.25,320424.96875,211487.03125,225565.40625,225981.515625,208985.875,17964.0,1.0,3
221396.359375,231908.75,325601.8125,321012.0,212056.015625,225825.765625,227670.234375,209590.796875,17965.0,1.0,3
221709.46875,232614.4375,326014.96875,321558.1875,212678.640625,226021.75,229711.84375,210140.921875,17966.0,1.0,3
221476.390625,232269.421875,325839.53125,321289.4375,212478.90625,225870.734375,229264.359375,209851.78125,17967.0,1.0,3
221037.21875,231380.625,325335.1875,320595.375,211755.15625,225589.734375,227001.734375,209149.21875,17968.0,1.0,3
220976.78125,231135.015625,325171.6875,320400.65625,211479.4375,225547.796875,225972.484375,208969.953125,17969.0,1.0,3
221394.046875,231899.71875,325587.0625,320990.46875,212049.578125,225813.515625,227654.046875,209578.28125,17970.0,1.0,3
221706.78125,232605.140625,325995.65625,321537.09375,212670.328125,226012.09375,229697.890625,210124.921875,17971.0,1.0,3
221489.34375,232282.015625,325840.09375,321286.3125,212493.484375,225882.625,229282.421875,209861.796875,17972.0,1.0,3
221046.515625,231392.25,325337.96875,320591.8125,211776.0,225605.375,227027.390625,209163.34375,17973.0,1.0,3
220970.703125,231126.53125,325159.4375,320379.90625,211481.75,225549.40625,225966.578125,208969.6875,17974.0,1.0,3
221389.65625,231888.984375,325573.125,320966.59375,212047.34375,225810.828125,227630.984375,209572.828125,17975.0,1.0,3
221706.609375,232603.796875,325986.71875,321519.84375,212673.46875,226016.5625,229690.375,210123.3125,17976.0,1.0,3
221478.171875,232274.421875,325818.96875,321263.875,212485.890625,225870.46875,229280.71875,209852.046875,17977.0,1.0,3
221045.796875,231395.015625,325326.09375,320582.6875,211779.484375,225593.578125,227038.84375,209164.328125,17978.0,1.0,3
220973.203125,231128.9375,325151.65625,320375.96875,211489.53125,225547.078125,225972.390625,208969.515625,17979.0,1.0,3
221383.3125,231881.84375,325556.21875,320955.78125,212048.234375,225809.046875,227619.8125,209567.015625,17980.0,1.0,3
221705.984375,232605.140625,325974.0,321513.6875,212677.84375,226018.890625,229686.625,210125.8125,17981.0,1.0,3
221482.90625,232284.25,325815.59375,321267.71875,212501.4375,225885.9375,229304.765625,209863.125,17982.0,1.0,3
221036.046875,231388.21875,325307.3125,320570.34375,211777.421875,225603.234375,227053.859375,209161.90625,17983.0,1.0,3
220959.703125,231118.484375,325126.15625,320356.75,211475.9375,225548.0625,225966.578125,208962.890625,17984.0,1.0,3
221371.234375,231865.203125,325530.71875,320936.46875,212029.640625,225805.375,227599.6875,209564.25,17985.0,1.0,3
221695.078125,232587.703125,325947.5625,321495.875,212661.21875,226012.796875,229671.609375,210125.984375,17986.0,1.0,3
221482.734375,232283.0,325796.1875,321259.40625,212494.46875,225877.703125,229311.828125,209875.375,17987.0,1.0,3
221036.40625,231388.484375,325289.0625,320560.34375,211769.015625,225590.265625,227058.515625,209169.0625,17988.0,1.0,3
220958.53125,231112.3125,325107.75,320339.84375,211467.71875,225538.328125,225952.09375,208959.859375,17989.0,1.0,3
221370.703125,231859.125,325510.09375,320914.1875,212018.109375,225795.90625,227573.671875,209552.625,17990.0,1.0,3
221707.5,232601.5625,325939.0625,321486.9375,212660.40625,226015.84375,229668.296875,210125.546875,17991.0,1.0,3
221493.109375,232301.0625,325788.40625,321253.9375,212498.671875,225886.296875,229330.609375,209882.71875,17992.0,1.0,3
221041.6875,231400.375,325281.90625,320554.875,211775.375,225600.546875,227081.390625,209178.90625,17993.0,1.0,3
220957.90625,231107.75,325092.1875,320325.28125,211462.4375,225546.640625,225949.59375,208962.984375,17994.0,1.0,3
221374.453125,231857.96875,325498.1875,320905.1875,212017.75,225808.59375,227566.078125,209556.015625,17995.0,1.0,3
221711.078125,232601.109375,325929.40625,321481.3125,212661.296875,226023.890625,229666.328125,210127.6875,17996.0,1.0,3
221498.5625,232302.671875,325783.125,321250.375,212502.96875,225890.3125,229345.53125,209882.796875,17997.0,1.0,3
221049.46875,231403.953125,325277.625,320551.84375,211786.28125,225605.015625,227103.5625,209181.84375,17998.0,1.0,3
220960.234375,231106.40625,325084.3125,320315.1875,211469.5,225545.03125,225954.0625,208959.671875,17999.0,1.0,3
221369.8125,231844.828125,325485.21875,320883.09375,212015.96875,225805.640625,227549.171875,209548.15625,18000.0,1.0,3
221703.75,232587.53125,325912.78125,321454.84375,212658.703125,226016.46875,229650.6875,210116.953125,18001.0,1.0,3
221503.5625,232310.359375,325779.90625,321237.9375,212514.40625,225892.375,229358.5,209887.09375,18002.0,1.0,3
221054.109375,231413.34375,325271.90625,320537.09375,211792.984375,225604.03125,227116.796875,209182.46875,18003.0,1.0,3
220964.703125,231109.984375,325077.875,320298.71875,211474.0625,225545.5625,225951.203125,208956.90625,18004.0,1.0,3
221366.59375,231836.328125,325469.5,320862.25,212008.90625,225801.359375,227526.734375,209540.640625,18005.0,1.0,3
221707.046875,232587.078125,325906.40625,321445.1875,212659.609375,226020.765625,229645.046875,210123.84375,18006.0,1.0,3
221510.53125,232317.515625,325775.875,321236.5,212523.34375,225900.953125,229379.515625,209895.9375,18007.0,1.0,3
221063.328125,231423.359375,325271.53125,320540.84375,211804.515625,225614.5,227148.1875,209193.203125,18008.0,1.0,3
220965.25,231109.8125,325068.6875,320292.375,211475.59375,225549.40625,225963.0,208959.046875,18009.0,1.0,3
221361.3125,231828.546875,325454.125,320844.71875,211999.59375,225799.125,227515.828125,209533.21875,18010.0,1.0,3
221704.546875,232587.34375,325890.78125,321429.71875,212652.546875,226024.15625,229640.765625,210119.015625,18011.0,1.0,3
221510.265625,232325.03125,325765.34375,321226.59375,212521.828125,225923.046875,229396.328125,209902.375,18012.0,1.0,3
221057.15625,231425.234375,325257.5,320524.3125,211800.484375,225646.6875,227163.734375,209198.5625,18013.0,1.0,3
220951.296875,231098.625,325045.53125,320264.40625,211461.8125,225577.75,225953.890625,208954.21875,18014.0,1.0,3
221351.03125,231819.609375,325428.8125,320815.0625,211986.015625,225825.40625,227494.28125,209525.359375,18015.0,1.0,3
221689.796875,232571.34375,325861.09375,321397.34375,212631.890625,226038.828125,229616.4375,210107.390625,18016.0,1.0,3
221498.90625,232310.359375,325737.875,321201.125,212505.28125,225910.515625,229386.578125,209894.421875,18017.0,1.0,3
221049.203125,231416.390625,325229.625,320502.21875,211782.4375,225608.0625,227155.6875,209186.234375,18018.0,1.0,3
220952.640625,231098.265625,325029.78125,320251.4375,211450.640625,225542.609375,225942.265625,208944.5625,18019.0,1.0,3
221357.734375,231819.515625,325423.90625,320809.59375,211983.5,225803.59375,227479.078125,209518.734375,18020.0,1.0,3
221709.015625,232586.71875,325865.90625,321399.15625,212639.578125,226029.703125,229617.875,210108.46875,18021.0,1.0,3
221520.375,232338.96875,325745.3125,321206.46875,212519.953125,225915.890625,229413.84375,209903.0,18022.0,1.0,3
221066.71875,231438.5625,325238.71875,320509.46875,211807.640625,225628.71875,227192.890625,209203.390625,18023.0,1.0,3
220965.78125,231110.703125,325033.09375,320250.28125,211468.703125,225558.078125,225951.203125,208954.046875,18024.0,1.0,3
221362.5625,231822.5625,325415.65625,320796.53125,211984.484375,225799.203125,227460.578125,209511.765625,18025.0,1.0,3
221708.578125,232589.046875,325856.0,321385.8125,212641.359375,226016.109375,229601.0625,210100.6875,18026.0,1.0,3
221518.578125,232339.15625,325735.21875,321194.3125,212523.078125,225898.0,229410.53125,209896.65625,18027.0,1.0,3
221068.234375,231446.421875,325228.53125,320499.53125,211806.578125,225613.0625,227197.359375,209197.40625,18028.0,1.0,3
220956.921875,231106.765625,325011.1875,320230.40625,211456.359375,225542.34375,225941.28125,208940.09375,18029.0,1.0,3
221347.1875,231803.34375,325388.03125,320770.96875,211968.21875,225792.78125,227439.65625,209503.8125,18030.0,1.0,3
221697.9375,232570.0,325832.21875,321363.90625,212625.8125,226021.03125,229588.71875,210102.203125,18031.0,1.0,3
221521.265625,232338.53125,325726.0,321185.375,212521.015625,225908.109375,229423.859375,209910.78125,18032.0,1.0,3
221072.984375,231445.984375,325225.84375,320495.34375,211815.25,225623.078125,227218.90625,209207.953125,18033.0,1.0,3
220952.453125,231091.125,324999.375,320217.46875,211459.21875,225550.84375,225941.8125,208939.109375,18034.0,1.0,3
221346.921875,231794.484375,325373.03125,320758.1875,211968.578125,225805.640625,227423.28125,209500.3125,18035.0,1.0,3
221703.296875,232574.46875,325819.4375,321357.5625,212631.171875,226036.59375,229580.953125,210100.0625,18036.0,1.0,3
221531.546875,232356.40625,325719.28125,321188.15625,212538.015625,225935.375,229447.90625,209918.46875,18037.0,1.0,3
221073.421875,231455.640625,325211.8125,320487.03125,211822.9375,225642.5625,227235.359375,209213.234375,18038.0,1.0,3
220947.984375,231091.03125,324982.65625,320202.78125,211455.375,225556.203125,225931.796875,208940.09375,18039.0,1.0,3
221341.828125,231790.46875,325358.8125,320739.78125,211960.171875,225795.359375,227399.5,209498.890625,18040.0,1.0,3
221696.765625,232567.140625,325806.46875,321337.71875,212625.71875,226012.359375,229563.609375,210098.1875,18041.0,1.0,3
221527.4375,232349.34375,325708.125,321166.875,212532.828125,225900.15625,229439.140625,209915.796875,18042.0,1.0,3
221088.890625,231473.15625,325218.6875,320481.46875,211839.828125,225624.6875,227254.046875,209230.046875,18043.0,1.0,3
220959.4375,231107.484375,324982.9375,320187.9375,211472.28125,225548.875,225938.953125,208953.328125,18044.0,1.0,3
221338.15625,231786.265625,325340.28125,320707.59375,211959.71875,225796.96875,227372.59375,209495.40625,18045.0,1.0,3
221704.453125,232580.8125,325798.40625,321318.6875,212638.328125,226048.203125,229557.609375,210109.171875,18046.0,1.0,3
221536.109375,232375.359375,325703.90625,321155.0625,212549.71875,225956.5625,229462.03125,209934.390625,18047.0,1.0,3
221086.75,231484.515625,325206.53125,320464.65625,211838.484375,225674.9375,227272.375,209235.578125,18048.0,1.0,3
220953.53125,231104.171875,324965.21875,320165.40625,211450.640625,225592.6875,225936.09375,208941.96875,18049.0,1.0,3
221339.328125,231789.296875,325328.40625,320690.5,211937.546875,225833.984375,227365.53125,209482.96875,18050.0,1.0,3
221703.921875,232577.6875,325778.3125,321297.65625,212609.0,226073.15625,229547.15625,210093.359375,18051.0,1.0,3
221542.546875,232382.0625,325686.5625,321145.0625,212537.46875,225986.078125,229480.453125,209930.71875,18052.0,1.0,3
221085.9375,231483.625,325176.40625,320450.34375,211829.734375,225688.796875,227293.828125,209230.046875,18053.0,1.0,3
220945.484375,231094.421875,324928.84375,320145.65625,211444.46875,225585.96875,225938.859375,208937.328125,18054.0,1.0,3
221332.703125,231782.328125,325295.0625,320675.75,211940.953125,225823.34375,227364.453125,209487.4375,18055.0,1.0,3
221691.140625,232564.015625,325743.15625,321283.375,212611.0625,226046.6875,229549.296875,210096.484375,18056.0,1.0,3
221529.765625,232371.34375,325654.90625,321135.5,212537.65625,225919.734375,229498.421875,209928.9375,18057.0,1.0,3
221088.984375,231491.578125,325164.0,320456.15625,211841.53125,225609.671875,227333.609375,209241.84375,18058.0,1.0,3
220947.546875,231094.15625,324912.3125,320143.96875,211444.03125,225498.171875,225960.953125,208942.234375,18059.0,1.0,3
221333.15625,231778.03125,325277.625,320670.5625,211931.5625,225740.46875,227372.5,209489.859375,18060.0,1.0,3
221698.734375,232572.328125,325731.1875,321285.875,212605.25,225970.15625,229564.9375,210103.8125,18061.0,1.0,3
221539.328125,232383.234375,325641.6875,321138.71875,212530.765625,225855.71875,229523.375,209942.703125,18062.0,1.0,3
221091.3125,231500.34375,325143.78125,320451.96875,211830.078125,225567.28125,227352.75,209252.03125,18063.0,1.0,3
220943.703125,231095.328125,324888.96875,320133.40625,211430.796875,225476.453125,225954.515625,208946.625,18064.0,1.0,3
221326.171875,231771.859375,325252.59375,320655.46875,211917.96875,225732.0625,227340.671875,209485.75,18065.0,1.0,3
221693.640625,232573.125,325714.5625,321274.25,212598.890625,225977.046875,229540.359375,210103.640625,18066.0,1.0,3
221543.890625,232407.8125,325642.03125,321144.15625,212546.40625,225892.28125,229533.5625,209956.03125,18067.0,1.0,3
221093.8125,231526.171875,325144.9375,320459.125,211846.0,225611.453125,227366.6875,209261.15625,18068.0,1.0,3
220947.71875,231119.90625,324891.03125,320141.375,211442.859375,225524.828125,225957.1875,208952.4375,18069.0,1.0,3
221324.484375,231782.140625,325248.75,320656.09375,211922.53125,225769.53125,227324.140625,209486.734375,18070.0,1.0,3
221688.90625,232578.3125,325703.1875,321272.1875,212599.875,226015.84375,229521.578125,210107.03125,18071.0,1.0,3
221545.21875,232417.828125,325638.03125,321150.25,212557.140625,225943.609375,229539.8125,209968.546875,18072.0,1.0,3
221094.890625,231530.5625,325140.46875,320458.84375,211851.984375,225656.15625,227374.921875,209267.59375,18073.0,1.0,3
220945.84375,231113.828125,324882.71875,320132.59375,211439.640625,225551.734375,225946.46875,208950.203125,18074.0,1.0,3
221322.328125,231772.140625,325234.09375,320644.28125,211915.109375,225789.5625,227298.203125,209480.015625,18075.0,1.0,3
221691.671875,232574.203125,325693.90625,321266.90625,212599.609375,226024.96875,229503.875,210106.5,18076.0,1.0,3
221549.96875,232417.65625,325631.125,321145.6875,212559.828125,225937.515625,229538.390625,209973.546875,18077.0,1.0,3
221099.359375,231530.734375,325135.5625,320452.9375,211861.109375,225643.46875,227382.703125,209274.5625,18078.0,1.0,3
220941.734375,231106.671875,324876.625,320115.34375,211449.921875,225535.109375,225942.796875,208946.890625,18079.0,1.0,3
221327.25,231772.484375,325237.03125,320626.9375,211926.828125,225778.828125,227286.5,209479.03125,18080.0,1.0,3
221704.640625,232583.40625,325704.625,321256.1875,212617.578125,226019.421875,229505.125,210111.421875,18081.0,1.0,3
221557.296875,232419.984375,325634.90625,321132.28125,212570.90625,225924.203125,229552.78125,209976.59375,18082.0,1.0,3
221106.421875,231540.84375,325140.1875,320445.1875,211872.28125,225642.484375,227405.859375,209277.875,18083.0,1.0,3
220944.40625,231110.703125,324872.875,320105.34375,211454.578125,225540.46875,225946.375,208943.578125,18084.0,1.0,3
221318.3125,231760.6875,325221.5625,320607.96875,211921.375,225770.875,227267.09375,209463.84375,18085.0,1.0,3
221692.75,232566.6875,325684.875,321230.71875,212602.109375,226003.6875,229477.234375,210087.1875,18086.0,1.0,3
221563.5625,232432.3125,325634.1875,321125.375,212578.59375,225932.421875,229558.59375,209968.28125,18087.0,1.0,3
221122.0625,231561.40625,325146.625,320446.34375,211892.40625,225653.921875,227428.03125,209283.5,18088.0,1.0,3
220955.3125,231122.328125,324869.5625,320099.96875,211467.984375,225541.265625,225954.15625,208949.125,18089.0,1.0,3
221311.25,231748.0,325193.21875,320578.21875,211908.5,225766.3125,227236.25,209452.484375,18090.0,1.0,3
221697.671875,232568.484375,325664.75,321209.6875,212605.6875,226023.796875,229462.03125,210090.671875,18091.0,1.0,3
221566.859375,232436.96875,325611.8125,321107.5,212583.421875,225950.484375,229560.734375,209978.015625,18092.0,1.0,3
221106.234375,231543.78125,325109.09375,320415.65625,211882.921875,225655.171875,227421.140625,209278.59375,18093.0,1.0,3
220936.8125,231096.125,324828.09375,320063.9375,211451.890625,225537.34375,225925.28125,208935.890625,18094.0,1.0,3
221307.9375,231738.0625,325166.21875,320561.125,211906.34375,225761.75,227208.09375,209450.421875,18095.0,1.0,3
221699.1875,232567.3125,325640.0,321200.9375,212604.34375,226005.390625,229444.515625,210089.0625,18096.0,1.0,3
221574.015625,232445.8125,325594.84375,321104.8125,212589.328125,225921.96875,229566.46875,209981.15625,18097.0,1.0,3
221118.578125,231563.09375,325099.0,320418.4375,211894.640625,225625.765625,227438.125,209288.609375,18098.0,1.0,3
220946.015625,231108.375,324816.71875,320061.875,211459.9375,225505.515625,225928.9375,208941.34375,18099.0,1.0,3
221308.484375,231736.546875,325145.75,320543.53125,211904.734375,225727.5,227190.828125,209443.640625,18100.0,1.0,3
221694.359375,232563.03125,325615.9375,321177.875,212600.0625,225970.875,229429.3125,210079.046875,18101.0,1.0,3
221566.5,232442.328125,325570.0625,321086.59375,212587.09375,225889.515625,229569.328125,209972.65625,18102.0,1.0,3
221112.234375,231559.796875,325080.5625,320403.96875,211895.359375,225601.625,227451.984375,209283.5,18103.0,1.0,3
220937.265625,231102.5625,324798.59375,320039.96875,211452.34375,225492.984375,225925.28125,208933.65625,18104.0,1.0,3
221296.5,231724.75,325129.21875,320520.8125,211890.4375,225724.015625,227168.296875,209436.03125,18105.0,1.0,3
221688.8125,232553.546875,325603.34375,321164.0,212591.125,225981.15625,229414.734375,210081.734375,18106.0,1.0,3
221567.046875,232438.3125,325558.90625,321075.84375,212582.359375,225914.015625,229576.484375,209981.59375,18107.0,1.0,3
221116.34375,231558.546875,325070.03125,320396.28125,211899.203125,225633.625,227471.65625,209294.6875,18108.0,1.0,3
220936.1875,231090.046875,324778.5625,320027.8125,211451.265625,225517.21875,225929.03125,208935.890625,18109.0,1.0,3
221293.8125,231705.609375,325100.59375,320500.59375,211882.296875,225737.34375,227152.5625,209428.34375,18110.0,1.0,3
221690.953125,232543.171875,325582.59375,321145.21875,212586.46875,225990.09375,229402.21875,210080.296875,18111.0,1.0,3
221577.234375,232441.96875,325553.71875,321070.3125,212592.015625,225926.171875,229590.609375,209997.421875,18112.0,1.0,3
221127.0625,231563.71875,325068.59375,320391.0,211906.078125,225634.703125,227489.71875,209308.546875,18113.0,1.0,3
220943.25,231090.9375,324775.96875,320017.1875,211450.28125,225507.75,225929.65625,208944.75,18114.0,1.0,3
221298.46875,231708.125,325099.0,320490.0625,211875.421875,225727.421875,227136.921875,209441.40625,18115.0,1.0,3
221692.921875,232550.515625,325577.40625,321136.28125,212578.15625,225981.78125,229390.59375,210091.921875,18116.0,1.0,3
221576.34375,232456.453125,325547.28125,321061.90625,212589.953125,225911.953125,229600.53125,209994.734375,18117.0,1.0,3
221129.75,231586.25,325064.46875,320386.53125,211912.078125,225635.328125,227514.125,209308.890625,18118.0,1.0,3
220937.265625,231099.078125,324766.125,320001.71875,211450.015625,225521.15625,225933.328125,208930.171875,18119.0,1.0,3
221291.046875,231702.125,325087.625,320464.21875,211872.46875,225746.90625,227118.59375,209416.984375,18120.0,1.0,3
221683.09375,232534.234375,325563.1875,321105.4375,212571.71875,225994.03125,229367.71875,210065.375,18121.0,1.0,3
221571.6875,232449.125,325542.53125,321044.28125,212593.984375,225922.59375,229607.765625,209992.234375,18122.0,1.0,3
221122.15625,231579.109375,325055.96875,320366.3125,211909.5625,225617.984375,227524.765625,209308.265625,18123.0,1.0,3
220926.796875,231085.578125,324752.09375,319979.28125,211442.859375,225479.140625,225931.796875,208929.71875,18124.0,1.0,3
221278.078125,231684.25,325070.90625,320440.875,211862.8125,225693.4375,227105.0,209412.25,18125.0,1.0,3
221684.609375,232537.375,325561.3125,321100.09375,212582.625,225949.859375,229375.484375,210072.796875,18126.0,1.0,3
221585.28125,232471.125,325546.03125,321043.40625,212612.125,225894.515625,229635.84375,210002.15625,18127.0,1.0,3
221137.703125,231604.140625,325067.78125,320370.34375,211936.296875,225621.015625,227563.5625,209322.21875,18128.0,1.0,3
220929.5625,231097.640625,324755.9375,319971.6875,211458.0625,225489.59375,225946.734375,208932.765625,18129.0,1.0,3
221279.15625,231691.75,325073.3125,320432.03125,211874.34375,225714.71875,227104.109375,209414.390625,18130.0,1.0,3
221679.421875,232535.9375,325554.4375,321081.84375,212580.5625,225969.796875,229367.0,210067.421875,18131.0,1.0,3
221591.09375,232481.046875,325547.28125,321037.125,212615.4375,225915.625,229649.078125,210009.046875,18132.0,1.0,3
221136.375,231603.875,325058.03125,320356.84375,211929.0625,225621.109375,227572.78125,209319.453125,18133.0,1.0,3
220938.875,231102.203125,324754.78125,319964.0,211458.0625,225494.15625,225950.3125,208934.109375,18134.0,1.0,3
221279.421875,231686.921875,325064.9375,320414.875,211865.9375,225711.328125,227083.71875,209407.0625,18135.0,1.0,3
221675.9375,232527.4375,325540.46875,321063.6875,212569.21875,225965.234375,229343.125,210059.203125,18136.0,1.0,3
221589.9375,232480.6875,325536.71875,321027.125,212611.140625,225908.5625,229648.265625,210005.5625,18137.0,1.0,3
221141.109375,231613.609375,325054.1875,320355.59375,211937.546875,225624.6875,227592.890625,209326.78125,18138.0,1.0,3
220934.9375,231096.484375,324736.09375,319948.34375,211450.640625,225493.796875,225947.8125,208927.9375,18139.0,1.0,3
221283.71875,231686.390625,325048.5625,320399.9375,211858.34375,225717.578125,227070.9375,209399.90625,18140.0,1.0,3
221686.21875,232534.234375,325531.34375,321055.46875,212567.421875,225974.890625,229342.234375,210059.828125,18141.0,1.0,3
221597.171875,232486.140625,325527.0625,321022.28125,212613.296875,225927.328125,229669.28125,210011.28125,18142.0,1.0,3
221152.734375,231626.484375,325048.90625,320355.40625,211944.53125,225651.421875,227629.46875,209335.1875,18143.0,1.0,3
220932.96875,231088.796875,324720.25,319936.0,211443.125,225512.484375,225960.6875,208925.4375,18144.0,1.0,3
221271.28125,231657.6875,325018.34375,320377.21875,211838.046875,225724.015625,227052.703125,209386.953125,18145.0,1.0,3
221684.609375,232519.75,325510.34375,321045.09375,212562.328125,225988.125,229335.875,210056.703125,18146.0,1.0,3
221597.796875,232479.96875,325511.875,321015.21875,212616.59375,225936.1875,229681.078125,210013.515625,18147.0,1.0,3
221145.125,231608.78125,325024.96875,320336.71875,211938.0,225644.265625,227629.734375,209328.828125,18148.0,1.0,3
220932.515625,231081.828125,324705.25,319923.5625,211445.8125,225507.296875,225955.5,208924.09375,18149.0,1.0,3
221271.46875,231653.484375,325007.96875,320366.125,211840.90625,225727.234375,227036.6875,209384.09375,18150.0,1.0,3
221685.15625,232518.5,325504.09375,321033.84375,212563.671875,226000.5625,229324.265625,210053.75,18151.0,1.0,3
221606.015625,232496.0625,325511.25,321014.4375,212629.734375,225957.28125,229698.25,210029.703125,18152.0,1.0,3
221157.640625,231636.328125,325031.03125,320346.03125,211964.640625,225678.328125,227670.671875,209358.421875,18153.0,1.0,3
220934.84375,231093.171875,324703.4375,319922.84375,211467.8125,225546.453125,225983.203125,208941.875,18154.0,1.0,3
221264.578125,231650.625,324991.78125,320344.6875,211847.609375,225753.609375,227031.421875,209377.5625,18155.0,1.0,3
221668.078125,232502.859375,325474.5,321001.09375,212556.15625,226004.84375,229302.265625,210031.65625,18156.0,1.0,3
221593.421875,232480.859375,325483.875,320984.375,212618.65625,225959.34375,229686.984375,210004.484375,18157.0,1.0,3
221156.84375,231633.46875,325017.53125,320327.25,211962.9375,225686.734375,227677.828125,209341.890625,18158.0,1.0,3
220936.71875,231089.875,324689.875,319900.25,211458.328125,225543.15625,225973.828125,208923.640625,18159.0,1.0,3
221259.65625,231632.125,324971.84375,320315.71875,211826.328125,225737.25,226997.890625,209362.8125,18160.0,1.0,3
221678.890625,232499.734375,325466.34375,320985.1875,212546.859375,226001.359375,229281.609375,210037.5625,18161.0,1.0,3
221615.234375,232495.96875,325487.09375,320981.625,212627.953125,225960.765625,229701.203125,210020.75,18162.0,1.0,3
221165.875,231639.28125,325009.59375,320318.125,211965.359375,225675.734375,227692.84375,209349.578125,18163.0,1.0,3
220944.859375,231097.640625,324683.0625,319891.9375,211463.15625,225529.46875,225980.171875,208930.796875,18164.0,1.0,3
221262.875,231631.5,324962.5625,320302.21875,211824.90625,225726.609375,226983.578125,209360.9375,18165.0,1.0,3
221676.390625,232494.984375,325458.9375,320970.96875,212548.375,225998.765625,229275.796875,210034.34375,18166.0,1.0,3
221616.75,232504.28125,325485.5,320971.875,212635.46875,225966.21875,229721.234375,210024.421875,18167.0,1.0,3
221166.59375,231645.71875,325007.6875,320305.0625,211971.078125,225676.90625,227718.875,209351.28125,18168.0,1.0,3
220932.4375,231082.890625,324669.125,319866.0,211456.28125,225526.875,225980.96875,208919.0,18169.0,1.0,3
221254.65625,231619.609375,324948.59375,320278.875,211820.703125,225725.890625,226973.65625,209351.359375,18170.0,1.0,3
221673.34375,232494.625,325441.9375,320949.4375,212539.796875,225987.765625,229258.09375,210024.953125,18171.0,1.0,3
221609.328125,232500.890625,325468.0625,320955.15625,212628.84375,225946.015625,229714.078125,210018.078125,18172.0,1.0,3
221164.796875,231653.671875,324995.53125,320292.5625,211973.5,225665.375,227728.4375,209350.296875,18173.0,1.0,3
220930.203125,231093.796875,324655.15625,319850.0,211452.96875,225523.65625,225978.921875,208915.328125,18174.0,1.0,3
221249.296875,231620.953125,324932.15625,320256.625,211808.984375,225730.640625,226948.1875,209344.578125,18175.0,1.0,3
221664.578125,232483.640625,325424.34375,320927.0625,212528.796875,226000.5625,229235.65625,210019.765625,18176.0,1.0,3
221607.625,232500.359375,325453.5,320941.21875,212626.4375,225964.875,229718.90625,210021.109375,18177.0,1.0,3
221169.09375,231656.078125,324984.1875,320288.53125,211979.65625,225685.84375,227748.640625,209359.328125,18178.0,1.0,3
220933.0625,231087.640625,324639.53125,319842.65625,211458.78125,225526.078125,225986.25,208916.765625,18179.0,1.0,3
221245.09375,231604.578125,324908.28125,320241.59375,211812.46875,225712.578125,226936.015625,209336.875,18180.0,1.0,3
221665.65625,232477.734375,325406.625,320917.25,212539.4375,225981.421875,229228.6875,210020.75,18181.0,1.0,3
221606.015625,232495.796875,325435.875,320931.375,212634.65625,225948.4375,229721.3125,210028.265625,18182.0,1.0,3
221162.65625,231649.921875,324970.0625,320276.46875,211985.203125,225669.390625,227756.78125,209368.359375,18183.0,1.0,3
220924.109375,231082.984375,324625.21875,319828.09375,211459.140625,225515.609375,225984.546875,208922.03125,18184.0,1.0,3
221232.21875,231594.125,324887.28125,320219.875,211795.390625,225707.125,226909.828125,209328.125,18185.0,1.0,3
221648.21875,232461.640625,325380.71875,320893.1875,212511.984375,225978.296875,229197.65625,210006.546875,18186.0,1.0,3
221604.234375,232500.625,325427.375,320922.0625,212625.359375,225954.15625,229723.46875,210028.265625,18187.0,1.0,3
221168.640625,231668.0625,324969.4375,320276.03125,211989.234375,225678.59375,227777.34375,209369.78125,18188.0,1.0,3
220922.6875,231086.203125,324617.53125,319818.875,211460.296875,225523.296875,225990.546875,208918.1875,18189.0,1.0,3
221230.609375,231590.8125,324878.78125,320208.15625,211801.125,225723.484375,226905.171875,209331.515625,18190.0,1.0,3
221654.75,232465.84375,325372.84375,320880.59375,212519.140625,225997.609375,229191.765625,210009.21875,18191.0,1.0,3
221612.640625,232512.78125,325419.5,320915.09375,212635.546875,225972.921875,229736.34375,210032.375,18192.0,1.0,3
221170.875,231670.75,324955.3125,320266.09375,211991.90625,225689.515625,227791.734375,209377.203125,18193.0,1.0,3
220923.21875,231076.71875,324599.5625,319802.25,211453.140625,225527.234375,225984.734375,208920.78125,18194.0,1.0,3
221235.4375,231587.234375,324864.28125,320193.03125,211789.765625,225725.0,226879.96875,209334.296875,18195.0,1.0,3
221653.59375,232462.53125,325355.40625,320864.9375,212507.875,225988.03125,229167.078125,210011.375,18196.0,1.0,3
221615.671875,232516.53125,325406.625,320905.4375,212633.234375,225964.25,229736.78125,210038.8125,18197.0,1.0,3
221182.40625,231686.03125,324948.96875,320263.15625,211996.375,225689.859375,227809.796875,209385.96875,18198.0,1.0,3
220933.140625,231090.21875,324593.03125,319797.34375,211458.59375,225529.921875,225993.9375,208926.328125,18199.0,1.0,3
221228.640625,231575.609375,324841.03125,320168.0,211778.140625,225708.015625,226855.203125,209320.34375,18200.0,1.0,3
221659.671875,232461.8125,325347.34375,320850.53125,212508.953125,225982.5,229153.765625,210013.25,18201.0,1.0,3
221626.140625,232527.71875,325406.90625,320901.0625,212645.03125,225964.796875,229748.671875,210051.953125,18202.0,1.0,3
221178.921875,231684.25,324942.625,320250.0,212005.046875,225681.28125,227823.5625,209390.53125,18203.0,1.0,3
220923.578125,231082.625,324582.75,319775.6875,211460.03125,225513.375,225991.875,208923.375,18204.0,1.0,3
221223.890625,231574.453125,324834.875,320150.9375,211783.59375,225698.8125,226844.203125,209319.265625,18205.0,1.0,3
221650.09375,232457.890625,325336.8125,320832.3125,212511.8125,225975.25,229145.984375,210007.609375,18206.0,1.0,3
221627.03125,232536.921875,325407.15625,320894.09375,212659.953125,225965.78125,229768.25,210056.875,18207.0,1.0,3
221182.328125,231700.34375,324941.4375,320245.15625,212017.578125,225682.265625,227851.734375,209395.0,18208.0,1.0,3
220924.828125,231090.5,324576.84375,319767.28125,211464.40625,225514.0,226008.15625,208923.90625,18209.0,1.0,3
221222.921875,231569.359375,324824.5,320134.5625,211778.859375,225697.734375,226835.96875,209313.28125,18210.0,1.0,3
221648.765625,232446.0,325321.875,320814.6875,212505.203125,225969.265625,229131.3125,210001.0,18211.0,1.0,3
221621.671875,232524.140625,325385.4375,320873.53125,212653.4375,225954.0625,229769.328125,210050.890625,18212.0,1.0,3
221185.71875,231700.703125,324928.5625,320233.71875,212028.390625,225680.5625,227873.71875,209406.890625,18213.0,1.0,3
220923.21875,231084.59375,324559.9375,319751.375,211473.984375,225510.875,226013.34375,208933.296875,18214.0,1.0,3
221213.796875,231551.828125,324802.5,320112.75,211780.109375,225691.828125,226818.265625,209313.09375,18215.0,1.0,3
221648.046875,232442.59375,325307.46875,320798.59375,212509.75,225969.359375,229118.71875,210006.71875,18216.0,1.0,3
221626.859375,232532.546875,325377.59375,320866.09375,212663.984375,225957.46875,229779.25,210058.390625,18217.0,1.0,3
221185.90625,231703.640625,324916.0625,320220.40625,212028.75,225674.671875,227885.515625,209403.578125,18218.0,1.0,3
220921.078125,231083.796875,324545.28125,319735.71875,211469.859375,225505.78125,226012.265625,208923.203125,18219.0,1.0,3
221209.6875,231545.390625,324781.0625,320092.03125,211770.09375,225689.515625,226797.625,209301.5625,18220.0,1.0,3
221634.1875,232422.65625,325275.21875,320770.15625,212490.984375,225961.3125,229089.125,209991.96875,18221.0,1.0,3
221623.375,232524.671875,325356.5625,320851.0,212656.296875,225963.625,229774.609375,210060.28125,18222.0,1.0,3
221191.078125,231711.875,324909.625,320219.25,212036.609375,225690.484375,227905.734375,209414.671875,18223.0,1.0,3
220913.125,231075.75,324527.125,319719.8125,211462.0,225512.921875,226015.578125,208922.921875,18224.0,1.0,3
221202.171875,231535.734375,324762.625,320073.5,211758.296875,225694.609375,226783.3125,209298.96875,18225.0,1.0,3
221634.1875,232424.625,325263.21875,320759.25,212485.796875,225967.109375,229077.765625,209989.640625,18226.0,1.0,3
221624.171875,232532.1875,325346.90625,320846.0,212658.4375,225965.953125,229784.703125,210066.71875,18227.0,1.0,3
221189.828125,231712.765625,324896.3125,320212.90625,212039.46875,225691.03125,227921.28125,209426.28125,18228.0,1.0,3
220914.734375,231073.59375,324512.9375,319711.59375,211465.484375,225510.515625,226016.734375,208930.34375,18229.0,1.0,3
221199.40625,231524.75,324740.5625,320056.25,211750.421875,225686.640625,226755.0625,209292.171875,18230.0,1.0,3
221634.0,232414.25,325243.65625,320742.71875,212478.828125,225961.9375,229051.84375,209983.46875,18231.0,1.0,3
221628.640625,232531.640625,325332.96875,320835.53125,212656.46875,225962.109375,229780.234375,210061.703125,18232.0,1.0,3
221194.125,231716.171875,324883.15625,320203.5,212035.984375,225686.640625,227927.984375,209420.921875,18233.0,1.0,3
220924.65625,231083.4375,324511.65625,319710.25,211471.734375,225515.96875,226028.265625,208933.828125,18234.0,1.0,3
221205.125,231521.4375,324738.84375,320048.03125,211751.3125,225692.09375,226747.109375,209291.546875,18235.0,1.0,3
221640.0,232411.390625,325241.21875,320734.75,212478.546875,225971.5,229042.1875,209982.40625,18236.0,1.0,3
221638.65625,232537.1875,325333.59375,320832.3125,212666.578125,225975.796875,229795.53125,210067.96875,18237.0,1.0,3
221203.6875,231725.734375,324883.78125,320200.28125,212051.71875,225699.4375,227954.453125,209428.96875,18238.0,1.0,3
220921.171875,231077.4375,324498.25,319693.71875,211475.671875,225520.96875,226032.46875,208930.265625,18239.0,1.0,3
221195.90625,231508.46875,324715.96875,320024.5,211747.828125,225692.453125,226732.625,209278.40625,18240.0,1.0,3
221634.0,232405.40625,325219.6875,320713.40625,212474.625,225970.6875,229029.75,209970.15625,18241.0,1.0,3
221641.34375,232546.9375,325324.03125,320823.28125,212671.140625,225979.09375,229805.53125,210068.5,18242.0,1.0,3
221216.484375,231750.59375,324887.8125,320205.375,212069.15625,225710.078125,227991.015625,209436.84375,18243.0,1.0,3
220934.21875,231104.625,324503.1875,319696.46875,211493.203125,225529.921875,226062.25,208934.46875,18244.0,1.0,3
221197.25,231520.0,324709.96875,320014.3125,211751.140625,225694.34375,226730.203125,209275.640625,18245.0,1.0,3
221631.421875,232409.96875,325210.21875,320698.28125,212476.40625,225976.5,229020.015625,209971.40625,18246.0,1.0,3
221638.921875,232550.875,325310.0625,320806.75,212671.046875,225985.265625,229806.703125,210071.546875,18247.0,1.0,3
221211.65625,231750.765625,324869.03125,320186.78125,212067.90625,225712.484375,227995.765625,209444.96875,18248.0,1.0,3
220922.328125,231091.125,324476.625,319669.03125,211481.84375,225525.453125,226050.4375,208933.203125,18249.0,1.0,3
221187.234375,231502.296875,324684.9375,319988.125,211744.4375,225690.765625,226705.890625,209270.359375,18250.0,1.0,3
221624.53125,232393.6875,325186.0625,320675.5,212470.421875,225968.546875,228992.203125,209967.640625,18251.0,1.0,3
221633.828125,232543.09375,325292.09375,320793.40625,212672.5625,225970.875,229802.140625,210074.75,18252.0,1.0,3
221203.6875,231740.03125,324849.0,320169.875,212064.78125,225691.921875,227999.703125,209441.046875,18253.0,1.0,3
220920.09375,231083.078125,324459.90625,319656.5,211481.125,225506.765625,226046.25,208924.0,18254.0,1.0,3
221182.234375,231489.609375,324665.0,319969.15625,211732.0,225664.03125,226678.078125,209256.0625,18255.0,1.0,3
221620.15625,232383.859375,325167.90625,320656.09375,212457.0,225942.078125,228964.484375,209952.8125,18256.0,1.0,3
221639.546875,232547.296875,325284.25,320785.8125,212675.15625,225960.234375,229801.515625,210072.796875,18257.0,1.0,3
221222.734375,231760.0625,324853.21875,320177.9375,212084.1875,225699.703125,228022.5,209454.453125,18258.0,1.0,3
220928.140625,231091.921875,324454.625,319654.625,211491.40625,225512.390625,226058.40625,208932.3125,18259.0,1.0,3
221182.140625,231484.421875,324651.0625,319953.625,211728.515625,225669.484375,226660.203125,209252.484375,18260.0,1.0,3
221618.1875,232376.53125,325153.4375,320639.90625,212455.390625,225949.859375,228943.125,209950.03125,18261.0,1.0,3
221641.609375,232549.4375,325276.5625,320776.4375,212682.21875,225972.03125,229805.53125,210079.234375,18262.0,1.0,3
221214.0625,231756.046875,324839.4375,320162.5625,212083.734375,225704.078125,228031.796875,209457.140625,18263.0,1.0,3
220914.453125,231079.859375,324433.8125,319632.28125,211482.921875,225513.5625,226050.359375,208927.75,18264.0,1.0,3
221168.5625,231473.0625,324628.875,319930.90625,211719.75,225669.484375,226639.453125,209242.640625,18265.0,1.0,3
221615.234375,232377.78125,325140.5625,320627.375,212453.078125,225958.796875,228932.65625,209944.21875,18266.0,1.0,3
221642.6875,232561.15625,325266.09375,320770.15625,212684.640625,225980.890625,229816.265625,210076.1875,18267.0,1.0,3
221212.09375,231765.96875,324822.8125,320150.125,212082.21875,225705.328125,228045.109375,209450.078125,18268.0,1.0,3
220912.9375,231082.984375,324417.09375,319619.0625,211478.984375,225517.578125,226053.75,208923.734375,18269.0,1.0,3
221157.828125,231455.8125,324598.21875,319909.4375,211703.578125,225675.828125,226614.515625,209234.25,18270.0,1.0,3
221596.640625,232347.109375,325097.8125,320598.59375,212428.125,225958.796875,228897.875,209931.078125,18271.0,1.0,3
221639.46875,232547.65625,325235.875,320755.0625,212672.75,225991.53125,229812.25,210077.078125,18272.0,1.0,3
221218.0,231771.15625,324812.15625,320152.625,212092.5,225726.34375,228074.703125,209464.109375,18273.0,1.0,3
220907.578125,231076.90625,324401.78125,319607.4375,211479.078125,225521.78125,226064.484375,208928.828125,18274.0,1.0,3
221153.4375,231450.625,324587.3125,319891.21875,211699.90625,225665.71875,226603.25,209235.5,18275.0,1.0,3
221605.578125,232357.65625,325102.03125,320591.25,212437.34375,225951.734375,228896.09375,209941.453125,18276.0,1.0,3
221646.96875,232562.40625,325241.6875,320752.71875,212689.46875,225982.765625,229827.4375,210090.140625,18277.0,1.0,3
221229.171875,231789.203125,324815.375,320149.0625,212111.265625,225714.71875,228098.21875,209478.0625,18278.0,1.0,3
220918.84375,231090.40625,324400.8125,319597.15625,211496.328125,225520.890625,226077.4375,208936.34375,18279.0,1.0,3
221165.515625,231455.984375,324581.9375,319875.75,211714.296875,225678.953125,226597.25,209236.203125,18280.0,1.0,3
221614.34375,232363.03125,325093.4375,320573.75,212446.90625,225971.140625,228886.796875,209940.015625,18281.0,1.0,3
221650.375,232567.5,325229.15625,320733.40625,212687.046875,226002.34375,229828.875,210089.953125,18282.0,1.0,3
221230.609375,231795.640625,324804.3125,320134.84375,212103.484375,225733.40625,228113.0625,209475.109375,18283.0,1.0,3
220931.0,231116.515625,324401.625,319598.03125,211497.21875,225550.65625,226101.40625,208940.453125,18284.0,1.0,3
221171.953125,231478.875,324576.9375,319872.96875,211706.703125,225706.234375,226600.75,209235.046875,18285.0,1.0,3
221613.796875,232379.125,325076.0,320564.1875,212428.390625,225988.9375,228878.125,209934.828125,18286.0,1.0,3
221653.953125,232591.453125,325215.125,320731.71875,212681.421875,226020.765625,229846.671875,210094.0625,18287.0,1.0,3
221233.640625,231815.40625,324785.25,320128.75,212103.140625,225749.765625,228140.328125,209483.59375,18288.0,1.0,3
220919.203125,231104.53125,324367.0,319581.5,211488.640625,225541.625,226111.953125,208936.34375,18289.0,1.0,3
221157.640625,231448.484375,324535.1875,319850.625,211692.3125,225666.265625,226589.5625,209221.375,18290.0,1.0,3
221608.4375,232349.34375,325041.75,320550.59375,212425.265625,225909.265625,228876.421875,209925.890625,18291.0,1.0,3
221656.53125,232567.859375,325184.1875,320724.5625,212683.390625,225894.078125,229865.078125,210090.578125,18292.0,1.0,3
221244.640625,231803.609375,324766.84375,320136.09375,212114.578125,225601.796875,228186.46875,209491.640625,18293.0,1.0,3
220928.140625,231094.78125,324346.625,319583.8125,211489.71875,225372.921875,226143.34375,208944.65625,18294.0,1.0,3
221155.953125,231433.640625,324506.3125,319840.78125,211677.5625,225495.578125,226588.40625,209225.390625,18295.0,1.0,3
221606.375,232346.125,325013.0625,320540.3125,212406.765625,225783.828125,228862.390625,209933.9375,18296.0,1.0,3
221663.953125,232590.46875,325172.3125,320734.0625,212683.65625,225851.78125,229881.71875,210115.265625,18297.0,1.0,3
221246.875,231836.421875,324755.46875,320143.96875,212114.125,225619.234375,228210.421875,209511.046875,18298.0,1.0,3
220925.8125,231122.859375,324332.59375,319582.5625,211480.234375,225432.46875,226143.609375,208951.359375,18299.0,1.0,3
221155.6875,231457.328125,324495.5,319840.0625,211663.515625,225593.125,226565.15625,209227.53125,18300.0,1.0,3
221601.734375,232359.453125,325003.0625,320533.5,212387.453125,225898.359375,228831.625,209930.984375,18301.0,1.0,3
221664.765625,232606.484375,325165.875,320729.84375,212669.796875,225956.828125,229868.5625,210119.1875,18302.0,1.0,3
221261.53125,231859.03125,324760.03125,320153.96875,212115.921875,225707.390625,228220.703125,209535.984375,18303.0,1.0,3
220935.203125,231138.421875,324334.09375,319591.34375,211486.671875,225498.984375,226152.09375,208969.78125,18304.0,1.0,3
221151.125,231452.59375,324486.8125,319835.0625,211665.84375,225639.4375,226550.9375,209229.765625,18305.0,1.0,3
221601.546875,232352.65625,324995.375,320535.75,212391.5625,225934.390625,228817.59375,209939.3125,18306.0,1.0,3
221665.65625,232606.390625,325159.6875,320732.34375,212675.875,225982.234375,229866.609375,210123.03125,18307.0,1.0,3
221257.96875,231861.625,324751.71875,320152.1875,212125.578125,225732.78125,228226.34375,209528.75,18308.0,1.0,3
220927.609375,231135.375,324322.40625,319583.75,211493.109375,225528.21875,226151.46875,208963.15625,18309.0,1.0,3
221149.515625,231450.265625,324474.3125,319825.125,211667.09375,225663.84375,226533.515625,209223.15625,18310.0,1.0,3
221600.21875,232351.578125,324984.28125,320525.09375,212396.390625,225945.296875,228802.65625,209932.421875,18311.0,1.0,3
221659.484375,232604.15625,325147.09375,320722.34375,212681.5,225979.640625,229870.265625,210121.703125,18312.0,1.0,3
221248.75,231856.0,324743.40625,320142.8125,212130.9375,225717.671875,228250.296875,209535.015625,18313.0,1.0,3
220928.140625,231134.75,324327.21875,319578.90625,211509.03125,225511.3125,226181.515625,208974.78125,18314.0,1.0,3
221138.6875,231432.125,324472.34375,319807.53125,211677.5625,225636.21875,226542.1875,209224.5,18315.0,1.0,3
221581.4375,232321.984375,324968.71875,320491.65625,212389.765625,225915.0,228784.59375,209918.109375,18316.0,1.0,3
221659.671875,232598.875,325147.1875,320704.90625,212692.140625,225976.140625,229878.9375,210123.484375,18317.0,1.0,3
221249.296875,231847.140625,324740.1875,320124.65625,212138.984375,225719.015625,228261.75,209531.34375,18318.0,1.0,3
220924.203125,231122.953125,324317.46875,319555.125,211506.4375,225515.609375,226173.5625,208964.953125,18319.0,1.0,3
221142.453125,231433.453125,324463.84375,319784.09375,211674.421875,225655.265625,226516.25,209220.109375,18320.0,1.0,3
221592.796875,232335.578125,324965.59375,320476.75,212396.125,225939.40625,228766.625,209919.015625,18321.0,1.0,3
221673.34375,232619.078125,325150.125,320699.8125,212702.25,225997.0625,229882.15625,210128.84375,18322.0,1.0,3
221266.28125,231878.078125,324749.9375,320130.0,212158.828125,225742.078125,228288.03125,209548.515625,18323.0,1.0,3
220930.28125,231138.421875,324312.21875,319548.5,211512.15625,225523.390625,226184.109375,208969.515625,18324.0,1.0,3
221132.875,231422.734375,324439.6875,319761.9375,211655.46875,225647.75,226493.90625,209205.90625,18325.0,1.0,3
221585.015625,232321.984375,324941.4375,320453.9375,212376.09375,225934.125,228742.3125,209911.046875,18326.0,1.0,3
221665.65625,232604.328125,325124.09375,320676.28125,212686.78125,225991.609375,229873.671875,210127.953125,18327.0,1.0,3
221266.90625,231876.03125,324731.15625,320112.40625,212152.046875,225739.3125,228295.0,209556.828125,18328.0,1.0,3
220928.765625,231131.625,324293.6875,319531.15625,211504.109375,225515.515625,226183.84375,208977.828125,18329.0,1.0,3
221136.640625,231415.21875,324428.53125,319747.875,211651.0,225640.25,226481.203125,209209.203125,18330.0,1.0,3
221592.703125,232322.796875,324934.125,320443.9375,212371.71875,225925.984375,228729.25,209910.96875,18331.0,1.0,3
221680.765625,232626.59375,325120.0,320674.5,212688.21875,225981.59375,229880.546875,210127.515625,18332.0,1.0,3
221268.953125,231891.21875,324715.15625,320103.1875,212145.78125,225719.1875,228305.46875,209544.03125,18333.0,1.0,3
220928.765625,231144.765625,324279.3125,319520.25,211499.90625,225504.96875,226189.46875,208963.421875,18334.0,1.0,3
221133.6875,231425.953125,324414.9375,319732.875,211646.078125,225630.046875,226466.359375,209201.4375,18335.0,1.0,3
221585.28125,232327.34375,324921.4375,320428.8125,212371.171875,225920.0,228710.5625,209913.109375,18336.0,1.0,3
221674.6875,232625.171875,325109.09375,320659.9375,212690.625,225983.484375,229877.953125,210131.078125,18337.0,1.0,3
221281.390625,231906.875,324719.625,320104.96875,212167.234375,225738.140625,228334.078125,209558.609375,18338.0,1.0,3
220933.421875,231145.5625,324278.0625,319513.8125,211514.84375,225513.828125,226208.96875,208970.84375,18339.0,1.0,3
221128.140625,231408.421875,324405.28125,319715.625,211654.484375,225637.203125,226463.328125,209194.8125,18340.0,1.0,3
221579.640625,232306.609375,324909.96875,320407.8125,212376.984375,225929.125,228699.3125,209899.25,18341.0,1.0,3
221671.734375,232619.359375,325107.5625,320649.28125,212709.765625,225997.96875,229888.5,210129.921875,18342.0,1.0,3
221271.015625,231901.59375,324716.25,320088.875,212184.9375,225742.078125,228349.359375,209556.734375,18343.0,1.0,3
220923.125,231139.9375,324270.8125,319493.96875,211527.53125,225510.421875,226210.9375,208964.140625,18344.0,1.0,3
221111.421875,231395.109375,324386.40625,319686.65625,211654.40625,225618.703125,226437.390625,209179.53125,18345.0,1.0,3
221569.90625,232301.15625,324892.28125,320381.0625,212379.046875,225908.28125,228675.96875,209886.828125,18346.0,1.0,3
221678.53125,232628.296875,325100.0625,320636.0625,212723.078125,225984.734375,229896.28125,210133.140625,18347.0,1.0,3
221279.515625,231907.046875,324705.59375,320077.09375,212193.4375,225728.578125,228371.453125,209563.96875,18348.0,1.0,3
220934.75,231143.25,324265.4375,319483.15625,211535.046875,225505.6875,226228.359375,208972.453125,18349.0,1.0,3
221128.59375,231395.734375,324385.78125,319677.875,211655.5625,225624.6875,226431.59375,209188.28125,18350.0,1.0,3
221585.546875,232300.265625,324890.125,320374.8125,212371.359375,225916.515625,228656.203125,209893.703125,18351.0,1.0,3
221687.828125,232633.390625,325094.59375,320630.34375,212709.84375,225988.84375,229882.609375,210135.828125,18352.0,1.0,3
221290.59375,231923.234375,324706.3125,320078.15625,212190.578125,225738.59375,228377.4375,209568.796875,18353.0,1.0,3
220940.5625,231162.203125,324259.28125,319479.75,211530.03125,225517.40625,226231.3125,208976.65625,18354.0,1.0,3
221116.515625,231397.25,324359.0625,319653.28125,211632.9375,225633.09375,226405.21875,209170.859375,18355.0,1.0,3
221563.828125,232287.03125,324851.34375,320338.78125,212340.78125,225923.75,228617.9375,209869.921875,18356.0,1.0,3
221677.375,232629.375,325067.78125,320608.875,212696.4375,226004.578125,229875.90625,210132.6875,18357.0,1.0,3
221283.171875,231923.046875,324686.1875,320064.3125,212182.96875,225758.796875,228389.953125,209573.8125,18358.0,1.0,3
220922.15625,231142.078125,324231.28125,319456.6875,211514.03125,225525.359375,226226.578125,208965.84375,18359.0,1.0,3
221103.90625,231374.0,324332.40625,319631.3125,211616.140625,225635.15625,226381.609375,209159.765625,18360.0,1.0,3
221562.03125,232277.734375,324837.125,320334.3125,212336.578125,225918.21875,228607.9375,209868.578125,18361.0,1.0,3
221674.6875,232625.796875,325055.53125,320606.8125,212693.671875,225987.859375,229884.65625,210134.390625,18362.0,1.0,3
221280.5,231927.796875,324676.90625,320059.84375,212191.015625,225739.9375,228415.890625,209580.0625,18363.0,1.0,3
220923.21875,231150.046875,324220.75,319446.125,211523.0625,225499.421875,226241.328125,208972.90625,18364.0,1.0,3
221102.84375,231378.03125,324322.84375,319616.90625,211622.125,225605.828125,226373.828125,209160.578125,18365.0,1.0,3
221559.53125,232278.625,324827.28125,320310.0,212339.171875,225901.140625,228584.234375,209860.0,18366.0,1.0,3
221676.390625,232635.8125,325051.34375,320586.53125,212705.734375,225985.796875,229879.296875,210127.953125,18367.0,1.0,3
221289.171875,231944.328125,324677.6875,320050.09375,212205.0625,225748.0625,228427.78125,209578.375,18368.0,1.0,3
220928.046875,231160.5,324222.4375,319436.21875,211533.703125,225524.640625,226255.640625,208968.890625,18369.0,1.0,3
221101.234375,231371.328125,324316.5,319596.96875,211622.21875,225632.203125,226366.765625,209147.875,18370.0,1.0,3
221565.515625,232278.53125,324823.15625,320299.71875,212342.203125,225919.1875,228576.640625,209856.0625,18371.0,1.0,3
221685.421875,232636.4375,325043.71875,320578.375,212707.171875,225993.40625,229877.78125,210125.546875,18372.0,1.0,3
221304.359375,231953.453125,324678.25,320050.875,212220.34375,225753.171875,228450.578125,209586.234375,18373.0,1.0,3
220937.53125,231158.71875,324212.15625,319429.15625,211537.359375,225512.390625,226259.828125,208965.578125,18374.0,1.0,3
221100.609375,231359.609375,324299.15625,319582.65625,211615.6875,225607.703125,226341.640625,209137.953125,18375.0,1.0,3
221559.703125,232259.140625,324802.5,320278.6875,212329.328125,225898.359375,228545.171875,209849.453125,18376.0,1.0,3
221687.390625,232632.9375,325029.53125,320565.875,212703.59375,225982.5,229876.609375,210133.59375,18377.0,1.0,3
221307.84375,231958.453125,324662.59375,320039.625,212214.265625,225743.515625,228464.796875,209592.3125,18378.0,1.0,3
220936.546875,231159.421875,324195.625,319417.875,211533.34375,225508.1875,226270.390625,208972.734375,18379.0,1.0,3
221099.4375,231354.15625,324280.375,319569.625,211615.6875,225617.453125,226341.734375,209146.265625,18380.0,1.0,3
221562.75,232259.578125,324787.03125,320268.40625,212332.46875,225917.9375,228545.96875,209857.765625,18381.0,1.0,3
221699.71875,232646.4375,325025.21875,320565.59375,212719.234375,226006.015625,229896.640625,210148.609375,18382.0,1.0,3
221320.546875,231972.578125,324659.0,320043.8125,212235.546875,225762.28125,228496.171875,209610.921875,18383.0,1.0,3
220945.125,231168.546875,324187.21875,319416.46875,211544.875,225521.15625,226293.0,208988.28125,18384.0,1.0,3
221100.609375,231354.328125,324266.0625,319558.15625,211616.9375,225621.46875,226338.515625,209149.65625,18385.0,1.0,3
221556.671875,232250.375,324766.21875,320248.46875,212325.671875,225910.4375,228526.125,209850.078125,18386.0,1.0,3
221691.40625,232640.546875,325004.5625,320546.65625,212708.421875,225995.453125,229885.5625,210140.109375,18387.0,1.0,3
221312.953125,231970.53125,324643.71875,320027.71875,212226.78125,225756.203125,228498.671875,209611.546875,18388.0,1.0,3
220942.09375,231169.171875,324181.5,319405.0,211546.84375,225524.46875,226297.46875,208992.484375,18389.0,1.0,3
221098.453125,231353.4375,324261.5,319542.0625,211612.203125,225620.578125,226321.609375,209143.40625,18390.0,1.0,3
221553.1875,232249.203125,324761.28125,320233.71875,212320.03125,225914.71875,228502.96875,209842.5625,18391.0,1.0,3
221699.28125,232650.640625,325008.3125,320545.40625,212718.515625,226016.921875,229890.46875,210144.3125,18392.0,1.0,3
221323.671875,231986.0,324648.71875,320027.28125,212242.078125,225779.453125,228520.765625,209615.5625,18393.0,1.0,3
220950.046875,231185.09375,324184.71875,319402.96875,211562.671875,225540.640625,226320.0,208996.0625,18394.0,1.0,3
221100.421875,231352.09375,324255.6875,319529.375,211620.421875,225630.953125,226318.671875,209145.46875,18395.0,1.0,3
221552.921875,232241.15625,324748.78125,320213.4375,212320.921875,225915.796875,228484.375,209838.015625,18396.0,1.0,3
221697.84375,232648.40625,324996.71875,320527.59375,212720.40625,226009.9375,229884.65625,210141.1875,18397.0,1.0,3
221324.84375,231991.984375,324642.46875,320014.84375,212252.265625,225774.53125,228539.625,209616.28125,18398.0,1.0,3
220945.84375,231183.125,324168.78125,319379.0,211563.734375,225524.46875,226323.40625,208986.859375,18399.0,1.0,3
221085.9375,231339.765625,324231.65625,319498.1875,211610.953125,225611.359375,226297.828125,209128.828125,18400.0,1.0,3
221544.0625,232234.8125,324728.46875,320185.90625,212316.1875,225902.921875,228468.640625,209828.625,18401.0,1.0,3
221693.375,232644.203125,324980.0,320504.1875,212721.03125,226000.375,229886.359375,210140.109375,18402.0,1.0,3
221326.0,231991.09375,324633.09375,319999.75,212259.15625,225774.890625,228558.125,209625.75,18403.0,1.0,3
220949.328125,231180.53125,324164.3125,319367.1875,211573.21875,225533.5,226344.328125,208995.890625,18404.0,1.0,3
221090.234375,231331.171875,324221.53125,319481.09375,211611.484375,225620.84375,226296.21875,209125.53125,18405.0,1.0,3
221545.5,232222.296875,324717.3125,320166.21875,212310.828125,225911.6875,228451.109375,209825.046875,18406.0,1.0,3
221692.484375,232637.859375,324968.28125,320484.96875,212713.15625,226003.0625,229876.890625,210142.078125,18407.0,1.0,3
221315.625,231983.578125,324613.15625,319976.21875,212242.4375,225764.609375,228551.78125,209619.9375,18408.0,1.0,3
220935.921875,231172.578125,324140.375,319342.875,211551.671875,225521.15625,226332.609375,208984.265625,18409.0,1.0,3
221080.75,231326.4375,324202.9375,319460.28125,211593.25,225611.90625,226272.4375,209122.3125,18410.0,1.0,3
221533.609375,232216.046875,324692.8125,320145.125,212290.984375,225898.546875,228423.3125,209821.28125,18411.0,1.0,3
221693.109375,232648.046875,324956.1875,320479.25,212711.1875,226002.96875,229880.453125,210148.609375,18412.0,1.0,3
221324.390625,232003.078125,324609.46875,319981.78125,212254.234375,225771.046875,228583.96875,209635.59375,18413.0,1.0,3
220940.65625,231181.6875,324132.75,319341.4375,211560.96875,225525.0,226354.609375,208995.703125,18414.0,1.0,3
221075.125,231314.734375,324182.46875,319442.90625,211591.015625,225607.078125,226261.265625,209118.90625,18415.0,1.0,3
221536.28125,232204.328125,324678.3125,320129.75,212292.3125,225897.5625,228407.84375,209817.984375,18416.0,1.0,3
221699.0,232639.109375,324944.40625,320468.6875,212718.34375,226002.171875,229881.265625,210148.078125,18417.0,1.0,3
221326.265625,231994.046875,324594.5625,319967.46875,212258.34375,225766.484375,228591.84375,209635.953125,18418.0,1.0,3
220947.71875,231180.4375,324123.8125,319334.75,211571.4375,225524.46875,226366.3125,209002.140625,18419.0,1.0,3
221079.953125,231313.125,324170.84375,319433.1875,211597.09375,225604.84375,226256.265625,209119.890625,18420.0,1.0,3
221540.046875,232206.296875,324667.96875,320118.9375,212297.859375,225897.640625,228399.96875,209816.109375,18421.0,1.0,3
221699.71875,232638.75,324929.75,320454.375,212717.1875,226001.453125,229877.328125,210144.140625,18422.0,1.0,3
221340.21875,232010.671875,324591.34375,319966.21875,212271.671875,225773.28125,228613.46875,209638.625,18423.0,1.0,3
220955.671875,231191.53125,324115.96875,319326.34375,211576.078125,225527.6875,226375.703125,208998.828125,18424.0,1.0,3
221074.765625,231304.71875,324153.40625,319410.09375,211587.703125,225603.859375,226236.140625,209102.71875,18425.0,1.0,3
221532.703125,232192.96875,324649.96875,320096.125,212286.953125,225900.953125,228372.078125,209803.40625,18426.0,1.0,3
221705.71875,232646.890625,324926.875,320449.65625,212724.328125,226016.203125,229882.515625,210151.640625,18427.0,1.0,3
221350.046875,232028.1875,324597.9375,319970.96875,212290.796875,225797.328125,228646.109375,209661.609375,18428.0,1.0,3
220962.46875,231201.09375,324117.84375,319325.4375,211593.609375,225549.234375,226406.46875,209015.015625,18429.0,1.0,3
221072.984375,231294.875,324138.9375,319393.125,211583.5,225615.21875,226231.046875,209102.546875,18430.0,1.0,3
221527.53125,232180.015625,324628.53125,320075.84375,212276.140625,225898.90625,228354.46875,209797.953125,18431.0,1.0,3
221703.65625,232646.265625,324910.15625,320437.21875,212723.4375,226014.0625,229886.71875,210154.953125,18432.0,1.0,3
221345.84375,232025.953125,324575.15625,319956.125,212284.453125,225786.515625,228658.890625,209666.96875,18433.0,1.0,3
220956.75,231200.734375,324095.65625,319309.53125,211585.109375,225529.65625,226413.796875,209018.140625,18434.0,1.0,3
221070.921875,231299.703125,324123.65625,319379.0,211582.25,225598.765625,226227.921875,209101.296875,18435.0,1.0,3
221523.953125,232180.359375,324611.375,320054.03125,212267.46875,225889.6875,228335.421875,209791.25,18436.0,1.0,3
221705.09375,232655.109375,324899.59375,320422.71875,212720.84375,226010.125,229881.71875,210153.796875,18437.0,1.0,3
221342.90625,232034.359375,324565.3125,319945.21875,212286.6875,225782.21875,228670.96875,209662.59375,18438.0,1.0,3
220957.203125,231208.6875,324091.5625,319301.125,211591.71875,225541.890625,226430.25,209021.359375,18439.0,1.0,3
221058.234375,231290.3125,324106.21875,319355.84375,211572.765625,225597.421875,226212.71875,209097.265625,18440.0,1.0,3
221512.328125,232170.890625,324593.84375,320032.75,212260.40625,225880.390625,228316.015625,209785.609375,18441.0,1.0,3
221694.09375,232641.96875,324878.40625,320396.96875,212707.171875,225995.8125,229868.125,210141.640625,18442.0,1.0,3
221347.71875,232043.125,324558.78125,319929.75,212287.578125,225779.1875,228682.046875,209660.359375,18443.0,1.0,3
220957.828125,231213.875,324078.84375,319281.375,211588.859375,225530.453125,226435.25,209012.609375,18444.0,1.0,3
221055.453125,231284.953125,324090.375,319334.84375,211563.109375,225589.8125,226195.109375,209084.484375,18445.0,1.0,3
221509.375,232165.171875,324579.34375,320014.0625,212251.546875,225879.046875,228291.78125,209776.859375,18446.0,1.0,3
221695.875,232644.390625,324867.34375,320384.46875,212707.078125,225996.984375,229860.515625,210141.359375,18447.0,1.0,3
221350.40625,232046.171875,324549.59375,319923.5625,212294.90625,225784.375,228694.390625,209666.703125,18448.0,1.0,3
220951.296875,231205.03125,324064.1875,319271.34375,211594.234375,225530.71875,226441.953125,209016.171875,18449.0,1.0,3
221046.15625,231269.3125,324070.53125,319319.625,211563.734375,225588.5625,226186.25,209083.234375,18450.0,1.0,3
221505.796875,232152.5625,324559.15625,320000.8125,212251.1875,225879.5,228278.640625,209775.328125,18451.0,1.0,3
221695.4375,232639.734375,324850.78125,320377.59375,212709.578125,225999.84375,229860.703125,210144.5,18452.0,1.0,3
221348.984375,232045.71875,324535.28125,319919.8125,212300.640625,225782.21875,228712.0,209675.203125,18453.0,1.0,3
220954.78125,231206.984375,324053.90625,319268.125,211600.9375,225531.4375,226459.84375,209026.1875,18454.0,1.0,3
221053.75,231270.734375,324061.40625,319311.9375,211566.609375,225590.265625,226185.359375,209091.28125,18455.0,1.0,3
221506.328125,232143.34375,324545.375,319986.4375,212244.84375,225876.1875,228263.796875,209775.515625,18456.0,1.0,3
221695.703125,232632.765625,324838.28125,320365.6875,212704.390625,225999.296875,229860.4375,210143.515625,18457.0,1.0,3
221353.625,232045.71875,324524.46875,319910.53125,212296.25,225785.796875,228726.65625,209673.328125,18458.0,1.0,3
220953.265625,231201.359375,324036.28125,319251.21875,211584.84375,225528.84375,226460.28125,209013.5,18459.0,1.0,3
221045.265625,231253.3125,324035.21875,319285.21875,211540.140625,225582.9375,226156.484375,209067.859375,18460.0,1.0,3
221497.21875,232123.328125,324513.625,319954.15625,212212.84375,225866.09375,228220.4375,209749.9375,18461.0,1.0,3
221707.328125,232638.671875,324825.03125,320355.40625,212696.796875,226006.640625,229851.046875,210145.390625,18462.0,1.0,3
221361.859375,232054.5625,324511.03125,319901.125,212292.59375,225793.3125,228733.546875,209681.546875,18463.0,1.0,3
220953.625,231200.640625,324017.6875,319236.21875,211578.40625,225532.78125,226461.453125,209020.296875,18464.0,1.0,3
221041.59375,231247.765625,324020.46875,319271.09375,211535.671875,225590.984375,226147.71875,209072.5,18465.0,1.0,3
221500.25,232126.359375,324507.65625,319949.0625,212219.0,225881.734375,228218.921875,209762.453125,18466.0,1.0,3
221702.578125,232634.90625,324809.3125,320339.125,212689.28125,226005.296875,229845.140625,210144.671875,18467.0,1.0,3
221366.59375,232061.8125,324505.6875,319894.78125,212293.578125,225792.421875,228747.234375,209683.953125,18468.0,1.0,3
220965.421875,231217.453125,324019.75,319234.96875,211591.8125,225538.328125,226483.796875,209023.6875,18469.0,1.0,3
221047.671875,231250.0,324011.09375,319259.28125,211539.0625,225590.984375,226141.734375,209063.921875,18470.0,1.0,3
221503.828125,232127.890625,324497.09375,319937.0,212221.859375,225881.546875,228205.328125,209753.25,18471.0,1.0,3
221708.9375,232647.96875,324810.46875,320338.6875,212710.46875,226013.78125,229860.078125,210152.71875,18472.0,1.0,3
221365.78125,232069.140625,324502.65625,319892.0,212314.671875,225798.40625,228772.703125,209698.359375,18473.0,1.0,3
220959.4375,231220.140625,324013.84375,319228.0625,211605.046875,225540.109375,226501.140625,209034.6875,18474.0,1.0,3
221036.5,231247.765625,324000.96875,319243.625,211544.78125,225583.46875,226136.453125,209065.265625,18475.0,1.0,3
221486.84375,232111.96875,324474.65625,319906.6875,212209.171875,225863.5,228171.453125,209739.21875,18476.0,1.0,3
221699.71875,232641.53125,324792.78125,320316.6875,212701.359375,226005.296875,229841.5625,210139.9375,18477.0,1.0,3
221371.59375,232082.90625,324498.09375,319886.5625,212322.0,225802.515625,228788.984375,209694.78125,18478.0,1.0,3
220965.421875,231227.5625,324003.21875,319219.03125,211608.890625,225545.109375,226514.90625,209028.34375,18479.0,1.0,3
221046.0625,231252.140625,323994.625,319235.0625,211551.140625,225595.625,226138.0625,209064.90625,18480.0,1.0,3
221489.609375,232107.59375,324467.0625,319895.84375,212215.078125,225874.140625,228169.21875,209741.265625,18481.0,1.0,3
221702.84375,232640.09375,324782.5,320306.40625,212705.375,226008.609375,229845.328125,210144.578125,18482.0,1.0,3
221377.046875,232090.6875,324491.90625,319881.71875,212331.65625,225806.71875,228808.65625,209706.671875,18483.0,1.0,3
220965.59375,231234.890625,323997.9375,319211.90625,211617.390625,225544.671875,226530.296875,209038.703125,18484.0,1.0,3
221036.953125,231245.53125,323976.125,319213.5,211541.21875,225585.265625,226119.828125,209059.359375,18485.0,1.0,3
221489.703125,232111.171875,324451.6875,319876.53125,212206.578125,225872.703125,228143.734375,209738.765625,18486.0,1.0,3
221704.90625,232652.96875,324778.1875,320297.90625,212713.96875,226019.59375,229845.5,210154.515625,18487.0,1.0,3
221376.96875,232100.96875,324486.28125,319871.28125,212340.328125,225812.359375,228827.515625,209713.546875,18488.0,1.0,3
220965.875,231239.796875,323988.09375,319198.46875,211623.5625,225546.71875,226545.765625,209040.671875,18489.0,1.0,3
221030.515625,231239.625,323960.46875,319195.53125,211544.15625,225587.5,226116.609375,209061.15625,18490.0,1.0,3
221477.015625,232096.40625,324431.28125,319854.8125,212207.296875,225871.546875,228129.875,209735.71875,18491.0,1.0,3
221695.703125,232637.5,324753.96875,320273.78125,212708.421875,226011.90625,229835.9375,210149.234375,18492.0,1.0,3
221371.328125,232099.453125,324467.5,319854.09375,212337.5625,225807.96875,228832.515625,209713.015625,18493.0,1.0,3
220958.0,231238.015625,323968.15625,319179.875,211614.53125,225541.0,226543.875,209036.5625,18494.0,1.0,3
221015.578125,231224.15625,323932.3125,319167.71875,211519.75,225573.546875,226082.1875,209043.984375,18495.0,1.0,3
221465.125,232083.625,324405.8125,319828.71875,212178.234375,225858.484375,228084.90625,209720.53125,18496.0,1.0,3
221692.75,232642.59375,324735.46875,320257.875,212690.359375,226005.296875,229813.3125,210136.453125,18497.0,1.0,3
221375.703125,232111.078125,324458.28125,319847.75,212337.015625,225809.21875,228836.8125,209708.1875,18498.0,1.0,3
220964.53125,231243.828125,323963.0625,319176.9375,211618.546875,225539.65625,226551.21875,209036.5625,18499.0,1.0,3
221023.359375,231229.34375,323927.84375,319165.21875,211527.359375,225576.671875,226084.59375,209040.046875,18500.0,1.0,3
221462.078125,232071.375,324386.6875,319813.15625,212173.40625,225850.0,228064.78125,209702.640625,18501.0,1.0,3
221698.5625,232639.109375,324728.3125,320254.65625,212696.890625,226003.859375,229813.859375,210143.875,18502.0,1.0,3
221387.6875,232116.703125,324457.125,319851.0625,212350.171875,225808.234375,228860.0625,209729.015625,18503.0,1.0,3
220966.046875,231243.375,323958.5,319172.71875,211630.890625,225542.171875,226578.03125,209048.640625,18504.0,1.0,3
221018.984375,231222.375,323917.75,319148.9375,211529.40625,225575.421875,226085.9375,209040.5,18505.0,1.0,3
221465.03125,232070.65625,324380.5,319802.15625,212178.234375,225856.609375,228067.28125,209706.125,18506.0,1.0,3
221694.984375,232630.171875,324709.96875,320233.90625,212690.1875,226002.703125,229812.59375,210135.734375,18507.0,1.0,3
221385.015625,232115.359375,324439.53125,319832.75,212345.6875,225807.25,228872.9375,209720.796875,18508.0,1.0,3
220974.0,231252.40625,323947.96875,319161.375,211632.5,225549.9375,226592.703125,209046.578125,18509.0,1.0,3
221023.359375,231215.75,323902.71875,319134.28125,211522.796875,225579.984375,226077.09375,209035.140625,18510.0,1.0,3
221468.515625,232063.0625,324367.28125,319788.3125,212175.109375,225866.265625,228053.609375,209704.171875,18511.0,1.0,3
221705.0,232636.875,324701.84375,320229.6875,212697.59375,226023.796875,229819.65625,210140.921875,18512.0,1.0,3
221392.78125,232119.65625,324424.9375,319828.53125,212349.625,225828.09375,228890.640625,209725.890625,18513.0,1.0,3
220971.953125,231246.953125,323924.71875,319148.875,211623.203125,225559.328125,226600.203125,209043.890625,18514.0,1.0,3
221015.671875,231202.875,323875.28125,319113.09375,211504.828125,225583.46875,226061.0,209025.125,18515.0,1.0,3
221465.921875,232053.671875,324344.46875,319767.75,212156.15625,225865.109375,228028.484375,209695.84375,18516.0,1.0,3
221702.21875,232630.171875,324685.9375,320210.03125,212680.796875,226014.953125,229802.671875,210136.1875,18517.0,1.0,3
221387.25,232115.1875,324413.78125,319810.90625,212337.46875,225813.6875,228892.6875,209725.0,18518.0,1.0,3
220979.015625,231259.296875,323926.3125,319144.3125,211632.140625,225555.671875,226622.46875,209058.734375,18519.0,1.0,3
221014.5,231206.546875,323864.46875,319094.5,211505.265625,225572.5625,226058.671875,209027.09375,18520.0,1.0,3
221459.84375,232048.140625,324329.375,319746.90625,212158.03125,225859.921875,228018.203125,209694.0625,18521.0,1.0,3
221706.421875,232634.28125,324682.0,320203.25,212698.234375,226028.71875,229814.75,210148.703125,18522.0,1.0,3
221402.0,232137.984375,324418.34375,319812.96875,212366.890625,225844.984375,228928.984375,209748.59375,18523.0,1.0,3
220978.203125,231267.96875,323921.5,319133.40625,211646.71875,225587.3125,226643.84375,209069.203125,18524.0,1.0,3
221011.734375,231210.5625,323861.15625,319084.03125,211511.53125,225624.15625,226063.40625,209036.390625,18525.0,1.0,3
221455.375,232055.734375,324317.65625,319729.5625,212144.703125,225920.171875,228005.328125,209694.0625,18526.0,1.0,3
221701.953125,232654.3125,324668.40625,320191.34375,212680.796875,226107.671875,229816.09375,210148.34375,18527.0,1.0,3
221396.984375,232158.90625,324405.0,319807.4375,212351.6875,225933.328125,228950.359375,209749.9375,18528.0,1.0,3
220972.84375,231285.21875,323897.625,319121.5,211623.46875,225676.71875,226658.046875,209060.609375,18529.0,1.0,3
221007.4375,231217.71875,323831.09375,319067.84375,211490.25,225699.34375,226061.265625,209021.0,18530.0,1.0,3
221455.28125,232053.9375,324293.25,319718.75,212132.8125,225964.609375,228002.828125,209686.375,18531.0,1.0,3
221699.546875,232634.828125,324638.1875,320176.9375,212666.671875,226092.640625,229814.921875,210141.1875,18532.0,1.0,3
221402.0,232144.0625,324381.40625,319802.34375,212350.171875,225872.609375,228969.84375,209759.6875,18533.0,1.0,3
220982.671875,231272.796875,323884.21875,319127.5,211637.59375,225561.296875,226692.828125,209083.234375,18534.0,1.0,3
221004.84375,231187.59375,323810.28125,319062.75,211492.578125,225522.9375,226073.953125,209023.25,18535.0,1.0,3
221449.109375,232018.8125,324263.21875,319705.34375,212122.796875,225765.421875,227992.984375,209676.8125,18536.0,1.0,3
221707.671875,232633.921875,324623.59375,320179.625,212672.65625,225915.34375,229826.09375,210144.671875,18537.0,1.0,3
221407.1875,232154.078125,324374.25,319808.40625,212358.484375,225719.90625,228998.375,209758.078125,18538.0,1.0,3
220974.1875,231276.109375,323864.8125,319119.90625,211625.96875,225431.84375,226698.828125,209065.359375,18539.0,1.0,3
220999.671875,231206.984375,323794.0,319055.15625,211479.4375,225446.328125,226057.421875,209018.6875,18540.0,1.0,3
221441.328125,232050.09375,324252.65625,319699.25,212116.71875,225740.65625,227970.546875,209678.5,18541.0,1.0,3
221697.484375,232661.46875,324611.53125,320172.125,212669.078125,225920.984375,229811.4375,210151.5625,18542.0,1.0,3
221404.234375,232186.453125,324366.21875,319807.25,212361.96875,225743.953125,228998.453125,209772.296875,18543.0,1.0,3
220979.546875,231312.84375,323866.5,319125.78125,211642.0625,225480.390625,226708.65625,209084.75,18544.0,1.0,3
220993.234375,231220.40625,323786.3125,319048.8125,211484.265625,225499.421875,226042.75,209022.34375,18545.0,1.0,3
221439.71875,232052.25,324245.6875,319695.3125,212119.046875,225798.765625,227946.3125,209682.796875,18546.0,1.0,3
221707.765625,232673.453125,324615.21875,320179.71875,212680.796875,225984.640625,229809.109375,210164.4375,18547.0,1.0,3
221415.40625,232202.53125,324370.0625,319817.09375,212377.078125,225811.8125,229014.46875,209786.0625,18548.0,1.0,3
220984.28125,231317.859375,323861.40625,319128.46875,211649.84375,225547.984375,226719.921875,209093.6875,18549.0,1.0,3
220998.0625,231210.5625,323772.0,319045.15625,211483.640625,225569.875,226032.65625,209025.03125,18550.0,1.0,3
221440.4375,232039.734375,324225.375,319685.40625,212115.03125,225859.828125,227924.140625,209675.46875,18551.0,1.0,3
221710.984375,232669.6875,324596.4375,320171.84375,212677.578125,226045.171875,229796.0625,210154.953125,18552.0,1.0,3
221431.5,232216.84375,324362.8125,319820.5625,212385.578125,225874.40625,229029.3125,209791.0625,18553.0,1.0,3
221004.578125,231335.015625,323859.90625,319133.125,211661.28125,225601.703125,226737.890625,209102.546875,18554.0,1.0,3
221017.71875,231225.5,323765.75,319045.6875,211493.203125,225597.421875,226033.453125,209027.4375,18555.0,1.0,3
221458.765625,232046.34375,324170.0625,319691.46875,212079.984375,225861.171875,227911.453125,209679.125,18556.0,1.0,3
221724.484375,232667.1875,324487.09375,320180.875,212577.265625,226018.96875,229787.65625,210169.796875,18557.0,1.0,3
221438.46875,232204.5,324265.625,319816.8125,212328.96875,225827.015625,229031.71875,209796.875,18558.0,1.0,3
221010.75,231325.640625,323792.5625,319128.375,211652.171875,225553.78125,226747.90625,209105.40625,18559.0,1.0,3
221014.0625,231199.75,323704.875,319037.09375,211483.0,225561.390625,226030.78125,209029.671875,18560.0,1.0,3
221452.328125,232009.15625,324160.46875,319668.9375,212110.203125,225842.125,227902.953125,209679.125,18561.0,1.0,3
221723.953125,232656.90625,324529.28125,320158.34375,212652.71875,226018.078125,229790.34375,210168.640625,18562.0,1.0,3
221440.4375,232229.265625,324310.25,319809.5,212357.9375,225837.828125,229056.3125,209809.671875,18563.0,1.0,3
221006.453125,231339.9375,323820.46875,319119.1875,211641.171875,225558.265625,226763.90625,209118.375,18564.0,1.0,3
221004.9375,231202.796875,323714.0625,319009.3125,211440.984375,225549.140625,226005.921875,209025.65625,18565.0,1.0,3
221443.84375,232028.1875,324159.6875,319634.0625,212059.59375,225825.765625,227859.6875,209661.875,18566.0,1.0,3
221715.8125,232671.390625,324542.4375,320125.28125,212647.53125,226005.46875,229761.015625,210144.9375,18567.0,1.0,3
221435.53125,232221.9375,324315.4375,319784.28125,212379.046875,225833.09375,229048.265625,209792.40625,18568.0,1.0,3
221005.484375,231330.375,323806.0625,319096.5625,211658.0625,225561.203125,226762.125,209107.546875,18569.0,1.0,3
221005.65625,231204.75,323709.0625,318990.0625,211477.015625,225555.84375,226002.796875,209015.734375,18570.0,1.0,3
221447.859375,232033.375,324168.09375,319621.8125,212100.984375,225833.546875,227854.234375,209658.125,18571.0,1.0,3
221721.625,232665.75,324546.1875,320115.8125,212661.84375,226006.359375,229757.53125,210147.359375,18572.0,1.0,3
221447.0625,232229.546875,324327.5,319783.65625,212387.453125,225832.5625,229068.203125,209802.875,18573.0,1.0,3
221015.671875,231355.859375,323822.625,319094.0625,211661.546875,225549.59375,226782.6875,209111.3125,18574.0,1.0,3
221007.625,231221.390625,323719.78125,318980.59375,211470.84375,225535.90625,226000.46875,209013.765625,18575.0,1.0,3
221436.234375,232021.671875,324159.40625,319600.53125,212085.96875,225795.640625,227828.578125,209647.21875,18576.0,1.0,3
221706.78125,232649.84375,324525.09375,320088.96875,212656.390625,225952.28125,229738.390625,210135.546875,18577.0,1.0,3
221447.953125,232236.0625,324314.34375,319770.25,212406.21875,225780.171875,229079.90625,209805.109375,18578.0,1.0,3
221008.96875,231348.875,323808.3125,319077.34375,211686.59375,225491.375,226791.71875,209112.109375,18579.0,1.0,3
220983.03125,231178.921875,323685.71875,318946.90625,211475.40625,225468.3125,225974.71875,208998.46875,18580.0,1.0,3
221428.734375,231993.59375,324133.46875,319580.59375,212092.40625,225752.265625,227808.625,209647.578125,18581.0,1.0,3
221715.375,232653.59375,324517.03125,320086.75,212670.953125,225934.03125,229745.359375,210149.6875,18582.0,1.0,3
221448.578125,232239.375,324307.8125,319764.25,212410.421875,225768.8125,229092.96875,209811.546875,18583.0,1.0,3
221013.078125,231347.546875,323805.53125,319071.0,211679.703125,225490.9375,226804.234375,209116.046875,18584.0,1.0,3
220994.65625,231184.734375,323686.71875,318937.9375,211463.875,225477.171875,225969.625,208999.453125,18585.0,1.0,3
221429.625,231998.953125,324128.5625,319559.15625,212073.71875,225748.421875,227780.734375,209636.390625,18586.0,1.0,3
221713.484375,232660.484375,324515.25,320068.3125,212660.046875,225934.9375,229724.796875,210142.96875,18587.0,1.0,3
221451.96875,232249.03125,324306.21875,319755.03125,212415.171875,225779.984375,229095.46875,209813.875,18588.0,1.0,3
221012.625,231348.515625,323794.8125,319060.53125,211691.140625,225511.046875,226812.375,209119.890625,18589.0,1.0,3
220987.421875,231171.5,323665.34375,318918.46875,211466.375,225502.640625,225958.53125,208996.328125,18590.0,1.0,3
221424.703125,231976.96875,324105.5,319537.78125,212069.25,225788.578125,227759.09375,209630.859375,18591.0,1.0,3
221718.046875,232638.578125,324497.09375,320053.40625,212658.625,225984.015625,229721.5,210148.25,18592.0,1.0,3
221461.0,232235.4375,324294.15625,319745.375,212410.78125,225828.53125,229114.328125,209825.046875,18593.0,1.0,3
221022.640625,231348.4375,323785.15625,319050.875,211676.21875,225550.84375,226826.140625,209124.8125,18594.0,1.0,3
221000.5625,231180.265625,323662.65625,318914.71875,211455.65625,225542.078125,225964.078125,209004.46875,18595.0,1.0,3
221428.734375,231975.171875,324094.0625,319526.0625,212053.953125,225831.75,227749.890625,209633.984375,18596.0,1.0,3
221725.375,232651.265625,324490.03125,320047.65625,212654.234375,226041.234375,229725.078125,210156.75,18597.0,1.0,3
221467.171875,232256.984375,324287.25,319741.0,212414.265625,225889.875,229134.265625,209840.875,18598.0,1.0,3
221023.0,231360.328125,323772.09375,319040.78125,211683.1875,225604.578125,226845.265625,209132.40625,18599.0,1.0,3
220994.03125,231174.0,323640.5,318891.5625,211456.0,225579.453125,225956.484375,208989.359375,18600.0,1.0,3
221419.875,231960.0625,324071.0625,319501.3125,212051.015625,225840.34375,227725.75,209617.0,18601.0,1.0,3
221709.734375,232630.984375,324465.0,320023.71875,212649.234375,226010.5625,229706.03125,210137.515625,18602.0,1.0,3
221457.609375,232248.40625,324273.5,319726.96875,212416.421875,225832.5625,229142.140625,209826.65625,18603.0,1.0,3
221022.46875,231365.953125,323771.65625,319037.28125,211694.640625,225544.125,226868.875,209132.59375,18604.0,1.0,3
220981.0625,231162.5625,323629.5,318873.65625,211451.984375,225508.1875,225948.609375,208985.515625,18605.0,1.0,3
221411.5625,231954.34375,324063.5625,319481.8125,212047.875,225782.9375,227707.15625,209610.46875,18606.0,1.0,3
221716.4375,232648.859375,324469.03125,320013.96875,212661.484375,225982.765625,229706.296875,210144.765625,18607.0,1.0,3
221463.6875,232270.3125,324275.1875,319717.9375,212434.203125,225825.140625,229161.1875,209841.40625,18608.0,1.0,3
221022.109375,231373.375,323760.65625,319017.0625,211701.34375,225539.484375,226875.9375,209130.984375,18609.0,1.0,3
220988.046875,231175.25,323625.46875,318862.21875,211465.9375,225519.90625,225951.65625,208983.8125,18610.0,1.0,3
221407.453125,231954.703125,324048.71875,319462.3125,212049.046875,225777.125,227691.0625,209601.53125,18611.0,1.0,3
221711.25,232640.90625,324452.65625,319996.0,212658.265625,225963.8125,229695.921875,210134.03125,18612.0,1.0,3
221468.515625,232272.984375,324267.78125,319712.75,212441.625,225807.171875,229174.859375,209838.359375,18613.0,1.0,3
221025.0625,231378.46875,323757.625,319015.5625,211713.3125,225522.671875,226898.46875,209138.21875,18614.0,1.0,3
220978.125,231163.359375,323611.34375,318844.34375,211463.421875,225496.65625,225946.734375,208984.703125,18615.0,1.0,3
221404.953125,231948.796875,324036.03125,319447.21875,212049.578125,225771.046875,227678.640625,209603.84375,18616.0,1.0,3
221709.015625,232642.78125,324438.34375,319982.3125,212655.9375,225969.265625,229687.15625,210136.625,18617.0,1.0,3
221469.671875,232284.796875,324257.40625,319705.34375,212446.1875,225823.890625,229187.5625,209846.953125,18618.0,1.0,3
221023.625,231390.09375,323746.875,319007.5,211721.015625,225546.28125,226915.09375,209145.375,18619.0,1.0,3
220971.140625,231165.15625,323593.28125,318829.6875,211461.109375,225516.328125,225938.953125,208983.546875,18620.0,1.0,3
221396.0,231940.390625,324013.9375,319426.84375,212039.828125,225785.53125,227653.59375,209599.375,18621.0,1.0,3
221705.890625,232640.09375,324419.21875,319966.65625,212648.96875,225982.140625,229674.203125,210137.96875,18622.0,1.0,3
221468.515625,232287.390625,324240.84375,319696.3125,212444.125,225835.953125,229198.640625,209849.1875,18623.0,1.0,3
221025.59375,231388.671875,323730.625,318999.5625,211721.359375,225557.90625,226930.125,209146.984375,18624.0,1.0,3
220969.265625,231149.59375,323573.6875,318817.0625,211460.484375,225524.015625,225936.0,208982.03125,18625.0,1.0,3
221389.84375,231919.5625,323993.1875,319411.90625,212034.921875,225793.3125,227638.21875,209592.859375,18626.0,1.0,3
221707.859375,232631.953125,324405.0,319959.59375,212653.34375,225997.6875,229674.109375,210136.890625,18627.0,1.0,3
221470.296875,232283.1875,324229.9375,319691.28125,212453.78125,225848.03125,229219.203125,209853.5625,18628.0,1.0,3
221017.90625,231373.46875,323710.21875,318982.5625,211716.265625,225556.203125,226936.46875,209143.578125,18629.0,1.0,3
220966.9375,231138.5,323552.5,318794.90625,211447.953125,225521.875,225922.140625,208973.703125,18630.0,1.0,3
221389.296875,231912.234375,323970.84375,319387.84375,212024.90625,225788.296875,227612.65625,209586.421875,18631.0,1.0,3
221706.78125,232627.671875,324388.28125,319938.3125,212651.46875,225991.703125,229659.265625,210135.640625,18632.0,1.0,3
221480.578125,232291.234375,324226.09375,319681.28125,212464.703125,225853.21875,229229.9375,209862.5,18633.0,1.0,3
221034.0,231389.734375,323714.34375,318981.59375,211736.125,225571.046875,226964.546875,209158.15625,18634.0,1.0,3
220967.203125,231138.15625,323543.75,318777.46875,211453.765625,225528.578125,225922.765625,208971.46875,18635.0,1.0,3
221381.078125,231898.375,323955.5625,319361.28125,212016.234375,225788.65625,227592.890625,209568.890625,18636.0,1.0,3
221703.921875,232619.359375,324376.65625,319918.46875,212642.265625,225997.25,229651.125,210123.75,18637.0,1.0,3
221479.953125,232291.765625,324216.1875,319666.09375,212457.984375,225859.109375,229236.109375,209857.765625,18638.0,1.0,3
221036.765625,231398.859375,323714.34375,318972.90625,211738.4375,225579.359375,226976.4375,209160.65625,18639.0,1.0,3
220970.515625,231143.953125,323545.375,318773.09375,211456.8125,225533.046875,225923.84375,208971.75,18640.0,1.0,3
221381.4375,231901.234375,323953.25,319356.1875,212019.53125,225792.859375,227582.4375,209569.78125,18641.0,1.0,3
221702.578125,232622.578125,324370.40625,319912.84375,212644.3125,225995.09375,229639.328125,210126.4375,18642.0,1.0,3
221483.984375,232303.484375,324210.375,319663.125,212463.0,225850.625,229243.4375,209862.59375,18643.0,1.0,3
221037.578125,231407.53125,323704.78125,318964.25,211740.59375,225572.75,226987.34375,209163.34375,18644.0,1.0,3
220963.90625,231142.796875,323529.53125,318754.75,211452.25,225531.703125,225913.46875,208968.25,18645.0,1.0,3
221373.390625,231886.65625,323932.125,319331.4375,212005.234375,225791.4375,227554.0,209564.515625,18646.0,1.0,3
221703.203125,232615.515625,324358.53125,319895.78125,212640.015625,226004.484375,229629.40625,210129.03125,18647.0,1.0,3
221489.34375,232308.9375,324207.25,319656.5,212472.203125,225879.234375,229260.609375,209872.4375,18648.0,1.0,3
221042.046875,231412.09375,323696.09375,318957.53125,211752.75,225602.34375,227006.296875,209167.28125,18649.0,1.0,3
220963.640625,231136.09375,323515.5,318738.21875,211455.5625,225553.609375,225914.09375,208963.25,18650.0,1.0,3
221374.375,231885.5,323921.21875,319313.8125,212006.9375,225808.859375,227544.078125,209558.25,18651.0,1.0,3
221704.640625,232621.40625,324347.4375,319880.65625,212642.53125,226018.171875,229625.828125,210123.75,18652.0,1.0,3
221488.28125,232316.625,324195.09375,319643.09375,212476.5,225884.59375,229273.203125,209871.53125,18653.0,1.0,3
221040.34375,231420.140625,323686.0,318945.625,211755.875,225598.3125,227023.015625,209165.046875,18654.0,1.0,3
220962.828125,231142.171875,323506.375,318727.5,211456.1875,225544.765625,225913.921875,208957.625,18655.0,1.0,3
221367.84375,231880.9375,323904.96875,319295.9375,211998.625,225799.5625,227524.9375,209546.359375,18656.0,1.0,3
221697.390625,232615.78125,324331.78125,319862.96875,212636.0,226014.234375,229613.3125,210114.984375,18657.0,1.0,3
221475.9375,232309.921875,324177.90625,319625.75,212470.859375,225876.1875,229275.171875,209865.359375,18658.0,1.0,3
221029.703125,231415.046875,323672.78125,318931.34375,211755.15625,225594.921875,227034.8125,209168.796875,18659.0,1.0,3
220959.703125,231138.953125,323500.375,318714.0625,211459.671875,225552.71875,225917.859375,208966.734375,18660.0,1.0,3
221363.109375,231869.9375,323896.28125,319277.53125,211999.78125,225803.859375,227515.109375,209551.734375,18661.0,1.0,3
221691.859375,232605.3125,324321.0625,319846.59375,212639.390625,226015.671875,229608.9375,210125.359375,18662.0,1.0,3
221483.359375,232318.59375,324179.71875,319624.25,212490.53125,225882.71875,229300.484375,209887.71875,18663.0,1.0,3
221030.421875,231419.328125,323668.90625,318923.1875,211770.984375,225589.640625,227055.828125,209173.796875,18664.0,1.0,3
220938.328125,231119.734375,323468.5625,318682.78125,211448.671875,225527.140625,225896.21875,208948.5,18665.0,1.0,3
221352.375,231865.828125,323872.84375,319258.84375,211999.421875,225786.515625,227494.09375,209543.859375,18666.0,1.0,3
221688.359375,232610.234375,324303.4375,319835.6875,212644.671875,225999.03125,229602.765625,210119.90625,18667.0,1.0,3
221474.140625,232316.984375,324155.21875,319605.03125,212485.171875,225865.1875,229302.796875,209878.6875,18668.0,1.0,3
221027.46875,231424.515625,323652.28125,318912.125,211769.734375,225586.421875,227071.921875,209184.4375,18669.0,1.0,3
220939.046875,231124.921875,323460.15625,318677.5,211454.84375,225534.203125,225910.796875,208965.484375,18670.0,1.0,3
221340.75,231849.296875,323849.0,319233.0,211986.015625,225789.5625,227477.375,209540.375,18671.0,1.0,3
221676.5625,232595.125,324280.09375,319807.96875,212629.109375,226007.796875,229584.96875,210114.984375,18672.0,1.0,3
221475.125,232319.84375,324143.125,319594.5625,212485.53125,225882.0,229314.328125,209885.9375,18673.0,1.0,3
221031.3125,231428.28125,323638.875,318902.28125,211769.828125,225600.1875,227086.9375,209186.953125,18674.0,1.0,3
220934.9375,231114.28125,323440.125,318658.90625,211443.75,225534.921875,225897.921875,208954.40625,18675.0,1.0,3
221335.03125,231834.359375,323831.71875,319216.71875,211973.578125,225784.1875,227450.828125,209529.375,18676.0,1.0,3
221683.1875,232592.078125,324269.65625,319800.625,212625.1875,226006.90625,229571.46875,210112.390625,18677.0,1.0,3
221491.3125,232330.5625,324144.03125,319594.75,212494.828125,225886.828125,229322.296875,209892.09375,18678.0,1.0,3
221053.75,231448.03125,323648.34375,318908.90625,211789.3125,225608.5,227104.375,209197.046875,18679.0,1.0,3
220955.59375,231131.4375,323443.53125,318658.1875,211455.46875,225545.828125,225900.421875,208962.71875,18680.0,1.0,3
221354.515625,231850.0,323831.71875,319211.09375,211983.328125,225802.515625,227446.09375,209538.5,18681.0,1.0,3
221693.46875,232598.078125,324265.09375,319789.375,212627.140625,226013.609375,229567.796875,210115.34375,18682.0,1.0,3
221501.0625,232334.5,324140.71875,319589.625,212497.234375,225889.515625,229338.921875,209900.859375,18683.0,1.0,3
221053.3125,231442.765625,323635.46875,318893.34375,211781.8125,225596.703125,227114.75,209199.828125,18684.0,1.0,3
220956.03125,231122.5,323429.59375,318643.1875,211451.453125,225530.359375,225894.96875,208959.859375,18685.0,1.0,3
221347.640625,231826.84375,323805.1875,319185.78125,211962.671875,225772.296875,227409.875,209519.546875,18686.0,1.0,3
221698.015625,232592.171875,324246.3125,319775.25,212617.21875,225998.3125,229546.34375,210108.203125,18687.0,1.0,3
221512.59375,232349.796875,324131.34375,319584.4375,212502.25,225883.703125,229347.59375,209905.953125,18688.0,1.0,3
221058.40625,231452.328125,323629.84375,318889.84375,211790.65625,225594.296875,227134.59375,209207.421875,18689.0,1.0,3
220947.90625,231112.84375,323416.625,318624.9375,211448.859375,225518.203125,225893.453125,208955.109375,18690.0,1.0,3
221345.21875,231829.796875,323801.5,319172.5625,211972.0625,225766.390625,227403.0,209522.40625,18691.0,1.0,3
221691.046875,232597.0,324242.46875,319763.0,212631.171875,225992.59375,229545.625,210110.96875,18692.0,1.0,3
221506.609375,232352.296875,324126.15625,319572.375,212514.5,225876.8125,229359.3125,209907.484375,18693.0,1.0,3
221059.65625,231460.640625,323626.28125,318881.8125,211808.453125,225594.828125,227153.453125,209211.359375,18694.0,1.0,3
220951.390625,231120.71875,323411.34375,318613.9375,211463.25,225526.25,225895.0625,208954.671875,18695.0,1.0,3
221341.375,231824.96875,323784.34375,319148.59375,211967.234375,225768.1875,227377.515625,209512.203125,18696.0,1.0,3
221699.28125,232605.765625,324233.875,319751.03125,212635.546875,226001.453125,229535.890625,210113.5625,18697.0,1.0,3
221516.703125,232368.125,324122.9375,319572.21875,212531.21875,225894.96875,229379.78125,209915.25,18698.0,1.0,3
221058.3125,231466.1875,323610.625,318867.3125,211809.875,225602.96875,227166.515625,209206.171875,18699.0,1.0,3
220938.875,231115.265625,323383.1875,318584.875,211441.875,225524.828125,225880.390625,208934.46875,18700.0,1.0,3
221331.984375,231819.703125,323761.8125,319128.375,211953.203125,225773.109375,227363.5625,209496.5625,18701.0,1.0,3
221680.046875,232582.96875,324205.625,319726.53125,212616.78125,225995.8125,229524.359375,210098.265625,18702.0,1.0,3
221505.625,232360.078125,324103.25,319554.78125,212519.859375,225889.78125,229388.984375,209914.265625,18703.0,1.0,3
221051.25,231466.1875,323595.53125,318856.40625,211803.796875,225596.078125,227181.890625,209209.921875,18704.0,1.0,3
220925.1875,231090.9375,323359.125,318569.15625,211434.640625,225509.265625,225878.0625,208936.78125,18705.0,1.0,3
221322.875,231794.390625,323734.09375,319108.53125,211939.703125,225757.640625,227344.515625,209496.46875,18706.0,1.0,3
221681.75,232576.171875,324183.28125,319710.59375,212607.203125,225987.5,229510.40625,210098.546875,18707.0,1.0,3
221511.078125,232356.234375,324084.5625,319546.53125,212517.890625,225882.53125,229395.421875,209921.421875,18708.0,1.0,3
221061.265625,231460.1875,323583.34375,318855.15625,211806.84375,225596.875,227198.34375,209223.421875,18709.0,1.0,3
220934.390625,231093.171875,323348.03125,318562.875,211432.046875,225513.828125,225876.546875,208942.15625,18710.0,1.0,3
221320.8125,231784.109375,323716.21875,319095.125,211932.546875,225759.609375,227322.96875,209491.203125,18711.0,1.0,3
221683.1875,232569.734375,324167.625,319700.3125,212600.765625,225989.921875,229494.140625,210096.578125,18712.0,1.0,3
221526.546875,232372.140625,324079.9375,319548.40625,212522.546875,225896.03125,229407.671875,209929.03125,18713.0,1.0,3
221074.953125,231480.484375,323575.59375,318857.75,211813.546875,225612.171875,227217.296875,209227.53125,18714.0,1.0,3
220937.171875,231096.484375,323332.65625,318555.8125,211431.0625,225522.859375,225876.375,208940.359375,18715.0,1.0,3
221320.28125,231777.5,323696.5625,319080.03125,211920.828125,225765.0625,227303.21875,209487.171875,18716.0,1.0,3
221683.359375,232563.828125,324150.1875,319691.28125,212592.640625,226000.640625,229484.828125,210098.625,18717.0,1.0,3
221519.484375,232362.75,324060.4375,319538.6875,212516.1875,225909.453125,229413.75,209930.1875,18718.0,1.0,3
221069.578125,231473.421875,323561.09375,318845.5,211812.203125,225635.421875,227232.578125,209231.203125,18719.0,1.0,3
220939.671875,231094.609375,323328.71875,318548.3125,211439.28125,225562.640625,225888.34375,208945.453125,18720.0,1.0,3
221318.671875,231769.09375,323689.125,319067.5,211926.109375,225799.84375,227299.546875,209481.28125,18721.0,1.0,3
221679.0625,232550.875,324132.40625,319666.53125,212585.9375,226024.25,229469.1875,210078.328125,18722.0,1.0,3
221522.609375,232366.0625,324051.3125,319522.125,212518.703125,225934.3125,229419.125,209918.5625,18723.0,1.0,3
221077.8125,231486.390625,323563.40625,318841.75,211825.796875,225646.5,227253.859375,209231.828125,18724.0,1.0,3
220937.890625,231094.609375,323319.34375,318533.46875,211438.484375,225544.671875,225886.828125,208936.15625,18725.0,1.0,3
221317.59375,231765.515625,323677.78125,319048.1875,211917.25,225776.40625,227280.6875,209470.90625,18726.0,1.0,3
221688.015625,232565.703125,324136.34375,319662.40625,212594.6875,226013.078125,229472.046875,210086.65625,18727.0,1.0,3
221536.90625,232389.21875,324059.0,319521.15625,212531.03125,225916.875,229442.09375,209930.359375,18728.0,1.0,3
221085.859375,231501.5,323563.0625,318831.8125,211832.234375,225632.734375,227273.078125,209234.421875,18729.0,1.0,3
220949.15625,231112.21875,323322.8125,318526.59375,211451.359375,225552.171875,225899.796875,208941.34375,18730.0,1.0,3
221327.34375,231781.25,323678.9375,319041.125,211930.125,225789.90625,227283.359375,209476.71875,18731.0,1.0,3
221695.703125,232577.15625,324132.5,319654.375,212603.546875,226020.046875,229472.765625,210090.3125,18732.0,1.0,3
221539.421875,232399.234375,324056.0625,319521.59375,212549.0,225926.171875,229466.859375,209942.703125,18733.0,1.0,3
221083.171875,231505.34375,323557.6875,318832.28125,211847.96875,225637.921875,227304.90625,209246.9375,18734.0,1.0,3
220930.90625,231091.828125,323298.96875,318509.5,211442.953125,225538.59375,225897.46875,208934.109375,18735.0,1.0,3
221310.984375,231759.265625,323655.59375,319023.25,211922.984375,225779.8125,227267.265625,209468.125,18736.0,1.0,3
221688.546875,232567.40625,324117.84375,319643.8125,212609.359375,226023.625,229474.46875,210091.296875,18737.0,1.0,3
221531.09375,232385.640625,324029.59375,319499.875,212538.359375,225917.046875,229462.578125,209934.125,18738.0,1.0,3
221073.34375,231493.359375,323528.375,318810.46875,211831.6875,225620.84375,227296.15625,209242.921875,18739.0,1.0,3
220926.34375,231082.359375,323272.65625,318489.65625,211432.84375,225528.9375,225884.765625,208932.21875,18740.0,1.0,3
221302.125,231745.84375,323623.15625,318997.6875,211905.359375,225767.46875,227235.71875,209452.84375,18741.0,1.0,3
221680.5,232559.453125,324084.5625,319626.75,212593.078125,226018.53125,229434.3125,210082.53125,18742.0,1.0,3
221540.40625,232404.515625,324010.28125,319511.84375,212551.421875,225949.59375,229462.03125,209955.578125,18743.0,1.0,3
221089.15625,231521.4375,323502.28125,318823.875,211844.75,225660.0,227309.46875,209254.359375,18744.0,1.0,3
220931.265625,231088.703125,323245.84375,318490.28125,211431.234375,225545.65625,225874.765625,208932.9375,18745.0,1.0,3
