FZ,C3,CZ,C4,PZ,PO7,OZ,PO8,Counter,Validation,Label
230264.46875,244024.015625,245640.140625,241791.703125,225607.703125,227124.578125,221701.953125,211256.546875,22353.0,1.0,3
230209.390625,243995.3125,245621.453125,241778.46875,225676.8125,227109.109375,221716.703125,211255.828125,22354.0,1.0,3
230100.765625,243889.90625,245583.8125,241723.671875,225547.703125,227055.828125,221649.65625,211200.75,22355.0,1.0,3
230147.96875,243915.84375,245601.25,241727.6875,225472.25,227062.359375,221631.765625,211195.296875,22356.0,1.0,3
230213.328125,243967.0625,245614.296875,241744.671875,225476.1875,227081.578125,221640.09375,211209.25,22357.0,1.0,3
230259.90625,244020.53125,245632.546875,241779.640625,225603.046875,227114.390625,221703.484375,211253.328125,22358.0,1.0,3
230214.21875,243997.46875,245619.578125,241772.390625,225676.984375,227104.015625,221726.28125,211257.515625,22359.0,1.0,3
230111.9375,243899.390625,245584.078125,241724.5625,225554.328125,227056.8125,221663.421875,211207.71875,22360.0,1.0,3
230138.75,243900.09375,245589.453125,241714.640625,225466.703125,227048.5,221627.921875,211189.390625,22361.0,1.0,3
230214.84375,243959.28125,245613.140625,241737.96875,225475.375,227076.125,221642.5,211205.75,22362.0,1.0,3
230263.296875,244014.71875,245634.328125,241776.0625,225600.8125,227109.65625,221705.796875,211245.71875,22363.0,1.0,3
230212.15625,243990.21875,245620.015625,241772.9375,225677.796875,227102.046875,221726.0,211249.03125,22364.0,1.0,3
230114.625,243900.640625,245586.234375,241724.828125,225559.328125,227054.84375,221664.140625,211202.0,22365.0,1.0,3
230132.59375,243893.21875,245583.1875,241710.34375,225464.375,227035.0,221622.46875,211179.203125,22366.0,1.0,3
230205.015625,243946.765625,245603.9375,241736.0,225470.640625,227058.78125,221633.5625,211196.71875,22367.0,1.0,3
230258.203125,244008.546875,245625.75,241777.40625,225599.296875,227098.828125,221697.671875,211244.203125,22368.0,1.0,3
230211.265625,243989.328125,245614.921875,241773.5625,225676.984375,227091.5,221722.96875,211254.84375,22369.0,1.0,3
230110.234375,243895.359375,245583.90625,241725.28125,225556.203125,227046.265625,221666.015625,211208.609375,22370.0,1.0,3
230130.984375,243892.5,245585.25,241716.875,225461.15625,227035.984375,221627.75,211187.0625,22371.0,1.0,3
230200.09375,243945.078125,245600.359375,241735.5625,225462.59375,227056.0,221635.53125,211199.140625,22372.0,1.0,3
230252.125,244005.6875,245621.8125,241773.28125,225582.40625,227087.5625,221698.015625,211244.375,22373.0,1.0,3
230219.84375,244000.953125,245621.71875,241783.65625,225673.859375,227095.4375,221736.296875,211264.5,22374.0,1.0,3
230111.9375,243904.03125,245580.234375,241729.296875,225549.59375,227045.546875,221669.765625,211210.21875,22375.0,1.0,3
230131.78125,243899.125,245579.34375,241716.609375,225458.03125,227033.75,221630.4375,211190.109375,22376.0,1.0,3
230207.15625,243953.03125,245603.75,241743.875,225470.375,227063.6875,221644.921875,211207.984375,22377.0,1.0,3
230259.015625,244013.828125,245625.484375,241781.609375,225594.640625,227098.828125,221705.796875,211250.28125,22378.0,1.0,3
230208.140625,243988.25,245614.921875,241775.078125,225671.265625,227092.9375,221728.6875,211255.90625,22379.0,1.0,3
230100.578125,243886.875,245580.234375,241723.046875,225544.21875,227041.78125,221662.171875,211203.796875,22380.0,1.0,3
230135.984375,243901.265625,245590.515625,241724.46875,225463.9375,227039.640625,221634.984375,211195.65625,22381.0,1.0,3
230206.890625,243952.40625,245606.171875,241743.609375,225466.703125,227058.328125,221640.171875,211207.28125,22382.0,1.0,3
230255.25,244003.8125,245623.15625,241778.296875,225584.1875,227087.65625,221694.890625,211246.890625,22383.0,1.0,3
230210.734375,243979.859375,245612.78125,241775.171875,225665.546875,227085.515625,221721.984375,211254.578125,22384.0,1.0,3
230103.53125,243879.8125,245577.640625,241722.5,225544.765625,227040.53125,221662.96875,211204.421875,22385.0,1.0,3
230131.15625,243885.4375,245585.875,241718.21875,225456.609375,227036.0625,221631.421875,211188.671875,22386.0,1.0,3
230212.78125,243951.515625,245608.9375,241746.203125,225469.65625,227067.359375,221645.1875,211208.171875,22387.0,1.0,3
230254.09375,244004.265625,245624.3125,241774.625,225585.796875,227094.453125,221700.796875,211246.25,22388.0,1.0,3
230201.96875,243977.34375,245608.765625,241765.515625,225661.96875,227082.921875,221720.640625,211250.015625,22389.0,1.0,3
230095.9375,243881.0625,245574.609375,241716.328125,225540.828125,227037.234375,221659.046875,211201.546875,22390.0,1.0,3
230126.15625,243888.65625,245580.6875,241712.484375,225451.0625,227032.578125,221626.046875,211183.84375,22391.0,1.0,3
230212.078125,243956.34375,245606.515625,241743.78125,225467.328125,227067.984375,221645.09375,211207.1875,22392.0,1.0,3
230255.34375,244007.296875,245621.984375,241775.96875,225588.203125,227099.640625,221701.515625,211247.234375,22393.0,1.0,3
230210.90625,243987.09375,245612.609375,241772.9375,225674.84375,227097.046875,221726.359375,211256.453125,22394.0,1.0,3
230106.21875,243891.875,245580.328125,241722.421875,225558.96875,227051.890625,221665.75,211207.359375,22395.0,1.0,3
230134.28125,243898.484375,245590.703125,241717.9375,225474.125,227050.46875,221634.640625,211191.890625,22396.0,1.0,3
230209.75,243957.234375,245611.984375,241743.515625,225485.484375,227080.859375,221649.390625,211211.125,22397.0,1.0,3
230249.0,244004.265625,245622.34375,241772.484375,225597.328125,227105.0,221702.40625,211249.390625,22398.0,1.0,3
230201.796875,243982.984375,245605.359375,241764.609375,225671.625,227093.640625,221725.734375,211253.40625,22399.0,1.0,3
230100.84375,243891.515625,245575.3125,241718.390625,225556.203125,227050.640625,221672.625,211211.390625,22400.0,1.0,3
230128.296875,243894.921875,245582.734375,241711.5,225468.40625,227044.46875,221643.65625,211198.15625,22401.0,1.0,3
230196.875,243942.5625,245593.46875,241726.4375,225462.859375,227060.203125,221640.890625,211202.625,22402.0,1.0,3
230234.78125,243984.6875,245603.484375,241757.1875,225569.34375,227083.453125,221686.3125,211236.78125,22403.0,1.0,3
230191.328125,243965.546875,245591.859375,241755.046875,225646.859375,227076.203125,221711.703125,211247.234375,22404.0,1.0,3
230094.953125,243882.40625,245563.34375,241709.546875,225532.78125,227034.90625,221660.203125,211205.9375,22405.0,1.0,3
230116.9375,243886.875,245566.46875,241703.90625,225445.875,227028.828125,221627.65625,211189.9375,22406.0,1.0,3
230186.140625,243937.390625,245582.921875,241726.265625,225446.671875,227051.984375,221635.34375,211203.703125,22407.0,1.0,3
230233.890625,243992.375,245602.140625,241761.484375,225557.640625,227084.53125,221689.96875,211243.21875,22408.0,1.0,3
230201.515625,243982.09375,245594.546875,241762.828125,225644.453125,227083.28125,221722.25,211256.890625,22409.0,1.0,3
230090.65625,243880.609375,245549.03125,241704.0,225517.3125,227029.359375,221656.09375,211202.453125,22410.0,1.0,3
230119.984375,243885.53125,245554.484375,241701.046875,225424.78125,227025.25,221623.453125,211187.0625,22411.0,1.0,3
230196.96875,243945.4375,245578.53125,241729.296875,225433.53125,227055.640625,221636.6875,211207.8125,22412.0,1.0,3
230247.203125,244002.828125,245599.734375,241765.234375,225553.78125,227089.890625,221692.84375,211251.796875,22413.0,1.0,3
230203.671875,243981.015625,245586.046875,241761.75,225638.90625,227084.796875,221716.796875,211257.34375,22414.0,1.0,3
230094.59375,243879.265625,245552.34375,241710.34375,225520.4375,227041.515625,221653.40625,211204.859375,22415.0,1.0,3
230122.21875,243876.40625,245560.203125,241703.546875,225430.40625,227035.265625,221617.46875,211184.65625,22416.0,1.0,3
230201.25,243932.5625,245582.46875,241728.234375,225438.0,227058.421875,221628.640625,211196.71875,22417.0,1.0,3
230258.734375,243996.484375,245609.734375,241767.75,225560.859375,227091.140625,221692.296875,211241.421875,22418.0,1.0,3
230214.84375,243977.265625,245594.8125,241762.296875,225642.484375,227080.6875,221717.609375,211246.609375,22419.0,1.0,3
230099.78125,243872.203125,245557.703125,241710.703125,225525.359375,227027.03125,221658.0625,211196.8125,22420.0,1.0,3
230125.890625,243874.171875,245567.546875,241704.265625,225435.765625,227016.671875,221622.109375,211180.28125,22421.0,1.0,3
230209.65625,243936.484375,245599.453125,241731.453125,225448.28125,227045.1875,221635.34375,211197.625,22422.0,1.0,3
230265.0,243996.65625,245633.53125,241772.578125,225579.265625,227084.890625,221694.453125,211244.5625,22423.0,1.0,3
230226.5625,243984.765625,245631.921875,241770.96875,225673.234375,227069.421875,221729.21875,211254.390625,22424.0,1.0,3
230116.40625,243884.1875,245599.90625,241718.84375,225559.421875,226992.34375,221680.40625,211202.359375,22425.0,1.0,3
230140.359375,243885.625,245598.5625,241711.59375,225469.921875,227004.859375,221639.015625,211185.453125,22426.0,1.0,3
230212.34375,243938.71875,245602.328125,241731.796875,225469.125,227010.9375,221649.296875,211195.828125,22427.0,1.0,3
230265.625,243997.46875,245608.9375,241768.90625,225583.65625,227029.359375,221714.65625,211238.390625,22428.0,1.0,3
230232.1875,243987.09375,245587.84375,241766.84375,225675.109375,227044.46875,221740.21875,211254.65625,22429.0,1.0,3
230118.90625,243882.484375,245546.265625,241710.171875,225554.953125,226979.5625,221681.65625,211203.25,22430.0,1.0,3
230140.546875,243882.84375,245554.75,241701.859375,225464.203125,226987.875,221644.015625,211184.296875,22431.0,1.0,3
230222.984375,243943.203125,245589.625,241726.34375,225476.453125,227026.859375,221653.59375,211201.375,22432.0,1.0,3
230265.71875,243991.75,245616.265625,241751.03125,225583.46875,227044.203125,221700.34375,211232.84375,22433.0,1.0,3
230230.40625,243986.109375,245619.9375,241755.40625,225675.5625,227056.09375,221730.484375,211245.28125,22434.0,1.0,3
230123.5625,243894.015625,245594.8125,241707.9375,225568.09375,227022.03125,221674.234375,211200.921875,22435.0,1.0,3
230142.515625,243892.234375,245601.25,241698.640625,225476.90625,227021.140625,221635.890625,211182.234375,22436.0,1.0,3
230218.515625,243946.59375,245620.015625,241723.3125,225482.53125,227059.40625,221639.546875,211197.984375,22437.0,1.0,3
230265.265625,244001.3125,245635.84375,241756.5625,225593.484375,227113.9375,221681.125,211236.875,22438.0,1.0,3
230229.0625,243992.8125,245624.140625,241756.390625,225685.03125,227143.71875,221701.234375,211252.875,22439.0,1.0,3
230113.8125,243889.640625,245583.015625,241695.765625,225565.046875,227121.265625,221628.828125,211202.984375,22440.0,1.0,3
230136.875,243892.046875,245591.5,241686.390625,225474.390625,227144.15625,221588.40625,211191.1875,22441.0,1.0,3
230204.828125,243943.109375,245608.671875,241702.65625,225466.265625,227179.03125,221587.15625,211203.34375,22442.0,1.0,3
230249.0,243998.1875,245623.78125,241734.484375,225566.484375,227213.8125,221636.421875,211240.71875,22443.0,1.0,3
230214.484375,243992.90625,245611.265625,241735.46875,225652.3125,227201.109375,221676.03125,211256.984375,22444.0,1.0,3
230099.0625,243894.921875,245564.5,241681.015625,225528.9375,227137.0,221627.21875,211207.984375,22445.0,1.0,3
230119.796875,243901.171875,245565.9375,241679.671875,225435.140625,227119.9375,221604.0625,211194.40625,22446.0,1.0,3
230199.109375,243962.234375,245585.0625,241706.59375,225431.03125,227133.78125,221616.75,211210.3125,22447.0,1.0,3
230258.203125,244027.6875,245609.734375,241747.890625,225539.578125,227167.234375,221682.90625,211259.3125,22448.0,1.0,3
230224.140625,244025.546875,245601.96875,241747.453125,225624.15625,227162.84375,221719.75,211271.203125,22449.0,1.0,3
230113.984375,243931.65625,245568.703125,241692.375,225507.203125,227110.546875,221664.578125,211218.8125,22450.0,1.0,3
230133.125,243930.765625,245580.953125,241683.875,225412.25,227099.8125,221633.65625,211196.375,22451.0,1.0,3
230203.9375,243979.671875,245604.375,241700.875,225408.328125,227117.0625,221640.4375,211203.609375,22452.0,1.0,3
230257.765625,244039.21875,245631.828125,241736.0,225521.15625,227149.25,221696.0625,211240.796875,22453.0,1.0,3
230231.828125,244038.859375,245633.703125,241742.078125,225625.5,227150.859375,221733.609375,211255.828125,22454.0,1.0,3
230114.890625,243933.625,245598.390625,241683.875,225512.03125,227095.703125,221669.40625,211197.265625,22455.0,1.0,3
230136.875,243934.875,245611.265625,241679.40625,225429.15625,227090.515625,221641.25,211180.625,22456.0,1.0,3
230218.6875,243994.421875,245638.890625,241708.734375,225439.703125,227116.796875,221650.1875,211193.5,22457.0,1.0,3
230271.53125,244048.34375,245666.609375,241746.90625,225556.03125,227150.78125,221699.453125,211231.59375,22458.0,1.0,3
230239.78125,244035.46875,245666.34375,241749.6875,225657.046875,227150.15625,221730.03125,211244.203125,22459.0,1.0,3
230137.234375,243942.21875,245636.109375,241701.40625,225558.890625,227105.796875,221672.0,211196.8125,22460.0,1.0,3
230150.734375,243935.78125,245638.265625,241691.03125,225471.890625,227097.046875,221633.5625,211173.296875,22461.0,1.0,3
230224.40625,243991.5625,245657.65625,241718.21875,225484.40625,227124.84375,221642.046875,211186.796875,22462.0,1.0,3
230273.140625,244047.71875,245676.078125,241750.671875,225597.421875,227156.5,221693.46875,211224.359375,22463.0,1.0,3
230242.640625,244047.359375,245665.796875,241750.484375,225698.09375,227154.890625,221725.65625,211241.421875,22464.0,1.0,3
230125.890625,243950.171875,245623.875,241695.5,225590.625,227106.078125,221664.671875,211195.03125,22465.0,1.0,3
230144.65625,243952.671875,245623.328125,241691.5625,225505.234375,227101.78125,221634.640625,211183.578125,22466.0,1.0,3
230222.171875,244011.953125,245629.046875,241712.9375,225506.21875,227124.671875,221640.0,211198.609375,22467.0,1.0,3
230274.75,244074.625,245630.3125,241743.96875,225609.046875,227154.265625,221692.921875,211237.046875,22468.0,1.0,3
230248.546875,244076.046875,245612.78125,241752.71875,225706.234375,227155.78125,221731.90625,211257.34375,22469.0,1.0,3
230129.1875,243973.59375,245562.53125,241697.734375,225588.921875,227099.453125,221668.875,211208.890625,22470.0,1.0,3
230139.46875,243967.78125,245558.515625,241684.953125,225488.34375,227086.3125,221630.703125,211189.03125,22471.0,1.0,3
230226.109375,244034.84375,245580.0625,241712.40625,225489.859375,227114.203125,221643.21875,211207.71875,22472.0,1.0,3
230274.921875,244087.40625,245599.546875,241745.21875,225587.5,227143.890625,221693.46875,211247.515625,22473.0,1.0,3
230254.0,244091.609375,245598.390625,241755.046875,225686.203125,227147.296875,221733.78125,211269.140625,22474.0,1.0,3
230141.265625,243991.828125,245559.9375,241702.484375,225572.828125,227097.125,221677.453125,211221.21875,22475.0,1.0,3
230146.09375,243975.46875,245558.875,241688.796875,225466.96875,227084.4375,221638.828125,211199.3125,22476.0,1.0,3
230220.828125,244027.234375,245578.8125,241711.234375,225461.25,227103.21875,221644.828125,211210.5,22477.0,1.0,3
230276.4375,244082.765625,245603.296875,241748.171875,225565.59375,227133.609375,221697.671875,211248.046875,22478.0,1.0,3
230252.484375,244080.171875,245605.71875,241753.0,225661.53125,227135.125,221732.09375,211264.765625,22479.0,1.0,3
230138.40625,243979.21875,245580.78125,241702.125,225550.84375,227088.734375,221680.328125,211216.03125,22480.0,1.0,3
230154.84375,243974.484375,245596.59375,241697.109375,225456.953125,227084.96875,221650.90625,211197.984375,22481.0,1.0,3
230238.0,244035.828125,245621.90625,241723.84375,225460.09375,227115.015625,221660.5625,211212.734375,22482.0,1.0,3
230289.046875,244090.359375,245640.59375,241759.25,225558.53125,227143.53125,221706.96875,211247.59375,22483.0,1.0,3
230255.875,244079.546875,245631.203125,241761.484375,225649.09375,227141.921875,221737.90625,211258.6875,22484.0,1.0,3
230150.109375,243987.0,245597.9375,241715.796875,225545.828125,227100.796875,221685.59375,211216.484375,22485.0,1.0,3
230166.03125,243980.65625,245598.203125,241704.171875,225447.3125,227088.1875,221644.734375,211192.96875,22486.0,1.0,3
230240.765625,244034.296875,245618.5,241726.890625,225443.734375,227109.109375,221645.8125,211203.34375,22487.0,1.0,3
230292.53125,244091.875,245637.28125,241763.09375,225548.609375,227142.46875,221695.515625,211244.015625,22488.0,1.0,3
230271.265625,244094.828125,245631.921875,241769.078125,225654.015625,227147.46875,221733.515625,211263.25,22489.0,1.0,3
230156.8125,243994.96875,245590.515625,241714.546875,225547.625,227097.125,221675.84375,211212.8125,22490.0,1.0,3
230165.21875,243984.40625,245588.015625,241702.65625,225448.015625,227084.25,221636.0625,211192.078125,22491.0,1.0,3
230249.4375,244048.78125,245609.390625,241731.09375,225453.03125,227114.203125,221647.59375,211211.125,22492.0,1.0,3
230302.015625,244106.453125,245627.890625,241768.640625,225561.390625,227153.09375,221703.03125,211253.5,22493.0,1.0,3
230272.515625,244103.5,245617.15625,241768.109375,225658.75,227151.9375,221733.703125,211265.65625,22494.0,1.0,3
230160.484375,244006.5,245579.34375,241716.0625,225559.328125,227103.65625,221677.109375,211217.640625,22495.0,1.0,3
230165.125,243993.265625,245580.953125,241701.40625,225466.796875,227090.25,221638.5625,211196.1875,22496.0,1.0,3
230241.578125,244048.0625,245604.828125,241721.609375,225468.578125,227114.390625,221643.125,211205.9375,22497.0,1.0,3
230288.328125,244098.3125,245630.578125,241757.46875,225575.328125,227148.8125,221693.734375,211244.015625,22498.0,1.0,3
230260.4375,244095.09375,245628.78125,241761.484375,225678.0625,227150.328125,221726.28125,211259.765625,22499.0,1.0,3
230144.75,243993.796875,245592.9375,241709.453125,225576.3125,227103.21875,221669.328125,211211.03125,22500.0,1.0,3
230161.28125,243983.96875,245604.90625,241705.96875,225488.515625,227102.578125,221638.125,211194.140625,22501.0,1.0,3
230238.265625,244033.578125,245622.265625,241725.09375,225484.9375,227122.796875,221638.828125,211199.140625,22502.0,1.0,3
230288.78125,244087.140625,245635.046875,241756.296875,225582.578125,227151.578125,221685.5,211233.65625,22503.0,1.0,3
230266.96875,244088.21875,245628.703125,241766.671875,225690.3125,227156.140625,221726.984375,211254.03125,22504.0,1.0,3
230149.484375,243980.390625,245581.21875,241710.078125,225582.40625,227101.15625,221667.453125,211200.65625,22505.0,1.0,3
230167.640625,243976.1875,245586.3125,241708.109375,225492.015625,227098.296875,221639.734375,211191.265625,22506.0,1.0,3
230243.71875,244026.703125,245603.390625,241729.75,225492.71875,227121.625,221647.78125,211203.078125,22507.0,1.0,3
230290.84375,244076.6875,245621.1875,241756.125,225587.3125,227148.0,221690.0625,211234.359375,22508.0,1.0,3
230276.53125,244087.140625,245631.46875,241771.140625,225696.84375,227159.453125,221732.984375,211257.4375,22509.0,1.0,3
230158.515625,243983.078125,245598.125,241719.28125,225589.375,227108.75,221674.421875,211208.34375,22510.0,1.0,3
230154.046875,243958.65625,245591.765625,241695.859375,225473.59375,227085.6875,221625.25,211176.96875,22511.0,1.0,3
230245.515625,244025.546875,245610.71875,241722.6875,225474.21875,227111.609375,221635.890625,211195.03125,22512.0,1.0,3
230303.265625,244083.65625,245621.984375,241757.734375,225574.171875,227144.78125,221687.5625,211237.578125,22513.0,1.0,3
230281.1875,244085.625,245608.484375,241764.53125,225677.265625,227148.625,221728.421875,211262.078125,22514.0,1.0,3
230156.453125,243976.015625,245559.3125,241707.65625,225568.359375,227092.484375,221670.21875,211213.53125,22515.0,1.0,3
230159.671875,243962.6875,245559.234375,241694.703125,225465.09375,227079.609375,221631.234375,211189.03125,22516.0,1.0,3
230240.234375,244023.21875,245586.3125,241719.734375,225465.984375,227106.609375,221641.078125,211202.0,22517.0,1.0,3
230282.875,244067.734375,245610.453125,241749.328125,225558.53125,227134.328125,221683.625,211233.5625,22518.0,1.0,3
230260.0,244066.125,245613.40625,241755.671875,225661.53125,227135.84375,221721.8125,211250.734375,22519.0,1.0,3
230146.359375,243967.875,245578.984375,241703.015625,225559.875,227086.9375,221669.6875,211204.765625,22520.0,1.0,3
230143.671875,243945.96875,245573.890625,241690.859375,225454.90625,227072.71875,221632.84375,211183.578125,22521.0,1.0,3
230230.671875,244009.171875,245585.515625,241719.90625,225456.953125,227099.28125,221640.359375,211199.671875,22522.0,1.0,3
230284.3125,244065.5,245594.0,241751.203125,225552.71875,227127.625,221687.03125,211239.28125,22523.0,1.0,3
230263.75,244069.609375,245581.046875,241757.015625,225653.484375,227130.125,221726.09375,211262.53125,22524.0,1.0,3
230153.515625,243979.046875,245544.109375,241711.15625,225561.828125,227090.609375,221682.015625,211224.53125,22525.0,1.0,3
230150.921875,243959.015625,245544.109375,241694.609375,225457.5,227074.421875,221641.96875,211197.078125,22526.0,1.0,3
230226.46875,244013.640625,245564.6875,241711.78125,225453.828125,227092.578125,221644.203125,211203.96875,22527.0,1.0,3
230285.65625,244076.5,245595.4375,241749.953125,225559.15625,227128.0625,221696.59375,211244.203125,22528.0,1.0,3
230268.671875,244086.34375,245603.03125,241761.390625,225673.765625,227136.109375,221740.3125,211266.546875,22529.0,1.0,3
230143.671875,243978.25,245565.03125,241708.015625,225575.78125,227089.359375,221684.96875,211217.5625,22530.0,1.0,3
230142.78125,243958.9375,245564.5,241691.296875,225474.390625,227076.390625,221642.59375,211195.46875,22531.0,1.0,3
230222.796875,244016.328125,245577.203125,241710.96875,225468.859375,227097.21875,221641.96875,211203.96875,22532.0,1.0,3
230269.109375,244063.453125,245584.796875,241739.140625,225554.859375,227124.9375,221686.75,211232.3125,22533.0,1.0,3
230254.625,244069.609375,245583.90625,241750.046875,225663.578125,227131.828125,221729.578125,211256.359375,22534.0,1.0,3
230134.109375,243965.09375,245545.8125,241695.59375,225565.765625,227080.6875,221673.25,211208.53125,22535.0,1.0,3
230131.6875,243944.09375,245551.53125,241680.390625,225463.21875,227064.765625,221633.734375,211184.03125,22536.0,1.0,3
230223.15625,244007.390625,245587.921875,241711.15625,225468.765625,227094.453125,221645.546875,211200.75,22537.0,1.0,3
230273.671875,244056.921875,245610.90625,241741.734375,225558.796875,227121.09375,221686.3125,211228.734375,22538.0,1.0,3
230253.90625,244063.0,245614.484375,241750.125,225667.78125,227128.0625,221726.984375,211249.03125,22539.0,1.0,3
230139.828125,243964.921875,245578.890625,241701.140625,225575.515625,227082.46875,221677.109375,211202.53125,22540.0,1.0,3
230136.171875,243940.953125,245578.09375,241687.28125,225471.984375,227067.453125,221636.953125,211180.1875,22541.0,1.0,3
230215.109375,243992.015625,245594.625,241707.65625,225460.625,227089.890625,221637.046875,211188.59375,22542.0,1.0,3
230273.3125,244049.234375,245607.5,241740.75,225552.8125,227120.46875,221681.484375,211226.40625,22543.0,1.0,3
230256.15625,244053.171875,245600.625,241748.34375,225660.984375,227123.15625,221722.703125,211247.328125,22544.0,1.0,3
230141.265625,243954.28125,245562.265625,241698.546875,225565.234375,227076.921875,221670.75,211199.234375,22545.0,1.0,3
230147.25,243945.875,245565.84375,241691.296875,225471.359375,227069.953125,221639.546875,211183.40625,22546.0,1.0,3
230224.40625,244000.328125,245584.890625,241710.171875,225466.890625,227093.375,221643.03125,211194.578125,22547.0,1.0,3
230272.421875,244046.734375,245599.453125,241735.734375,225554.0625,227120.203125,221683.546875,211225.25,22548.0,1.0,3
230254.71875,244052.0,245598.46875,241746.203125,225668.9375,227127.796875,221728.515625,211251.171875,22549.0,1.0,3
230140.28125,243955.09375,245555.203125,241695.234375,225576.9375,227082.828125,221678.71875,211206.828125,22550.0,1.0,3
230129.375,243926.5625,245543.84375,241673.875,225465.28125,227060.296875,221629.265625,211178.671875,22551.0,1.0,3
230205.90625,243982.984375,245558.15625,241694.875,225460.71875,227081.578125,221630.4375,211191.09375,22552.0,1.0,3
230260.171875,244039.75,245571.828125,241724.828125,225552.265625,227114.921875,221671.5625,211225.0625,22553.0,1.0,3
230252.65625,244053.25,245574.15625,241740.921875,225670.734375,227127.796875,221718.046875,211255.46875,22554.0,1.0,3
230143.578125,243958.390625,245539.734375,241696.84375,225584.71875,227085.0625,221673.53125,211216.390625,22555.0,1.0,3
230142.0625,243939.265625,245538.75,241685.046875,225481.375,227070.046875,221635.703125,211194.484375,22556.0,1.0,3
230221.90625,243995.3125,245558.953125,241705.703125,225473.140625,227089.625,221635.53125,211203.34375,22557.0,1.0,3
230272.328125,244041.453125,245572.90625,241730.375,225554.0625,227110.90625,221670.9375,211230.25,22558.0,1.0,3
230261.421875,244052.265625,245574.0625,241745.921875,225675.375,227124.84375,221721.53125,211258.328125,22559.0,1.0,3
230143.046875,243951.875,245533.828125,241694.34375,225590.0,227080.6875,221673.890625,211214.515625,22560.0,1.0,3
230137.59375,243929.34375,245532.671875,241677.71875,225485.84375,227066.203125,221633.828125,211190.5625,22561.0,1.0,3
230216.984375,243983.96875,245552.515625,241697.46875,225473.6875,227085.15625,221634.0,211197.796875,22562.0,1.0,3
230275.734375,244040.734375,245573.984375,241733.765625,225565.234375,227117.78125,221680.671875,211234.015625,22563.0,1.0,3
230260.890625,244046.734375,245572.90625,241744.234375,225676.453125,227123.6875,221720.28125,211252.6875,22564.0,1.0,3
230147.15625,243952.40625,245539.921875,241696.484375,225587.859375,227078.796875,221670.390625,211208.890625,22565.0,1.0,3
230133.84375,243925.046875,245535.796875,241674.5,225475.921875,227057.171875,221624.359375,211183.578125,22566.0,1.0,3
230210.28125,243976.71875,245553.0625,241689.953125,225462.328125,227078.625,221624.4375,211190.28125,22567.0,1.0,3
230267.765625,244031.796875,245574.6875,241721.875,225550.484375,227112.6875,221668.34375,211226.765625,22568.0,1.0,3
230259.09375,244046.640625,245583.09375,241741.09375,225671.984375,227126.015625,221720.375,211257.078125,22569.0,1.0,3
230148.0625,243954.28125,245548.3125,241697.203125,225590.984375,227084.171875,221679.515625,211217.921875,22570.0,1.0,3
230129.8125,243919.0625,245538.3125,241669.84375,225471.984375,227060.03125,221631.765625,211184.65625,22571.0,1.0,3
230205.015625,243968.9375,245555.03125,241689.25,225458.84375,227085.15625,221634.359375,211195.75,22572.0,1.0,3
230259.90625,244025.0,245568.875,241720.71875,225543.5,227113.3125,221674.953125,211227.921875,22573.0,1.0,3
230246.3125,244031.984375,245564.6875,241731.359375,225657.046875,227119.03125,221718.5,211253.40625,22574.0,1.0,3
230127.140625,243930.59375,245522.75,241679.234375,225566.3125,227069.953125,221669.6875,211210.5,22575.0,1.0,3
230118.015625,243907.875,245520.609375,241663.859375,225460.984375,227055.734375,221630.34375,211189.84375,22576.0,1.0,3
230198.296875,243961.875,245541.703125,241683.796875,225447.84375,227075.765625,221632.75,211198.515625,22577.0,1.0,3
230260.890625,244020.53125,245564.859375,241716.328125,225535.1875,227107.40625,221678.53125,211230.171875,22578.0,1.0,3
230251.953125,244032.78125,245567.984375,241729.484375,225652.40625,227118.40625,221725.5625,211252.96875,22579.0,1.0,3
230140.71875,243940.328125,245535.171875,241685.484375,225573.28125,227076.390625,221680.859375,211213.984375,22580.0,1.0,3
230130.359375,243912.703125,245527.75,241667.96875,225463.046875,227055.46875,221633.109375,211186.890625,22581.0,1.0,3
230218.59375,243974.9375,245554.3125,241697.03125,225462.765625,227083.8125,221639.46875,211206.296875,22582.0,1.0,3
230265.71875,244021.0625,245567.8125,241721.4375,225541.265625,227108.125,221674.15625,211228.109375,22583.0,1.0,3
230257.125,244032.15625,245569.421875,241735.109375,225658.578125,227118.671875,221719.125,211251.359375,22584.0,1.0,3
230149.046875,243940.6875,245538.65625,241686.828125,225582.125,227077.015625,221675.9375,211212.46875,22585.0,1.0,3
230142.25,243917.71875,245543.578125,241671.625,225479.140625,227064.140625,221637.765625,211189.390625,22586.0,1.0,3
230218.515625,243968.234375,245565.125,241690.859375,225467.78125,227084.53125,221635.34375,211195.921875,22587.0,1.0,3
230268.484375,244018.390625,245583.8125,241719.640625,225547.890625,227113.3125,221671.640625,211226.671875,22588.0,1.0,3
230253.203125,244023.9375,245586.3125,241731.171875,225661.96875,227120.921875,221716.890625,211252.875,22589.0,1.0,3
230131.34375,243917.796875,245546.359375,241679.953125,225577.21875,227073.34375,221667.359375,211207.90625,22590.0,1.0,3
230115.421875,243886.875,245537.765625,241657.78125,225462.953125,227054.3125,221619.53125,211177.59375,22591.0,1.0,3
230198.484375,243943.640625,245553.0625,241679.5,225450.078125,227076.03125,221621.40625,211187.96875,22592.0,1.0,3
230265.71875,244009.984375,245574.34375,241716.515625,225540.640625,227114.5625,221669.5,211230.4375,22593.0,1.0,3
230264.28125,244032.6875,245580.234375,241734.21875,225668.9375,227130.65625,221720.734375,211264.671875,22594.0,1.0,3
230142.421875,243930.046875,245535.625,241679.859375,225583.46875,227077.28125,221669.140625,211216.9375,22595.0,1.0,3
230120.34375,243893.3125,245525.515625,241655.265625,225466.609375,227052.25,221621.578125,211187.25,22596.0,1.0,3
230193.75,243945.515625,245541.078125,241673.875,225447.390625,227072.1875,221623.375,211198.609375,22597.0,1.0,3
230250.96875,244005.421875,245557.078125,241705.34375,225529.015625,227105.71875,221666.8125,211231.953125,22598.0,1.0,3
230248.453125,244026.078125,245560.203125,241722.765625,225649.90625,227116.984375,221714.390625,211259.484375,22599.0,1.0,3
230143.9375,243942.484375,245531.328125,241683.609375,225579.984375,227080.5,221677.453125,211226.953125,22600.0,1.0,3
230119.453125,243902.15625,245519.625,241660.453125,225459.640625,227057.34375,221627.03125,211194.21875,22601.0,1.0,3
230207.15625,243964.75,245543.484375,241688.625,225445.34375,227082.296875,221630.875,211204.234375,22602.0,1.0,3
230260.0,244015.609375,245556.09375,241713.46875,225513.734375,227106.078125,221667.09375,211229.625,22603.0,1.0,3
230254.8125,244032.953125,245558.25,241728.578125,225633.09375,227118.40625,221718.234375,211258.234375,22604.0,1.0,3
230143.234375,243938.8125,245523.640625,241685.765625,225567.828125,227080.234375,221682.28125,211221.046875,22605.0,1.0,3
230127.671875,243906.265625,245517.03125,241662.515625,225450.96875,227056.546875,221630.703125,211188.234375,22606.0,1.0,3
230205.640625,243955.796875,245532.40625,241679.328125,225430.234375,227073.078125,221621.484375,211192.171875,22607.0,1.0,3
230265.53125,244011.328125,245553.5,241714.015625,225512.03125,227108.21875,221664.40625,211226.671875,22608.0,1.0,3
230261.25,244029.921875,245559.3125,241731.984375,225638.28125,227121.546875,221715.28125,211255.828125,22609.0,1.0,3
230147.703125,243938.71875,245525.15625,241681.015625,225567.828125,227074.59375,221668.78125,211211.125,22610.0,1.0,3
230127.140625,243901.078125,245524.984375,241659.828125,225459.375,227056.09375,221624.625,211183.765625,22611.0,1.0,3
230203.671875,243951.875,245548.140625,241680.390625,225446.046875,227075.9375,221625.328125,211191.0,22612.0,1.0,3
230255.875,244002.65625,245564.6875,241707.484375,225522.578125,227101.609375,221661.359375,211219.875,22613.0,1.0,3
230257.84375,244026.609375,245571.390625,241727.15625,225654.8125,227116.796875,221714.734375,211255.203125,22614.0,1.0,3
230146.796875,243934.25,245532.671875,241682.359375,225584.640625,227071.828125,221671.109375,211215.859375,22615.0,1.0,3
230120.703125,243895.09375,245519.0,241654.90625,225463.046875,227044.109375,221618.546875,211181.078125,22616.0,1.0,3
230193.65625,243944.359375,245538.3125,241671.90625,225440.59375,227062.625,221614.25,211187.0625,22617.0,1.0,3
230251.5,244001.578125,245559.046875,241705.34375,225518.203125,227092.296875,221654.921875,211220.328125,22618.0,1.0,3
230244.53125,244016.421875,245561.375,241722.765625,225643.203125,227102.5,221706.0625,211249.5625,22619.0,1.0,3
230137.5,243930.046875,245530.078125,241680.125,225576.40625,227062.984375,221667.71875,211213.890625,22620.0,1.0,3
230122.9375,243901.4375,245529.90625,241665.640625,225468.859375,227049.125,221631.328125,211191.453125,22621.0,1.0,3
230196.609375,243953.296875,245540.265625,241678.0625,225444.71875,227062.359375,221625.96875,211195.203125,22622.0,1.0,3
230255.96875,244011.234375,245555.375,241712.578125,225523.125,227095.875,221668.78125,211230.34375,22623.0,1.0,3
230263.03125,244037.875,245559.3125,241734.3125,225656.703125,227112.78125,221725.203125,211264.3125,22624.0,1.0,3
230151.625,243944.71875,245520.328125,241684.859375,225584.453125,227067.359375,221682.015625,211223.1875,22625.0,1.0,3
230128.5625,243904.75,245514.34375,241658.9375,225463.21875,227041.875,221632.9375,211189.484375,22626.0,1.0,3
230198.921875,243946.0625,245535.53125,241673.15625,225437.375,227054.84375,221627.484375,211191.1875,22627.0,1.0,3
230257.765625,244002.734375,245563.609375,241704.359375,225512.578125,227088.90625,221669.40625,211222.75,22628.0,1.0,3
230263.21875,244026.078125,245573.796875,241725.90625,225646.140625,227104.90625,221723.421875,211254.21875,22629.0,1.0,3
230152.890625,243931.84375,245539.828125,241681.203125,225583.296875,227056.984375,221685.421875,211215.6875,22630.0,1.0,3
230117.84375,243881.765625,245522.296875,241646.59375,225455.34375,227024.890625,221628.828125,211175.8125,22631.0,1.0,3
230194.453125,243932.375,245537.765625,241666.890625,225431.390625,227050.015625,221626.140625,211185.90625,22632.0,1.0,3
230250.96875,243984.6875,245548.140625,241697.828125,225506.765625,227079.703125,221666.640625,211215.40625,22633.0,1.0,3
230255.515625,244009.453125,245550.640625,241716.6875,225638.546875,227090.96875,221723.765625,211247.59375,22634.0,1.0,3
230155.03125,243932.109375,245520.609375,241676.640625,225585.078125,227052.515625,221686.671875,211215.40625,22635.0,1.0,3
230122.125,243887.140625,245508.53125,241647.671875,225459.375,227022.921875,221630.15625,211179.015625,22636.0,1.0,3
230200.09375,243937.5625,245534.734375,241666.984375,225435.40625,227043.578125,221629.984375,211187.78125,22637.0,1.0,3
230256.6875,243991.296875,245555.03125,241698.453125,225508.1875,227072.1875,221671.296875,211218.90625,22638.0,1.0,3
230258.734375,244017.84375,245557.890625,241720.265625,225642.484375,227089.171875,221729.140625,211252.0625,22639.0,1.0,3
230153.78125,243935.6875,245521.140625,241681.828125,225590.984375,227052.96875,221698.296875,211226.140625,22640.0,1.0,3
230124.1875,243893.03125,245501.46875,241650.890625,225462.6875,227022.75,221644.46875,211190.375,22641.0,1.0,3
230195.359375,243938.546875,245510.328125,241664.921875,225427.453125,227033.65625,221635.53125,211192.875,22642.0,1.0,3
230252.21875,243995.046875,245525.96875,241693.53125,225495.40625,227060.46875,221674.953125,211225.15625,22643.0,1.0,3
230257.9375,244025.09375,245537.234375,241714.09375,225631.75,227077.28125,221734.6875,211259.125,22644.0,1.0,3
230146.359375,243935.421875,245505.765625,241667.4375,225573.546875,227036.6875,221695.515625,211218.546875,22645.0,1.0,3
230113.28125,243890.984375,245496.375,241636.9375,225443.015625,227008.53125,221637.140625,211178.75,22646.0,1.0,3
230189.8125,243943.734375,245522.21875,241660.015625,225419.328125,227033.65625,221638.828125,211191.265625,22647.0,1.0,3
230243.71875,243992.90625,245538.65625,241686.734375,225486.109375,227060.03125,221675.046875,211218.0,22648.0,1.0,3
230259.28125,244027.5,245551.09375,241712.671875,225629.875,227082.375,221737.09375,211257.796875,22649.0,1.0,3
230148.59375,243937.390625,245512.109375,241668.5,225578.90625,227039.46875,221700.703125,211221.84375,22650.0,1.0,3
230109.515625,243884.546875,245493.953125,241635.25,225449.453125,227006.65625,221645.359375,211182.515625,22651.0,1.0,3
230185.34375,243933.984375,245515.6875,241651.421875,225415.65625,227021.578125,221640.265625,211186.0,22652.0,1.0,3
230238.984375,243981.375,245535.890625,241680.578125,225480.390625,227047.15625,221676.296875,211212.28125,22653.0,1.0,3
230249.890625,244008.734375,245549.484375,241704.265625,225621.375,227067.1875,221734.59375,211250.1875,22654.0,1.0,3
230149.3125,243928.265625,245522.03125,241666.625,225580.515625,227032.578125,221703.65625,211221.140625,22655.0,1.0,3
230107.28125,243876.046875,245503.4375,241632.203125,225448.921875,226998.34375,221643.84375,211178.21875,22656.0,1.0,3
230177.203125,243919.5,245517.109375,241648.390625,225411.625,227013.09375,221632.390625,211180.359375,22657.0,1.0,3
230240.0625,243979.3125,245535.984375,241684.15625,225479.21875,227046.4375,221671.828125,211214.515625,22658.0,1.0,3
230258.5625,244020.796875,245546.53125,241714.015625,225629.34375,227069.140625,221739.6875,211259.3125,22659.0,1.0,3
230155.828125,243940.78125,245514.796875,241673.421875,225592.59375,227030.4375,221714.5625,211229.8125,22660.0,1.0,3
230109.078125,243883.203125,245497.171875,241638.546875,225461.515625,226994.40625,221657.25,211188.5,22661.0,1.0,3
230176.578125,243923.96875,245518.546875,241653.578125,225422.09375,227011.21875,221648.671875,211191.265625,22662.0,1.0,3
230242.203125,243984.5,245544.296875,241688.4375,225487.71875,227046.890625,221687.65625,211225.609375,22663.0,1.0,3
230260.078125,244023.484375,245551.09375,241713.390625,225633.546875,227064.671875,221746.21875,211264.9375,22664.0,1.0,3
230154.765625,243940.15625,245510.328125,241667.78125,225591.078125,227021.21875,221710.546875,211228.734375,22665.0,1.0,3
230113.546875,243886.328125,245493.515625,241636.40625,225461.078125,226992.34375,221653.5,211188.953125,22666.0,1.0,3
230175.859375,243919.5,245506.296875,241647.046875,225407.78125,227004.421875,221634.0,211184.484375,22667.0,1.0,3
230237.640625,243975.109375,245527.125,241680.3125,225470.8125,227037.9375,221671.015625,211217.921875,22668.0,1.0,3
230261.0625,244017.84375,245544.75,241710.796875,225625.046875,227061.90625,221739.328125,211260.921875,22669.0,1.0,3
230161.734375,243940.515625,245513.625,241669.125,225589.8125,227023.640625,221708.65625,211225.15625,22670.0,1.0,3
230121.859375,243890.265625,245501.375,241637.484375,225460.359375,226996.546875,221654.125,211186.984375,22671.0,1.0,3
230185.0625,243925.9375,245517.46875,241648.65625,225408.953125,227010.9375,221639.28125,211185.453125,22672.0,1.0,3
230247.125,243983.34375,245536.0625,241682.09375,225469.75,227043.046875,221675.140625,211217.46875,22673.0,1.0,3
230266.4375,244025.984375,245547.609375,241711.421875,225625.3125,227067.71875,221739.515625,211258.0625,22674.0,1.0,3
230157.796875,243936.21875,245506.46875,241664.390625,225589.1875,227022.65625,221702.9375,211218.984375,22675.0,1.0,3
230114.4375,243881.328125,245493.6875,241630.859375,225460.171875,226992.53125,221647.15625,211180.625,22676.0,1.0,3
230180.328125,243920.03125,245512.28125,241641.6875,225408.765625,227004.234375,221632.75,211179.375,22677.0,1.0,3
230238.71875,243971.1875,245532.046875,241672.265625,225461.78125,227032.578125,221661.453125,211207.28125,22678.0,1.0,3
230262.140625,244014.09375,245547.421875,241705.421875,225618.609375,227061.09375,221729.140625,211250.546875,22679.0,1.0,3
230166.390625,243941.859375,245517.734375,241671.1875,225598.765625,227027.9375,221708.390625,211223.8125,22680.0,1.0,3
230114.625,243881.328125,245499.6875,241634.078125,225466.078125,226994.140625,221646.703125,211181.890625,22681.0,1.0,3
230175.6875,243912.4375,245515.234375,241644.359375,225409.578125,227006.828125,221628.90625,211180.546875,22682.0,1.0,3
230234.328125,243965.8125,245527.9375,241674.140625,225458.484375,227032.84375,221655.640625,211203.078125,22683.0,1.0,3
230253.109375,244004.34375,245539.109375,241702.484375,225607.703125,227055.828125,221719.484375,211240.625,22684.0,1.0,3
230162.09375,243933.625,245512.28125,241670.5625,225591.78125,227028.375,221702.84375,211219.171875,22685.0,1.0,3
230118.015625,243877.578125,245494.765625,241637.84375,225465.546875,226997.0,221646.25,211180.453125,22686.0,1.0,3
230179.34375,243911.09375,245502.90625,241641.328125,225400.71875,227000.9375,221622.109375,211170.796875,22687.0,1.0,3
230243.09375,243967.515625,245526.140625,241676.453125,225454.453125,227032.3125,221657.796875,211204.421875,22688.0,1.0,3
230272.875,244017.671875,245546.796875,241715.890625,225619.5,227064.953125,221730.296875,211252.6875,22689.0,1.0,3
230185.515625,243955.265625,245524.453125,241685.671875,225613.875,227039.828125,221715.546875,211233.203125,22690.0,1.0,3
230129.015625,243890.171875,245505.671875,241644.09375,225480.03125,227005.578125,221656.09375,211188.59375,22691.0,1.0,3
230182.5625,243917.53125,245517.46875,241646.6875,225411.546875,227013.71875,221634.8125,211180.1875,22692.0,1.0,3
230243.1875,243971.890625,245539.109375,241676.375,225459.109375,227048.578125,221665.84375,211209.6875,22693.0,1.0,3
230270.28125,244020.890625,245549.84375,241707.125,225618.96875,227080.40625,221736.734375,211254.484375,22694.0,1.0,3
230180.6875,243955.171875,245515.0625,241672.609375,225608.5,227052.78125,221718.9375,211231.140625,22695.0,1.0,3
230130.171875,243894.296875,245496.734375,241637.390625,225479.046875,227021.84375,221660.65625,211191.625,22696.0,1.0,3
230179.96875,243915.484375,245504.421875,241634.4375,225405.1875,227022.5625,221629.0,211175.984375,22697.0,1.0,3
230238.71875,243963.578125,245527.046875,241662.15625,225446.859375,227050.8125,221657.171875,211202.71875,22698.0,1.0,3
230272.875,244018.296875,245551.359375,241705.515625,225615.484375,227085.328125,221732.171875,211256.359375,22699.0,1.0,3
230172.90625,243940.953125,245514.703125,241663.5,225595.359375,227042.234375,221700.171875,211225.15625,22700.0,1.0,3
230113.984375,243874.796875,245493.0625,241624.96875,225456.953125,227000.03125,221634.359375,211177.421875,22701.0,1.0,3
230169.25,243904.75,245509.25,241634.96875,225388.125,227008.34375,221611.296875,211174.015625,22702.0,1.0,3
230231.828125,243959.734375,245526.234375,241667.15625,225431.84375,227039.546875,221642.40625,211203.875,22703.0,1.0,3
230263.390625,244011.40625,245541.25,241703.8125,225596.4375,227069.859375,221717.328125,211253.671875,22704.0,1.0,3
230177.03125,243949.71875,245509.421875,241673.0625,225595.625,227040.890625,221701.875,211230.796875,22705.0,1.0,3
230122.21875,243885.890625,245488.421875,241634.34375,225463.125,227003.875,221639.46875,211187.25,22706.0,1.0,3
230175.953125,243905.734375,245499.140625,241635.0625,225389.28125,227005.125,221614.421875,211177.59375,22707.0,1.0,3
230240.0625,243957.765625,245518.09375,241663.5,225427.8125,227034.90625,221642.859375,211203.96875,22708.0,1.0,3
230276.890625,244015.34375,245536.96875,241703.1875,225595.71875,227072.1875,221721.53125,211255.46875,22709.0,1.0,3
230186.40625,243952.140625,245507.90625,241672.34375,225601.703125,227049.75,221710.984375,211235.078125,22710.0,1.0,3
230120.421875,243878.640625,245483.234375,241629.34375,225464.734375,227006.734375,221646.53125,211187.421875,22711.0,1.0,3
230173.0,243904.578125,245498.875,241635.59375,225390.984375,227003.25,221627.65625,211179.921875,22712.0,1.0,3
230228.609375,243953.03125,245518.546875,241663.765625,225428.078125,227023.1875,221659.484375,211204.234375,22713.0,1.0,3
230263.484375,244006.9375,245537.234375,241702.484375,225594.640625,227041.34375,221739.15625,211250.734375,22714.0,1.0,3
230180.875,243946.765625,245511.21875,241675.65625,225606.53125,226994.40625,221736.734375,211233.46875,22715.0,1.0,3
230127.9375,243885.703125,245489.578125,241633.90625,225477.53125,226947.828125,221680.328125,211189.390625,22716.0,1.0,3
230173.265625,243899.65625,245489.484375,241627.90625,225397.953125,226962.578125,221639.8125,211174.640625,22717.0,1.0,3
230229.953125,243944.8125,245510.234375,241657.328125,225436.578125,226973.921875,221670.21875,211199.671875,22718.0,1.0,3
230264.375,243997.734375,245534.90625,241696.578125,225604.484375,227024.171875,221737.625,211249.75,22719.0,1.0,3
230183.015625,243940.875,245520.0625,241669.671875,225622.1875,227002.0,221731.734375,211234.09375,22720.0,1.0,3
230131.609375,243881.765625,245512.015625,241636.40625,225500.859375,226969.28125,221676.46875,211193.78125,22721.0,1.0,3
230173.984375,243897.421875,245522.390625,241633.90625,225417.625,226966.515625,221643.65625,211175.625,22722.0,1.0,3
230219.3125,243936.3125,245533.921875,241655.453125,225445.609375,227002.453125,221658.328125,211194.140625,22723.0,1.0,3
230261.6875,243997.90625,245549.921875,241702.203125,225617.453125,227040.453125,221741.75,211251.71875,22724.0,1.0,3
230187.9375,243946.859375,245514.078125,241678.421875,225635.15625,227019.609375,221736.296875,211239.46875,22725.0,1.0,3
230124.546875,243873.90625,245471.78125,241627.828125,225490.21875,226974.46875,221662.078125,211185.1875,22726.0,1.0,3
230171.921875,243891.875,245472.328125,241623.0,225399.5625,226966.859375,221629.984375,211171.515625,22727.0,1.0,3
230238.796875,243951.0625,245507.640625,241662.515625,225440.6875,226907.140625,221708.75,211206.5625,22728.0,1.0,3
230274.5625,244011.328125,245532.40625,241698.640625,225613.6875,226956.21875,221788.140625,211258.6875,22729.0,1.0,3
230196.15625,243963.046875,245519.890625,241671.09375,225637.390625,226971.25,221769.453125,211244.015625,22730.0,1.0,3
230133.75,243892.5,245510.140625,241628.890625,225509.359375,226917.25,221711.4375,211195.46875,22731.0,1.0,3
230179.796875,243912.34375,245527.3125,241632.734375,225427.90625,226945.671875,221673.890625,211183.84375,22732.0,1.0,3
230233.890625,243959.734375,245547.875,241656.171875,225448.5625,226986.453125,221685.59375,211203.078125,22733.0,1.0,3
230274.484375,244017.765625,245561.8125,241692.46875,225617.53125,227036.609375,221753.8125,211254.296875,22734.0,1.0,3
230198.390625,243963.765625,245533.5625,241668.40625,225643.46875,227030.53125,221747.640625,211243.9375,22735.0,1.0,3
230128.921875,243885.078125,245505.765625,241624.15625,225505.6875,227013.625,221670.390625,211193.15625,22736.0,1.0,3
230167.71875,243896.796875,245502.28125,241614.328125,225403.765625,227024.265625,221614.96875,211170.53125,22737.0,1.0,3
230223.0625,243946.140625,245518.375,241634.703125,225421.640625,227072.90625,221621.84375,211192.796875,22738.0,1.0,3
230271.890625,244014.71875,245554.3125,241681.28125,225604.75,227138.609375,221706.421875,211260.296875,22739.0,1.0,3
230193.921875,243964.03125,245535.09375,241653.65625,225636.484375,227140.21875,221701.515625,211249.828125,22740.0,1.0,3
230126.234375,243896.078125,245505.3125,241603.859375,225496.125,227115.109375,221628.640625,211198.328125,22741.0,1.0,3
230164.6875,243912.53125,245502.453125,241599.125,225395.265625,227131.90625,221583.40625,211182.953125,22742.0,1.0,3
230221.734375,243966.0,245519.796875,241627.375,225411.625,227171.34375,221602.890625,211209.953125,22743.0,1.0,3
230266.96875,244028.84375,245537.765625,241666.71875,225575.609375,227215.421875,221677.734375,211260.46875,22744.0,1.0,3
230200.453125,243985.125,245517.296875,241652.234375,225608.5,227208.71875,221681.9375,211255.640625,22745.0,1.0,3
230133.84375,243912.0,245488.421875,241608.875,225468.046875,227175.1875,221609.234375,211205.046875,22746.0,1.0,3
230173.171875,243925.9375,245495.484375,241604.390625,225364.328125,227182.78125,221562.296875,211184.296875,22747.0,1.0,3
230228.703125,243974.3125,245519.796875,241630.953125,225380.078125,227219.53125,221579.015625,211207.71875,22748.0,1.0,3
230276.0,244043.78125,245552.15625,241678.15625,225558.53125,227269.515625,221662.890625,211264.5,22749.0,1.0,3
230199.109375,243995.3125,245536.703125,241655.890625,225598.578125,227251.265625,221662.53125,211251.0,22750.0,1.0,3
230131.6875,243922.453125,245519.984375,241607.53125,225464.03125,227208.09375,221592.34375,211197.4375,22751.0,1.0,3
230177.109375,243940.953125,245539.375,241609.765625,225371.21875,227209.421875,221559.625,211181.34375,22752.0,1.0,3
230235.046875,243988.171875,245567.359375,241638.375,225392.234375,227234.46875,221586.171875,211202.1875,22753.0,1.0,3
230289.140625,244056.390625,245597.5,241687.28125,225577.296875,227270.40625,221677.28125,211259.765625,22754.0,1.0,3
230222.625,244012.484375,245577.828125,241667.25,225625.9375,227242.5,221682.640625,211250.734375,22755.0,1.0,3
230152.96875,243936.3125,245549.21875,241616.296875,225490.40625,227190.296875,221612.453125,211195.921875,22756.0,1.0,3
230193.109375,243949.453125,245551.890625,241607.078125,225387.84375,227176.171875,221570.265625,211172.671875,22757.0,1.0,3
230248.734375,243998.0,245570.671875,241635.0625,225407.609375,227197.796875,221593.953125,211193.421875,22758.0,1.0,3
230292.53125,244062.015625,245596.6875,241682.890625,225591.078125,227231.953125,221680.5,211251.171875,22759.0,1.0,3
230220.828125,244017.21875,245574.6875,241664.484375,225643.203125,227207.640625,221686.3125,211242.953125,22760.0,1.0,3
230150.015625,243944.0,245543.484375,241617.984375,225512.296875,227158.90625,221618.265625,211190.828125,22761.0,1.0,3
230177.109375,243946.859375,245536.96875,241600.375,225398.84375,227139.25,221564.8125,211159.984375,22762.0,1.0,3
230239.34375,244003.1875,245559.3125,241636.765625,225420.125,227170.359375,221594.21875,211193.0625,22763.0,1.0,3
230290.484375,244076.859375,245576.84375,241687.09375,225601.703125,227209.25,221682.28125,211256.546875,22764.0,1.0,3
230226.90625,244043.234375,245546.171875,241670.734375,225650.4375,227186.1875,221690.78125,211253.40625,22765.0,1.0,3
230155.75,243970.90625,245508.796875,241626.921875,225515.875,227139.0625,221628.46875,211205.3125,22766.0,1.0,3
230193.203125,243981.46875,245512.203125,241624.0625,225412.34375,227136.828125,221593.421875,211189.9375,22767.0,1.0,3
230248.375,244026.4375,245525.78125,241648.5625,225412.96875,227155.875,221607.8125,211209.0625,22768.0,1.0,3
230300.3125,244099.203125,245549.03125,241693.8125,225586.78125,227193.421875,221693.375,211268.875,22769.0,1.0,3
230237.640625,244066.125,245531.515625,241680.3125,225646.0625,227137.359375,221724.75,211266.734375,22770.0,1.0,3
230163.171875,243988.875,245500.3125,241631.578125,225510.34375,227043.484375,221676.75,211211.75,22771.0,1.0,3
230193.75,243993.4375,245493.25,241616.46875,225398.40625,227080.953125,221614.875,211186.53125,22772.0,1.0,3
230245.15625,244034.03125,245510.59375,241635.59375,225398.671875,227087.125,221637.3125,211202.984375,22773.0,1.0,3
230304.609375,244110.125,245538.21875,241690.046875,225581.328125,227148.984375,221725.203125,211266.734375,22774.0,1.0,3
230242.296875,244073.375,245520.609375,241676.1875,225637.734375,227135.484375,221733.78125,211259.40625,22775.0,1.0,3
230164.15625,243987.8125,245491.09375,241626.921875,225504.796875,227097.9375,221659.75,211207.640625,22776.0,1.0,3
230192.671875,243984.5,245497.359375,241613.34375,225386.421875,227082.109375,221613.796875,211180.90625,22777.0,1.0,3
230247.46875,244025.453125,245522.03125,241639.09375,225382.65625,227107.5,221625.0625,211195.109375,22778.0,1.0,3
230298.53125,244092.234375,245549.484375,241693.984375,225560.3125,227153.71875,221710.0,211256.546875,22779.0,1.0,3
230235.140625,244054.953125,245528.65625,241681.015625,225622.8125,227145.140625,221718.859375,211253.40625,22780.0,1.0,3
230163.609375,243978.15625,245497.796875,241628.53125,225493.265625,227098.109375,221649.75,211199.3125,22781.0,1.0,3
230195.171875,243978.0625,245504.78125,241614.953125,225379.984375,227091.328125,221604.5,211173.75,22782.0,1.0,3
230251.40625,244024.640625,245527.9375,241639.71875,225376.140625,227114.296875,221616.3125,211187.875,22783.0,1.0,3
230302.640625,244093.671875,245554.40625,241687.28125,225559.6875,227147.296875,221705.890625,211247.328125,22784.0,1.0,3
230243.90625,244063.171875,245535.890625,241676.375,225636.3125,227120.375,221729.5,211248.21875,22785.0,1.0,3
230166.5625,243987.0,245506.46875,241629.4375,225514.8125,227080.953125,221663.875,211200.125,22786.0,1.0,3
230192.046875,243985.03125,245508.796875,241613.078125,225394.90625,227071.296875,221613.265625,211172.671875,22787.0,1.0,3
230241.390625,244022.140625,245524.8125,241633.28125,225384.984375,227094.984375,221624.703125,211186.71875,22788.0,1.0,3
230296.109375,244096.890625,245548.765625,241687.28125,225566.03125,227149.703125,221709.109375,211250.546875,22789.0,1.0,3
230241.75,244072.203125,245530.4375,241681.921875,225646.140625,227147.296875,221726.984375,211258.5,22790.0,1.0,3
230166.390625,243994.421875,245494.9375,241628.71875,225519.8125,227103.21875,221658.421875,211208.265625,22791.0,1.0,3
230185.609375,243985.65625,245488.140625,241607.53125,225389.8125,227083.71875,221602.09375,211174.640625,22792.0,1.0,3
230244.078125,244032.875,245514.34375,241638.1875,225393.390625,227115.1875,221620.5,211196.28125,22793.0,1.0,3
230304.609375,244106.546875,245547.609375,241692.015625,225582.21875,227164.71875,221711.703125,211260.296875,22794.0,1.0,3
230240.953125,244069.078125,245529.09375,241675.65625,225655.4375,227147.640625,221722.78125,211254.9375,22795.0,1.0,3
230158.609375,243985.84375,245505.40625,241622.734375,225529.296875,227099.359375,221655.203125,211201.90625,22796.0,1.0,3
230183.015625,243983.34375,245510.59375,241607.703125,225410.015625,227085.15625,221606.734375,211172.859375,22797.0,1.0,3
230231.296875,244018.75,245527.75,241629.875,225398.21875,227102.140625,221616.75,211184.484375,22798.0,1.0,3
230292.1875,244092.953125,245554.578125,241683.4375,225577.484375,227141.65625,221705.265625,211247.59375,22799.0,1.0,3
230248.453125,244073.8125,245539.828125,241683.796875,225668.5,227135.046875,221736.640625,211260.46875,22800.0,1.0,3
230173.8125,243992.734375,245506.296875,241638.46875,225544.9375,227050.546875,221691.859375,211209.15625,22801.0,1.0,3
230194.375,243979.9375,245495.125,241614.59375,225413.0625,227027.484375,221637.5,211174.109375,22802.0,1.0,3
230238.890625,244012.03125,245504.421875,241628.890625,225394.203125,227048.40625,221634.28125,211183.578125,22803.0,1.0,3
230295.21875,244082.046875,245537.234375,241684.859375,225576.40625,227094.1875,221726.8125,211246.171875,22804.0,1.0,3
230239.96875,244048.703125,245526.421875,241680.3125,225658.65625,227086.84375,221745.671875,211247.15625,22805.0,1.0,3
230168.078125,243974.125,245515.421875,241637.484375,225539.84375,227035.359375,221692.03125,211199.40625,22806.0,1.0,3
230193.828125,243969.125,245531.15625,241626.21875,225418.96875,226965.078125,221670.578125,211171.328125,22807.0,1.0,3
230235.40625,243996.125,245534.109375,241634.4375,225390.890625,226989.484375,221666.015625,211176.34375,22808.0,1.0,3
230297.71875,244072.484375,245549.65625,241682.71875,225569.171875,227047.0625,221744.96875,211237.046875,22809.0,1.0,3
230257.578125,244055.671875,245529.8125,241688.0,225670.828125,227035.265625,221784.21875,211254.484375,22810.0,1.0,3
230180.328125,243976.09375,245486.625,241639.984375,225551.734375,227010.046875,221710.0,211204.6875,22811.0,1.0,3
230198.296875,243966.265625,245477.515625,241614.328125,225419.59375,227002.890625,221645.0,211171.515625,22812.0,1.0,3
230241.578125,243993.078125,245493.78125,241625.765625,225392.140625,227029.265625,221644.109375,211183.3125,22813.0,1.0,3
230303.625,244070.328125,245536.78125,241682.625,225576.671875,227082.109375,221735.03125,211251.796875,22814.0,1.0,3
230260.265625,244058.171875,245537.40625,241684.78125,225680.921875,227088.1875,221765.609375,211262.984375,22815.0,1.0,3
230173.890625,243971.53125,245508.53125,241633.359375,225555.75,227041.875,221692.921875,211209.328125,22816.0,1.0,3
230185.421875,243956.34375,245502.453125,241609.578125,225411.0,227020.78125,221630.34375,211175.53125,22817.0,1.0,3
230224.40625,243986.015625,245504.78125,241619.953125,225374.078125,227035.984375,221628.46875,211181.4375,22818.0,1.0,3
230288.875,244066.21875,245529.1875,241677.359375,225555.21875,227088.90625,221722.78125,211251.984375,22819.0,1.0,3
230255.078125,244058.984375,245512.828125,241682.8125,225665.8125,227097.125,221760.515625,211270.75,22820.0,1.0,3
230180.421875,243985.390625,245475.71875,241635.953125,225550.21875,227053.6875,221697.9375,211223.546875,22821.0,1.0,3
230187.578125,243963.765625,245461.421875,241605.03125,225400.09375,227026.234375,221629.53125,211181.265625,22822.0,1.0,3
230227.53125,243991.03125,245476.53125,241617.984375,225363.078125,227040.171875,221624.625,211186.71875,22823.0,1.0,3
230293.078125,244070.59375,245515.953125,241674.9375,225547.4375,227092.03125,221716.890625,211252.15625,22824.0,1.0,3
230260.625,244065.765625,245521.5,241684.859375,225668.140625,227102.765625,221762.03125,211271.46875,22825.0,1.0,3
230176.671875,243982.796875,245492.4375,241633.640625,225547.703125,227055.203125,221696.140625,211218.984375,22826.0,1.0,3
230189.265625,243968.234375,245492.703125,241613.78125,225406.53125,227034.015625,221634.71875,211182.78125,22827.0,1.0,3
230225.921875,243993.078125,245507.375,241630.421875,225369.515625,227048.578125,221632.578125,211190.375,22828.0,1.0,3
230289.859375,244068.359375,245538.3125,241685.765625,225552.453125,227097.84375,221722.4375,211255.46875,22829.0,1.0,3
230267.5,244070.0625,245534.640625,241694.703125,225678.515625,227106.78125,221764.984375,211275.671875,22830.0,1.0,3
230178.984375,243983.25,245497.09375,241640.078125,225560.9375,227054.75,221696.765625,211218.0,22831.0,1.0,3
230178.28125,243953.5625,245486.453125,241608.875,225407.78125,227025.25,221628.828125,211174.109375,22832.0,1.0,3
230222.625,243983.15625,245506.65625,241625.40625,225366.296875,227045.359375,221630.875,211183.21875,22833.0,1.0,3
230299.25,244077.03125,245549.296875,241691.03125,225559.59375,227102.5,221728.25,211256.453125,22834.0,1.0,3
230259.71875,244065.859375,245541.078125,241692.640625,225680.484375,227103.84375,221759.796875,211271.46875,22835.0,1.0,3
230182.484375,243988.96875,245512.375,241643.921875,225570.5,227059.9375,221697.9375,211223.546875,22836.0,1.0,3
230182.75,243962.5,245500.21875,241616.203125,225417.0,227029.0,221632.21875,211180.625,22837.0,1.0,3
230225.65625,243991.03125,245514.703125,241632.46875,225374.96875,227045.546875,221632.125,211190.734375,22838.0,1.0,3
230295.75,244074.359375,245547.25,241688.890625,225556.203125,227097.9375,221724.390625,211256.453125,22839.0,1.0,3
230260.796875,244064.609375,245534.90625,241690.40625,225673.5,227094.984375,221759.53125,211268.96875,22840.0,1.0,3
230181.21875,243984.046875,245505.140625,241643.109375,225563.0,227046.609375,221697.484375,211221.140625,22841.0,1.0,3
230189.265625,243961.703125,245498.875,241617.546875,225411.0,227019.34375,221633.5625,211181.34375,22842.0,1.0,3
230224.859375,243980.828125,245507.640625,241629.703125,225361.46875,227029.453125,221625.421875,211183.84375,22843.0,1.0,3
230290.578125,244058.0,245541.078125,241687.453125,225546.71875,227080.234375,221718.859375,211249.5625,22844.0,1.0,3
230253.90625,244050.3125,245527.75,241687.015625,225668.5,227076.125,221753.546875,211259.578125,22845.0,1.0,3
230174.078125,243970.90625,245495.125,241637.921875,225560.5,227029.0,221692.84375,211210.21875,22846.0,1.0,3
230180.78125,243945.515625,245484.125,241609.9375,225405.375,227001.28125,221627.125,211170.703125,22847.0,1.0,3
230215.46875,243963.046875,245494.5,241622.28125,225353.34375,227014.875,221622.109375,211178.484375,22848.0,1.0,3
230293.25,244055.484375,245533.125,241689.0625,225546.375,227076.390625,221727.53125,211257.4375,22849.0,1.0,3
230272.6875,244064.78125,245528.5625,241700.328125,225688.171875,227091.234375,221777.953125,211284.53125,22850.0,1.0,3
230188.828125,243981.375,245490.46875,241644.90625,225580.796875,227044.734375,221709.828125,211230.34375,22851.0,1.0,3
230183.640625,243945.515625,245473.84375,241607.34375,225418.421875,227011.84375,221632.578125,211181.4375,22852.0,1.0,3
230211.71875,243957.046875,245480.546875,241612.359375,225360.046875,227020.0625,221620.59375,211178.75,22853.0,1.0,3
230281.8125,244044.21875,245512.203125,241672.34375,225546.546875,227075.5,221714.921875,211247.0625,22854.0,1.0,3
230258.828125,244050.3125,245503.609375,241681.28125,225688.34375,227084.25,221759.09375,211269.328125,22855.0,1.0,3
230181.046875,243973.765625,245472.5,241633.546875,225586.328125,227042.421875,221696.859375,211220.515625,22856.0,1.0,3
230179.4375,243945.25,245462.75,241602.96875,225426.46875,227016.046875,221626.234375,211180.359375,22857.0,1.0,3
230217.96875,243965.375,245472.953125,241613.78125,225372.46875,227031.6875,221621.140625,211185.546875,22858.0,1.0,3
230287.265625,244044.671875,245505.671875,241671.359375,225554.953125,227089.71875,221719.484375,211251.53125,22859.0,1.0,3
230266.34375,244053.609375,245507.015625,241684.328125,225697.015625,227103.21875,221770.53125,211278.890625,22860.0,1.0,3
230185.34375,243976.984375,245480.546875,241638.546875,225594.921875,227058.78125,221707.671875,211231.6875,22861.0,1.0,3
230176.390625,243938.546875,245463.734375,241600.109375,225425.75,227018.90625,221625.421875,211177.59375,22862.0,1.0,3
230211.359375,243953.5625,245474.921875,241608.515625,225363.53125,227027.84375,221613.0,211176.078125,22863.0,1.0,3
230278.234375,244032.6875,245508.4375,241662.875,225536.796875,227073.265625,221699.28125,211240.53125,22864.0,1.0,3
230257.125,244040.296875,245507.734375,241673.59375,225680.296875,227083.28125,221747.734375,211262.703125,22865.0,1.0,3
230171.65625,243958.390625,245477.328125,241625.046875,225577.125,227038.21875,221685.5,211208.703125,22866.0,1.0,3
230177.03125,243937.5625,245475.0,241600.28125,225421.46875,227016.9375,221622.390625,211170.4375,22867.0,1.0,3
230215.296875,243959.28125,245488.953125,241610.5625,225359.15625,227032.046875,221614.34375,211176.25,22868.0,1.0,3
230291.203125,244046.734375,245526.421875,241674.5,225540.90625,227091.765625,221713.140625,211250.28125,22869.0,1.0,3
230267.59375,244052.453125,245517.921875,241682.71875,225685.65625,227100.703125,221763.828125,211273.53125,22870.0,1.0,3
230169.6875,243957.140625,245475.546875,241621.390625,225570.421875,227042.5,221692.125,211212.90625,22871.0,1.0,3
230168.625,243927.109375,245465.890625,241593.140625,225403.765625,227012.640625,221622.390625,211171.609375,22872.0,1.0,3
230201.34375,243944.359375,245472.5,241602.34375,225332.0625,227023.546875,221610.765625,211170.703125,22873.0,1.0,3
230272.0625,244030.71875,245503.4375,241661.890625,225506.84375,227080.140625,221703.75,211238.5625,22874.0,1.0,3
230251.40625,244040.65625,245498.15625,241672.796875,225655.984375,227092.75,221755.328125,211266.109375,22875.0,1.0,3
230174.96875,243966.890625,245473.484375,241629.875,225565.859375,227053.859375,221702.578125,211223.375,22876.0,1.0,3
230176.578125,243937.46875,245463.109375,241600.828125,225405.8125,227027.21875,221632.125,211179.296875,22877.0,1.0,3
230205.359375,243947.9375,245468.03125,241604.046875,225332.5,227031.953125,221611.75,211176.703125,22878.0,1.0,3
230280.109375,244034.21875,245506.5625,241670.109375,225518.5625,227091.59375,221709.734375,211251.359375,22879.0,1.0,3
230263.03125,244043.421875,245507.28125,241687.28125,225677.796875,227104.109375,221768.03125,211277.015625,22880.0,1.0,3
230169.15625,243951.78125,245469.90625,241629.15625,225573.015625,227047.0625,221700.53125,211216.3125,22881.0,1.0,3
230162.453125,243914.671875,245458.109375,241592.328125,225402.515625,227006.390625,221623.71875,211164.359375,22882.0,1.0,3
230197.140625,243928.4375,245469.375,241600.828125,225329.015625,226989.9375,221617.203125,211164.265625,22883.0,1.0,3
230269.015625,244013.46875,245506.5625,241662.875,225506.40625,227036.78125,221714.390625,211235.625,22884.0,1.0,3
230262.59375,244035.734375,245510.953125,241680.9375,225673.140625,227077.109375,221769.109375,211268.78125,22885.0,1.0,3
230174.78125,243951.0625,245475.71875,241624.609375,225578.015625,227028.28125,221704.015625,211211.75,22886.0,1.0,3
230162.890625,243906.984375,245461.234375,241587.328125,225408.5,226998.25,221619.875,211160.96875,22887.0,1.0,3
230193.296875,243917.53125,245474.828125,241596.703125,225335.1875,227011.65625,221604.953125,211162.578125,22888.0,1.0,3
230272.6875,244011.234375,245511.9375,241658.84375,225516.421875,227077.46875,221700.796875,211234.8125,22889.0,1.0,3
230263.5625,244031.625,245510.671875,241674.9375,225683.515625,227094.453125,221764.625,211266.90625,22890.0,1.0,3
230170.59375,243943.203125,245471.421875,241620.484375,225585.265625,227042.421875,221703.828125,211213.09375,22891.0,1.0,3
230159.5,243905.109375,245454.171875,241585.53125,225415.390625,227007.09375,221624.265625,211161.671875,22892.0,1.0,3
230189.359375,243919.953125,245459.53125,241589.375,225332.234375,227012.828125,221604.859375,211159.265625,22893.0,1.0,3
230264.640625,244006.3125,245490.734375,241647.5,225502.734375,227066.28125,221696.953125,211229.8125,22894.0,1.0,3
230254.890625,244027.859375,245487.34375,241662.0625,225667.78125,227081.75,221756.5,211262.34375,22895.0,1.0,3
230174.078125,243956.34375,245458.640625,241615.578125,225582.21875,227043.046875,221702.671875,211218.359375,22896.0,1.0,3
230165.21875,243921.296875,245451.046875,241586.515625,225419.671875,227020.515625,221632.125,211174.546875,22897.0,1.0,3
230184.359375,243920.578125,245453.28125,241582.3125,225325.890625,227018.8125,221604.0625,211162.125,22898.0,1.0,3
230263.921875,244010.34375,245489.84375,241645.25,225499.96875,227074.328125,221698.375,211233.734375,22899.0,1.0,3
230264.640625,244039.9375,245495.390625,241670.734375,225676.546875,227096.859375,221762.03125,211270.390625,22900.0,1.0,3
230178.453125,243956.15625,245462.125,241622.28125,225586.515625,227053.328125,221701.953125,211222.921875,22901.0,1.0,3
230171.65625,243919.765625,245451.578125,241588.65625,225416.90625,227023.375,221629.71875,211177.953125,22902.0,1.0,3
230200.71875,243930.046875,245457.75,241592.15625,225332.78125,227027.9375,221609.875,211172.40625,22903.0,1.0,3
230270.0,244009.53125,245491.359375,241646.859375,225498.53125,227074.953125,221694.359375,211236.328125,22904.0,1.0,3
230264.90625,244031.265625,245497.890625,241664.75,225665.1875,227087.296875,221757.03125,211268.515625,22905.0,1.0,3
230185.78125,243956.609375,245475.28125,241624.0625,225585.703125,227037.40625,221712.859375,211227.03125,22906.0,1.0,3
230173.984375,243918.875,245467.140625,241590.1875,225419.046875,226983.859375,221647.15625,211180.546875,22907.0,1.0,3
230196.96875,243925.140625,245467.5,241586.703125,225328.21875,226997.984375,221613.171875,211171.15625,22908.0,1.0,3
230271.796875,244012.125,245504.0625,241649.109375,225502.375,227058.515625,221707.328125,211243.578125,22909.0,1.0,3
230262.40625,244031.890625,245500.21875,241666.53125,225677.34375,227085.15625,221768.46875,211275.21875,22910.0,1.0,3
230171.65625,243945.34375,245462.9375,241617.09375,225594.203125,227042.328125,221713.046875,211225.6875,22911.0,1.0,3
230156.375,243901.890625,245448.1875,241578.375,225418.515625,227007.015625,221631.234375,211174.015625,22912.0,1.0,3
230189.984375,243918.875,245458.90625,241583.828125,225330.453125,227013.359375,221610.21875,211170.078125,22913.0,1.0,3
230267.328125,244011.59375,245498.515625,241642.671875,225499.25,227070.84375,221703.03125,211238.03125,22914.0,1.0,3
230256.859375,244027.234375,245494.9375,241656.875,225667.96875,227084.609375,221760.515625,211264.5,22915.0,1.0,3
230166.296875,243939.171875,245455.515625,241604.21875,225580.515625,227036.0625,221700.53125,211214.15625,22916.0,1.0,3
230151.8125,243897.15625,245441.5625,241564.609375,225405.109375,226997.890625,221619.53125,211162.75,22917.0,1.0,3
230178.90625,243903.671875,245446.390625,241564.078125,225306.75,227000.9375,221591.453125,211152.015625,22918.0,1.0,3
230267.140625,244004.0,245491.359375,241636.859375,225483.328125,227068.34375,221694.359375,211232.84375,22919.0,1.0,3
230265.53125,244031.890625,245492.890625,241658.40625,225664.5625,227089.078125,221763.109375,211270.9375,22920.0,1.0,3
230179.703125,243951.328125,245461.859375,241614.765625,225586.59375,227049.203125,221709.734375,211227.84375,22921.0,1.0,3
230159.40625,243905.28125,245442.46875,241573.828125,225406.453125,227009.328125,221623.640625,211175.171875,22922.0,1.0,3
230189.71875,243916.828125,245452.828125,241577.21875,225310.328125,227013.171875,221600.84375,211168.828125,22923.0,1.0,3
230270.28125,244004.53125,245491.90625,241641.765625,225477.96875,227066.640625,221698.375,211241.078125,22924.0,1.0,3
230277.78125,244038.859375,245497.890625,241671.0,225667.96875,227076.84375,221776.703125,211282.203125,22925.0,1.0,3
230180.78125,243947.3125,245449.53125,241611.015625,225579.265625,227026.140625,221705.984375,211220.953125,22926.0,1.0,3
230165.9375,243901.625,245436.5625,241573.1875,225404.390625,226991.90625,221624.359375,211169.28125,22927.0,1.0,3
230186.953125,243903.046875,245439.0625,241566.125,225298.984375,226995.125,221587.6875,211155.234375,22928.0,1.0,3
230277.609375,244007.75,245490.203125,241639.53125,225482.078125,227060.75,221694.265625,211240.171875,22929.0,1.0,3
230287.4375,244046.28125,245502.359375,241669.21875,225676.90625,227088.375,221769.546875,211279.96875,22930.0,1.0,3
230195.984375,243959.015625,245466.515625,241618.703125,225597.421875,227044.109375,221713.3125,211227.84375,22931.0,1.0,3
230173.984375,243907.25,245449.609375,241576.59375,225418.96875,227005.3125,221632.578125,211173.125,22932.0,1.0,3
230193.390625,243908.140625,245452.390625,241570.25,225313.90625,227002.0,221601.546875,211158.109375,22933.0,1.0,3
230272.234375,243997.640625,245489.125,241631.3125,225474.75,227055.296875,221689.796875,211224.53125,22934.0,1.0,3
230278.671875,244035.828125,245495.5625,241660.1875,225666.53125,227079.15625,221763.109375,211266.640625,22935.0,1.0,3
230190.96875,243955.796875,245460.4375,241612.984375,225596.4375,227037.40625,221710.71875,211222.03125,22936.0,1.0,3
230166.46875,243899.828125,245442.46875,241569.96875,225417.0,226997.890625,221628.109375,211168.46875,22937.0,1.0,3
230184.890625,243897.234375,245445.59375,241565.6875,225305.59375,226992.171875,221595.46875,211153.28125,22938.0,1.0,3
230272.515625,243997.828125,245487.171875,241635.25,225474.84375,227050.734375,221691.671875,211227.390625,22939.0,1.0,3
230271.609375,244027.234375,245488.234375,241659.65625,225664.03125,227069.0625,221760.078125,211265.21875,22940.0,1.0,3
230186.40625,243952.671875,245460.25,241618.4375,225600.734375,227033.828125,221714.203125,211227.21875,22941.0,1.0,3
230159.140625,243897.953125,245437.1875,241566.765625,225415.390625,226984.921875,221624.171875,211165.796875,22942.0,1.0,3
230177.46875,243894.734375,245437.0,241560.046875,225303.71875,226979.03125,221589.484375,211146.296875,22943.0,1.0,3
230260.4375,243988.796875,245480.375,241627.375,225465.0,227036.6875,221683.1875,211217.375,22944.0,1.0,3
230272.234375,244027.953125,245489.84375,241658.671875,225662.859375,227066.28125,221761.140625,211266.546875,22945.0,1.0,3
230186.40625,243948.296875,245456.140625,241610.65625,225598.140625,227028.203125,221712.234375,211226.046875,22946.0,1.0,3
230157.078125,243892.140625,245432.890625,241562.734375,225416.109375,226983.234375,221625.609375,211169.8125,22947.0,1.0,3
230177.296875,243895.90625,245433.15625,241561.125,225306.84375,226981.53125,221593.234375,211153.625,22948.0,1.0,3
230256.421875,243987.1875,245470.71875,241624.421875,225465.71875,227038.390625,221683.546875,211223.640625,22949.0,1.0,3
230270.625,244029.734375,245482.34375,241656.25,225667.328125,227068.796875,221763.921875,211272.71875,22950.0,1.0,3
230185.15625,243952.3125,245449.34375,241609.40625,225600.1875,227027.21875,221716.265625,211227.21875,22951.0,1.0,3
230155.828125,243896.53125,245429.765625,241564.078125,225418.25,226981.796875,221631.140625,211169.09375,22952.0,1.0,3
230177.734375,243901.703125,245432.453125,241558.984375,225307.109375,226977.59375,221596.453125,211154.796875,22953.0,1.0,3
230259.90625,243992.734375,245472.953125,241623.265625,225466.171875,227038.125,221687.5625,211227.84375,22954.0,1.0,3
230263.5625,244028.765625,245478.84375,241652.140625,225668.40625,227067.53125,221764.0,211274.421875,22955.0,1.0,3
230177.109375,243952.765625,245443.984375,241605.65625,225605.46875,227030.96875,221716.703125,211230.171875,22956.0,1.0,3
230149.84375,243900.09375,245420.734375,241558.796875,225422.625,226988.234375,221627.921875,211168.03125,22957.0,1.0,3
230168.703125,243897.59375,245422.25,241553.796875,225307.109375,226985.015625,221592.796875,211152.296875,22958.0,1.0,3
230249.984375,243987.90625,245462.9375,241617.984375,225464.5625,227045.09375,221685.859375,211227.21875,22959.0,1.0,3
230266.875,244034.296875,245478.046875,241654.5625,225668.9375,227080.140625,221769.453125,211278.625,22960.0,1.0,3
230178.8125,243952.21875,245443.796875,241607.96875,225602.34375,227037.765625,221720.90625,211233.46875,22961.0,1.0,3
230152.078125,243899.921875,245424.84375,241561.9375,225422.1875,226995.65625,221635.96875,211176.078125,22962.0,1.0,3
230170.046875,243896.875,245425.390625,241555.140625,225307.46875,226989.84375,221598.78125,211158.109375,22963.0,1.0,3
230245.859375,243978.78125,245464.015625,241615.9375,225454.71875,227045.359375,221686.21875,211224.4375,22964.0,1.0,3
230262.765625,244022.234375,245474.375,241649.546875,225658.84375,227075.3125,221766.328125,211271.203125,22965.0,1.0,3
230173.453125,243940.875,245441.65625,241604.21875,225599.65625,227035.078125,221716.171875,211226.5,22966.0,1.0,3
230153.328125,243893.390625,245426.015625,241562.203125,225426.5625,227000.03125,221637.671875,211171.953125,22967.0,1.0,3
230178.546875,243898.046875,245432.625,241558.171875,225317.03125,226999.953125,221603.34375,211156.671875,22968.0,1.0,3
230262.40625,243991.46875,245476.078125,241624.421875,225475.375,227062.984375,221694.796875,211229.8125,22969.0,1.0,3
230274.296875,244033.9375,245485.109375,241653.03125,225677.96875,227092.21875,221771.609375,211275.9375,22970.0,1.0,3
230183.109375,243955.796875,245450.421875,241603.421875,225618.34375,227049.75,221721.453125,211231.859375,22971.0,1.0,3
230152.4375,243899.65625,245425.734375,241555.765625,225441.40625,227005.125,221635.796875,211173.5625,22972.0,1.0,3
230168.796875,243894.734375,245424.671875,241547.09375,225323.75,226998.0625,221596.8125,211155.0625,22973.0,1.0,3
230236.5625,243970.375,245458.828125,241604.046875,225466.171875,227049.65625,221680.59375,211218.625,22974.0,1.0,3
230259.09375,244020.984375,245475.90625,241645.25,225677.171875,227086.21875,221769.640625,211271.203125,22975.0,1.0,3
230165.484375,243936.125,245438.609375,241594.390625,225613.421875,227041.515625,221716.53125,211224.078125,22976.0,1.0,3
230129.453125,243874.171875,245414.75,241542.703125,225421.734375,226990.640625,221619.875,211160.34375,22977.0,1.0,3
230153.78125,243876.046875,245416.4375,241535.5625,225300.953125,227012.1875,221568.5625,211143.796875,22978.0,1.0,3
230227.71875,243959.734375,245454.171875,241595.375,225444.265625,227081.484375,221643.75,211212.46875,22979.0,1.0,3
230247.5625,244009.0,245469.90625,241639.984375,225653.75,227093.203125,221743.0,211265.390625,22980.0,1.0,3
230159.59375,243933.71875,245434.5,241599.390625,225596.4375,227065.75,221696.0625,211224.796875,22981.0,1.0,3
230146.265625,243892.59375,245426.71875,241565.0625,225431.390625,227023.28125,221625.78125,211180.09375,22982.0,1.0,3
230162.71875,243886.0625,245418.953125,241547.71875,225308.359375,227006.390625,221579.921875,211155.515625,22983.0,1.0,3
230242.015625,243976.09375,245456.046875,241607.796875,225447.9375,227057.25,221666.375,211220.78125,22984.0,1.0,3
230262.59375,244025.359375,245467.046875,241648.203125,225651.515625,227100.171875,221749.796875,211272.359375,22985.0,1.0,3
230177.921875,243952.40625,245431.109375,241602.875,225596.703125,227058.421875,221710.8125,211231.953125,22986.0,1.0,3
230152.265625,243903.234375,245414.390625,241554.78125,225420.390625,227018.90625,221630.15625,211176.515625,22987.0,1.0,3
230164.234375,243894.46875,245416.4375,241543.78125,225297.90625,227010.234375,221589.125,211156.140625,22988.0,1.0,3
230241.84375,243978.953125,245456.671875,241606.359375,225441.21875,227066.109375,221670.21875,211224.4375,22989.0,1.0,3
230253.015625,244014.546875,245462.125,241635.0625,225636.40625,227090.515625,221744.421875,211265.03125,22990.0,1.0,3
230170.765625,243942.921875,245435.21875,241595.1875,225584.453125,227056.546875,221704.015625,211228.109375,22991.0,1.0,3
230150.46875,243895.71875,245422.4375,241557.90625,225416.546875,227022.65625,221630.15625,211176.4375,22992.0,1.0,3
230170.859375,243889.1875,245424.046875,241549.328125,225299.6875,227020.0625,221591.984375,211156.140625,22993.0,1.0,3
230245.234375,243968.59375,245454.625,241605.65625,225434.15625,227068.609375,221672.1875,211219.53125,22994.0,1.0,3
230274.203125,244024.46875,245467.9375,241646.859375,225647.21875,227104.375,221759.265625,211275.3125,22995.0,1.0,3
230184.265625,243943.015625,245425.828125,241593.765625,225591.25,227055.734375,221703.921875,211225.0625,22996.0,1.0,3
230159.046875,243891.96875,245411.796875,241551.203125,225421.203125,227010.765625,221621.765625,211169.015625,22997.0,1.0,3
230175.859375,243887.9375,245424.765625,241543.421875,225311.671875,227005.125,221586.4375,211155.953125,22998.0,1.0,3
230243.984375,243964.203125,245470.453125,241595.375,225443.8125,227052.515625,221663.6875,211214.875,22999.0,1.0,3
230263.484375,244014.8125,245495.296875,241637.484375,225655.0,227087.5625,221749.703125,211263.78125,23000.0,1.0,3
230171.21875,243934.796875,245464.71875,241593.765625,225598.578125,227044.65625,221703.484375,211217.640625,23001.0,1.0,3
230145.109375,243882.671875,245439.953125,241549.59375,225429.328125,227003.515625,221621.84375,211162.484375,23002.0,1.0,3
230170.3125,243882.9375,245429.40625,241541.28125,225310.78125,226994.21875,221580.09375,211142.546875,23003.0,1.0,3
230255.96875,243973.0625,245456.140625,241605.5625,225451.59375,227051.984375,221666.109375,211215.40625,23004.0,1.0,3
230271.609375,244016.59375,245454.984375,241639.71875,225656.421875,227087.296875,221748.359375,211266.734375,23005.0,1.0,3
230183.546875,243934.96875,245412.515625,241588.9375,225597.78125,227043.125,221701.421875,211222.921875,23006.0,1.0,3
230166.46875,243893.03125,245397.671875,241545.84375,225428.796875,227001.46875,221622.296875,211170.703125,23007.0,1.0,3
230191.59375,243900.1875,245414.65625,241542.265625,225318.828125,227001.28125,221586.53125,211156.578125,23008.0,1.0,3
230259.71875,243977.265625,245466.421875,241598.765625,225449.0,227054.03125,221666.8125,211216.65625,23009.0,1.0,3
230280.203125,244028.9375,245498.4375,241638.90625,225660.265625,227092.03125,221754.4375,211266.734375,23010.0,1.0,3
230184.4375,243951.875,245471.609375,241593.40625,225609.484375,227053.859375,221708.3125,211220.78125,23011.0,1.0,3
230152.265625,243898.765625,245452.5625,241546.46875,225435.140625,227016.3125,221620.5,211162.65625,23012.0,1.0,3
230179.265625,243902.96875,245448.984375,241540.921875,225322.046875,227023.640625,221581.609375,211150.0625,23013.0,1.0,3
230250.25,243980.203125,245470.09375,241590.890625,225454.8125,227094.890625,221656.09375,211215.859375,23014.0,1.0,3
230273.9375,244027.328125,245469.734375,241624.421875,225657.59375,227159.8125,221723.765625,211266.546875,23015.0,1.0,3
230188.734375,243953.125,245424.3125,241577.578125,225600.1875,227190.921875,221644.46875,211223.640625,23016.0,1.0,3
230159.765625,243899.125,245410.1875,241536.71875,225423.25,227146.03125,221559.53125,211170.265625,23017.0,1.0,3
230178.0,243893.390625,245415.640625,241526.171875,225298.53125,227164.359375,221509.546875,211151.84375,23018.0,1.0,3
230249.4375,243977.890625,245462.84375,241581.515625,225419.953125,227244.203125,221579.5625,211213.53125,23019.0,1.0,3
230277.34375,244042.96875,245492.078125,241628.8125,225630.234375,227269.859375,221678.265625,211272.8125,23020.0,1.0,3
230186.140625,243971.890625,245447.46875,241582.046875,225576.40625,227277.828125,221612.28125,211230.96875,23021.0,1.0,3
230158.0625,243924.0625,245423.78125,241539.3125,225401.796875,227248.765625,221526.265625,211175.8125,23022.0,1.0,3
230174.15625,243919.140625,245410.1875,241523.3125,225269.390625,227262.625,221469.140625,211152.296875,23023.0,1.0,3
230244.796875,243996.484375,245445.140625,241575.078125,225382.578125,227301.78125,221548.09375,211213.09375,23024.0,1.0,3
230275.640625,244055.21875,245469.8125,241617.0,225590.71875,227345.234375,221640.625,211272.71875,23025.0,1.0,3
230195.4375,243988.25,245443.71875,241578.734375,225543.953125,227318.234375,221602.265625,211237.9375,23026.0,1.0,3
230173.8125,243943.734375,245438.96875,241541.71875,225378.109375,227275.140625,221530.75,211186.71875,23027.0,1.0,3
230188.734375,243936.765625,245442.109375,241526.171875,225252.75,227271.65625,221483.171875,211158.453125,23028.0,1.0,3
230254.546875,244009.625,245481.703125,241578.828125,225368.53125,227310.453125,221558.8125,211211.75,23029.0,1.0,3
230276.0,244060.40625,245504.59375,241616.734375,225574.171875,227351.578125,221639.8125,211260.65625,23030.0,1.0,3
230189.8125,243986.375,245476.53125,241574.796875,225530.1875,227307.78125,221597.890625,211219.171875,23031.0,1.0,3
230171.921875,243942.390625,245469.1875,241541.015625,225376.578125,227252.703125,221532.984375,211168.5625,23032.0,1.0,3
230193.75,243941.859375,245471.421875,241532.515625,225266.4375,227232.21875,221501.328125,211146.484375,23033.0,1.0,3
230266.078125,244016.78125,245506.921875,241583.921875,225391.78125,227268.703125,221576.875,211204.6875,23034.0,1.0,3
230296.5625,244074.890625,245527.484375,241628.0,225612.53125,227297.765625,221670.9375,211263.15625,23035.0,1.0,3
230199.109375,243992.546875,245490.203125,241579.546875,225563.71875,227240.984375,221625.96875,211216.21875,23036.0,1.0,3
230174.609375,243944.09375,245475.90625,241541.546875,225406.453125,227192.0,221550.40625,211163.734375,23037.0,1.0,3
230204.921875,243957.046875,245481.625,241541.984375,225306.40625,227186.453125,221517.515625,211152.296875,23038.0,1.0,3
230266.4375,244025.09375,245506.46875,241591.796875,225425.21875,227223.90625,221589.03125,211206.375,23039.0,1.0,3
230286.90625,244076.40625,245516.125,241631.125,225634.4375,227249.75,221676.75,211258.0625,23040.0,1.0,3
230203.484375,244012.75,245478.21875,241593.140625,225598.140625,227206.65625,221643.125,211224.359375,23041.0,1.0,3
230173.265625,243964.75,245447.015625,241549.765625,225436.046875,227159.984375,221567.21875,211171.875,23042.0,1.0,3
230202.59375,243974.9375,245442.46875,241546.640625,225330.09375,227151.765625,221536.734375,211157.296875,23043.0,1.0,3
230265.171875,244046.015625,245466.328125,241594.46875,225444.09375,227186.359375,221606.65625,211214.609375,23044.0,1.0,3
230287.890625,244096.625,245475.8125,241631.84375,225646.765625,227218.09375,221693.1875,211268.96875,23045.0,1.0,3
230205.640625,244027.6875,245441.296875,241592.0625,225605.203125,227182.25,221662.53125,211235.4375,23046.0,1.0,3
230182.828125,243982.0,245421.546875,241550.84375,225443.109375,227139.953125,221592.34375,211183.578125,23047.0,1.0,3
230215.46875,243994.6875,245422.609375,241548.703125,225336.53125,227134.234375,221561.046875,211168.828125,23048.0,1.0,3
230283.0625,244067.5625,245449.796875,241597.15625,225446.40625,227171.875,221625.25,211222.296875,23049.0,1.0,3
230301.484375,244111.375,245456.859375,241628.8125,225638.453125,227194.671875,221704.8125,211269.234375,23050.0,1.0,3
230211.796875,244035.109375,245423.15625,241583.828125,225587.859375,227152.203125,221668.421875,211229.359375,23051.0,1.0,3
230196.0625,243997.375,245416.265625,241552.625,225435.140625,227123.78125,221604.40625,211185.8125,23052.0,1.0,3
230217.25,243994.25,245422.4375,241547.984375,225317.125,227115.453125,221567.3125,211168.109375,23053.0,1.0,3
230280.921875,244064.609375,245457.296875,241596.703125,225424.78125,227160.15625,221637.578125,211223.8125,23054.0,1.0,3
230300.140625,244111.109375,245472.40625,241628.890625,225618.25,227195.296875,221715.546875,211272.8125,23055.0,1.0,3
230210.015625,244035.734375,245441.921875,241588.578125,225570.6875,227173.3125,221669.953125,211235.53125,23056.0,1.0,3
230192.40625,243994.25,245434.59375,241557.015625,225418.0625,227141.125,221601.734375,211191.0,23057.0,1.0,3
230228.25,244003.28125,245439.25,241552.984375,225307.828125,227136.5625,221565.796875,211172.859375,23058.0,1.0,3
230290.484375,244066.484375,245470.796875,241600.828125,225410.203125,227177.515625,221630.15625,211221.671875,23059.0,1.0,3
230301.125,244103.140625,245481.265625,241632.109375,225602.34375,227199.765625,221710.71875,211267.890625,23060.0,1.0,3
230206.796875,244023.21875,245445.046875,241589.109375,225555.75,227160.703125,221671.015625,211231.5,23061.0,1.0,3
230184.890625,243983.25,245434.328125,241555.671875,225405.375,227125.390625,221600.484375,211186.09375,23062.0,1.0,3
230216.09375,243996.65625,245443.796875,241550.484375,225303.265625,227123.15625,221568.203125,211170.34375,23063.0,1.0,3
230282.171875,244068.90625,245473.484375,241596.4375,225414.40625,227166.515625,221632.125,211220.15625,23064.0,1.0,3
230305.234375,244120.125,245490.5625,241633.359375,225612.796875,227199.328125,221717.515625,211271.015625,23065.0,1.0,3
230213.765625,244041.625,245455.515625,241590.71875,225568.71875,227159.53125,221680.953125,211232.84375,23066.0,1.0,3
230186.765625,243996.03125,245435.578125,241551.734375,225420.390625,227121.09375,221607.359375,211184.921875,23067.0,1.0,3
230219.765625,244008.8125,245440.859375,241548.96875,225322.21875,227119.3125,221573.65625,211171.6875,23068.0,1.0,3
230285.5625,244077.03125,245473.484375,241596.796875,225432.46875,227164.640625,221637.046875,211224.265625,23069.0,1.0,3
230307.109375,244122.453125,245489.671875,241632.734375,225632.640625,227198.609375,221720.28125,211276.03125,23070.0,1.0,3
230211.0,244038.328125,245455.25,241588.9375,225589.46875,227159.890625,221682.640625,211234.640625,23071.0,1.0,3
230181.671875,243983.875,245437.90625,241545.75,225434.703125,227116.984375,221604.953125,211178.21875,23072.0,1.0,3
230211.71875,243990.84375,245443.796875,241540.828125,225335.28125,227108.484375,221567.671875,211158.375,23073.0,1.0,3
230277.609375,244062.546875,245475.0,241588.9375,225445.15625,227150.59375,221632.84375,211209.328125,23074.0,1.0,3
230294.765625,244105.109375,245486.265625,241621.296875,225638.09375,227179.828125,221710.359375,211253.59375,23075.0,1.0,3
230209.390625,244031.265625,245451.765625,241584.1875,225597.59375,227144.78125,221673.703125,211220.78125,23076.0,1.0,3
230192.671875,243985.21875,245434.859375,241552.71875,225451.15625,227110.8125,221607.546875,211178.84375,23077.0,1.0,3
230227.625,243992.640625,245430.296875,241549.328125,225350.75,227110.625,221576.703125,211166.59375,23078.0,1.0,3
230292.53125,244062.015625,245453.71875,241598.046875,225456.0625,227155.25,221644.203125,211222.03125,23079.0,1.0,3
230307.015625,244101.71875,245464.984375,241630.765625,225640.515625,227178.671875,221718.9375,211268.34375,23080.0,1.0,3
230208.578125,244017.40625,245436.03125,241584.28125,225586.25,227131.46875,221673.703125,211222.5625,23081.0,1.0,3
230188.203125,243974.9375,245438.265625,241554.234375,225439.796875,227102.859375,221607.90625,211175.453125,23082.0,1.0,3
230220.5625,243982.625,245454.4375,241554.6875,225347.703125,227105.265625,221579.015625,211163.015625,23083.0,1.0,3
230281.546875,244042.703125,245480.453125,241595.1875,225446.234375,227143.71875,221638.390625,211207.90625,23084.0,1.0,3
230299.25,244085.53125,245483.140625,241626.390625,225635.421875,227172.6875,221715.71875,211254.125,23085.0,1.0,3
230206.34375,244008.375,245438.265625,241583.65625,225587.5,227129.3125,221675.5,211217.828125,23086.0,1.0,3
230187.9375,243967.328125,245417.0625,241551.828125,225441.765625,227095.609375,221608.96875,211177.6875,23087.0,1.0,3
230223.875,243980.390625,245417.34375,241550.3125,225346.71875,227094.09375,221576.078125,211166.859375,23088.0,1.0,3
230287.171875,244049.59375,245448.359375,241595.1875,225445.34375,227134.6875,221635.96875,211218.71875,23089.0,1.0,3
230307.828125,244099.484375,245473.03125,241633.8125,225640.25,227169.109375,221721.0,211273.53125,23090.0,1.0,3
230204.734375,244013.921875,245444.15625,241588.03125,225593.390625,227124.21875,221681.84375,211231.234375,23091.0,1.0,3
230177.734375,243970.546875,245436.734375,241550.75,225445.15625,227090.609375,221615.953125,211181.34375,23092.0,1.0,3
230210.109375,243984.5,245442.375,241546.015625,225347.4375,227089.4375,221582.515625,211164.984375,23093.0,1.0,3
230270.71875,244051.203125,245465.703125,241589.375,225444.265625,227132.0,221642.859375,211216.21875,23094.0,1.0,3
230287.171875,244093.84375,245467.140625,241622.640625,225629.515625,227159.09375,221722.15625,211266.828125,23095.0,1.0,3
230203.046875,244024.109375,245429.765625,241586.0625,225590.625,227127.34375,221692.921875,211236.59375,23096.0,1.0,3
230181.765625,243979.5,245411.171875,241551.46875,225443.8125,227096.59375,221625.96875,211192.078125,23097.0,1.0,3
230211.09375,243981.734375,245407.5,241544.765625,225335.453125,227086.765625,221584.65625,211169.453125,23098.0,1.0,3
230275.8125,244047.359375,245435.046875,241590.359375,225429.953125,227127.078125,221642.046875,211215.765625,23099.0,1.0,3
230302.375,244098.9375,245456.671875,241629.875,225628.265625,227165.078125,221726.71875,211270.390625,23100.0,1.0,3
230206.703125,244020.078125,245424.125,241584.546875,225584.90625,227124.671875,221688.09375,211229.0,23101.0,1.0,3
230184.625,243977.265625,245414.921875,241549.765625,225440.6875,227090.6875,221621.40625,211183.5,23102.0,1.0,3
230222.0,243988.25,245424.84375,241546.46875,225342.078125,227089.4375,221589.9375,211166.15625,23103.0,1.0,3
230278.671875,244048.609375,245452.46875,241586.609375,225432.1875,227122.96875,221642.046875,211208.53125,23104.0,1.0,3
230303.265625,244097.6875,245471.421875,241628.890625,225632.375,227160.609375,221727.4375,211264.765625,23105.0,1.0,3
230209.5625,244018.203125,245435.390625,241586.703125,225592.140625,227120.28125,221689.703125,211226.59375,23106.0,1.0,3
230173.359375,243962.0625,245417.25,241546.015625,225443.109375,227080.0625,221616.390625,211176.96875,23107.0,1.0,3
230210.28125,243976.71875,245423.421875,241539.40625,225349.671875,227080.234375,221583.5,211163.109375,23108.0,1.0,3
230275.8125,244046.546875,245456.9375,241585.625,225449.265625,227123.78125,221645.546875,211211.828125,23109.0,1.0,3
230294.5,244091.796875,245474.203125,241622.015625,225643.203125,227154.984375,221725.03125,211258.6875,23110.0,1.0,3
230195.984375,244012.3125,245440.765625,241578.109375,225607.34375,227115.453125,221687.109375,211221.765625,23111.0,1.0,3
230167.8125,243967.78125,245423.234375,241536.890625,225460.8125,227077.546875,221615.40625,211170.4375,23112.0,1.0,3
230207.59375,243981.46875,245433.875,241537.34375,225367.28125,227080.859375,221585.015625,211155.859375,23113.0,1.0,3
230276.09375,244050.03125,245464.28125,241586.515625,225466.171875,227128.421875,221647.859375,211207.28125,23114.0,1.0,3
230301.5625,244100.8125,245477.0625,241624.421875,225655.625,227159.890625,221727.796875,211258.859375,23115.0,1.0,3
230207.59375,244022.765625,245442.109375,241584.640625,225616.015625,227124.671875,221694.71875,211222.65625,23116.0,1.0,3
230174.34375,243970.90625,245423.15625,241545.921875,225465.640625,227086.84375,221625.0625,211173.125,23117.0,1.0,3
230202.953125,243969.578125,245422.703125,241537.25,225358.703125,227081.03125,221587.96875,211154.890625,23118.0,1.0,3
230272.875,244039.390625,245453.375,241588.03125,225450.25,227128.25,221651.984375,211209.25,23119.0,1.0,3
230297.28125,244092.5,245465.625,241628.53125,225646.6875,227163.109375,221737.1875,211265.484375,23120.0,1.0,3
230200.53125,244011.859375,245433.703125,241585.171875,225604.921875,227121.890625,221699.0,211227.484375,23121.0,1.0,3
230171.390625,243961.34375,245417.515625,241544.765625,225452.765625,227085.859375,221624.53125,211176.34375,23122.0,1.0,3
230206.171875,243966.625,245423.78125,241539.578125,225353.96875,227086.140625,221587.421875,211158.546875,23123.0,1.0,3
230258.5625,244019.8125,245447.296875,241579.09375,225433.984375,227117.515625,221637.3125,211200.296875,23124.0,1.0,3
230284.578125,244074.09375,245461.59375,241620.046875,225624.953125,227149.25,221720.546875,211254.65625,23125.0,1.0,3
230186.046875,243991.03125,245419.84375,241575.34375,225584.28125,227107.859375,221683.546875,211219.53125,23126.0,1.0,3
230161.640625,243946.765625,245403.390625,241542.171875,225446.046875,227077.109375,221623.453125,211180.359375,23127.0,1.0,3
230192.84375,243949.8125,245400.4375,241536.71875,225345.734375,227072.546875,221585.1875,211158.734375,23128.0,1.0,3
230258.203125,244014.8125,245428.328125,241581.875,225433.71875,227112.875,221641.34375,211204.59375,23129.0,1.0,3
230281.890625,244064.4375,245442.109375,241617.265625,225627.546875,227143.53125,221720.828125,211252.6875,23130.0,1.0,3
230194.28125,243991.828125,245411.796875,241575.96875,225599.65625,227109.109375,221687.46875,211219.703125,23131.0,1.0,3
230170.234375,243948.375,245400.078125,241540.828125,225463.484375,227076.5625,221620.0625,211177.140625,23132.0,1.0,3
230210.46875,243965.90625,245402.40625,241540.203125,225370.6875,227076.75,221587.875,211164.1875,23133.0,1.0,3
230266.703125,244022.234375,245422.96875,241577.578125,225450.25,227110.546875,221638.03125,211204.6875,23134.0,1.0,3
230288.25,244070.78125,245440.5,241615.578125,225640.25,227141.203125,221717.609375,211255.375,23135.0,1.0,3
230196.78125,243996.578125,245412.59375,241580.34375,225611.28125,227110.09375,221688.90625,211226.859375,23136.0,1.0,3
230170.671875,243948.65625,245397.671875,241547.09375,225468.140625,227076.390625,221623.640625,211183.671875,23137.0,1.0,3
230208.5,243960.453125,245400.0,241542.4375,225370.6875,227071.5625,221588.046875,211167.9375,23138.0,1.0,3
230272.515625,244023.484375,245433.703125,241588.9375,225461.15625,227116.265625,221648.484375,211218.453125,23139.0,1.0,3
230287.4375,244063.265625,245446.03125,241619.78125,225644.265625,227147.734375,221725.921875,211263.875,23140.0,1.0,3
230198.21875,243992.015625,245416.796875,241580.078125,225612.890625,227116.4375,221695.703125,211230.796875,23141.0,1.0,3
230172.375,243947.84375,245404.015625,241543.953125,225471.796875,227085.15625,221631.765625,211186.171875,23142.0,1.0,3
230213.59375,243963.578125,245410.1875,241541.90625,225376.3125,227085.859375,221599.140625,211169.71875,23143.0,1.0,3
230268.3125,244017.9375,245429.671875,241578.65625,225453.46875,227122.34375,221648.046875,211208.609375,23144.0,1.0,3
230294.234375,244068.90625,245447.921875,241620.671875,225644.71875,227156.859375,221731.90625,211265.21875,23145.0,1.0,3
230198.21875,243991.5625,245411.796875,241579.8125,225608.59375,227116.0,221698.375,211233.296875,23146.0,1.0,3
230164.953125,243938.90625,245392.921875,241540.109375,225457.859375,227078.265625,221627.65625,211183.84375,23147.0,1.0,3
230207.15625,243954.90625,245403.84375,241539.671875,225364.96875,227082.640625,221596.90625,211172.9375,23148.0,1.0,3
230264.203125,244012.671875,245424.9375,241575.96875,225441.3125,227119.484375,221646.078125,211212.640625,23149.0,1.0,3
230290.21875,244066.671875,245445.953125,241617.71875,225632.203125,227156.859375,221733.34375,211267.265625,23150.0,1.0,3
230197.859375,243993.0,245413.9375,241578.46875,225602.515625,227124.21875,221705.359375,211235.078125,23151.0,1.0,3
230161.203125,243937.921875,245388.8125,241534.65625,225453.203125,227082.640625,221631.953125,211181.078125,23152.0,1.0,3
230199.734375,243949.546875,245393.28125,241529.03125,225360.484375,227079.078125,221598.15625,211164.546875,23153.0,1.0,3
230262.671875,244009.359375,245419.125,241569.53125,225440.0625,227115.28125,221649.203125,211204.59375,23154.0,1.0,3
230292.0,244058.359375,245438.34375,241610.5625,225626.203125,227145.953125,221726.09375,211254.125,23155.0,1.0,3
230194.1875,243976.984375,245408.21875,241568.90625,225591.421875,227106.78125,221687.734375,211220.0625,23156.0,1.0,3
230162.1875,243927.109375,245393.46875,241530.09375,225449.359375,227070.9375,221618.265625,211173.125,23157.0,1.0,3
230204.203125,243940.953125,245400.96875,241531.078125,225363.265625,227073.796875,221588.40625,211161.046875,23158.0,1.0,3
230267.140625,244001.9375,245428.515625,241570.421875,225443.375,227107.6875,221636.515625,211203.15625,23159.0,1.0,3
230292.625,244049.59375,245446.390625,241609.9375,225630.953125,227139.6875,221714.828125,211254.03125,23160.0,1.0,3
230195.171875,243968.40625,245414.484375,241568.71875,225598.84375,227100.53125,221682.015625,211218.453125,23161.0,1.0,3
230170.9375,243924.59375,245405.71875,241539.484375,225464.5625,227071.375,221622.390625,211178.671875,23162.0,1.0,3
230212.609375,243937.734375,245412.328125,241538.59375,225374.796875,227071.65625,221592.796875,211164.625,23163.0,1.0,3
230266.34375,243985.3125,245427.796875,241567.296875,225444.171875,227097.671875,221630.78125,211196.09375,23164.0,1.0,3
230293.609375,244036.890625,245445.234375,241607.4375,225633.546875,227133.25,221711.96875,211249.296875,23165.0,1.0,3
230199.46875,243963.84375,245415.734375,241571.671875,225605.640625,227103.921875,221685.78125,211220.328125,23166.0,1.0,3
230162.984375,243912.265625,245394.265625,241530.015625,225458.296875,227065.578125,221614.25,211172.765625,23167.0,1.0,3
230216.1875,243943.640625,245408.671875,241536.8125,225374.53125,227073.703125,221590.203125,211167.125,23168.0,1.0,3
230268.671875,243997.828125,245431.015625,241574.171875,225447.65625,227108.578125,221637.765625,211207.09375,23169.0,1.0,3
230299.59375,244054.15625,245449.078125,241616.921875,225636.765625,227145.40625,221724.21875,211263.25,23170.0,1.0,3
230203.84375,243979.046875,245410.1875,241575.515625,225607.078125,227108.3125,221694.71875,211229.09375,23171.0,1.0,3
230168.53125,243928.078125,245388.8125,241535.734375,225462.421875,227071.203125,221625.25,211182.15625,23172.0,1.0,3
230208.859375,243943.734375,245392.578125,241534.125,225371.578125,227073.078125,221592.171875,211168.46875,23173.0,1.0,3
230262.859375,243996.75,245413.3125,241567.65625,225439.171875,227105.984375,221636.875,211206.46875,23174.0,1.0,3
230287.984375,244047.890625,245425.828125,241601.8125,225618.078125,227133.609375,221713.9375,211255.640625,23175.0,1.0,3
230185.34375,243963.84375,245388.28125,241558.71875,225581.6875,227090.96875,221681.578125,211217.734375,23176.0,1.0,3
230160.9375,243923.796875,245380.6875,241530.1875,225450.796875,227061.015625,221623.09375,211180.09375,23177.0,1.0,3
230205.359375,243943.28125,245389.359375,241531.53125,225367.46875,227062.796875,221593.6875,211171.25,23178.0,1.0,3
230260.796875,243998.71875,245409.921875,241565.59375,225437.203125,227095.4375,221639.1875,211209.421875,23179.0,1.0,3
230281.625,244041.984375,245421.546875,241598.3125,225613.6875,227123.0625,221714.46875,211253.046875,23180.0,1.0,3
230189.546875,243967.0625,245395.34375,241562.5625,225588.484375,227090.6875,221685.78125,211224.078125,23181.0,1.0,3
230160.9375,243920.390625,245379.421875,241525.625,225448.734375,227054.65625,221617.921875,211176.25,23182.0,1.0,3
230205.359375,243938.90625,245391.40625,241531.078125,225367.90625,227060.921875,221595.109375,211165.515625,23183.0,1.0,3
230264.375,243997.109375,245419.65625,241571.9375,225441.21875,227097.40625,221641.421875,211203.4375,23184.0,1.0,3
230289.9375,244049.5,245437.546875,241610.203125,225625.671875,227130.484375,221720.640625,211257.25,23185.0,1.0,3
230190.875,243971.8125,245408.125,241571.765625,225593.484375,227095.609375,221693.90625,211227.75,23186.0,1.0,3
230162.0,243922.09375,245397.046875,241537.515625,225458.03125,227064.765625,221632.671875,211185.1875,23187.0,1.0,3
230209.296875,243940.15625,245403.75,241531.53125,225368.265625,227061.640625,221597.703125,211169.71875,23188.0,1.0,3
230269.46875,244000.859375,245429.40625,241568.640625,225443.90625,227099.71875,221646.078125,211210.671875,23189.0,1.0,3
230293.25,244049.046875,245441.921875,241602.515625,225624.0625,227128.25,221722.875,211257.171875,23190.0,1.0,3
230200.1875,243972.34375,245406.078125,241561.84375,225593.390625,227088.28125,221692.390625,211223.546875,23191.0,1.0,3
230172.640625,243926.203125,245392.84375,241530.734375,225458.84375,227057.53125,221631.0625,211180.28125,23192.0,1.0,3
230211.890625,243940.25,245398.296875,241527.78125,225371.125,227057.34375,221596.28125,211162.65625,23193.0,1.0,3
230264.28125,243992.015625,245415.375,241557.90625,225434.875,227086.21875,221637.5,211197.0,23194.0,1.0,3
230287.359375,244041.0,245426.546875,241591.171875,225611.71875,227116.53125,221716.34375,211249.203125,23195.0,1.0,3
230190.171875,243962.953125,245394.265625,241554.953125,225586.875,227084.25,221691.671875,211221.671875,23196.0,1.0,3
230161.109375,243918.875,245382.296875,241524.734375,225452.140625,227050.90625,221631.0625,211179.203125,23197.0,1.0,3
230214.65625,243946.421875,245395.96875,241531.4375,225375.15625,227056.984375,221609.421875,211170.703125,23198.0,1.0,3
230271.34375,243998.09375,245417.78125,241566.125,225441.046875,227087.46875,221653.40625,211206.65625,23199.0,1.0,3
230301.484375,244051.015625,245434.328125,241602.875,225624.421875,227117.96875,221731.8125,211256.09375,23200.0,1.0,3
230205.359375,243974.671875,245396.328125,241561.578125,225599.203125,227080.234375,221698.296875,211219.875,23201.0,1.0,3
230163.34375,243915.21875,245373.96875,241520.890625,225460.359375,227042.140625,221627.75,211172.671875,23202.0,1.0,3
230198.75,243922.625,245380.0625,241515.96875,225369.15625,227039.546875,221593.421875,211158.015625,23203.0,1.0,3
230268.125,243988.4375,245415.453125,241561.296875,225441.84375,227081.484375,221645.546875,211203.796875,23204.0,1.0,3
230296.734375,244038.234375,245433.609375,241598.765625,225619.234375,227110.984375,221724.671875,211254.578125,23205.0,1.0,3
230204.65625,243964.296875,245399.1875,241560.328125,225592.859375,227076.921875,221696.5,211223.28125,23206.0,1.0,3
230161.28125,243904.75,245377.28125,241518.75,225449.546875,227040.09375,221626.59375,211176.875,23207.0,1.0,3
230204.46875,243923.078125,245384.703125,241519.015625,225366.390625,227040.453125,221595.828125,211163.90625,23208.0,1.0,3
230264.90625,243984.5,245410.28125,241554.6875,225429.953125,227076.03125,221638.5625,211197.171875,23209.0,1.0,3
230291.734375,244035.28125,245430.84375,241594.75,225612.078125,227112.328125,221719.484375,211250.734375,23210.0,1.0,3
230191.59375,243953.390625,245394.8125,241552.0,225583.203125,227074.328125,221686.40625,211216.75,23211.0,1.0,3
230158.609375,243907.4375,245381.3125,241519.375,225449.265625,227041.25,221625.6875,211174.546875,23212.0,1.0,3
230210.546875,243935.78125,245391.40625,241525.1875,225372.03125,227043.9375,221602.625,211164.265625,23213.0,1.0,3
230267.328125,243989.6875,245414.125,241560.140625,225434.875,227077.640625,221649.203125,211199.234375,23214.0,1.0,3
230290.296875,244031.53125,245428.6875,241599.21875,225609.484375,227107.140625,221726.71875,211251.796875,23215.0,1.0,3
230196.421875,243958.9375,245391.859375,241557.109375,225580.078125,227067.71875,221695.96875,211217.640625,23216.0,1.0,3
230162.546875,243912.171875,245381.390625,241523.9375,225448.28125,227036.96875,221637.9375,211176.96875,23217.0,1.0,3
230210.015625,243934.96875,245393.828125,241522.5,225365.59375,227036.515625,221609.0625,211165.25,23218.0,1.0,3
230269.375,243992.546875,245417.515625,241555.671875,225425.40625,227067.359375,221651.984375,211199.046875,23219.0,1.0,3
230297.453125,244040.734375,245436.296875,241598.59375,225606.265625,227103.296875,221732.984375,211253.59375,23220.0,1.0,3
230202.765625,243965.546875,245403.75,241559.15625,225581.234375,227063.78125,221704.015625,211222.03125,23221.0,1.0,3
230165.578125,243912.890625,245385.328125,241521.15625,225443.015625,227027.03125,221638.75,211177.859375,23222.0,1.0,3
230208.9375,243931.21875,245391.5,241519.90625,225361.5625,227031.328125,221608.4375,211164.984375,23223.0,1.0,3
230260.4375,243981.90625,245408.9375,241551.5625,225419.859375,227061.375,221642.5,211195.390625,23224.0,1.0,3
230298.171875,244042.703125,245431.640625,241595.90625,225603.5,227100.078125,221730.65625,211252.0625,23225.0,1.0,3
230204.203125,243967.96875,245397.75,241557.640625,225579.8125,227068.96875,221705.984375,211221.140625,23226.0,1.0,3
230159.234375,243907.609375,245375.5,241514.0,225434.4375,227029.890625,221632.671875,211170.4375,23227.0,1.0,3
230216.71875,243938.546875,245392.125,241523.390625,225361.109375,227044.828125,221607.1875,211167.671875,23228.0,1.0,3
230274.828125,243994.78125,245416.359375,241558.265625,225423.515625,227073.625,221650.375,211206.65625,23229.0,1.0,3
230300.046875,244044.3125,245432.359375,241597.421875,225602.6875,227107.6875,221730.125,211258.78125,23230.0,1.0,3
230202.234375,243967.421875,245400.171875,241561.296875,225584.546875,227069.953125,221706.78125,211230.078125,23231.0,1.0,3
230154.40625,243906.1875,245378.265625,241520.359375,225443.640625,227030.53125,221639.8125,211182.0625,23232.0,1.0,3
230202.5,243928.890625,245385.15625,241517.671875,225359.5,227029.890625,221609.59375,211168.46875,23233.0,1.0,3
230258.734375,243984.5,245403.296875,241547.625,225416.28125,227060.5625,221644.46875,211196.546875,23234.0,1.0,3
230283.6875,244033.578125,245416.265625,241582.21875,225592.859375,227093.109375,221720.015625,211245.8125,23235.0,1.0,3
230192.671875,243964.75,245385.515625,241548.25,225575.515625,227062.078125,221701.234375,211219.796875,23236.0,1.0,3
230151.09375,243908.0625,245364.3125,241509.625,225437.109375,227033.46875,221633.03125,211170.984375,23237.0,1.0,3
230200.09375,243928.71875,245373.96875,241513.5625,225357.359375,227032.3125,221606.015625,211161.140625,23238.0,1.0,3
230262.140625,243986.5625,245400.53125,241553.609375,225420.390625,227071.375,221649.46875,211200.84375,23239.0,1.0,3
230291.46875,244038.6875,245420.46875,241594.03125,225601.625,227105.890625,221731.1875,211254.9375,23240.0,1.0,3
230191.953125,243957.328125,245383.28125,241548.703125,225570.953125,227065.484375,221699.0,211222.921875,23241.0,1.0,3
230159.859375,243911.546875,245371.109375,241516.25,225437.375,227037.3125,221642.59375,211183.046875,23242.0,1.0,3
230213.328125,243939.703125,245384.609375,241522.328125,225359.421875,227045.90625,221622.296875,211174.546875,23243.0,1.0,3
230261.515625,243984.328125,245396.859375,241547.796875,225408.0625,227071.296875,221651.171875,211200.390625,23244.0,1.0,3
230284.671875,244027.6875,245410.1875,241579.0,225576.40625,227095.515625,221720.203125,211244.734375,23245.0,1.0,3
230198.65625,243959.640625,245388.90625,241551.5625,225569.53125,227068.875,221704.734375,211223.734375,23246.0,1.0,3
230156.28125,243899.5625,245369.421875,241511.765625,225431.75,227031.328125,221639.375,211175.09375,23247.0,1.0,3
230206.4375,243922.625,245379.96875,241513.921875,225354.40625,227035.0,221612.90625,211163.015625,23248.0,1.0,3
230276.171875,243989.0625,245412.875,241559.15625,225426.390625,227082.46875,221660.828125,211207.28125,23249.0,1.0,3
230300.5,244035.109375,245424.046875,241589.109375,225594.640625,227123.328125,221723.859375,211251.53125,23250.0,1.0,3
230216.1875,243972.078125,245403.03125,241558.53125,225584.640625,227100.0,221705.0,211231.140625,23251.0,1.0,3
230179.609375,243925.5,245389.890625,241525.0,225458.296875,227065.484375,221651.0,211190.734375,23252.0,1.0,3
230221.546875,243944.984375,245395.875,241523.84375,225380.078125,227070.484375,221620.328125,211176.15625,23253.0,1.0,3
230267.5,243991.390625,245410.359375,241548.515625,225426.03125,227089.984375,221652.421875,211203.96875,23254.0,1.0,3
230288.15625,244034.03125,245423.234375,241579.546875,225594.921875,227114.828125,221729.21875,211252.609375,23255.0,1.0,3
230192.40625,243957.046875,245391.328125,241541.015625,225579.265625,227084.25,221709.109375,211227.21875,23256.0,1.0,3
230147.078125,243898.765625,245369.765625,241501.765625,225443.015625,227049.390625,221642.859375,211182.15625,23257.0,1.0,3
230194.1875,243921.109375,245373.890625,241500.0625,225368.53125,227048.671875,221616.75,211173.75,23258.0,1.0,3
230245.59375,243968.5,245391.328125,241524.828125,225418.78125,227071.296875,221648.40625,211200.84375,23259.0,1.0,3
230276.09375,244021.0625,245410.1875,241563.71875,225588.125,227099.640625,221721.453125,211249.46875,23260.0,1.0,3
230178.71875,243945.609375,245377.640625,241528.40625,225565.140625,227063.0625,221690.328125,211217.375,23261.0,1.0,3
230135.71875,243885.796875,245359.21875,241493.984375,225427.546875,227037.859375,221622.296875,211171.953125,23262.0,1.0,3
230190.25,243908.59375,245367.09375,241495.046875,225349.671875,227074.328125,221579.375,211162.578125,23263.0,1.0,3
230253.46875,243966.4375,245391.859375,241532.15625,225406.265625,227090.0625,221624.359375,211196.375,23264.0,1.0,3
230284.140625,244018.921875,245410.1875,241576.59375,225579.09375,227124.046875,221706.703125,211251.4375,23265.0,1.0,3
230187.75,243944.171875,245373.625,241538.328125,225556.203125,227083.71875,221683.1875,211222.46875,23266.0,1.0,3
230146.453125,243888.484375,245355.46875,241502.828125,225428.625,227046.171875,221626.859375,211181.796875,23267.0,1.0,3
230195.796875,243912.53125,245362.359375,241501.671875,225353.0625,227044.109375,221601.46875,211165.515625,23268.0,1.0,3
230255.25,243970.90625,245382.203125,241534.03125,225409.21875,227078.453125,221640.53125,211196.8125,23269.0,1.0,3
230280.921875,244017.40625,245397.75,241568.640625,225578.28125,227109.921875,221715.09375,211249.125,23270.0,1.0,3
230191.6875,243949.546875,245374.328125,241535.5625,225566.9375,227080.140625,221699.28125,211230.34375,23271.0,1.0,3
230142.15625,243891.703125,245361.734375,241497.28125,225433.796875,227045.0,221635.171875,211184.75,23272.0,1.0,3
230190.796875,243916.828125,245370.578125,241497.46875,225354.234375,227046.171875,221600.921875,211167.125,23273.0,1.0,3
230250.6875,243973.140625,245393.109375,241536.0,225411.8125,227085.59375,221639.109375,211201.828125,23274.0,1.0,3
230276.4375,244020.796875,245403.65625,241573.015625,225584.015625,227119.21875,221715.375,211252.6875,23275.0,1.0,3
230182.03125,243947.3125,245363.875,241533.671875,225565.765625,227083.71875,221689.171875,211221.140625,23276.0,1.0,3
230139.65625,243890.453125,245341.515625,241497.734375,225433.984375,227046.96875,221626.140625,211177.421875,23277.0,1.0,3
230201.078125,243921.5625,245353.6875,241502.390625,225369.25,227052.609375,221604.953125,211173.5625,23278.0,1.0,3
230248.640625,243963.3125,245369.6875,241526.875,225415.46875,227073.265625,221633.296875,211198.6875,23279.0,1.0,3
230275.1875,244014.359375,245396.234375,241564.078125,225587.140625,227106.34375,221710.359375,211247.515625,23280.0,1.0,3
230173.171875,243937.203125,245375.40625,241527.0625,225571.21875,227067.890625,221685.15625,211214.96875,23281.0,1.0,3
230127.578125,243880.609375,245369.234375,241489.59375,225436.578125,227026.953125,221622.5625,211168.203125,23282.0,1.0,3
230181.765625,243906.453125,245386.3125,241495.234375,225366.75,227031.6875,221601.734375,211162.484375,23283.0,1.0,3
230241.390625,243960.453125,245400.96875,241526.609375,225412.96875,227059.40625,221634.640625,211195.203125,23284.0,1.0,3
230274.03125,244013.46875,245402.859375,241564.515625,225576.765625,227090.0625,221707.40625,211244.203125,23285.0,1.0,3
230190.4375,243948.65625,245358.78125,241534.921875,225566.75,227064.765625,221691.140625,211224.265625,23286.0,1.0,3
230151.8125,243896.25,245335.078125,241503.71875,225439.078125,227035.4375,221638.921875,211187.515625,23287.0,1.0,3
230200.53125,243913.6875,245339.28125,241499.53125,225361.75,227035.359375,221609.328125,211172.671875,23288.0,1.0,3
230256.5,243963.40625,245363.25,241526.171875,225409.21875,227065.484375,221638.484375,211198.6875,23289.0,1.0,3
230287.0,244017.21875,245397.046875,241565.421875,225578.109375,227098.65625,221715.640625,211250.109375,23290.0,1.0,3
230191.328125,243947.75,245381.484375,241530.015625,225564.25,227068.796875,221691.859375,211221.40625,23291.0,1.0,3
230145.015625,243892.6875,245379.78125,241494.515625,225435.5,227037.40625,221631.0625,211177.59375,23292.0,1.0,3
230197.234375,243923.34375,245398.390625,241496.578125,225368.890625,227047.15625,221604.953125,211168.203125,23293.0,1.0,3
230250.96875,243974.40625,245411.796875,241521.34375,225419.046875,227081.484375,221633.203125,211195.109375,23294.0,1.0,3
230286.375,244024.828125,245424.3125,241557.015625,225588.03125,227127.078125,221705.53125,211247.234375,23295.0,1.0,3
230199.546875,243960.359375,245388.015625,241520.984375,225576.3125,227113.5,221680.046875,211224.359375,23296.0,1.0,3
230150.828125,243900.375,245364.671875,241479.59375,225438.71875,227097.9375,221607.984375,211180.453125,23297.0,1.0,3
230207.875,243930.046875,245377.8125,241483.78125,225375.15625,227129.671875,221578.03125,211176.703125,23298.0,1.0,3
230261.421875,243980.75,245399.90625,241510.515625,225421.28125,227188.328125,221600.390625,211204.59375,23299.0,1.0,3
230290.390625,244032.78125,245422.515625,241546.90625,225584.015625,227260.125,221662.171875,211255.640625,23300.0,1.0,3
230184.890625,243952.671875,245383.28125,241502.65625,225556.109375,227208.359375,221632.3125,211220.6875,23301.0,1.0,3
230131.421875,243893.21875,245360.203125,241462.6875,225415.390625,227142.375,221578.125,211175.359375,23302.0,1.0,3
230193.296875,243932.734375,245376.84375,241477.265625,225350.484375,227138.703125,221575.796875,211176.078125,23303.0,1.0,3
230250.0625,243986.46875,245394.71875,241513.828125,225391.421875,227156.140625,221614.25,211205.671875,23304.0,1.0,3
230286.453125,244048.421875,245412.78125,241558.078125,225552.0,227183.671875,221694.265625,211259.578125,23305.0,1.0,3
230197.40625,243987.71875,245382.640625,241522.328125,225532.59375,227146.84375,221675.765625,211234.359375,23306.0,1.0,3
230152.265625,243932.109375,245366.203125,241484.328125,225395.453125,227107.6875,221615.765625,211190.5625,23307.0,1.0,3
230207.515625,243958.03125,245383.984375,241491.75,225324.109375,227108.3125,221594.484375,211182.953125,23308.0,1.0,3
230266.875,244009.796875,245413.578125,241526.078125,225372.03125,227138.265625,221632.75,211212.46875,23309.0,1.0,3
230297.546875,244057.453125,245434.5,241556.65625,225529.296875,227165.703125,221707.234375,211257.4375,23310.0,1.0,3
230222.625,244007.296875,245423.328125,241532.609375,225533.9375,227152.46875,221704.90625,211243.125,23311.0,1.0,3
230165.671875,243945.4375,245406.78125,241490.046875,225402.6875,227113.765625,221640.171875,211189.125,23312.0,1.0,3
230215.828125,243968.9375,245424.21875,241494.15625,225336.0,227115.375,221613.796875,211172.046875,23313.0,1.0,3
230279.84375,244024.5625,245452.65625,241528.765625,225390.890625,227148.09375,221649.5625,211203.34375,23314.0,1.0,3
230312.5625,244079.546875,245472.765625,241564.171875,225560.765625,227175.1875,221724.9375,211250.453125,23315.0,1.0,3
230225.125,244014.546875,245449.96875,241535.5625,225558.53125,227145.046875,221709.5625,211226.59375,23316.0,1.0,3
230176.484375,243952.578125,245435.21875,241501.484375,225431.21875,227110.546875,221646.796875,211182.953125,23317.0,1.0,3
230226.375,243975.203125,245444.078125,241502.109375,225367.828125,227112.59375,221620.59375,211171.875,23318.0,1.0,3
230290.84375,244037.96875,245467.046875,241533.765625,225428.4375,227148.984375,221656.890625,211201.734375,23319.0,1.0,3
230318.375,244090.71875,245481.625,241565.59375,225596.25,227178.40625,221727.078125,211245.71875,23320.0,1.0,3
230229.421875,244030.1875,245450.6875,241534.65625,225595.984375,227146.390625,221708.3125,211224.984375,23321.0,1.0,3
230173.625,243968.671875,245421.625,241492.8125,225467.6875,227106.609375,221639.90625,211179.5625,23322.0,1.0,3
230224.140625,243996.84375,245427.4375,241497.640625,225406.265625,227110.09375,221612.734375,211170.078125,23323.0,1.0,3
230283.421875,244050.65625,245442.015625,241532.25,225459.640625,227140.046875,221642.234375,211203.078125,23324.0,1.0,3
230318.5625,244107.078125,245449.171875,241570.78125,225623.53125,227168.125,221713.578125,211255.109375,23325.0,1.0,3
230231.828125,244041.8125,245409.109375,241537.796875,225610.828125,227134.421875,221695.703125,211232.40625,23326.0,1.0,3
230176.390625,243976.453125,245377.90625,241495.859375,225471.359375,227095.4375,221632.578125,211187.96875,23327.0,1.0,3
230229.140625,244003.546875,245379.421875,241499.96875,225403.046875,227099.90625,221610.3125,211177.140625,23328.0,1.0,3
230297.28125,244068.71875,245401.328125,241539.484375,225454.28125,227136.296875,221650.28125,211212.8125,23329.0,1.0,3
230326.78125,244120.75,245414.203125,241573.90625,225606.625,227164.015625,221722.078125,211261.640625,23330.0,1.0,3
230235.9375,244054.859375,245383.984375,241540.921875,225595.0,227133.34375,221706.421875,211237.9375,23331.0,1.0,3
230184.4375,243995.3125,245365.484375,241499.078125,225458.125,227094.546875,221644.921875,211190.640625,23332.0,1.0,3
230252.125,244035.734375,245386.3125,241511.0625,225402.875,227109.203125,221633.03125,211190.734375,23333.0,1.0,3
230302.46875,244080.703125,245399.453125,241535.015625,225444.796875,227134.328125,221659.21875,211213.171875,23334.0,1.0,3
230323.65625,244120.21875,245407.5,241562.203125,225592.40625,227155.515625,221724.046875,211253.40625,23335.0,1.0,3
230230.671875,244051.828125,245378.265625,241525.546875,225573.09375,227120.640625,221703.203125,211226.140625,23336.0,1.0,3
230175.6875,243988.078125,245364.140625,241489.421875,225435.0625,227085.234375,221639.734375,211181.796875,23337.0,1.0,3
230236.125,244022.671875,245383.8125,241500.859375,225378.375,227095.515625,221621.765625,211180.546875,23338.0,1.0,3
230278.953125,244058.078125,245398.734375,241523.484375,225413.6875,227114.390625,221643.125,211200.75,23339.0,1.0,3
230306.125,244102.515625,245418.140625,241559.515625,225567.5625,227144.96875,221709.203125,211246.609375,23340.0,1.0,3
230218.421875,244036.890625,245394.359375,241530.90625,225563.890625,227121.265625,221695.96875,211226.765625,23341.0,1.0,3
230164.6875,243973.421875,245371.109375,241489.6875,225427.640625,227082.203125,221632.046875,211178.484375,23342.0,1.0,3
230228.703125,244011.6875,245385.859375,241497.921875,225371.578125,227090.25,221614.703125,211175.265625,23343.0,1.0,3
230292.53125,244068.09375,245407.5,241531.4375,225420.578125,227122.875,221647.421875,211206.109375,23344.0,1.0,3
230324.984375,244118.796875,245425.828125,241566.9375,225580.796875,227157.03125,221721.71875,211255.203125,23345.0,1.0,3
230238.53125,244053.875,245395.609375,241534.578125,225575.515625,227129.234375,221706.78125,211232.75,23346.0,1.0,3
230177.03125,243984.140625,245369.6875,241490.578125,225435.953125,227090.15625,221640.984375,211183.5,23347.0,1.0,3
230234.515625,244014.359375,245380.859375,241498.71875,225378.015625,227100.53125,221619.875,211177.421875,23348.0,1.0,3
230294.328125,244067.203125,245393.46875,241525.546875,225421.828125,227125.921875,221644.109375,211202.0,23349.0,1.0,3
230321.78125,244116.015625,245404.640625,241557.28125,225574.796875,227151.484375,221707.953125,211248.21875,23350.0,1.0,3
230221.375,244040.734375,245371.921875,241523.390625,225567.015625,227119.578125,221687.03125,211223.1875,23351.0,1.0,3
230172.734375,243989.0625,245362.171875,241494.609375,225447.65625,227096.0625,221636.78125,211191.453125,23352.0,1.0,3
230232.90625,244021.0625,245376.203125,241502.390625,225393.75,227106.609375,221620.15625,211188.765625,23353.0,1.0,3
230287.703125,244069.265625,245390.6875,241525.8125,225436.21875,227130.03125,221643.84375,211207.0,23354.0,1.0,3
230313.640625,244112.625,245408.578125,241556.46875,225590.796875,227156.9375,221708.578125,211246.703125,23355.0,1.0,3
230223.15625,244046.90625,245387.828125,241527.78125,225586.875,227129.59375,221694.625,211224.796875,23356.0,1.0,3
230166.109375,243980.5625,245373.4375,241489.421875,225454.71875,227094.625,221635.796875,211180.28125,23357.0,1.0,3
230224.234375,244008.46875,245388.015625,241493.625,225397.234375,227098.921875,221614.34375,211169.71875,23358.0,1.0,3
230295.046875,244067.46875,245412.875,241530.546875,225452.484375,227131.203125,221645.625,211199.234375,23359.0,1.0,3
230324.1875,244112.265625,245430.65625,241568.09375,225611.453125,227164.359375,221715.8125,211246.609375,23360.0,1.0,3
230221.015625,244030.8125,245385.859375,241524.296875,225589.28125,227124.046875,221689.078125,211213.0,23361.0,1.0,3
230169.6875,243968.3125,245362.265625,241489.515625,225460.359375,227091.140625,221632.671875,211175.171875,23362.0,1.0,3
230226.375,243994.25,245367.71875,241493.984375,225400.90625,227093.109375,221607.546875,211170.703125,23363.0,1.0,3
230290.21875,244047.890625,245388.1875,241526.796875,225448.28125,227126.015625,221640.265625,211199.9375,23364.0,1.0,3
