FZ,C3,CZ,C4,PZ,PO7,OZ,PO8,Counter,Validation,Label
225561.75,247047.859375,322976.71875,269220.875,218185.046875,226915.015625,224224.3125,218594.625,7694.0,1.0,1
225892.640625,247157.828125,323240.3125,269581.1875,218312.453125,227275.40625,224254.609375,218628.234375,7695.0,1.0,1
229370.296875,249452.546875,325106.84375,272020.03125,220306.765625,229194.625,227193.328125,221789.21875,7696.0,1.0,1
230825.5,250531.59375,325817.375,272955.40625,221226.484375,229873.046875,228714.421875,223425.984375,7697.0,1.0,1
228776.46875,249233.40625,324648.1875,271411.34375,220077.078125,228625.546875,227100.890625,221694.71875,7698.0,1.0,1
225574.53125,247052.59375,322951.96875,269200.5,218189.15625,226935.390625,224223.140625,218606.6875,7699.0,1.0,1
225880.296875,247148.609375,323200.96875,269545.59375,218301.1875,227281.84375,224230.828125,218614.90625,7700.0,1.0,1
229341.6875,249428.84375,325051.25,271974.59375,220281.734375,229192.03125,227155.515625,221759.890625,7701.0,1.0,1
230840.421875,250542.328125,325790.0,272943.5,221231.234375,229903.171875,228717.8125,223436.453125,7702.0,1.0,1
228809.28125,249256.46875,324629.0625,271411.875,220095.671875,228667.75,227127.890625,221728.953125,7703.0,1.0,1
225572.109375,247044.359375,322904.40625,269175.0,218183.4375,226952.5625,224226.28125,218616.171875,7704.0,1.0,1
225840.0625,247115.171875,323130.0625,269491.5,218271.953125,227273.53125,224198.375,218587.203125,7705.0,1.0,1
229309.328125,249401.40625,324989.0,271928.125,220260.09375,229187.015625,227122.875,221732.71875,7706.0,1.0,1
230829.6875,250526.328125,325737.4375,272909.53125,221219.34375,229903.265625,228694.921875,223422.953125,7707.0,1.0,1
228821.875,249256.03125,324589.0,271392.03125,220094.515625,228671.59375,227122.796875,221737.265625,7708.0,1.0,1
225600.453125,247060.90625,322879.71875,269166.96875,218199.078125,226962.390625,224236.5625,218635.921875,7709.0,1.0,1
225827.828125,247103.546875,323084.90625,269458.0625,218268.375,227257.171875,224182.90625,218573.78125,7710.0,1.0,1
229288.671875,249381.28125,324942.0,271888.15625,220252.046875,229166.71875,227103.390625,221712.5,7711.0,1.0,1
230836.671875,250523.375,325707.21875,272886.375,221223.265625,229897.53125,228700.015625,223425.1875,7712.0,1.0,1
228852.734375,249268.984375,324575.5,271389.96875,220118.46875,228688.578125,227152.390625,221764.8125,7713.0,1.0,1
225616.546875,247061.53125,322852.46875,269148.0,218212.046875,226968.03125,224252.46875,218651.75,7714.0,1.0,1
225817.984375,247088.625,323040.125,269415.5,218260.6875,227245.90625,224168.875,218559.21875,7715.0,1.0,1
229268.375,249357.6875,324892.375,271844.4375,220238.8125,229152.15625,227082.015625,221689.265625,7716.0,1.0,1
230833.625,250512.640625,325671.5625,272866.1875,221229.4375,229901.828125,228704.9375,223428.3125,7717.0,1.0,1
228862.296875,249271.21875,324542.6875,271375.3125,220129.46875,228698.046875,227171.34375,221780.640625,7718.0,1.0,1
225624.6875,247068.5,322818.125,269131.09375,218220.71875,226978.578125,224269.90625,218666.59375,7719.0,1.0,1
225796.703125,247077.453125,322990.59375,269380.375,218254.78125,227245.640625,224158.765625,218548.125,7720.0,1.0,1
229237.359375,249334.53125,324831.65625,271797.9375,220219.765625,229139.8125,227050.46875,221661.71875,7721.0,1.0,1
230823.171875,250497.703125,325617.625,272828.625,221216.484375,229895.84375,228680.171875,223414.453125,7722.0,1.0,1
228866.046875,249263.265625,324494.5,271345.71875,220122.578125,228693.5,227157.65625,221781.703125,7723.0,1.0,1
225629.0625,247063.046875,322772.25,269102.78125,218215.703125,226970.890625,224258.015625,218668.640625,7724.0,1.0,1
225766.578125,247049.015625,322932.375,269335.03125,218233.59375,227222.125,224126.140625,218524.34375,7725.0,1.0,1
229206.953125,249307.703125,324779.8125,271757.71875,220201.890625,229120.859375,227021.578125,221638.5625,7726.0,1.0,1
230821.734375,250492.875,325581.59375,272809.3125,221212.625,229892.890625,228673.203125,223413.390625,7727.0,1.0,1
228899.21875,249285.359375,324479.21875,271351.34375,220141.71875,228714.765625,227181.703125,221813.453125,7728.0,1.0,1
225648.296875,247070.65625,322741.3125,269093.46875,218221.96875,226981.0,224270.53125,218688.21875,7729.0,1.0,1
225750.75,247029.96875,322880.25,269299.8125,218215.890625,227216.125,224108.53125,218511.828125,7730.0,1.0,1
229196.9375,249295.015625,324734.03125,271729.625,220189.734375,229127.125,227006.46875,221626.765625,7731.0,1.0,1
230829.96875,250491.1875,325541.71875,272792.3125,221209.59375,229898.25,228673.015625,223418.921875,7732.0,1.0,1
228915.3125,249286.6875,324444.875,271342.84375,220144.671875,228717.0,227192.796875,221832.84375,7733.0,1.0,1
225657.328125,247070.46875,322709.0625,269084.53125,218225.015625,226987.15625,224277.328125,218707.0,7734.0,1.0,1
225722.328125,247004.671875,322827.875,269265.5,218198.640625,227206.65625,224078.125,218498.140625,7735.0,1.0,1
229161.625,249264.703125,324676.53125,271687.0625,220162.640625,229112.0,226961.5,221600.921875,7736.0,1.0,1
230834.609375,250495.828125,325513.21875,272779.625,221210.671875,229913.984375,228663.1875,223427.953125,7737.0,1.0,1
228933.375,249297.6875,324421.1875,271338.21875,220156.109375,228745.34375,227200.390625,221856.90625,7738.0,1.0,1
225661.609375,247066.984375,322674.96875,269065.5625,218229.84375,227003.875,224276.875,218721.484375,7739.0,1.0,1
225695.671875,246981.15625,322771.28125,269215.96875,218180.125,227194.859375,224048.359375,218475.703125,7740.0,1.0,1
229140.4375,249248.6875,324621.8125,271642.46875,220147.96875,229099.578125,226936.28125,221578.9375,7741.0,1.0,1
230817.796875,250472.140625,325453.65625,272738.78125,221192.25,229898.515625,228647.0,223413.203125,7742.0,1.0,1
228942.484375,249297.328125,324374.875,271314.6875,220148.875,228740.078125,227210.5,221867.09375,7743.0,1.0,1
225680.390625,247084.15625,322641.0,269051.28125,218231.453125,227008.984375,224302.8125,218742.5,7744.0,1.0,1
225683.15625,246980.171875,322725.3125,269180.375,218168.0625,227185.90625,224052.46875,218469.265625,7745.0,1.0,1
229097.25,249216.421875,324550.5625,271580.3125,220111.578125,229064.890625,226911.4375,221542.90625,7746.0,1.0,1
230811.1875,250464.1875,325409.0625,272705.96875,221184.296875,229895.296875,228654.953125,223411.6875,7747.0,1.0,1
228957.609375,249304.125,324339.375,271291.71875,220149.21875,228749.90625,227229.09375,221879.609375,7748.0,1.0,1
225687.625,247083.890625,322597.28125,269019.8125,218227.953125,227013.265625,224309.953125,218746.25,7749.0,1.0,1
225663.84375,246961.03125,322670.6875,269136.75,218155.71875,227179.921875,224036.46875,218453.71875,7750.0,1.0,1
229086.890625,249205.515625,324507.375,271546.25,220108.359375,229068.828125,226894.796875,221529.3125,7751.0,1.0,1
230825.578125,250473.921875,325374.28125,272683.875,221190.8125,229904.328125,228644.765625,223410.4375,7752.0,1.0,1
228989.96875,249326.5625,324325.4375,271293.78125,220179.359375,228776.109375,227245.8125,221909.203125,7753.0,1.0,1
225702.921875,247089.421875,322573.96875,269011.9375,218246.28125,227024.890625,224319.4375,218769.5,7754.0,1.0,1
225630.671875,246931.796875,322611.78125,269089.90625,218133.640625,227157.390625,224001.6875,218429.125,7755.0,1.0,1
229060.59375,249183.25,324457.3125,271503.96875,220087.890625,229054.34375,226862.34375,221503.390625,7756.0,1.0,1
230827.1875,250470.53125,325345.46875,272662.78125,221187.78125,229905.578125,228641.453125,223412.046875,7757.0,1.0,1
229001.59375,249324.421875,324290.9375,271274.03125,220177.125,228773.78125,227252.078125,221921.625,7758.0,1.0,1
225724.5625,247098.453125,322545.0625,268996.375,218254.515625,227032.046875,224335.4375,218793.09375,7759.0,1.0,1
225630.671875,246929.390625,322574.21875,269061.0,218133.28125,227160.15625,223999.1875,218431.625,7760.0,1.0,1
229032.96875,249157.671875,324400.28125,271458.65625,220069.5625,229046.828125,226839.28125,221485.0625,7761.0,1.0,1
230824.15625,250459.71875,325299.34375,272635.5,221182.140625,229915.0625,228637.4375,223414.71875,7762.0,1.0,1
229036.453125,249349.90625,324267.15625,271270.25,220195.1875,228807.75,227277.828125,221951.84375,7763.0,1.0,1
225744.046875,247113.921875,322510.125,268982.34375,218261.125,227050.640625,224350.640625,218806.953125,7764.0,1.0,1
225612.078125,246917.40625,322518.0625,269018.625,218116.015625,227151.84375,223983.625,218409.1875,7765.0,1.0,1
229017.765625,249150.796875,324347.4375,271419.125,220056.15625,229044.78125,226821.578125,221460.015625,7766.0,1.0,1
230835.140625,250469.546875,325262.59375,272616.71875,221183.9375,229929.359375,228638.6875,223410.703125,7767.0,1.0,1
229051.390625,249352.859375,324234.5,271257.46875,220199.109375,228817.140625,227288.734375,221961.0625,7768.0,1.0,1
225757.453125,247114.46875,322475.96875,268961.3125,218258.8125,227048.859375,224355.734375,218811.34375,7769.0,1.0,1
225602.25,246908.46875,322478.1875,268986.8125,218106.546875,227143.71875,223972.0,218394.96875,7770.0,1.0,1
228987.46875,249123.796875,324295.65625,271371.75,220031.390625,229022.6875,226790.46875,221429.796875,7771.0,1.0,1
230834.609375,250464.453125,325230.3125,272593.03125,221182.234375,229929.359375,228637.96875,223412.765625,7772.0,1.0,1
229066.765625,249357.234375,324206.78125,271244.5,220202.78125,228827.875,227303.65625,221979.75,7773.0,1.0,1
225767.03125,247111.875,322442.34375,268945.5,218260.234375,227059.40625,224367.625,218828.140625,7774.0,1.0,1
225586.6875,246886.5625,322430.53125,268950.6875,218090.71875,227136.296875,223955.640625,218385.046875,7775.0,1.0,1
228975.296875,249107.796875,324252.65625,271342.6875,220020.125,229014.109375,226775.359375,221418.265625,7776.0,1.0,1
230838.09375,250458.8125,325188.65625,272569.875,221174.90625,229924.09375,228631.4375,223408.375,7777.0,1.0,1
229094.75,249371.0,324177.125,271235.9375,220212.4375,228838.953125,227320.203125,222000.3125,7778.0,1.0,1
225793.84375,247130.640625,322410.0625,268931.375,218271.859375,227074.0625,224388.71875,218851.125,7779.0,1.0,1
225581.234375,246890.3125,322381.5625,268916.34375,218088.3125,227139.953125,223954.125,218382.453125,7780.0,1.0,1
228950.359375,249094.640625,324196.96875,271299.21875,220008.40625,229010.703125,226758.09375,221401.546875,7781.0,1.0,1
230820.671875,250443.34375,325137.6875,272531.4375,221163.09375,229918.90625,228620.53125,223400.875,7782.0,1.0,1
229111.03125,249385.9375,324148.59375,271221.96875,220220.65625,228839.234375,227337.546875,222020.15625,7783.0,1.0,1
225796.078125,247134.21875,322369.9375,268908.125,218270.96875,227049.75,224395.609375,218861.140625,7784.0,1.0,1
225534.03125,246852.3125,322316.09375,268860.90625,218059.703125,227091.140625,223923.0,218352.5,7785.0,1.0,1
228918.0,249073.453125,324147.15625,271254.875,219991.328125,228980.125,226738.25,221379.46875,7786.0,1.0,1
230808.328125,250433.703125,325097.03125,272504.0,221157.828125,229908.625,228617.140625,223398.453125,7787.0,1.0,1
229107.890625,249378.25,324108.71875,271202.59375,220220.578125,228844.859375,227346.671875,222034.8125,7788.0,1.0,1
225812.0,247145.578125,322343.90625,268899.375,218281.0625,227074.421875,224415.453125,218888.234375,7789.0,1.0,1
225525.890625,246852.3125,322277.65625,268833.75,218057.28125,227100.265625,223922.296875,218354.46875,7790.0,1.0,1
228883.03125,249044.125,324087.71875,271207.59375,219968.53125,228972.359375,226715.359375,221354.34375,7791.0,1.0,1
230806.453125,250426.453125,325057.40625,272480.375,221156.125,229916.84375,228619.203125,223402.65625,7792.0,1.0,1
229144.1875,249400.421875,324095.21875,271205.71875,220245.703125,228872.125,227377.0625,222071.125,7793.0,1.0,1
225842.03125,247162.203125,322326.9375,268896.6875,218306.640625,227093.640625,224442.015625,218922.734375,7794.0,1.0,1
225500.953125,246820.84375,322221.15625,268787.59375,218041.546875,227080.6875,223899.046875,218338.5625,7795.0,1.0,1
228861.84375,249020.703125,324038.53125,271167.09375,219956.109375,228957.328125,226690.515625,221338.15625,7796.0,1.0,1
230816.46875,250428.875,325026.9375,272460.90625,221160.953125,229918.28125,228618.65625,223409.625,7797.0,1.0,1
229164.9375,249408.828125,324060.25,271185.3125,220252.40625,228875.703125,227386.359375,222086.578125,7798.0,1.0,1
225842.3125,247154.0625,322272.65625,268858.25,218298.140625,227082.828125,224437.546875,218920.234375,7799.0,1.0,1
225495.671875,246821.296875,322175.1875,268751.40625,218042.265625,227075.765625,223893.140625,218329.703125,7800.0,1.0,1
228826.984375,248996.75,323968.0625,271107.625,219933.84375,228932.921875,226656.71875,221297.84375,7801.0,1.0,1
230802.15625,250419.21875,324969.34375,272421.1875,221152.28125,229913.453125,228608.375,223390.140625,7802.0,1.0,1
229173.703125,249418.921875,324025.9375,271171.90625,220264.03125,228889.5625,227405.140625,222098.828125,7803.0,1.0,1
225861.703125,247175.53125,322250.125,268850.1875,218317.8125,227100.96875,224464.8125,218945.0,7804.0,1.0,1
225473.40625,246809.84375,322121.65625,268707.9375,218028.9375,227064.953125,223876.6875,218312.09375,7805.0,1.0,1
228817.859375,249000.328125,323933.3125,271077.78125,219934.203125,228937.484375,226647.953125,221290.421875,7806.0,1.0,1
230808.421875,250429.765625,324939.125,272395.1875,221158.359375,229921.59375,228605.34375,223392.546875,7807.0,1.0,1
229195.15625,249437.34375,323998.125,271151.78125,220277.4375,228901.640625,227415.0625,222113.40625,7808.0,1.0,1
225870.5625,247180.984375,322210.25,268821.65625,218320.140625,227099.359375,224466.515625,218949.390625,7809.0,1.0,1
225448.5625,246792.421875,322066.5625,268658.6875,218011.59375,227046.078125,223855.59375,218291.171875,7810.0,1.0,1
228774.140625,248963.125,323860.96875,271013.65625,219896.828125,228907.09375,226606.375,221249.640625,7811.0,1.0,1
230790.625,250406.15625,324879.59375,272350.9375,221132.4375,229907.46875,228582.0,223369.75,7812.0,1.0,1
229204.8125,249430.734375,323957.09375,271132.3125,220270.546875,228908.875,227418.109375,222115.828125,7813.0,1.0,1
225881.90625,247177.765625,322171.90625,268805.9375,218320.40625,227112.953125,224474.5625,218959.671875,7814.0,1.0,1
225447.3125,246788.390625,322025.71875,268635.625,218010.25,227057.875,223850.40625,218288.484375,7815.0,1.0,1
228766.1875,248956.515625,323815.8125,270983.8125,219891.640625,228911.203125,226588.578125,221231.859375,7816.0,1.0,1
230808.765625,250420.28125,324851.5,272343.78125,221146.03125,229926.953125,228587.09375,223378.609375,7817.0,1.0,1
229234.046875,249454.421875,323929.90625,271129.8125,220287.265625,228929.96875,227434.015625,222139.15625,7818.0,1.0,1
225912.75,247206.1875,322143.90625,268802.4375,218338.203125,227130.921875,224493.515625,218979.78125,7819.0,1.0,1
225431.03125,246777.21875,321966.6875,268599.84375,217995.140625,227040.625,223828.859375,218262.65625,7820.0,1.0,1
228738.203125,248933.53125,323757.34375,270948.40625,219877.78125,228898.59375,226565.078125,221202.4375,7821.0,1.0,1
230799.75,250410.359375,324804.9375,272321.5,221145.84375,229926.5,228581.46875,223366.171875,7822.0,1.0,1
229245.765625,249457.90625,323896.09375,271121.5625,220297.546875,228935.15625,227446.4375,222149.4375,7823.0,1.0,1
225920.453125,247204.21875,322100.625,268783.9375,218337.03125,227126.453125,224496.28125,218986.671875,7824.0,1.0,1
225417.53125,246767.203125,321913.78125,268563.65625,217984.953125,227029.0,223813.296875,218250.3125,7825.0,1.0,1
228705.5625,248907.609375,323691.53125,270893.59375,219847.125,228869.0,226523.40625,221166.046875,7826.0,1.0,1
230791.25,250399.71875,324758.25,272287.34375,221130.203125,229916.046875,228565.90625,223358.578125,7827.0,1.0,1
229265.78125,249469.0,323866.78125,271106.46875,220305.0625,228949.015625,227461.28125,222171.34375,7828.0,1.0,1
225944.765625,247222.375,322078.0,268773.40625,218353.671875,227149.171875,224518.71875,219015.8125,7829.0,1.0,1
225400.71875,246754.15625,321869.0625,268523.9375,217975.03125,227029.71875,223803.109375,218247.453125,7830.0,1.0,1
228685.09375,248892.765625,323646.84375,270855.21875,219839.515625,228872.125,226514.90625,221161.9375,7831.0,1.0,1
230804.03125,250412.234375,324726.6875,272269.375,221138.609375,229931.78125,228574.40625,223372.4375,7832.0,1.0,1
229305.125,249501.890625,323848.1875,271108.53125,220326.96875,228976.640625,227488.375,222204.15625,7833.0,1.0,1
225978.921875,247250.0,322058.15625,268770.71875,218370.65625,227169.90625,224549.03125,219046.75,7834.0,1.0,1
225400.015625,246758.0,321831.4375,268497.03125,217972.25,227029.71875,223808.921875,218244.765625,7835.0,1.0,1
228668.109375,248884.546875,323603.375,270819.46875,219827.265625,228866.765625,226507.9375,221143.609375,7836.0,1.0,1
230785.890625,250392.84375,324682.625,272235.40625,221123.40625,229927.484375,228571.28125,223358.9375,7837.0,1.0,1
229298.328125,249489.828125,323811.09375,271083.125,220320.265625,228976.5625,227500.890625,222207.109375,7838.0,1.0,1
225970.78125,247238.203125,322017.40625,268743.71875,218363.40625,227161.765625,224558.0625,219050.859375,7839.0,1.0,1
225358.078125,246722.40625,321767.3125,268446.4375,217941.40625,226997.078125,223782.640625,218217.671875,7840.0,1.0,1
228612.484375,248836.890625,323527.9375,270756.625,219785.421875,228818.21875,226459.484375,221096.765625,7841.0,1.0,1
230768.0,250374.515625,324632.8125,272198.75,221105.4375,229901.203125,228549.8125,223343.015625,7842.0,1.0,1
229312.1875,249495.09375,323782.75,271070.875,220323.125,228975.296875,227506.265625,222225.171875,7843.0,1.0,1
225986.34375,247245.171875,321990.40625,268731.0,218370.828125,227165.796875,224563.609375,219072.671875,7844.0,1.0,1
225357.546875,246722.953125,321736.65625,268422.125,217944.71875,226995.46875,223772.796875,218225.09375,7845.0,1.0,1
228607.484375,248836.96875,323497.53125,270733.625,219787.84375,228824.03125,226446.25,221101.953125,7846.0,1.0,1
230772.921875,250375.21875,324601.09375,272179.625,221108.5625,229911.578125,228544.453125,223354.640625,7847.0,1.0,1
229333.203125,249504.75,323752.4375,271054.96875,220328.21875,228983.265625,227512.703125,222242.78125,7848.0,1.0,1
226009.765625,247256.0,321963.40625,268718.6875,218383.171875,227177.859375,224586.578125,219096.1875,7849.0,1.0,1
225348.515625,246709.890625,321687.3125,268385.8125,217938.375,226992.4375,223771.109375,218213.03125,7850.0,1.0,1
228598.453125,248826.96875,323449.0625,270696.90625,219781.765625,228828.140625,226438.65625,221080.75,7851.0,1.0,1
230782.84375,250379.609375,324560.65625,272159.40625,221113.390625,229930.265625,228550.078125,223351.0625,7852.0,1.0,1
229340.171875,249500.734375,323709.25,271040.65625,220334.125,229003.828125,227520.390625,222247.25,7853.0,1.0,1
226010.921875,247248.125,321915.375,268699.09375,218382.640625,227191.90625,224579.78125,219094.84375,7854.0,1.0,1
225328.75,246691.828125,321633.46875,268352.28125,217926.03125,226995.03125,223744.109375,218198.453125,7855.0,1.0,1
228561.96875,248794.6875,323389.875,270650.84375,219759.953125,228803.28125,226395.28125,221053.75,7856.0,1.0,1
230767.28125,250359.578125,324514.09375,272119.34375,221100.78125,229894.9375,228520.9375,223336.671875,7857.0,1.0,1
229361.359375,249510.484375,323682.0625,271019.84375,220340.921875,228990.5,227521.8125,222261.828125,7858.0,1.0,1
226039.0,247263.328125,321892.3125,268684.15625,218398.09375,227190.734375,224597.40625,219119.609375,7859.0,1.0,1
225315.34375,246675.03125,321586.90625,268314.46875,217922.015625,226976.34375,223736.859375,218188.625,7860.0,1.0,1
228526.390625,248759.546875,323322.8125,270598.46875,219736.875,228777.359375,226367.21875,221017.09375,7861.0,1.0,1
230753.875,250337.3125,324456.875,272090.46875,221090.40625,229894.046875,228510.03125,223318.34375,7862.0,1.0,1
229380.234375,249516.828125,323645.9375,271017.59375,220351.28125,229003.828125,227537.015625,222272.90625,7863.0,1.0,1
226060.375,247276.015625,321857.0,268679.25,218404.8125,227193.875,224604.640625,219133.203125,7864.0,1.0,1
225304.515625,246669.03125,321535.3125,268279.78125,217906.0,226953.984375,223704.859375,218171.71875,7865.0,1.0,1
228501.0,248744.4375,323266.9375,270551.0625,219711.671875,228745.890625,226319.46875,220986.4375,7866.0,1.0,1
230756.375,250342.59375,324422.875,272064.65625,221086.921875,229884.75,228491.25,223319.328125,7867.0,1.0,1
229400.796875,249529.875,323625.03125,271005.0,220365.046875,229012.5,227548.09375,222303.671875,7868.0,1.0,1
226082.625,247290.0625,321832.875,268662.0,218414.375,227199.5,224623.515625,219156.71875,7869.0,1.0,1
225316.6875,246682.0,321515.375,268261.90625,217917.1875,226969.1875,223731.5,218187.71875,7870.0,1.0,1
228494.203125,248739.078125,323241.03125,270522.375,219710.78125,228759.296875,226342.09375,220985.984375,7871.0,1.0,1
230767.734375,250349.5625,324405.28125,272048.09375,221092.109375,229907.90625,228531.046875,223327.828125,7872.0,1.0,1
229430.65625,249554.375,323609.8125,270998.5625,220373.09375,229037.984375,227597.90625,222320.828125,7873.0,1.0,1
226111.234375,247316.796875,321815.875,268657.53125,218427.78125,227229.546875,224670.625,219180.859375,7874.0,1.0,1
225292.546875,246668.859375,321459.0625,268220.3125,217897.0625,226965.078125,223720.953125,218164.484375,7875.0,1.0,1
228468.359375,248728.96875,323188.53125,270488.5625,219698.25,228768.6875,226317.328125,220961.40625,7876.0,1.0,1
230763.71875,250357.4375,324363.25,272024.59375,221095.328125,229934.546875,228508.6875,223320.21875,7877.0,1.0,1
229439.78125,249567.78125,323573.53125,270978.15625,220388.5625,229066.953125,227582.609375,222330.125,7878.0,1.0,1
226122.6875,247330.640625,321781.90625,268633.125,218441.640625,227248.5,224659.265625,219193.640625,7879.0,1.0,1
225282.34375,246671.265625,321421.0625,268181.0625,217901.4375,226974.109375,223704.140625,218159.296875,7880.0,1.0,1
228445.125,248720.921875,323138.28125,270435.8125,219688.328125,228762.875,226296.140625,220938.15625,7881.0,1.0,1
230764.25,250363.25,324323.65625,271994.71875,221091.484375,229930.96875,228520.046875,223317.265625,7882.0,1.0,1
229462.9375,249592.640625,323546.0,270974.78125,220397.953125,229072.671875,227631.34375,222350.34375,7883.0,1.0,1
226137.703125,247352.109375,321749.25,268631.6875,218454.703125,227250.90625,224722.65625,219217.515625,7884.0,1.0,1
225271.0,246679.578125,321364.625,268151.46875,217893.21875,226950.328125,223742.671875,218154.375,7885.0,1.0,1
228426.796875,248731.03125,323075.78125,270397.8125,219679.484375,228735.515625,226321.265625,220920.09375,7886.0,1.0,1
230750.296875,250372.359375,324264.46875,271961.90625,221092.375,229912.640625,228552.234375,223311.015625,7887.0,1.0,1
229473.5625,249617.046875,323502.09375,270954.5625,220413.515625,229070.875,227681.671875,222370.453125,7888.0,1.0,1
226166.40625,247389.390625,321710.5625,268612.46875,218474.09375,227253.59375,224772.640625,219242.28125,7889.0,1.0,1
225272.96875,246694.15625,321316.28125,268118.40625,217903.953125,226943.703125,223770.296875,218157.6875,7890.0,1.0,1
228395.953125,248711.359375,323012.9375,270343.5625,219666.609375,228708.6875,226320.71875,220894.796875,7891.0,1.0,1
230746.375,250370.125,324218.6875,271921.15625,221089.875,229900.75,228562.15625,223300.109375,7892.0,1.0,1
229504.234375,249644.59375,323480.625,270937.5,220433.453125,229083.3125,227717.609375,222390.5625,7893.0,1.0,1
226193.578125,247413.53125,321686.15625,268591.34375,218488.84375,227258.328125,224802.765625,219262.390625,7894.0,1.0,1
225268.84375,246698.09375,321272.90625,268076.28125,217898.21875,226930.828125,223768.875,218146.15625,7895.0,1.0,1
228404.703125,248734.78125,322983.78125,270318.53125,219677.421875,228714.859375,226329.390625,220890.328125,7896.0,1.0,1
230777.21875,250410.453125,324197.84375,271912.03125,221110.078125,229915.0625,228587.640625,223308.15625,7897.0,1.0,1
229548.5,249690.984375,323468.03125,270947.59375,220465.1875,229107.171875,227766.34375,222418.015625,7898.0,1.0,1
226233.015625,247456.265625,321669.5,268602.0,218520.140625,227282.203125,224859.546875,219292.171875,7899.0,1.0,1
225277.25,246721.609375,321238.21875,268061.96875,217908.234375,226932.171875,223798.015625,218143.921875,7900.0,1.0,1
228390.765625,248741.75,322939.4375,270286.4375,219670.984375,228700.734375,226337.4375,220867.96875,7901.0,1.0,1
230778.90625,250424.578125,324165.9375,271896.125,221120.90625,229914.4375,228612.40625,223309.671875,7902.0,1.0,1
229567.265625,249713.703125,323439.0625,270935.6875,220486.5625,229111.921875,227796.03125,222435.90625,7903.0,1.0,1
226263.6875,247490.0625,321648.40625,268595.90625,218553.484375,227293.65625,224888.0625,219322.390625,7904.0,1.0,1
225266.796875,246722.140625,321187.78125,268027.125,217910.828125,226916.796875,223782.640625,218138.734375,7905.0,1.0,1
228371.625,248735.046875,322882.21875,270249.40625,219667.328125,228685.171875,226305.796875,220854.640625,7906.0,1.0,1
230781.140625,250432.984375,324121.59375,271871.0625,221125.734375,229914.25,228592.109375,223312.171875,7907.0,1.0,1
229594.71875,249744.453125,323411.6875,270927.375,220504.625,229127.125,227803.71875,222463.890625,7908.0,1.0,1
226275.484375,247507.765625,321611.125,268573.65625,218559.921875,227296.515625,224896.921875,219342.421875,7909.0,1.0,1
225256.421875,246730.453125,321148.0,267991.625,217913.515625,226912.0625,223786.84375,218142.75,7910.0,1.0,1
228352.140625,248739.875,322838.34375,270206.75,219664.109375,228673.640625,226305.25,220843.734375,7911.0,1.0,1
230771.578125,250438.875,324078.84375,271836.375,221123.578125,229904.953125,228607.125,223307.703125,7912.0,1.0,1
229601.0625,249753.84375,323379.15625,270907.71875,220510.78125,229127.125,227837.6875,222474.171875,7913.0,1.0,1
226299.625,247529.671875,321592.4375,268570.53125,218579.15625,227313.59375,224944.921875,219368.4375,7914.0,1.0,1
225248.640625,246726.078125,321105.96875,267962.125,217906.8125,226910.359375,223795.421875,218132.296875,7915.0,1.0,1
228314.671875,248704.203125,322778.15625,270154.5625,219633.96875,228659.96875,226275.75,220805.46875,7916.0,1.0,1
230769.34375,250430.125,324048.09375,271817.0625,221123.046875,229937.40625,228598.71875,223304.390625,7917.0,1.0,1
229620.203125,249760.453125,323351.15625,270899.40625,220522.328125,229170.84375,227834.375,222489.0,7918.0,1.0,1
226318.125,247535.296875,321559.90625,268556.5,218589.4375,227348.453125,224937.78125,219385.328125,7919.0,1.0,1
225243.8125,246719.375,321067.09375,267933.875,217912.703125,226934.59375,223776.5625,218138.1875,7920.0,1.0,1
228295.453125,248690.078125,322735.78125,270120.9375,219636.203125,228678.109375,226249.375,220797.15625,7921.0,1.0,1
230762.90625,250423.953125,324003.9375,271783.46875,221123.671875,229941.703125,228579.953125,223298.859375,7922.0,1.0,1
229640.40625,249775.296875,323325.34375,270884.46875,220538.859375,229186.578125,227849.3125,222511.984375,7923.0,1.0,1
226335.203125,247549.25,321529.78125,268539.59375,218601.328125,227360.96875,224959.5,219405.71875,7924.0,1.0,1
225230.84375,246718.484375,321019.4375,267898.71875,217904.21875,226930.390625,223778.34375,218129.078125,7925.0,1.0,1
228265.5,248679.984375,322676.5,270075.4375,219617.078125,228659.421875,226235.703125,220769.890625,7926.0,1.0,1
230756.5625,250428.15625,323958.5,271759.9375,221118.671875,229934.546875,228584.59375,223293.578125,7927.0,1.0,1
229655.609375,249793.546875,323295.28125,270878.21875,220547.796875,229194.0,227876.765625,222532.734375,7928.0,1.0,1
226347.71875,247565.25,321495.09375,268525.65625,218605.4375,227361.328125,224978.09375,219425.828125,7929.0,1.0,1
225222.984375,246722.6875,320982.59375,267875.375,217905.296875,226928.421875,223778.875,218135.875,7930.0,1.0,1
228239.125,248668.625,322630.375,270034.375,219604.640625,228645.65625,226216.65625,220756.484375,7931.0,1.0,1
230749.3125,250427.703125,323921.6875,271727.5625,221116.15625,229929.1875,228577.265625,223291.796875,7932.0,1.0,1
229665.609375,249804.09375,323263.375,270857.28125,220556.109375,229196.3125,227882.484375,222546.046875,7933.0,1.0,1
226359.4375,247576.25,321465.3125,268509.0,218620.28125,227362.765625,224987.578125,219447.296875,7934.0,1.0,1
225196.15625,246705.78125,320923.21875,267826.3125,217890.1875,226896.234375,223747.140625,218120.484375,7935.0,1.0,1
228200.140625,248644.65625,322565.90625,269983.78125,219583.375,228610.96875,226166.40625,220732.25,7936.0,1.0,1
230720.625,250407.765625,323864.375,271687.625,221100.15625,229897.890625,228534.078125,223282.765625,7937.0,1.0,1
229665.171875,249805.171875,323223.84375,270839.78125,220554.6875,229178.609375,227862.453125,222564.734375,7938.0,1.0,1
226377.140625,247596.546875,321437.15625,268498.90625,218627.875,227355.78125,224983.640625,219476.171875,7939.0,1.0,1
225183.015625,246701.3125,320876.125,267788.5625,217876.59375,226871.828125,223721.390625,218113.609375,7940.0,1.0,1
228183.421875,248637.78125,322527.1875,269948.5625,219574.703125,228596.046875,226154.15625,220720.984375,7941.0,1.0,1
230726.421875,250410.984375,323841.65625,271671.25,221108.921875,229906.125,228551.609375,223291.96875,7942.0,1.0,1
229683.59375,249809.015625,323199.625,270826.90625,220566.046875,229190.859375,227892.5,222581.28125,7943.0,1.0,1
226398.328125,247600.75,321414.34375,268493.90625,218644.5,227372.78125,225018.6875,219499.328125,7944.0,1.0,1
225184.984375,246696.03125,320848.03125,267778.375,217889.828125,226886.21875,223735.875,218122.734375,7945.0,1.0,1
228154.28125,248604.78125,322473.0,269910.65625,219562.453125,228591.125,226122.6875,220695.40625,7946.0,1.0,1
230706.9375,250384.15625,323790.34375,271638.71875,221096.3125,229904.421875,228516.921875,223274.171875,7947.0,1.0,1
229694.9375,249809.640625,323172.625,270818.5,220577.75,229211.609375,227884.359375,222596.65625,7948.0,1.0,1
226403.0625,247592.78125,321376.96875,268470.5625,218646.46875,227378.40625,225004.46875,219506.296875,7949.0,1.0,1
225160.75,246667.515625,320793.0625,267729.375,217870.421875,226870.3125,223703.0625,218101.09375,7950.0,1.0,1
228122.71875,248573.40625,322414.90625,269856.375,219536.25,228565.28125,226085.9375,220660.015625,7951.0,1.0,1
230690.75,250359.671875,323741.0625,271595.78125,221079.421875,229879.03125,228496.078125,223245.296875,7952.0,1.0,1
229704.59375,249804.984375,323140.625,270799.625,220580.703125,229201.328125,227892.859375,222591.203125,7953.0,1.0,1
226431.59375,247610.765625,321361.15625,268470.5625,218667.21875,227393.515625,225035.5,219523.90625,7954.0,1.0,1
225153.0625,246660.09375,320753.09375,267705.4375,217872.296875,226867.453125,223702.4375,218093.046875,7955.0,1.0,1
228079.984375,248537.1875,322354.8125,269811.40625,219518.453125,228542.3125,226055.8125,220627.015625,7956.0,1.0,1
230691.828125,250366.734375,323710.59375,271584.96875,221091.671875,229888.234375,228496.890625,223253.078125,7957.0,1.0,1
229723.90625,249824.75,323113.71875,270795.34375,220597.25,229217.6875,227901.53125,222614.171875,7958.0,1.0,1
226454.75,247627.921875,321332.53125,268465.21875,218686.171875,227406.65625,225046.21875,219549.03125,7959.0,1.0,1
225140.1875,246650.078125,320703.375,267671.28125,217869.796875,226857.15625,223690.015625,218085.4375,7960.0,1.0,1
228061.125,248522.796875,322301.53125,269768.40625,219510.0625,228535.0625,226037.84375,220602.875,7961.0,1.0,1
230687.984375,250357.78125,323656.3125,271542.9375,221082.453125,229885.921875,228487.234375,223229.828125,7962.0,1.0,1
229740.53125,249831.984375,323074.0,270769.84375,220602.078125,229226.625,227923.25,222617.21875,7963.0,1.0,1
226472.453125,247640.171875,321300.0,268445.0,218695.109375,227414.96875,225082.796875,219565.671875,7964.0,1.0,1
225143.046875,246660.546875,320669.40625,267645.25,217871.578125,226861.984375,223713.078125,218089.015625,7965.0,1.0,1
228045.5625,248525.03125,322256.375,269734.0625,219497.09375,228528.53125,226036.3125,220587.046875,7966.0,1.0,1
230677.4375,250359.9375,323620.5625,271525.0625,221079.140625,229892.0,228493.484375,223229.65625,7967.0,1.0,1
229746.625,249840.65625,323047.375,270767.78125,220613.15625,229241.640625,227941.21875,222634.375,7968.0,1.0,1
226478.609375,247643.390625,321264.15625,268431.78125,218700.03125,227419.796875,225086.453125,219574.15625,7969.0,1.0,1
225124.359375,246645.25,320617.8125,267607.34375,217860.671875,226850.1875,223685.09375,218071.859375,7970.0,1.0,1
228014.09375,248499.375,322202.5625,269686.25,219481.796875,228516.015625,225996.359375,220559.78125,7971.0,1.0,1
230658.5625,250334.71875,323571.28125,271480.09375,221066.90625,229883.140625,228463.984375,223211.765625,7972.0,1.0,1
229757.53125,249838.953125,323010.34375,270735.15625,220610.203125,229243.609375,227933.53125,222639.921875,7973.0,1.0,1
226500.15625,247652.6875,321236.0625,268414.78125,218709.6875,227432.59375,225096.921875,219597.578125,7974.0,1.0,1
225120.4375,246636.484375,320575.09375,267578.65625,217860.3125,226850.546875,223679.109375,218073.46875,7975.0,1.0,1
227997.015625,248485.0625,322154.28125,269651.1875,219476.34375,228510.203125,225978.03125,220544.9375,7976.0,1.0,1
230665.984375,250347.0625,323534.625,271462.84375,221074.671875,229888.421875,228457.546875,223211.765625,7977.0,1.0,1
229776.296875,249858.0,322983.34375,270734.4375,220632.375,229261.140625,227943.90625,222661.828125,7978.0,1.0,1
226513.9375,247665.125,321204.25,268408.53125,218726.40625,227441.890625,225102.28125,219616.71875,7979.0,1.0,1
225106.9375,246631.75,320529.3125,267549.40625,217858.984375,226842.328125,223657.734375,218066.125,7980.0,1.0,1
227955.625,248455.5625,322094.5625,269603.71875,219459.0,228489.28125,225934.65625,220515.4375,7981.0,1.0,1
230648.015625,250325.0625,323486.0,271427.78125,221070.296875,229880.015625,228430.453125,223201.21875,7982.0,1.0,1
229786.046875,249853.359375,322946.78125,270713.78125,220639.984375,229264.796875,227937.015625,222672.46875,7983.0,1.0,1
226539.234375,247671.734375,321183.21875,268401.09375,218747.6875,227456.8125,225117.65625,219645.15625,7984.0,1.0,1
225098.34375,246612.4375,320488.34375,267516.15625,217854.5,226834.28125,223646.296875,218063.984375,7985.0,1.0,1
227938.0,248433.03125,322048.34375,269563.3125,219445.6875,228471.765625,225909.984375,220497.90625,7986.0,1.0,1
230644.359375,250316.125,323455.6875,271406.875,221071.28125,229876.609375,228426.875,223203.1875,7987.0,1.0,1
229811.171875,249868.828125,322936.5,270718.875,220663.40625,229282.859375,227962.6875,222705.375,7988.0,1.0,1
226569.546875,247699.265625,321168.9375,268404.15625,218767.53125,227473.796875,225140.453125,219676.625,7989.0,1.0,1
225092.265625,246614.40625,320448.40625,267488.25,217850.21875,226827.03125,223638.328125,218058.53125,7990.0,1.0,1
227905.8125,248414.53125,321996.03125,269517.4375,219429.59375,228454.515625,225884.859375,220470.546875,7991.0,1.0,1
230631.484375,250310.3125,323412.9375,271370.5625,221061.890625,229868.390625,228414.09375,223187.1875,7992.0,1.0,1
229812.875,249870.25,322896.8125,270688.21875,220655.8125,229276.515625,227961.96875,222700.1875,7993.0,1.0,1
226574.375,247702.140625,321130.84375,268374.28125,218768.25,227469.25,225152.078125,219681.71875,7994.0,1.0,1
225088.6875,246619.421875,320415.21875,267460.4375,217857.640625,226828.28125,223651.03125,218065.234375,7995.0,1.0,1
227882.296875,248401.5625,321945.4375,269475.78125,219416.53125,228442.34375,225868.5,220452.671875,7996.0,1.0,1
230623.703125,250301.546875,323367.8125,271342.9375,221056.078125,229867.9375,228404.53125,223179.859375,7997.0,1.0,1
229825.125,249869.984375,322865.25,270679.09375,220664.921875,229290.640625,227972.25,222717.4375,7998.0,1.0,1
226596.09375,247705.4375,321102.21875,268369.71875,218776.734375,227484.078125,225161.296875,219704.15625,7999.0,1.0,1
225076.09375,246593.21875,320359.78125,267424.40625,217837.703125,226819.703125,223621.703125,218051.203125,8000.0,1.0,1
227865.40625,248379.390625,321899.65625,269442.5,219403.296875,228439.125,225842.578125,220435.6875,8001.0,1.0,1
230616.015625,250283.578125,323326.9375,271314.78125,221042.765625,229864.015625,228384.5,223165.734375,8002.0,1.0,1
229846.03125,249876.328125,322837.78125,270667.375,220667.609375,229300.65625,227975.640625,222724.6875,8003.0,1.0,1
226611.03125,247704.453125,321062.34375,268347.375,218772.09375,227485.6875,225160.9375,219707.734375,8004.0,1.0,1
225064.734375,246578.46875,320309.53125,267389.625,217824.375,226807.546875,223606.234375,218037.171875,8005.0,1.0,1
227820.96875,248338.359375,321825.4375,269381.8125,219366.828125,228405.609375,225793.671875,220393.671875,8006.0,1.0,1
230601.265625,250269.28125,323270.875,271275.34375,221028.28125,229852.46875,228356.421875,223151.609375,8007.0,1.0,1
229863.734375,249887.953125,322805.34375,270657.09375,220677.890625,229313.359375,227979.84375,222745.6875,8008.0,1.0,1
226629.984375,247716.078125,321036.5,268340.9375,218785.765625,227498.390625,225172.375,219733.84375,8009.0,1.0,1
225053.015625,246567.734375,320265.5625,267358.0,217816.0625,226798.6875,223588.171875,218033.671875,8010.0,1.0,1
227802.46875,248324.3125,321785.5625,269349.09375,219357.265625,228397.921875,225770.953125,220380.96875,8011.0,1.0,1
230592.859375,250257.5625,323241.5625,271253.90625,221026.75,229854.359375,228351.15625,223152.5,8012.0,1.0,1
229863.828125,249876.953125,322772.34375,270633.875,220677.0,229309.953125,227982.796875,222753.296875,8013.0,1.0,1
226642.140625,247717.0625,321007.46875,268323.6875,218794.359375,227499.828125,225189.640625,219753.78125,8014.0,1.0,1
225048.546875,246562.640625,320226.40625,267327.21875,217814.265625,226789.65625,223591.84375,218031.984375,8015.0,1.0,1
227773.9375,248304.015625,321728.53125,269304.8125,219337.140625,228375.46875,225755.671875,220354.140625,8016.0,1.0,1
230577.5625,250245.140625,323187.8125,271219.46875,221009.671875,229838.625,228344.890625,223134.796875,8017.0,1.0,1
229883.046875,249892.0625,322745.53125,270631.90625,220689.15625,229326.046875,228012.21875,222775.28125,8018.0,1.0,1
226667.984375,247733.6875,320987.96875,268328.59375,218813.390625,227521.90625,225225.75,219785.875,8019.0,1.0,1
225049.53125,246561.484375,320198.59375,267315.78125,217820.53125,226800.75,223605.4375,218044.578125,8020.0,1.0,1
227760.359375,248292.125,321691.5,269275.6875,219331.6875,228375.921875,225744.578125,220345.5625,8021.0,1.0,1
230570.234375,250233.0625,323148.65625,271186.40625,221001.625,229837.453125,228331.125,223126.65625,8022.0,1.0,1
229890.921875,249888.671875,322709.21875,270600.6875,220683.078125,229328.28125,228004.171875,222776.1875,8023.0,1.0,1
226683.625,247737.265625,320952.375,268299.1875,218810.890625,227527.53125,225225.046875,219794.8125,8024.0,1.0,1
225036.5625,246548.0625,320147.09375,267268.3125,217802.203125,226791.8125,223589.15625,218033.3125,8025.0,1.0,1
227719.046875,248256.1875,321628.21875,269216.125,219298.421875,228354.015625,225709.53125,220312.21875,8026.0,1.0,1
230554.765625,250215.546875,323106.375,271156.28125,220988.671875,229837.09375,228319.859375,223118.609375,8027.0,1.0,1
229911.21875,249901.546875,322691.25,270600.15625,220694.34375,229350.90625,228027.859375,222804.34375,8028.0,1.0,1
226711.15625,247758.90625,320937.1875,268303.5625,218823.046875,227549.703125,225257.578125,219830.21875,8029.0,1.0,1
225024.234375,246536.4375,320103.28125,267241.3125,217787.1875,226791.09375,223586.65625,218030.90625,8030.0,1.0,1
227700.890625,248243.578125,321585.375,269184.84375,219281.890625,228355.453125,225699.703125,220300.5,8031.0,1.0,1
230557.984375,250216.96875,323077.0625,271135.53125,220986.515625,229848.28125,228326.65625,223122.546875,8032.0,1.0,1
229915.953125,249895.28125,322657.28125,270582.09375,220693.890625,229357.875,228040.375,222812.84375,8033.0,1.0,1
226720.546875,247758.375,320904.8125,268290.5,218830.109375,227558.921875,225273.3125,219843.359375,8034.0,1.0,1
225023.34375,246535.375,320067.96875,267221.8125,217793.0,226788.671875,223588.890625,218032.515625,8035.0,1.0,1
227674.96875,248225.25,321528.59375,269141.75,219271.78125,228330.6875,225673.328125,220273.234375,8036.0,1.0,1
230541.171875,250203.5625,323016.59375,271093.25,220973.828125,229826.015625,228298.3125,223096.609375,8037.0,1.0,1
229920.96875,249897.96875,322608.28125,270552.15625,220689.78125,229347.140625,228028.21875,222806.9375,8038.0,1.0,1
226737.8125,247772.578125,320867.875,268270.5625,218839.5,227559.1875,225280.203125,219856.0625,8039.0,1.0,1
225009.5625,246528.046875,320012.1875,267179.09375,217781.8125,226774.734375,223571.640625,218019.375,8040.0,1.0,1
227633.21875,248192.890625,321455.75,269079.96875,219238.96875,228304.9375,225628.265625,220232.734375,8041.0,1.0,1
230520.171875,250182.46875,322962.6875,271056.65625,220957.203125,229818.140625,228277.65625,223080.515625,8042.0,1.0,1
229940.8125,249911.921875,322586.03125,270552.40625,220703.8125,229369.765625,228054.6875,222836.53125,8043.0,1.0,1
226762.390625,247789.9375,320845.28125,268268.96875,218851.65625,227580.46875,225313.1875,219889.046875,8044.0,1.0,1
225010.015625,246533.40625,319980.78125,267160.5,217784.765625,226783.3125,223589.515625,218029.46875,8045.0,1.0,1
227594.765625,248167.671875,321406.9375,269041.15625,219220.28125,228294.203125,225619.953125,220215.75,8046.0,1.0,1
230504.25,250174.859375,322926.125,271032.34375,220947.1875,229816.53125,228278.28125,223076.5,8047.0,1.0,1
229946.4375,249914.15625,322553.03125,270536.21875,220699.53125,229371.828125,228061.65625,222843.140625,8048.0,1.0,1
226786.0,247805.578125,320825.15625,268264.5625,218861.9375,227592.453125,225331.171875,219914.0,8049.0,1.0,1
224990.25,246509.4375,319930.0,267120.71875,217764.109375,226764.265625,223564.84375,218016.328125,8050.0,1.0,1
227577.875,248150.15625,321364.8125,269004.15625,219207.40625,228281.421875,225595.1875,220197.59375,8051.0,1.0,1
230495.484375,250157.421875,322888.03125,270998.28125,220946.203125,229812.875,228262.90625,223068.0,8052.0,1.0,1
229954.21875,249907.359375,322520.5,270508.875,220705.0625,229372.0,228058.53125,222847.96875,8053.0,1.0,1
226798.609375,247799.59375,320791.09375,268239.375,218865.515625,227589.140625,225332.328125,219922.484375,8054.0,1.0,1
224997.5,246508.015625,319897.09375,267094.5,217767.25,226762.84375,223563.234375,218017.671875,8055.0,1.0,1
227546.046875,248118.328125,321303.9375,268952.5625,219182.828125,228257.71875,225562.28125,220163.984375,8056.0,1.0,1
230493.078125,250153.5,322846.03125,270970.125,220935.03125,229807.0625,228256.203125,223053.703125,8057.0,1.0,1
229982.109375,249928.8125,322503.84375,270512.28125,220721.515625,229393.546875,228090.0,222872.5625,8058.0,1.0,1
226820.59375,247818.265625,320770.09375,268240.25,218879.734375,227606.125,225364.6875,219948.5,8059.0,1.0,1
224981.578125,246498.359375,319851.59375,267066.15625,217757.40625,226754.796875,223565.828125,218010.25,8060.0,1.0,1
227542.375,248123.515625,321275.40625,268933.0625,219187.75,228262.109375,225569.4375,220163.265625,8061.0,1.0,1
230483.421875,250142.765625,322810.0625,270945.09375,220933.859375,229805.359375,228253.703125,223050.84375,8062.0,1.0,1
229981.578125,249921.03125,322466.5,270487.5,220721.609375,229392.296875,228091.875,222874.078125,8063.0,1.0,1
226837.578125,247824.890625,320738.78125,268219.875,218888.671875,227615.25,225377.125,219961.921875,8064.0,1.0,1
224986.046875,246502.828125,319816.1875,267037.28125,217763.21875,226761.671875,223566.265625,218017.9375,8065.0,1.0,1
227512.96875,248104.46875,321218.625,268879.25,219169.5,228246.375,225538.328125,220135.90625,8066.0,1.0,1
230474.5625,250139.015625,322763.5,270905.03125,220924.5625,229794.984375,228234.484375,223032.15625,8067.0,1.0,1
229998.921875,249934.265625,322436.1875,270471.0625,220729.296875,229397.125,228097.59375,222882.125,8068.0,1.0,1
226857.4375,247835.078125,320714.65625,268214.5,218904.40625,227625.4375,225398.578125,219983.375,8069.0,1.0,1
224978.90625,246490.40625,319776.15625,267011.625,217759.640625,226748.265625,223566.453125,218011.5,8070.0,1.0,1
227492.671875,248087.296875,321170.96875,268843.5625,219153.140625,228230.546875,225520.078125,220109.703125,8071.0,1.0,1
230468.671875,250132.21875,322724.875,270880.71875,220917.859375,229797.140625,228226.34375,223019.015625,8072.0,1.0,1
230010.375,249941.59375,322403.90625,270455.75,220733.859375,229405.265625,228107.515625,222886.953125,8073.0,1.0,1
226873.609375,247850.8125,320678.25,268193.21875,218909.515625,227627.40625,225410.015625,219989.28125,8074.0,1.0,1
224972.640625,246495.3125,319729.03125,266978.28125,217755.625,226742.8125,223557.15625,217998.71875,8075.0,1.0,1
227452.171875,248062.890625,321109.90625,268796.46875,219136.0625,228210.875,225490.3125,220079.75,8076.0,1.0,1
230441.84375,250114.25,322673.65625,270847.09375,220906.59375,229784.265625,228210.609375,223004.171875,8077.0,1.0,1
230010.453125,249938.015625,322366.09375,270438.59375,220728.046875,229406.515625,228108.140625,222893.3125,8078.0,1.0,1
226901.15625,247872.1875,320664.125,268202.71875,218924.96875,227649.9375,225434.96875,220024.953125,8079.0,1.0,1
224970.046875,246495.59375,319699.59375,266966.65625,217755.890625,226746.921875,223561.984375,218012.125,8080.0,1.0,1
227428.203125,248048.859375,321064.40625,268762.5625,219118.359375,228197.734375,225471.984375,220065.359375,8081.0,1.0,1
230446.046875,250121.671875,322641.90625,270828.0625,220903.546875,229784.53125,228208.109375,223006.671875,8082.0,1.0,1
230053.1875,249972.625,322357.5,270446.65625,220757.015625,229432.890625,228137.921875,222934.609375,8083.0,1.0,1
226928.328125,247885.234375,320637.125,268190.5625,218939.1875,227659.5,225452.140625,220052.21875,8084.0,1.0,1
224962.625,246479.5,319652.125,266928.75,217747.21875,226736.375,223550.265625,218006.5,8085.0,1.0,1
227396.375,248012.28125,321002.96875,268708.9375,219092.875,228171.359375,225434.875,220030.40625,8086.0,1.0,1
230423.15625,250091.09375,322583.15625,270780.59375,220882.453125,229761.640625,228175.296875,222972.875,8087.0,1.0,1
230050.78125,249957.875,322314.3125,270420.71875,220749.421875,229426.265625,228129.96875,222919.859375,8088.0,1.0,1
226954.96875,247898.734375,320616.65625,268187.6875,218954.65625,227674.4375,225472.78125,220064.640625,8089.0,1.0,1
224987.21875,246504.078125,319635.6875,266927.75,217769.84375,226756.9375,223576.46875,218021.875,8090.0,1.0,1
227402.453125,248027.84375,320977.875,268697.65625,219106.828125,228185.125,225447.03125,220032.640625,8091.0,1.0,1
230434.34375,250106.5625,322558.5,270771.625,220894.078125,229780.953125,228188.796875,222982.0,8092.0,1.0,1
230069.90625,249975.03125,322287.40625,270413.46875,220764.96875,229443.0,228153.65625,222943.546875,8093.0,1.0,1
226969.015625,247911.078125,320579.71875,268173.65625,218960.734375,227675.5,225490.9375,220088.34375,8094.0,1.0,1
224963.53125,246485.75,319568.4375,266879.03125,217741.578125,226725.203125,223554.65625,218005.15625,8095.0,1.0,1
227357.390625,247994.765625,320899.625,268634.46875,219066.859375,228148.5625,225405.375,219994.1875,8096.0,1.0,1
230407.421875,250083.21875,322496.71875,270723.8125,220867.4375,229754.84375,228162.953125,222957.59375,8097.0,1.0,1
230084.3125,249986.21875,322255.125,270396.75,220763.8125,229443.703125,228160.0,222953.828125,8098.0,1.0,1
226972.046875,247907.140625,320535.46875,268147.09375,218950.015625,227670.765625,225486.46875,220091.296875,8099.0,1.0,1
224945.1875,246465.8125,319515.6875,266837.0,217723.609375,226708.03125,223528.265625,217988.078125,8100.0,1.0,1
227320.46875,247962.578125,320840.34375,268581.4375,219038.96875,228115.921875,225359.15625,219955.296875,8101.0,1.0,1
230386.859375,250065.15625,322451.75,270692.6875,220854.921875,229739.015625,228135.59375,222941.3125,8102.0,1.0,1
230073.3125,249966.546875,322208.71875,270370.65625,220753.890625,229430.125,228140.515625,222950.34375,8103.0,1.0,1
226991.359375,247910.453125,320508.65625,268137.71875,218958.328125,227672.375,225489.859375,220109.265625,8104.0,1.0,1
224958.34375,246470.546875,319490.21875,266825.125,217730.59375,226710.265625,223528.90625,218001.3125,8105.0,1.0,1
227310.015625,247948.265625,320803.6875,268550.78125,219029.21875,228107.96875,225341.171875,219948.5,8106.0,1.0,1
230391.515625,250059.4375,322419.8125,270662.90625,220850.984375,229736.875,228124.5,222937.109375,8107.0,1.0,1
230102.8125,249985.046875,322190.84375,270357.59375,220763.8125,229441.828125,228154.1875,222964.390625,8108.0,1.0,1
227023.8125,247937.8125,320496.125,268135.03125,218977.09375,227692.671875,225524.46875,220140.015625,8109.0,1.0,1
224950.375,246467.25,319448.8125,266791.40625,217726.125,226710.0,223537.21875,217999.078125,8110.0,1.0,1
227277.828125,247929.9375,320748.09375,268502.84375,219013.40625,228098.125,225326.15625,219918.90625,8111.0,1.0,1
230362.8125,250039.953125,322361.96875,270620.28125,220829.96875,229726.234375,228108.5,222909.578125,8112.0,1.0,1
230107.90625,249990.234375,322154.8125,270344.1875,220767.125,229451.75,228169.03125,222973.140625,8113.0,1.0,1
227036.609375,247943.625,320464.65625,268126.34375,218988.640625,227706.265625,225543.953125,220158.703125,8114.0,1.0,1
224938.21875,246452.40625,319404.75,266763.6875,217720.3125,226707.671875,223529.796875,217994.421875,8115.0,1.0,1
227259.5,247912.0625,320707.3125,268469.125,219003.125,228094.640625,225309.0,219907.921875,8116.0,1.0,1
230361.65625,250035.65625,322333.1875,270596.65625,220833.546875,229734.28125,228101.984375,222909.578125,8117.0,1.0,1
230117.296875,249989.609375,322122.1875,270323.625,220769.796875,229460.34375,228166.796875,222977.703125,8118.0,1.0,1
227060.5625,247954.796875,320435.96875,268114.71875,218993.28125,227717.4375,225554.953125,220174.171875,8119.0,1.0,1
224964.859375,246478.421875,319383.09375,266757.875,217733.8125,226723.328125,223545.265625,218011.5,8120.0,1.0,1
227239.109375,247904.46875,320651.78125,268436.25,218991.046875,228082.484375,225284.40625,219883.328125,8121.0,1.0,1
230333.21875,250012.234375,322265.5,270560.8125,220811.828125,229715.5,228063.984375,222880.515625,8122.0,1.0,1
230120.421875,249987.015625,322078.625,270307.15625,220770.515625,229465.34375,228150.609375,222982.796875,8123.0,1.0,1
227083.28125,247970.359375,320401.625,268104.53125,219004.734375,227735.046875,225542.4375,220192.765625,8124.0,1.0,1
224954.578125,246468.3125,319335.53125,266727.59375,217726.921875,226729.3125,223509.046875,218007.75,8125.0,1.0,1
227206.03125,247873.171875,320600.21875,268387.875,218969.859375,228080.703125,225233.359375,219859.71875,8126.0,1.0,1
230330.625,250003.015625,322238.21875,270529.34375,220807.53125,229729.28125,228046.90625,222876.859375,8127.0,1.0,1
230145.1875,250000.15625,322065.9375,270295.0,220776.953125,229487.78125,228172.609375,222997.46875,8128.0,1.0,1
227107.234375,247981.265625,320390.90625,268097.84375,219016.078125,227751.6875,225592.234375,220214.40625,8129.0,1.0,1
224951.71875,246459.28125,319303.09375,266698.25,217719.5,226719.828125,223542.125,218001.9375,8130.0,1.0,1
227195.296875,247867.53125,320564.96875,268360.78125,218960.734375,228070.59375,225259.015625,219842.921875,8131.0,1.0,1
230329.46875,250007.765625,322209.53125,270519.6875,220809.234375,229736.78125,228076.671875,222873.09375,8132.0,1.0,1
230158.78125,250017.140625,322042.96875,270297.96875,220791.4375,229516.75,228201.3125,223014.453125,8133.0,1.0,1
227130.65625,248011.125,320370.4375,268100.96875,219035.578125,227798.4375,225608.328125,220243.546875,8134.0,1.0,1
224943.3125,246469.84375,319265.4375,266676.1875,217722.453125,226757.203125,223520.765625,218009.359375,8135.0,1.0,1
227156.3125,247853.328125,320508.5625,268309.09375,218945.453125,228089.375,225200.09375,219822.625,8136.0,1.0,1
230311.140625,250003.46875,322163.84375,270474.0,220808.25,229766.28125,228029.734375,222867.5625,8137.0,1.0,1
230166.65625,250022.421875,322008.625,270267.125,220805.828125,229552.34375,228183.25,223030.71875,8138.0,1.0,1
227164.453125,248034.8125,320354.5,268088.71875,219066.5,227832.140625,225626.921875,220281.015625,8139.0,1.0,1
224959.140625,246481.1875,319234.96875,266651.0625,217740.78125,226767.21875,223538.828125,218022.234375,8140.0,1.0,1
227142.546875,247845.359375,320459.125,268269.84375,218943.484375,228080.875,225210.640625,219802.859375,8141.0,1.0,1
230306.390625,250006.859375,322116.0,270449.6875,220804.578125,229753.0625,228058.53125,222850.921875,8142.0,1.0,1
230184.4375,250050.59375,321973.125,270265.78125,220815.21875,229543.9375,228250.03125,223041.453125,8143.0,1.0,1
227182.609375,248064.59375,320314.0,268085.84375,219075.359375,227818.46875,225706.671875,220296.65625,8144.0,1.0,1
224957.53125,246500.40625,319185.78125,266630.65625,217738.015625,226737.359375,223602.75,218023.671875,8145.0,1.0,1
227123.953125,247858.421875,320402.34375,268232.21875,218927.21875,228034.03125,225248.015625,219785.96875,8146.0,1.0,1
230300.671875,250028.953125,322067.1875,270412.59375,220795.453125,229713.359375,228092.765625,222842.078125,8147.0,1.0,1
230205.1875,250086.703125,321941.5,270243.15625,220824.25,229522.125,228295.625,223057.453125,8148.0,1.0,1
227207.453125,248096.421875,320284.34375,268066.625,219090.921875,227805.5,225750.125,220324.109375,8149.0,1.0,1
224971.125,246525.890625,319152.4375,266602.59375,217750.171875,226731.71875,223629.125,218038.953125,8150.0,1.0,1
227102.046875,247855.734375,320348.625,268178.5625,218920.0625,228023.390625,225240.15625,219771.921875,8151.0,1.0,1
230274.828125,250013.296875,322008.71875,270356.53125,220782.3125,229702.1875,228079.265625,222825.890625,8152.0,1.0,1
230223.96875,250107.53125,321909.125,270219.5625,220838.640625,229538.921875,228318.703125,223075.78125,8153.0,1.0,1
227244.75,248137.8125,320258.40625,268056.34375,219110.5,227831.078125,225786.875,220354.234375,8154.0,1.0,1
224982.125,246550.296875,319112.5625,266579.96875,217752.3125,226743.265625,223648.25,218048.078125,8155.0,1.0,1
227103.484375,247874.6875,320312.84375,268158.625,218920.0625,228031.875,225254.640625,219766.46875,8156.0,1.0,1
230299.0625,250048.4375,321989.0625,270355.53125,220794.390625,229723.109375,228111.09375,222830.09375,8157.0,1.0,1
230253.828125,250138.734375,321892.9375,270223.5625,220853.65625,229563.6875,228361.34375,223089.109375,8158.0,1.0,1
227279.609375,248167.5,320249.1875,268063.0625,219132.40625,227858.796875,225838.109375,220378.203125,8159.0,1.0,1
224997.046875,246568.0,319090.3125,266566.65625,217765.546875,226748.265625,223678.125,218054.875,8160.0,1.0,1
227084.796875,247867.265625,320264.5625,268117.78125,218911.5625,228010.953125,225246.046875,219745.28125,8161.0,1.0,1
230276.984375,250029.21875,321935.78125,270312.0,220782.40625,229716.125,228091.875,222811.5,8162.0,1.0,1
230255.34375,250136.328125,321852.8125,270197.09375,220857.515625,229573.4375,228354.546875,223097.25,8163.0,1.0,1
227306.515625,248193.421875,320225.6875,268058.125,219157.875,227879.4375,225849.015625,220412.796875,8164.0,1.0,1
224993.828125,246571.84375,319045.5,266540.4375,217771.984375,226755.421875,223661.578125,218061.75,8165.0,1.0,1
227050.640625,247846.078125,320204.21875,268070.375,218897.625,228011.046875,225203.9375,219720.875,8166.0,1.0,1
230274.203125,250040.390625,321902.15625,270292.59375,220792.421875,229727.75,228082.484375,222812.125,8167.0,1.0,1
230279.21875,250167.796875,321832.6875,270196.5625,220876.375,229591.3125,228372.515625,223114.9375,8168.0,1.0,1
227339.25,248228.65625,320210.46875,268061.71875,219180.765625,227908.765625,225883.078125,220437.921875,8169.0,1.0,1
224989.359375,246575.515625,319004.375,266515.15625,217769.75,226758.1875,223671.5,218056.65625,8170.0,1.0,1
227024.359375,247832.671875,320156.46875,268032.5625,218886.4375,228000.328125,225200.0,219695.84375,8171.0,1.0,1
230267.328125,250039.40625,321867.28125,270267.5625,220792.859375,229729.0,228087.140625,222795.671875,8172.0,1.0,1
230290.75,250174.5,321806.125,270182.96875,220887.1875,229605.359375,228389.328125,223118.34375,8173.0,1.0,1
227348.453125,248228.5625,320177.40625,268041.6875,219184.078125,227915.03125,225894.25,220443.109375,8174.0,1.0,1
224988.109375,246568.71875,318972.46875,266487.53125,217768.40625,226760.328125,223666.140625,218054.59375,8175.0,1.0,1
227001.828125,247815.765625,320116.78125,267993.6875,218876.875,227997.1875,225169.25,219676.171875,8176.0,1.0,1
230240.0625,250016.96875,321817.40625,270223.46875,220775.4375,229722.5625,228045.828125,222774.21875,8177.0,1.0,1
230297.09375,250178.4375,321772.96875,270162.6875,220894.4375,229623.421875,228377.0,223127.640625,8178.0,1.0,1
227371.171875,248247.78125,320153.78125,268031.40625,219204.8125,227942.03125,225899.4375,220469.75,8179.0,1.0,1
224992.40625,246584.09375,318936.53125,266462.03125,217776.0,226773.296875,223658.359375,218063.265625,8180.0,1.0,1
226974.015625,247807.359375,320056.0625,267943.59375,218858.71875,227985.65625,225133.578125,219649.53125,8181.0,1.0,1
230222.0,250012.953125,321766.78125,270184.875,220766.671875,229717.734375,228025.171875,222756.609375,8182.0,1.0,1
230303.53125,250189.171875,321744.78125,270149.46875,220903.546875,229632.0,228386.65625,223137.390625,8183.0,1.0,1
227393.25,248266.65625,320133.21875,268031.75,219222.875,227954.984375,225929.296875,220494.6875,8184.0,1.0,1
224992.140625,246584.09375,318901.5625,266446.5,217781.015625,226771.78125,223673.015625,218066.484375,8185.0,1.0,1
226959.0,247801.828125,320018.78125,267921.0,218856.9375,227979.21875,225135.546875,219638.09375,8186.0,1.0,1
230221.90625,250017.234375,321736.65625,270172.78125,220770.25,229719.4375,228034.109375,222754.1875,8187.0,1.0,1
230319.71875,250205.265625,321715.375,270138.71875,220910.4375,229635.84375,228401.046875,223146.328125,8188.0,1.0,1
227405.671875,248276.84375,320098.375,268015.21875,219226.1875,227951.234375,225938.78125,220504.96875,8189.0,1.0,1
224983.1875,246578.90625,318858.90625,266418.40625,217776.90625,226756.671875,223666.59375,218064.25,8190.0,1.0,1
226922.875,247779.65625,319963.4375,267873.96875,218840.21875,227947.75,225102.46875,219609.5625,8191.0,1.0,1
230201.15625,250005.703125,321688.90625,270135.15625,220763.453125,229696.640625,228005.59375,222732.8125,8192.0,1.0,1
230318.828125,250205.625,321676.03125,270116.03125,220913.5625,229618.046875,228385.9375,223143.109375,8193.0,1.0,1
227430.171875,248303.9375,320076.5625,268013.625,219249.609375,227949.71875,225943.875,220529.390625,8194.0,1.0,1
224999.46875,246602.96875,318832.09375,266407.25,217795.3125,226752.640625,223659.515625,218080.171875,8195.0,1.0,1
226903.203125,247766.953125,319911.6875,267833.53125,218830.296875,227921.109375,225059.546875,219588.828125,8196.0,1.0,1
230174.34375,249979.328125,321631.78125,270087.75,220744.3125,229660.34375,227957.5,222707.515625,8197.0,1.0,1
230325.703125,250203.390625,321638.125,270086.5,220915.53125,229603.65625,228371.890625,223149.015625,8198.0,1.0,1
227449.75,248307.953125,320048.28125,267987.9375,219258.28125,227942.5625,225951.109375,220545.921875,8199.0,1.0,1
224995.703125,246593.390625,318796.78125,266370.125,217795.40625,226733.875,223661.9375,218081.515625,8200.0,1.0,1
226880.40625,247751.578125,319874.03125,267792.0625,218827.25,227901.796875,225055.609375,219578.984375,8201.0,1.0,1
230163.515625,249970.484375,321597.71875,270054.59375,220744.671875,229650.5,227955.265625,222699.921875,8202.0,1.0,1
230331.25,250202.3125,321616.3125,270076.21875,220927.78125,229610.453125,228379.578125,223159.015625,8203.0,1.0,1
227466.03125,248315.203125,320029.875,267985.34375,219275.1875,227957.9375,225956.921875,220565.59375,8204.0,1.0,1
224989.625,246584.546875,318757.96875,266344.21875,217793.4375,226737.71875,223632.4375,218076.953125,8205.0,1.0,1
226854.75,247726.984375,319823.53125,267749.15625,218812.40625,227902.875,225001.96875,219556.640625,8206.0,1.0,1
230157.890625,249962.078125,321564.1875,270025.09375,220742.703125,229665.171875,227921.375,222696.703125,8207.0,1.0,1
230342.0625,250203.296875,321588.78125,270052.09375,220928.40625,229625.109375,228366.359375,223171.09375,8208.0,1.0,1
227477.015625,248311.265625,319997.875,267962.28125,219277.6875,227967.328125,225961.65625,220584.90625,8209.0,1.0,1
224984.0,246567.109375,318714.96875,266308.8125,217785.65625,226724.84375,223632.4375,218076.953125,8210.0,1.0,1
226819.96875,247692.75,319762.375,267695.6875,218784.25,227856.46875,224978.984375,219519.890625,8211.0,1.0,1
230124.0,249925.953125,321508.9375,269983.25,220720.359375,229625.109375,227909.21875,222666.296875,8212.0,1.0,1
230341.890625,250192.65625,321555.78125,270040.46875,220932.609375,229610.265625,228386.015625,223178.515625,8213.0,1.0,1
227491.78125,248314.578125,319967.125,267955.9375,219286.09375,227955.53125,225980.96875,220603.5,8214.0,1.0,1
224981.140625,246562.734375,318680.71875,266295.5625,217789.78125,226717.15625,223637.34375,218091.703125,8215.0,1.0,1
226794.9375,247674.6875,319716.40625,267664.21875,218774.59375,227848.859375,224957.171875,219515.0625,8216.0,1.0,1
230106.390625,249912.09375,321458.59375,269947.21875,220707.75,229618.40625,227876.3125,222657.71875,8217.0,1.0,1
230342.875,250188.984375,321515.46875,270017.21875,220932.609375,229618.59375,228370.5625,223188.53125,8218.0,1.0,1
227512.0625,248326.8125,319942.78125,267945.9375,219301.5625,227982.171875,225991.4375,220630.421875,8219.0,1.0,1
224981.765625,246565.59375,318639.40625,266261.875,217791.203125,226720.8125,223632.25,218089.734375,8220.0,1.0,1
226771.875,247662.53125,319662.0625,267612.0,218759.390625,227833.9375,224933.296875,219486.90625,8221.0,1.0,1
230095.484375,249910.03125,321418.09375,269912.34375,220703.734375,229616.625,227874.703125,222646.984375,8222.0,1.0,1
230351.375,250199.890625,321481.84375,269994.96875,220934.578125,229618.765625,228389.15625,223192.109375,8223.0,1.0,1
227540.234375,248354.171875,319920.1875,267939.9375,219314.515625,227983.875,226025.40625,220654.109375,8224.0,1.0,1
224992.046875,246579.0,318610.71875,266250.9375,217796.03125,226720.1875,223655.328125,218103.859375,8225.0,1.0,1
226756.140625,247656.09375,319622.0,267589.28125,218752.875,227826.96875,224935.8125,219476.4375,8226.0,1.0,1
230079.5625,249897.34375,321371.15625,269883.75,220687.8125,229597.84375,227863.703125,222624.546875,8227.0,1.0,1
230367.640625,250211.25,321456.09375,269988.96875,220939.5,229621.625,228398.8125,223200.953125,8228.0,1.0,1
227551.765625,248354.453125,319887.09375,267926.25,219316.3125,227986.46875,226033.453125,220667.25,8229.0,1.0,1
224988.46875,246565.953125,318567.4375,266217.78125,217786.734375,226710.0,223644.234375,218101.984375,8230.0,1.0,1
226721.4375,247622.921875,319559.5,267530.90625,218724.4375,227796.734375,224893.78125,219448.1875,8231.0,1.0,1
230051.40625,249866.40625,321311.34375,269833.5,220665.734375,229578.171875,227826.78125,222604.703125,8232.0,1.0,1
230359.234375,250192.296875,321408.34375,269959.09375,220935.203125,229620.015625,228386.5625,223205.78125,8233.0,1.0,1
227567.859375,248360.890625,319860.71875,267922.0625,219332.765625,228002.015625,226047.3125,220700.0625,8234.0,1.0,1
224981.859375,246560.578125,318525.34375,266199.90625,217786.375,226710.53125,223637.96875,218114.765625,8235.0,1.0,1
226693.546875,247603.15625,319506.9375,267502.03125,218711.203125,227788.78125,224867.59375,219437.1875,8236.0,1.0,1
230040.234375,249862.5625,321272.0,269814.90625,220661.171875,229583.359375,227809.703125,222600.9375,8237.0,1.0,1
230380.875,250214.203125,321388.96875,269958.40625,220944.859375,229643.265625,228394.25,223222.953125,8238.0,1.0,1
227597.8125,248386.546875,319843.375,267922.15625,219343.3125,228027.6875,226065.015625,220720.71875,8239.0,1.0,1
224985.875,246566.390625,318494.75,266182.28125,217785.03125,226722.703125,223641.90625,218118.34375,8240.0,1.0,1
226667.53125,247583.671875,319465.09375,267465.71875,218698.234375,227789.765625,224854.09375,219420.375,8241.0,1.0,1
230014.484375,249836.015625,321225.78125,269777.4375,220645.96875,229578.359375,227794.859375,222581.90625,8242.0,1.0,1
230373.1875,250197.21875,321349.96875,269934.78125,220944.140625,229644.25,228395.59375,223222.40625,8243.0,1.0,1
227611.578125,248387.53125,319817.1875,267913.84375,219360.5625,228040.46875,226084.953125,220743.421875,8244.0,1.0,1
224987.84375,246559.15625,318457.21875,266156.8125,217791.46875,226720.90625,223646.015625,218123.625,8245.0,1.0,1
226642.671875,247560.953125,319411.0,267419.40625,218685.359375,227770.1875,224827.984375,219394.546875,8246.0,1.0,1
230001.078125,249822.953125,321184.21875,269743.1875,220645.53125,229574.6875,227776.984375,222564.28125,8247.0,1.0,1
230376.84375,250192.390625,321312.15625,269908.3125,220945.03125,229645.3125,228386.921875,223216.25,8248.0,1.0,1
227622.3125,248383.6875,319780.625,267889.78125,219364.328125,228046.015625,226084.234375,220745.296875,8249.0,1.0,1
224986.953125,246548.875,318417.15625,266125.34375,217792.640625,226719.5625,223639.140625,218116.734375,8250.0,1.0,1
226631.59375,247547.015625,319371.65625,267383.75,218681.796875,227758.828125,224815.109375,219376.03125,8251.0,1.0,1
229989.09375,249805.703125,321143.1875,269708.15625,220637.125,229559.9375,227768.3125,222547.84375,8252.0,1.0,1
230384.625,250188.984375,321281.9375,269890.875,220948.796875,229646.84375,228399.796875,223223.578125,8253.0,1.0,1
227642.96875,248393.15625,319756.28125,267884.0625,219374.609375,228052.359375,226109.625,220767.203125,8254.0,1.0,1
224986.140625,246546.734375,318382.1875,266111.75,217791.46875,226717.59375,223649.15625,218124.78125,8255.0,1.0,1
226587.875,247512.40625,319309.25,267343.9375,218655.140625,227738.1875,224785.515625,219350.015625,8256.0,1.0,1
229965.75,249786.828125,321093.1875,269682.125,220621.296875,229550.8125,227740.5,222531.390625,8257.0,1.0,1
230401.171875,250201.5,321259.9375,269891.4375,220960.6875,229660.875,228401.9375,223239.671875,8258.0,1.0,1
227655.484375,248396.109375,319731.25,267878.78125,219386.046875,228061.46875,226117.671875,220787.5,8259.0,1.0,1
224978.28125,246533.765625,318342.78125,266085.71875,217790.9375,226713.578125,223640.75,218126.578125,8260.0,1.0,1
226564.359375,247492.734375,319264.71875,267303.90625,218648.0,227731.65625,224764.6875,219332.21875,8261.0,1.0,1
229953.328125,249777.8125,321057.4375,269650.5625,220622.453125,229556.265625,227730.046875,222520.828125,8262.0,1.0,1
230397.59375,250194.890625,321220.40625,269864.96875,220961.671875,229665.609375,228400.5,223237.703125,8263.0,1.0,1
227680.953125,248415.6875,319705.78125,267871.46875,219401.15625,228079.53125,226136.453125,220806.71875,8264.0,1.0,1
224994.734375,246549.3125,318314.6875,266073.03125,217800.140625,226728.859375,223650.046875,218136.234375,8265.0,1.0,1
226533.0625,247469.046875,319204.21875,267252.59375,218618.84375,227711.625,224727.484375,219297.265625,8266.0,1.0,1
229921.234375,249749.828125,320999.75,269602.65625,220596.625,229537.9375,227698.65625,222492.3125,8267.0,1.0,1
230407.96875,250197.65625,321194.5,269850.03125,220966.5,229676.078125,228405.78125,223249.765625,8268.0,1.0,1
227706.4375,248427.765625,319687.09375,267864.9375,219416.171875,228096.078125,226151.109375,220831.3125,8269.0,1.0,1
224991.421875,246538.859375,318275.71875,266044.25,217798.1875,226723.046875,223641.375,218135.875,8270.0,1.0,1
226509.109375,247446.609375,319157.71875,267214.75,218609.640625,227693.75,224702.453125,219277.78125,8271.0,1.0,1
229908.171875,249739.0,320954.96875,269569.375,220585.984375,229523.90625,227671.921875,222474.515625,8272.0,1.0,1
230405.1875,250195.25,321156.75,269828.125,220966.5,229672.140625,228397.015625,223252.90625,8273.0,1.0,1
227707.875,248425.703125,319650.96875,267848.125,219418.328125,228092.40625,226155.3125,220846.78125,8274.0,1.0,1
224998.578125,246548.515625,318245.75,266028.59375,217803.015625,226722.515625,223646.109375,218152.953125,8275.0,1.0,1
226490.6875,247441.25,319113.90625,267179.1875,218599.625,227685.875,224683.6875,219270.09375,8276.0,1.0,1
229886.890625,249722.015625,320912.25,269537.5625,220576.234375,229520.515625,227656.8125,222466.828125,8277.0,1.0,1
230408.765625,250188.359375,321123.40625,269812.21875,220965.25,229681.171875,228400.859375,223260.953125,8278.0,1.0,1
227732.8125,248435.71875,319628.8125,267844.0,219428.609375,228114.578125,226177.21875,220872.703125,8279.0,1.0,1
225003.9375,246546.8125,318213.3125,266012.15625,217804.4375,226737.8125,223660.5,218166.71875,8280.0,1.0,1
226464.578125,247416.390625,319063.3125,267143.25,218581.5625,227684.984375,224675.1875,219254.796875,8281.0,1.0,1
229862.484375,249696.984375,320859.125,269498.75,220554.859375,229516.9375,227646.984375,222446.890625,8282.0,1.0,1
230405.1875,250176.203125,321074.78125,269781.375,220949.59375,229683.765625,228402.03125,223253.171875,8283.0,1.0,1
227754.1875,248444.65625,319596.4375,267831.9375,219427.625,228129.15625,226196.984375,220885.765625,8284.0,1.0,1
225002.328125,246538.5,318169.59375,265986.125,217793.53125,226734.40625,223660.78125,218162.25,8285.0,1.0,1
226429.796875,247382.953125,319004.03125,267097.1875,218553.765625,227662.625,224644.25,219221.359375,8286.0,1.0,1
229843.984375,249673.5625,320811.375,269465.3125,220537.15625,229502.890625,227621.953125,222424.28125,8287.0,1.0,1
230419.765625,250177.640625,321048.125,269773.59375,220954.609375,229686.359375,228404.171875,223263.265625,8288.0,1.0,1
227775.640625,248450.734375,319573.1875,267830.0625,219443.0,228138.90625,226213.4375,220912.9375,8289.0,1.0,1
225013.0625,246541.625,318141.59375,265973.15625,217801.21875,226738.25,223668.546875,218178.15625,8290.0,1.0,1
226413.890625,247369.546875,318962.4375,267063.75,218542.9375,227650.65625,224625.921875,219206.078125,8291.0,1.0,1
229832.984375,249663.546875,320771.96875,269436.0625,220527.234375,229490.46875,227601.203125,222408.265625,8292.0,1.0,1
230425.84375,250176.203125,321018.53125,269760.0,220956.75,229686.359375,228403.1875,223268.28125,8293.0,1.0,1
227794.15625,248458.515625,319545.375,267822.625,219447.65625,228140.59375,226223.171875,220924.921875,8294.0,1.0,1
225010.46875,246533.3125,318097.71875,265949.90625,217793.0,226725.015625,223661.9375,218172.171875,8295.0,1.0,1
226389.390625,247347.453125,318911.9375,267029.5,218527.734375,227633.75,224607.59375,219185.78125,8296.0,1.0,1
229800.4375,249629.5625,320715.625,269395.5625,220504.96875,229473.03125,227578.3125,222380.46875,8297.0,1.0,1
230424.5,250169.765625,320982.0625,269738.625,220951.828125,229685.546875,228403.546875,223264.4375,8298.0,1.0,1
227817.484375,248474.515625,319528.5625,267819.34375,219464.546875,228156.25,226245.796875,220950.578125,8299.0,1.0,1
225024.328125,246547.0,318081.25,265941.15625,217809.265625,226740.84375,223679.8125,218196.75,8300.0,1.0,1
226372.671875,247342.984375,318873.125,266995.90625,218519.25,227628.5625,224591.5,219177.109375,8301.0,1.0,1
229802.5,249641.015625,320689.0,269377.5,220508.828125,229482.515625,227575.90625,222385.828125,8302.0,1.0,1
230433.359375,250175.125,320949.875,269723.59375,220953.078125,229695.390625,228407.921875,223275.875,8303.0,1.0,1
227837.59375,248484.71875,319497.0,267807.25,219467.046875,228170.46875,226260.8125,220967.84375,8304.0,1.0,1
225029.78125,246544.9375,318037.96875,265916.5625,217802.828125,226744.421875,223680.890625,218194.875,8305.0,1.0,1
226347.453125,247315.1875,318814.46875,266950.75,218497.796875,227617.296875,224567.1875,219147.0625,8306.0,1.0,1
229779.25,249615.0,320634.4375,269335.9375,220490.5,229475.890625,227551.59375,222355.96875,8307.0,1.0,1
230451.234375,250184.78125,320928.78125,269719.75,220971.140625,229717.734375,228423.9375,223289.5625,8308.0,1.0,1
227851.09375,248487.75,319465.375,267797.5,219475.28125,228178.0625,226269.046875,220980.265625,8309.0,1.0,1
225017.171875,246530.28125,317989.625,265884.46875,217789.859375,226727.4375,223664.984375,218183.34375,8310.0,1.0,1
226315.453125,247293.546875,318762.0,266910.25,218477.40625,227591.109375,224532.140625,219117.5625,8311.0,1.0,1
229759.5,249603.1875,320587.15625,269303.3125,220475.46875,229458.109375,227520.921875,222334.953125,8312.0,1.0,1
230444.625,250176.734375,320881.9375,269689.71875,220953.359375,229704.953125,228397.640625,223277.9375,8313.0,1.0,1
227865.671875,248494.8125,319436.75,267787.59375,219478.21875,228184.859375,226269.3125,220995.375,8314.0,1.0,1
225028.515625,246535.640625,317962.875,265875.4375,217796.390625,226738.078125,223669.09375,218201.859375,8315.0,1.0,1
226290.234375,247271.375,318710.15625,266872.0625,218457.5625,227580.734375,224507.375,219101.109375,8316.0,1.0,1
229737.40625,249581.640625,320543.78125,269272.1875,220460.71875,229455.0625,227506.265625,222321.640625,8317.0,1.0,1
230448.828125,250175.9375,320856.28125,269679.96875,220961.046875,229721.3125,228417.671875,223290.09375,8318.0,1.0,1
227886.15625,248509.484375,319420.46875,267789.46875,219498.515625,228213.5625,226312.40625,221025.140625,8319.0,1.0,1
225017.53125,246525.984375,317919.875,265852.90625,217792.8125,226744.0625,223686.171875,218200.515625,8320.0,1.0,1
226269.765625,247257.875,318669.90625,266845.6875,218453.71875,227584.21875,224516.40625,219089.03125,8321.0,1.0,1
229716.75,249565.109375,320495.0625,269234.8125,220444.890625,229445.40625,227503.125,222298.484375,8322.0,1.0,1
230463.75,250188.453125,320826.6875,269665.3125,220966.234375,229730.703125,228434.296875,223296.53125,8323.0,1.0,1
227909.3125,248522.171875,319388.90625,267773.90625,219505.046875,228220.984375,226329.03125,221039.1875,8324.0,1.0,1
225034.78125,246534.65625,317887.96875,265827.34375,217797.546875,226748.53125,223692.609375,218210.34375,8325.0,1.0,1
226254.109375,247241.859375,318619.03125,266797.5,218439.859375,227573.40625,224492.265625,219071.609375,8326.0,1.0,1
229705.046875,249550.4375,320449.28125,269195.5625,220439.53125,229441.03125,227479.609375,222286.859375,8327.0,1.0,1
230472.515625,250187.203125,320793.59375,269641.25,220970.96875,229734.546875,228425.90625,223303.421875,8328.0,1.0,1
227931.296875,248532.359375,319365.40625,267759.25,219514.796875,228223.03125,226331.359375,221055.984375,8329.0,1.0,1
225049.359375,246548.515625,317866.78125,265813.9375,217809.796875,226745.859375,223697.078125,218224.828125,8330.0,1.0,1
226219.25,247222.734375,318569.3125,266753.40625,218423.765625,227542.203125,224461.953125,219046.390625,8331.0,1.0,1
229674.28125,249535.609375,320401.1875,269154.1875,220421.375,229412.6875,227450.640625,222259.046875,8332.0,1.0,1
230469.203125,250189.703125,320759.0,269620.4375,220965.953125,229722.203125,228420.890625,223298.046875,8333.0,1.0,1
227949.890625,248551.765625,319341.96875,267756.75,219525.25,228228.578125,226351.03125,221075.21875,8334.0,1.0,1
225053.015625,246550.296875,317826.875,265793.90625,217805.59375,226737.984375,223699.9375,218228.046875,8335.0,1.0,1
226227.015625,247229.96875,318535.1875,266731.4375,218421.609375,227542.296875,224456.5,219040.484375,8336.0,1.0,1
229665.96875,249521.296875,320359.34375,269125.125,220412.890625,229406.96875,227437.0625,222246.453125,8337.0,1.0,1
230469.46875,250177.984375,320721.875,269601.3125,220967.84375,229721.40625,228418.390625,223300.46875,8338.0,1.0,1
227974.03125,248562.40625,319321.59375,267753.25,219546.890625,228245.5625,226369.1875,221101.40625,8339.0,1.0,1
225057.84375,246550.390625,317793.8125,265773.78125,217813.015625,226742.90625,223702.4375,218235.5625,8340.0,1.0,1
226186.96875,247196.359375,318472.40625,266677.25,218394.96875,227514.484375,224423.5,219005.890625,8341.0,1.0,1
229654.078125,249514.6875,320314.625,269089.8125,220400.8125,229396.328125,227421.765625,222226.859375,8342.0,1.0,1
230483.953125,250187.921875,320692.21875,269582.0625,220967.203125,229726.59375,228425.8125,223303.328125,8343.0,1.0,1
227972.25,248550.78125,319279.3125,267724.28125,219532.765625,228236.265625,226372.125,221099.4375,8344.0,1.0,1
225048.640625,246536.984375,317751.25,265745.4375,217799.609375,226733.78125,223702.609375,218230.46875,8345.0,1.0,1
226163.359375,247181.96875,318428.6875,266644.53125,218379.0625,227509.5625,224410.71875,218990.59375,8346.0,1.0,1
229630.84375,249501.53125,320272.09375,269056.1875,220384.1875,229391.765625,227405.40625,222212.03125,8347.0,1.0,1
230488.15625,250195.0625,320660.90625,269563.9375,220962.734375,229732.046875,228426.609375,223306.984375,8348.0,1.0,1
228013.46875,248587.890625,319268.5625,267730.46875,219554.765625,228264.34375,226397.515625,221133.953125,8349.0,1.0,1
225070.90625,246554.140625,317724.34375,265733.09375,217807.296875,226744.0625,223708.25,218246.5625,8350.0,1.0,1
226147.625,247163.453125,318372.28125,266599.8125,218359.296875,227484.71875,224375.578125,218962.4375,8351.0,1.0,1
229621.09375,249486.15625,320223.90625,269021.6875,220371.140625,229376.5625,227373.671875,222188.328125,8352.0,1.0,1
230503.625,250198.734375,320638.125,269561.25,220976.859375,229743.40625,228430.375,223322.640625,8353.0,1.0,1
228035.015625,248596.03125,319244.96875,267728.75,219566.65625,228275.25,226413.703125,221157.203125,8354.0,1.0,1
225090.65625,246570.78125,317702.0,265725.0625,217818.828125,226760.0625,223724.078125,218266.9375,8355.0,1.0,1
226132.15625,247158.265625,318338.5625,266576.46875,218355.71875,227492.40625,224370.671875,218960.296875,8356.0,1.0,1
229608.125,249484.46875,320191.96875,269002.28125,220367.921875,229385.765625,227370.453125,222185.375,8357.0,1.0,1
230508.453125,250207.140625,320602.0,269541.75,220972.671875,229752.4375,228432.515625,223320.84375,8358.0,1.0,1
228063.0,248623.296875,319225.3125,267727.40625,219580.78125,228297.421875,226437.046875,221175.4375,8359.0,1.0,1
225095.75,246579.546875,317671.40625,265711.65625,217824.5625,226766.140625,223734.625,218271.328125,8360.0,1.0,1
226125.90625,247163.015625,318302.96875,266552.4375,218357.78125,227496.609375,224368.515625,218951.703125,8361.0,1.0,1
229600.4375,249479.8125,320145.3125,268968.75,220362.46875,229383.984375,227357.3125,222169.828125,8362.0,1.0,1
230515.96875,250208.484375,320566.3125,269519.40625,220976.59375,229762.359375,228435.203125,223328.453125,8363.0,1.0,1
228077.21875,248625.796875,319193.3125,267713.90625,219590.34375,228316.640625,226452.15625,221200.921875,8364.0,1.0,1
225115.0625,246592.328125,317638.0625,265697.6875,217834.921875,226786.4375,223747.234375,218295.015625,8365.0,1.0,1
226091.296875,247129.65625,318230.84375,266496.71875,218329.078125,227475.40625,224332.75,218924.0,8366.0,1.0,1
229562.265625,249439.21875,320076.375,268917.96875,220334.203125,229361.359375,227323.15625,222140.046875,8367.0,1.0,1
230508.09375,250189.25,320511.59375,269490.0,220962.921875,229749.84375,228420.625,223316.921875,8368.0,1.0,1
228087.3125,248617.84375,319144.03125,267688.625,219581.578125,228302.0625,226444.90625,221199.9375,8369.0,1.0,1
225106.03125,246565.0625,317585.5,265665.15625,217821.78125,226765.15625,223730.515625,218286.4375,8370.0,1.0,1
226069.046875,247102.484375,318182.09375,266461.78125,218314.5,227457.625,224302.890625,218902.984375,8371.0,1.0,1
229547.859375,249423.21875,320033.46875,268888.1875,220322.859375,229352.0625,227290.96875,222120.46875,8372.0,1.0,1
230526.15625,250199.09375,320490.3125,269481.6875,220973.296875,229762.4375,228415.265625,223329.34375,8373.0,1.0,1
228130.859375,248650.109375,319146.34375,267705.25,219617.34375,228336.046875,226472.625,221244.375,8374.0,1.0,1
225137.0625,246590.359375,317577.09375,265665.25,217845.125,226782.78125,223747.5,218315.578125,8375.0,1.0,1
226064.03125,247103.828125,318148.21875,266430.9375,218311.828125,227445.8125,224291.546875,218896.453125,8376.0,1.0,1
229530.875,249411.234375,319993.21875,268854.5625,220315.171875,229335.25,227280.78125,222108.21875,8377.0,1.0,1
230527.5,250197.03125,320463.875,269471.03125,220979.28125,229762.171875,228431.359375,223339.171875,8378.0,1.0,1
228141.3125,248655.75,319116.84375,267696.9375,219619.484375,228334.4375,226494.625,221259.75,8379.0,1.0,1
225133.75,246589.828125,317539.28125,265648.78125,217838.328125,226774.1875,223762.78125,218320.765625,8380.0,1.0,1
226034.984375,247087.546875,318103.6875,266402.21875,218297.078125,227433.921875,224289.3125,218884.65625,8381.0,1.0,1
229513.4375,249405.875,319955.75,268827.84375,220304.078125,229333.640625,227279.796875,222098.65625,8382.0,1.0,1
230529.28125,250201.0625,320435.96875,269452.71875,220978.390625,229774.25,228445.390625,223348.203125,8383.0,1.0,1
228149.546875,248660.3125,319089.9375,267680.84375,219620.921875,228348.921875,226515.546875,221276.5625,8384.0,1.0,1
225131.34375,246589.28125,317503.59375,265620.8125,217832.15625,226778.9375,223772.09375,218327.734375,8385.0,1.0,1
226005.5625,247068.234375,318054.53125,266360.65625,218276.328125,227423.46875,224277.6875,218867.484375,8386.0,1.0,1
229482.328125,249382.71875,319904.71875,268788.0625,220280.5625,229317.015625,227257.265625,222075.859375,8387.0,1.0,1
230523.03125,250194.796875,320389.75,269428.84375,220967.203125,229761.453125,228426.4375,223338.109375,8388.0,1.0,1
228165.359375,248669.0625,319053.90625,267675.28125,219632.0,228351.0625,226508.03125,221288.1875,8389.0,1.0,1
225135.359375,246586.78125,317464.0,265611.0625,217843.15625,226779.203125,223751.609375,218337.484375,8390.0,1.0,1
225992.515625,247056.53125,318005.78125,266332.21875,218272.75,227412.734375,224227.609375,218855.6875,8391.0,1.0,1
229464.265625,249364.5625,319852.6875,268750.25,220269.390625,229307.0,227200.046875,222057.265625,8392.0,1.0,1
230531.515625,250193.90625,320362.28125,269411.5,220974.453125,229779.609375,228408.375,223351.0625,8393.0,1.0,1
228198.265625,248688.5625,319044.625,267670.8125,219650.875,228385.125,226526.71875,221322.875,8394.0,1.0,1
225144.84375,246588.03125,317434.03125,265578.78125,217835.109375,226788.671875,223761.625,218340.515625,8395.0,1.0,1
225969.984375,247031.21875,317963.3125,266283.84375,218250.21875,227412.734375,224233.96875,218830.109375,8396.0,1.0,1
229459.984375,249355.09375,319825.125,268723.9375,220259.828125,229319.875,227234.1875,222040.984375,8397.0,1.0,1
230539.03125,250197.75,320335.75,269394.59375,220965.25,229791.234375,228455.3125,223345.4375,8398.0,1.0,1
228213.203125,248699.296875,319021.8125,267663.3125,219646.40625,228401.84375,226582.953125,221332.609375,8399.0,1.0,1
225163.078125,246605.28125,317421.0625,265585.5,217846.1875,226822.296875,223819.5625,218364.65625,8400.0,1.0,1
225957.1875,247030.6875,317925.78125,266265.15625,218241.453125,227422.65625,224242.359375,218824.296875,8401.0,1.0,1
229447.375,249356.78125,319785.4375,268700.96875,220253.921875,229325.15625,227216.125,222031.328125,8402.0,1.0,1
230551.375,250211.703125,320311.15625,269390.03125,220981.421875,229809.109375,228442.171875,223358.40625,8403.0,1.0,1
228235.640625,248715.828125,318997.5,267659.03125,219667.859375,228415.4375,226566.046875,221354.703125,8404.0,1.0,1
225176.765625,246619.234375,317386.75,265561.8125,217858.0,226818.0,223786.84375,218374.40625,8405.0,1.0,1
225935.109375,247018.703125,317871.5,266212.0625,218229.296875,227395.578125,224184.96875,218799.984375,8406.0,1.0,1
229415.8125,249336.671875,319731.0,268643.5625,220239.171875,229300.828125,227171.421875,222005.578125,8407.0,1.0,1
230549.140625,250217.328125,320276.65625,269354.96875,220985.8125,229801.78125,228445.03125,223358.84375,8408.0,1.0,1
228265.0625,248756.421875,318985.59375,267655.28125,219696.734375,228432.0625,226620.6875,221385.1875,8409.0,1.0,1
225189.90625,246647.9375,317360.46875,265552.5,217877.3125,226818.625,223846.46875,218389.421875,8410.0,1.0,1
225915.171875,247022.375,317826.53125,266185.25,218231.625,227379.65625,224233.34375,218785.765625,8411.0,1.0,1
229390.59375,249333.359375,319672.6875,268610.40625,220227.71875,229272.3125,227213.453125,221978.046875,8412.0,1.0,1
230552.71875,250235.5625,320226.84375,269335.5,220982.40625,229783.359375,228501.0,223349.546875,8413.0,1.0,1
228292.234375,248790.03125,318949.40625,267645.4375,219707.640625,228429.5625,226692.203125,221399.3125,8414.0,1.0,1
225217.625,246686.46875,317329.96875,265537.21875,217891.4375,226825.875,223913.625,218406.5,8415.0,1.0,1
225916.25,247046.15625,317783.71875,266149.84375,218232.96875,227378.765625,224266.328125,218777.09375,8416.0,1.0,1
229399.71875,249363.3125,319640.59375,268580.71875,220237.65625,229280.984375,227243.3125,221975.09375,8417.0,1.0,1
230577.03125,250271.6875,320204.9375,269320.65625,221006.109375,229805.09375,228542.484375,223368.5,8418.0,1.0,1
228317.171875,248818.296875,318923.03125,267631.5625,219728.75,228445.484375,226729.484375,221424.53125,8419.0,1.0,1
225225.390625,246695.859375,317293.84375,265511.03125,217902.078125,226829.359375,223933.640625,218421.53125,8420.0,1.0,1
225897.828125,247040.515625,317734.34375,266102.90625,218222.78125,227364.09375,224256.578125,218762.34375,8421.0,1.0,1
229387.921875,249364.75,319601.09375,268548.90625,220235.234375,229280.625,227238.84375,221966.328125,8422.0,1.0,1
230584.0,250280.359375,320175.78125,269303.75,221012.09375,229816.09375,228555.984375,223376.734375,8423.0,1.0,1
228357.5,248857.09375,318916.21875,267640.15625,219754.9375,228473.28125,226778.9375,221460.921875,8424.0,1.0,1
225248.015625,246721.96875,317269.96875,265507.53125,217913.515625,226837.859375,223974.859375,218440.125,8425.0,1.0,1
225884.140625,247037.75,317685.53125,266074.8125,218214.375,227344.875,224269.1875,218749.203125,8426.0,1.0,1
229369.953125,249358.578125,319546.28125,268511.59375,220220.9375,229253.984375,227241.171875,221941.125,8427.0,1.0,1
230600.1875,250299.578125,320141.625,269290.15625,221019.0625,229813.578125,228582.0,223376.546875,8428.0,1.0,1
228384.859375,248882.03125,318889.40625,267637.3125,219774.515625,228483.65625,226814.421875,221478.625,8429.0,1.0,1
225271.796875,246750.84375,317244.125,265501.1875,217935.421875,226849.5625,223997.84375,218457.734375,8430.0,1.0,1
225877.0,247049.1875,317642.625,266047.09375,218217.046875,227340.59375,224254.4375,218739.90625,8431.0,1.0,1
229357.34375,249363.140625,319499.78125,268481.3125,220222.0,229245.21875,227214.34375,221928.78125,8432.0,1.0,1
230613.0625,250326.40625,320112.40625,269280.78125,221040.96875,229820.46875,228575.65625,223392.640625,8433.0,1.0,1
228402.921875,248912.4375,318856.6875,267629.4375,219798.03125,228488.296875,226812.453125,221501.6875,8434.0,1.0,1
225273.046875,246767.46875,317201.3125,265480.1875,217950.625,226842.328125,223986.484375,218468.734375,8435.0,1.0,1
225862.875,247058.671875,317600.96875,266016.0,218230.015625,227332.8125,224239.140625,218736.421875,8436.0,1.0,1
229327.921875,249351.15625,319447.21875,268435.15625,220214.84375,229223.3125,227188.953125,221905.53125,8437.0,1.0,1
230607.78125,250326.046875,320072.53125,269250.375,221041.234375,229809.734375,228571.984375,223385.84375,8438.0,1.0,1
228417.21875,248924.59375,318834.875,267616.1875,219809.75,228491.875,226833.65625,221518.140625,8439.0,1.0,1
225283.953125,246777.21875,317177.875,265463.375,217957.0625,226845.1875,224006.0625,218479.28125,8440.0,1.0,1
225843.203125,247044.015625,317559.375,265979.25,218216.609375,227320.828125,224229.671875,218717.015625,8441.0,1.0,1
229315.765625,249340.609375,319410.5625,268406.09375,220210.375,229224.03125,227180.734375,221894.0,8442.0,1.0,1
230602.15625,250311.75,320035.0625,269225.53125,221040.53125,229809.375,228568.953125,223386.828125,8443.0,1.0,1
228436.359375,248929.6875,318808.125,267603.5,219823.515625,228501.09375,226848.578125,221538.703125,8444.0,1.0,1
225310.609375,246795.546875,317156.875,265451.5625,217973.15625,226857.15625,224021.265625,218502.265625,8445.0,1.0,1
225829.34375,247034.53125,317515.84375,265939.1875,218204.53125,227308.9375,224205.703125,218704.40625,8446.0,1.0,1
229296.8125,249331.3125,319369.34375,268367.65625,220197.421875,229217.234375,227149.34375,221875.578125,8447.0,1.0,1
230609.3125,250323.09375,320012.0,269209.4375,221046.515625,229828.0625,228561.796875,223395.5,8448.0,1.0,1
228458.4375,248952.21875,318790.53125,267597.78125,219836.65625,228527.109375,226853.9375,221562.84375,8449.0,1.0,1
225312.65625,246804.3125,317121.46875,265430.8125,217974.140625,226864.671875,224012.234375,218507.453125,8450.0,1.0,1
225803.40625,247028.8125,317468.90625,265906.125,218197.03125,227305.625,224184.34375,218685.546875,8451.0,1.0,1
229270.4375,249321.5625,319325.34375,268337.8125,220188.5625,229209.28125,227133.609375,221853.953125,8452.0,1.0,1
230618.515625,250339.453125,319992.875,269208.71875,221058.046875,229839.78125,228579.140625,223402.484375,8453.0,1.0,1
228483.484375,248977.078125,318772.625,267600.71875,219850.703125,228539.71875,226878.625,221577.859375,8454.0,1.0,1
225326.25,246814.765625,317092.15625,265420.8125,217977.890625,226865.390625,224020.453125,218513.078125,8455.0,1.0,1
225780.796875,247011.375,317420.34375,265874.09375,218181.46875,227286.5,224159.484375,218662.75,8456.0,1.0,1
229241.375,249295.90625,319270.375,268301.15625,220166.65625,229185.046875,227094.546875,221821.40625,8457.0,1.0,1
230612.34375,250327.75,319944.3125,269179.75,221042.578125,229821.09375,228547.40625,223382.265625,8458.0,1.0,1
228503.859375,248987.8125,318746.09375,267597.15625,219859.71875,228543.015625,226874.0625,221591.71875,8459.0,1.0,1
225342.96875,246828.71875,317071.65625,265418.3125,217990.859375,226870.578125,224021.703125,218534.53125,8460.0,1.0,1
225771.859375,247005.03125,317386.28125,265847.28125,218173.6875,227272.90625,224133.296875,218657.65625,8461.0,1.0,1
229236.1875,249292.953125,319241.84375,268281.46875,220165.40625,229178.890625,227067.265625,221823.734375,8462.0,1.0,1
230624.78125,250333.828125,319922.21875,269183.5,221051.703125,229821.1875,228520.765625,223408.296875,8463.0,1.0,1
228537.296875,249004.796875,318736.53125,267621.125,219880.296875,228550.890625,226850.8125,221637.578125,8464.0,1.0,1
225366.296875,246833.359375,317056.65625,265432.34375,218008.734375,226874.234375,223991.84375,218571.90625,8465.0,1.0,1
225751.203125,246976.0625,317339.625,265820.28125,218159.203125,227246.984375,224063.109375,218648.4375,8466.0,1.0,1
229214.296875,249263.359375,319195.09375,268246.0625,220146.359375,229153.9375,226998.34375,221806.296875,8467.0,1.0,1
230630.9375,250328.90625,319892.625,269154.28125,221050.359375,229815.8125,228494.203125,223407.75,8468.0,1.0,1
228555.984375,249015.796875,318714.4375,267596.25,219890.921875,228558.21875,226866.8125,221651.0,8469.0,1.0,1
225359.0625,246824.78125,317014.1875,265391.84375,218000.234375,226867.359375,223997.484375,218562.78125,8470.0,1.0,1
225740.015625,246973.640625,317302.59375,265791.84375,218158.578125,227249.921875,224072.40625,218636.453125,8471.0,1.0,1
229205.171875,249265.6875,319158.34375,268225.15625,220148.0625,229161.984375,227007.375,221789.671875,8472.0,1.0,1
230627.1875,250325.953125,319856.96875,269140.21875,221052.5,229831.5625,228506.71875,223400.515625,8473.0,1.0,1
228567.078125,249019.09375,318686.09375,267588.40625,219900.765625,228581.828125,226880.859375,221658.234375,8474.0,1.0,1
225380.875,246842.484375,316997.1875,265392.03125,218021.703125,226899.359375,224011.703125,218582.09375,8475.0,1.0,1
225721.515625,246961.75,317265.40625,265759.9375,218153.125,227257.890625,224045.5,218623.140625,8476.0,1.0,1
229180.578125,249247.078125,319119.96875,268183.125,220135.8125,229163.78125,226969.90625,221771.875,8477.0,1.0,1
230624.859375,250322.203125,319830.78125,269111.0,221052.953125,229838.96875,228489.640625,223402.65625,8478.0,1.0,1
228564.296875,249006.3125,318653.71875,267557.8125,219898.4375,228582.625,226875.140625,221667.0,8479.0,1.0,1
225373.453125,246825.9375,316960.28125,265354.1875,218015.890625,226893.46875,224010.0,218587.015625,8480.0,1.0,1
225694.609375,246934.84375,317217.75,265707.28125,218140.15625,227239.734375,224031.71875,218606.15625,8481.0,1.0,1
229155.375,249219.640625,319074.125,268135.75,220125.0,229145.71875,226957.125,221751.75,8482.0,1.0,1
230632.375,250321.046875,319804.40625,269093.46875,221064.9375,229841.75,228506.28125,223414.71875,8483.0,1.0,1
228582.625,249017.125,318628.15625,267547.1875,219910.6875,228584.59375,226896.6875,221685.859375,8484.0,1.0,1
225381.5,246832.375,316931.75,265338.65625,218022.328125,226889.0,224024.484375,218598.28125,8485.0,1.0,1
225669.125,246919.546875,317172.78125,265672.9375,218122.09375,227219.53125,224019.203125,218587.203125,8486.0,1.0,1
229126.9375,249205.78125,319026.90625,268102.46875,220102.109375,229126.046875,226941.203125,221724.9375,8487.0,1.0,1
230613.421875,250309.59375,319759.96875,269063.875,221043.03125,229826.09375,228498.046875,223392.375,8488.0,1.0,1
228604.09375,249038.140625,318613.3125,267548.4375,219922.046875,228599.703125,226930.484375,221704.546875,8489.0,1.0,1
225392.765625,246844.453125,316903.84375,265326.84375,218024.203125,226891.671875,224048.171875,218605.875,8490.0,1.0,1
225651.953125,246915.796875,317125.59375,265635.5625,218107.796875,227200.9375,224015.984375,218563.6875,8491.0,1.0,1
229109.140625,249199.078125,318981.125,268064.3125,220089.859375,229108.609375,226935.390625,221700.890625,8492.0,1.0,1
230617.984375,250313.53125,319726.96875,269043.65625,221044.28125,229822.875,228509.578125,223390.234375,8493.0,1.0,1
228622.6875,249049.234375,318586.3125,267535.5625,219928.65625,228602.03125,226946.75,221715.015625,8494.0,1.0,1
225418.34375,246862.609375,316884.8125,265317.375,218038.953125,226902.140625,224064.71875,218623.578125,8495.0,1.0,1
225646.234375,246908.828125,317094.03125,265606.5,218108.0625,227202.09375,224003.46875,218555.640625,8496.0,1.0,1
229088.40625,249171.09375,318938.75,268023.625,220076.09375,229101.375,226901.0625,221672.90625,8497.0,1.0,1
230641.21875,250319.96875,319710.96875,269033.9375,221057.515625,229840.9375,228504.125,223397.109375,8498.0,1.0,1
228667.296875,249074.703125,318583.8125,267544.9375,219958.4375,228636.546875,226967.40625,221749.96875,8499.0,1.0,1
225435.140625,246865.90625,316860.65625,265307.71875,218050.125,226915.015625,224068.65625,218638.875,8500.0,1.0,1
225617.171875,246878.0625,317037.15625,265565.03125,218084.546875,227180.546875,223965.65625,218528.8125,8501.0,1.0,1
229058.359375,249146.765625,318884.84375,267989.03125,220057.046875,229082.859375,226865.65625,221650.09375,8502.0,1.0,1
230613.78125,250295.921875,319652.3125,269000.21875,221037.125,229823.0625,228471.578125,223377.171875,8503.0,1.0,1
228659.078125,249064.0625,318539.46875,267527.5,219956.640625,228632.78125,226956.3125,221752.203125,8504.0,1.0,1
225431.5625,246863.3125,316820.0,265291.34375,218054.15625,226914.203125,224059.703125,218645.40625,8505.0,1.0,1
225590.890625,246866.359375,316985.65625,265532.84375,218077.671875,227175.359375,223932.921875,218515.046875,8506.0,1.0,1
229032.078125,249134.4375,318832.90625,267954.78125,220047.65625,229084.015625,226829.171875,221634.28125,8507.0,1.0,1
230613.78125,250299.578125,319614.40625,268980.1875,221040.078125,229835.9375,228459.6875,223384.953125,8508.0,1.0,1
228674.09375,249076.40625,318506.46875,267512.3125,219962.453125,228645.65625,226956.859375,221771.96875,8509.0,1.0,1
225437.734375,246869.578125,316782.71875,265267.84375,218051.921875,226921.171875,224060.515625,218658.453125,8510.0,1.0,1
225573.09375,246852.3125,316942.21875,265497.34375,218067.390625,227170.890625,223924.796875,218510.03125,8511.0,1.0,1
229006.953125,249109.125,318787.84375,267914.1875,220033.4375,229072.578125,226813.4375,221617.109375,8512.0,1.0,1
230624.6875,250301.640625,319595.1875,268965.34375,221049.90625,229844.96875,228471.578125,223396.390625,8513.0,1.0,1
228706.28125,249095.8125,318497.96875,267512.5,219984.453125,228669.171875,226991.359375,221803.4375,8514.0,1.0,1
225457.671875,246879.046875,316766.53125,265259.96875,218067.734375,226936.015625,224086.53125,218684.203125,8515.0,1.0,1
225556.46875,246834.96875,316906.90625,265462.375,218060.765625,227163.296875,223918.359375,218502.4375,8516.0,1.0,1
228986.21875,249089.1875,318752.25,267876.09375,220023.96875,229062.125,226799.9375,221601.109375,8517.0,1.0,1
230624.953125,250291.1875,319569.96875,268945.21875,221051.703125,229847.921875,228475.078125,223398.359375,8518.0,1.0,1
228714.59375,249086.875,318470.71875,267493.625,219985.34375,228668.8125,226997.890625,221811.921875,8519.0,1.0,1
225470.1875,246874.84375,316740.15625,265237.625,218068.375,226933.25,224094.125,218689.65625,8520.0,1.0,1
225546.09375,246819.234375,316868.28125,265421.0,218049.859375,227149.078125,223905.21875,218484.828125,8521.0,1.0,1
228976.90625,249080.078125,318717.84375,267842.5625,220017.078125,229054.78125,226788.671875,221586.796875,8522.0,1.0,1
230623.171875,250289.125,319537.59375,268919.75,221048.125,229845.6875,228474.09375,223394.515625,8523.0,1.0,1
228726.65625,249095.625,318444.5,267480.46875,219992.140625,228673.375,227012.28125,221823.546875,8524.0,1.0,1
225482.625,246886.46875,316716.90625,265233.9375,218087.328125,226945.765625,224115.40625,218712.8125,8525.0,1.0,1
225522.40625,246802.96875,316825.09375,265397.5625,218048.15625,227147.015625,223896.453125,218478.03125,8526.0,1.0,1
228934.09375,249044.21875,318660.0,267800.09375,219996.875,229035.203125,226758.375,221558.546875,8527.0,1.0,1
230617.625,250284.46875,319504.0,268902.21875,221050.984375,229848.1875,228472.21875,223398.1875,8528.0,1.0,1
228742.75,249108.5,318425.125,267477.625,220006.984375,228689.109375,227029.265625,221847.875,8529.0,1.0,1
225482.703125,246885.484375,316682.40625,265209.625,218084.109375,226945.3125,224113.171875,218715.3125,8530.0,1.0,1
225498.625,246788.296875,316774.65625,265352.15625,218029.203125,227127.796875,223871.15625,218452.453125,8531.0,1.0,1
228921.484375,249037.96875,318620.375,267769.625,219987.84375,229029.578125,226744.59375,221541.203125,8532.0,1.0,1
230620.296875,250278.65625,319475.8125,268890.6875,221056.4375,229856.859375,228478.203125,223401.859375,8533.0,1.0,1
228772.265625,249118.609375,318410.375,267482.28125,220027.546875,228711.375,227054.9375,221876.484375,8534.0,1.0,1
225507.75,246891.03125,316661.90625,265208.65625,218098.140625,226958.734375,224131.5,218739.1875,8535.0,1.0,1
225488.703125,246767.109375,316735.0625,265326.125,218020.453125,227119.125,223854.515625,218441.015625,8536.0,1.0,1
228909.953125,249017.125,318575.5,267736.625,219972.375,229015.453125,226713.578125,221517.59375,8537.0,1.0,1
230639.25,250281.96875,319448.1875,268876.21875,221058.765625,229858.015625,228467.828125,223399.96875,8538.0,1.0,1
228799.265625,249125.765625,318387.65625,267478.5,220037.5625,228714.6875,227056.90625,221887.46875,8539.0,1.0,1
225527.40625,246897.015625,316637.40625,265201.6875,218107.96875,226959.984375,224132.578125,218749.296875,8540.0,1.0,1
225472.15625,246750.578125,316694.28125,265294.84375,218013.03125,227107.6875,223835.46875,218428.953125,8541.0,1.0,1
228890.90625,249001.3125,318542.25,267705.0625,219965.859375,229009.640625,226695.609375,221506.421875,8542.0,1.0,1
230634.15625,250275.71875,319414.3125,268847.78125,221047.765625,229854.265625,228453.078125,223395.59375,8543.0,1.0,1
228805.4375,249130.671875,318358.0625,267456.0625,220030.40625,228720.859375,227057.078125,221897.046875,8544.0,1.0,1
225547.265625,246915.984375,316624.625,265197.03125,218120.046875,226981.796875,224156.0,218779.25,8545.0,1.0,1
225464.46875,246750.75,316663.53125,265271.78125,218008.015625,227111.265625,223834.9375,218430.734375,8546.0,1.0,1
228855.859375,248975.734375,318486.8125,267662.78125,219940.1875,228995.6875,226672.53125,221479.6875,8547.0,1.0,1
230621.109375,250266.0625,319372.125,268821.40625,221037.578125,229855.0625,228449.0625,223383.4375,8548.0,1.0,1
228819.828125,249140.6875,318329.0,267447.40625,220041.3125,228738.015625,227077.734375,221908.390625,8549.0,1.0,1
225549.234375,246913.75,316574.5625,265165.65625,218112.09375,226978.046875,224154.5625,218772.890625,8550.0,1.0,1
225446.328125,246738.6875,316605.15625,265225.90625,217988.34375,227096.140625,223813.75,218404.359375,8551.0,1.0,1
228845.484375,248971.09375,318443.4375,267632.75,219934.828125,228996.21875,226661.984375,221466.375,8552.0,1.0,1
230632.640625,250273.296875,319338.3125,268807.375,221048.03125,229869.640625,228458.53125,223396.21875,8553.0,1.0,1
228840.65625,249153.75,318300.5625,267437.5625,220056.875,228751.703125,227094.09375,221933.796875,8554.0,1.0,1
225561.390625,246922.6875,316548.5625,265153.84375,218126.921875,226990.828125,224168.96875,218795.34375,8555.0,1.0,1
225422.8125,246721.609375,316555.53125,265189.6875,217980.84375,227088.640625,223796.046875,218393.453125,8556.0,1.0,1
228810.265625,248942.828125,318379.96875,267579.53125,219909.171875,228973.15625,226620.6875,221433.640625,8557.0,1.0,1
230613.78125,250251.390625,319286.0,268767.03125,221024.78125,229850.515625,228427.328125,223376.28125,8558.0,1.0,1
228854.6875,249160.71875,318274.0,267426.46875,220057.046875,228755.8125,227097.125,221948.453125,8559.0,1.0,1
225574.4375,246931.171875,316522.4375,265141.78125,218128.984375,226995.296875,224174.953125,218811.421875,8560.0,1.0,1
225406.265625,246709.453125,316520.28125,265162.875,217970.5625,227083.546875,223785.234375,218391.125,8561.0,1.0,1
228794.4375,248932.375,318345.09375,267550.65625,219896.5625,228966.71875,226608.078125,221425.25,8562.0,1.0,1
230614.484375,250251.578125,319260.8125,268749.625,221025.0625,229856.765625,228435.203125,223383.96875,8563.0,1.0,1
228863.28125,249163.3125,318252.8125,267417.90625,220063.390625,228771.546875,227122.171875,221969.734375,8564.0,1.0,1
225576.140625,246928.3125,316493.125,265125.3125,218127.015625,227005.84375,224195.96875,218824.65625,8565.0,1.0,1
225395.265625,246704.53125,316480.96875,265131.40625,217955.71875,227079.96875,223784.953125,218378.96875,8566.0,1.0,1
228770.03125,248915.03125,318301.28125,267516.0625,219879.75,228959.21875,226599.3125,221404.953125,8567.0,1.0,1
230608.859375,250245.046875,319228.875,268731.90625,221022.203125,229858.90625,228442.53125,223383.875,8568.0,1.0,1
228873.828125,249167.6875,318223.9375,267408.3125,220066.703125,228773.515625,227134.859375,221982.15625,8569.0,1.0,1
225592.0625,246943.0625,316471.46875,265124.15625,218141.0625,227010.859375,224213.75,218847.546875,8570.0,1.0,1
225373.359375,246690.40625,316434.09375,265104.5,217950.078125,227065.578125,223769.046875,218369.9375,8571.0,1.0,1
228740.703125,248893.75,318252.03125,267485.46875,219871.796875,228945.078125,226573.921875,221389.84375,8572.0,1.0,1
230612.609375,250251.03125,319197.84375,268720.65625,221033.375,229866.515625,228439.125,223393.09375,8573.0,1.0,1
228900.296875,249188.96875,318208.5625,267408.59375,220092.0,228797.734375,227155.6875,222011.484375,8574.0,1.0,1
225605.375,246947.984375,316439.03125,265101.1875,218145.96875,227016.125,224217.875,218859.34375,8575.0,1.0,1
225356.828125,246675.5625,316386.1875,265057.625,217936.140625,227051.171875,223746.515625,218353.125,8576.0,1.0,1
228715.84375,248872.921875,318198.1875,267435.6875,219850.34375,228926.40625,226542.546875,221361.765625,8577.0,1.0,1
230597.421875,250232.796875,319145.03125,268675.9375,221012.09375,229850.0625,228413.203125,223371.8125,8578.0,1.0,1
228902.34375,249182.265625,318160.03125,267376.59375,220077.96875,228786.03125,227140.5,222005.140625,8579.0,1.0,1
225609.3125,246944.234375,316395.5,265081.6875,218142.046875,227009.609375,224213.21875,218861.765625,8580.0,1.0,1
225353.421875,246672.4375,316343.90625,265033.6875,217931.390625,227046.4375,223737.21875,218344.8125,8581.0,1.0,1
228716.46875,248876.3125,318159.125,267410.84375,219846.84375,228926.671875,226530.375,221349.25,8582.0,1.0,1
230618.96875,250249.609375,319121.875,268671.5625,221022.015625,229866.609375,228420.796875,223381.921875,8583.0,1.0,1
228925.328125,249190.578125,318135.0625,267369.0,220086.28125,228799.4375,227151.9375,222022.84375,8584.0,1.0,1
225609.046875,246928.046875,316344.96875,265043.6875,218123.703125,226999.5,224196.140625,218853.0,8585.0,1.0,1
225330.71875,246641.859375,316287.75,264985.125,217902.15625,227029.890625,223700.921875,218319.0625,8586.0,1.0,1
228688.046875,248839.21875,318103.4375,267361.84375,219812.96875,228909.765625,226488.8125,221317.59375,8587.0,1.0,1
230615.75,250230.828125,319078.5,268635.875,221002.703125,229863.46875,228398.71875,223367.875,8588.0,1.0,1
228952.234375,249202.65625,318118.34375,267366.75,220097.109375,228826.078125,227167.5,222046.4375,8589.0,1.0,1
225650.796875,246962.734375,316351.21875,265063.8125,218158.484375,227049.296875,224241.296875,218903.515625,8590.0,1.0,1
225319.453125,246637.5625,316259.59375,264963.3125,217903.234375,227045.546875,223707.265625,218323.890625,8591.0,1.0,1
228655.046875,248820.171875,318059.0,267321.0625,219800.0,228908.609375,226478.078125,221299.53125,8592.0,1.0,1
230592.59375,250215.09375,319038.4375,268607.1875,220995.015625,229868.65625,228404.796875,223361.53125,8593.0,1.0,1
228952.421875,249203.09375,318090.28125,267351.71875,220103.359375,228840.390625,227199.765625,222059.9375,8594.0,1.0,1
225655.09375,246967.390625,316318.25,265041.71875,218158.9375,227051.984375,224271.0625,218909.328125,8595.0,1.0,1
225292.984375,246620.21875,316212.1875,264925.59375,217890.09375,227033.203125,223714.515625,218306.375,8596.0,1.0,1
228630.015625,248804.15625,318015.53125,267291.125,219791.421875,228898.6875,226479.59375,221282.546875,8597.0,1.0,1
230591.0625,250211.34375,319000.90625,268589.75,220997.15625,229862.3125,228405.953125,223359.921875,8598.0,1.0,1
228962.703125,249203.546875,318049.96875,267335.0,220104.875,228832.875,227194.046875,222067.0,8599.0,1.0,1
225673.328125,246975.96875,316286.3125,265032.34375,218173.59375,227060.203125,224267.3125,218930.96875,8600.0,1.0,1
225285.125,246611.375,316160.4375,264890.625,217886.515625,227020.515625,223671.0625,218298.234375,8601.0,1.0,1
228605.421875,248779.84375,317955.0,267238.625,219771.84375,228872.84375,226416.296875,221256.625,8602.0,1.0,1
230592.9375,250208.125,318964.25,268561.5,221000.5625,229861.859375,228376.640625,223365.734375,8603.0,1.0,1
228987.203125,249220.4375,318031.625,267326.53125,220124.1875,228848.609375,227195.65625,222095.796875,8604.0,1.0,1
225682.265625,246980.53125,316256.90625,265011.25,218180.578125,227052.515625,224265.078125,218945.984375,8605.0,1.0,1
225264.5625,246594.015625,316114.125,264851.71875,217869.53125,226989.3125,223655.59375,218283.21875,8606.0,1.0,1
228578.515625,248755.796875,317906.0,267200.375,219748.859375,228844.0625,226400.46875,221230.78125,8607.0,1.0,1
230575.25,250184.96875,318919.25,268530.75,220979.015625,229839.953125,228371.453125,223345.53125,8608.0,1.0,1
228999.890625,249222.953125,318005.25,267319.53125,220124.28125,228849.78125,227218.71875,222102.5,8609.0,1.0,1
225691.203125,246977.9375,316223.8125,264996.9375,218173.0625,227039.46875,224277.59375,218944.640625,8610.0,1.0,1
225257.84375,246585.0,316078.96875,264828.5625,217863.359375,226976.703125,223652.109375,218275.25,8611.0,1.0,1
228554.734375,248732.8125,317858.90625,267162.90625,219735.359375,228820.71875,226376.515625,221209.859375,8612.0,1.0,1
230583.109375,250188.265625,318890.46875,268514.90625,220985.265625,229834.78125,228370.734375,223350.796875,8613.0,1.0,1
229014.28125,249228.484375,317979.15625,267305.59375,220132.953125,228838.15625,227223.46875,222118.234375,8614.0,1.0,1
225708.1875,246989.5625,316201.03125,264982.53125,218188.890625,227039.015625,224287.15625,218965.65625,8615.0,1.0,1
225244.53125,246576.046875,316039.1875,264789.96875,217858.703125,226963.921875,223638.25,218264.4375,8616.0,1.0,1
228537.203125,248721.015625,317819.375,267124.09375,219726.421875,228810.171875,226360.421875,221191.4375,8617.0,1.0,1
230575.6875,250182.734375,318855.96875,268486.3125,220980.4375,229827.4375,228366.078125,223341.5,8618.0,1.0,1
229019.375,249232.328125,317946.53125,267284.3125,220129.28125,228834.40625,227226.59375,222116.71875,8619.0,1.0,1
225710.421875,246990.09375,316170.96875,264966.8125,218183.078125,227038.75,224296.453125,218969.140625,8620.0,1.0,1
225225.671875,246563.0,315997.4375,264762.25,217839.03125,226952.109375,223629.21875,218250.125,8621.0,1.0,1
228522.640625,248715.828125,317788.90625,267105.9375,219717.5625,228811.421875,226358.0,221185.546875,8622.0,1.0,1
230574.078125,250182.546875,318826.5625,268467.0,220972.125,229830.125,228363.84375,223339.890625,8623.0,1.0,1
229037.4375,249241.0,317927.90625,267279.65625,220138.40625,228853.984375,227246.359375,222140.671875,8624.0,1.0,1
225729.203125,247000.734375,316143.625,264952.40625,218189.515625,227054.03125,224309.875,218988.90625,8625.0,1.0,1
225215.109375,246555.578125,315955.25,264725.59375,217832.328125,226954.609375,223618.9375,218244.765625,8626.0,1.0,1
228495.453125,248695.0,317734.34375,267054.1875,219697.0,228800.25,226327.15625,221159.4375,8627.0,1.0,1
230576.671875,250185.859375,318795.15625,268444.28125,220975.34375,229842.546875,228358.125,223344.1875,8628.0,1.0,1
229053.71875,249254.859375,317904.21875,267269.65625,220147.609375,228870.609375,227252.078125,222157.3125,8629.0,1.0,1
225740.46875,247006.71875,316122.78125,264947.21875,218203.546875,227070.578125,224319.703125,219010.53125,8630.0,1.0,1
225195.265625,246535.640625,315916.8125,264698.3125,217826.96875,226948.265625,223600.25,218235.015625,8631.0,1.0,1
228468.90625,248671.484375,317691.96875,267021.90625,219685.109375,228787.546875,226300.78125,221138.421875,8632.0,1.0,1
230566.390625,250171.546875,318755.28125,268419.78125,220963.453125,229832.453125,228344.453125,223331.84375,8633.0,1.0,1
229080.71875,249273.546875,317884.90625,267267.5,220163.890625,228884.90625,227271.921875,222176.796875,8634.0,1.0,1
225767.46875,247030.953125,316100.0,264939.34375,218220.625,227082.640625,224339.640625,219026.453125,8635.0,1.0,1
225200.0,246552.8125,315882.8125,264678.09375,217833.859375,226951.21875,223602.03125,218230.46875,8636.0,1.0,1
228462.203125,248680.328125,317653.875,266998.3125,219685.734375,228789.421875,226292.5625,221127.875,8637.0,1.0,1
230585.34375,250198.109375,318740.1875,268418.71875,220988.046875,229859.265625,228361.609375,223352.859375,8638.0,1.0,1
229105.921875,249297.78125,317875.25,267271.71875,220188.203125,228916.390625,227301.15625,222212.46875,8639.0,1.0,1
225788.296875,247050.09375,316087.75,264939.53125,218238.0625,227109.296875,224367.984375,219065.171875,8640.0,1.0,1
225177.296875,246536.71875,315842.6875,264644.40625,217820.078125,226949.609375,223596.046875,218233.140625,8641.0,1.0,1
228429.03125,248654.140625,317603.5625,266951.90625,219658.921875,228777.09375,226271.015625,221110.171875,8642.0,1.0,1
230562.375,250172.09375,318687.6875,268374.625,220958.265625,229843.984375,228343.28125,223336.765625,8643.0,1.0,1
229104.046875,249288.21875,317835.84375,267243.5625,220173.359375,228912.0,227299.375,222215.15625,8644.0,1.0,1
225782.765625,247039.1875,316039.46875,264900.46875,218216.609375,227094.984375,224356.453125,219053.1875,8645.0,1.0,1
225151.375,246513.734375,315785.90625,264594.15625,217790.765625,226924.75,223567.34375,218199.265625,8646.0,1.0,1
228385.9375,248613.453125,317538.65625,266894.5,219624.671875,228745.96875,226230.15625,221064.125,8647.0,1.0,1
230542.703125,250148.3125,318642.09375,268339.0625,220942.71875,229828.0625,228324.59375,223314.953125,8648.0,1.0,1
229117.640625,249289.734375,317805.4375,267231.75,220175.515625,228910.484375,227305.0,222219.359375,8649.0,1.0,1
225807.34375,247048.65625,316016.65625,264900.375,218228.859375,227102.140625,224372.453125,219075.984375,8650.0,1.0,1
225141.359375,246494.953125,315744.34375,264568.9375,217781.453125,226915.640625,223551.515625,218194.609375,8651.0,1.0,1
228373.234375,248596.03125,317499.9375,266866.34375,219613.953125,228738.640625,226205.390625,221048.21875,8652.0,1.0,1
230558.34375,250155.015625,318614.375,268326.34375,220947.265625,229839.515625,228318.515625,223318.34375,8653.0,1.0,1
229145.890625,249308.15625,317785.40625,267226.46875,220191.78125,228926.484375,227316.625,222242.78125,8654.0,1.0,1
225822.28125,247057.515625,315993.15625,264888.65625,218241.109375,227113.40625,224384.078125,219095.5625,8655.0,1.0,1
225124.359375,246485.84375,315701.96875,264535.0625,217775.65625,226908.03125,223539.71875,218185.3125,8656.0,1.0,1
228347.671875,248583.6875,317453.15625,266827.53125,219598.65625,228730.59375,226188.75,221032.03125,8657.0,1.0,1
230555.9375,250158.328125,318583.28125,268306.40625,220944.140625,229844.609375,228321.5625,223322.453125,8658.0,1.0,1
229151.609375,249309.671875,317757.15625,267215.65625,220191.0625,228935.421875,227332.09375,222257.078125,8659.0,1.0,1
225834.796875,247064.84375,315970.1875,264879.375,218243.96875,227113.9375,224406.078125,219113.796875,8660.0,1.0,1
225120.4375,246485.21875,315673.15625,264510.375,217768.765625,226894.0,223545.53125,218181.734375,8661.0,1.0,1
228322.984375,248563.75,317410.0625,266786.5,219578.546875,228700.109375,226173.828125,221007.171875,8662.0,1.0,1
230539.921875,250135.515625,318548.6875,268277.09375,220934.125,229825.65625,228320.484375,223311.28125,8663.0,1.0,1
229171.109375,249316.5625,317743.84375,267207.59375,220201.0,228941.15625,227354.171875,222272.90625,8664.0,1.0,1
225856.078125,247076.375,315955.78125,264874.09375,218254.953125,227130.03125,224426.546875,219133.03125,8665.0,1.0,1
225109.25,246476.8125,315635.96875,264485.25,217759.015625,226898.109375,223530.328125,218172.34375,8666.0,1.0,1
228315.125,248562.671875,317379.21875,266769.96875,219578.984375,228714.421875,226153.4375,221000.734375,8667.0,1.0,1
230546.09375,250142.765625,318518.375,268265.84375,220940.5625,229846.671875,228300.1875,223317.0,8668.0,1.0,1
229200.15625,249342.03125,317720.6875,267206.8125,220221.109375,228977.265625,227349.703125,222300.71875,8669.0,1.0,1
225878.515625,247094.34375,315922.15625,264858.78125,218266.3125,227155.328125,224413.046875,219155.5625,8670.0,1.0,1
225098.171875,246466.4375,315586.34375,264442.0625,217750.4375,226904.109375,223492.78125,218169.21875,8671.0,1.0,1
228292.953125,248540.765625,317325.3125,266715.875,219558.421875,228712.0,226110.078125,220980.890625,8672.0,1.0,1
230553.515625,250145.09375,318482.25,268230.34375,220932.703125,229854.625,228288.5625,223313.078125,8673.0,1.0,1
229205.796875,249340.78125,317682.78125,267173.46875,220208.859375,228982.28125,227359.90625,222300.890625,8674.0,1.0,1
225898.984375,247136.28125,315891.125,264844.125,218266.40625,227182.25,224463.46875,219170.3125,8675.0,1.0,1
225085.75,246527.140625,315525.65625,264407.375,217724.421875,226913.765625,223540.96875,218153.75,8676.0,1.0,1
228249.234375,248584.3125,317241.28125,266658.8125,219506.125,228700.109375,226143.703125,220934.3125,8677.0,1.0,1
230525.984375,250192.125,318415.90625,268198.875,220895.234375,229853.546875,228328.171875,223283.203125,8678.0,1.0,1
229210.984375,249410.515625,317639.21875,267176.59375,220202.609375,229002.84375,227407.203125,222303.390625,8679.0,1.0,1
225905.421875,247179.546875,315858.875,264840.1875,218272.484375,227201.734375,224493.59375,219181.3125,8680.0,1.0,1
225071.609375,246513.640625,315497.40625,264375.46875,217730.234375,226924.75,223521.390625,218147.3125,8681.0,1.0,1
228241.984375,248572.59375,317228.40625,266635.3125,219527.484375,228721.484375,226098.546875,220939.765625,8682.0,1.0,1
230532.5,250194.0,318404.09375,268180.96875,220922.78125,229882.15625,228286.78125,223304.046875,8683.0,1.0,1
229229.3125,249415.890625,317630.28125,267160.03125,220232.546875,229027.515625,227387.53125,222335.234375,8684.0,1.0,1
225917.765625,247177.9375,315835.25,264816.40625,218286.875,227205.3125,224475.8125,219198.734375,8685.0,1.0,1
225068.125,246508.640625,315461.28125,264360.25,217729.78125,226911.4375,223507.359375,218142.3125,8686.0,1.0,1
228228.484375,248561.15625,317185.65625,266624.9375,219520.34375,228698.40625,226102.21875,220919.109375,8687.0,1.0,1
230528.21875,250186.484375,318362.96875,268166.9375,220916.875,229856.328125,228327.90625,223287.671875,8688.0,1.0,1
229242.453125,249426.34375,317596.03125,267148.0625,220238.359375,229012.9375,227469.15625,222337.640625,8689.0,1.0,1
225938.953125,247199.84375,315807.8125,264809.09375,218303.328125,227193.78125,224575.671875,219211.4375,8690.0,1.0,1
225063.03125,246518.5625,315423.1875,264325.5625,217733.984375,226881.125,223582.546875,218133.28125,8691.0,1.0,1
228197.109375,248549.0,317125.125,266558.4375,219504.875,228650.671875,226147.0,220884.234375,8692.0,1.0,1
230530.453125,250201.0625,318323.625,268127.0625,220928.3125,229837.453125,228385.578125,223285.984375,8693.0,1.0,1
229268.65625,249459.609375,317569.84375,267132.59375,220262.421875,229005.53125,227520.5625,222359.1875,8694.0,1.0,1
225969.171875,247236.234375,315781.25,264800.15625,218326.3125,227191.453125,224607.953125,219238.265625,8695.0,1.0,1
225070.28125,246536.796875,315387.875,264306.625,217749.359375,226881.03125,223593.09375,218147.3125,8696.0,1.0,1
228190.21875,248553.734375,317085.78125,266533.9375,219511.484375,228649.140625,226135.65625,220885.40625,8697.0,1.0,1
230543.765625,250215.984375,318295.46875,268119.1875,220941.46875,229849.171875,228383.78125,223297.6875,8698.0,1.0,1
229302.890625,249485.625,317554.03125,267137.5,220284.046875,229030.828125,227544.703125,222383.234375,8699.0,1.0,1
225989.640625,247249.015625,315759.0,264793.4375,218337.390625,227211.390625,224638.96875,219251.046875,8700.0,1.0,1
225061.875,246528.75,315352.65625,264281.125,217746.6875,226886.9375,223612.140625,218136.046875,8701.0,1.0,1
228178.15625,248546.140625,317050.9375,266510.5,219509.078125,228654.25,226157.640625,220866.453125,8702.0,1.0,1
230546.0,250218.046875,318263.09375,268099.875,220939.140625,229852.65625,228412.75,223284.640625,8703.0,1.0,1
229321.9375,249500.546875,317533.0,267131.53125,220295.765625,229044.59375,227591.1875,222395.75,8704.0,1.0,1
226033.90625,247286.390625,315756.3125,264806.21875,218375.5625,227240.546875,224703.890625,219291.359375,8705.0,1.0,1
225074.296875,246542.703125,315326.0,264264.78125,217766.0,226891.5,223636.28125,218145.53125,8706.0,1.0,1
228167.15625,248541.484375,317004.71875,266470.90625,219508.71875,228638.59375,226141.640625,220850.4375,8707.0,1.0,1
230551.375,250224.125,318228.59375,268078.625,220953.171875,229847.734375,228402.734375,223287.5,8708.0,1.0,1
229353.765625,249526.296875,317513.78125,267132.3125,220327.40625,229055.328125,227597.984375,222425.96875,8709.0,1.0,1
226055.0,247305.171875,315724.84375,264794.6875,218393.265625,227237.328125,224695.296875,219311.75,8710.0,1.0,1
225059.546875,246541.453125,315275.03125,264231.4375,217758.578125,226866.015625,223600.875,218133.28125,8711.0,1.0,1
228154.015625,248549.0,316965.90625,266443.4375,219508.984375,228627.25,226121.078125,220839.625,8712.0,1.0,1
230548.421875,250234.40625,318196.59375,268055.8125,220956.921875,229847.375,228406.765625,223289.921875,8713.0,1.0,1
229358.6875,249538.28125,317484.5625,267115.0625,220332.78125,229060.15625,227619.359375,222437.953125,8714.0,1.0,1
226080.65625,247338.96875,315715.1875,264799.59375,218418.03125,227259.40625,224741.890625,219344.296875,8715.0,1.0,1
225050.703125,246548.609375,315240.53125,264209.78125,217761.25,226861.1875,223615.4375,218132.390625,8716.0,1.0,1
228124.328125,248535.40625,316921.71875,266410.46875,219496.734375,228615.4375,226113.65625,220814.5,8717.0,1.0,1
230549.140625,250240.578125,318175.5625,268045.53125,220964.703125,229871.703125,228416.0625,223285.4375,8718.0,1.0,1
229376.5625,249553.3125,317475.4375,267112.46875,220350.125,229098.234375,227636.171875,222452.4375,8719.0,1.0,1
226106.140625,247358.28125,315709.71875,264792.71875,218438.6875,227303.03125,224758.421875,219367.984375,8720.0,1.0,1
225052.03125,246547.359375,315218.53125,264176.875,217760.625,226889.34375,223602.84375,218126.75,8721.0,1.0,1
228099.5625,248508.9375,316879.625,266357.15625,219472.59375,228619.734375,226071.90625,220782.234375,8722.0,1.0,1
230538.046875,250219.65625,318138.125,268004.21875,220944.953125,229867.859375,228380.21875,223264.078125,8723.0,1.0,1
229396.046875,249558.3125,317453.34375,267094.5,220348.6875,229104.046875,227628.296875,222457.625,8724.0,1.0,1
226106.59375,247346.46875,315670.5625,264766.53125,218424.390625,227290.96875,224742.328125,219361.1875,8725.0,1.0,1
225034.609375,246533.140625,315176.40625,264146.9375,217746.234375,226878.984375,223577.625,218111.375,8726.0,1.0,1
228081.140625,248503.75,316836.34375,266325.4375,219463.203125,228617.765625,226043.828125,220764.703125,8727.0,1.0,1
230535.28125,250226.359375,318099.9375,267983.5625,220950.40625,229881.53125,228372.078125,223265.234375,8728.0,1.0,1
229418.234375,249586.5625,317426.15625,267089.9375,220370.421875,229139.015625,227644.65625,222481.9375,8729.0,1.0,1
226133.328125,247377.046875,315646.0,264762.3125,218448.078125,227326.28125,224764.953125,219392.390625,8730.0,1.0,1
225028.609375,246538.6875,315134.21875,264121.0,217748.109375,226889.703125,223576.109375,218112.359375,8731.0,1.0,1
228051.1875,248487.578125,316782.4375,266285.375,219450.15625,228609.0,226025.140625,220743.421875,8732.0,1.0,1
230527.953125,250226.8125,318061.75,267958.34375,220947.546875,229877.953125,228368.5,223259.25,8733.0,1.0,1
