FZ,C3,CZ,C4,PZ,PO7,OZ,PO8,Counter,Validation,Label
234850.328125,251660.359375,269328.59375,262361.9375,228913.703125,235243.984375,232440.71875,222955.53125,92179.0,1.0,2
234720.421875,251502.375,269226.5,262264.21875,228672.75,235177.375,232248.40625,222816.6875,92180.0,1.0,2
234570.84375,251318.015625,269107.9375,262163.96875,228137.296875,235112.734375,231965.515625,222596.296875,92181.0,1.0,2
234612.59375,251369.609375,269137.46875,262202.25,228046.71875,235141.171875,231985.640625,222598.53125,92182.0,1.0,2
234775.5,251573.71875,269264.6875,262317.75,228512.265625,235219.125,232273.625,222811.046875,92183.0,1.0,2
234838.34375,251657.234375,269318.0625,262356.90625,228906.375,235243.09375,232438.390625,222949.0,92184.0,1.0,2
234703.25,251490.75,269212.1875,262253.65625,228668.546875,235169.6875,232245.71875,222814.1875,92185.0,1.0,2
234561.1875,251309.171875,269097.03125,262157.625,228135.765625,235108.09375,231968.46875,222600.140625,92186.0,1.0,2
234598.828125,251352.796875,269117.96875,262190.8125,228030.265625,235128.828125,231977.859375,222593.515625,92187.0,1.0,2
234761.640625,251554.5,269242.15625,262305.0625,228488.484375,235201.515625,232255.46875,222799.15625,92188.0,1.0,2
234825.921875,251636.484375,269297.125,262340.5625,228881.34375,235219.9375,232416.3125,222931.921875,92189.0,1.0,2
234705.484375,251492.453125,269211.03125,262254.28125,228666.578125,235165.3125,232244.921875,222810.875,92190.0,1.0,2
234564.21875,251316.234375,269103.40625,262162.0,228140.0625,235116.484375,231973.75,222601.75,92191.0,1.0,2
234604.71875,251360.84375,269128.34375,262195.8125,228035.453125,235145.1875,231983.765625,222594.59375,92192.0,1.0,2
234755.828125,251551.546875,269240.625,262299.875,228483.484375,235211.078125,232251.71875,222791.5625,92193.0,1.0,2
234831.8125,251647.125,269302.21875,262346.28125,228894.75,235249.265625,232425.4375,222939.265625,92194.0,1.0,2
234705.671875,251494.0625,269205.40625,262247.84375,228671.328125,235181.84375,232236.0625,222809.265625,92195.0,1.0,2
234557.515625,251309.703125,269085.25,262143.234375,228129.78125,235111.125,231954.25,222582.609375,92196.0,1.0,2
234590.15625,251346.546875,269106.6875,262171.75,228019.71875,235127.046875,231957.828125,222570.28125,92197.0,1.0,2
234749.03125,251543.6875,269229.53125,262281.09375,228471.046875,235193.03125,232229.1875,222774.9375,92198.0,1.0,2
234822.515625,251638.28125,269296.96875,262331.625,228884.5625,235229.234375,232411.578125,222925.671875,92199.0,1.0,2
234719.171875,251508.375,269224.71875,262258.3125,228684.015625,235186.765625,232255.734375,222818.46875,92200.0,1.0,2
234584.25,251337.6875,269117.15625,262166.46875,228159.640625,235130.171875,231983.3125,222606.578125,92201.0,1.0,2
234604.90625,251360.21875,269125.375,262183.65625,228029.734375,235141.078125,231970.171875,222581.984375,92202.0,1.0,2
234771.109375,251564.25,269254.84375,262300.3125,228487.5,235220.296875,232252.421875,222791.375,92203.0,1.0,2
234840.046875,251657.5,269315.8125,262342.15625,228897.609375,235248.453125,232433.390625,222938.546875,92204.0,1.0,2
234716.484375,251507.921875,269223.75,262250.875,228689.734375,235187.84375,232255.375,222822.578125,92205.0,1.0,2
234574.59375,251325.0,269109.84375,262155.9375,228157.671875,235119.4375,231969.640625,222604.515625,92206.0,1.0,2
234596.140625,251348.59375,269121.90625,262179.09375,228029.015625,235133.03125,231963.46875,222581.546875,92207.0,1.0,2
234755.734375,251549.578125,269245.71875,262291.125,228474.265625,235203.578125,232236.515625,222784.859375,92208.0,1.0,2
234827.796875,251642.65625,269304.375,262333.84375,228881.25,235227.359375,232410.671875,222927.640625,92209.0,1.0,2
234705.671875,251492.359375,269211.21875,262243.09375,228674.71875,235169.859375,232239.203125,222808.1875,92210.0,1.0,2
234563.0625,251311.5,269099.625,262148.78125,228144.171875,235110.953125,231963.640625,222594.78125,92211.0,1.0,2
234583.171875,251335.09375,269105.53125,262164.78125,228007.296875,235119.890625,231950.671875,222568.21875,92212.0,1.0,2
234739.640625,251529.015625,269226.25,262274.5625,228452.28125,235195.171875,232227.578125,222773.234375,92213.0,1.0,2
234817.25,251628.984375,269290.0625,262326.625,228871.140625,235230.3125,232416.21875,222928.53125,92214.0,1.0,2
234706.828125,251495.3125,269205.9375,262245.78125,228677.21875,235175.046875,232256.09375,222822.5,92215.0,1.0,2
234557.34375,251309.703125,269083.28125,262139.390625,228128.171875,235102.1875,231964.265625,222595.125,92216.0,1.0,2
234585.59375,251341.796875,269100.625,262165.84375,227996.203125,235120.96875,231960.96875,222578.140625,92217.0,1.0,2
234730.078125,251523.390625,269209.6875,262266.34375,228427.0625,235179.96875,232217.5625,222772.96875,92218.0,1.0,2
234817.609375,251631.484375,269284.71875,262321.25,228856.75,235220.203125,232408.078125,222928.53125,92219.0,1.0,2
234708.171875,251495.40625,269203.96875,262239.53125,228666.765625,235169.0625,232245.90625,222811.671875,92220.0,1.0,2
234579.25,251330.890625,269107.25,262157.90625,228150.4375,235121.40625,231977.6875,222608.90625,92221.0,1.0,2
234608.03125,251366.203125,269130.46875,262184.53125,228023.484375,235148.953125,231976.875,222593.796875,92222.0,1.0,2
234760.03125,251556.203125,269251.71875,262293.71875,228457.546875,235218.6875,232244.921875,222786.828125,92223.0,1.0,2
234832.265625,251651.234375,269314.40625,262336.0,228875.53125,235242.375,232427.390625,222936.75,92224.0,1.0,2
234705.84375,251500.328125,269219.4375,262238.8125,228676.15625,235173.171875,232254.03125,222815.609375,92225.0,1.0,2
234561.71875,251314.890625,269105.625,262142.609375,228143.1875,235110.5,231971.421875,222600.046875,92226.0,1.0,2
234591.40625,251343.859375,269122.96875,262170.34375,228004.796875,235133.5625,231966.859375,222584.046875,92227.0,1.0,2
234740.984375,251532.328125,269231.34375,262268.9375,228431.53125,235199.375,232228.5625,222775.28125,92228.0,1.0,2
234815.90625,251630.765625,269289.8125,262310.96875,228849.59375,235222.796875,232407.546875,222923.078125,92229.0,1.0,2
234708.34375,251496.65625,269209.78125,262232.5625,228665.515625,235172.90625,232251.359375,222815.96875,92230.0,1.0,2
234564.9375,251314.984375,269094.375,262138.40625,228131.65625,235110.59375,231968.46875,222597.375,92231.0,1.0,2
234584.78125,251337.875,269104.09375,262161.03125,227984.234375,235125.96875,231952.015625,222567.859375,92232.0,1.0,2
234744.828125,251533.671875,269225.875,262274.5625,228422.40625,235199.1875,232220.421875,222769.46875,92233.0,1.0,2
234820.28125,251634.25,269291.40625,262322.78125,228850.40625,235228.703125,232414.609375,222926.921875,92234.0,1.0,2
234701.109375,251492.8125,269203.875,262234.53125,228667.75,235166.109375,232253.046875,222817.484375,92235.0,1.0,2
234550.8125,251307.296875,269084.875,262131.890625,228129.78125,235094.859375,231961.5,222596.296875,92236.0,1.0,2
234577.09375,251334.46875,269101.96875,262157.90625,227980.921875,235115.859375,231947.8125,222574.03125,92237.0,1.0,2
234736.0625,251529.828125,269224.375,262270.09375,228412.390625,235189.453125,232214.875,222774.484375,92238.0,1.0,2
234811.25,251625.578125,269284.09375,262314.71875,228833.953125,235209.5625,232397.625,222924.59375,92239.0,1.0,2
234696.8125,251484.3125,269196.1875,262227.375,228651.03125,235151.625,232234.8125,222811.859375,92240.0,1.0,2
234550.1875,251302.015625,269079.875,262125.453125,228119.953125,235091.71875,231951.21875,222592.890625,92241.0,1.0,2
234569.765625,251323.828125,269088.90625,262141.453125,227959.46875,235105.140625,231931.28125,222558.828125,92242.0,1.0,2
234722.03125,251514.71875,269208.28125,262248.65625,228378.875,235174.421875,232195.75,222748.90625,92243.0,1.0,2
234816.171875,251629.15625,269288.09375,262310.15625,228824.390625,235217.4375,232398.421875,222915.828125,92244.0,1.0,2
234737.859375,251528.75,269236.875,262254.46875,228692.15625,235196.25,232283.71875,222845.46875,92245.0,1.0,2
234577.546875,251332.328125,269105.8125,262141.625,228147.21875,235120.15625,231988.140625,222614.265625,92246.0,1.0,2
234581.65625,251333.578125,269098.9375,262151.65625,227969.296875,235117.03125,231946.203125,222572.6875,92247.0,1.0,2
234735.078125,251525.796875,269216.75,262257.6875,228394.875,235190.25,232213.71875,222765.71875,92248.0,1.0,2
234824.84375,251643.8125,269292.9375,262312.40625,228844.859375,235231.015625,232416.40625,222927.1875,92249.0,1.0,2
234719.171875,251516.40625,269219.4375,262235.96875,228687.0625,235179.875,232268.078125,222826.421875,92250.0,1.0,2
234565.828125,251324.8125,269097.9375,262130.546875,228149.90625,235112.109375,231976.609375,222597.28125,92251.0,1.0,2
234565.03125,251323.828125,269086.21875,262130.625,227963.9375,235102.640625,231926.71875,222543.984375,92252.0,1.0,2
234729.8125,251525.4375,269214.34375,262250.875,228396.03125,235182.390625,232203.171875,222753.46875,92253.0,1.0,2
234821.8125,251640.15625,269291.15625,262311.6875,228845.578125,235226.46875,232415.328125,222926.125,92254.0,1.0,2
234715.140625,251510.15625,269212.03125,262227.625,228684.546875,235174.875,232268.96875,222824.546875,92255.0,1.0,2
234559.21875,251316.859375,269088.375,262118.734375,228139.265625,235104.875,231971.15625,222594.59375,92256.0,1.0,2
234566.453125,251324.015625,269089.90625,262129.5625,227959.640625,235106.65625,231930.296875,222552.578125,92257.0,1.0,2
234715.671875,251510.421875,269207.1875,262236.21875,228367.78125,235172.015625,232189.125,222742.921875,92258.0,1.0,2
234815.09375,251634.4375,269287.40625,262298.71875,228818.03125,235215.734375,232397.453125,222911.09375,92259.0,1.0,2
234722.46875,251516.765625,269225.15625,262231.03125,228677.3125,235179.34375,232264.9375,222820.96875,92260.0,1.0,2
234564.84375,251320.875,269105.09375,262122.40625,228137.828125,235110.234375,231972.9375,222590.3125,92261.0,1.0,2
234575.578125,251332.421875,269116.0,262139.390625,227960.984375,235124.359375,231942.28125,222549.0,92262.0,1.0,2
234725.96875,251520.890625,269233.84375,262245.4375,228372.078125,235204.375,232196.375,222734.25,92263.0,1.0,2
234818.859375,251636.84375,269307.34375,262303.625,228826.890625,235241.75,232399.765625,222903.140625,92264.0,1.0,2
234702.171875,251494.515625,269215.25,262216.71875,228667.828125,235168.171875,232244.296875,222795.84375,92265.0,1.0,2
234547.328125,251300.578125,269090.96875,262110.6875,228129.609375,235099.765625,231957.75,222570.453125,92266.0,1.0,2
234559.3125,251312.75,269090.6875,262123.03125,227956.328125,235115.234375,231931.375,222533.890625,92267.0,1.0,2
234718.71875,251508.453125,269209.6875,262237.65625,228373.953125,235188.90625,232197.4375,222733.890625,92268.0,1.0,2
234821.359375,251634.25,269290.53125,262306.6875,228833.859375,235234.15625,232413.453125,222914.5,92269.0,1.0,2
234708.34375,251499.6875,269196.90625,262217.28125,228676.59375,235171.125,232259.484375,222808.90625,92270.0,1.0,2
234557.78125,251311.046875,269075.5,262116.6875,228139.34375,235110.765625,231975.890625,222594.0625,92271.0,1.0,2
234558.6875,251317.75,269073.875,262123.921875,227947.75,235119.703125,231938.515625,222554.09375,92272.0,1.0,2
234706.828125,251507.828125,269190.21875,262229.4375,228350.265625,235188.46875,232196.546875,222749.53125,92273.0,1.0,2
234806.0625,251633.171875,269274.6875,262290.9375,228808.203125,235231.640625,232407.734375,222926.5625,92274.0,1.0,2
234710.671875,251515.15625,269204.25,262216.1875,228671.5,235182.921875,232274.25,222837.609375,92275.0,1.0,2
234556.453125,251321.6875,269084.09375,262116.140625,228134.515625,235113.1875,231985.015625,222615.421875,92276.0,1.0,2
234561.1875,251324.09375,269087.9375,262130.359375,227941.578125,235123.46875,231945.5,222573.40625,92277.0,1.0,2
234714.609375,251517.75,269211.84375,262235.59375,228344.1875,235197.671875,232201.5625,222764.921875,92278.0,1.0,2
234817.0625,251650.96875,269300.0,262304.4375,228809.09375,235242.203125,232418.015625,222946.328125,92279.0,1.0,2
234716.125,251530.984375,269230.25,262231.65625,228679.09375,235188.640625,232283.984375,222863.796875,92280.0,1.0,2
234566.1875,251340.46875,269116.0,262130.0,228138.8125,235119.625,231990.015625,222641.53125,92281.0,1.0,2
234569.671875,251343.5,269117.59375,262142.96875,227941.046875,235125.875,231946.5625,222598.796875,92282.0,1.0,2
234711.125,251523.65625,269225.78125,262245.53125,228333.265625,235188.015625,232195.75,222783.6875,92283.0,1.0,2
234807.234375,251647.9375,269301.4375,262304.4375,228788.984375,235229.6875,232407.015625,222956.96875,92284.0,1.0,2
234712.640625,251535.90625,269230.8125,262233.28125,228665.421875,235184.703125,232280.140625,222878.015625,92285.0,1.0,2
234558.953125,251344.84375,269106.15625,262125.890625,228127.015625,235115.953125,231986.53125,222653.15625,92286.0,1.0,2
234559.390625,251343.046875,269097.3125,262129.921875,227922.984375,235119.625,231938.96875,222602.28125,92287.0,1.0,2
234710.40625,251529.734375,269208.28125,262234.625,228317.984375,235188.640625,232197.359375,222792.0,92288.0,1.0,2
234807.59375,251654.09375,269282.125,262296.3125,228775.296875,235229.140625,232412.28125,222965.28125,92289.0,1.0,2
234728.28125,251552.796875,269224.625,262238.625,228669.0,235194.28125,232298.828125,222895.359375,92290.0,1.0,2
234572.09375,251356.546875,269097.125,262128.125,228133.890625,235122.84375,232005.9375,222669.34375,92291.0,1.0,2
234579.78125,251360.484375,269096.15625,262137.875,227929.6875,235128.65625,231958.8125,222620.53125,92292.0,1.0,2
234736.515625,251550.921875,269215.5,262247.9375,228328.4375,235199.453125,232213.890625,222809.171875,92293.0,1.0,2
234829.9375,251670.015625,269290.0625,262302.03125,228791.484375,235233.875,232428.015625,222979.140625,92294.0,1.0,2
234724.984375,251544.578125,269212.8125,262224.6875,228668.734375,235180.6875,232296.0625,222887.5,92295.0,1.0,2
234569.140625,251350.65625,269089.625,262120.078125,228133.53125,235108.0,232000.75,222663.265625,92296.0,1.0,2
234578.796875,251358.25,269096.34375,262135.640625,227940.328125,235127.671875,231962.03125,222624.375,92297.0,1.0,2
234734.09375,251546.90625,269214.625,262242.46875,228343.203125,235204.640625,232221.21875,222813.203125,92298.0,1.0,2
234820.203125,251657.140625,269281.9375,262292.8125,228801.5,235228.78125,232421.671875,222973.6875,92299.0,1.0,2
234717.28125,251535.015625,269206.3125,262215.9375,228683.65625,235170.3125,232283.90625,222883.65625,92300.0,1.0,2
234575.125,251353.515625,269098.5625,262122.5,228169.296875,235110.234375,232005.125,222674.890625,92301.0,1.0,2
234563.953125,251332.0625,269085.34375,262114.890625,227944.265625,235101.828125,231932.796875,222608.359375,92302.0,1.0,2
234716.84375,251519.8125,269203.71875,262223.875,228335.421875,235173.0,232180.90625,222792.984375,92303.0,1.0,2
234821.984375,251654.90625,269285.4375,262293.34375,228808.109375,235214.390625,232401.734375,222973.328125,92304.0,1.0,2
234735.078125,251545.03125,269219.4375,262227.90625,228704.046875,235172.640625,232285.15625,222897.859375,92305.0,1.0,2
234585.40625,251356.46875,269099.90625,262126.609375,228174.3125,235109.515625,231999.3125,222681.328125,92306.0,1.0,2
234575.84375,251342.703125,269083.46875,262125.71875,227946.40625,235107.109375,231934.140625,222619.71875,92307.0,1.0,2
234727.75,251532.234375,269194.5,262231.46875,228324.515625,235177.28125,232177.5,222795.765625,92308.0,1.0,2
234828.421875,251663.046875,269272.90625,262296.40625,228795.234375,235220.921875,232400.03125,222968.9375,92309.0,1.0,2
234731.421875,251544.125,269195.03125,262219.6875,228685.890625,235167.71875,232278.171875,222881.234375,92310.0,1.0,2
234583.453125,251354.234375,269078.8125,262118.5625,228161.34375,235107.640625,231995.390625,222663.265625,92311.0,1.0,2
234570.84375,251340.546875,269060.46875,262114.0,227926.921875,235110.765625,231928.328125,222592.984375,92312.0,1.0,2
234716.578125,251522.046875,269171.4375,262219.15625,228303.5,235182.65625,232174.203125,222772.15625,92313.0,1.0,2
234819.21875,251651.859375,269257.71875,262286.65625,228777.171875,235221.359375,232397.265625,222951.234375,92314.0,1.0,2
234728.734375,251543.421875,269193.5,262217.96875,228684.1875,235176.21875,232283.359375,222875.78125,92315.0,1.0,2
234574.78125,251352.4375,269072.1875,262109.171875,228158.65625,235108.53125,231994.125,222654.3125,92316.0,1.0,2
234566.734375,251334.03125,269058.15625,262104.25,227922.0,235103.171875,231921.078125,222583.328125,92317.0,1.0,2
234705.671875,251509.4375,269166.6875,262204.125,228291.25,235163.78125,232158.109375,222757.40625,92318.0,1.0,2
234810.0,251641.40625,269257.25,262275.1875,228778.96875,235210.71875,232389.84375,222947.21875,92319.0,1.0,2
234726.234375,251534.828125,269199.875,262209.84375,228694.03125,235171.5625,232279.875,222875.515625,92320.0,1.0,2
234559.3125,251332.6875,269070.5,262092.453125,228159.734375,235094.140625,231972.765625,222641.09375,92321.0,1.0,2
234553.9375,251320.703125,269067.1875,262096.921875,227933.984375,235099.140625,231907.234375,222579.390625,92322.0,1.0,2
234713.359375,251511.3125,269191.375,262209.125,228315.75,235176.21875,232157.390625,222765.28125,92323.0,1.0,2
234816.4375,251643.8125,269274.78125,262273.9375,228787.640625,235215.46875,232381.703125,222942.75,92324.0,1.0,2
234735.265625,251545.828125,269216.59375,262213.96875,228706.8125,235176.03125,232280.046875,222880.078125,92325.0,1.0,2
234571.640625,251340.109375,269083.71875,262098.890625,228172.78125,235099.328125,231981.4375,222650.921875,92326.0,1.0,2
234556.171875,251316.234375,269060.375,262095.765625,227926.03125,235095.390625,231908.484375,222580.203125,92327.0,1.0,2
234713.359375,251513.28125,269178.59375,262211.90625,228298.140625,235174.421875,232164.09375,222766.25,92328.0,1.0,2
234816.890625,251646.765625,269258.96875,262277.4375,228774.234375,235216.0,232395.65625,222949.71875,92329.0,1.0,2
234730.4375,251539.921875,269197.09375,262213.15625,228691.609375,235173.984375,232288.453125,222886.0625,92330.0,1.0,2
234566.453125,251336.171875,269069.5,262096.390625,228156.25,235100.125,231989.921875,222652.078125,92331.0,1.0,2
234547.59375,251308.984375,269051.0,262085.75,227900.09375,235095.5625,231910.171875,222565.984375,92332.0,1.0,2
234695.46875,251492.09375,269162.9375,262191.0625,228260.859375,235162.09375,232147.546875,222737.46875,92333.0,1.0,2
234809.640625,251634.96875,269255.65625,262267.25,228753.125,235210.640625,232386.09375,222932.203125,92334.0,1.0,2
234726.5,251533.046875,269196.03125,262202.6875,228687.328125,235169.859375,232284.171875,222870.5,92335.0,1.0,2
234562.4375,251327.140625,269067.28125,262085.484375,228157.59375,235093.0625,231981.703125,222638.046875,92336.0,1.0,2
234550.453125,251306.75,269053.40625,262082.265625,227911.890625,235092.0,231903.03125,222563.84375,92337.0,1.0,2
234714.421875,251506.765625,269182.53125,262201.625,228290.359375,235176.484375,232159.359375,222751.59375,92338.0,1.0,2
234821.453125,251644.890625,269273.1875,262271.4375,228777.796875,235216.625,232390.734375,222936.21875,92339.0,1.0,2
234729.265625,251537.15625,269206.84375,262200.625,228701.453125,235165.21875,232274.78125,222862.90625,92340.0,1.0,2
234570.21875,251337.515625,269084.34375,262088.4375,228172.25,235094.859375,231978.3125,222633.9375,92341.0,1.0,2
234565.75,251323.828125,269077.46875,262095.9375,227929.328125,235102.71875,231909.015625,222569.390625,92342.0,1.0,2
234712.46875,251506.40625,269185.03125,262202.4375,228287.3125,235171.5625,232150.328125,222742.203125,92343.0,1.0,2
234819.296875,251645.875,269268.625,262271.90625,228775.390625,235217.25,232390.203125,222923.4375,92344.0,1.0,2
234732.578125,251542.96875,269200.03125,262202.34375,228705.203125,235172.734375,232285.515625,222856.109375,92345.0,1.0,2
234567.078125,251334.734375,269062.34375,262082.53125,228164.734375,235087.609375,231980.90625,222624.640625,92346.0,1.0,2
234556.171875,251317.21875,269046.4375,262083.421875,227914.140625,235085.015625,231905.796875,222560.078125,92347.0,1.0,2
234700.921875,251498.890625,269155.34375,262190.28125,228265.5,235156.1875,232144.25,222736.03125,92348.0,1.0,2
234820.375,251647.578125,269249.03125,262267.5,228758.3125,235216.0,232393.875,222930.671875,92349.0,1.0,2
234731.59375,251542.4375,269179.75,262195.625,228686.703125,235166.375,232289.4375,222863.53125,92350.0,1.0,2
234571.90625,251341.796875,269053.875,262084.9375,228157.046875,235091.453125,231987.15625,222639.125,92351.0,1.0,2
234550.09375,251314.4375,269033.03125,262073.953125,227894.90625,235090.921875,231901.78125,222555.078125,92352.0,1.0,2
234687.15625,251487.796875,269142.375,262174.0,228235.546875,235155.921875,232131.453125,222717.53125,92353.0,1.0,2
234804.28125,251633.625,269239.1875,262250.625,228726.390625,235204.015625,232370.796875,222906.53125,92354.0,1.0,2
234731.328125,251541.71875,269191.375,262194.28125,228682.140625,235169.515625,232284.796875,222853.875,92355.0,1.0,2
234577.453125,251345.015625,269076.03125,262088.796875,228167.609375,235105.578125,231997.796875,222636.625,92356.0,1.0,2
234546.796875,251302.828125,269045.1875,262070.46875,227888.203125,235090.03125,231896.40625,222547.484375,92357.0,1.0,2
234686.53125,251480.109375,269148.1875,262169.34375,228230.90625,235150.90625,232124.3125,222712.703125,92358.0,1.0,2
234808.125,251634.703125,269249.65625,262251.59375,228735.609375,235205.453125,232370.890625,222906.0,92359.0,1.0,2
234728.015625,251539.921875,269193.4375,262187.9375,228688.046875,235163.96875,232279.15625,222848.328125,92360.0,1.0,2
234565.125,251336.34375,269067.28125,262078.328125,228165.359375,235093.609375,231987.0625,222622.9375,92361.0,1.0,2
234547.59375,251312.125,269047.875,262072.25,227899.65625,235093.25,231900.609375,222546.40625,92362.0,1.0,2
234691.8125,251489.234375,269155.53125,262174.875,228244.3125,235160.5625,232133.96875,222716.015625,92363.0,1.0,2
234805.984375,251632.46875,269248.9375,262251.5,228741.765625,235211.625,232380.640625,222910.46875,92364.0,1.0,2
234720.6875,251534.5625,269184.03125,262183.28125,228689.015625,235160.65625,232284.609375,222848.421875,92365.0,1.0,2
234575.40625,251349.3125,269069.34375,262089.0625,228183.515625,235106.65625,232006.640625,222642.96875,92366.0,1.0,2
234550.546875,251315.34375,269040.71875,262077.25,227905.375,235102.90625,231912.765625,222557.765625,92367.0,1.0,2
234685.8125,251485.125,269136.90625,262167.125,228228.84375,235157.96875,232129.21875,222708.953125,92368.0,1.0,2
234805.890625,251638.0,269235.96875,262247.84375,228735.34375,235217.078125,232385.5625,222910.109375,92369.0,1.0,2
234725.515625,251539.84375,269178.84375,262186.15625,228693.140625,235182.734375,232299.28125,222854.5,92370.0,1.0,2
234556.171875,251328.484375,269047.15625,262067.59375,228165.015625,235102.1875,231994.046875,222622.3125,92371.0,1.0,2
234535.703125,251300.765625,269025.59375,262059.46875,227886.15625,235097.265625,231896.140625,222538.359375,92372.0,1.0,2
234680.625,251479.84375,269138.625,262165.5,228222.859375,235166.375,232123.328125,222706.0,92373.0,1.0,2
234795.4375,251627.1875,269235.09375,262241.5,228721.65625,235211.984375,232367.765625,222899.109375,92374.0,1.0,2
234723.640625,251542.15625,269185.90625,262184.375,228693.046875,235172.90625,232286.484375,222852.171875,92375.0,1.0,2
234556.890625,251332.953125,269054.03125,262066.890625,228164.203125,235090.828125,231979.734375,222618.5625,92376.0,1.0,2
234533.734375,251299.609375,269031.0625,262057.3125,227881.765625,235087.796875,231887.203125,222533.53125,92377.0,1.0,2
234674.375,251471.796875,269134.96875,262157.28125,228207.484375,235152.703125,232112.6875,222696.4375,92378.0,1.0,2
234799.90625,251625.40625,269235.90625,262237.75,228714.0625,235206.078125,232360.34375,222891.875,92379.0,1.0,2
234730.796875,251540.828125,269188.59375,262183.84375,228690.8125,235174.875,232285.6875,222843.59375,92380.0,1.0,2
234563.15625,251334.5625,269058.96875,262068.5,228167.328125,235102.0,231991.984375,222613.8125,92381.0,1.0,2
234518.53125,251279.03125,269018.71875,262040.0625,227859.234375,235064.015625,231862.96875,222501.875,92382.0,1.0,2
234665.96875,251462.328125,269135.21875,262147.8125,228199.34375,235135.984375,232097.75,222678.640625,92383.0,1.0,2
234788.453125,251615.65625,269236.34375,262226.03125,228701.984375,235190.96875,232348.71875,222871.578125,92384.0,1.0,2
234716.3125,251532.0625,269186.90625,262168.71875,228684.640625,235154.84375,232270.75,222830.265625,92385.0,1.0,2
234553.234375,251327.671875,269057.71875,262052.578125,228167.328125,235079.828125,231973.125,222605.765625,92386.0,1.0,2
234532.484375,251300.140625,269036.15625,262043.640625,227878.453125,235080.734375,231876.375,222518.421875,92387.0,1.0,2
234682.234375,251482.96875,269151.3125,262152.4375,228206.40625,235162.09375,232109.734375,222689.015625,92388.0,1.0,2
234799.359375,251627.640625,269238.9375,262226.9375,228703.15625,235208.046875,232352.75,222882.484375,92389.0,1.0,2
234728.203125,251540.828125,269183.0625,262169.96875,228680.796875,235169.515625,232275.140625,222837.421875,92390.0,1.0,2
234566.734375,251336.53125,269055.03125,262055.4375,228160.0,235094.859375,231980.265625,222610.6875,92391.0,1.0,2
234536.6875,251295.84375,269024.8125,262039.890625,227854.671875,235085.5625,231872.453125,222511.09375,92392.0,1.0,2
234683.140625,251473.5,269138.625,262148.4375,228182.078125,235167.71875,232105.796875,222678.546875,92393.0,1.0,2
234799.546875,251621.5625,269232.6875,262224.5,228686.34375,235215.828125,232352.75,222874.984375,92394.0,1.0,2
234728.015625,251537.515625,269180.5625,262166.40625,228670.34375,235173.53125,232276.484375,222828.484375,92395.0,1.0,2
234553.40625,251322.21875,269039.375,262040.953125,228141.5,235077.234375,231966.953125,222589.328125,92396.0,1.0,2
234528.640625,251283.234375,269018.53125,262033.0,227843.046875,235060.4375,231870.125,222498.75,92397.0,1.0,2
234677.328125,251462.6875,269136.46875,262142.4375,228163.84375,235132.765625,232102.578125,222667.546875,92398.0,1.0,2
234796.421875,251613.875,269233.46875,262221.90625,228668.546875,235190.703125,232354.890625,222868.1875,92399.0,1.0,2
234736.0625,251540.375,269192.0,262175.875,228671.40625,235167.1875,232296.328125,222838.59375,92400.0,1.0,2
234573.96875,251335.71875,269065.03125,262061.703125,228158.484375,235099.328125,232003.15625,222615.078125,92401.0,1.0,2
234532.484375,251286.09375,269024.34375,262033.171875,227845.828125,235079.5625,231874.59375,222506.078125,92402.0,1.0,2
234666.953125,251453.296875,269125.3125,262129.015625,228153.5625,235135.796875,232082.015625,222657.265625,92403.0,1.0,2
234794.984375,251612.96875,269230.96875,262215.375,228666.765625,235194.359375,232337.28125,222860.578125,92404.0,1.0,2
234738.296875,251544.75,269198.6875,262176.0625,228676.234375,235166.828125,232282.828125,222836.703125,92405.0,1.0,2
234571.375,251340.109375,269075.5,262062.859375,228162.140625,235087.796875,231987.875,222617.03125,92406.0,1.0,2
234530.25,251287.4375,269039.8125,262037.46875,227850.125,235070.09375,231867.078125,222515.5625,92407.0,1.0,2
234662.03125,251451.140625,269134.40625,262128.21875,228154.015625,235136.703125,232078.703125,222661.65625,92408.0,1.0,2
234779.6875,251599.921875,269224.90625,262204.40625,228657.109375,235183.28125,232322.171875,222857.0,92409.0,1.0,2
234717.375,251524.015625,269179.375,262156.90625,228668.28125,235149.65625,232263.515625,222829.015625,92410.0,1.0,2
234565.828125,251333.390625,269061.71875,262055.53125,228170.828125,235088.328125,231988.140625,222623.203125,92411.0,1.0,2
234525.328125,251281.546875,269022.65625,262029.78125,227850.828125,235074.65625,231870.390625,222517.265625,92412.0,1.0,2
234669.015625,251456.515625,269128.34375,262130.359375,228154.8125,235144.75,232084.703125,222671.046875,92413.0,1.0,2
234792.296875,251612.078125,269221.78125,262208.15625,228662.015625,235193.65625,232333.78125,222863.53125,92414.0,1.0,2
234736.78125,251543.59375,269179.9375,262165.59375,228675.171875,235162.359375,232276.5625,222829.734375,92415.0,1.0,2
234585.328125,251351.71875,269064.6875,262063.9375,228180.828125,235096.828125,231997.890625,222620.34375,92416.0,1.0,2
234549.03125,251305.5,269030.4375,262043.90625,227863.703125,235083.59375,231883.171875,222517.703125,92417.0,1.0,2
234680.359375,251470.734375,269126.5625,262138.046875,228151.328125,235148.046875,232089.171875,222661.109375,92418.0,1.0,2
234808.65625,251631.5625,269230.25,262224.0625,228667.203125,235201.96875,232345.234375,222866.84375,92419.0,1.0,2
234740.359375,251547.265625,269179.75,262165.5,228677.578125,235157.0,232279.703125,222832.59375,92420.0,1.0,2
234577.015625,251342.703125,269050.5625,262049.546875,228172.515625,235082.515625,231988.40625,222613.46875,92421.0,1.0,2
234537.671875,251291.28125,269014.0625,262026.46875,227848.15625,235067.671875,231864.671875,222506.171875,92422.0,1.0,2
234669.453125,251454.71875,269114.375,262120.265625,228132.28125,235128.65625,232074.953125,222649.140625,92423.0,1.0,2
234793.546875,251608.140625,269214.78125,262206.1875,228649.5,235183.1875,232335.9375,222855.75,92424.0,1.0,2
234730.609375,251530.984375,269171.4375,262155.40625,228667.65625,235146.265625,232276.03125,222822.859375,92425.0,1.0,2
234565.296875,251325.984375,269042.96875,262037.5625,228162.140625,235074.296875,231984.75,222597.375,92426.0,1.0,2
234531.953125,251280.640625,269012.46875,262019.765625,227846.90625,235070.53125,231870.75,222499.46875,92427.0,1.0,2
234669.8125,251448.90625,269117.6875,262119.1875,228141.9375,235138.84375,232078.984375,222651.640625,92428.0,1.0,2
234796.0625,251607.609375,269221.6875,262205.09375,228655.578125,235190.96875,232338.796875,222854.953125,92429.0,1.0,2
234740.984375,251542.078125,269186.375,262162.5625,228680.53125,235161.90625,232285.953125,222830.71875,92430.0,1.0,2
234578.078125,251341.796875,269057.15625,262047.03125,228175.921875,235081.4375,231991.984375,222608.90625,92431.0,1.0,2
234534.359375,251289.140625,269016.21875,262020.84375,227845.296875,235065.96875,231868.78125,222501.25,92432.0,1.0,2
234660.515625,251445.15625,269107.6875,262110.15625,228119.046875,235121.140625,232064.40625,222640.375,92433.0,1.0,2
234789.625,251606.984375,269208.8125,262195.375,228634.3125,235169.328125,232321.890625,222845.5625,92434.0,1.0,2
234725.875,251531.171875,269166.5,262144.5,228659.96875,235131.25,232269.765625,222822.5,92435.0,1.0,2
234549.203125,251314.0,269028.375,262016.640625,228146.40625,235047.921875,231966.0625,222589.765625,92436.0,1.0,2
234535.96875,251288.421875,269020.15625,262018.6875,227839.921875,235065.625,231868.6875,222506.265625,92437.0,1.0,2
234690.109375,251472.15625,269142.09375,262133.046875,228141.5,235151.53125,232100.4375,222674.609375,92438.0,1.0,2
234807.671875,251620.390625,269236.96875,262209.5,228647.984375,235200.171875,232353.375,222868.71875,92439.0,1.0,2
234749.65625,251553.15625,269195.3125,262161.75,228682.3125,235167.0,232302.3125,222844.125,92440.0,1.0,2
234583.625,251344.75,269062.8125,262046.328125,228174.75,235083.5,231997.171875,222614.4375,92441.0,1.0,2
234534.453125,251279.9375,269018.28125,262018.25,227827.40625,235058.46875,231857.421875,222495.0,92442.0,1.0,2
234664.625,251443.375,269119.40625,262113.375,228106.984375,235121.046875,232063.421875,222645.109375,92443.0,1.0,2
234789.796875,251603.140625,269216.84375,262191.875,228621.515625,235172.28125,232322.796875,222846.8125,92444.0,1.0,2
234740.625,251547.078125,269186.0,262154.25,228670.78125,235148.765625,232287.125,222833.140625,92445.0,1.0,2
234582.109375,251349.484375,269062.8125,262047.125,228182.171875,235084.390625,232010.046875,222619.0,92446.0,1.0,2
234527.828125,251281.546875,269006.75,262010.921875,227832.5,235059.8125,231861.71875,222494.28125,92447.0,1.0,2
234648.09375,251430.765625,269091.15625,262094.59375,228092.765625,235110.953125,232048.3125,222624.640625,92448.0,1.0,2
234792.125,251612.96875,269208.4375,262195.4375,228625.984375,235182.296875,232334.328125,222843.859375,92449.0,1.0,2
234740.09375,251549.140625,269171.34375,262151.8125,228676.859375,235154.046875,232294.453125,222823.390625,92450.0,1.0,2
234577.359375,251343.859375,269042.875,262036.125,228179.84375,235070.796875,231992.703125,222600.234375,92451.0,1.0,2
234541.609375,251293.96875,269012.46875,262019.5,227844.125,235063.109375,231867.265625,222494.90625,92452.0,1.0,2
234664.0,251446.859375,269100.53125,262106.046875,228105.015625,235119.265625,232060.734375,222627.234375,92453.0,1.0,2
234797.671875,251616.109375,269208.4375,262195.4375,228631.890625,235177.375,232331.546875,222837.6875,92454.0,1.0,2
234749.46875,251557.359375,269181.28125,262159.34375,228688.484375,235152.34375,232299.8125,222829.828125,92455.0,1.0,2
234584.34375,251353.78125,269055.46875,262042.921875,228191.734375,235077.6875,232011.203125,222610.15625,92456.0,1.0,2
234529.53125,251281.71875,269007.46875,262009.9375,227836.609375,235053.546875,231867.265625,222484.71875,92457.0,1.0,2
234645.765625,251422.890625,269090.96875,262089.953125,228084.28125,235099.59375,232040.265625,222610.875,92458.0,1.0,2
234780.859375,251591.609375,269199.15625,262182.03125,228607.75,235159.40625,232308.03125,222826.875,92459.0,1.0,2
234731.953125,251534.296875,269162.9375,262139.84375,228663.09375,235133.03125,232274.875,222815.875,92460.0,1.0,2
234571.828125,251335.71875,269035.90625,262026.828125,228171.453125,235061.421875,231986.359375,222597.546875,92461.0,1.0,2
234537.84375,251288.25,269009.4375,262011.90625,227832.953125,235058.375,231861.265625,222494.734375,92462.0,1.0,2
234664.1875,251443.640625,269103.9375,262100.859375,228092.953125,235120.15625,232058.59375,222631.515625,92463.0,1.0,2
234802.671875,251615.828125,269214.25,262193.5,228618.484375,235177.90625,232330.125,222844.3125,92464.0,1.0,2
234754.921875,251559.15625,269181.0,262152.90625,228676.953125,235146.4375,232295.34375,222834.46875,92465.0,1.0,2
234588.28125,251354.671875,269050.1875,262033.453125,228184.140625,235071.4375,231999.578125,222610.875,92466.0,1.0,2
234545.0,251294.140625,269012.46875,262011.28125,227832.59375,235062.84375,231860.734375,222495.625,92467.0,1.0,2
234670.625,251449.453125,269107.25,262108.09375,228092.59375,235129.984375,232059.84375,222636.625,92468.0,1.0,2
234794.09375,251609.75,269202.0,262187.59375,228605.25,235181.84375,232319.578125,222832.234375,92469.0,1.0,2
234752.515625,251562.453125,269177.34375,262154.3125,228683.75,235158.25,232299.28125,222834.203125,92470.0,1.0,2
234577.71875,251348.5,269040.0,262028.34375,228189.859375,235072.0625,232005.578125,222610.25,92471.0,1.0,2
234532.3125,251286.8125,268998.25,261997.6875,227831.515625,235057.921875,231863.234375,222485.96875,92472.0,1.0,2
234650.328125,251434.96875,269088.5625,262083.25,228074.171875,235107.640625,232043.21875,222612.125,92473.0,1.0,2
234776.828125,251594.46875,269189.03125,262170.6875,228590.234375,235156.546875,232304.828125,222816.953125,92474.0,1.0,2
234730.96875,251541.890625,269158.46875,262130.0,228665.78125,235127.671875,232276.203125,222805.6875,92475.0,1.0,2
234567.984375,251335.8125,269031.25,262014.046875,228181.453125,235047.015625,231982.328125,222585.5625,92476.0,1.0,2
234521.671875,251268.84375,268989.5625,261990.796875,227821.328125,235034.328125,231839.375,222467.109375,92477.0,1.0,2
234665.609375,251441.3125,269097.21875,262100.234375,228086.0625,235112.015625,232045.09375,222619.359375,92478.0,1.0,2
234801.421875,251615.296875,269205.59375,262192.3125,228628.5,235175.859375,232323.6875,222835.8125,92479.0,1.0,2
234746.53125,251555.578125,269165.25,262146.375,228699.125,235139.109375,232289.984375,222822.046875,92480.0,1.0,2
234588.8125,251357.984375,269043.21875,262036.578125,228220.265625,235066.953125,232008.078125,222611.21875,92481.0,1.0,2
234529.984375,251284.21875,268991.53125,262000.71875,227851.375,235043.171875,231858.328125,222483.109375,92482.0,1.0,2
234650.328125,251432.453125,269079.4375,262090.671875,228087.84375,235097.71875,232042.765625,222612.03125,92483.0,1.0,2
234778.4375,251596.34375,269176.09375,262171.21875,228599.796875,235151.453125,232304.90625,222811.671875,92484.0,1.0,2
234744.109375,251556.46875,269153.5625,262141.1875,228686.15625,235139.734375,232296.234375,222816.328125,92485.0,1.0,2
234585.140625,251358.796875,269030.78125,262031.75,228205.0625,235073.578125,232017.46875,222604.25,92486.0,1.0,2
234527.125,251285.125,268982.34375,261997.859375,227836.34375,235053.1875,231865.46875,222481.578125,92487.0,1.0,2
234653.71875,251438.0,269079.6875,262090.484375,228074.625,235117.390625,232051.625,222614.625,92488.0,1.0,2
234786.671875,251604.921875,269185.46875,262180.53125,228595.765625,235169.234375,232322.796875,222821.78125,92489.0,1.0,2
234736.15625,251547.265625,269146.40625,262136.53125,228668.90625,235130.625,232291.765625,222808.546875,92490.0,1.0,2
234584.34375,251359.5,269033.3125,262028.4375,228206.3125,235068.296875,232017.28125,222601.03125,92491.0,1.0,2
234511.75,251264.640625,268970.625,261976.671875,227821.859375,235028.875,231838.03125,222453.0625,92492.0,1.0,2
234645.578125,251421.640625,269079.0,262077.25,228068.984375,235102.09375,232033.109375,222590.84375,92493.0,1.0,2
234798.109375,251610.296875,269208.34375,262182.5,228616.609375,235176.125,232324.484375,222814.984375,92494.0,1.0,2
234765.5625,251573.28125,269188.6875,262153.625,228720.9375,235154.484375,232311.171875,222820.4375,92495.0,1.0,2
234592.03125,251358.609375,269053.59375,262032.734375,228239.125,235067.765625,232012.28125,222596.5625,92496.0,1.0,2
234525.421875,251277.15625,268996.1875,261994.734375,227860.046875,235042.734375,231855.015625,222468.0,92497.0,1.0,2
234648.53125,251428.890625,269083.375,262083.421875,228083.828125,235099.59375,232038.296875,222599.25,92498.0,1.0,2
234785.6875,251598.21875,269187.0625,262176.6875,228603.1875,235160.84375,232314.03125,222813.734375,92499.0,1.0,2
234749.46875,251555.484375,269159.1875,262143.59375,228695.109375,235140.625,232306.875,222822.3125,92500.0,1.0,2
234584.34375,251351.640625,269025.25,262022.625,228213.921875,235060.875,232015.671875,222606.046875,92501.0,1.0,2
234524.53125,251273.234375,268970.8125,261980.78125,227829.734375,235037.71875,231851.703125,222467.109375,92502.0,1.0,2
234645.671875,251422.171875,269064.84375,262069.125,228053.875,235100.21875,232032.484375,222590.21875,92503.0,1.0,2
234783.890625,251598.9375,269181.53125,262161.46875,228585.046875,235161.28125,232311.171875,222804.078125,92504.0,1.0,2
234752.25,251563.171875,269172.3125,262138.328125,228697.609375,235143.9375,232308.75,222818.65625,92505.0,1.0,2
234589.796875,251361.296875,269051.96875,262022.09375,228232.875,235070.984375,232028.46875,222605.859375,92506.0,1.0,2
234521.3125,251276.0,268995.03125,261982.21875,227850.46875,235046.390625,231869.3125,222467.1875,92507.0,1.0,2
234632.0,251413.421875,269072.375,262059.375,228063.703125,235103.171875,232031.953125,222580.296875,92508.0,1.0,2
234771.640625,251588.828125,269182.0625,262155.5,228601.046875,235164.859375,232300.265625,222798.53125,92509.0,1.0,2
234741.078125,251550.5625,269164.71875,262128.21875,228719.421875,235147.25,232292.84375,222810.78125,92510.0,1.0,2
234576.109375,251340.734375,269034.46875,262007.96875,228248.25,235066.0625,231995.5625,222592.0,92511.0,1.0,2
234515.234375,251258.5625,268983.5,261975.25,227865.5,235044.515625,231833.28125,222461.921875,92512.0,1.0,2
234628.15625,251400.453125,269067.4375,262059.46875,228077.5625,235101.5625,232010.046875,222583.78125,92513.0,1.0,2
234777.8125,251589.109375,269185.28125,262162.8125,228614.09375,235173.078125,232301.15625,222809.265625,92514.0,1.0,2
234747.78125,251557.265625,269165.09375,262139.390625,228725.859375,235154.84375,232306.609375,222826.34375,92515.0,1.0,2
234575.84375,251346.09375,269030.78125,262015.921875,228250.578125,235072.234375,232019.703125,222611.21875,92516.0,1.0,2
234508.171875,251260.625,268972.21875,261974.609375,227851.09375,235051.3125,231854.5625,222474.515625,92517.0,1.0,2
234631.8125,251414.9375,269066.375,262066.703125,228064.609375,235108.890625,232034.28125,222607.921875,92518.0,1.0,2
234789.0,251607.515625,269192.71875,262178.1875,228609.546875,235184.4375,232330.75,222846.28125,92519.0,1.0,2
234752.0625,251566.484375,269163.65625,262141.984375,228719.6875,235158.328125,232325.390625,222854.40625,92520.0,1.0,2
234580.140625,251357.53125,269027.65625,262016.8125,228240.109375,235070.265625,232030.609375,222634.828125,92521.0,1.0,2
234505.125,251265.71875,268968.125,261969.609375,227833.671875,235038.4375,231858.765625,222491.59375,92522.0,1.0,2
234630.828125,251418.421875,269071.28125,262067.515625,228047.53125,235108.265625,232044.46875,222623.296875,92523.0,1.0,2
234777.90625,251606.984375,269192.34375,262168.1875,228578.34375,235175.765625,232331.90625,222844.578125,92524.0,1.0,2
234753.3125,251581.0625,269180.71875,262142.703125,228701.625,235159.671875,232334.953125,222862.8125,92525.0,1.0,2
234587.46875,251373.359375,269055.1875,262023.171875,228234.484375,235078.578125,232045.984375,222654.234375,92526.0,1.0,2
234510.140625,251277.15625,268995.46875,261974.4375,227828.296875,235049.703125,231867.984375,222507.875,92527.0,1.0,2
234626.09375,251423.15625,269090.34375,262063.9375,228040.46875,235106.484375,232036.421875,222632.859375,92528.0,1.0,2
234775.40625,251609.9375,269214.96875,262169.0625,228582.453125,235177.90625,232324.125,222861.296875,92529.0,1.0,2
234738.5625,251570.5,269189.5,262135.734375,228697.609375,235151.09375,232319.296875,222874.078125,92530.0,1.0,2
234569.765625,251365.234375,269054.125,262011.71875,228232.15625,235073.671875,232029.171875,222657.984375,92531.0,1.0,2
234490.375,251265.1875,268983.21875,261959.15625,227825.890625,235038.703125,231844.734375,222503.84375,92532.0,1.0,2
234620.015625,251422.0,269083.1875,262060.8125,228044.84375,235114.875,232032.578125,222641.359375,92533.0,1.0,2
234783.984375,251623.796875,269215.59375,262176.21875,228597.828125,235197.5,232334.234375,222883.46875,92534.0,1.0,2
234752.34375,251588.203125,269189.65625,262144.40625,228724.515625,235169.6875,232332.453125,222898.84375,92535.0,1.0,2
234584.515625,251380.0625,269054.3125,262023.34375,228259.328125,235087.96875,232047.5,222679.4375,92536.0,1.0,2
234512.640625,251289.140625,268990.46875,261979.09375,227852.0,235054.359375,231872.8125,222533.0,92537.0,1.0,2
234624.125,251424.5,269066.125,262059.546875,228037.328125,235104.6875,232032.671875,222640.90625,92538.0,1.0,2
234769.859375,251606.984375,269179.46875,262160.40625,228570.5625,235170.671875,232320.5625,222863.71875,92539.0,1.0,2
234743.3125,251578.734375,269157.125,262129.375,228702.171875,235147.96875,232332.0,222883.921875,92540.0,1.0,2
234577.90625,251373.8125,269028.46875,262011.71875,228240.828125,235070.625,232048.671875,222669.703125,92541.0,1.0,2
234498.953125,251273.578125,268961.78125,261961.390625,227823.75,235036.296875,231862.34375,222519.9375,92542.0,1.0,2
234603.65625,251406.890625,269041.78125,262040.0625,228006.3125,235082.875,232013.71875,222630.0,92543.0,1.0,2
234768.515625,251611.09375,269178.40625,262158.25,228557.328125,235164.40625,232311.796875,222868.625,92544.0,1.0,2
234757.078125,251598.671875,269176.53125,262145.21875,228710.75,235159.3125,232333.15625,222901.4375,92545.0,1.0,2
234593.453125,251392.40625,269048.9375,262027.28125,228262.109375,235086.71875,232054.21875,222689.546875,92546.0,1.0,2
234511.921875,251286.28125,268976.96875,261971.671875,227839.921875,235041.484375,231858.671875,222527.625,92547.0,1.0,2
234625.015625,251424.859375,269059.40625,262053.46875,228024.109375,235092.171875,232014.96875,222635.546875,92548.0,1.0,2
234772.984375,251611.09375,269173.5,262153.4375,228558.484375,235156.71875,232296.59375,222852.890625,92549.0,1.0,2
234753.046875,251586.328125,269156.6875,262131.34375,228704.765625,235142.515625,232309.109375,222874.703125,92550.0,1.0,2
234590.15625,251382.03125,269026.5,262014.84375,228251.109375,235066.6875,232028.546875,222662.28125,92551.0,1.0,2
234521.046875,251295.21875,268968.21875,261973.546875,227840.8125,235046.390625,231856.796875,222523.25,92552.0,1.0,2
234633.875,251432.453125,269050.8125,262057.9375,228023.828125,235102.453125,232017.28125,222638.578125,92553.0,1.0,2
234776.125,251610.296875,269160.78125,262153.53125,228550.4375,235162.265625,232293.203125,222847.890625,92554.0,1.0,2
234749.65625,251582.9375,269141.65625,262123.390625,228690.8125,235138.84375,232302.859375,222860.84375,92555.0,1.0,2
234600.796875,251394.90625,269030.78125,262020.84375,228253.609375,235078.578125,232042.5,222664.6875,92556.0,1.0,2
234519.515625,251290.296875,268960.6875,261964.15625,227823.5625,235041.75,231847.421875,222503.84375,92557.0,1.0,2
234633.6875,251429.78125,269049.40625,262047.578125,228002.90625,235103.890625,232007.28125,222617.03125,92558.0,1.0,2
234782.640625,251617.53125,269172.25,262149.40625,228538.375,235171.5625,232295.25,222839.03125,92559.0,1.0,2
234762.890625,251595.984375,269163.84375,262127.328125,228694.75,235154.484375,232315.28125,222867.828125,92560.0,1.0,2
234601.0625,251390.796875,269037.5,262014.140625,228247.171875,235076.53125,232038.03125,222661.65625,92561.0,1.0,2
234521.390625,251285.125,268968.75,261961.75,227821.0625,235045.5,231847.59375,222503.9375,92562.0,1.0,2
234627.25,251414.9375,269048.59375,262039.171875,227990.578125,235099.0625,231998.515625,222606.21875,92563.0,1.0,2
234787.828125,251614.578125,269178.9375,262148.34375,228535.25,235177.109375,232296.59375,222836.625,92564.0,1.0,2
234774.421875,251602.25,269172.78125,262129.46875,228699.578125,235164.59375,232319.484375,222871.765625,92565.0,1.0,2
234608.21875,251397.328125,269044.90625,262012.890625,228259.421875,235083.859375,232039.90625,222665.9375,92566.0,1.0,2
234523.8125,251289.140625,268979.125,261961.65625,227835.359375,235054.4375,231849.03125,222510.375,92567.0,1.0,2
234633.96875,251427.28125,269067.09375,262045.875,228007.109375,235111.21875,232002.625,222616.59375,92568.0,1.0,2
234790.25,251624.15625,269195.84375,262155.3125,228549.015625,235179.96875,232295.703125,222845.109375,92569.0,1.0,2
234772.1875,251603.859375,269185.90625,262134.5625,228717.453125,235158.78125,232319.296875,222881.6875,92570.0,1.0,2
234600.703125,251389.28125,269049.40625,262007.96875,228271.5,235076.34375,232035.078125,222669.96875,92571.0,1.0,2
234517.640625,251279.9375,268976.71875,261956.109375,227839.75,235044.96875,231844.28125,222513.5,92572.0,1.0,2
234628.59375,251417.703125,269055.65625,262039.703125,228002.90625,235102.0,231997.4375,222619.546875,92573.0,1.0,2
234778.0,251608.328125,269170.71875,262139.578125,228535.78125,235169.328125,232282.921875,222838.953125,92574.0,1.0,2
234759.125,251590.0,269159.8125,262118.828125,228698.5,235155.109375,232307.765625,222867.28125,92575.0,1.0,2
234587.65625,251379.0,269027.5625,261994.46875,228257.28125,235070.09375,232029.53125,222658.609375,92576.0,1.0,2
234518.171875,251284.84375,268973.40625,261953.0625,227843.765625,235050.59375,231852.328125,222515.5625,92577.0,1.0,2
234627.53125,251417.4375,269053.40625,262030.9375,228000.5,235102.640625,231992.796875,222608.09375,92578.0,1.0,2
234787.734375,251617.796875,269183.0625,262144.3125,228546.0625,235180.234375,232287.828125,222834.5625,92579.0,1.0,2
234781.75,251613.0625,269182.6875,262134.75,228725.328125,235171.5625,232326.015625,222873.453125,92580.0,1.0,2
234608.921875,251401.96875,269046.71875,262010.375,228280.4375,235083.40625,232044.734375,222659.234375,92581.0,1.0,2
234526.3125,251296.296875,268975.4375,261958.875,227852.703125,235059.1875,231854.296875,222504.109375,92582.0,1.0,2
234632.0,251428.609375,269051.09375,262038.546875,228013.015625,235112.921875,232001.734375,222607.203125,92583.0,1.0,2
234767.890625,251607.96875,269157.03125,262126.609375,228529.96875,235165.9375,232274.515625,222817.75,92584.0,1.0,2
234764.9375,251605.109375,269161.875,262119.09375,228717.453125,235158.328125,232312.953125,222865.5,92585.0,1.0,2
234605.078125,251404.75,269034.90625,262004.296875,228287.3125,235079.828125,232036.875,222661.734375,92586.0,1.0,2
234501.375,251276.171875,268943.53125,261932.859375,227833.9375,235030.484375,231823.0,222483.90625,92587.0,1.0,2
234613.578125,251411.984375,269023.71875,262019.046875,227986.546875,235092.625,231974.8125,222586.1875,92588.0,1.0,2
234770.484375,251610.203125,269142.71875,262127.765625,228522.546875,235163.515625,232267.359375,222811.671875,92589.0,1.0,2
234757.609375,251598.21875,269132.90625,262112.578125,228700.828125,235146.625,232299.28125,222846.28125,92590.0,1.0,2
234600.171875,251399.828125,269008.96875,261999.203125,228268.0,235071.703125,232028.640625,222643.40625,92591.0,1.0,2
234510.9375,251288.96875,268934.78125,261940.015625,227822.765625,235035.75,231829.078125,222479.171875,92592.0,1.0,2
234607.765625,251411.1875,269004.34375,262014.671875,227961.078125,235086.71875,231972.046875,222573.9375,92593.0,1.0,2
234763.328125,251604.5625,269127.4375,262125.453125,228499.296875,235164.765625,232272.453125,222806.21875,92594.0,1.0,2
234757.515625,251596.703125,269125.375,262114.453125,228686.609375,235151.625,232311.609375,222846.90625,92595.0,1.0,2
234591.84375,251395.09375,268997.28125,261994.640625,228254.328125,235066.953125,232036.953125,222642.15625,92596.0,1.0,2
234503.515625,251280.015625,268931.65625,261939.921875,227816.234375,235028.78125,231838.390625,222485.078125,92597.0,1.0,2
234604.1875,251401.96875,269015.6875,262019.59375,227956.78125,235080.640625,231977.5,222581.625,92598.0,1.0,2
234744.375,251582.578125,269131.75,262115.171875,228480.53125,235139.015625,232256.71875,222797.546875,92599.0,1.0,2
234730.796875,251572.46875,269130.9375,262100.0625,228672.484375,235130.4375,232296.6875,222836.4375,92600.0,1.0,2
234573.515625,251379.0,269013.625,261990.0,228258.96875,235057.03125,232032.484375,222643.6875,92601.0,1.0,2
234500.921875,251285.03125,268957.125,261946.359375,227828.296875,235040.5,231846.875,222492.3125,92602.0,1.0,2
234603.5625,251411.359375,269038.3125,262029.421875,227971.359375,235097.984375,231989.296875,222596.03125,92603.0,1.0,2
234744.375,251592.859375,269149.96875,262123.125,228496.34375,235159.9375,232272.71875,222813.28125,92604.0,1.0,2
234725.421875,251573.1875,269138.53125,262096.484375,228683.84375,235140.359375,232299.453125,222841.984375,92605.0,1.0,2
234591.40625,251401.078125,269038.125,262004.390625,228290.171875,235083.328125,232049.65625,222668.265625,92606.0,1.0,2
234502.359375,251283.78125,268964.46875,261947.796875,227845.296875,235048.1875,231847.765625,222504.390625,92607.0,1.0,2
234592.5625,251393.5625,269028.5625,262011.453125,227965.1875,235091.640625,231972.9375,222580.375,92608.0,1.0,2
234744.828125,251585.25,269145.78125,262113.734375,228493.21875,235157.703125,232260.65625,222799.34375,92609.0,1.0,2
234742.953125,251585.796875,269145.0625,262104.875,228696.796875,235149.578125,232308.03125,222850.75,92610.0,1.0,2
234589.078125,251391.328125,269022.5625,261991.875,228283.828125,235076.265625,232043.484375,222656.734375,92611.0,1.0,2
234498.0625,251273.140625,268944.875,261931.96875,227824.28125,235037.640625,231834.359375,222483.375,92612.0,1.0,2
234590.875,251386.0625,269010.78125,262000.984375,227932.8125,235080.453125,231955.5,222558.75,92613.0,1.0,2
234751.984375,251582.671875,269137.8125,262114.625,228463.8125,235150.203125,232246.890625,222785.03125,92614.0,1.0,2
234746.34375,251580.515625,269138.0,262104.703125,228670.515625,235136.15625,232296.78125,222838.3125,92615.0,1.0,2
234587.921875,251388.390625,269016.125,261991.78125,228261.75,235066.875,232039.640625,222646.71875,92616.0,1.0,2
234495.46875,251270.640625,268936.46875,261927.046875,227802.203125,235031.640625,231827.828125,222471.9375,92617.0,1.0,2
234616.4375,251411.625,269029.28125,262022.890625,227943.453125,235108.984375,231977.953125,222578.59375,92618.0,1.0,2
234763.875,251596.609375,269141.125,262118.5625,228468.71875,235166.65625,232258.234375,222794.6875,92619.0,1.0,2
234753.953125,251590.984375,269138.09375,262105.421875,228676.328125,235152.609375,232309.203125,222844.125,92620.0,1.0,2
234590.78125,251394.1875,269010.9375,261984.8125,228262.015625,235072.234375,232041.875,222642.421875,92621.0,1.0,2
234496.984375,251274.125,268930.84375,261920.25,227802.109375,235027.265625,231823.90625,222468.984375,92622.0,1.0,2
234594.71875,251390.625,268996.46875,261993.21875,227913.5,235074.5625,231943.703125,222548.90625,92623.0,1.0,2
234751.265625,251585.96875,269118.6875,262102.015625,228441.8125,235141.703125,232232.671875,222771.71875,92624.0,1.0,2
234763.421875,251603.9375,269136.375,262111.3125,228674.546875,235145.640625,232305.359375,222841.09375,92625.0,1.0,2
234610.890625,251415.03125,269022.375,262007.421875,228280.796875,235077.421875,232055.109375,222655.84375,92626.0,1.0,2
234500.125,251277.96875,268931.1875,261929.375,227806.9375,235022.875,231829.171875,222468.171875,92627.0,1.0,2
234602.578125,251402.0625,269012.75,262008.859375,227926.921875,235085.90625,231961.859375,222561.0625,92628.0,1.0,2
234749.75,251589.8125,269127.96875,262105.515625,228448.34375,235142.953125,232239.46875,222778.328125,92629.0,1.0,2
234762.265625,251606.0,269146.9375,262106.046875,228678.5625,235148.046875,232303.84375,222845.03125,92630.0,1.0,2
234599.265625,251405.90625,269023.90625,261989.09375,228278.203125,235072.953125,232043.390625,222651.453125,92631.0,1.0,2
234498.0625,251276.0,268940.21875,261921.859375,227815.875,235030.21875,231827.65625,222474.875,92632.0,1.0,2
234592.75,251389.640625,269008.71875,261992.9375,227920.21875,235079.296875,231949.34375,222554.0,92633.0,1.0,2
234744.640625,251581.765625,269129.59375,262098.984375,228444.9375,235147.421875,232242.234375,222777.25,92634.0,1.0,2
234748.21875,251592.40625,269139.0625,262097.8125,228673.203125,235150.375,232311.890625,222840.5625,92635.0,1.0,2
234586.75,251395.09375,269014.78125,261985.34375,228275.421875,235072.765625,232050.09375,222654.953125,92636.0,1.0,2
234485.546875,251264.734375,268928.96875,261918.5625,227813.8125,235019.484375,231828.8125,222481.046875,92637.0,1.0,2
234568.515625,251365.765625,268984.21875,261972.5625,227906.796875,235051.9375,231935.84375,222545.6875,92638.0,1.0,2
234728.734375,251565.59375,269113.75,262085.03125,228436.09375,235129.984375,232233.390625,222769.390625,92639.0,1.0,2
234748.9375,251591.15625,269138.625,262098.625,228684.1875,235152.703125,232315.1875,222847.53125,92640.0,1.0,2
234593.453125,251401.078125,269018.53125,261986.328125,228290.890625,235077.59375,232054.21875,222658.515625,92641.0,1.0,2
234488.859375,251265.453125,268932.53125,261914.890625,227817.03125,235023.0625,231819.703125,222471.75,92642.0,1.0,2
234573.4375,251366.5625,268995.375,261976.859375,227905.640625,235066.953125,231924.578125,222540.5,92643.0,1.0,2
234736.78125,251569.4375,269127.96875,262092.015625,228439.84375,235148.3125,232230.515625,222768.671875,92644.0,1.0,2
234743.390625,251580.34375,269137.28125,262086.109375,228675.515625,235140.09375,232297.84375,222831.078125,92645.0,1.0,2
234577.90625,251376.3125,269003.96875,261962.28125,228267.296875,235052.921875,232021.21875,222627.234375,92646.0,1.0,2
234476.78125,251246.671875,268918.5,261895.9375,227798.171875,235008.3125,231796.1875,222448.0625,92647.0,1.0,2
234591.578125,251382.75,269010.78125,261988.65625,227919.9375,235081.71875,231939.5,222552.75,92648.0,1.0,2
234760.921875,251593.578125,269148.90625,262108.09375,228457.015625,235168.796875,232247.25,222789.328125,92649.0,1.0,2
234762.265625,251602.421875,269152.5625,262099.515625,228691.078125,235158.609375,232311.609375,222848.953125,92650.0,1.0,2
234598.28125,251400.8125,269024.28125,261979.171875,228298.046875,235078.046875,232049.03125,222655.921875,92651.0,1.0,2
234505.21875,251279.484375,268943.53125,261919.09375,227826.25,235042.1875,231827.390625,222475.6875,92652.0,1.0,2
234593.375,251392.140625,269002.375,261985.25,227904.125,235084.578125,231936.109375,222542.296875,92653.0,1.0,2
234747.234375,251586.421875,269116.71875,262090.578125,228421.515625,235157.796875,232226.953125,222762.140625,92654.0,1.0,2
234758.6875,251605.109375,269127.625,262095.3125,228672.75,235161.828125,232307.40625,222839.03125,92655.0,1.0,2
234609.90625,251418.875,269007.5625,261987.046875,228291.4375,235094.671875,232064.046875,222659.953125,92656.0,1.0,2
234500.296875,251276.890625,268911.96875,261907.734375,227804.78125,235050.15625,231833.109375,222468.984375,92657.0,1.0,2
234587.203125,251381.046875,268973.75,261972.921875,227881.59375,235093.6875,231940.390625,222537.015625,92658.0,1.0,2
234744.640625,251579.265625,269100.4375,262082.078125,228403.1875,235162.171875,232229.359375,222756.953125,92659.0,1.0,2
234758.6875,251598.75,269120.375,262083.78125,228649.6875,235156.90625,232302.046875,222823.921875,92660.0,1.0,2
234600.796875,251401.890625,269004.78125,261971.9375,228268.359375,235083.234375,232046.796875,222634.203125,92661.0,1.0,2
234495.296875,251269.109375,268927.09375,261903.53125,227797.640625,235041.203125,231819.15625,222453.875,92662.0,1.0,2
234576.65625,251368.796875,268990.90625,261964.78125,227869.703125,235084.125,231915.8125,222512.34375,92663.0,1.0,2
234734.984375,251568.453125,269119.3125,262070.546875,228400.421875,235157.4375,232207.90625,222737.109375,92664.0,1.0,2
234758.5,251598.046875,269150.6875,262085.578125,228675.609375,235169.515625,232304.1875,222828.125,92665.0,1.0,2
234606.953125,251408.5,269034.0,261972.828125,228300.109375,235091.90625,232050.453125,222644.75,92666.0,1.0,2
234497.796875,251270.640625,268942.71875,261897.640625,227814.171875,235042.109375,231814.609375,222452.4375,92667.0,1.0,2
234584.78125,251375.15625,269005.84375,261965.5,227888.03125,235093.421875,231920.546875,222523.34375,92668.0,1.0,2
234739.28125,251570.953125,269124.9375,262071.796875,228403.1875,235162.171875,232207.359375,222742.828125,92669.0,1.0,2
234764.3125,251605.1875,269147.03125,262083.15625,228674.71875,235167.984375,232298.390625,222829.5625,92670.0,1.0,2
234614.03125,251420.75,269030.71875,261976.140625,228305.734375,235096.109375,232057.15625,222653.25,92671.0,1.0,2
234501.1875,251279.671875,268935.03125,261899.875,227815.15625,235050.15625,231821.390625,222458.515625,92672.0,1.0,2
234572.0,251364.78125,268983.6875,261952.09375,227866.125,235077.0625,231907.671875,222506.171875,92673.0,1.0,2
234728.734375,251560.21875,269106.875,262060.625,228382.796875,235141.53125,232202.09375,222727.546875,92674.0,1.0,2
234750.015625,251586.859375,269126.09375,262067.59375,228649.6875,235139.375,232280.5,222806.3125,92675.0,1.0,2
234607.671875,251407.875,269015.25,261967.28125,228288.921875,235072.234375,232040.0,222633.046875,92676.0,1.0,2
234517.28125,251288.78125,268943.25,261911.578125,227825.796875,235045.140625,231830.875,222467.640625,92677.0,1.0,2
234595.703125,251383.015625,268998.875,261969.875,227877.03125,235079.484375,231922.96875,222524.046875,92678.0,1.0,2
234761.546875,251589.1875,269131.03125,262085.75,228401.671875,235153.5,232220.59375,222754.90625,92679.0,1.0,2
234779.15625,251614.765625,269151.59375,262092.8125,228674.453125,235151.8125,232308.03125,222838.234375,92680.0,1.0,2
234620.28125,251424.5,269026.40625,261976.765625,228303.859375,235070.171875,232055.375,222653.421875,92681.0,1.0,2
234508.96875,251283.78125,268931.1875,261899.609375,227815.15625,235022.609375,231821.84375,222461.828125,92682.0,1.0,2
234579.328125,251369.875,268978.03125,261952.890625,227860.3125,235059.359375,231907.3125,222508.765625,92683.0,1.0,2
234744.734375,251574.171875,269108.9375,262071.4375,228382.453125,235138.390625,232201.46875,222734.515625,92684.0,1.0,2
234773.078125,251610.203125,269134.96875,262083.6875,228667.828125,235149.125,232301.0625,222825.984375,92685.0,1.0,2
234619.5625,251422.53125,269016.21875,261972.46875,228305.46875,235076.078125,232058.953125,222647.796875,92686.0,1.0,2
234508.078125,251278.6875,268924.3125,261900.3125,227812.484375,235023.953125,231818.984375,222457.09375,92687.0,1.0,2
234590.421875,251377.46875,268983.6875,261966.21875,227874.796875,235070.453125,231918.140625,222524.234375,92688.0,1.0,2
234747.0625,251576.859375,269098.125,262071.09375,228388.34375,235136.875,232206.734375,222742.390625,92689.0,1.0,2
234745.625,251580.421875,269086.75,262054.90625,228627.421875,235108.4375,232262.0,222792.0,92690.0,1.0,2
234604.90625,251404.65625,268980.71875,261959.78125,228281.78125,235057.84375,232034.359375,222630.71875,92691.0,1.0,2
234494.21875,251267.234375,268888.46875,261889.40625,227797.453125,235024.21875,231804.671875,222437.328125,92692.0,1.0,2
234567.171875,251357.71875,268937.0,261944.671875,227841.09375,235068.03125,231896.59375,222485.96875,92693.0,1.0,2
234726.765625,251555.390625,269058.15625,262052.765625,228359.640625,235129.8125,232180.8125,222706.71875,92694.0,1.0,2
234745.984375,251582.578125,269079.625,262058.484375,228641.546875,235127.21875,232269.234375,222788.609375,92695.0,1.0,2
234598.828125,251400.625,268970.4375,261950.75,228289.828125,235051.9375,232030.15625,222611.578125,92696.0,1.0,2
234494.671875,251264.546875,268890.6875,261883.15625,227806.046875,235012.875,231802.0,222430.625,92697.0,1.0,2
234589.890625,251380.15625,268971.78125,261964.515625,227876.140625,235077.234375,231917.59375,222515.5625,92698.0,1.0,2
234745.71875,251576.140625,269091.9375,262072.25,228391.296875,235147.0625,232207.640625,222740.0625,92699.0,1.0,2
234768.78125,251608.859375,269109.90625,262077.796875,228671.671875,235145.546875,232301.609375,222822.859375,92700.0,1.0,2
234614.734375,251419.40625,268987.25,261964.875,228314.671875,235073.75,232060.296875,222642.78125,92701.0,1.0,2
234498.875,251272.25,268888.375,261889.59375,227816.765625,235027.171875,231825.515625,222452.890625,92702.0,1.0,2
234568.78125,251357.1875,268931.65625,261941.09375,227845.296875,235061.328125,231908.921875,222501.875,92703.0,1.0,2
234733.46875,251563.53125,269055.90625,262053.921875,228360.09375,235139.296875,232208.53125,222723.078125,92704.0,1.0,2
234756.984375,251598.578125,269075.9375,262064.828125,228647.984375,235140.71875,232304.46875,222811.671875,92705.0,1.0,2
234608.75,251411.0,268961.3125,261956.109375,228301.09375,235065.96875,232062.796875,222640.1875,92706.0,1.0,2
234501.640625,251275.46875,268875.75,261887.265625,227808.984375,235017.15625,231823.984375,222453.78125,92707.0,1.0,2
234571.640625,251363.34375,268924.125,261938.671875,227832.234375,235051.3125,231900.796875,222496.421875,92708.0,1.0,2
234733.828125,251565.140625,269051.34375,262048.109375,228347.3125,235128.828125,232199.859375,222718.0625,92709.0,1.0,2
234767.265625,251610.375,269089.1875,262067.875,228652.8125,235144.75,232310.453125,222818.109375,92710.0,1.0,2
234616.53125,251424.140625,268977.78125,261954.140625,228306.8125,235062.484375,232066.015625,222642.875,92711.0,1.0,2
234503.421875,251277.78125,268889.71875,261878.765625,227810.515625,235011.171875,231819.703125,222447.96875,92712.0,1.0,2
234582.109375,251368.453125,268952.125,261944.484375,227840.46875,235058.203125,231903.734375,222499.921875,92713.0,1.0,2
234740.359375,251567.46875,269082.46875,262057.59375,228358.21875,235138.21875,232197.796875,222728.96875,92714.0,1.0,2
234763.515625,251604.03125,269112.0625,262066.96875,228657.734375,235148.234375,232300.96875,222826.25,92715.0,1.0,2
234614.734375,251422.8125,269001.8125,261958.25,228320.9375,235078.046875,232069.40625,222657.359375,92716.0,1.0,2
234497.609375,251273.9375,268911.96875,261880.296875,227828.921875,235036.203125,231832.65625,222466.203125,92717.0,1.0,2
234558.234375,251344.125,268952.46875,261924.28125,227835.71875,235059.0,231890.859375,222497.59375,92718.0,1.0,2
234714.703125,251539.03125,269073.71875,262031.65625,228337.203125,235126.140625,232172.9375,222707.609375,92719.0,1.0,2
234751.890625,251584.1875,269105.1875,262051.859375,228640.5625,235134.1875,232282.734375,222799.609375,92720.0,1.0,2
234602.671875,251399.46875,268982.15625,261938.140625,228297.875,235056.234375,232044.5625,222619.09375,92721.0,1.0,2
234481.703125,251246.5,268878.625,261853.46875,227787.4375,235000.796875,231793.6875,222415.78125,92722.0,1.0,2
234556.625,251336.078125,268937.46875,261917.671875,227818.203125,235047.203125,231881.84375,222475.328125,92723.0,1.0,2
234720.59375,251542.96875,269065.03125,262032.1875,228326.03125,235122.484375,232174.90625,222698.75,92724.0,1.0,2
234752.875,251587.140625,269093.65625,262044.984375,228625.90625,235126.140625,232277.46875,222791.5625,92725.0,1.0,2
234616.53125,251414.21875,268988.6875,261947.703125,228305.28125,235067.765625,232061.546875,222635.71875,92726.0,1.0,2
234502.984375,251264.546875,268895.4375,261872.15625,227805.140625,235025.75,231823.1875,222442.875,92727.0,1.0,2
234569.59375,251345.828125,268944.875,261923.203125,227811.578125,235058.5625,231893.8125,222481.578125,92728.0,1.0,2
234725.328125,251544.84375,269065.40625,262028.96875,228306.09375,235119.4375,232172.859375,222690.796875,92729.0,1.0,2
234756.890625,251590.171875,269094.71875,262043.8125,228616.15625,235119.0,232282.375,222788.078125,92730.0,1.0,2
234602.765625,251404.03125,268982.34375,261931.25,228287.9375,235049.609375,232054.84375,222619.71875,92731.0,1.0,2
234505.84375,251275.1875,268912.875,261873.140625,227802.109375,235028.25,231826.84375,222443.5,92732.0,1.0,2
234571.5625,251357.71875,268962.9375,261924.8125,227810.421875,235067.9375,231899.265625,222488.375,92733.0,1.0,2
234727.84375,251553.609375,269089.09375,262035.59375,228313.953125,235141.078125,232192.078125,222710.828125,92734.0,1.0,2
234764.9375,251605.1875,269123.40625,262053.46875,228632.96875,235153.59375,232306.703125,222812.125,92735.0,1.0,2
234612.953125,251419.140625,269004.34375,261941.53125,228309.765625,235077.59375,232072.1875,222642.609375,92736.0,1.0,2
234479.109375,251251.6875,268892.9375,261849.453125,227789.859375,235008.21875,231804.671875,222428.390625,92737.0,1.0,2
234555.734375,251345.015625,268951.5,261912.03125,227799.515625,235052.5625,231881.84375,222477.03125,92738.0,1.0,2
234718.625,251549.859375,269085.59375,262030.5,228313.875,235133.296875,232186.265625,222712.171875,92739.0,1.0,2
234753.046875,251593.125,269117.15625,262049.0,228628.9375,235132.3125,232296.140625,222812.296875,92740.0,1.0,2
234609.546875,251416.90625,269000.9375,261947.4375,228305.5625,235060.171875,232066.640625,222648.78125,92741.0,1.0,2
234486.078125,251261.25,268893.65625,261864.5625,227793.875,235005.265625,231814.0625,222448.328125,92742.0,1.0,2
234545.0,251332.234375,268925.125,261905.0625,227781.546875,235034.234375,231870.03125,222475.859375,92743.0,1.0,2
234699.765625,251524.546875,269036.78125,262006.171875,228266.484375,235097.71875,232149.78125,222682.484375,92744.0,1.0,2
234746.53125,251582.578125,269078.09375,262031.921875,228592.546875,235113.265625,232280.234375,222791.828125,92745.0,1.0,2
234606.609375,251408.140625,268973.9375,261931.078125,228278.015625,235043.984375,232059.9375,222631.96875,92746.0,1.0,2
234495.203125,251265.8125,268886.65625,261857.046875,227776.625,235005.984375,231816.03125,222442.96875,92747.0,1.0,2
234567.71875,251348.859375,268943.96875,261915.875,227771.703125,235053.015625,231884.875,222483.828125,92748.0,1.0,2
234727.296875,251550.921875,269072.5625,262027.09375,228271.9375,235129.90625,232181.34375,222705.28125,92749.0,1.0,2
234766.109375,251605.640625,269109.75,262047.484375,228601.140625,235146.0,232304.90625,222810.96875,92750.0,1.0,2
234619.921875,251427.453125,269000.84375,261941.265625,228291.96875,235076.796875,232080.40625,222646.984375,92751.0,1.0,2
234488.234375,251262.59375,268899.625,261851.859375,227779.125,235016.4375,231816.03125,222441.796875,92752.0,1.0,2
234552.421875,251339.03125,268947.46875,261902.90625,227769.5625,235053.90625,231873.96875,222472.015625,92753.0,1.0,2
234714.609375,251542.78125,269076.125,262016.734375,228276.046875,235129.015625,232166.953125,222692.046875,92754.0,1.0,2
234753.3125,251594.90625,269113.125,262037.65625,228615.703125,235139.734375,232291.140625,222803.0,92755.0,1.0,2
234603.828125,251410.28125,268996.28125,261928.296875,228307.703125,235061.78125,232063.515625,222636.703125,92756.0,1.0,2
234481.96875,251253.375,268891.84375,261845.421875,227800.234375,235005.71875,231807.1875,222432.859375,92757.0,1.0,2
234544.375,251326.0625,268931.09375,261896.5625,227785.5625,235040.765625,231867.703125,222466.5625,92758.0,1.0,2
234704.59375,251524.015625,269052.53125,262012.53125,228281.0625,235116.9375,232162.3125,222692.140625,92759.0,1.0,2
234756.53125,251585.796875,269092.9375,262039.171875,228624.921875,235138.484375,232301.78125,222811.5,92760.0,1.0,2
234606.328125,251402.6875,268969.0,261921.59375,228305.28125,235056.234375,232070.75,222641.359375,92761.0,1.0,2
234482.6875,251248.8125,268867.34375,261837.828125,227786.640625,235002.9375,231816.75,222440.90625,92762.0,1.0,2
234548.3125,251324.71875,268916.8125,261894.515625,227762.765625,235045.953125,231880.859375,222478.28125,92763.0,1.0,2
234712.640625,251527.953125,269046.0,262011.0,228254.5,235120.609375,232173.84375,222702.875,92764.0,1.0,2
234757.96875,251592.859375,269084.625,262034.78125,228593.53125,235130.796875,232304.640625,222818.828125,92765.0,1.0,2
234618.046875,251425.9375,268984.21875,261934.921875,228298.765625,235063.734375,232096.765625,222675.515625,92766.0,1.0,2
234495.65625,251270.015625,268894.09375,261856.328125,227784.21875,235013.671875,231845.265625,222483.1875,92767.0,1.0,2
234556.453125,251339.125,268942.71875,261906.21875,227756.953125,235045.859375,231900.515625,222516.0,92768.0,1.0,2
234712.46875,251535.015625,269068.34375,262012.890625,228243.328125,235121.234375,232181.703125,222729.875,92769.0,1.0,2
234761.8125,251603.40625,269119.3125,262040.953125,228591.21875,235143.046875,232320.90625,222851.015625,92770.0,1.0,2
234623.6875,251434.421875,269019.8125,261940.46875,228303.234375,235076.96875,232109.375,222703.578125,92771.0,1.0,2
234492.875,251267.859375,268915.09375,261851.234375,227778.6875,235014.484375,231839.8125,222496.25,92772.0,1.0,2
234551.96875,251338.5,268962.5,261903.265625,227747.203125,235056.140625,231895.96875,222528.875,92773.0,1.0,2
234719.609375,251548.59375,269095.4375,262022.359375,228245.125,235137.328125,232189.9375,222763.390625,92774.0,1.0,2
234757.34375,251605.28125,269126.5625,262036.125,228585.578125,235143.140625,232317.0625,222868.984375,92775.0,1.0,2
234608.21875,251426.375,269008.96875,261923.75,228282.671875,235062.75,232091.40625,222696.78125,92776.0,1.0,2
234478.75,251264.109375,268901.5,261835.5,227763.578125,234997.3125,231820.953125,222489.546875,92777.0,1.0,2
234542.59375,251338.859375,268946.40625,261889.6875,227732.453125,235039.328125,231873.703125,222518.78125,92778.0,1.0,2
234721.578125,251561.125,269087.5625,262018.15625,228235.734375,235133.125,232179.46875,222749.1875,92779.0,1.0,2
234774.234375,251630.859375,269132.71875,262049.71875,228594.078125,235157.703125,232325.734375,222870.234375,92780.0,1.0,2
234630.203125,251456.421875,269018.90625,261940.90625,228305.46875,235082.15625,232109.28125,222713.328125,92781.0,1.0,2
234496.625,251290.03125,268910.53125,261854.28125,227789.40625,235021.8125,231841.953125,222508.9375,92782.0,1.0,2
234549.296875,251351.546875,268942.8125,261899.515625,227748.640625,235054.265625,231886.75,222527.984375,92783.0,1.0,2
234712.46875,251555.3125,269063.25,262011.625,228231.078125,235126.421875,232172.046875,222738.984375,92784.0,1.0,2
234759.125,251618.34375,269100.53125,262031.65625,228583.515625,235132.578125,232310.09375,222854.0625,92785.0,1.0,2
234632.171875,251459.90625,269007.0,261942.515625,228317.265625,235075.625,232112.234375,222716.640625,92786.0,1.0,2
234515.765625,251310.953125,268919.3125,261871.53125,227814.09375,235039.15625,231863.59375,222523.515625,92787.0,1.0,2
234549.296875,251354.234375,268941.65625,261898.890625,227751.59375,235048.984375,231888.984375,222525.65625,92788.0,1.0,2
234711.03125,251556.296875,269067.375,262013.234375,228233.9375,235122.578125,232177.328125,222739.796875,92789.0,1.0,2
234762.171875,251625.3125,269108.3125,262039.890625,228595.6875,235136.25,232318.5,222860.84375,92790.0,1.0,2
234626.984375,251461.515625,269003.25,261939.03125,228324.328125,235072.0625,232112.234375,222716.375,92791.0,1.0,2
234496.625,251293.609375,268897.40625,261853.921875,227801.84375,235016.265625,231845.8125,222511.8125,92792.0,1.0,2
234544.28125,251347.25,268925.46875,261891.015625,227749.4375,235037.8125,231878.625,222527.8125,92793.0,1.0,2
234702.53125,251541.0,269041.96875,261997.234375,228229.5625,235102.71875,232155.421875,222738.8125,92794.0,1.0,2
234755.640625,251609.75,269082.84375,262023.609375,228587.640625,235116.578125,232294.890625,222851.734375,92795.0,1.0,2
234636.203125,251462.140625,268990.125,261937.6875,228329.15625,235062.484375,232103.5625,222713.5,92796.0,1.0,2
234508.796875,251302.46875,268887.46875,261851.40625,227811.40625,235011.171875,231844.28125,222505.09375,92797.0,1.0,2
234554.84375,251358.609375,268916.96875,261890.65625,227750.703125,235039.0625,231878.34375,222512.4375,92798.0,1.0,2
234710.765625,251549.40625,269035.25,261998.21875,228222.3125,235109.875,232159.09375,222718.0625,92799.0,1.0,2
234763.78125,251615.921875,269081.3125,262028.96875,228583.796875,235126.140625,232305.796875,222838.40625,92800.0,1.0,2
234644.421875,251471.0,268997.96875,261947.34375,228329.34375,235074.296875,232123.40625,222713.59375,92801.0,1.0,2
234508.875,251303.53125,268889.71875,261852.75,227807.5625,235011.265625,231847.765625,222506.171875,92802.0,1.0,2
234549.296875,251353.6875,268918.40625,261885.65625,227738.984375,235032.359375,231869.046875,222509.484375,92803.0,1.0,2
234699.234375,251541.71875,269035.8125,261987.3125,228209.0,235093.515625,232142.015625,222710.203125,92804.0,1.0,2
234758.59375,251615.03125,269088.71875,262023.078125,228588.265625,235117.65625,232293.375,222839.578125,92805.0,1.0,2
234636.015625,251460.984375,269000.03125,261934.65625,228338.8125,235066.953125,232101.515625,222711.265625,92806.0,1.0,2
234504.59375,251293.171875,268898.03125,261847.125,227815.15625,235012.6875,231834.1875,222505.546875,92807.0,1.0,2
234549.46875,251346.1875,268929.3125,261883.59375,227743.28125,235037.71875,231862.796875,222512.515625,92808.0,1.0,2
234709.78125,251547.171875,269057.25,261997.5,228219.1875,235113.71875,232146.75,222724.234375,92809.0,1.0,2
234764.578125,251619.5,269105.71875,262027.359375,228595.234375,235133.84375,232298.921875,222851.8125,92810.0,1.0,2
234632.4375,251455.53125,269005.125,261930.546875,228338.28125,235065.34375,232096.328125,222708.859375,92811.0,1.0,2
234504.671875,251292.1875,268904.375,261848.734375,227823.828125,235016.171875,231833.28125,222505.015625,92812.0,1.0,2
234538.65625,251334.296875,268924.21875,261874.65625,227744.171875,235031.90625,231850.546875,222499.375,92813.0,1.0,2
234697.703125,251533.484375,269051.4375,261986.59375,228215.171875,235107.375,232133.875,222709.75,92814.0,1.0,2
234765.296875,251615.484375,269109.90625,262027.28125,228600.6875,235132.140625,232296.953125,222848.6875,92815.0,1.0,2
234642.984375,251460.53125,269015.59375,261937.0625,228351.59375,235075.453125,232108.296875,222716.015625,92816.0,1.0,2
234513.703125,251295.84375,268910.0,261852.21875,227827.671875,235022.25,231842.671875,222512.515625,92817.0,1.0,2
234542.140625,251331.515625,268916.4375,261873.765625,227729.859375,235029.859375,231850.90625,222500.359375,92818.0,1.0,2
234702.09375,251529.640625,269036.96875,261986.859375,228196.921875,235106.203125,232135.484375,222708.671875,92819.0,1.0,2
234769.5,251617.0,269094.8125,262029.609375,228585.84375,235133.921875,232303.5625,222848.15625,92820.0,1.0,2
234651.21875,251468.140625,269006.65625,261945.296875,228344.453125,235076.265625,232118.234375,222720.296875,92821.0,1.0,2
234508.25,251290.65625,268892.03125,261846.046875,227809.265625,235005.0,231833.828125,222498.484375,92822.0,1.0,2
234545.625,251339.828125,268918.84375,261877.609375,227726.109375,235029.59375,231854.203125,222489.359375,92823.0,1.0,2
234707.546875,251543.859375,269047.5,261993.21875,228198.71875,235111.125,232144.6875,222699.109375,92824.0,1.0,2
234766.28125,251615.75,269092.3125,262021.28125,228577.796875,235123.828125,232294.984375,222824.8125,92825.0,1.0,2
234638.4375,251456.328125,268989.3125,261924.109375,228329.515625,235051.046875,232096.59375,222684.984375,92826.0,1.0,2
234509.6875,251294.78125,268885.59375,261840.953125,227812.828125,234997.3125,231835.609375,222479.796875,92827.0,1.0,2
234551.53125,251342.515625,268913.3125,261876.0,227732.640625,235031.375,231858.046875,222486.5,92828.0,1.0,2
234709.15625,251541.265625,269038.40625,261984.90625,228203.8125,235105.40625,232136.109375,222701.609375,92829.0,1.0,2
234770.484375,251622.1875,269095.4375,262022.53125,228598.09375,235127.484375,232297.9375,222842.34375,92830.0,1.0,2
234632.359375,251451.0625,268987.0,261914.984375,228339.078125,235049.609375,232087.828125,222690.796875,92831.0,1.0,2
234506.5625,251289.59375,268885.40625,261832.8125,227811.140625,235002.046875,231821.671875,222481.40625,92832.0,1.0,2
234536.0625,251327.9375,268898.03125,261860.0,227713.5,235021.359375,231831.765625,222470.59375,92833.0,1.0,2
234694.671875,251523.125,269016.5,261973.09375,228176.625,235093.6875,232109.109375,222679.625,92834.0,1.0,2
234762.96875,251609.390625,269068.625,262013.515625,228564.921875,235119.171875,232274.78125,222815.25,92835.0,1.0,2
234641.65625,251459.734375,268976.78125,261922.765625,228328.984375,235059.71875,232094.796875,222684.890625,92836.0,1.0,2
234506.5625,251290.296875,268872.0,261832.734375,227807.375,235001.15625,231827.921875,222478.8125,92837.0,1.0,2
234525.953125,251312.125,268875.59375,261846.765625,227684.625,235000.171875,231817.546875,222453.328125,92838.0,1.0,2
234695.03125,251518.203125,269008.53125,261971.9375,228148.375,235078.765625,232104.640625,222667.546875,92839.0,1.0,2
234767.71875,251609.390625,269068.15625,262020.296875,228545.875,235109.609375,232282.734375,222811.859375,92840.0,1.0,2
234644.875,251459.734375,268974.5625,261926.515625,228313.953125,235049.703125,232104.640625,222686.78125,92841.0,1.0,2
234502.796875,251281.359375,268858.96875,261821.640625,227775.734375,234974.875,231817.1875,222460.484375,92842.0,1.0,2
234538.46875,251323.46875,268888.71875,261853.734375,227674.25,235003.84375,231829.0,222452.53125,92843.0,1.0,2
234695.203125,251514.265625,269016.125,261963.703125,228134.796875,235080.28125,232108.65625,222659.953125,92844.0,1.0,2
234770.390625,251608.0625,269084.09375,262009.484375,228539.359375,235112.015625,232284.171875,222805.5,92845.0,1.0,2
234658.546875,251471.078125,269006.5625,261930.359375,228332.296875,235056.953125,232114.46875,222693.390625,92846.0,1.0,2
234522.296875,251298.0,268896.78125,261839.078125,227808.1875,235001.421875,231838.390625,222481.765625,92847.0,1.0,2
234547.953125,251326.875,268909.90625,261862.765625,227696.875,235025.5625,231838.203125,222463.96875,92848.0,1.0,2
234702.8125,251521.59375,269029.71875,261972.03125,228152.140625,235095.296875,232110.1875,222668.359375,92849.0,1.0,2
234776.46875,251616.546875,269092.5625,262014.765625,228563.046875,235118.09375,232282.015625,222813.90625,92850.0,1.0,2
234645.140625,251456.15625,268994.125,261916.5,228340.34375,235049.890625,232099.09375,222681.765625,92851.0,1.0,2
234495.65625,251270.8125,268875.6875,261815.46875,227803.265625,234983.984375,231817.828125,222458.875,92852.0,1.0,2
234527.65625,251309.96875,268893.1875,261843.71875,227688.203125,235005.8125,231819.875,222446.0,92853.0,1.0,2
234689.21875,251513.46875,269018.09375,261959.234375,228142.296875,235087.4375,232100.96875,222655.21875,92854.0,1.0,2
234771.296875,251613.234375,269089.625,262015.921875,228561.0,235128.109375,232292.84375,222813.46875,92855.0,1.0,2
234659.359375,251473.953125,269006.125,261931.796875,228356.25,235072.234375,232124.046875,222696.96875,92856.0,1.0,2
234518.0,251298.796875,268896.6875,261835.328125,227829.640625,235014.296875,231850.359375,222483.375,92857.0,1.0,2
234543.578125,251328.484375,268915.46875,261861.609375,227705.015625,235030.296875,231850.90625,222468.984375,92858.0,1.0,2
234706.03125,251528.84375,269045.53125,261981.59375,228159.734375,235106.484375,232127.890625,222686.234375,92859.0,1.0,2
234778.359375,251618.421875,269102.78125,262019.40625,228562.609375,235128.921875,232300.0,222823.75,92860.0,1.0,2
234661.3125,251472.25,269013.1875,261929.734375,228350.265625,235066.875,232122.515625,222698.390625,92861.0,1.0,2
234513.984375,251287.359375,268896.5,261833.4375,227809.4375,234996.859375,231831.859375,222473.546875,92862.0,1.0,2
234535.53125,251314.078125,268910.1875,261854.8125,227678.640625,235015.90625,231825.6875,222454.5,92863.0,1.0,2
234697.0,251517.390625,269033.3125,261966.03125,228126.46875,235090.828125,232104.453125,222663.4375,92864.0,1.0,2
234771.921875,251611.625,269093.1875,262010.203125,228541.046875,235117.921875,232284.078125,222815.34375,92865.0,1.0,2
234658.109375,251470.453125,269006.46875,261924.109375,228343.46875,235066.421875,232117.515625,222700.984375,92866.0,1.0,2
234513.078125,251290.65625,268889.34375,261825.03125,227814.171875,235002.3125,231836.953125,222485.609375,92867.0,1.0,2
234540.796875,251323.734375,268901.5,261848.203125,227681.671875,235020.5625,231828.734375,222460.484375,92868.0,1.0,2
234697.0,251519.546875,269018.53125,261957.453125,228123.796875,235090.390625,232097.671875,222657.265625,92869.0,1.0,2
234773.4375,251616.8125,269081.40625,262007.078125,228538.1875,235124.8125,232282.109375,222804.171875,92870.0,1.0,2
234660.609375,251478.78125,268998.53125,261922.046875,228346.328125,235062.9375,232115.8125,222689.375,92871.0,1.0,2
234513.4375,251294.328125,268880.9375,261819.3125,227813.734375,234990.703125,231829.71875,222469.25,92872.0,1.0,2
234541.15625,251324.1875,268899.28125,261846.5,227685.703125,235015.28125,231827.125,222455.65625,92873.0,1.0,2
234700.296875,251521.234375,269025.25,261961.46875,228129.328125,235089.671875,232102.21875,222658.609375,92874.0,1.0,2
234773.53125,251613.875,269086.75,262006.796875,228544.265625,235117.921875,232284.078125,222804.53125,92875.0,1.0,2
234659.4375,251469.75,269000.5,261920.796875,228345.703125,235059.71875,232116.96875,222686.234375,92876.0,1.0,2
234505.21875,251277.25,268874.96875,261813.234375,227799.6875,234986.046875,231824.171875,222456.8125,92877.0,1.0,2
234538.203125,251316.40625,268897.5,261842.296875,227675.140625,235005.453125,231821.84375,222446.453125,92878.0,1.0,2
234692.875,251506.3125,269014.4375,261950.203125,228112.078125,235077.875,232088.71875,222645.375,92879.0,1.0,2
234774.59375,251610.203125,269085.15625,262007.078125,228546.421875,235118.90625,232286.046875,222809.4375,92880.0,1.0,2
234666.953125,251477.796875,269007.375,261927.5,228368.59375,235068.921875,232135.03125,222704.828125,92881.0,1.0,2
234510.21875,251282.703125,268884.53125,261815.46875,227819.265625,234996.5,231841.515625,222472.203125,92882.0,1.0,2
234533.203125,251307.65625,268898.84375,261837.640625,227675.234375,235011.890625,231823.28125,222446.53125,92883.0,1.0,2
234690.015625,251504.796875,269019.625,261951.109375,228109.390625,235083.234375,232092.203125,222646.1875,92884.0,1.0,2
234771.203125,251613.59375,269090.15625,262002.59375,228540.78125,235125.875,232294.0,222807.296875,92885.0,1.0,2
234648.796875,251467.0625,268996.46875,261908.015625,228352.578125,235057.296875,232116.890625,222687.9375,92886.0,1.0,2
234496.28125,251275.109375,268876.5625,261800.71875,227806.84375,234985.78125,231821.484375,222455.65625,92887.0,1.0,2
234526.5,251309.078125,268899.8125,261833.078125,227667.1875,235008.75,231814.78125,222439.75,92888.0,1.0,2
234684.65625,251505.234375,269021.9375,261948.6875,228105.90625,235086.8125,232090.515625,222645.5625,92889.0,1.0,2
234772.546875,251616.1875,269092.75,262004.03125,228540.421875,235128.203125,232290.421875,222812.125,92890.0,1.0,2
234659.359375,251477.609375,269002.8125,261917.390625,228352.5,235071.875,232128.59375,222697.765625,92891.0,1.0,2
234506.734375,251284.671875,268881.125,261811.890625,227812.484375,234999.375,231838.828125,222472.203125,92892.0,1.0,2
234523.546875,251304.4375,268886.75,261825.484375,227655.296875,235010.546875,231815.3125,222435.1875,92893.0,1.0,2
234681.703125,251500.140625,269006.3125,261936.890625,228087.140625,235082.609375,232082.90625,222634.46875,92894.0,1.0,2
234772.28125,251613.421875,269084.53125,261998.84375,228532.203125,235125.25,232287.921875,222804.34375,92895.0,1.0,2
234655.953125,251472.6875,268999.40625,261912.203125,228355.71875,235070.265625,232129.84375,222694.109375,92896.0,1.0,2
234496.28125,251277.515625,268870.3125,261798.484375,227810.6875,234993.203125,231831.234375,222463.34375,92897.0,1.0,2
234513.0,251294.6875,268876.5625,261816.640625,227649.671875,235005.53125,231809.859375,222430.984375,92898.0,1.0,2
234675.53125,251496.75,269002.71875,261934.03125,228081.59375,235088.15625,232081.84375,222633.21875,92899.0,1.0,2
234768.25,251614.140625,269079.96875,261993.03125,228528.8125,235130.703125,232284.53125,222799.34375,92900.0,1.0,2
234661.40625,251481.8125,269002.625,261911.3125,228362.15625,235076.265625,232131.734375,222694.375,92901.0,1.0,2
234498.875,251282.171875,268875.75,261798.3125,227817.03125,234996.328125,231833.109375,222462.28125,92902.0,1.0,2
234508.078125,251294.328125,268881.40625,261811.09375,227656.8125,235007.0625,231809.859375,222429.28125,92903.0,1.0,2
234663.90625,251488.34375,269000.5625,261921.6875,228078.828125,235079.03125,232074.15625,222624.640625,92904.0,1.0,2
234757.703125,251609.3125,269076.21875,261983.015625,228522.28125,235119.359375,232277.734375,222791.109375,92905.0,1.0,2
234647.1875,251473.234375,268988.78125,261897.734375,228350.96875,235062.046875,232123.859375,222683.46875,92906.0,1.0,2
234501.546875,251284.9375,268868.96875,261795.796875,227814.0,234991.765625,231833.90625,222461.015625,92907.0,1.0,2
234525.875,251306.21875,268881.65625,261819.5,227651.90625,235009.296875,231810.046875,222431.25,92908.0,1.0,2
234685.109375,251504.34375,269004.6875,261935.71875,228076.140625,235089.21875,232082.015625,222632.140625,92909.0,1.0,2
234779.875,251625.484375,269083.0,261998.84375,228528.8125,235132.9375,232296.6875,222805.421875,92910.0,1.0,2
234667.21875,251486.375,268995.03125,261909.53125,228361.796875,235073.3125,232143.984375,222696.96875,92911.0,1.0,2
234503.15625,251283.0625,268861.0,261793.75,227812.203125,234994.265625,231841.515625,222461.015625,92912.0,1.0,2
234519.078125,251299.78125,268864.84375,261811.53125,227641.890625,235007.0625,231811.5625,222424.546875,92913.0,1.0,2
234664.1875,251479.671875,268971.59375,261910.421875,228046.71875,235068.21875,232065.03125,222608.984375,92914.0,1.0,2
234760.734375,251601.625,269054.40625,261978.46875,228496.703125,235116.046875,232275.40625,222785.5625,92915.0,1.0,2
234670.34375,251491.828125,268992.25,261910.6875,228360.90625,235076.078125,232140.84375,222700.640625,92916.0,1.0,2
234510.671875,251291.46875,268862.71875,261791.515625,227813.546875,234997.40625,231840.0,222464.78125,92917.0,1.0,2
234519.515625,251298.34375,268865.125,261806.984375,227639.921875,235011.265625,231813.4375,222426.78125,92918.0,1.0,2
234680.984375,251494.15625,268992.625,261926.15625,228065.59375,235090.390625,232084.25,222629.28125,92919.0,1.0,2
234764.234375,251600.28125,269057.4375,261973.71875,228504.046875,235113.890625,232272.015625,222784.671875,92920.0,1.0,2
234660.515625,251471.53125,268976.625,261889.953125,228349.28125,235056.046875,232121.0,222682.75,92921.0,1.0,2
234519.703125,251293.34375,268868.0625,261798.21875,227825.4375,235001.6875,231846.515625,222471.75,92922.0,1.0,2
234519.875,251295.671875,268863.15625,261802.953125,227640.09375,235007.0625,231802.4375,222420.25,92923.0,1.0,2
234673.125,251485.296875,268979.03125,261910.25,228049.671875,235074.015625,232057.875,222609.171875,92924.0,1.0,2
234758.953125,251597.859375,269052.15625,261966.65625,228496.796875,235109.78125,232264.234375,222774.9375,92925.0,1.0,2
234648.265625,251465.0,268969.375,261880.203125,228346.140625,235052.203125,232116.265625,222671.671875,92926.0,1.0,2
234506.921875,251286.640625,268856.625,261784.625,227818.640625,234990.515625,231831.5,222455.921875,92927.0,1.0,2
234509.421875,251288.25,268853.9375,261793.65625,227630.09375,234998.390625,231790.546875,222407.015625,92928.0,1.0,2
234661.140625,251476.265625,268974.8125,261903.984375,228040.828125,235071.078125,232054.5625,222602.734375,92929.0,1.0,2
234762.703125,251606.09375,269060.21875,261972.203125,228506.71875,235118.453125,232277.46875,222785.65625,92930.0,1.0,2
234665.96875,251484.5,268989.5625,261900.140625,228372.171875,235074.109375,232146.390625,222696.515625,92931.0,1.0,2
234497.609375,251275.734375,268852.34375,261780.78125,227817.21875,234988.640625,231835.96875,222456.8125,92932.0,1.0,2
234503.15625,251282.703125,268849.375,261789.546875,227623.828125,234993.828125,231790.640625,222410.0625,92933.0,1.0,2
234661.40625,251480.390625,268969.5625,261900.671875,228031.078125,235068.484375,232053.671875,222599.515625,92934.0,1.0,2
234750.90625,251594.90625,269043.75,261958.796875,228483.203125,235103.703125,232262.4375,222765.359375,92935.0,1.0,2
234648.171875,251469.46875,268969.375,261885.03125,228346.421875,235052.03125,232123.859375,222673.8125,92936.0,1.0,2
234500.03125,251282.890625,268854.125,261787.046875,227812.828125,234989.265625,231841.875,222454.40625,92937.0,1.0,2
234502.984375,251286.28125,268853.5,261794.640625,227617.03125,234999.453125,231800.46875,222408.1875,92938.0,1.0,2
234650.234375,251471.265625,268964.46875,261895.84375,228014.09375,235063.390625,232049.46875,222591.828125,92939.0,1.0,2
234758.234375,251602.6875,269051.09375,261968.8125,228481.421875,235112.46875,232273.4375,222770.015625,92940.0,1.0,2
234665.34375,251489.234375,268980.28125,261897.546875,228356.421875,235063.46875,232144.609375,222682.484375,92941.0,1.0,2
234503.875,251285.921875,268854.3125,261786.421875,227814.625,234986.21875,231848.484375,222451.359375,92942.0,1.0,2
234505.65625,251284.9375,268853.78125,261793.828125,227619.53125,234994.0,231800.296875,222402.640625,92943.0,1.0,2
234668.03125,251486.46875,268982.15625,261912.03125,228032.859375,235075.09375,232062.34375,222600.234375,92944.0,1.0,2
234764.3125,251608.0625,269059.75,261970.0625,228493.046875,235109.875,232271.46875,222770.109375,92945.0,1.0,2
234664.1875,251486.46875,268986.90625,261893.078125,228367.6875,235056.046875,232138.796875,222679.53125,92946.0,1.0,2
234515.671875,251299.15625,268875.0625,261793.296875,227842.078125,234995.875,231858.953125,222462.1875,92947.0,1.0,2
234513.703125,251290.921875,268865.40625,261796.875,227626.953125,235000.796875,231802.796875,222402.375,92948.0,1.0,2
234666.421875,251482.078125,268983.0625,261905.765625,228023.921875,235072.5,232061.640625,222593.96875,92949.0,1.0,2
234760.65625,251603.3125,269062.8125,261968.453125,228491.171875,235116.40625,232279.515625,222772.96875,92950.0,1.0,2
234674.828125,251497.109375,269000.9375,261903.0,228382.359375,235074.203125,232159.171875,222701.265625,92951.0,1.0,2
234509.953125,251292.0,268867.28125,261786.953125,227831.609375,234991.859375,231855.109375,222462.71875,92952.0,1.0,2
234498.421875,251276.171875,268847.875,261778.640625,227600.765625,234980.859375,231784.46875,222394.140625,92953.0,1.0,2
234647.46875,251459.109375,268958.5625,261881.453125,227988.15625,235047.46875,232031.59375,222574.921875,92954.0,1.0,2
234761.546875,251599.109375,269050.09375,261955.65625,228463.359375,235098.4375,232256.8125,222758.296875,92955.0,1.0,2
234670.625,251489.140625,268981.25,261886.109375,228349.71875,235051.140625,232130.296875,222672.921875,92956.0,1.0,2
234504.328125,251282.4375,268849.125,261768.359375,227808.625,234976.03125,231831.859375,222441.0,92957.0,1.0,2
234509.328125,251282.34375,268848.21875,261777.46875,227602.109375,234981.9375,231780.1875,222394.140625,92958.0,1.0,2
234682.59375,251489.859375,268986.1875,261907.203125,228014.09375,235071.15625,232055.28125,222602.90625,92959.0,1.0,2
234778.53125,251612.796875,269063.875,261971.3125,228482.765625,235108.890625,232269.328125,222780.03125,92960.0,1.0,2
234679.5625,251493.34375,268986.4375,261895.671875,228367.609375,235057.84375,232140.9375,222693.921875,92961.0,1.0,2
234519.515625,251294.328125,268855.125,261779.984375,227824.8125,234984.96875,231844.203125,222461.640625,92962.0,1.0,2
234515.046875,251288.875,268846.4375,261786.59375,227608.1875,234993.203125,231793.140625,222406.75,92963.0,1.0,2
234661.046875,251471.796875,268956.6875,261890.390625,227987.890625,235062.21875,232039.734375,222585.03125,92964.0,1.0,2
234762.4375,251601.890625,269039.8125,261954.765625,228457.453125,235103.53125,232257.4375,222760.0,92965.0,1.0,2
234678.484375,251499.6875,268985.1875,261895.140625,228373.5,235066.6875,232154.171875,222699.46875,92966.0,1.0,2
234523.546875,251300.671875,268862.09375,261786.6875,227842.609375,234994.890625,231858.328125,222471.75,92967.0,1.0,2
234518.8125,251289.671875,268853.15625,261787.9375,227617.484375,234999.28125,231791.890625,222404.15625,92968.0,1.0,2
234661.234375,251471.359375,268958.65625,261883.59375,227994.421875,235063.109375,232035.53125,222577.34375,92969.0,1.0,2
234766.90625,251608.859375,269045.53125,261953.609375,228472.125,235104.6875,232262.4375,222759.828125,92970.0,1.0,2
234665.34375,251486.734375,268971.34375,261877.34375,228366.359375,235048.453125,232138.25,222677.484375,92971.0,1.0,2
234508.703125,251287.703125,268847.0625,261770.953125,227838.578125,234977.015625,231843.5625,222457.890625,92972.0,1.0,2
234511.390625,251287.078125,268842.875,261784.453125,227618.375,234986.671875,231789.203125,222407.375,92973.0,1.0,2
234661.671875,251473.953125,268953.90625,261892.0,227995.21875,235057.03125,232037.578125,222591.375,92974.0,1.0,2
234763.15625,251606.890625,269032.59375,261955.390625,228468.640625,235101.5625,232258.6875,222768.671875,92975.0,1.0,2
234667.9375,251490.484375,268961.78125,261881.90625,228370.734375,235046.125,232131.734375,222682.296875,92976.0,1.0,2
234510.84375,251294.59375,268841.6875,261777.203125,227845.375,234979.78125,231843.65625,222461.640625,92977.0,1.0,2
234503.15625,251283.328125,268832.59375,261777.65625,227616.9375,234982.734375,231777.671875,222403.71875,92978.0,1.0,2
234662.84375,251479.84375,268957.46875,261893.703125,228001.125,235061.59375,232031.5,222594.59375,92979.0,1.0,2
234762.0,251607.15625,269036.15625,261952.625,228470.953125,235096.90625,232254.125,222771.796875,92980.0,1.0,2
234669.453125,251494.6875,268971.78125,261883.25,228379.3125,235049.890625,232141.734375,222698.84375,92981.0,1.0,2
234507.890625,251295.40625,268845.09375,261771.84375,227841.984375,234974.875,231845.984375,222471.03125,92982.0,1.0,2
234502.09375,251283.421875,268836.5,261772.203125,227605.140625,234979.15625,231778.84375,222404.78125,92983.0,1.0,2
234644.953125,251463.03125,268952.375,261879.046875,227974.21875,235052.203125,232028.734375,222586.109375,92984.0,1.0,2
234754.65625,251600.453125,269045.46875,261950.296875,228457.09375,235095.84375,232259.578125,222774.296875,92985.0,1.0,2
234666.78125,251495.046875,268985.03125,261877.078125,228376.359375,235044.515625,232140.84375,222693.75,92986.0,1.0,2
234512.09375,251302.828125,268866.90625,261770.40625,227855.390625,234978.625,231847.5,222464.421875,92987.0,1.0,2
234503.875,251286.90625,268857.96875,261777.03125,227624.640625,234983.546875,231785.90625,222400.21875,92988.0,1.0,2
234656.3125,251470.8125,268973.03125,261886.375,228004.4375,235055.6875,232031.5,222582.171875,92989.0,1.0,2
234762.96875,251603.046875,269056.1875,261952.53125,228482.578125,235094.671875,232256.0,222756.0625,92990.0,1.0,2
234678.125,251497.90625,268989.75,261886.8125,228405.609375,235047.921875,232149.609375,222689.015625,92991.0,1.0,2
234528.46875,251305.953125,268869.40625,261784.359375,227886.421875,234988.1875,231868.25,222473.984375,92992.0,1.0,2
234515.59375,251289.046875,268852.6875,261782.125,227640.71875,234991.328125,231796.625,222407.828125,92993.0,1.0,2
234653.90625,251464.375,268953.625,261879.578125,227999.421875,235056.234375,232032.9375,222585.484375,92994.0,1.0,2
234749.46875,251587.3125,269024.0,261937.515625,228466.671875,235090.390625,232250.8125,222759.109375,92995.0,1.0,2
234667.046875,251487.71875,268957.3125,261874.125,228387.09375,235049.4375,232143.703125,222692.140625,92996.0,1.0,2
234526.5,251307.921875,268848.40625,261784.8125,227878.015625,235007.234375,231873.25,222492.9375,92997.0,1.0,2
234511.921875,251288.25,268831.875,261778.28125,227627.3125,235003.65625,231800.75,222428.390625,92998.0,1.0,2
234660.15625,251475.109375,268945.6875,261883.875,227981.09375,235068.75,232039.28125,222605.421875,92999.0,1.0,2
234766.375,251611.28125,269036.875,261954.765625,228460.140625,235109.421875,232274.0625,222792.28125,93000.0,1.0,2
234689.21875,251514.0,268987.53125,261896.65625,228399.171875,235067.765625,232178.9375,222739.53125,93001.0,1.0,2
234530.875,251313.109375,268869.875,261788.03125,227872.5625,234996.6875,231881.84375,222519.5,93002.0,1.0,2
234515.5,251292.0,268855.75,261782.125,227615.6875,234994.625,231803.0625,222448.234375,93003.0,1.0,2
234669.09375,251482.703125,268976.53125,261891.015625,227980.296875,235070.0,232048.578125,222634.375,93004.0,1.0,2
234786.40625,251628.265625,269073.34375,261968.0,228473.375,235122.578125,232285.859375,222828.578125,93005.0,1.0,2
234692.796875,251516.40625,269004.25,261896.390625,228401.578125,235076.53125,232178.84375,222759.546875,93006.0,1.0,2
234531.40625,251318.203125,268877.90625,261783.109375,227875.234375,235005.71875,231885.140625,222537.828125,93007.0,1.0,2
234515.9375,251298.890625,268861.46875,261778.546875,227617.296875,235009.65625,231805.03125,222466.203125,93008.0,1.0,2
234650.6875,251469.296875,268965.71875,261875.90625,227961.96875,235069.1875,232033.109375,222634.296875,93009.0,1.0,2
234770.125,251617.625,269060.84375,261955.9375,228455.765625,235117.46875,232272.453125,222829.734375,93010.0,1.0,2
234690.203125,251523.390625,268999.6875,261890.75,228402.5625,235073.9375,232175.984375,222771.984375,93011.0,1.0,2
234535.796875,251329.828125,268876.3125,261780.78125,227886.859375,235008.390625,231888.546875,222547.65625,93012.0,1.0,2
234522.46875,251311.671875,268860.375,261778.8125,227634.28125,235012.78125,231810.671875,222474.25,93013.0,1.0,2
234658.546875,251482.53125,268961.0625,261875.90625,227977.875,235071.4375,232037.3125,222639.03125,93014.0,1.0,2
234772.28125,251624.859375,269051.0,261949.3125,228467.828125,235116.484375,232270.40625,222827.046875,93015.0,1.0,2
234693.421875,251530.09375,268993.15625,261888.34375,228412.390625,235075.8125,232177.0625,222765.09375,93016.0,1.0,2
234534.546875,251330.265625,268869.59375,261781.046875,227888.921875,235007.59375,231887.46875,222543.28125,93017.0,1.0,2
234527.125,251314.0,268858.40625,261785.515625,227628.484375,235012.15625,231810.578125,222472.640625,93018.0,1.0,2
234656.5,251477.34375,268950.6875,261872.96875,227956.6875,235059.890625,232026.5,222627.046875,93019.0,1.0,2
234781.21875,251632.375,269051.53125,261956.921875,228460.046875,235114.34375,232273.4375,222826.25,93020.0,1.0,2
234699.5,251533.84375,268990.21875,261889.234375,228408.828125,235068.921875,232176.609375,222764.296875,93021.0,1.0,2
234542.953125,251336.265625,268869.0625,261781.671875,227892.046875,234998.921875,231886.484375,222546.3125,93022.0,1.0,2
234525.59375,251309.96875,268852.34375,261781.046875,227626.515625,235001.953125,231805.125,222469.96875,93023.0,1.0,2
234667.046875,251485.484375,268956.5,261882.796875,227960.265625,235067.671875,232028.90625,222632.6875,93024.0,1.0,2
234783.09375,251634.96875,269049.65625,261959.0625,228456.390625,235120.25,232269.859375,222824.8125,93025.0,1.0,2
234710.140625,251545.734375,268998.53125,261905.859375,228425.359375,235094.3125,232186.265625,222779.3125,93026.0,1.0,2
234543.03125,251335.28125,268858.875,261786.234375,227892.046875,235007.59375,231875.9375,222543.015625,93027.0,1.0,2
234521.75,251308.984375,268833.03125,261776.671875,227609.875,234998.46875,231779.640625,222455.390625,93028.0,1.0,2
234663.109375,251487.453125,268940.75,261876.984375,227952.484375,235065.96875,232014.15625,222624.90625,93029.0,1.0,2
234770.9375,251625.125,269024.34375,261944.671875,228441.71875,235100.75,232247.953125,222809.0,93030.0,1.0,2
234705.75,251543.5,268977.0625,261893.875,228413.921875,235069.640625,232172.9375,222767.6875,93031.0,1.0,2
234545.1875,251340.734375,268847.5,261779.4375,227890.078125,234997.765625,231877.28125,222541.21875,93032.0,1.0,2
234508.078125,251293.875,268808.34375,261755.296875,227592.890625,234985.0625,231768.640625,222438.40625,93033.0,1.0,2
234653.09375,251470.546875,268920.65625,261860.984375,227930.40625,235056.671875,232001.28125,222608.09375,93034.0,1.0,2
234764.3125,251610.109375,269007.8125,261934.65625,228426.171875,235098.875,232238.03125,222797.734375,93035.0,1.0,2
234699.40625,251530.546875,268962.84375,261884.3125,228400.78125,235064.8125,232162.84375,222754.28125,93036.0,1.0,2
234555.640625,251348.328125,268858.0625,261791.0625,227905.453125,235009.921875,231891.671875,222553.015625,93037.0,1.0,2
234525.59375,251308.0,268832.9375,261777.65625,227617.296875,235002.59375,231792.25,222463.703125,93038.0,1.0,2
234662.84375,251479.40625,268938.96875,261876.453125,227944.078125,235069.828125,232014.96875,222626.328125,93039.0,1.0,2
234775.3125,251624.15625,269031.59375,261948.953125,228448.15625,235111.578125,232258.234375,222822.21875,93040.0,1.0,2
234699.765625,251536.078125,268976.875,261888.609375,228423.390625,235065.703125,232176.796875,222773.765625,93041.0,1.0,2
234526.859375,251323.921875,268840.0,261766.203125,227891.0625,234983.0,231873.515625,222538.359375,93042.0,1.0,2
234500.484375,251287.625,268815.9375,261754.671875,227604.15625,234983.1875,231780.71875,222454.3125,93043.0,1.0,2
234637.09375,251456.25,268920.65625,261851.953125,227926.828125,235045.6875,231996.1875,222606.75,93044.0,1.0,2
234755.015625,251605.734375,269017.5625,261929.90625,228429.828125,235089.046875,232234.09375,222800.765625,93045.0,1.0,2
234707.453125,251544.390625,268995.03125,261898.53125,228439.84375,235081.4375,232188.6875,222791.828125,93046.0,1.0,2
234540.984375,251337.328125,268860.5625,261775.0625,227919.671875,235002.59375,231888.0,222561.421875,93047.0,1.0,2
234513.0,251298.4375,268829.4375,261754.671875,227625.078125,234993.375,231780.8125,222459.0625,93048.0,1.0,2
234660.0625,251476.8125,268938.78125,261861.78125,227954.1875,235064.359375,232009.421875,222626.78125,93049.0,1.0,2
234773.796875,251621.375,269027.3125,261934.734375,228454.15625,235112.921875,232251.359375,222814.1875,93050.0,1.0,2
234703.4375,251533.40625,268971.0625,261876.984375,228434.84375,235072.5,232173.84375,222754.1875,93051.0,1.0,2
234544.46875,251331.96875,268835.25,261763.796875,227915.828125,234997.484375,231870.65625,222524.328125,93052.0,1.0,2
234516.65625,251296.5625,268823.09375,261751.546875,227618.109375,234994.8125,231769.8125,222438.671875,93053.0,1.0,2
234650.0625,251467.78125,268919.75,261847.84375,227924.765625,235059.625,231989.390625,222597.375,93054.0,1.0,2
234772.71875,251621.015625,269028.65625,261930.0,228433.140625,235112.015625,232242.953125,222794.78125,93055.0,1.0,2
234709.0625,251540.203125,268981.34375,261876.09375,228420.4375,235073.046875,232170.703125,222748.28125,93056.0,1.0,2
234542.953125,251330.625,268846.15625,261760.125,227904.03125,234992.9375,231875.125,222515.296875,93057.0,1.0,2
234506.375,251279.578125,268805.3125,261741.71875,227600.140625,234976.03125,231757.296875,222414.078125,93058.0,1.0,2
234647.90625,251454.1875,268912.6875,261844.265625,227912.34375,235043.453125,231976.34375,222573.40625,93059.0,1.0,2
234767.890625,251608.59375,269017.46875,261919.359375,228425.453125,235092.625,232228.203125,222772.15625,93060.0,1.0,2
234711.5625,251539.5625,268985.90625,261874.484375,228434.65625,235068.75,232171.875,222747.125,93061.0,1.0,2
234549.109375,251338.140625,268858.875,261761.375,227919.859375,234995.875,231875.671875,222522.4375,93062.0,1.0,2
234505.390625,251281.90625,268814.0625,261735.625,227601.5625,234980.328125,231757.03125,222414.890625,93063.0,1.0,2
234651.671875,251461.25,268919.46875,261842.921875,227915.46875,235055.0625,231988.59375,222576.265625,93064.0,1.0,2
234773.53125,251615.921875,269010.21875,261921.6875,228422.59375,235099.6875,232235.34375,222773.328125,93065.0,1.0,2
234709.25,251538.140625,268965.15625,261869.390625,228428.578125,235062.484375,232163.203125,222736.484375,93066.0,1.0,2
234535.703125,251323.390625,268829.375,261741.53125,227905.1875,234984.4375,231857.875,222500.09375,93067.0,1.0,2
234502.09375,251278.59375,268798.34375,261724.546875,227593.78125,234975.234375,231741.5625,222399.59375,93068.0,1.0,2
234646.75,251453.734375,268906.96875,261832.640625,227904.03125,235047.015625,231964.71875,222561.421875,93069.0,1.0,2
234760.203125,251598.75,268997.8125,261907.921875,228408.109375,235092.984375,232212.546875,222758.03125,93070.0,1.0,2
234703.875,251531.96875,268961.40625,261862.140625,228422.234375,235063.03125,232156.40625,222730.765625,93071.0,1.0,2
234555.28125,251347.4375,268853.6875,261761.828125,227929.875,235005.265625,231881.390625,222526.015625,93072.0,1.0,2
234516.125,251294.328125,268821.65625,261741.625,227608.0,234992.75,231763.8125,222420.515625,93073.0,1.0,2
234645.578125,251456.328125,268922.15625,261838.71875,227905.8125,235053.1875,231977.40625,222573.859375,93074.0,1.0,2
234773.34375,251622.546875,269024.625,261924.109375,228425.359375,235107.90625,232237.9375,222781.015625,93075.0,1.0,2
234710.21875,251549.046875,268980.5625,261870.90625,228438.5,235075.625,232183.578125,222748.46875,93076.0,1.0,2
234545.453125,251340.8125,268851.71875,261756.546875,227928.890625,235001.15625,231888.984375,222522.71875,93077.0,1.0,2
234504.046875,251281.984375,268808.71875,261731.96875,227596.734375,234984.4375,231758.90625,222409.96875,93078.0,1.0,2
234632.0,251441.84375,268899.0,261824.40625,227882.390625,235045.0625,231964.359375,222555.890625,93079.0,1.0,2
234761.1875,251604.75,268996.90625,261908.28125,228398.71875,235099.953125,232224.796875,222757.671875,93080.0,1.0,2
234705.21875,251536.625,268954.09375,261859.734375,228419.90625,235069.109375,232170.265625,222726.46875,93081.0,1.0,2
234533.828125,251326.78125,268822.5625,261739.65625,227911.0,234990.34375,231872.1875,222499.640625,93082.0,1.0,2
234497.703125,251277.515625,268793.25,261722.671875,227591.828125,234980.765625,231752.90625,222397.0,93083.0,1.0,2
234647.109375,251454.0,268911.71875,261832.90625,227899.375,235065.34375,231975.890625,222557.40625,93084.0,1.0,2
234784.515625,251626.921875,269030.0,261930.625,228435.640625,235135.984375,232249.296875,222775.5625,93085.0,1.0,2
234719.53125,251551.28125,268984.84375,261876.71875,228453.890625,235089.046875,232188.234375,222740.859375,93086.0,1.0,2
234558.859375,251349.765625,268859.59375,261765.84375,227949.890625,235013.21875,231888.625,222519.671875,93087.0,1.0,2
234511.03125,251288.515625,268818.4375,261739.46875,227614.703125,234992.125,231755.234375,222410.15625,93088.0,1.0,2
234639.328125,251448.015625,268918.6875,261833.4375,227898.9375,235053.1875,231957.65625,222556.0625,93089.0,1.0,2
234759.484375,251601.265625,269017.375,261910.421875,228409.453125,235104.421875,232209.6875,222750.34375,93090.0,1.0,2
234707.546875,251537.15625,268983.6875,261865.359375,228441.015625,235076.078125,232160.96875,222727.8125,93091.0,1.0,2
234538.03125,251328.21875,268846.53125,261743.671875,227930.765625,234997.046875,231866.015625,222498.578125,93092.0,1.0,2
234497.609375,251274.75,268806.21875,261723.46875,227598.265625,234990.703125,231746.46875,222389.5,93093.0,1.0,2
234637.71875,251445.0625,268906.59375,261824.6875,227887.40625,235057.296875,231965.796875,222543.640625,93094.0,1.0,2
234761.09375,251600.453125,268997.96875,261904.34375,228398.265625,235104.953125,232226.140625,222747.484375,93095.0,1.0,2
234703.4375,251533.84375,268949.15625,261858.484375,228421.25,235065.53125,232167.9375,222722.453125,93096.0,1.0,2
234538.65625,251329.015625,268814.875,261740.8125,227912.078125,234995.4375,231870.75,222497.40625,93097.0,1.0,2
234500.75,251281.09375,268779.46875,261717.484375,227587.53125,234983.28125,231743.875,222390.03125,93098.0,1.0,2
234627.078125,251435.859375,268873.625,261807.515625,227864.953125,235040.3125,231944.15625,222530.140625,93099.0,1.0,2
234760.734375,251603.046875,268984.75,261900.5,228391.390625,235100.671875,232213.71875,222743.1875,93100.0,1.0,2
234694.578125,251527.40625,268936.90625,261844.625,228415.171875,235058.828125,232155.6875,222710.109375,93101.0,1.0,2
234540.984375,251332.328125,268819.625,261738.3125,227922.625,234994.546875,231869.234375,222497.671875,93102.0,1.0,2
234489.125,251266.796875,268780.90625,261711.046875,227581.53125,234977.734375,231734.9375,222381.453125,93103.0,1.0,2
234611.609375,251421.28125,268877.1875,261797.765625,227853.421875,235034.6875,231933.15625,222517.4375,93104.0,1.0,2
234749.921875,251594.203125,268992.625,261892.359375,228384.234375,235098.703125,232204.59375,222729.59375,93105.0,1.0,2
234702.890625,251534.75,268963.375,261852.125,228438.765625,235069.640625,232165.609375,222717.078125,93106.0,1.0,2
234550.984375,251340.640625,268848.3125,261747.96875,227957.671875,235007.328125,231884.421875,222510.640625,93107.0,1.0,2
234498.59375,251275.28125,268801.375,261713.28125,227612.65625,234988.28125,231747.1875,222389.9375,93108.0,1.0,2
234621.984375,251426.296875,268893.46875,261800.453125,227876.578125,235043.625,231935.65625,222525.03125,93109.0,1.0,2
234760.296875,251599.203125,269003.96875,261895.9375,228403.1875,235103.171875,232204.140625,222738.90625,93110.0,1.0,2
234707.09375,251536.625,268967.5,261855.609375,228451.296875,235072.59375,232167.3125,222721.546875,93111.0,1.0,2
234542.046875,251331.96875,268836.59375,261739.75,227953.921875,234997.21875,231879.421875,222498.75,93112.0,1.0,2
234497.4375,251275.28125,268793.78125,261714.4375,227603.359375,234986.765625,231745.40625,222380.28125,93113.0,1.0,2
234624.75,251433.359375,268888.28125,261807.609375,227867.015625,235048.984375,231944.59375,222523.078125,93114.0,1.0,2
234752.515625,251592.234375,268985.1875,261891.921875,228376.546875,235102.09375,232203.4375,222726.296875,93115.0,1.0,2
234712.46875,251540.828125,268957.125,261858.5625,228437.34375,235077.59375,232176.796875,222723.796875,93116.0,1.0,2
234557.703125,251342.515625,268833.28125,261744.75,227948.375,235001.515625,231894.359375,222510.203125,93117.0,1.0,2
234496.359375,251265.09375,268780.71875,261708.453125,227587.703125,234976.03125,231750.3125,222385.921875,93118.0,1.0,2
234619.203125,251415.921875,268875.6875,261800.265625,227841.796875,235035.21875,231937.890625,222521.734375,93119.0,1.0,2
234756.8125,251588.65625,268988.875,261895.671875,228367.25,235095.296875,232206.390625,222735.40625,93120.0,1.0,2
234696.8125,251524.90625,268947.375,261842.03125,228416.328125,235058.203125,232164.8125,222713.328125,93121.0,1.0,2
234532.84375,251317.390625,268824.25,261726.25,227923.78125,234983.71875,231872.453125,222494.375,93122.0,1.0,2
234478.125,251244.890625,268782.0625,261695.3125,227568.9375,234962.359375,231728.6875,222372.421875,93123.0,1.0,2
234598.921875,251396.78125,268876.5625,261783.109375,227822.84375,235019.125,231919.125,222505.453125,93124.0,1.0,2
234734.453125,251571.21875,268985.71875,261874.65625,228348.203125,235080.8125,232186.265625,222714.671875,93125.0,1.0,2
234690.015625,251520.890625,268957.46875,261835.765625,228419.546875,235055.78125,232162.484375,222709.484375,93126.0,1.0,2
234516.125,251305.6875,268824.1875,261713.09375,227924.5,234973.96875,231869.140625,222482.921875,93127.0,1.0,2
234480.890625,251253.828125,268793.59375,261699.515625,227581.09375,234971.734375,231737.625,222378.046875,93128.0,1.0,2
234618.140625,251423.078125,268897.03125,261800.1875,227846.09375,235038.625,231935.84375,222522.890625,93129.0,1.0,2
234751.359375,251590.625,269001.03125,261888.34375,228370.015625,235094.9375,232200.578125,222728.34375,93130.0,1.0,2
234697.984375,251530.453125,268962.03125,261840.859375,228424.640625,235064.90625,232166.234375,222706.359375,93131.0,1.0,2
234539.453125,251332.953125,268839.03125,261729.28125,227947.03125,234989.890625,231885.046875,222498.21875,93132.0,1.0,2
234478.9375,251254.546875,268784.65625,261690.84375,227576.171875,234960.75,231724.484375,222369.296875,93133.0,1.0,2
234609.546875,251412.34375,268884.0,261786.59375,227826.78125,235028.875,231915.0,222510.828125,93134.0,1.0,2
234735.4375,251572.203125,268979.21875,261865.453125,228336.671875,235078.140625,232174.203125,222706.625,93135.0,1.0,2
234692.96875,251524.1875,268950.875,261830.578125,228412.9375,235052.65625,232151.84375,222703.046875,93136.0,1.0,2
234531.6875,251317.75,268825.6875,261719.53125,227934.15625,234981.75,231867.984375,222490.796875,93137.0,1.0,2
234483.125,251251.5,268782.78125,261690.921875,227572.515625,234970.40625,231724.03125,222370.453125,93138.0,1.0,2
234619.65625,251417.703125,268885.96875,261789.71875,227825.0,235047.203125,231926.09375,222514.125,93139.0,1.0,2
234752.0625,251583.921875,268989.75,261876.09375,228343.375,235103.53125,232192.171875,222721.46875,93140.0,1.0,2
234696.453125,251522.40625,268948.90625,261828.078125,228407.03125,235059.265625,232156.859375,222703.859375,93141.0,1.0,2
234524.609375,251308.28125,268811.5625,261706.484375,227914.3125,234978.625,231866.28125,222481.046875,93142.0,1.0,2
234473.296875,251241.21875,268767.9375,261675.8125,227549.53125,234964.140625,231723.765625,222358.203125,93143.0,1.0,2
234591.21875,251389.453125,268856.90625,261761.109375,227782.171875,235018.40625,231902.578125,222483.828125,93144.0,1.0,2
234723.09375,251557.71875,268960.15625,261849.625,228299.390625,235069.375,232164.71875,222690.703125,93145.0,1.0,2
234708.890625,251537.25,268959.09375,261841.21875,228407.484375,235070.171875,232170.265625,222716.1875,93146.0,1.0,2
234563.0625,251350.828125,268848.59375,261738.671875,227944.703125,235010.359375,231901.6875,222515.109375,93147.0,1.0,2
234491.796875,251258.75,268784.03125,261687.265625,227559.015625,234970.125,231729.578125,222370.90625,93148.0,1.0,2
234612.5,251409.03125,268873.875,261775.6875,227792.625,235027.359375,231912.59375,222499.015625,93149.0,1.0,2
234745.625,251579.890625,268979.125,261864.015625,228320.125,235086.453125,232183.9375,222709.9375,93150.0,1.0,2
234704.328125,251530.8125,268949.6875,261827.546875,228404.265625,235060.171875,232159.890625,222704.921875,93151.0,1.0,2
234538.5625,251327.765625,268819.78125,261711.046875,227924.859375,234982.65625,231871.015625,222485.78125,93152.0,1.0,2
234475.4375,251251.046875,268768.65625,261675.734375,227546.046875,234964.328125,231718.3125,222355.25,93153.0,1.0,2
234593.546875,251397.140625,268858.96875,261764.0625,227772.515625,235021.71875,231899.265625,222480.6875,93154.0,1.0,2
234741.703125,251579.171875,268976.4375,261864.640625,228306.1875,235089.21875,232181.265625,222697.0625,93155.0,1.0,2
234707.0,251537.515625,268953.0,261832.640625,228407.84375,235064.453125,232170.265625,222703.5,93156.0,1.0,2
234544.28125,251336.265625,268825.53125,261714.265625,227933.796875,234987.296875,231882.734375,222490.265625,93157.0,1.0,2
234476.609375,251251.953125,268766.40625,261671.53125,227546.140625,234957.890625,231714.46875,222350.96875,93158.0,1.0,2
234594.265625,251398.3125,268856.4375,261761.375,227770.28125,235016.984375,231892.921875,222478.90625,93159.0,1.0,2
234730.34375,251570.953125,268966.59375,261854.546875,228296.078125,235075.09375,232166.859375,222691.328125,93160.0,1.0,2
234696.1875,251529.921875,268945.5,261820.65625,228394.875,235052.921875,232157.125,222694.375,93161.0,1.0,2
234541.0625,251334.03125,268828.8125,261712.921875,227930.859375,234987.296875,231886.3125,222494.1875,93162.0,1.0,2
234464.796875,251242.46875,268763.28125,261663.75,227532.8125,234954.21875,231714.375,222349.171875,93163.0,1.0,2
234595.78125,251401.53125,268865.03125,261764.0625,227764.90625,235027.078125,231902.40625,222484.890625,93164.0,1.0,2
234728.375,251569.15625,268966.875,261846.59375,228281.59375,235074.5625,232165.4375,222686.5,93165.0,1.0,2
234691.8125,251527.5,268940.3125,261813.421875,228383.34375,235043.890625,232153.09375,222689.640625,93166.0,1.0,2
234535.96875,251330.53125,268822.65625,261706.03125,227920.484375,234979.78125,231880.40625,222483.640625,93167.0,1.0,2
234479.203125,251255.078125,268775.8125,261675.28125,227537.90625,234966.203125,231727.15625,222353.90625,93168.0,1.0,2
234598.375,251401.703125,268863.4375,261760.21875,227753.46875,235022.875,231901.328125,222478.640625,93169.0,1.0,2
234734.359375,251570.0625,268967.84375,261847.84375,228271.765625,235070.71875,232169.015625,222683.203125,93170.0,1.0,2
234704.328125,251531.25,268949.4375,261820.21875,228384.328125,235051.5,232168.65625,222695.171875,93171.0,1.0,2
234541.875,251331.96875,268821.75,261703.171875,227917.796875,234976.390625,231885.765625,222480.328125,93172.0,1.0,2
234474.015625,251248.734375,268763.28125,261659.640625,227522.4375,234947.6875,231716.4375,222336.75,93173.0,1.0,2
234581.484375,251383.734375,268842.875,261737.859375,227726.734375,234993.203125,231879.328125,222447.703125,93174.0,1.0,2
234726.3125,251562.375,268958.90625,261835.328125,228259.15625,235040.3125,232157.125,222664.78125,93175.0,1.0,2
234715.671875,251543.859375,268957.9375,261825.3125,228400.328125,235034.6875,232174.015625,222698.3125,93176.0,1.0,2
234564.9375,251351.015625,268838.46875,261719.453125,227959.90625,234975.234375,231905.890625,222502.59375,93177.0,1.0,2
234494.390625,251262.234375,268778.75,261673.21875,227561.78125,234946.703125,231734.84375,222357.9375,93178.0,1.0,2
234605.984375,251400.09375,268866.09375,261756.46875,227765.890625,235008.046875,231903.390625,222469.875,93179.0,1.0,2
234755.28125,251589.015625,268993.5,261861.96875,228305.734375,235083.234375,232190.375,222696.78125,93180.0,1.0,2
234727.921875,251558.796875,268981.875,261836.296875,228430.015625,235068.21875,232194.765625,222715.65625,93181.0,1.0,2
234545.890625,251335.546875,268833.46875,261701.921875,227949.359375,234972.1875,231892.65625,222485.515625,93182.0,1.0,2
234473.5625,251245.421875,268769.09375,261654.8125,227546.765625,234942.421875,231723.859375,222344.25,93183.0,1.0,2
234590.875,251385.171875,268851.71875,261739.390625,227743.640625,235005.8125,231894.796875,222457.890625,93184.0,1.0,2
234730.34375,251559.78125,268955.78125,261832.734375,228262.28125,235062.9375,232167.21875,222664.78125,93185.0,1.0,2
234696.71875,251517.484375,268931.90625,261799.109375,228374.9375,235031.734375,232159.4375,222671.578125,93186.0,1.0,2
234536.234375,251319.546875,268805.40625,261683.6875,227912.609375,234952.96875,231876.46875,222458.96875,93187.0,1.0,2
234469.625,251234.25,268749.0625,261647.390625,227514.65625,234927.390625,231705.25,222321.546875,93188.0,1.0,2
234581.484375,251372.734375,268830.875,261729.46875,227713.234375,234981.578125,231866.640625,222438.140625,93189.0,1.0,2
234729.984375,251561.203125,268950.96875,261833.625,228256.390625,235046.390625,232156.9375,222665.671875,93190.0,1.0,2
234703.078125,251531.4375,268935.84375,261807.25,228384.6875,235022.171875,232159.171875,222682.484375,93191.0,1.0,2
234549.03125,251338.046875,268822.65625,261698.890625,227937.109375,234961.640625,231886.84375,222482.65625,93192.0,1.0,2
234477.328125,251246.671875,268764.8125,261654.625,227531.734375,234938.484375,231713.75,222338.4375,93193.0,1.0,2
234582.375,251378.90625,268843.03125,261734.203125,227719.40625,234987.75,231873.15625,222445.734375,93194.0,1.0,2
234723.1875,251555.75,268956.0625,261833.359375,228248.96875,235054.078125,232155.59375,222664.15625,93195.0,1.0,2
234697.890625,251527.046875,268939.875,261808.765625,228380.125,235035.578125,232163.921875,222684.453125,93196.0,1.0,2
234535.171875,251328.484375,268813.1875,261694.328125,227926.734375,234958.859375,231885.140625,222477.5625,93197.0,1.0,2
234466.5,251241.578125,268759.0,261653.46875,227525.484375,234941.703125,231714.640625,222336.65625,93198.0,1.0,2
234570.21875,251373.71875,268835.96875,261729.734375,227703.40625,234991.328125,231868.328125,222439.03125,93199.0,1.0,2
234712.546875,251555.578125,268950.96875,261827.1875,228234.921875,235052.296875,232146.921875,222658.171875,93200.0,1.0,2
234680.0,251520.703125,268932.28125,261792.765625,228371.0,235024.9375,232152.296875,222674.4375,93201.0,1.0,2
