FZ,C3,CZ,C4,PZ,PO7,OZ,PO8,Counter,Validation,Label
229674.5625,249100.28125,295600.9375,254105.640625,220271.09375,229362.078125,227347.65625,223123.078125,13694.0,1.0,3
227654.140625,247816.390625,294452.875,252586.53125,219142.859375,228136.671875,225762.546875,221425.421875,13695.0,1.0,3
224525.875,245663.125,292784.4375,250419.5625,217281.3125,226467.796875,222914.671875,218379.0625,13696.0,1.0,3
224824.671875,245743.21875,293022.8125,250758.515625,217378.6875,226794.578125,222900.453125,218365.921875,13697.0,1.0,3
228233.046875,248003.609375,294859.5625,253156.5,219338.65625,228683.390625,225800.546875,221472.1875,13698.0,1.0,3
229665.609375,249081.859375,295575.90625,254084.265625,220259.109375,229368.609375,227339.328125,223112.359375,13699.0,1.0,3
227672.203125,247815.328125,294446.34375,252583.75,219147.421875,228152.578125,225790.71875,221438.921875,13700.0,1.0,3
224543.9375,245670.09375,292783.09375,250418.234375,217287.484375,226484.0625,222959.375,218393.453125,13701.0,1.0,3
224814.390625,245738.484375,293008.21875,250735.0,217368.40625,226798.25,222925.046875,218354.296875,13702.0,1.0,3
228203.28125,247982.515625,294834.1875,253124.40625,219318.640625,228682.859375,225805.640625,221449.734375,13703.0,1.0,3
229668.125,249087.671875,295570.375,254082.75,220263.125,229392.296875,227362.21875,223121.296875,13704.0,1.0,3
227689.90625,247832.671875,294443.21875,252590.90625,219156.984375,228182.625,225808.59375,221461.546875,13705.0,1.0,3
224565.578125,245689.9375,292783.28125,250430.5625,217304.65625,226519.5625,222966.53125,218420.90625,13706.0,1.0,3
224797.140625,245732.3125,292984.96875,250718.1875,217365.0,226807.09375,222887.671875,218344.09375,13707.0,1.0,3
228179.765625,247971.421875,294805.9375,253096.0625,219308.890625,228681.421875,225750.75,221425.15625,13708.0,1.0,3
229679.203125,249101.53125,295558.65625,254069.25,220268.578125,229399.8125,227329.953125,223115.578125,13709.0,1.0,3
227723.0625,247865.125,294442.0625,252591.4375,219178.71875,228200.953125,225811.734375,221476.390625,13710.0,1.0,3
224582.828125,245711.3125,292768.0,250418.140625,217319.859375,226526.359375,222979.046875,218424.75,13711.0,1.0,3
224788.28125,245740.71875,292959.5,250697.265625,217370.71875,226806.109375,222902.96875,218327.921875,13712.0,1.0,3
228166.890625,247979.46875,294775.34375,253080.046875,219309.34375,228668.28125,225775.78125,221400.65625,13713.0,1.0,3
229689.484375,249127.015625,295540.3125,254072.5625,220280.203125,229394.265625,227386.0,223114.671875,13714.0,1.0,3
227761.25,247916.53125,294443.21875,252620.859375,219210.71875,228215.25,225904.265625,221511.4375,13715.0,1.0,3
224604.109375,245747.96875,292755.03125,250432.625,217335.953125,226524.390625,223057.28125,218449.234375,13716.0,1.0,3
224774.609375,245749.390625,292926.25,250681.625,217361.25,226781.171875,222939.703125,218317.453125,13717.0,1.0,3
228145.515625,247980.8125,294733.6875,253047.953125,219288.140625,228636.359375,225789.640625,221377.40625,13718.0,1.0,3
229687.609375,249138.09375,295511.4375,254056.203125,220275.5625,229377.09375,227414.34375,223114.59375,13719.0,1.0,3
227778.953125,247937.0,294429.96875,252619.703125,219223.0625,228210.703125,225945.390625,221529.671875,13720.0,1.0,3
224621.984375,245765.84375,292746.71875,250432.625,217354.28125,226519.65625,223092.6875,218467.65625,13721.0,1.0,3
224763.875,245744.203125,292896.65625,250654.171875,217358.65625,226753.359375,222933.890625,218302.171875,13722.0,1.0,3
228145.25,247982.15625,294712.15625,253027.65625,219292.796875,228620.8125,225780.4375,221362.84375,13723.0,1.0,3
229712.546875,249153.921875,295502.40625,254052.265625,220291.921875,229383.265625,227422.390625,223117.890625,13724.0,1.0,3
227824.90625,247964.984375,294431.3125,252630.6875,219248.265625,228229.734375,225970.15625,221553.8125,13725.0,1.0,3
224662.765625,245793.734375,292741.09375,250433.96875,217368.765625,226531.1875,223113.609375,218482.859375,13726.0,1.0,3
224776.21875,245761.828125,292884.5625,250645.140625,217355.96875,226754.703125,222945.875,218292.15625,13727.0,1.0,3
228139.171875,247990.375,294698.1875,253017.28125,219278.40625,228617.765625,225794.296875,221341.640625,13728.0,1.0,3
229721.046875,249171.53125,295497.75,254058.25,220285.03125,229385.59375,227457.625,223112.796875,13729.0,1.0,3
227847.703125,247992.078125,294434.96875,252646.96875,219254.703125,228240.734375,226026.125,221567.21875,13730.0,1.0,3
224684.9375,245821.453125,292746.71875,250449.4375,217379.578125,226541.46875,223168.234375,218499.40625,13731.0,1.0,3
224766.46875,245765.21875,292873.9375,250637.09375,217355.171875,226750.5,222965.71875,218283.84375,13732.0,1.0,3
228123.171875,247984.84375,294682.1875,253002.453125,219279.828125,228613.296875,225792.140625,221328.6875,13733.0,1.0,3
229723.109375,249172.875,295491.25,254055.75,220300.859375,229392.484375,227459.3125,223121.375,13734.0,1.0,3
227864.6875,248002.453125,294425.59375,252647.5,219268.75,228246.734375,226026.296875,221586.625,13735.0,1.0,3
224700.125,245838.359375,292735.28125,250448.984375,217394.0625,226547.09375,223161.078125,218518.171875,13736.0,1.0,3
224738.390625,245751.90625,292836.3125,250610.28125,217346.5,226734.40625,222923.25,218266.21875,13737.0,1.0,3
228084.546875,247961.5,294636.5,252968.390625,219262.84375,228592.46875,225742.078125,221298.015625,13738.0,1.0,3
229726.59375,249185.578125,295468.09375,254048.78125,220305.15625,229396.234375,227446.625,223118.515625,13739.0,1.0,3
227902.328125,248049.296875,294432.65625,252669.859375,219300.9375,228279.359375,226057.421875,221619.96875,13740.0,1.0,3
224722.03125,245870.359375,292735.625,250458.8125,217416.6875,226573.828125,223194.0625,218545.0,13741.0,1.0,3
224736.609375,245769.328125,292830.03125,250602.5,217360.359375,226759.4375,222946.0625,218273.203125,13742.0,1.0,3
228084.0,247975.890625,294633.90625,252964.359375,219275.625,228621.078125,225768.1875,221302.046875,13743.0,1.0,3
229734.1875,249190.765625,295465.59375,254052.625,220315.875,229423.5,227478.90625,223131.125,13744.0,1.0,3
227922.890625,248055.296875,294429.8125,252679.15625,219313.0,228307.25,226096.84375,221640.4375,13745.0,1.0,3
224734.828125,245869.921875,292728.5625,250463.921875,217425.796875,226596.8125,223224.46875,218561.984375,13746.0,1.0,3
224715.328125,245745.46875,292802.875,250581.65625,217343.71875,226753.09375,222932.109375,218254.328125,13747.0,1.0,3
228057.0,247949.609375,294602.96875,252931.8125,219249.796875,228605.421875,225728.125,221266.28125,13748.0,1.0,3
229735.171875,249189.59375,295456.5625,254038.859375,220313.5625,229430.203125,227457.625,223125.765625,13749.0,1.0,3
227945.515625,248075.140625,294436.78125,252683.4375,219331.515625,228328.265625,226096.84375,221664.40625,13750.0,1.0,3
224745.28125,245882.609375,292721.0625,250453.359375,217435.1875,226597.890625,223212.75,218575.125,13751.0,1.0,3
224694.140625,245738.75,292776.65625,250551.09375,217335.046875,226742.28125,222898.40625,218236.1875,13752.0,1.0,3
228036.078125,247942.90625,294578.9375,252910.171875,219247.640625,228606.40625,225705.328125,221249.203125,13753.0,1.0,3
229731.6875,249187.90625,295432.6875,254026.15625,220313.90625,229430.5625,227448.765625,223114.765625,13754.0,1.0,3
227962.140625,248084.171875,294422.46875,252687.734375,219343.9375,228337.75,226109.625,221674.421875,13755.0,1.0,3
224777.46875,245907.109375,292716.75,250468.65625,217458.171875,226618.171875,223237.4375,218594.34375,13756.0,1.0,3
224679.390625,245728.65625,292746.34375,250535.265625,217331.296875,226731.1875,222885.4375,218217.953125,13757.0,1.0,3
228006.484375,247920.734375,294543.15625,252887.921875,219234.5,228584.953125,225674.9375,221217.375,13758.0,1.0,3
229738.578125,249196.03125,295428.375,254037.515625,220333.578125,229441.921875,227454.140625,223124.875,13759.0,1.0,3
227989.859375,248106.703125,294426.9375,252704.625,219369.5,228355.0,226127.609375,221701.328125,13760.0,1.0,3
224795.890625,245923.5625,292720.15625,250478.21875,217479.265625,226624.4375,223251.734375,218618.578125,13761.0,1.0,3
224663.828125,245723.109375,292732.0625,250521.046875,217331.46875,226702.046875,222866.578125,218206.59375,13762.0,1.0,3
227979.21875,247903.75,294520.8125,252861.984375,219225.03125,228544.71875,225642.296875,221191.0,13763.0,1.0,3
229738.484375,249195.671875,295412.28125,254024.8125,220331.796875,229410.8125,227437.6875,223119.140625,13764.0,1.0,3
228007.203125,248118.328125,294417.46875,252707.21875,219380.421875,228337.03125,226135.109375,221718.40625,13765.0,1.0,3
224804.109375,245923.65625,292699.0625,250474.546875,217482.125,226605.484375,223253.796875,218628.328125,13766.0,1.0,3
224639.328125,245696.5625,292691.8125,250495.921875,217315.203125,226680.9375,222838.671875,218187.90625,13767.0,1.0,3
227955.96875,247880.046875,294487.03125,252842.3125,219209.734375,228525.40625,225612.078125,221170.703125,13768.0,1.0,3
229740.453125,249189.328125,295397.8125,254024.015625,220331.171875,229401.15625,227426.421875,223118.15625,13769.0,1.0,3
228036.796875,248132.890625,294420.5,252722.515625,219396.515625,228337.296875,226141.8125,221741.46875,13770.0,1.0,3
224828.875,245936.4375,292698.875,250479.203125,217496.609375,226601.109375,223256.296875,218650.40625,13771.0,1.0,3
224629.140625,245689.5,292670.625,250466.5,217305.1875,226657.078125,222814.625,218173.953125,13772.0,1.0,3
227921.375,247848.671875,294446.15625,252789.5625,219178.625,228491.96875,225570.59375,221131.265625,13773.0,1.0,3
229728.015625,249171.171875,295368.84375,253990.578125,220312.296875,229391.3125,227412.828125,223099.65625,13774.0,1.0,3
228036.984375,248119.125,294398.9375,252706.328125,219383.09375,228338.640625,226150.578125,221738.25,13775.0,1.0,3
224841.84375,245940.90625,292694.5,250484.921875,217500.984375,226618.796875,223284.734375,218664.171875,13776.0,1.0,3
224608.125,245673.84375,292651.21875,250458.546875,217299.28125,226661.0,222815.515625,218164.921875,13777.0,1.0,3
227907.875,247842.953125,294436.3125,252792.25,219184.34375,228504.484375,225563.265625,221124.65625,13778.0,1.0,3
229733.921875,249176.90625,295366.96875,254001.578125,220328.390625,229414.734375,227406.296875,223109.40625,13779.0,1.0,3
228059.859375,248140.859375,294407.1875,252727.25,219417.78125,228379.234375,226159.515625,221778.578125,13780.0,1.0,3
224848.09375,245946.1875,292682.34375,250480.09375,217513.234375,226637.671875,223268.640625,218685.09375,13781.0,1.0,3
224579.4375,245649.53125,292619.40625,250425.375,217284.984375,226655.734375,222769.390625,218147.765625,13782.0,1.0,3
227854.953125,247793.78125,294391.0,252744.328125,219151.171875,228481.15625,225506.5,221086.296875,13783.0,1.0,3
229708.703125,249143.375,295337.0,253976.265625,220307.828125,229396.671875,227381.625,223090.265625,13784.0,1.0,3
228078.828125,248142.734375,294401.1875,252728.6875,219421.09375,228376.359375,226175.53125,221789.3125,13785.0,1.0,3
224861.0625,245945.46875,292679.9375,250481.796875,217523.078125,226634.890625,223293.3125,218701.640625,13786.0,1.0,3
224563.515625,245633.078125,292603.3125,250409.46875,217280.15625,226636.234375,222766.96875,218141.328125,13787.0,1.0,3
227841.625,247786.4375,294378.46875,252734.671875,219151.71875,228472.390625,225502.296875,221083.265625,13788.0,1.0,3
229718.984375,249156.515625,295334.875,253982.265625,220321.0625,229405.53125,227392.171875,223107.53125,13789.0,1.0,3
228108.59375,248172.59375,294418.25,252760.15625,219458.203125,228408.46875,226212.0,221835.0,13790.0,1.0,3
224883.6875,245969.609375,292686.4375,250504.140625,217552.84375,226657.34375,223323.265625,218737.046875,13791.0,1.0,3
224556.984375,245642.90625,292590.34375,250407.765625,217292.671875,226644.828125,222771.4375,218145.171875,13792.0,1.0,3
227820.796875,247782.234375,294356.84375,252719.03125,219153.765625,228471.765625,225492.8125,221069.140625,13793.0,1.0,3
229717.296875,249159.828125,295321.8125,253975.546875,220330.625,229415.71875,227403.0,223110.75,13794.0,1.0,3
228115.390625,248176.265625,294398.78125,252745.578125,219458.46875,228409.890625,226228.984375,221841.515625,13795.0,1.0,3
224892.984375,245979.96875,292667.21875,250488.953125,217552.21875,226652.78125,223342.75,218745.53125,13796.0,1.0,3
224525.25,245620.375,292549.3125,250367.71875,217264.875,226617.734375,222758.84375,218118.609375,13797.0,1.0,3
227777.703125,247747.109375,294310.15625,252679.15625,219113.453125,228441.28125,225466.265625,221026.484375,13798.0,1.0,3
229700.9375,249139.34375,295296.34375,253964.109375,220310.15625,229402.671875,227393.875,223092.859375,13799.0,1.0,3
228119.859375,248165.4375,294383.03125,252752.5625,219449.53125,228407.84375,226230.421875,221844.296875,13800.0,1.0,3
224904.96875,245971.75,292655.96875,250500.390625,217547.84375,226660.375,223345.25,218755.015625,13801.0,1.0,3
224519.625,245602.765625,292537.6875,250367.265625,217259.59375,226624.890625,222743.8125,218114.0625,13802.0,1.0,3
227760.359375,247723.328125,294293.4375,252662.875,219102.53125,228441.1875,225436.3125,221008.96875,13803.0,1.0,3
229712.546875,249141.765625,295292.21875,253957.3125,220312.125,229416.4375,227383.328125,223096.703125,13804.0,1.0,3
228142.125,248171.515625,294381.6875,252749.421875,219456.234375,228427.0625,226234.890625,221861.90625,13805.0,1.0,3
224927.84375,245981.765625,292658.1875,250501.828125,217559.734375,226685.6875,223358.40625,218777.359375,13806.0,1.0,3
224501.921875,245589.890625,292512.46875,250339.90625,217243.5,226626.140625,222722.453125,218097.875,13807.0,1.0,3
227726.203125,247695.34375,294255.71875,252630.15625,219076.25,228432.78125,225396.609375,220977.578125,13808.0,1.0,3
229696.640625,249120.3125,295266.125,253948.015625,220302.921875,229421.4375,227359.8125,223084.8125,13809.0,1.0,3
228173.859375,248199.6875,294393.78125,252780.1875,219487.53125,228463.8125,226256.34375,221897.765625,13810.0,1.0,3
224943.765625,246000.71875,292657.46875,250513.265625,217580.65625,226702.84375,223369.125,218802.9375,13811.0,1.0,3
224477.5,245576.484375,292486.09375,250316.390625,217239.65625,226614.25,222693.921875,218084.546875,13812.0,1.0,3
227696.78125,247677.09375,294229.78125,252599.578125,219068.65625,228422.6875,225360.578125,220953.4375,13813.0,1.0,3
229695.296875,249120.578125,295259.9375,253938.625,220310.421875,229432.359375,227352.203125,223088.125,13814.0,1.0,3
228180.65625,248197.0,294384.03125,252772.671875,219490.828125,228470.953125,226258.5,221907.765625,13815.0,1.0,3
224953.59375,245997.671875,292641.84375,250500.296875,217578.6875,226703.296875,223370.109375,218808.84375,13816.0,1.0,3
224449.171875,245547.421875,292452.65625,250279.296875,217215.421875,226596.0,222671.84375,218060.40625,13817.0,1.0,3
227664.234375,247646.703125,294196.8125,252565.0625,219042.015625,228403.375,225335.546875,220924.921875,13818.0,1.0,3
229693.25,249114.40625,295240.09375,253923.78125,220296.484375,229424.9375,227345.0625,223078.5625,13819.0,1.0,3
228211.328125,248219.625,294383.03125,252781.4375,219499.5,228483.921875,226279.859375,221929.3125,13820.0,1.0,3
224967.8125,246004.03125,292631.8125,250503.078125,217580.03125,226709.828125,223384.953125,218824.296875,13821.0,1.0,3
224445.234375,245545.09375,292438.53125,250275.625,217212.75,226599.84375,222670.59375,218058.171875,13822.0,1.0,3
227644.84375,247635.25,294172.5625,252544.421875,219026.0,228392.453125,225313.1875,220899.796875,13823.0,1.0,3
229687.703125,249110.375,295222.40625,253907.78125,220291.5625,229419.65625,227337.28125,223068.984375,13824.0,1.0,3
228212.9375,248214.078125,294369.28125,252770.890625,219500.125,228480.96875,226282.1875,221931.734375,13825.0,1.0,3
224982.921875,246017.078125,292631.5625,250502.1875,217592.359375,226712.765625,223397.296875,218836.90625,13826.0,1.0,3
224417.34375,245528.828125,292410.28125,250241.46875,217195.75,226569.8125,222644.484375,218030.015625,13827.0,1.0,3
227617.75,247619.703125,294149.59375,252520.09375,219015.453125,228372.171875,225289.328125,220875.203125,13828.0,1.0,3
229692.078125,249118.515625,295215.875,253909.484375,220298.984375,229421.09375,227337.8125,223070.234375,13829.0,1.0,3
228232.875,248234.90625,294373.03125,252785.359375,219520.875,228496.265625,226303.203125,221957.65625,13830.0,1.0,3
224989.90625,246020.65625,292622.25,250504.140625,217604.171875,226716.703125,223408.828125,218857.203125,13831.0,1.0,3
224388.1875,245504.953125,292372.90625,250209.28125,217175.28125,226543.078125,222612.390625,218008.46875,13832.0,1.0,3
227588.6875,247599.21875,294117.9375,252486.75,218996.40625,228348.828125,225254.0,220847.671875,13833.0,1.0,3
229685.90625,249106.265625,295200.5625,253893.203125,220292.71875,229411.4375,227321.0,223063.890625,13834.0,1.0,3
228251.5625,248234.8125,294365.15625,252782.234375,219521.328125,228494.03125,226298.8125,221966.875,13835.0,1.0,3
225023.0625,246037.90625,292625.03125,250510.5,217615.515625,226725.375,223416.78125,218879.109375,13836.0,1.0,3
224396.0625,245507.375,292372.28125,250206.6875,217183.15625,226552.734375,222611.140625,218015.625,13837.0,1.0,3
227558.65625,247563.46875,294085.75,252455.1875,218973.171875,228330.328125,225215.296875,220817.28125,13838.0,1.0,3
229689.671875,249097.0625,295187.4375,253887.578125,220287.71875,229410.984375,227307.59375,223060.140625,13839.0,1.0,3
228289.015625,248255.828125,294377.21875,252804.765625,219542.515625,228517.453125,226322.234375,221998.78125,13840.0,1.0,3
225039.078125,246040.6875,292620.1875,250516.75,217620.890625,226733.515625,223425.09375,218894.75,13841.0,1.0,3
224378.53125,245490.65625,292345.09375,250189.96875,217166.78125,226538.609375,222588.703125,217997.828125,13842.0,1.0,3
227538.625,247551.65625,294058.75,252438.46875,218956.0,228315.5625,225187.046875,220793.046875,13843.0,1.0,3
229679.390625,249086.15625,295160.0,253875.953125,220274.9375,229403.203125,227288.015625,223046.1875,13844.0,1.0,3
228290.265625,248248.140625,294350.84375,252799.046875,219531.515625,228513.34375,226315.625,221998.703125,13845.0,1.0,3
225054.546875,246049.09375,292606.53125,250521.140625,217624.546875,226740.84375,223438.421875,218912.375,13846.0,1.0,3
224369.421875,245485.5625,292326.0625,250178.265625,217164.375,226538.421875,222588.96875,217999.796875,13847.0,1.0,3
227510.453125,247528.234375,294028.625,252410.390625,218937.046875,228303.59375,225168.53125,220774.53125,13848.0,1.0,3
229677.15625,249079.890625,295146.5625,253865.84375,220271.265625,229404.546875,227287.921875,223047.625,13849.0,1.0,3
228308.328125,248256.8125,294345.03125,252802.171875,219543.84375,228524.609375,226333.15625,222018.640625,13850.0,1.0,3
225076.09375,246060.0,292599.46875,250525.34375,217638.3125,226753.90625,223458.359375,218935.265625,13851.0,1.0,3
224357.796875,245474.109375,292301.28125,250159.484375,217156.78125,226530.734375,222580.296875,217991.921875,13852.0,1.0,3
227494.1875,247517.859375,294010.03125,252396.453125,218936.78125,228305.015625,225160.125,220765.15625,13853.0,1.0,3
229670.265625,249075.25,295126.5625,253853.328125,220270.546875,229405.625,227287.84375,223045.203125,13854.0,1.0,3
228331.03125,248275.953125,294340.21875,252805.578125,219556.90625,228537.921875,226360.5,222043.484375,13855.0,1.0,3
225092.1875,246070.453125,292593.375,250524.53125,217648.328125,226760.0625,223485.453125,218961.546875,13856.0,1.0,3
224335.625,245454.265625,292271.875,250128.90625,217138.625,226509.109375,222570.1875,217979.9375,13857.0,1.0,3
227464.765625,247493.546875,293980.34375,252363.1875,218912.453125,228277.84375,225140.546875,220742.265625,13858.0,1.0,3
229671.515625,249073.375,295116.71875,253844.921875,220263.3125,229399.71875,227290.25,223045.5625,13859.0,1.0,3
228350.078125,248287.296875,294341.28125,252812.640625,219564.59375,228548.921875,226381.875,222066.46875,13860.0,1.0,3
225107.921875,246082.078125,292588.1875,250524.4375,217652.625,226765.515625,223503.234375,218980.3125,13861.0,1.0,3
224318.984375,245446.390625,292246.9375,250106.109375,217125.75,226500.875,222558.75,217968.953125,13862.0,1.0,3
227428.828125,247468.328125,293939.65625,252322.78125,218882.859375,228257.1875,225108.1875,220709.0,13863.0,1.0,3
229654.171875,249058.4375,295091.5,253823.296875,220252.140625,229394.984375,227279.515625,223036.625,13864.0,1.0,3
228357.328125,248289.984375,294332.625,252814.875,219569.328125,228557.6875,226396.453125,222082.296875,13865.0,1.0,3
225124.015625,246096.296875,292584.25,250532.671875,217663.09375,226776.875,223525.0625,219001.78125,13866.0,1.0,3
224296.8125,245434.953125,292219.9375,250086.796875,217112.609375,226488.625,222547.84375,217956.25,13867.0,1.0,3
227394.40625,247448.390625,293911.78125,252300.328125,218867.125,228245.828125,225083.953125,220686.390625,13868.0,1.0,3
229646.484375,249056.375,295074.15625,253814.4375,220244.625,229395.15625,227265.3125,223025.71875,13869.0,1.0,3
228377.703125,248307.6875,294328.3125,252823.09375,219578.1875,228573.515625,226406.546875,222095.171875,13870.0,1.0,3
225145.640625,246111.40625,292583.28125,250542.421875,217675.953125,226797.171875,223544.359375,219023.59375,13871.0,1.0,3
224288.5,245425.828125,292200.78125,250074.8125,217106.34375,226490.6875,222543.640625,217951.515625,13872.0,1.0,3
227366.515625,247422.46875,293872.0,252271.8125,218841.734375,228231.96875,225058.03125,220654.90625,13873.0,1.0,3
229653.453125,249056.46875,295060.75,253817.390625,220248.5625,229410.984375,227277.828125,223031.890625,13874.0,1.0,3
228405.515625,248319.671875,294328.9375,252837.484375,219594.8125,228599.890625,226438.828125,222125.203125,13875.0,1.0,3
225171.390625,246122.578125,292573.34375,250543.3125,217682.3125,226809.515625,223565.5625,219045.140625,13876.0,1.0,3
224281.96875,245417.609375,292174.6875,250049.515625,217095.890625,226483.0,222534.6875,217940.96875,13877.0,1.0,3
227339.875,247398.59375,293841.0625,252234.0,218823.671875,228214.8125,225032.8125,220628.53125,13878.0,1.0,3
229630.5625,249026.421875,295029.09375,253785.03125,220228.265625,229390.6875,227257.265625,223009.0,13879.0,1.0,3
228405.953125,248305.359375,294306.78125,252823.640625,219587.75,228592.015625,226438.296875,222121.640625,13880.0,1.0,3
225180.15625,246114.171875,292556.09375,250540.625,217683.5625,226810.671875,223575.5625,219052.921875,13881.0,1.0,3
224257.296875,245383.359375,292133.65625,250023.578125,217074.703125,226464.84375,222514.125,217916.015625,13882.0,1.0,3
227315.375,247368.015625,293805.8125,252216.296875,218806.78125,228206.578125,225010.640625,220598.140625,13883.0,1.0,3
229639.0625,249025.453125,295012.09375,253787.171875,220225.40625,229398.828125,227252.515625,222999.609375,13884.0,1.0,3
228426.171875,248316.1875,294294.96875,252832.9375,219590.25,228600.15625,226442.5,222129.953125,13885.0,1.0,3
225193.203125,246121.15625,292546.71875,250547.515625,217689.90625,226812.015625,223581.109375,219067.140625,13886.0,1.0,3
224251.125,245386.046875,292126.40625,250023.765625,217081.21875,226464.9375,222510.90625,217921.03125,13887.0,1.0,3
227285.875,247354.96875,293775.78125,252190.71875,218786.65625,228181.015625,224977.734375,220573.640625,13888.0,1.0,3
229624.84375,249017.578125,294990.5625,253773.140625,220213.859375,229380.765625,227231.953125,222993.171875,13889.0,1.0,3
228445.203125,248330.3125,294299.53125,252847.140625,219604.203125,228606.140625,226457.6875,222160.34375,13890.0,1.0,3
225226.296875,246146.453125,292560.75,250568.078125,217709.21875,226833.296875,223610.265625,219105.40625,13891.0,1.0,3
224249.875,245388.734375,292117.65625,250013.484375,217074.4375,226464.21875,222507.25,217920.125,13892.0,1.0,3
227261.1875,247335.03125,293761.75,252169.625,218772.984375,228173.5,224961.640625,220555.40625,13893.0,1.0,3
229623.765625,249012.21875,294985.71875,253765.53125,220214.3125,229382.203125,227234.46875,222991.03125,13894.0,1.0,3
228464.078125,248336.921875,294295.5,252847.765625,219609.03125,228611.0625,226476.375,222170.359375,13895.0,1.0,3
225240.59375,246150.296875,292546.4375,250565.921875,217712.078125,226824.4375,223627.78125,219113.171875,13896.0,1.0,3
224218.046875,245355.296875,292079.28125,249983.796875,217054.9375,226427.921875,222492.21875,217895.0,13897.0,1.0,3
227221.3125,247298.734375,293721.875,252136.265625,218748.671875,228137.921875,224932.140625,220519.640625,13898.0,1.0,3
229618.671875,248999.421875,294966.0625,253755.875,220208.0625,229369.5,227227.75,222980.484375,13899.0,1.0,3
228493.3125,248352.65625,294299.09375,252866.375,219630.84375,228624.03125,226501.59375,222198.25,13900.0,1.0,3
225266.609375,246165.671875,292547.34375,250577.640625,217733.71875,226835.34375,223647.90625,219141.96875,13901.0,1.0,3
224220.109375,245363.78125,292066.78125,249972.890625,217059.953125,226427.203125,222482.75,217894.375,13902.0,1.0,3
227202.546875,247289.703125,293697.46875,252110.96875,218741.0625,228130.140625,224900.84375,220498.984375,13903.0,1.0,3
229601.421875,248982.625,294936.28125,253729.6875,220194.734375,229363.234375,227195.75,222961.4375,13904.0,1.0,3
228503.859375,248356.328125,294281.5625,252856.71875,219631.296875,228634.84375,226496.9375,222203.625,13905.0,1.0,3
225283.15625,246172.109375,292534.375,250577.1875,217742.5625,226853.3125,223659.703125,219158.859375,13906.0,1.0,3
224199.09375,245341.78125,292030.125,249948.390625,217043.140625,226418.53125,222462.90625,217877.390625,13907.0,1.0,3
227172.5,247265.109375,293658.125,252081.109375,218712.984375,228110.65625,224869.203125,220463.671875,13908.0,1.0,3
229599.1875,248976.453125,294921.0,253726.375,220188.65625,229361.359375,227194.9375,222956.6875,13909.0,1.0,3
228516.734375,248356.859375,294275.21875,252864.9375,219631.203125,228636.90625,226509.109375,222217.828125,13910.0,1.0,3
225313.375,246194.1875,292542.25,250596.234375,217753.03125,226867.625,223683.65625,219188.28125,13911.0,1.0,3
224200.875,245350.015625,292028.15625,249948.21875,217047.875,226431.3125,222470.046875,217887.234375,13912.0,1.0,3
227145.140625,247253.3125,293634.96875,252055.890625,218701.90625,228113.0625,224847.921875,220447.390625,13913.0,1.0,3
229607.140625,248995.9375,294915.46875,253720.828125,220196.25,229385.421875,227193.78125,222964.734375,13914.0,1.0,3
228554.375,248398.609375,294290.21875,252880.765625,219661.515625,228677.21875,226537.71875,222255.03125,13915.0,1.0,3
225340.734375,246222.171875,292548.5,250600.96875,217776.71875,226893.46875,223709.140625,219223.59375,13916.0,1.0,3
224178.53125,245331.6875,291997.65625,249913.796875,217031.96875,226415.21875,222450.203125,217877.125,13917.0,1.0,3
227118.046875,247231.3125,293606.0,252024.515625,218686.34375,228096.078125,224826.1875,220432.015625,13918.0,1.0,3
229600.34375,248987.09375,294897.40625,253709.03125,220193.75,229378.796875,227192.0,222965.015625,13919.0,1.0,3
228566.171875,248401.203125,294276.5625,252878.625,219664.015625,228677.671875,226548.890625,222269.421875,13920.0,1.0,3
225363.359375,246235.859375,292536.34375,250603.484375,217783.78125,226898.015625,223727.5625,219242.640625,13921.0,1.0,3
224174.421875,245333.921875,291973.34375,249902.625,217028.125,226409.328125,222449.578125,217871.046875,13922.0,1.0,3
227078.453125,247202.890625,293558.09375,251988.484375,218653.625,228066.296875,224791.765625,220388.5625,13923.0,1.0,3
229571.296875,248958.84375,294855.8125,253679.53125,220162.546875,229355.640625,227164.359375,222933.71875,13924.0,1.0,3
228556.078125,248387.265625,294249.71875,252865.65625,219647.5625,228669.171875,226541.5625,222263.796875,13925.0,1.0,3
225352.0,246220.65625,292512.03125,250591.59375,217768.140625,226886.125,223721.921875,219242.90625,13926.0,1.0,3
224131.765625,245294.5,291933.5625,249868.109375,216993.25,226375.890625,222414.4375,217844.046875,13927.0,1.0,3
227036.15625,247164.078125,293522.9375,251955.484375,218620.546875,228035.71875,224748.234375,220356.734375,13928.0,1.0,3
229558.5,248940.421875,294837.21875,253668.703125,220148.25,229341.421875,227137.0,222924.15625,13929.0,1.0,3
228585.40625,248403.265625,294259.65625,252885.765625,219669.640625,228685.453125,226557.296875,222297.140625,13930.0,1.0,3
225386.234375,246243.453125,292519.0,250605.453125,217791.75,226903.828125,223741.421875,219279.203125,13931.0,1.0,3
224148.484375,245315.40625,291933.03125,249864.53125,217007.546875,226389.921875,222418.546875,217856.921875,13932.0,1.0,3
227024.171875,247168.1875,293510.4375,251934.484375,218623.578125,228041.359375,224738.9375,220347.0,13933.0,1.0,3
229569.6875,248963.671875,294836.875,253665.046875,220164.15625,229362.703125,227156.234375,222933.0,13934.0,1.0,3
228601.9375,248420.15625,294250.34375,252888.625,219679.03125,228700.734375,226583.046875,222310.8125,13935.0,1.0,3
225404.65625,246259.015625,292510.6875,250615.640625,217803.015625,226919.484375,223772.984375,219298.15625,13936.0,1.0,3
224133.828125,245304.421875,291902.71875,249853.09375,216997.71875,226383.3125,222419.0,217846.28125,13937.0,1.0,3
226998.78125,247150.671875,293475.1875,251920.53125,218608.46875,228030.890625,224722.65625,220324.375,13938.0,1.0,3
229546.171875,248940.0625,294801.90625,253652.890625,220150.203125,229350.453125,227134.5,222917.4375,13939.0,1.0,3
228613.5625,248422.125,294240.96875,252895.703125,219689.578125,228714.953125,226588.234375,222330.75,13940.0,1.0,3
225422.265625,246261.34375,292506.375,250618.59375,217816.859375,226938.34375,223781.75,219322.5625,13941.0,1.0,3
224118.8125,245283.578125,291884.90625,249831.1875,216991.546875,226380.71875,222401.390625,217845.46875,13942.0,1.0,3
226968.65625,247118.65625,293449.90625,251884.40625,218589.25,228016.140625,224686.8125,220302.734375,13943.0,1.0,3
229556.71875,248939.609375,294799.125,253644.390625,220151.8125,229359.125,227131.109375,222919.234375,13944.0,1.0,3
228638.234375,248433.296875,294239.1875,252899.8125,219696.5625,228727.5625,226603.875,222343.8125,13945.0,1.0,3
225450.34375,246281.015625,292503.15625,250631.015625,217827.6875,226950.765625,223808.390625,219345.015625,13946.0,1.0,3
224107.8125,245277.421875,291856.84375,249819.015625,216980.546875,226377.234375,222396.5625,217831.625,13947.0,1.0,3
226938.25,247098.640625,293417.0,251862.515625,218570.390625,228012.484375,224661.59375,220272.703125,13948.0,1.0,3
229537.046875,248923.25,294771.0625,253627.484375,220136.34375,229365.921875,227104.90625,222901.625,13949.0,1.0,3
228647.0,248433.65625,294228.46875,252902.671875,219699.59375,228752.140625,226595.375,222356.859375,13950.0,1.0,3
225475.109375,246292.1875,292505.3125,250641.828125,217843.953125,226985.015625,223809.90625,219374.515625,13951.0,1.0,3
224107.625,245275.8125,291848.0,249807.84375,216987.078125,226395.46875,222379.578125,217838.859375,13952.0,1.0,3
226921.890625,247088.4375,293397.40625,251836.84375,218566.71875,228017.578125,224637.09375,220260.0,13953.0,1.0,3
229536.6875,248920.921875,294763.375,253614.34375,220141.53125,229377.71875,227110.8125,222902.875,13954.0,1.0,3
228673.828125,248451.984375,294235.78125,252908.03125,219716.578125,228773.953125,226638.296875,222379.65625,13955.0,1.0,3
225513.203125,246326.875,292514.4375,250653.71875,217865.0625,227008.265625,223869.890625,219401.875,13956.0,1.0,3
224123.640625,245301.28125,291848.34375,249813.296875,217000.40625,226412.359375,222427.578125,217849.046875,13957.0,1.0,3
226898.734375,247078.515625,293374.78125,251818.609375,218550.265625,228010.15625,224641.390625,220234.96875,13958.0,1.0,3
229529.984375,248917.796875,294744.6875,253608.265625,220130.71875,229376.65625,227104.546875,222886.421875,13959.0,1.0,3
228709.671875,248484.890625,294243.65625,252932.625,219736.875,228801.234375,226650.359375,222403.0,13960.0,1.0,3
225538.140625,246345.296875,292518.625,250669.8125,217884.90625,227031.6875,223868.828125,219428.515625,13961.0,1.0,3
224106.46875,245282.421875,291824.9375,249789.15625,216990.828125,226408.78125,222381.453125,217836.171875,13962.0,1.0,3
226874.78125,247057.15625,293346.1875,251778.90625,218535.4375,228000.765625,224585.0625,220204.390625,13963.0,1.0,3
229541.15625,248930.40625,294740.3125,253592.890625,220143.328125,229389.796875,227092.65625,222887.84375,13964.0,1.0,3
228732.921875,248507.875,294246.34375,252929.3125,219762.09375,228820.90625,226678.34375,222425.4375,13965.0,1.0,3
225560.3125,246374.078125,292509.5,250659.453125,217899.65625,227036.15625,223910.40625,219443.53125,13966.0,1.0,3
224099.140625,245298.421875,291793.375,249758.765625,216984.484375,226384.640625,222408.890625,217819.375,13967.0,1.0,3
226854.21875,247067.34375,293309.8125,251753.875,218528.015625,227972.34375,224614.84375,220178.734375,13968.0,1.0,3
229540.984375,248955.0,294713.03125,253586.28125,220147.609375,229371.28125,227142.28125,222876.765625,13969.0,1.0,3
228748.484375,248539.515625,294217.90625,252927.796875,219765.765625,228799.890625,226733.421875,222424.8125,13970.0,1.0,3
225595.09375,246417.171875,292501.8125,250680.28125,217923.34375,227030.4375,223986.75,219470.625,13971.0,1.0,3
224104.5,245318.625,291778.4375,249763.140625,216996.28125,226366.859375,222458.25,217828.3125,13972.0,1.0,3
226835.34375,247069.21875,293283.0625,251739.75,218523.265625,227946.765625,224630.03125,220164.78125,13973.0,1.0,3
229533.03125,248956.0625,294689.78125,253575.1875,220143.421875,229354.65625,227152.125,222868.984375,13974.0,1.0,3
228766.8125,248553.375,294214.5,252933.875,219779.703125,228808.203125,226763.46875,222442.875,13975.0,1.0,3
225617.796875,246430.046875,292494.3125,250678.484375,217934.703125,227041.96875,224015.09375,219489.484375,13976.0,1.0,3
224113.625,245327.21875,291759.125,249744.015625,216997.546875,226373.46875,222472.375,217827.78125,13977.0,1.0,3
226834.71875,247076.1875,293263.5625,251713.828125,218520.3125,227953.65625,224636.828125,220150.03125,13978.0,1.0,3
229539.546875,248966.609375,294674.0625,253556.59375,220141.53125,229368.515625,227167.578125,222861.125,13979.0,1.0,3
228805.96875,248595.046875,294222.65625,252949.421875,219805.546875,228843.078125,226818.71875,222471.65625,13980.0,1.0,3
225683.609375,246500.765625,292527.65625,250723.46875,217985.84375,227094.359375,224100.921875,219547.15625,13981.0,1.0,3
224137.5,245363.34375,291765.28125,249759.125,217017.828125,226388.578125,222519.765625,217846.375,13982.0,1.0,3
226822.203125,247079.859375,293243.8125,251699.703125,218511.46875,227943.640625,224646.578125,220129.28125,13983.0,1.0,3
229558.59375,248991.921875,294677.0,253563.46875,220153.34375,229379.515625,227200.671875,222864.0625,13984.0,1.0,3
228840.203125,248623.921875,294230.875,252959.0,219823.515625,228856.484375,226860.734375,222489.09375,13985.0,1.0,3
225712.03125,246520.53125,292521.21875,250715.859375,217994.78125,227095.171875,224128.46875,219557.625,13986.0,1.0,3
224132.484375,245359.84375,291741.5,249731.40625,217014.890625,226387.0625,222518.78125,217833.671875,13987.0,1.0,3
226801.1875,247067.34375,293215.65625,251665.8125,218507.171875,227940.859375,224625.75,220103.71875,13988.0,1.0,3
229547.859375,248985.578125,294651.09375,253539.34375,220155.125,229375.765625,227177.421875,222847.96875,13989.0,1.0,3
228857.5625,248643.40625,294220.75,252963.828125,219845.421875,228872.75,226857.96875,222504.296875,13990.0,1.0,3
225732.0625,246546.546875,292511.84375,250725.4375,218018.296875,227115.109375,224128.015625,219579.96875,13991.0,1.0,3
224140.71875,245387.5625,291734.34375,249733.734375,217034.5625,226398.953125,222509.296875,217842.078125,13992.0,1.0,3
226779.375,247072.0,293194.90625,251651.6875,218507.71875,227932.90625,224597.3125,220085.203125,13993.0,1.0,3
229531.59375,248986.015625,294636.15625,253533.078125,220158.25,229375.3125,227164.984375,222837.875,13994.0,1.0,3
228870.78125,248661.203125,294218.8125,252967.484375,219854.984375,228886.796875,226869.6875,222512.515625,13995.0,1.0,3
225765.0625,246577.390625,292525.53125,250742.859375,218041.546875,227143.625,224162.890625,219608.140625,13996.0,1.0,3
224126.140625,245375.140625,291717.8125,249717.546875,217027.21875,226399.21875,222509.03125,217831.265625,13997.0,1.0,3
226734.046875,247030.953125,293156.28125,251608.5,218477.046875,227913.6875,224562.625,220040.78125,13998.0,1.0,3
229522.296875,248970.734375,294615.3125,253509.5625,220144.671875,229376.65625,227147.015625,222815.796875,13999.0,1.0,3
228880.359375,248655.484375,294206.46875,252955.953125,219853.640625,228894.65625,226870.9375,222514.390625,14000.0,1.0,3
225769.265625,246564.609375,292510.84375,250729.28125,218039.578125,227145.59375,224171.828125,219616.546875,14001.0,1.0,3
224116.484375,245364.765625,291700.90625,249698.328125,217023.640625,226402.265625,222513.234375,217829.65625,14002.0,1.0,3
226710.796875,247020.21875,293133.5625,251582.671875,218465.0625,227917.53125,224559.40625,220021.734375,14003.0,1.0,3
229510.765625,248967.0625,294599.75,253500.171875,220140.828125,229385.421875,227164.640625,222807.921875,14004.0,1.0,3
228901.28125,248680.25,294212.0,252982.78125,219875.8125,228923.984375,226923.5,222540.6875,14005.0,1.0,3
225797.6875,246597.78125,292509.6875,250755.296875,218060.234375,227168.921875,224213.578125,219643.890625,14006.0,1.0,3
224104.234375,245367.09375,291667.75,249688.75,217015.59375,226386.796875,222500.359375,217818.296875,14007.0,1.0,3
226679.328125,247009.765625,293096.65625,251565.140625,218454.703125,227893.75,224517.203125,219998.9375,14008.0,1.0,3
229497.4375,248970.375,294574.375,253491.421875,220142.703125,229376.65625,227121.265625,222803.625,14009.0,1.0,3
228897.609375,248684.0,294188.59375,252972.046875,219879.65625,228922.640625,226877.734375,222550.78125,14010.0,1.0,3
225808.328125,246613.15625,292495.65625,250747.78125,218074.0,227173.9375,224180.5,219669.734375,14011.0,1.0,3
224099.046875,245370.84375,291651.03125,249668.640625,217022.578125,226389.125,222464.859375,217831.890625,14012.0,1.0,3
226644.828125,246984.375,293058.21875,251521.421875,218434.046875,227870.765625,224460.703125,219975.421875,14013.0,1.0,3
229487.421875,248955.703125,294550.125,253469.328125,220130.1875,229361.1875,227092.296875,222790.671875,14014.0,1.0,3
228924.796875,248691.15625,294185.28125,252979.65625,219887.078125,228920.234375,226895.15625,222565.984375,14015.0,1.0,3
225835.515625,246616.90625,292493.96875,250764.59375,218080.53125,227175.1875,224219.125,219687.625,14016.0,1.0,3
224097.796875,245360.125,291631.625,249667.125,217008.71875,226371.421875,222483.375,217820.53125,14017.0,1.0,3
226630.25,246970.96875,293036.65625,251514.09375,218417.765625,227852.359375,224469.1875,219954.046875,14018.0,1.0,3
229482.78125,248951.859375,294533.5,253467.09375,220126.609375,229353.40625,227105.0,222782.078125,14019.0,1.0,3
228936.765625,248705.1875,294176.0625,252983.84375,219897.71875,228923.265625,226911.609375,222577.15625,14020.0,1.0,3
225853.21875,246637.921875,292485.71875,250764.59375,218095.375,227169.109375,224224.9375,219707.015625,14021.0,1.0,3
224084.828125,245355.109375,291609.90625,249645.75,217012.03125,226344.859375,222452.796875,217818.65625,14022.0,1.0,3
226591.359375,246947.265625,293004.84375,251473.953125,218409.015625,227815.96875,224405.984375,219928.03125,14023.0,1.0,3
229462.21875,248937.015625,294513.5625,253434.1875,220123.484375,229323.8125,227052.421875,222770.109375,14024.0,1.0,3
228956.4375,248714.671875,294175.0625,252973.75,219910.859375,228911.640625,226895.609375,222594.59375,14025.0,1.0,3
225880.65625,246642.03125,292486.0,250763.25,218111.015625,227167.765625,224229.671875,219732.859375,14026.0,1.0,3
224085.015625,245341.703125,291594.96875,249629.75,217007.640625,226333.234375,222450.109375,217819.546875,14027.0,1.0,3
226570.875,246917.859375,292979.15625,251451.140625,218390.234375,227794.953125,224395.25,219905.328125,14028.0,1.0,3
229461.953125,248922.359375,294497.9375,253434.015625,220116.859375,229322.46875,227060.296875,222757.859375,14029.0,1.0,3
228980.3125,248722.71875,294182.15625,253006.03125,219932.765625,228939.90625,226937.265625,222614.984375,14030.0,1.0,3
225912.125,246668.3125,292498.78125,250799.109375,218142.046875,227201.828125,224277.234375,219765.3125,14031.0,1.0,3
224081.4375,245346.703125,291583.875,249633.0625,217018.015625,226346.46875,222459.59375,217823.03125,14032.0,1.0,3
226550.59375,246912.84375,292965.75,251441.671875,218395.59375,227805.0625,224384.078125,219895.84375,14033.0,1.0,3
229448.09375,248914.3125,294486.3125,253419.796875,220120.34375,229324.625,227043.671875,222753.65625,14034.0,1.0,3
228992.46875,248729.15625,294176.25,252996.1875,219939.75,228940.609375,226929.046875,222625.265625,14035.0,1.0,3
225936.265625,246675.46875,292497.96875,250796.78125,218156.703125,227205.578125,224276.96875,219784.984375,14036.0,1.0,3
224078.3125,245331.6875,291569.03125,249611.859375,217018.90625,226331.09375,222438.40625,217814.265625,14037.0,1.0,3
226520.453125,246881.375,292931.78125,251401.34375,218374.765625,227772.609375,224338.125,219856.59375,14038.0,1.0,3
229438.515625,248898.84375,294463.3125,253403.890625,220112.484375,229315.40625,227017.46875,222735.234375,14039.0,1.0,3
228997.203125,248719.40625,294163.53125,253001.734375,219946.8125,228947.3125,226925.921875,222634.109375,14040.0,1.0,3
225948.609375,246677.53125,292487.15625,250807.6875,218168.5,227213.625,224287.515625,219805.71875,14041.0,1.0,3
224068.5625,245327.9375,291543.28125,249604.71875,217013.71875,226325.640625,222429.640625,217812.3125,14042.0,1.0,3
226492.65625,246867.78125,292899.40625,251385.875,218363.765625,227763.921875,224318.546875,219837.828125,14043.0,1.0,3
229420.1875,248890.703125,294435.15625,253392.265625,220104.4375,229306.203125,227010.859375,222721.375,14044.0,1.0,3
229007.765625,248735.046875,294152.1875,253002.984375,219952.890625,228953.3125,226950.328125,222645.375,14045.0,1.0,3
225973.734375,246706.140625,292485.03125,250809.921875,218179.765625,227225.15625,224324.4375,219825.84375,14046.0,1.0,3
224063.640625,245330.96875,291525.59375,249582.8125,217007.28125,226319.734375,222439.65625,217804.265625,14047.0,1.0,3
226449.921875,246837.296875,292859.09375,251332.234375,218328.546875,227731.109375,224284.484375,219791.78125,14048.0,1.0,3
229407.765625,248879.796875,294416.125,253360.34375,220086.8125,229292.96875,226989.671875,222698.3125,14049.0,1.0,3
229037.265625,248754.8125,294155.125,253006.03125,219961.109375,228963.234375,226955.328125,222659.78125,14050.0,1.0,3
226007.4375,246726.4375,292497.4375,250830.21875,218198.90625,227244.5625,224342.234375,219859.90625,14051.0,1.0,3
224073.65625,245335.53125,291532.84375,249596.84375,217019.796875,226333.6875,222445.28125,217825.453125,14052.0,1.0,3
226441.515625,246832.65625,292858.1875,251336.796875,218329.96875,227736.84375,224274.640625,219792.671875,14053.0,1.0,3
229402.3125,248878.109375,294411.65625,253363.109375,220084.140625,229297.4375,226980.640625,222697.5,14054.0,1.0,3
229052.90625,248768.40625,294166.75,253022.828125,219974.703125,228981.03125,226975.1875,222684.8125,14055.0,1.0,3
226023.984375,246739.84375,292499.78125,250836.03125,218209.625,227254.125,224363.15625,219883.421875,14056.0,1.0,3
224054.96875,245324.625,291509.0625,249572.4375,217011.671875,226320.90625,222437.6875,217818.296875,14057.0,1.0,3
226402.53125,246806.984375,292818.9375,251293.796875,218309.40625,227712.96875,224242.359375,219760.03125,14058.0,1.0,3
229377.8125,248854.59375,294377.125,253332.890625,220074.390625,229284.296875,226957.5625,222675.59375,14059.0,1.0,3
229050.046875,248756.0625,294142.0,253012.8125,219979.0,228984.953125,226969.734375,222685.078125,14060.0,1.0,3
226037.921875,246741.546875,292486.0,250840.859375,218224.203125,227271.75,224369.5,219900.9375,14061.0,1.0,3
224057.5625,245325.96875,291488.5,249564.484375,217011.84375,226327.96875,222423.109375,217817.671875,14062.0,1.0,3
226370.25,246782.5,292781.84375,251265.359375,218286.96875,227701.171875,224200.34375,219732.40625,14063.0,1.0,3
229360.375,248835.90625,294351.75,253315.46875,220057.671875,229280.71875,226925.109375,222661.03125,14064.0,1.0,3
229067.21875,248765.890625,294138.25,253014.515625,219982.390625,228999.359375,226966.78125,222698.578125,14065.0,1.0,3
226063.3125,246758.4375,292488.9375,250849.53125,218238.59375,227289.625,224384.53125,219928.125,14066.0,1.0,3
224051.296875,245318.8125,291474.625,249551.34375,217008.453125,226325.640625,222418.109375,217819.640625,14067.0,1.0,3
226335.296875,246749.234375,292748.84375,251230.578125,218265.78125,227683.640625,224171.640625,219703.265625,14068.0,1.0,3
229353.765625,248826.421875,294338.4375,253305.984375,220056.953125,229286.53125,226926.453125,222653.421875,14069.0,1.0,3
229085.546875,248773.40625,294132.96875,253024.984375,219990.4375,229014.46875,226987.609375,222711.265625,14070.0,1.0,3
226093.1875,246772.296875,292480.8125,250856.859375,218243.515625,227300.625,224403.84375,219941.53125,14071.0,1.0,3
224047.28125,245306.828125,291447.0,249536.140625,216996.015625,226315.890625,222410.59375,217806.046875,14072.0,1.0,3
226302.75,246721.515625,292712.90625,251201.078125,218236.984375,227657.984375,224138.125,219665.71875,14073.0,1.0,3
229333.203125,248803.53125,294307.59375,253278.71875,220028.34375,229259.625,226889.625,222621.5,14074.0,1.0,3
229089.125,248762.40625,294118.5625,253014.34375,219979.359375,229002.9375,226972.3125,222705.46875,14075.0,1.0,3
226109.453125,246773.46875,292486.28125,250864.90625,218253.796875,227307.5,224415.90625,219965.140625,14076.0,1.0,3
224033.421875,245286.0,291429.9375,249515.9375,216986.546875,226304.8125,222398.078125,217800.421875,14077.0,1.0,3
226273.875,246694.15625,292681.71875,251165.21875,218219.90625,227640.71875,224108.703125,219637.109375,14078.0,1.0,3
229323.09375,248792.359375,294291.125,253263.15625,220032.640625,229265.78125,226884.703125,222614.984375,14079.0,1.0,3
229096.0,248761.34375,294108.46875,253010.9375,219990.4375,229017.59375,226987.609375,222720.484375,14080.0,1.0,3
226132.4375,246785.796875,292474.03125,250866.0625,218261.84375,227318.0625,224437.546875,219986.140625,14081.0,1.0,3
224043.53125,245293.6875,291416.78125,249516.921875,216989.40625,226312.578125,222409.078125,217811.046875,14082.0,1.0,3
226244.71875,246668.765625,292649.34375,251144.75,218195.859375,227626.875,224081.875,219612.15625,14083.0,1.0,3
229304.046875,248772.609375,294266.375,253251.0,220009.65625,229254.34375,226859.125,222596.65625,14084.0,1.0,3
229109.953125,248769.03125,294106.875,253022.109375,219989.71875,229024.75,226992.609375,222733.171875,14085.0,1.0,3
226149.0625,246794.828125,292478.3125,250877.59375,218270.421875,227331.640625,224454.984375,220013.0625,14086.0,1.0,3
224029.84375,245280.015625,291404.28125,249499.484375,216983.953125,226307.125,222403.890625,217813.46875,14087.0,1.0,3
226217.8125,246647.84375,292634.78125,251117.484375,218186.46875,227615.953125,224064.265625,219599.734375,14088.0,1.0,3
229295.375,248761.421875,294259.65625,253238.21875,220008.953125,229251.484375,226853.59375,222594.421875,14089.0,1.0,3
229126.484375,248775.640625,294111.59375,253030.796875,220008.59375,229037.078125,227010.59375,222757.859375,14090.0,1.0,3
226178.5625,246811.1875,292486.53125,250899.78125,218297.703125,227349.265625,224482.875,220049.453125,14091.0,1.0,3
224036.90625,245283.40625,291396.84375,249505.296875,216991.546875,226307.40625,222406.03125,217825.09375,14092.0,1.0,3
226178.390625,246613.609375,292600.0,251095.84375,218164.5625,227593.15625,224026.359375,219573.359375,14093.0,1.0,3
229269.8125,248735.859375,294230.25,253223.28125,219994.1875,229238.515625,226823.015625,222578.40625,14094.0,1.0,3
229134.625,248773.765625,294095.6875,253031.859375,220008.5,229039.140625,227002.546875,222766.34375,14095.0,1.0,3
226198.59375,246816.921875,292477.40625,250903.625,218308.421875,227357.390625,224488.6875,220070.90625,14096.0,1.0,3
224031.546875,245274.109375,291377.96875,249493.484375,216998.34375,226308.109375,222400.5,217829.46875,14097.0,1.0,3
226158.0,246602.15625,292573.875,251068.65625,218159.5625,227586.640625,224005.96875,219551.453125,14098.0,1.0,3
229263.109375,248735.953125,294212.09375,253204.234375,219992.578125,229237.171875,226808.96875,222559.546875,14099.0,1.0,3
229153.21875,248791.109375,294092.65625,253034.640625,220025.125,229052.734375,227012.1875,222771.53125,14100.0,1.0,3
226221.296875,246834.53125,292475.375,250911.75,218324.15625,227369.203125,224504.859375,220082.53125,14101.0,1.0,3
224026.53125,245268.203125,291356.15625,249478.375,216986.90625,226294.53125,222387.703125,217811.6875,14102.0,1.0,3
226141.8125,246585.34375,292547.59375,251046.765625,218139.359375,227563.203125,223974.328125,219518.28125,14103.0,1.0,3
229258.71875,248717.96875,294195.0,253193.78125,219979.0,229223.9375,226791.890625,222540.59375,14104.0,1.0,3
229163.421875,248778.765625,294085.75,253033.828125,220017.0,229046.921875,227016.21875,222774.125,14105.0,1.0,3
226235.34375,246829.34375,292465.625,250910.140625,218315.046875,227362.671875,224517.296875,220091.46875,14106.0,1.0,3
224032.625,245270.53125,291343.65625,249472.125,216981.890625,226289.609375,222396.109375,217812.21875,14107.0,1.0,3
226102.75,246557.90625,292509.96875,251012.25,218114.953125,227539.078125,223952.859375,219485.828125,14108.0,1.0,3
229239.140625,248704.75,294168.8125,253174.109375,219972.828125,229215.0,226784.46875,222524.140625,14109.0,1.0,3
229183.09375,248791.203125,294078.25,253038.390625,220033.625,229059.34375,227036.609375,222787.359375,14110.0,1.0,3
226283.796875,246865.90625,292478.9375,250934.90625,218352.953125,227393.515625,224559.046875,220131.96875,14111.0,1.0,3
224039.0625,245272.5,291333.1875,249464.25,216991.1875,226292.640625,222400.21875,217821.515625,14112.0,1.0,3
226078.96875,246537.34375,292486.4375,250986.046875,218107.34375,227527.984375,223928.546875,219469.375,14113.0,1.0,3
229224.84375,248693.296875,294150.40625,253155.328125,219966.65625,229208.03125,226764.625,222516.28125,14114.0,1.0,3
229194.34375,248800.40625,294075.125,253041.96875,220044.34375,229069.984375,227045.546875,222810.875,14115.0,1.0,3
226297.03125,246870.375,292470.71875,250932.671875,218358.9375,227398.078125,224572.546875,220158.796875,14116.0,1.0,3
224019.125,245248.359375,291302.625,249436.0,216973.84375,226277.265625,222391.828125,217819.015625,14117.0,1.0,3
226047.765625,246510.875,292451.9375,250951.09375,218084.28125,227511.71875,223909.421875,219450.421875,14118.0,1.0,3
229210.4375,248680.0625,294124.90625,253135.75,219955.296875,229205.609375,226760.609375,222506.890625,14119.0,1.0,3
229194.0,248796.46875,294054.125,253032.3125,220039.875,229073.109375,227054.03125,222814.1875,14120.0,1.0,3
226321.703125,246892.734375,292470.71875,250947.78125,218379.421875,227421.140625,224608.046875,220189.1875,14121.0,1.0,3
224034.046875,245274.203125,291305.46875,249449.59375,216995.75,226293.359375,222419.984375,217843.6875,14122.0,1.0,3
226021.46875,246502.734375,292435.125,250935.09375,218078.296875,227501.96875,223898.6875,219435.9375,14123.0,1.0,3
229185.328125,248661.921875,294105.59375,253115.09375,219940.640625,229191.3125,226742.359375,222489.28125,14124.0,1.0,3
229212.234375,248806.75,294056.875,253036.78125,220042.296875,229075.34375,227063.34375,222829.921875,14125.0,1.0,3
226344.859375,246901.5,292471.875,250951.890625,218377.265625,227416.578125,224623.78125,220213.0625,14126.0,1.0,3
224027.703125,245257.5625,291286.0625,249431.359375,216977.875,226276.90625,222416.859375,217843.15625,14127.0,1.0,3
225995.1875,246474.125,292406.4375,250907.546875,218054.234375,227483.375,223881.78125,219415.546875,14128.0,1.0,3
229169.9375,248642.6875,294083.0625,253096.953125,219925.0,229181.65625,226732.265625,222474.4375,14129.0,1.0,3
229223.765625,248808.8125,294053.65625,253039.734375,220049.265625,229086.265625,227082.203125,222844.3125,14130.0,1.0,3
226365.96875,246911.5,292476.875,250963.703125,218396.484375,227440.09375,224654.625,220243.90625,14131.0,1.0,3
224024.484375,245254.4375,291275.96875,249423.671875,216980.828125,226286.5625,222419.359375,217850.75,14132.0,1.0,3
225965.78125,246457.140625,292379.34375,250880.015625,218038.6875,227476.3125,223857.109375,219394.90625,14133.0,1.0,3
229148.578125,248628.921875,294058.65625,253073.078125,219909.609375,229173.25,226708.921875,222458.15625,14134.0,1.0,3
229222.328125,248805.859375,294039.71875,253033.203125,220049.0,229091.890625,227079.515625,222851.109375,14135.0,1.0,3
226385.359375,246925.984375,292478.3125,250974.703125,218415.53125,227463.34375,224680.015625,220273.40625,14136.0,1.0,3
224029.75,245263.921875,291270.59375,249422.59375,216992.890625,226298.734375,222435.09375,217865.0625,14137.0,1.0,3
225929.03125,246431.65625,292343.75,250843.984375,218019.015625,227460.65625,223829.390625,219367.09375,14138.0,1.0,3
229129.171875,248615.515625,294038.1875,253055.640625,219904.609375,229177.1875,226698.203125,222448.953125,14139.0,1.0,3
229230.203125,248811.765625,294034.53125,253038.03125,220061.15625,229109.6875,227097.671875,222870.59375,14140.0,1.0,3
226400.296875,246933.5,292461.9375,250972.90625,218418.484375,227464.765625,224692.171875,220293.796875,14141.0,1.0,3
224022.875,245256.9375,291240.03125,249402.390625,216982.34375,226282.453125,222424.453125,217865.953125,14142.0,1.0,3
225900.234375,246414.40625,292314.53125,250819.671875,218007.484375,227440.453125,223809.015625,219353.234375,14143.0,1.0,3
229105.296875,248599.515625,294007.15625,253029.625,219887.4375,229151.25,226675.9375,222427.21875,14144.0,1.0,3
229239.40625,248815.515625,294019.0625,253034.546875,220059.015625,229103.421875,227100.34375,222873.8125,14145.0,1.0,3
226430.953125,246952.71875,292461.6875,250986.765625,218433.234375,227476.21875,224718.28125,220316.0625,14146.0,1.0,3
224031.640625,245262.21875,291232.875,249402.65625,216985.5625,226283.34375,222436.96875,217868.1875,14147.0,1.0,3
225874.765625,246396.171875,292285.46875,250790.875,217984.0625,227423.015625,223783.265625,219316.046875,14148.0,1.0,3
229083.3125,248575.546875,293982.9375,253009.59375,219870.359375,229144.28125,226652.59375,222401.921875,14149.0,1.0,3
229249.609375,248813.28125,294013.4375,253034.453125,220061.34375,229112.8125,227102.578125,222880.875,14150.0,1.0,3
226461.265625,246969.71875,292466.875,250997.046875,218447.90625,227494.8125,224737.6875,220343.953125,14151.0,1.0,3
224031.09375,245257.296875,291216.78125,249391.484375,216985.015625,226282.640625,222434.828125,217874.4375,14152.0,1.0,3
225840.25,246364.78125,292248.28125,250757.609375,217964.65625,227400.484375,223753.125,219295.03125,14153.0,1.0,3
229078.21875,248569.921875,293959.0625,252992.875,219863.21875,229133.28125,226636.328125,222392.8125,14154.0,1.0,3
229269.625,248825.359375,294004.03125,253038.125,220069.921875,229113.4375,227108.390625,222893.21875,14155.0,1.0,3
226490.0625,246987.234375,292467.59375,251011.71875,218466.5,227499.46875,224759.140625,220372.125,14156.0,1.0,3
224039.859375,245265.25,291203.8125,249384.234375,216984.84375,226271.453125,222432.765625,217876.40625,14157.0,1.0,3
225810.390625,246346.453125,292214.46875,250722.921875,217936.140625,227369.109375,223715.484375,219255.78125,14158.0,1.0,3
229048.0,248545.515625,293927.96875,252963.828125,219835.5,229106.203125,226602.265625,222355.078125,14159.0,1.0,3
229277.859375,248828.21875,294000.09375,253043.03125,220073.765625,229119.25,227116.265625,222899.390625,14160.0,1.0,3
226526.359375,247011.90625,292478.84375,251034.328125,218488.40625,227526.828125,224792.125,220404.390625,14161.0,1.0,3
224041.203125,245258.90625,291191.65625,249380.21875,216984.125,226280.84375,222436.875,217879.8125,14162.0,1.0,3
225789.109375,246324.109375,292191.3125,250700.484375,217923.34375,227368.21875,223692.515625,219231.734375,14163.0,1.0,3
229042.625,248534.953125,293915.875,252952.5625,219832.09375,229113.4375,226589.03125,222344.703125,14164.0,1.0,3
229293.859375,248830.71875,293996.53125,253043.125,220077.875,229131.765625,227119.578125,222908.6875,14165.0,1.0,3
226543.53125,247013.609375,292471.6875,251031.65625,218490.90625,227534.15625,224799.8125,220421.46875,14166.0,1.0,3
224043.34375,245254.796875,291180.46875,249368.046875,216981.53125,226275.125,222431.078125,217883.03125,14167.0,1.0,3
225756.65625,246299.515625,292163.5,250669.46875,217901.890625,227344.34375,223659.515625,219205.71875,14168.0,1.0,3
229032.4375,248528.4375,293903.5625,252937.53125,219824.046875,229108.609375,226574.8125,222332.1875,14169.0,1.0,3
229310.84375,248842.25,293993.125,253044.203125,220082.703125,229141.875,227128.0625,222917.890625,14170.0,1.0,3
226568.5625,247035.421875,292471.34375,251040.671875,218504.234375,227545.953125,224821.640625,220444.171875,14171.0,1.0,3
224050.140625,245270.4375,291173.78125,249367.0625,216989.3125,226281.375,222447.25,217895.90625,14172.0,1.0,3
225739.484375,246300.40625,292144.5625,250651.484375,217896.171875,227339.875,223651.5625,219189.796875,14173.0,1.0,3
229008.921875,248519.046875,293877.0,252917.6875,219810.734375,229094.75,226553.8125,222307.875,14174.0,1.0,3
229312.1875,248849.21875,293982.0625,253043.578125,220081.09375,229137.21875,227125.390625,222917.4375,14175.0,1.0,3
226611.734375,247076.90625,292491.90625,251071.875,218531.765625,227571.890625,224856.0625,220484.5,14176.0,1.0,3
224072.578125,245295.75,291180.5625,249381.734375,217004.6875,226293.0,222463.25,217920.578125,14177.0,1.0,3
225707.65625,246278.953125,292120.5,250632.453125,217881.5,227321.546875,223627.34375,219175.9375,14178.0,1.0,3
228993.625,248508.3125,293861.78125,252905.34375,219805.359375,229090.015625,226540.75,222305.8125,14179.0,1.0,3
229339.734375,248872.921875,293988.21875,253055.28125,220098.984375,229158.234375,227146.3125,222947.84375,14180.0,1.0,3
226633.375,247089.0625,292486.09375,251073.3125,218542.671875,227581.71875,224875.28125,220508.375,14181.0,1.0,3
224061.40625,245278.046875,291151.25,249355.265625,216991.90625,226278.515625,222453.875,217911.90625,14182.0,1.0,3
225683.703125,246261.609375,292089.46875,250597.84375,217858.265625,227303.9375,223601.59375,219143.3125,14183.0,1.0,3
228971.734375,248488.375,293832.125,252876.734375,219778.984375,229071.15625,226517.328125,222271.5625,14184.0,1.0,3
229340.890625,248862.90625,293972.9375,253048.21875,220089.234375,229150.453125,227148.1875,222943.375,14185.0,1.0,3
226652.421875,247092.640625,292475.625,251072.59375,218539.1875,227575.453125,224886.359375,220517.046875,14186.0,1.0,3
224068.109375,245283.5,291140.25,249348.296875,216992.0,226272.796875,222459.59375,217915.03125,14187.0,1.0,3
225654.8125,246242.921875,292062.46875,250568.15625,217843.59375,227281.40625,223577.171875,219120.515625,14188.0,1.0,3
228961.890625,248486.859375,293815.03125,252856.265625,219776.125,229062.03125,226495.328125,222257.890625,14189.0,1.0,3
229348.84375,248872.375,293958.34375,253035.4375,220094.515625,229150.0,227136.296875,222942.390625,14190.0,1.0,3
226666.375,247101.3125,292465.53125,251070.09375,218550.359375,227580.375,224888.15625,220531.625,14191.0,1.0,3
224071.421875,245286.984375,291128.0,249337.125,216993.96875,226269.484375,222451.640625,217918.703125,14192.0,1.0,3
225629.515625,246221.90625,292034.84375,250536.78125,217828.75,227265.9375,223546.328125,219095.03125,14193.0,1.0,3
228947.5,248468.34375,293797.0625,252838.03125,219768.53125,229057.109375,226481.203125,222244.5625,14194.0,1.0,3
229371.015625,248883.828125,293957.375,253042.40625,220102.203125,229162.703125,227155.328125,222959.015625,14195.0,1.0,3
226703.390625,247126.53125,292470.25,251087.625,218566.0,227603.53125,224927.3125,220564.515625,14196.0,1.0,3
224075.09375,245284.203125,291112.09375,249336.9375,216994.59375,226280.84375,222471.65625,217930.234375,14197.0,1.0,3
225596.96875,246196.15625,291995.34375,250511.921875,217802.65625,227254.671875,223529.703125,219068.390625,14198.0,1.0,3
228922.375,248446.890625,293761.46875,252819.078125,219744.390625,229053.171875,226462.34375,222219.796875,14199.0,1.0,3
229377.28125,248882.9375,293951.1875,253052.0625,220108.015625,229189.4375,227170.0,222972.875,14200.0,1.0,3
226732.34375,247144.328125,292481.34375,251110.953125,218587.640625,227640.28125,224960.84375,220600.375,14201.0,1.0,3
224094.21875,245300.9375,291116.03125,249346.0625,217005.3125,226300.6875,222490.96875,217948.5625,14202.0,1.0,3
225582.671875,246189.640625,291986.5625,250500.125,217794.6875,227253.859375,223523.796875,219056.578125,14203.0,1.0,3
228905.03125,248433.75,293750.3125,252807.0,219735.71875,229045.21875,226454.75,222203.0,14204.0,1.0,3
229382.640625,248880.34375,293948.96875,253058.6875,220113.546875,229190.6875,227180.640625,222977.34375,14205.0,1.0,3
226752.734375,247152.546875,292480.5625,251124.09375,218600.15625,227647.96875,224979.265625,220620.765625,14206.0,1.0,3
224095.65625,245296.8125,291096.71875,249338.453125,217004.78125,226296.84375,222484.265625,217950.796875,14207.0,1.0,3
225553.15625,246164.953125,291946.96875,250469.546875,217778.234375,227233.5625,223481.15625,219030.828125,14208.0,1.0,3
228878.5625,248408.984375,293712.9375,252776.15625,219716.671875,229027.078125,226405.296875,222180.28125,14209.0,1.0,3
229391.578125,248884.625,293935.1875,253048.40625,220113.375,229194.078125,227157.125,222984.765625,14210.0,1.0,3
226792.34375,247181.96875,292495.21875,251141.359375,218629.390625,227678.28125,224994.8125,220661.53125,14211.0,1.0,3
224106.296875,245302.8125,291096.09375,249335.859375,217016.5,226308.5625,222488.734375,217968.671875,14212.0,1.0,3
225521.328125,246141.984375,291924.78125,250434.765625,217761.4375,227224.359375,223462.109375,219006.96875,14213.0,1.0,3
228871.765625,248411.671875,293707.5625,252759.890625,219713.640625,229036.640625,226416.125,222168.03125,14214.0,1.0,3
229398.640625,248892.234375,293929.125,253041.34375,220110.515625,229205.34375,227191.015625,222982.09375,14215.0,1.0,3
226818.0,247206.8125,292502.375,251153.515625,218641.109375,227709.390625,225058.296875,220684.5,14216.0,1.0,3
224117.640625,245320.78125,291093.5625,249341.59375,217023.640625,226338.6875,222542.03125,217985.671875,14217.0,1.0,3
225501.484375,246137.328125,291901.5625,250422.609375,217752.9375,227238.390625,223477.9375,218996.40625,14218.0,1.0,3
228843.96875,248391.90625,293675.75,252743.171875,219702.453125,229047.90625,226410.3125,222151.234375,14219.0,1.0,3
229407.5,248897.765625,293917.6875,253047.78125,220126.96875,229245.84375,227198.078125,223000.953125,14220.0,1.0,3
226830.078125,247208.96875,292478.40625,251146.359375,218650.40625,227737.015625,225044.4375,220698.71875,14221.0,1.0,3
224119.703125,245318.28125,291065.9375,249319.421875,217024.09375,226349.59375,222506.984375,217982.984375,14222.0,1.0,3
225476.625,246119.1875,291865.4375,250380.3125,217736.21875,227234.46875,223418.921875,218966.734375,14223.0,1.0,3
228821.171875,248376.078125,293642.03125,252701.234375,219681.09375,229041.5625,226359.171875,222121.1875,14224.0,1.0,3
229430.46875,248922.265625,293918.21875,253044.5625,220139.21875,229262.21875,227208.265625,223015.53125,14225.0,1.0,3
226877.640625,247258.9375,292494.84375,251166.46875,218681.515625,227759.90625,225103.265625,220741.640625,14226.0,1.0,3
224133.109375,245344.203125,291059.59375,249321.5625,217037.421875,226352.015625,222563.390625,218001.765625,14227.0,1.0,3
225455.0,246121.15625,291832.78125,250357.703125,217731.125,227213.71875,223456.484375,218949.390625,14228.0,1.0,3
228824.5625,248399.5,293619.5,252695.328125,219688.421875,229026.171875,226414.59375,222114.65625,14229.0,1.0,3
229444.421875,248946.328125,293888.875,253041.703125,220141.984375,229241.5625,227268.609375,223011.5,14230.0,1.0,3
226896.0625,247281.734375,292466.5,251163.96875,218684.203125,227738.359375,225166.921875,220743.421875,14231.0,1.0,3
224150.28125,245371.296875,291036.0,249312.625,217041.625,226333.15625,222618.375,218003.8125,14232.0,1.0,3
225449.359375,246132.234375,291798.5625,250329.796875,217720.125,227186.453125,223481.78125,218926.40625,14233.0,1.0,3
228811.15625,248395.65625,293582.84375,252663.59375,219676.625,229004.0,226428.640625,222086.765625,14234.0,1.0,3
229450.953125,248953.65625,293866.0,253025.421875,220143.765625,229224.03125,227295.4375,223006.046875,14235.0,1.0,3
226931.28125,247312.046875,292464.71875,251175.328125,218711.109375,227726.28125,225217.171875,220770.421875,14236.0,1.0,3
224177.90625,245398.734375,291029.21875,249321.46875,217066.03125,226311.421875,222657.265625,218022.859375,14237.0,1.0,3
225447.390625,246144.484375,291781.03125,250322.46875,217729.6875,227149.078125,223492.15625,218920.421875,14238.0,1.0,3
228814.640625,248413.09375,293576.125,252669.3125,219691.1875,228972.890625,226441.59375,222088.640625,14239.0,1.0,3
229485.453125,248992.453125,293878.0625,253055.46875,220175.515625,229224.390625,227335.046875,223037.703125,14240.0,1.0,3
226977.953125,247358.71875,292476.53125,251204.203125,218741.421875,227745.421875,225265.453125,220809.765625,14241.0,1.0,3
224201.59375,245429.671875,291034.3125,249336.40625,217085.875,226321.53125,222695.984375,218046.90625,14242.0,1.0,3
225432.640625,246146.71875,291769.6875,250313.890625,217728.359375,227143.171875,223503.859375,218909.515625,14243.0,1.0,3
228802.390625,248417.484375,293562.46875,252656.796875,219687.53125,228971.375,226451.4375,222073.078125,14244.0,1.0,3
229504.59375,249017.9375,293882.0,253062.796875,220192.859375,229239.40625,227368.390625,223048.78125,14245.0,1.0,3
227005.671875,247387.15625,292486.09375,251217.4375,218764.671875,227760.171875,225304.078125,220833.375,14246.0,1.0,3
224203.921875,245439.15625,291024.46875,249328.625,217095.0,226322.59375,222703.9375,218050.9375,14247.0,1.0,3
225402.421875,246129.734375,291740.625,250282.59375,217718.96875,227124.9375,223470.421875,218883.765625,14248.0,1.0,3
228786.65625,248412.296875,293543.15625,252636.234375,219686.09375,228954.5625,226415.578125,222052.609375,14249.0,1.0,3
229512.640625,249029.015625,293877.09375,253063.875,220204.84375,229238.96875,227351.140625,223054.328125,14250.0,1.0,3
227027.03125,247405.75,292485.09375,251226.203125,218783.171875,227769.828125,225301.03125,220859.5625,14251.0,1.0,3
224213.75,245451.140625,291012.9375,249322.90625,217102.0625,226320.90625,222693.03125,218063.453125,14252.0,1.0,3
225386.59375,246129.640625,291718.09375,250259.4375,217713.421875,227114.828125,223445.84375,218870.609375,14253.0,1.0,3
228768.0625,248402.71875,293518.90625,252613.171875,219679.84375,228957.25,226402.4375,222039.296875,14254.0,1.0,3
229520.15625,249034.5625,293863.6875,253057.34375,220213.515625,229260.515625,227369.28125,223062.828125,14255.0,1.0,3
227058.234375,247433.015625,292484.40625,251237.015625,218806.6875,227801.75,225343.859375,220883.796875,14256.0,1.0,3
224230.390625,245468.296875,291003.53125,249323.703125,217114.21875,226339.40625,222723.34375,218070.25,14257.0,1.0,3
225366.921875,246120.171875,291685.53125,250237.265625,217698.578125,227111.265625,223437.4375,218839.234375,14258.0,1.0,3
228758.046875,248401.5625,293499.78125,252605.03125,219677.328125,228966.359375,226396.453125,222019.359375,14259.0,1.0,3
229535.890625,249049.5,293856.15625,253057.875,220216.1875,229270.4375,227368.921875,223059.609375,14260.0,1.0,3
227091.671875,247457.875,292491.71875,251251.953125,218824.578125,227822.84375,225357.890625,220903.28125,14261.0,1.0,3
224249.078125,245482.875,291010.59375,249330.6875,217131.921875,226359.4375,222727.1875,218085.796875,14262.0,1.0,3
225340.28125,246101.390625,291667.3125,250209.109375,217687.9375,227106.15625,223397.921875,218814.46875,14263.0,1.0,3
228736.234375,248385.734375,293478.34375,252575.4375,219661.0625,228954.390625,226348.96875,221986.984375,14264.0,1.0,3
229552.25,249060.21875,293862.15625,253065.84375,220234.4375,229295.65625,227366.96875,223072.203125,14265.0,1.0,3
227120.640625,247476.375,292498.875,251262.9375,218847.109375,227858.515625,225375.78125,220933.0625,14266.0,1.0,3
224252.828125,245489.578125,290996.5625,249317.890625,217133.53125,226378.484375,222725.9375,218089.46875,14267.0,1.0,3
225314.796875,246094.15625,291642.28125,250180.9375,217677.5625,227113.765625,223380.125,218793.375,14268.0,1.0,3
228705.203125,248367.046875,293452.03125,252546.921875,219647.296875,228962.25,226333.953125,221964.8125,14269.0,1.0,3
229556.359375,249068.09375,293854.71875,253063.875,220241.5,229317.734375,227381.265625,223078.734375,14270.0,1.0,3
227151.765625,247508.03125,292506.28125,251284.578125,218872.765625,227888.5625,225411.28125,220962.921875,14271.0,1.0,3
224260.34375,245500.046875,290987.4375,249322.1875,217146.765625,226385.28125,222742.75,218102.515625,14272.0,1.0,3
225287.171875,246076.796875,291617.6875,250165.03125,217674.53125,227099.453125,223364.921875,218777.71875,14273.0,1.0,3
228692.515625,248362.9375,293433.34375,252535.390625,219648.453125,228951.25,226314.828125,221951.578125,14274.0,1.0,3
229565.75,249078.734375,293844.4375,253063.328125,220251.421875,229316.296875,227373.9375,223084.453125,14275.0,1.0,3
227167.671875,247520.90625,292498.0625,251287.078125,218887.515625,227889.015625,225413.421875,220983.03125,14276.0,1.0,3
224268.828125,245507.453125,290975.28125,249315.390625,217154.71875,226376.78125,222734.421875,218114.40625,14277.0,1.0,3
225265.359375,246060.796875,291591.84375,250139.375,217663.359375,227077.734375,223332.921875,218761.8125,14278.0,1.0,3
228672.75,248340.234375,293411.28125,252515.09375,219637.546875,228933.8125,226287.109375,221936.5625,14279.0,1.0,3
229573.4375,249069.078125,293835.875,253057.34375,220248.203125,229306.46875,227368.125,223089.46875,14280.0,1.0,3
227198.15625,247529.125,292504.25,251298.703125,218896.09375,227890.078125,225429.875,221007.078125,14281.0,1.0,3
224288.40625,245512.5625,290975.90625,249322.015625,217159.546875,226372.21875,222743.546875,218130.59375,14282.0,1.0,3
225241.125,246035.5,291560.28125,250112.8125,217639.65625,227043.125,223295.546875,218733.203125,14283.0,1.0,3
228651.828125,248320.109375,293381.9375,252493.90625,219615.375,228901.1875,226243.5625,221904.46875,14284.0,1.0,3
229592.125,249081.140625,293832.90625,253069.234375,220257.5,229306.203125,227358.828125,223096.890625,14285.0,1.0,3
227228.828125,247544.953125,292504.40625,251316.328125,218917.375,227900.09375,225433.53125,221032.296875,14286.0,1.0,3
224293.328125,245505.765625,290957.40625,249317.0,217165.265625,226369.71875,222729.875,218133.8125,14287.0,1.0,3
225227.625,246019.578125,291538.8125,250095.109375,217636.0,227036.875,223272.21875,218716.203125,14288.0,1.0,3
228632.515625,248300.09375,293358.0,252469.765625,219604.46875,228890.640625,226220.3125,221883.453125,14289.0,1.0,3
229572.90625,249053.78125,293807.0,253050.453125,220244.796875,229295.03125,227343.984375,223083.46875,14290.0,1.0,3
227236.15625,247539.6875,292499.9375,251321.15625,218921.3125,227907.875,225445.421875,221046.0625,14291.0,1.0,3
224309.421875,245516.484375,290965.90625,249331.125,217178.859375,226387.0625,222748.015625,218156.875,14292.0,1.0,3
225188.46875,245987.84375,291512.09375,250068.921875,217612.84375,227023.015625,223236.53125,218690.90625,14293.0,1.0,3
228598.625,248268.796875,293333.65625,252449.90625,219586.5,228884.46875,226179.375,221858.234375,14294.0,1.0,3
229587.75,249061.125,293808.59375,253058.0625,220255.53125,229313.171875,227334.0625,223095.8125,14295.0,1.0,3
227258.328125,247548.53125,292496.5625,251325.53125,218933.015625,227922.8125,225445.421875,221070.296875,14296.0,1.0,3
224303.15625,245500.390625,290938.90625,249311.015625,217171.53125,226379.015625,222731.296875,218155.984375,14297.0,1.0,3
225160.125,245962.984375,291477.75,250033.59375,217596.484375,227001.375,223206.140625,218664.53125,14298.0,1.0,3
228573.953125,248246.265625,293307.125,252418.984375,219576.03125,228863.90625,226158.625,221833.65625,14299.0,1.0,3
229590.609375,249058.078125,293798.9375,253050.1875,220261.96875,229308.703125,227344.15625,223099.75,14300.0,1.0,3
227282.921875,247565.15625,292498.25,251332.765625,218953.3125,227926.734375,225476.8125,221094.171875,14301.0,1.0,3
224317.203125,245513.453125,290941.125,249314.046875,217193.703125,226381.078125,222758.21875,218179.765625,14302.0,1.0,3
225137.59375,245952.625,291458.34375,250010.0,217594.328125,226984.921875,223197.28125,218653.625,14303.0,1.0,3
228544.546875,248228.109375,293275.09375,252390.359375,219562.71875,228844.765625,226138.6875,221814.15625,14304.0,1.0,3
229583.359375,249055.125,293774.53125,253037.140625,220261.515625,229301.734375,227341.21875,223100.46875,14305.0,1.0,3
227309.921875,247595.296875,292497.90625,251348.6875,218978.53125,227947.484375,225506.84375,221131.546875,14306.0,1.0,3
224323.546875,245530.703125,290927.46875,249313.609375,217202.109375,226388.40625,222775.5625,218200.6875,14307.0,1.0,3
225104.78125,245941.984375,291423.03125,249983.890625,217582.34375,226971.515625,223183.875,218637.0,14308.0,1.0,3
228524.6875,248229.359375,293250.15625,252370.96875,219559.3125,228839.234375,226132.25,221799.328125,14309.0,1.0,3
229605.71875,249082.046875,293773.09375,253043.03125,220279.046875,229319.25,227367.671875,223114.5,14310.0,1.0,3
227347.921875,247627.203125,292506.84375,251366.390625,219008.921875,227973.234375,225549.40625,221165.96875,14311.0,1.0,3
224336.15625,245538.21875,290915.46875,249308.515625,217213.015625,226391.703125,222789.328125,218211.859375,14312.0,1.0,3
225081.09375,245920.515625,291390.21875,249949.5625,217567.0625,226950.859375,223155.625,218611.78125,14313.0,1.0,3
228509.578125,248212.203125,293229.875,252347.71875,219553.953125,228830.28125,226104.796875,221782.78125,14314.0,1.0,3
229613.9375,249080.34375,293771.84375,253041.78125,220291.296875,229329.265625,227360.609375,223126.65625,14315.0,1.0,3
227352.296875,247614.96875,292495.46875,251357.984375,219009.828125,227975.203125,225538.5,221174.453125,14316.0,1.0,3
224336.515625,245524.71875,290902.5,249297.15625,217210.859375,226395.46875,222777.515625,218218.125,14317.0,1.0,3
225063.03125,245902.640625,291372.09375,249931.046875,217557.671875,226954.171875,223129.078125,218601.859375,14318.0,1.0,3
228482.046875,248183.859375,293201.71875,252322.6875,219529.71875,228823.21875,226065.015625,221757.65625,14319.0,1.0,3
229602.578125,249056.65625,293747.96875,253028.546875,220272.96875,229325.15625,227337.28125,223117.1875,14320.0,1.0,3
227375.71875,247621.75,292492.96875,251369.421875,219013.484375,227986.90625,225546.09375,221195.828125,14321.0,1.0,3
224358.421875,245536.703125,290902.0625,249309.9375,217217.390625,226404.671875,222782.703125,218235.203125,14322.0,1.0,3
225042.921875,245884.75,291350.0,249917.8125,217543.734375,226943.265625,223104.75,218584.6875,14323.0,1.0,3
228460.40625,248165.265625,293179.71875,252307.84375,219516.671875,228815.625,226037.65625,221739.859375,14324.0,1.0,3
229613.765625,249062.546875,293740.75,253034.984375,220281.09375,229336.234375,227330.84375,223124.421875,14325.0,1.0,3
227401.921875,247637.40625,292489.40625,251382.125,219032.71875,228008.71875,225554.234375,221215.3125,14326.0,1.0,3
224376.921875,245549.125,290893.125,249311.28125,217235.546875,226424.4375,222787.71875,218250.578125,14327.0,1.0,3
225025.03125,245869.375,291318.78125,249891.265625,217537.296875,226939.328125,223077.84375,218565.03125,14328.0,1.0,3
228438.765625,248142.28125,293145.03125,252281.921875,219504.78125,228806.5,226009.3125,221712.859375,14329.0,1.0,3
229614.03125,249053.078125,293724.46875,253028.734375,220281.1875,229341.515625,227333.171875,223125.9375,14330.0,1.0,3
227422.390625,247644.640625,292487.15625,251390.796875,219042.90625,228022.046875,225583.03125,221239.640625,14331.0,1.0,3
224377.734375,245540.0,290876.9375,249305.203125,217230.171875,226418.625,222802.46875,218260.140625,14332.0,1.0,3
224994.375,245843.265625,291286.53125,249862.921875,217512.703125,226914.03125,223060.859375,218541.234375,14333.0,1.0,3
228411.953125,248123.0625,293120.0,252253.84375,219484.75,228789.15625,225990.0,221688.8125,14334.0,1.0,3
229614.828125,249055.9375,293715.25,253017.375,220278.234375,229341.34375,227332.265625,223124.78125,14335.0,1.0,3
227452.078125,247672.984375,292498.4375,251402.78125,219064.984375,228044.671875,225609.578125,221275.84375,14336.0,1.0,3
224388.546875,245553.765625,290869.875,249294.203125,217236.25,226426.125,222810.96875,218276.859375,14337.0,1.0,3
224961.203125,245818.953125,291255.75,249822.15625,217492.859375,226898.734375,223033.671875,218519.421875,14338.0,1.0,3
228372.171875,248084.4375,293082.25,252209.234375,219458.46875,228770.921875,225952.09375,221655.46875,14339.0,1.0,3
229609.734375,249040.015625,293695.40625,253000.296875,220275.46875,229348.21875,227324.046875,223120.84375,14340.0,1.0,3
227451.625,247657.609375,292474.03125,251386.859375,219060.25,228044.21875,225604.75,221273.34375,14341.0,1.0,3
224392.84375,245551.453125,290857.0,249289.46875,217241.53125,226431.3125,222814.890625,218281.15625,14342.0,1.0,3
224942.6875,245813.40625,291231.8125,249803.90625,217487.046875,226894.0,223015.96875,218498.0625,14343.0,1.0,3
228360.8125,248091.328125,293067.40625,252202.703125,219460.609375,228774.234375,225944.046875,221642.5,14344.0,1.0,3
229615.734375,249054.234375,293685.03125,253004.328125,220280.390625,229351.625,227331.46875,223124.15625,14345.0,1.0,3
227471.75,247674.59375,292472.40625,251404.125,219073.484375,228058.34375,225629.96875,221300.4375,14346.0,1.0,3
224409.46875,245565.03125,290852.8125,249300.640625,217252.53125,226439.1875,222832.0625,218303.59375,14347.0,1.0,3
224917.921875,245791.5,291204.71875,249783.53125,217470.234375,226875.484375,222993.890625,218481.96875,14348.0,1.0,3
228331.9375,248062.984375,293038.34375,252178.390625,219438.625,228754.640625,225910.171875,221619.609375,14349.0,1.0,3
229617.96875,249047.0,293674.5,253000.75,220278.0625,229352.15625,227321.09375,223129.34375,14350.0,1.0,3
227503.21875,247693.734375,292476.25,251414.046875,219088.328125,228073.09375,225640.78125,221324.5625,14351.0,1.0,3
224422.96875,245571.125,290842.0625,249295.8125,217257.453125,226444.90625,222830.359375,218314.0625,14352.0,1.0,3
224894.234375,245771.84375,291178.34375,249760.109375,217460.40625,226867.890625,222966.96875,218465.328125,14353.0,1.0,3
228297.953125,248031.328125,293003.125,252147.359375,219416.625,228734.625,225872.96875,221586.625,14354.0,1.0,3
229615.09375,249041.0,293657.5,252989.296875,220270.28125,229346.4375,227305.453125,223119.859375,14355.0,1.0,3
227524.5,247709.28125,292474.65625,251420.125,219097.078125,228082.484375,225651.6875,221345.671875,14356.0,1.0,3
224426.640625,245572.8125,290832.78125,249292.6875,217257.53125,226443.484375,222836.265625,218328.09375,14357.0,1.0,3
224879.65625,245769.78125,291160.53125,249741.0625,217449.671875,226856.984375,222954.109375,218456.578125,14358.0,1.0,3
228286.6875,248029.09375,292985.25,252127.0625,219404.5625,228726.84375,225856.703125,221573.203125,14359.0,1.0,3
229623.859375,249045.203125,293650.78125,252988.234375,220272.078125,229352.515625,227313.234375,223130.140625,14360.0,1.0,3
227543.71875,247715.28125,292475.625,251433.359375,219108.53125,228089.734375,225676.453125,221370.703125,14361.0,1.0,3
224442.90625,245578.453125,290827.59375,249295.546875,217263.171875,226442.21875,222851.8125,218339.8125,14362.0,1.0,3
224839.34375,245727.21875,291117.4375,249700.921875,217419.453125,226822.296875,222921.734375,218418.578125,14363.0,1.0,3
228249.59375,247991.640625,292951.28125,252094.25,219383.984375,228704.21875,225828.984375,221540.578125,14364.0,1.0,3
229615.8125,249029.203125,293630.6875,252975.265625,220266.53125,229341.875,227305.625,223119.5,14365.0,1.0,3
227560.078125,247717.78125,292461.9375,251430.578125,219111.5625,228088.75,225683.421875,221380.09375,14366.0,1.0,3
224450.328125,245577.46875,290816.6875,249294.03125,217271.84375,226442.765625,222862.1875,218356.171875,14367.0,1.0,3
224823.609375,245714.796875,291099.65625,249686.25,217416.140625,226809.953125,222913.421875,218409.453125,14368.0,1.0,3
228230.359375,247976.609375,292929.5625,252077.359375,219370.21875,228686.25,225810.390625,221516.890625,14369.0,1.0,3
229625.46875,249032.421875,293628.09375,252976.25,220267.78125,229345.09375,227310.640625,223117.890625,14370.0,1.0,3
227601.203125,247741.921875,292485.1875,251458.390625,219139.640625,228122.984375,225727.421875,221413.171875,14371.0,1.0,3
224484.65625,245594.09375,290830.71875,249308.515625,217290.078125,226471.546875,222896.96875,218379.953125,14372.0,1.0,3
224807.6875,245693.6875,291078.65625,249658.171875,217396.75,226803.515625,222898.578125,218384.875,14373.0,1.0,3
228208.90625,247950.328125,292904.78125,252042.84375,219346.4375,228673.375,225786.6875,221486.75,14374.0,1.0,3
229630.03125,249025.796875,293613.34375,252959.0,220258.578125,229346.25,227306.34375,223113.421875,14375.0,1.0,3
227614.890625,247744.0625,292471.25,251446.5,219133.03125,228124.234375,225730.8125,221422.203125,14376.0,1.0,3
224481.171875,245588.1875,290805.0625,249284.453125,217272.46875,226456.359375,222888.390625,218372.890625,14377.0,1.0,3
224780.15625,245678.046875,291047.96875,249625.09375,217373.859375,226784.921875,222875.421875,218357.421875,14378.0,1.0,3
228182.265625,247933.34375,292879.84375,252015.578125,219330.171875,228666.3125,225768.1875,221463.78125,14379.0,1.0,3
229624.75,249017.484375,293601.875,252950.765625,220257.765625,229353.9375,227311.984375,223114.59375,14380.0,1.0,3
227637.234375,247757.65625,292473.21875,251458.75,219148.3125,228142.84375,225759.6875,221447.234375,14381.0,1.0,3
224506.125,245606.96875,290805.875,249295.28125,217288.5625,226474.953125,222915.828125,218399.53125,14382.0,1.0,3
224770.671875,245669.734375,291029.125,249612.046875,217369.296875,226783.5,222870.859375,218353.671875,14383.0,1.0,3
228160.890625,247915.546875,292851.0625,251997.15625,219315.6875,228652.90625,225749.140625,221446.515625,14384.0,1.0,3
229633.78125,249021.25,293586.6875,252953.453125,220260.1875,229357.25,227312.78125,223121.734375,14385.0,1.0,3
227660.84375,247768.5625,292464.09375,251467.6875,219157.796875,228153.03125,225771.765625,221468.78125,14386.0,1.0,3
224524.09375,245617.15625,290796.21875,249300.640625,217296.078125,226481.65625,222924.15625,218417.765625,14387.0,1.0,3
224743.046875,245649.53125,290994.0625,249585.671875,217347.296875,226761.3125,222839.390625,218329.25,14388.0,1.0,3
228131.296875,247890.609375,292820.375,251972.84375,219296.90625,228637.875,225716.78125,221417.640625,14389.0,1.0,3
229625.109375,249004.875,293564.53125,252940.9375,220250.4375,229350.640625,227295.4375,223106.625,14390.0,1.0,3
227679.53125,247774.828125,292457.75,251473.234375,219164.140625,228163.125,225780.34375,221478.4375,14391.0,1.0,3
224532.5,245615.28125,290786.375,249295.546875,217295.53125,226487.375,222924.234375,218420.28125,14392.0,1.0,3
224727.578125,245634.59375,290973.3125,249562.25,217334.78125,226760.0625,222814.1875,218308.421875,14393.0,1.0,3
228103.5,247864.40625,292785.78125,251937.4375,219269.546875,228624.921875,225668.671875,221379.375,14394.0,1.0,3
229639.0625,249014.71875,293558.875,252940.046875,220250.875,229363.15625,227283.8125,223105.375,14395.0,1.0,3
227716.09375,247802.09375,292469.8125,251491.46875,219183.71875,228189.15625,225795.90625,221508.125,14396.0,1.0,3
224548.9375,245622.703125,290786.03125,249302.34375,217305.8125,226497.125,222932.90625,218442.171875,14397.0,1.0,3
224707.109375,245615.109375,290954.0,249545.171875,217322.984375,226748.09375,222796.484375,218296.890625,14398.0,1.0,3
228090.71875,247855.734375,292773.1875,251924.5625,219260.4375,228616.15625,225654.546875,221365.703125,14399.0,1.0,3
229639.0625,249013.109375,293553.6875,252938.4375,220252.84375,229363.59375,227287.125,223112.171875,14400.0,1.0,3
227726.640625,247805.84375,292466.25,251497.28125,219193.828125,228191.921875,225813.96875,221529.765625,14401.0,1.0,3
224567.625,245637.09375,290779.40625,249305.921875,217315.296875,226500.875,222951.78125,218462.65625,14402.0,1.0,3
224682.25,245597.5,290917.34375,249517.0,217303.140625,226725.46875,222771.71875,218276.59375,14403.0,1.0,3
228059.0625,247830.34375,292734.46875,251898.625,219237.453125,228598.625,225622.09375,221340.125,14404.0,1.0,3
229646.390625,249014.625,293537.96875,252939.59375,220248.640625,229370.390625,227282.921875,223115.65625,14405.0,1.0,3
227759.640625,247826.59375,292465.53125,251513.734375,219202.234375,228212.3125,225831.75,221553.71875,14406.0,1.0,3
224584.96875,245648.453125,290773.9375,249312.796875,217321.109375,226511.515625,222965.015625,218479.640625,14407.0,1.0,3
224662.578125,245583.09375,290899.28125,249502.515625,217292.9375,226717.515625,222764.109375,218263.71875,14408.0,1.0,3
228034.390625,247811.75,292720.25,251880.390625,219225.828125,228585.84375,225612.625,221322.328125,14409.0,1.0,3
229649.515625,249012.484375,293536.25,252939.140625,220253.65625,229371.46875,227298.125,223123.4375,14410.0,1.0,3
227786.109375,247841.25,292473.75,251527.140625,219222.609375,228229.46875,225866.53125,221585.109375,14411.0,1.0,3
224603.21875,245656.40625,290776.0,249317.53125,217334.78125,226522.25,222991.828125,218504.234375,14412.0,1.0,3
224643.796875,245568.703125,290878.375,249480.609375,217283.375,226709.109375,222756.0625,218254.875,14413.0,1.0,3
228012.390625,247798.515625,292699.0625,251860.453125,219217.34375,228581.734375,225599.03125,221311.421875,14414.0,1.0,3
229647.109375,249014.1875,293522.59375,252927.609375,220251.0625,229372.625,227295.609375,223125.5,14415.0,1.0,3
227801.21875,247854.65625,292470.625,251531.609375,219231.828125,228236.796875,225885.671875,221610.578125,14416.0,1.0,3
224615.28125,245669.734375,290771.53125,249321.390625,217342.734375,226528.765625,223009.984375,218530.328125,14417.0,1.0,3
224617.875,245555.921875,290851.28125,249452.71875,217268.4375,226697.125,222739.078125,218241.8125,14418.0,1.0,3
227968.046875,247766.59375,292654.1875,251812.703125,219184.609375,228554.375,225558.96875,221272.265625,14419.0,1.0,3
229626.8125,248992.546875,293492.625,252903.828125,220235.421875,229359.125,227277.90625,223111.453125,14420.0,1.0,3
227814.4375,247862.53125,292460.875,251532.59375,219239.15625,228241.0,225897.375,221625.96875,14421.0,1.0,3
224627.53125,245685.109375,290757.0625,249316.734375,217352.3125,226529.21875,223021.25,218543.390625,14422.0,1.0,3
224593.921875,245548.3125,290819.8125,249426.171875,217259.59375,226679.59375,222721.109375,218225.1875,14423.0,1.0,3
227954.640625,247768.03125,292636.125,251799.828125,219183.984375,228550.53125,225547.078125,221261.1875,14424.0,1.0,3
229639.15625,249012.578125,293486.09375,252907.765625,220247.03125,229370.390625,227283.8125,223120.84375,14425.0,1.0,3
227832.0625,247876.484375,292447.8125,251534.390625,219244.609375,228246.640625,225904.71875,221638.203125,14426.0,1.0,3
224626.015625,245674.109375,290731.5625,249305.46875,217341.046875,226512.859375,223011.765625,218540.796875,14427.0,1.0,3
224564.234375,245516.671875,290787.625,249403.546875,217233.484375,226641.875,222690.0,218198.453125,14428.0,1.0,3
227911.984375,247721.171875,292596.40625,251770.328125,219148.671875,228506.28125,225504.609375,221221.03125,14429.0,1.0,3
229639.953125,248998.796875,293474.03125,252908.5625,220237.734375,229357.4375,227278.1875,223117.0,14430.0,1.0,3
227849.3125,247872.90625,292443.96875,251549.21875,219245.765625,228247.625,225920.359375,221657.171875,14431.0,1.0,3
224641.75,245669.640625,290727.8125,249320.75,217344.171875,226517.78125,223031.265625,218561.171875,14432.0,1.0,3
224548.140625,245494.9375,290763.84375,249391.5625,217216.765625,226627.03125,222677.390625,218185.40625,14433.0,1.0,3
227887.484375,247696.5,292561.90625,251743.859375,219120.515625,228473.734375,225472.421875,221189.921875,14434.0,1.0,3
229635.9375,248985.75,293449.1875,252896.859375,220222.890625,229338.125,227259.859375,223101.171875,14435.0,1.0,3
227880.0625,247889.703125,292445.59375,251562.28125,219257.125,228256.109375,225936.265625,221673.890625,14436.0,1.0,3
224669.46875,245689.140625,290729.0625,249327.734375,217355.96875,226529.9375,223050.578125,218578.875,14437.0,1.0,3
224534.1875,245485.109375,290736.5625,249367.515625,217201.125,226620.40625,222661.921875,218165.109375,14438.0,1.0,3
227862.984375,247676.65625,292534.8125,251719.8125,219102.0,228476.859375,225452.765625,221163.734375,14439.0,1.0,3
229623.953125,248967.234375,293430.21875,252884.4375,220208.859375,229348.21875,227257.171875,223090.71875,14440.0,1.0,3
227898.484375,247897.671875,292445.59375,251571.046875,219266.515625,228283.109375,225964.4375,221695.703125,14441.0,1.0,3
224688.78125,245703.53125,290724.0625,249332.640625,217366.34375,226546.46875,223074.359375,218597.296875,14442.0,1.0,3
224528.46875,245489.125,290725.5,249358.484375,217205.6875,226630.0625,222668.71875,218164.125,14443.0,1.0,3
227833.390625,247659.671875,292507.8125,251691.921875,219087.34375,228470.609375,225436.578125,221139.859375,14444.0,1.0,3
229624.3125,248970.640625,293417.09375,252872.890625,220209.484375,229354.75,227259.578125,223091.078125,14445.0,1.0,3
227919.765625,247916.796875,292439.25,251572.203125,219273.578125,228290.359375,225979.09375,221715.8125,14446.0,1.0,3
224700.125,245714.796875,290714.3125,249327.734375,217368.21875,226551.578125,223085.0,218616.25,14447.0,1.0,3
224507.90625,245477.421875,290699.75,249332.015625,217190.484375,226619.609375,222649.578125,218147.84375,14448.0,1.0,3
227817.84375,247652.0625,292487.625,251671.171875,219078.9375,228464.703125,225417.078125,221120.0,14449.0,1.0,3
229633.609375,248980.65625,293411.0,252871.90625,220213.953125,229361.453125,227259.671875,223092.59375,14450.0,1.0,3
227951.328125,247940.40625,292444.53125,251586.953125,219291.71875,228311.8125,226001.09375,221739.234375,14451.0,1.0,3
224734.828125,245740.640625,290722.625,249345.703125,217389.671875,226576.96875,223109.9375,218643.25,14452.0,1.0,3
224488.6875,245462.21875,290671.65625,249307.875,217172.78125,226608.34375,222624.640625,218125.59375,14453.0,1.0,3
227790.75,247633.296875,292457.84375,251643.546875,219053.453125,228449.59375,225382.75,221089.703125,14454.0,1.0,3
229641.46875,248986.828125,293402.34375,252870.125,220211.09375,229367.265625,227253.953125,223090.625,14455.0,1.0,3
227977.703125,247957.125,292444.78125,251599.03125,219303.4375,228327.1875,226018.265625,221758.734375,14456.0,1.0,3
224742.6875,245742.59375,290711.4375,249343.734375,217392.1875,226576.875,223124.515625,218654.703125,14457.0,1.0,3
224465.796875,245448.359375,290650.21875,249286.78125,217165.625,226597.25,222622.84375,218117.28125,14458.0,1.0,3
227750.96875,247606.828125,292425.90625,251605.90625,219034.5,228426.875,225363.0,221060.015625,14459.0,1.0,3
229626.71875,248976.8125,293385.78125,252850.09375,220203.9375,229356.453125,227255.203125,223084.375,14460.0,1.0,3
227986.375,247960.96875,292438.71875,251593.390625,219306.03125,228323.609375,226037.65625,221772.3125,14461.0,1.0,3
224754.40625,245751.90625,290703.75,249338.109375,217395.578125,226569.0,223140.6875,218667.484375,14462.0,1.0,3
224434.6875,245428.0625,290615.25,249255.40625,217142.015625,226560.6875,222599.609375,218089.734375,14463.0,1.0,3
227721.28125,247586.53125,292393.375,251581.859375,219013.046875,228395.765625,225333.3125,221029.53125,14464.0,1.0,3
229625.828125,248976.453125,293368.8125,252847.234375,220203.5,229346.171875,227246.890625,223080.96875,14465.0,1.0,3
228002.90625,247976.34375,292431.09375,251601.625,219316.75,228326.828125,226042.671875,221788.953125,14466.0,1.0,3
224786.859375,245783.734375,290714.03125,249358.84375,217425.53125,226590.8125,223160.625,218702.53125,14467.0,1.0,3
224440.671875,245442.109375,290612.3125,249250.390625,217156.5,226573.296875,222592.453125,218099.296875,14468.0,1.0,3
227714.046875,247590.109375,292383.1875,251566.65625,219017.6875,228403.375,225317.125,221025.234375,14469.0,1.0,3
229632.796875,248984.3125,293365.59375,252843.21875,220211.546875,229362.25,227248.765625,223090.0,14470.0,1.0,3
228032.0625,247998.078125,292442.46875,251615.484375,219341.875,228359.015625,226075.84375,221827.03125,14471.0,1.0,3
224800.0,245788.5625,290704.375,249353.921875,217430.71875,226603.515625,223178.0625,218721.21875,14472.0,1.0,3
224422.078125,245425.03125,290583.59375,249226.515625,217142.109375,226562.390625,222582.53125,218080.703125,14473.0,1.0,3
227671.65625,247548.53125,292343.84375,251533.21875,218993.28125,228373.953125,225291.375,220989.5625,14474.0,1.0,3
229618.765625,248962.40625,293341.4375,252830.15625,220203.765625,229348.046875,227243.3125,223076.140625,14475.0,1.0,3
228049.859375,248002.265625,292432.71875,251622.359375,219349.75,228359.828125,226093.0,221839.109375,14476.0,1.0,3
224813.859375,245794.359375,290694.1875,249357.6875,217436.96875,226603.421875,223200.234375,218736.78125,14477.0,1.0,3
224397.578125,245402.9375,290553.90625,249205.421875,217128.96875,226547.09375,222577.15625,218067.46875,14478.0,1.0,3
227637.953125,247517.0625,292306.75,251505.328125,218971.015625,228360.09375,225268.40625,220958.71875,14479.0,1.0,3
229620.375,248957.046875,293323.3125,252825.875,220202.328125,229352.25,227237.5,223071.671875,14480.0,1.0,3
228071.84375,248014.078125,292429.21875,251635.5,219367.09375,228374.3125,226101.859375,221858.78125,14481.0,1.0,3
224839.34375,245810.015625,290692.75,249370.203125,217459.5,226618.0,223201.3125,218759.484375,14482.0,1.0,3
224380.765625,245391.140625,290531.21875,249184.6875,217124.5,226538.0625,222532.90625,218053.34375,14483.0,1.0,3
227616.671875,247508.5625,292286.0,251477.4375,218960.921875,228351.6875,225210.734375,220940.203125,14484.0,1.0,3
229618.234375,248958.84375,293315.53125,252809.78125,220201.53125,229360.109375,227201.65625,223073.90625,14485.0,1.0,3
228092.046875,248026.765625,292433.34375,251633.890625,219378.0,228400.15625,226101.40625,221883.0,14486.0,1.0,3
224847.734375,245806.703125,290688.125,249358.84375,217460.21875,226634.265625,223211.234375,218776.03125,14487.0,1.0,3
224367.0,245374.875,290513.40625,249155.53125,217107.515625,226538.0625,222534.25,218036.1875,14488.0,1.0,3
227595.21875,247487.5625,292264.90625,251447.578125,218942.59375,228351.328125,225220.84375,220909.453125,14489.0,1.0,3
229613.046875,248946.953125,293302.375,252796.546875,220192.40625,229367.890625,227241.171875,223058.796875,14490.0,1.0,3
228111.0,248036.0625,292435.125,251643.46875,219383.359375,228419.90625,226169.984375,221894.984375,14491.0,1.0,3
224879.84375,245836.921875,290702.96875,249382.09375,217480.609375,226665.5625,223290.453125,218802.046875,14492.0,1.0,3
224354.21875,245376.921875,290503.5,249152.046875,217107.0625,226549.15625,222568.21875,218029.5625,14493.0,1.0,3
227562.9375,247472.890625,292237.53125,251427.71875,218923.8125,228347.125,225211.71875,220879.953125,14494.0,1.0,3
229613.140625,248955.625,293288.96875,252796.09375,220192.671875,229378.265625,227233.65625,223054.140625,14495.0,1.0,3
228132.90625,248059.5,292429.6875,251653.390625,219400.359375,228439.3125,226167.65625,221912.78125,14496.0,1.0,3
224894.859375,245850.6875,290687.40625,249379.59375,217495.265625,226675.671875,223273.46875,218817.234375,14497.0,1.0,3
224331.59375,245358.6875,290465.40625,249115.484375,217098.125,226532.796875,222514.84375,218009.890625,14498.0,1.0,3
227542.828125,247461.984375,292206.96875,251390.796875,218918.71875,228340.421875,225164.78125,220858.3125,14499.0,1.0,3
229621.359375,248967.0625,293276.625,252777.5,220205.109375,229389.890625,227226.140625,223057.09375,14500.0,1.0,3
228162.6875,248087.203125,292430.21875,251652.3125,219425.03125,228459.515625,226201.8125,221938.265625,14501.0,1.0,3
224927.40625,245888.421875,290685.625,249382.09375,217516.8125,226685.328125,223329.609375,218841.734375,14502.0,1.0,3
224335.890625,245386.84375,290442.59375,249100.375,217101.4375,226517.421875,222561.78125,218002.921875,14503.0,1.0,3
227527.71875,247473.875,292173.0,251368.71875,218912.453125,228311.09375,225208.5,220834.0,14504.0,1.0,3
229627.078125,248987.890625,293253.65625,252778.390625,220213.78125,229374.15625,227295.078125,223054.140625,14505.0,1.0,3
228195.59375,248127.703125,292419.03125,251670.015625,219445.953125,228459.34375,226288.796875,221958.5625,14506.0,1.0,3
224956.546875,245924.640625,290670.0625,249391.125,217531.5625,226689.703125,223405.078125,218861.046875,14507.0,1.0,3
224327.125,245396.328125,290411.65625,249083.03125,217097.671875,226515.0,222598.4375,217993.265625,14508.0,1.0,3
227505.359375,247472.53125,292139.90625,251342.78125,218901.734375,228306.625,225221.828125,220810.84375,14509.0,1.0,3
229637.453125,249011.046875,293237.65625,252769.90625,220219.046875,229388.1875,227315.734375,223055.671875,14510.0,1.0,3
228225.0,248161.0625,292413.03125,251673.6875,219465.984375,228490.359375,226321.796875,221986.71875,14511.0,1.0,3
224994.09375,245964.953125,290670.3125,249400.6875,217559.734375,226728.953125,223443.421875,218899.5,14512.0,1.0,3
224327.21875,245406.4375,290393.15625,249067.46875,217101.96875,226530.5625,222601.84375,217999.078125,14513.0,1.0,3
227485.515625,247461.8125,292109.0625,251314.171875,218888.5,228304.390625,225202.515625,220792.6875,14514.0,1.0,3
229654.0,249024.109375,293232.0,252770.890625,220225.671875,229405.359375,227329.765625,223064.515625,14515.0,1.0,3
228264.875,248190.03125,292420.46875,251696.65625,219482.703125,228514.765625,226364.265625,222015.953125,14516.0,1.0,3
225036.21875,245995.625,290679.4375,249426.25,217581.546875,226750.046875,223495.46875,218931.765625,14517.0,1.0,3
224341.703125,245423.328125,290389.84375,249076.765625,217110.90625,226536.109375,222635.359375,218005.15625,14518.0,1.0,3
227487.65625,247476.203125,292103.875,251318.375,218894.046875,228307.078125,225227.90625,220788.125,14519.0,1.0,3
229648.1875,249024.640625,293215.375,252761.671875,220218.421875,229389.609375,227343.890625,223053.703125,14520.0,1.0,3
228286.328125,248210.6875,292420.03125,251699.78125,219493.421875,228505.203125,226395.109375,222030.265625,14521.0,1.0,3
225057.578125,246016.359375,290680.34375,249428.671875,217594.515625,226736.46875,223521.03125,218948.125,14522.0,1.0,3
224335.34375,245427.171875,290380.375,249062.28125,217114.84375,226513.125,222629.90625,217999.53125,14523.0,1.0,3
227459.3125,247461.1875,292077.0625,251285.75,218881.96875,228273.109375,225188.65625,220758.359375,14524.0,1.0,3
229655.515625,249040.015625,293210.71875,252758.984375,220233.359375,229385.421875,227325.828125,223055.75,14525.0,1.0,3
228319.421875,248245.28125,292433.78125,251722.046875,219532.046875,228528.265625,226401.71875,222065.3125,14526.0,1.0,3
225080.921875,246042.46875,290682.40625,249437.875,217622.40625,226750.59375,223520.671875,218977.1875,14527.0,1.0,3
224311.296875,245417.609375,290348.375,249028.75,217105.546875,226492.921875,222591.015625,217980.75,14528.0,1.0,3
227437.421875,247451.703125,292052.46875,251256.234375,218874.1875,228259.953125,225157.625,220735.828125,14529.0,1.0,3
229648.8125,249032.234375,293196.15625,252742.90625,220228.984375,229382.375,227316.171875,223045.75,14530.0,1.0,3
228335.328125,248253.328125,292429.125,251721.15625,219535.984375,228536.671875,226415.21875,222074.34375,14531.0,1.0,3
225113.90625,246069.390625,290698.125,249457.546875,217645.46875,226776.25,223556.53125,219007.765625,14532.0,1.0,3
224308.625,245420.734375,290344.96875,249028.484375,217107.6875,226500.703125,222596.921875,217979.859375,14533.0,1.0,3
227422.21875,247448.03125,292039.25,251247.5625,218868.828125,228262.546875,225143.671875,220719.90625,14534.0,1.0,3
229654.890625,249039.03125,293189.28125,252745.40625,220233.984375,229398.015625,227312.15625,223045.5625,14535.0,1.0,3
228366.359375,248276.21875,292435.3125,251736.71875,219555.03125,228569.390625,226428.640625,222093.65625,14536.0,1.0,3
225140.1875,246088.875,290697.5,249465.421875,217661.5625,226801.28125,223564.390625,219029.140625,14537.0,1.0,3
224294.3125,245410.1875,290321.1875,249009.078125,217101.15625,226502.75,222570.640625,217970.828125,14538.0,1.0,3
227392.890625,247429.625,292009.46875,251221.1875,218855.15625,228261.03125,225102.1875,220694.96875,14539.0,1.0,3
229647.5625,249037.421875,293171.75,252738.15625,220233.265625,229406.15625,227287.390625,223039.671875,14540.0,1.0,3
228375.296875,248282.828125,292424.40625,251744.140625,219564.0625,228579.140625,226428.28125,222113.59375,14541.0,1.0,3
225150.03125,246093.875,290683.1875,249469.4375,217668.625,226803.875,223570.921875,219045.40625,14542.0,1.0,3
224285.8125,245411.703125,290300.28125,248998.265625,217097.40625,226494.078125,222560.625,217957.953125,14543.0,1.0,3
227356.953125,247405.484375,291968.15625,251187.484375,218829.046875,228228.671875,225065.625,220650.890625,14544.0,1.0,3
229637.984375,249029.828125,293143.78125,252721.0,220222.359375,229388.71875,227271.75,223014.8125,14545.0,1.0,3
228400.0625,248305.0,292421.71875,251756.46875,219582.390625,228587.453125,226447.40625,222124.578125,14546.0,1.0,3
225170.234375,246114.359375,290677.3125,249475.078125,217681.6875,226806.921875,223586.484375,219057.296875,14547.0,1.0,3
224271.609375,245406.703125,290276.5,248977.078125,217091.59375,226475.3125,222546.765625,217944.625,14548.0,1.0,3
227330.3125,247393.234375,291943.5625,251157.53125,218815.625,228204.265625,225042.296875,220625.40625,14549.0,1.0,3
229637.625,249036.796875,293142.96875,252714.5625,220229.609375,229386.125,227278.625,223022.671875,14550.0,1.0,3
228408.109375,248310.71875,292418.6875,251751.640625,219588.46875,228582.984375,226461.53125,222142.734375,14551.0,1.0,3
225187.9375,246123.921875,290677.65625,249475.515625,217691.96875,226808.796875,223606.234375,219080.1875,14552.0,1.0,3
224257.5625,245394.53125,290259.21875,248955.796875,217081.9375,226465.296875,222538.984375,217937.390625,14553.0,1.0,3
227297.140625,247365.34375,291916.9375,251129.109375,218796.046875,228187.71875,225016.71875,220600.015625,14554.0,1.0,3
229625.828125,249019.640625,293124.28125,252702.671875,220222.0,229381.21875,227269.421875,223009.71875,14555.0,1.0,3
228431.0,248323.0625,292418.3125,251764.609375,219602.234375,228594.78125,226481.125,222159.90625,14556.0,1.0,3
225199.734375,246131.25,290664.6875,249476.140625,217693.3125,226801.46875,223615.890625,219090.296875,14557.0,1.0,3
224233.421875,245378.453125,290229.09375,248938.71875,217067.546875,226437.3125,222521.546875,217921.109375,14558.0,1.0,3
227258.78125,247335.828125,291882.78125,251106.21875,218777.453125,228154.1875,224981.578125,220572.84375,14559.0,1.0,3
229606.421875,248999.421875,293099.6875,252691.40625,220212.609375,229356.453125,227240.890625,222998.359375,14560.0,1.0,3
228446.375,248328.15625,292416.875,251775.0625,219615.015625,228592.90625,226481.65625,222180.546875,14561.0,1.0,3
225235.765625,246155.390625,290679.0,249497.78125,217726.203125,226817.734375,223637.171875,219131.5,14562.0,1.0,3
224232.984375,245376.03125,290220.34375,248926.734375,217077.5625,226434.265625,222512.34375,217925.140625,14563.0,1.0,3
227241.796875,247323.046875,291864.90625,251081.265625,218773.96875,228142.125,224960.21875,220555.046875,14564.0,1.0,3
229617.96875,249006.671875,293098.875,252689.25,220221.375,229359.84375,227250.015625,223003.09375,14565.0,1.0,3
228473.015625,248343.71875,292421.90625,251790.796875,219631.46875,228604.265625,226513.390625,222204.15625,14566.0,1.0,3
225243.71875,246150.125,290673.90625,249506.71875,217734.609375,226822.390625,223660.234375,219147.515625,14567.0,1.0,3
224195.25,245336.328125,290186.8125,248902.0625,217057.078125,226413.265625,222489.359375,217899.03125,14568.0,1.0,3
227199.953125,247286.21875,291831.09375,251057.125,218752.78125,228127.71875,224920.15625,220519.28125,14569.0,1.0,3
229609.921875,248998.625,293087.625,252688.453125,220223.171875,229371.46875,227225.609375,222997.375,14570.0,1.0,3
228490.09375,248351.859375,292422.4375,251797.59375,219649.078125,228629.65625,226501.6875,222220.96875,14571.0,1.0,3
225266.96875,246164.875,290674.71875,249511.90625,217756.515625,226847.328125,223649.421875,219171.03125,14572.0,1.0,3
224199.09375,245341.609375,290184.40625,248895.984375,217071.296875,226429.53125,222466.03125,217908.421875,14573.0,1.0,3
227175.09375,247262.515625,291813.84375,251026.90625,218744.546875,228119.046875,224877.96875,220500.859375,14574.0,1.0,3
229595.703125,248972.34375,293069.125,252661.359375,220215.921875,229358.0625,227195.484375,222983.15625,14575.0,1.0,3
228509.9375,248352.296875,292424.75,251797.421875,219663.484375,228631.0,226511.78125,222239.46875,14576.0,1.0,3
225300.140625,246181.328125,290685.15625,249521.125,217776.8125,226849.828125,223680.265625,219198.65625,14577.0,1.0,3
224181.125,245327.484375,290163.125,248871.9375,217059.953125,226398.421875,222463.609375,217891.96875,14578.0,1.0,3
227129.234375,247232.125,291771.5625,250987.21875,218715.3125,228074.34375,224853.734375,220461.796875,14579.0,1.0,3
229576.65625,248964.734375,293041.5625,252646.15625,220203.9375,229335.4375,227196.375,222971.53125,14580.0,1.0,3
228517.890625,248367.59375,292408.3125,251802.515625,219664.546875,228627.0625,226533.6875,222249.9375,14581.0,1.0,3
225306.046875,246195.0,290665.125,249528.0,217778.953125,226850.546875,223704.671875,219212.0625,14582.0,1.0,3
224155.109375,245315.40625,290124.5,248855.390625,217044.296875,226387.6875,222458.34375,217876.140625,14583.0,1.0,3
227101.953125,247223.53125,291734.625,250963.34375,218697.96875,228062.375,224833.25,220428.984375,14584.0,1.0,3
229582.640625,248982.359375,293028.96875,252640.53125,220206.796875,229345.265625,227195.65625,222962.0625,14585.0,1.0,3
228543.828125,248395.75,292411.78125,251808.234375,219680.375,228650.046875,226552.90625,222265.84375,14586.0,1.0,3
225336.0,246227.984375,290672.375,249532.921875,217799.703125,226876.5625,223727.375,219238.4375,14587.0,1.0,3
224161.0,245332.21875,290121.53125,248842.34375,217054.40625,226402.265625,222458.15625,217881.15625,14588.0,1.0,3
227086.140625,247216.390625,291723.53125,250944.296875,218696.1875,228074.265625,224815.734375,220419.328125,14589.0,1.0,3
229570.75,248966.171875,293012.53125,252625.421875,220196.96875,229351.796875,227176.34375,222951.859375,14590.0,1.0,3
228558.578125,248396.203125,292410.625,251817.71875,219687.96875,228671.234375,226557.65625,222282.65625,14591.0,1.0,3
225354.328125,246226.828125,290668.625,249539.625,217803.28125,226891.765625,223731.140625,219255.515625,14592.0,1.0,3
224146.703125,245312.46875,290098.03125,248823.46875,217033.75,226395.734375,222430.796875,217864.25,14593.0,1.0,3
227054.125,247187.234375,291696.1875,250915.234375,218672.046875,228062.90625,224778.890625,220387.578125,14594.0,1.0,3
229555.90625,248947.03125,293001.15625,252615.21875,220192.234375,229357.34375,227165.265625,222944.359375,14595.0,1.0,3
228560.28125,248387.796875,292404.375,251816.28125,219691.640625,228680.4375,226562.03125,222293.296875,14596.0,1.0,3
225364.15625,246225.84375,290663.4375,249541.40625,217813.109375,226900.4375,223740.34375,219274.46875,14597.0,1.0,3
224126.40625,245289.9375,290074.34375,248806.484375,217028.390625,226387.328125,222412.296875,217858.4375,14598.0,1.0,3
227008.625,247143.96875,291652.5625,250880.734375,218645.046875,228036.171875,224727.484375,220354.328125,14599.0,1.0,3
229542.0625,248926.734375,292967.8125,252595.5625,220173.984375,229344.015625,227123.5,222927.375,14600.0,1.0,3
228570.828125,248384.484375,292385.34375,251815.21875,219692.453125,228685.359375,226548.265625,222306.265625,14601.0,1.0,3
225379.09375,246226.65625,290653.0625,249550.171875,217826.34375,226910.546875,223746.421875,219303.890625,14602.0,1.0,3
224108.796875,245270.796875,290046.25,248791.109375,217021.40625,226375.890625,222394.765625,217853.25,14603.0,1.0,3
226978.484375,247120.1875,291621.0625,250855.96875,218630.734375,228017.9375,224700.40625,220330.8125,14604.0,1.0,3
229535.625,248916.1875,292954.9375,252591.0,220179.796875,229342.859375,227126.640625,222927.8125,14605.0,1.0,3
228598.28125,248397.71875,292386.125,251828.4375,219712.828125,228697.609375,226579.90625,222328.796875,14606.0,1.0,3
225416.109375,246249.0,290658.4375,249565.90625,217850.484375,226928.59375,223787.46875,219331.0625,14607.0,1.0,3
224111.921875,245268.03125,290033.3125,248777.609375,217024.1875,226371.765625,222404.96875,217849.5,14608.0,1.0,3
226959.53125,247100.25,291597.125,250823.59375,218616.96875,227999.515625,224687.609375,220301.3125,14609.0,1.0,3
229531.6875,248908.234375,292938.21875,252567.921875,220168.8125,229328.375,227119.484375,222906.53125,14610.0,1.0,3
228621.078125,248410.0625,292389.625,251827.28125,219721.59375,228699.75,226592.96875,222339.421875,14611.0,1.0,3
225443.734375,246266.25,290666.375,249565.203125,217861.84375,226930.65625,223801.40625,219349.390625,14612.0,1.0,3
224109.78125,245270.265625,290027.03125,248758.828125,217021.765625,226357.734375,222393.4375,217841.546875,14613.0,1.0,3
226932.796875,247083.609375,291576.8125,250794.453125,218605.96875,227981.1875,224655.0625,220276.09375,14614.0,1.0,3
229534.640625,248912.609375,292932.21875,252562.296875,220178.8125,229335.34375,227107.6875,222909.3125,14615.0,1.0,3
228649.78125,248434.5625,292391.40625,251836.140625,219743.234375,228716.921875,226604.328125,222363.484375,14616.0,1.0,3
225464.296875,246280.828125,290655.9375,249564.921875,217873.109375,226940.671875,223808.921875,219366.375,14617.0,1.0,3
224090.734375,245254.34375,290000.125,248734.96875,217012.734375,226360.6875,222374.5625,217828.578125,14618.0,1.0,3
226892.75,247052.40625,291537.9375,250756.984375,218580.9375,227972.25,224618.0625,220238.09375,14619.0,1.0,3
229519.171875,248898.125,292904.34375,252541.46875,220162.546875,229332.84375,227088.453125,222884.546875,14620.0,1.0,3
228652.71875,248427.671875,292376.21875,251835.328125,219741.265625,228726.125,226606.375,222364.640625,14621.0,1.0,3
225482.53125,246290.21875,290649.9375,249575.65625,217880.171875,226956.5,223826.171875,219384.53125,14622.0,1.0,3
224073.484375,245238.34375,289969.71875,248717.171875,216994.40625,226341.28125,222362.046875,217815.53125,14623.0,1.0,3
226857.796875,247024.078125,291502.875,250729.90625,218553.046875,227945.421875,224588.28125,220208.140625,14624.0,1.0,3
229506.46875,248882.484375,292883.875,252529.84375,220147.890625,229325.0625,227073.96875,222873.546875,14625.0,1.0,3
228671.140625,248436.875,292375.59375,251843.015625,219744.84375,228740.34375,226620.59375,222383.421875,14626.0,1.0,3
225501.390625,246296.5625,290649.40625,249583.078125,217884.8125,226968.65625,223840.484375,219409.921875,14627.0,1.0,3
224067.125,245232.171875,289951.9375,248704.75,216983.0625,226338.515625,222346.671875,217813.46875,14628.0,1.0,3
226827.125,247000.46875,291472.21875,250700.484375,218529.34375,227936.21875,224547.328125,220183.109375,14629.0,1.0,3
229496.8125,248868.0,292871.15625,252517.765625,220139.65625,229333.828125,227054.484375,222870.6875,14630.0,1.0,3
228694.03125,248443.9375,292377.0,251851.515625,219752.171875,228762.609375,226626.5,222404.15625,14631.0,1.0,3
225529.375,246310.515625,290651.46875,249593.53125,217898.765625,226990.375,223855.59375,219437.09375,14632.0,1.0,3
224058.90625,245222.078125,289936.375,248692.046875,216981.984375,226345.046875,222337.90625,217810.421875,14633.0,1.0,3
226800.390625,246978.203125,291445.40625,250672.046875,218512.90625,227927.8125,224516.3125,220152.171875,14634.0,1.0,3
229490.5625,248861.296875,292849.09375,252500.609375,220127.859375,229325.6875,227030.34375,222849.578125,14635.0,1.0,3
228713.875,248454.140625,292372.1875,251859.296875,219760.65625,228769.671875,226632.9375,222417.84375,14636.0,1.0,3
225555.046875,246322.40625,290651.71875,249606.6875,217915.03125,226993.6875,223874.640625,219460.875,14637.0,1.0,3
224051.9375,245214.828125,289920.1875,248683.375,216982.515625,226329.390625,222332.28125,217809.625,14638.0,1.0,3
226772.046875,246955.765625,291417.6875,250650.953125,218498.0625,227902.0625,224489.9375,220130.359375,14639.0,1.0,3
229478.75,248849.84375,292831.375,252491.125,220120.796875,229312.71875,227019.34375,222843.953125,14640.0,1.0,3
228717.90625,248450.015625,292357.53125,251856.078125,219759.953125,228766.359375,226636.953125,222428.390625,14641.0,1.0,3
225569.4375,246326.96875,290640.09375,249605.421875,217915.21875,227001.46875,223884.828125,219480.109375,14642.0,1.0,3
224046.828125,245209.640625,289902.6875,248667.453125,216972.234375,226332.078125,222326.015625,217807.203125,14643.0,1.0,3
226752.5625,246939.3125,291397.125,250626.09375,218483.9375,227895.171875,224474.46875,220113.1875,14644.0,1.0,3
229476.078125,248837.421875,292815.46875,252480.21875,220113.46875,229305.75,227019.4375,222840.5625,14645.0,1.0,3
228750.53125,248467.546875,292361.71875,251871.984375,219774.078125,228780.9375,226670.390625,222457.625,14646.0,1.0,3
225598.21875,246345.375,290640.46875,249619.46875,217929.609375,227015.765625,223920.59375,219510.328125,14647.0,1.0,3
224028.953125,245192.84375,289874.4375,248648.5,216960.171875,226320.359375,222325.75,217798.1875,14648.0,1.0,3
226708.921875,246906.859375,291355.71875,250589.625,218456.484375,227874.078125,224447.375,220076.890625,14649.0,1.0,3
229453.8125,248816.0625,292787.75,252455.1875,220097.28125,229299.40625,226999.59375,222815.4375,14650.0,1.0,3
228767.515625,248476.21875,292364.0625,251877.890625,219787.21875,228798.8125,226684.78125,222472.203125,14651.0,1.0,3
225638.640625,246375.515625,290653.5,249635.828125,217954.375,227039.28125,223950.0,219543.40625,14652.0,1.0,3
224038.96875,245201.421875,289869.78125,248636.96875,216960.703125,226315.53125,222320.109375,217800.421875,14653.0,1.0,3
226688.359375,246889.421875,291335.4375,250558.78125,218437.265625,227853.0625,224413.3125,220051.140625,14654.0,1.0,3
229453.453125,248812.921875,292781.5,252442.046875,220094.859375,229298.15625,226987.25,222812.390625,14655.0,1.0,3
228782.71875,248481.9375,292361.53125,251875.921875,219793.65625,228805.515625,226690.421875,222486.859375,14656.0,1.0,3
225651.515625,246375.515625,290646.28125,249630.640625,217958.671875,227040.0,223959.21875,219557.078125,14657.0,1.0,3
224017.421875,245179.421875,289840.0,248607.640625,216942.90625,226293.453125,222299.828125,217780.03125,14658.0,1.0,3
226648.578125,246857.234375,291299.125,250523.375,218408.46875,227824.8125,224376.03125,220012.875,14659.0,1.0,3
229445.9375,248805.859375,292765.21875,252435.421875,220083.875,229290.28125,226976.796875,222798.53125,14660.0,1.0,3
228801.859375,248487.84375,292357.625,251888.796875,219796.515625,228806.6875,226704.640625,222498.9375,14661.0,1.0,3
225680.65625,246388.75,290650.65625,249655.859375,217971.890625,227043.578125,223989.078125,219588.109375,14662.0,1.0,3
224022.6875,245181.84375,289837.125,248620.078125,216946.75,226289.703125,222315.734375,217796.578125,14663.0,1.0,3
226618.71875,246833.71875,291277.03125,250510.140625,218394.078125,227808.546875,224363.0625,219998.3125,14664.0,1.0,3
229426.625,248783.515625,292746.0,252425.421875,220071.078125,229279.734375,226967.140625,222791.828125,14665.0,1.0,3
228834.40625,248511.984375,292370.75,251910.34375,219814.046875,228830.015625,226734.59375,222536.03125,14666.0,1.0,3
225712.484375,246411.8125,290660.5,249672.21875,217988.890625,227069.5,224021.703125,219627.453125,14667.0,1.0,3
224003.296875,245166.8125,289810.84375,248597.09375,216931.640625,226283.34375,222305.640625,217789.0625,14668.0,1.0,3
226584.109375,246811.453125,291243.6875,250477.328125,218371.71875,227793.25,224333.109375,219971.3125,14669.0,1.0,3
229415.09375,248778.5,292725.875,252411.28125,220065.0,229278.03125,226954.265625,222780.921875,14670.0,1.0,3
228837.171875,248513.234375,292354.125,251907.21875,219815.375,228834.40625,226736.734375,222539.15625,14671.0,1.0,3
225732.421875,246428.984375,290655.46875,249683.03125,218001.140625,227085.328125,224037.53125,219646.671875,14672.0,1.0,3
224002.84375,245171.640625,289795.75,248592.71875,216934.6875,226293.0,222302.953125,217787.359375,14673.0,1.0,3
226545.40625,246782.046875,291204.71875,250443.796875,218346.953125,227781.984375,224293.328125,219929.203125,14674.0,1.0,3
229409.203125,248775.640625,292712.28125,252401.71875,220060.984375,229291.53125,226940.046875,222766.078125,14675.0,1.0,3
228859.078125,248533.34375,292359.03125,251916.875,219830.671875,228863.1875,226751.3125,222555.703125,14676.0,1.0,3
225759.78125,246453.296875,290661.21875,249689.203125,218020.71875,227112.15625,224057.390625,219668.75,14677.0,1.0,3
223995.875,245170.125,289788.25,248578.40625,216940.046875,226302.390625,222300.71875,217788.25,14678.0,1.0,3
226519.390625,246772.75,291185.21875,250414.921875,218339.359375,227777.703125,224271.875,219910.859375,14679.0,1.0,3
229383.984375,248755.96875,292681.625,252367.125,220045.6875,229276.0625,226911.25,222744.625,14680.0,1.0,3
228861.3125,248524.859375,292340.09375,251903.09375,219833.796875,228862.296875,226746.296875,222560.984375,14681.0,1.0,3
225780.53125,246456.6875,290651.8125,249692.59375,218036.53125,227123.234375,224075.53125,219695.21875,14682.0,1.0,3
223984.78125,245152.6875,289752.75,248554.546875,216925.390625,226288.0,222285.515625,217775.734375,14683.0,1.0,3
226500.34375,246754.328125,291151.5,250391.234375,218322.90625,227766.171875,224248.890625,219885.390625,14684.0,1.0,3
229376.65625,248742.390625,292658.75,252361.578125,220036.21875,229277.59375,226904.109375,222733.265625,14685.0,1.0,3
228872.578125,248522.0,292326.84375,251912.046875,219827.71875,228870.78125,226755.953125,222568.75,14686.0,1.0,3
225810.75,246471.890625,290657.90625,249714.5,218047.625,227143.625,224107.1875,219725.34375,14687.0,1.0,3
223999.265625,245164.046875,289754.4375,248561.953125,216934.234375,226299.625,222304.828125,217792.015625,14688.0,1.0,3
226466.1875,246726.25,291121.65625,250360.46875,218299.9375,227744.96875,224225.921875,219858.828125,14689.0,1.0,3
229365.03125,248730.140625,292640.21875,252338.421875,220027.8125,229268.65625,226892.65625,222720.484375,14690.0,1.0,3
228898.5,248540.234375,292330.875,251912.3125,219849.4375,228889.109375,226778.9375,222589.953125,14691.0,1.0,3
225833.453125,246487.890625,290650.3125,249709.953125,218063.453125,227152.125,224125.515625,219743.40625,14692.0,1.0,3
223979.515625,245148.40625,289723.25,248530.125,216925.390625,226284.421875,222289.453125,217775.921875,14693.0,1.0,3
226432.5625,246705.515625,291092.3125,250325.78125,218286.515625,227729.15625,224200.34375,219830.578125,14694.0,1.0,3
229355.109375,248731.296875,292629.59375,252326.890625,220032.90625,229270.078125,226890.609375,222715.921875,14695.0,1.0,3
228906.375,248555.96875,292323.71875,251909.171875,219858.828125,228891.625,226790.109375,222602.015625,14696.0,1.0,3
225854.015625,246513.375,290651.375,249713.34375,218081.328125,227161.953125,224152.953125,219770.59375,14697.0,1.0,3
223973.515625,245156.359375,289710.8125,248517.703125,216932.09375,226279.5,222301.25,217782.890625,14698.0,1.0,3
226391.078125,246685.3125,291058.09375,250289.578125,218270.25,227703.578125,224179.15625,219801.25,14699.0,1.0,3
229333.921875,248720.921875,292600.1875,252301.140625,220017.890625,229250.046875,226872.8125,222693.21875,14700.0,1.0,3
228913.609375,248559.28125,292312.1875,251909.796875,219861.25,228889.5625,226798.953125,222608.90625,14701.0,1.0,3
225868.234375,246520.265625,290643.6875,249724.703125,218088.75,227163.5625,224167.09375,219788.296875,14702.0,1.0,3
223961.546875,245147.59375,289691.84375,248513.6875,216925.84375,226269.21875,222290.34375,217778.78125,14703.0,1.0,3
226354.25,246657.234375,291025.0,250266.328125,218245.9375,227674.078125,224137.40625,219771.578125,14704.0,1.0,3
229308.25,248696.875,292574.875,252283.96875,219995.171875,229222.875,226835.703125,222670.5,14705.0,1.0,3
228922.640625,248562.59375,292307.46875,251916.875,219857.40625,228882.046875,226791.09375,222617.21875,14706.0,1.0,3
225886.828125,246527.234375,290644.3125,249730.515625,218085.890625,227159.71875,224170.484375,219808.046875,14707.0,1.0,3
223965.921875,245146.171875,289687.03125,248504.296875,216914.484375,226259.828125,222281.3125,217782.265625,14708.0,1.0,3
226337.265625,246641.140625,291014.09375,250250.140625,218228.859375,227667.640625,224118.625,219755.203125,14709.0,1.0,3
229311.75,248694.546875,292575.9375,252288.359375,219994.546875,229238.25,226839.640625,222672.65625,14710.0,1.0,3
228950.453125,248574.5625,292318.0,251934.125,219874.203125,228914.0625,226820.6875,222645.203125,14711.0,1.0,3
225917.5,246542.609375,290646.8125,249745.34375,218104.21875,227184.75,224200.703125,219836.921875,14712.0,1.0,3
223962.25,245137.671875,289666.09375,248494.375,216909.03125,226258.046875,222278.71875,217780.5625,14713.0,1.0,3
226305.703125,246612.796875,290978.875,250220.546875,218206.328125,227650.65625,224088.40625,219726.59375,14714.0,1.0,3
229283.84375,248664.78125,292543.59375,252263.046875,219974.34375,229223.234375,226813.625,222649.21875,14715.0,1.0,3
