FZ,C3,CZ,C4,PZ,PO7,OZ,PO8,Counter,Validation,Label
232391.1875,246394.828125,241224.78125,236825.78125,222567.78125,228827.515625,219878.5,210313.921875,165467.0,1.0,4
232347.5625,246377.296875,241219.59375,236826.84375,222671.3125,228826.359375,219913.90625,210326.703125,165468.0,1.0,4
232281.03125,246308.015625,241198.765625,236791.171875,222562.765625,228793.359375,219858.828125,210300.0625,165469.0,1.0,4
232302.671875,246306.40625,241186.234375,236772.9375,222438.21875,228771.8125,219805.1875,210263.9375,165470.0,1.0,4
232347.828125,246341.625,241187.046875,236783.390625,222408.71875,228778.34375,219799.5625,210261.796875,165471.0,1.0,4
232377.6875,246384.984375,241190.625,236814.328125,222550.421875,228804.171875,219860.625,210295.6875,165472.0,1.0,4
232324.21875,246353.609375,241179.359375,236808.421875,222639.296875,228799.890625,219890.921875,210306.59375,165473.0,1.0,4
232263.0625,246291.5625,241173.28125,236780.171875,222532.375,228773.953125,219842.65625,210274.40625,165474.0,1.0,4
232297.3125,246304.703125,241180.875,236772.21875,222428.828125,228761.984375,219799.734375,210254.015625,165475.0,1.0,4
232357.21875,246352.09375,241211.1875,236798.6875,222417.578125,228790.046875,219812.078125,210275.46875,165476.0,1.0,4
232380.90625,246390.71875,241222.546875,236827.390625,222547.75,228816.96875,219875.734375,210312.140625,165477.0,1.0,4
232333.78125,246365.140625,241211.984375,236826.84375,222640.28125,228817.140625,219905.765625,210322.234375,165478.0,1.0,4
232265.84375,246295.140625,241184.71875,236790.015625,222523.96875,228784.515625,219847.5625,210282.1875,165479.0,1.0,4
232312.6875,246317.9375,241191.515625,236794.75,222433.484375,228787.1875,219818.515625,210274.9375,165480.0,1.0,4
232357.390625,246347.4375,241188.296875,236800.203125,222404.96875,228792.375,219807.25,210275.296875,165481.0,1.0,4
232399.5,246403.765625,241208.953125,236838.65625,222549.265625,228830.015625,219876.984375,210324.828125,165482.0,1.0,4
232347.734375,246378.28125,241204.03125,236835.4375,222647.4375,228828.5,219908.8125,210336.09375,165483.0,1.0,4
232268.4375,246299.34375,241183.203125,236790.28125,222525.65625,228785.046875,219847.125,210290.234375,165484.0,1.0,4
232294.625,246302.734375,241186.15625,236775.890625,222412.390625,228771.1875,219800.453125,210260.015625,165485.0,1.0,4
232348.453125,246343.421875,241204.75,236796.0,222393.703125,228788.796875,219801.515625,210268.140625,165486.0,1.0,4
232390.03125,246402.25,241221.46875,236837.578125,222542.65625,228818.84375,219873.5,210313.03125,165487.0,1.0,4
232335.671875,246371.484375,241200.015625,236824.4375,222630.265625,228805.96875,219891.46875,210311.0625,165488.0,1.0,4
232260.03125,246296.75,241175.15625,236783.75,222510.203125,228772.0,219831.65625,210275.203125,165489.0,1.0,4
232299.90625,246312.21875,241179.71875,236779.28125,222417.65625,228766.890625,219800.359375,210264.75,165490.0,1.0,4
232358.109375,246355.75,241192.671875,236797.515625,222400.140625,228786.5625,219805.359375,210270.734375,165491.0,1.0,4
232399.859375,246412.078125,241217.625,236837.3125,222546.9375,228824.921875,219879.3125,210318.125,165492.0,1.0,4
232346.65625,246382.9375,241207.875,236829.703125,222636.625,228817.046875,219904.609375,210328.234375,165493.0,1.0,4
232265.125,246297.015625,241181.59375,236785.0,222513.234375,228776.828125,219839.875,210272.609375,165494.0,1.0,4
232298.921875,246306.125,241181.140625,236775.53125,222408.625,228766.265625,219798.390625,210249.734375,165495.0,1.0,4
232365.078125,246357.09375,241207.25,236808.78125,222405.765625,228799.34375,219817.171875,210276.109375,165496.0,1.0,4
232393.59375,246396.515625,241212.078125,236835.4375,222539.96875,228826.796875,219877.78125,210311.5,165497.0,1.0,4
232335.484375,246361.75,241195.265625,236821.125,222623.921875,228815.796875,219900.5,210318.296875,165498.0,1.0,4
232276.484375,246302.640625,241190.171875,236798.5,222531.296875,228797.5625,219858.109375,210291.484375,165499.0,1.0,4
232303.921875,246310.15625,241187.3125,236785.453125,222429.734375,228777.984375,219809.125,210259.828125,165500.0,1.0,4
232366.15625,246361.46875,241215.125,236812.625,222424.71875,228807.484375,219824.046875,210283.25,165501.0,1.0,4
232392.078125,246396.609375,241226.5625,236838.203125,222554.0,228832.609375,219880.109375,210319.90625,165502.0,1.0,4
232343.265625,246373.09375,241211.28125,236830.421875,222646.546875,228818.03125,219903.0,210322.140625,165503.0,1.0,4
232272.28125,246301.484375,241189.109375,236794.03125,222539.34375,228783.890625,219849.0,210281.015625,165504.0,1.0,4
232303.125,246305.859375,241187.9375,236782.234375,222438.671875,228774.9375,219805.90625,210258.75,165505.0,1.0,4
232348.09375,246336.53125,241190.0,236789.5625,222410.421875,228783.609375,219799.90625,210264.84375,165506.0,1.0,4
232379.65625,246384.09375,241196.4375,236817.546875,222542.5625,228808.5625,219861.6875,210302.390625,165507.0,1.0,4
232344.34375,246372.03125,241198.9375,236826.125,222648.234375,228816.15625,219902.015625,210319.734375,165508.0,1.0,4
232280.59375,246308.015625,241189.8125,236798.234375,222543.71875,228791.03125,219853.5625,210287.90625,165509.0,1.0,4
232307.765625,246306.3125,241189.015625,236783.9375,222435.90625,228774.671875,219807.421875,210257.59375,165510.0,1.0,4
232351.671875,246338.046875,241193.125,236792.421875,222410.0625,228782.625,219805.09375,210261.265625,165511.0,1.0,4
232391.90625,246396.25,241212.4375,236831.765625,222549.71875,228818.65625,219882.703125,210312.3125,165512.0,1.0,4
232343.984375,246371.3125,241198.21875,236824.171875,222641.984375,228807.9375,219909.34375,210320.890625,165513.0,1.0,4
232263.78125,246288.78125,241174.0,236780.890625,222520.5625,228764.390625,219847.390625,210281.28125,165514.0,1.0,4
232284.34375,246284.40625,241169.171875,236765.15625,222409.875,228748.921875,219797.140625,210246.421875,165515.0,1.0,4
232347.375,246333.484375,241191.78125,236790.453125,222399.78125,228776.1875,219811.171875,210258.046875,165516.0,1.0,4
232388.234375,246390.53125,241211.0,236828.71875,222536.484375,228810.265625,219879.578125,210304.171875,165517.0,1.0,4
232337.1875,246365.40625,241196.609375,236822.46875,222626.609375,228800.875,219905.328125,210309.546875,165518.0,1.0,4
232269.140625,246297.90625,241184.8125,236795.546875,222521.734375,228775.390625,219857.765625,210283.796875,165519.0,1.0,4
232295.078125,246301.9375,241183.65625,236787.59375,222423.5625,228763.328125,219815.65625,210271.625,165520.0,1.0,4
232345.765625,246340.109375,241192.140625,236800.109375,222407.28125,228778.703125,219817.609375,210276.546875,165521.0,1.0,4
232372.6875,246380.515625,241200.1875,236826.40625,222531.65625,228805.25,219874.921875,210305.96875,165522.0,1.0,4
232329.671875,246361.296875,241190.265625,236820.046875,222623.296875,228800.609375,219901.5625,210313.390625,165523.0,1.0,4
232260.03125,246293.4375,241173.90625,236785.8125,222516.1875,228772.796875,219854.546875,210283.25,165524.0,1.0,4
232298.65625,246309.4375,241184.625,236786.96875,222425.265625,228772.890625,219821.640625,210280.484375,165525.0,1.0,4
232354.171875,246348.78125,241198.3125,236801.546875,222406.21875,228785.578125,219816.453125,210279.140625,165526.0,1.0,4
232383.234375,246389.015625,241205.734375,236829.796875,222532.90625,228807.9375,219874.484375,210312.3125,165527.0,1.0,4
232344.15625,246369.515625,241198.84375,236830.78125,222630.890625,228807.21875,219907.46875,210320.8125,165528.0,1.0,4
232277.640625,246300.953125,241183.296875,236796.265625,222517.796875,228775.125,219852.390625,210282.625,165529.0,1.0,4
232312.953125,246314.890625,241188.296875,236790.453125,222427.3125,228766.1875,219817.25,210268.59375,165530.0,1.0,4
232363.921875,246352.890625,241201.265625,236802.53125,222409.078125,228776.90625,219820.75,210273.59375,165531.0,1.0,4
232399.140625,246400.90625,241219.046875,236835.078125,222538.71875,228805.703125,219880.46875,210314.8125,165532.0,1.0,4
232345.59375,246372.46875,241205.203125,236826.671875,222625.4375,228791.84375,219899.421875,210320.8125,165533.0,1.0,4
232267.359375,246293.078125,241183.734375,236786.875,222513.140625,228758.671875,219844.265625,210278.609375,165534.0,1.0,4
232318.765625,246317.84375,241200.375,236792.6875,222433.3125,228758.9375,219818.15625,210269.9375,165535.0,1.0,4
232373.3125,246359.421875,241210.828125,236807.71875,222419.359375,228773.78125,219820.03125,210282.265625,165536.0,1.0,4
232401.734375,246399.65625,241218.78125,236831.578125,222529.328125,228798.8125,219874.828125,210309.1875,165537.0,1.0,4
232353.375,246372.5625,241202.78125,236823.359375,222621.6875,228795.421875,219899.875,210307.9375,165538.0,1.0,4
232266.375,246286.1875,241176.046875,236778.5625,222497.953125,228752.953125,219835.3125,210260.453125,165539.0,1.0,4
232300.625,246298.171875,241180.609375,236776.328125,222403.265625,228746.15625,219800.359375,210247.578125,165540.0,1.0,4
232378.40625,246364.15625,241213.25,236812.625,222410.953125,228784.15625,219823.515625,210275.921875,165541.0,1.0,4
232417.109375,246416.109375,241232.015625,236848.578125,222542.65625,228820.71875,219890.484375,210323.75,165542.0,1.0,4
232360.078125,246382.046875,241212.96875,236835.34375,222628.21875,228810.890625,219911.578125,210321.875,165543.0,1.0,4
232275.234375,246297.453125,241188.5625,236792.328125,222509.125,228772.0,219849.265625,210276.1875,165544.0,1.0,4
232313.5,246312.84375,241192.40625,236791.984375,222424.09375,228769.671875,219813.0625,210263.3125,165545.0,1.0,4
232364.984375,246350.5625,241194.734375,236799.75,222406.3125,228779.140625,219810.734375,210269.21875,165546.0,1.0,4
232398.421875,246396.96875,241207.609375,236830.78125,222533.625,228807.9375,219872.953125,210307.484375,165547.0,1.0,4
232361.140625,246382.125,241209.21875,236836.0625,222634.5625,228815.09375,219911.5,210320.625,165548.0,1.0,4
232262.890625,246283.6875,241173.8125,236779.546875,222499.28125,228757.953125,219833.53125,210262.328125,165549.0,1.0,4
232297.578125,246296.125,241183.46875,236776.59375,222406.3125,228754.46875,219799.46875,210249.546875,165550.0,1.0,4
232362.484375,246350.203125,241204.125,236799.21875,222407.28125,228781.5625,219814.3125,210275.828125,165551.0,1.0,4
232395.5625,246394.5625,241217.71875,236832.5625,222532.90625,228814.109375,219876.0,210315.890625,165552.0,1.0,4
232360.34375,246379.796875,241213.78125,236837.390625,222642.515625,228821.875,219916.859375,210329.390625,165553.0,1.0,4
232276.125,246293.703125,241189.8125,236792.328125,222526.640625,228782.8125,219854.8125,210280.390625,165554.0,1.0,4
232303.5625,246295.046875,241187.046875,236780.890625,222426.875,228764.84375,219805.359375,210258.75,165555.0,1.0,4
232364.8125,246346.71875,241196.609375,236797.875,222420.609375,228785.140625,219811.796875,210269.390625,165556.0,1.0,4
232393.421875,246389.453125,241206.0,236823.1875,222543.71875,228809.1875,219869.296875,210305.703125,165557.0,1.0,4
232350.421875,246370.328125,241205.734375,236828.1875,222643.6875,228813.828125,219908.625,210322.328125,165558.0,1.0,4
232272.359375,246294.6875,241185.703125,236791.359375,222531.125,228781.46875,219855.34375,210282.0,165559.0,1.0,4
232303.125,246305.78125,241184.1875,236783.484375,222437.0625,228771.09375,219815.65625,210258.484375,165560.0,1.0,4
232348.625,246336.796875,241184.546875,236788.9375,222413.453125,228776.1875,219809.65625,210260.8125,165561.0,1.0,4
232380.015625,246380.25,241196.4375,236820.953125,222533.0,228800.875,219864.28125,210295.6875,165562.0,1.0,4
232339.59375,246366.578125,241192.40625,236822.640625,222632.765625,228804.171875,219900.859375,210305.609375,165563.0,1.0,4
232259.046875,246289.234375,241173.1875,236785.625,222517.890625,228770.03125,219848.015625,210273.6875,165564.0,1.0,4
232297.84375,246304.515625,241187.046875,236785.890625,222430.359375,228768.859375,219818.234375,210267.4375,165565.0,1.0,4
232359.890625,246350.921875,241201.625,236805.203125,222426.59375,228788.890625,219823.609375,210278.421875,165566.0,1.0,4
232393.78125,246396.796875,241212.703125,236834.0,222547.65625,228817.59375,219878.765625,210310.875,165567.0,1.0,4
232345.59375,246373.359375,241200.546875,236826.578125,222639.84375,228809.546875,219908.8125,210312.140625,165568.0,1.0,4
232270.21875,246301.21875,241184.546875,236790.09375,222522.625,228779.0625,219860.625,210285.125,165569.0,1.0,4
232309.203125,246314.71875,241193.484375,236788.578125,222433.3125,228779.328125,219821.90625,210262.15625,165570.0,1.0,4
232366.328125,246352.71875,241204.21875,236802.96875,222419.359375,228787.1875,219816.359375,210259.734375,165571.0,1.0,4
232401.375,246398.21875,241217.71875,236834.71875,222544.53125,228816.96875,219876.71875,210299.4375,165572.0,1.0,4
232351.3125,246371.9375,241208.5,236829.796875,222635.546875,228810.078125,219904.78125,210308.375,165573.0,1.0,4
232268.4375,246294.328125,241187.9375,236793.140625,222519.140625,228773.421875,219851.140625,210274.765625,165574.0,1.0,4
232298.03125,246303.09375,241191.25,236788.40625,222430.625,228767.25,219815.828125,210264.296875,165575.0,1.0,4
232348.09375,246335.09375,241192.671875,236793.59375,222412.203125,228774.046875,219807.609375,210265.28125,165576.0,1.0,4
232388.59375,246385.171875,241206.171875,236826.484375,222537.46875,228804.625,219869.734375,210305.15625,165577.0,1.0,4
232331.640625,246352.984375,241184.71875,236811.828125,222623.296875,228792.828125,219890.484375,210299.34375,165578.0,1.0,4
232251.890625,246276.53125,241166.9375,236777.21875,222511.984375,228764.21875,219840.859375,210264.5625,165579.0,1.0,4
232291.765625,246296.03125,241178.90625,236780.796875,222436.34375,228769.484375,219816.09375,210263.234375,165580.0,1.0,4
232342.640625,246332.59375,241185.4375,236789.75,222417.03125,228775.921875,219809.84375,210271.09375,165581.0,1.0,4
232386.53125,246390.4375,241206.890625,236829.96875,222548.109375,228816.078125,219880.015625,210319.015625,165582.0,1.0,4
232323.953125,246352.71875,241182.578125,236811.921875,222632.421875,228799.078125,219896.734375,210304.890625,165583.0,1.0,4
232238.75,246268.5,241157.28125,236767.21875,222514.671875,228757.421875,219835.046875,210259.296875,165584.0,1.0,4
232283.265625,246289.40625,241171.765625,236773.109375,222431.25,228765.015625,219809.296875,210256.703125,165585.0,1.0,4
232346.390625,246337.421875,241187.5,236794.75,222425.609375,228781.828125,219815.921875,210270.5625,165586.0,1.0,4
232389.046875,246390.71875,241205.90625,236832.21875,222553.109375,228818.75,219880.640625,210311.6875,165587.0,1.0,4
232330.03125,246354.140625,241183.734375,236817.015625,222627.671875,228799.984375,219893.96875,210306.046875,165588.0,1.0,4
232242.953125,246268.765625,241159.6875,236777.578125,222507.328125,228760.375,219836.921875,210267.34375,165589.0,1.0,4
232284.078125,246287.453125,241168.71875,236780.171875,222424.09375,228762.6875,219814.046875,210263.859375,165590.0,1.0,4
232346.21875,246338.3125,241180.15625,236796.0,222415.421875,228781.5625,219818.0625,210275.125,165591.0,1.0,4
232387.34375,246391.0625,241197.78125,236829.265625,222546.140625,228815.71875,219876.796875,210315.984375,165592.0,1.0,4
232332.984375,246353.078125,241182.671875,236814.953125,222625.890625,228802.390625,219897.90625,210309.265625,165593.0,1.0,4
232255.46875,246281.546875,241167.5625,236777.671875,222510.828125,228768.234375,219847.65625,210270.734375,165594.0,1.0,4
232289.4375,246297.8125,241175.15625,236777.3125,222426.515625,228765.640625,219817.078125,210259.734375,165595.0,1.0,4
232350.859375,246344.046875,241186.78125,236795.203125,222419.984375,228779.765625,219817.890625,210271.90625,165596.0,1.0,4
232387.515625,246391.6875,241201.078125,236826.046875,222537.828125,228807.9375,219873.5,210307.390625,165597.0,1.0,4
232339.875,246365.765625,241186.953125,236817.734375,222628.390625,228801.3125,219899.953125,210307.9375,165598.0,1.0,4
232240.71875,246266.703125,241155.3125,236768.109375,222499.015625,228758.3125,219832.71875,210260.015625,165599.0,1.0,4
232282.109375,246286.375,241166.75,236772.125,222417.03125,228758.21875,219804.734375,210250.078125,165600.0,1.0,4
232347.5625,246336.890625,241178.640625,236785.8125,222408.09375,228772.96875,219806.0,210255.453125,165601.0,1.0,4
232384.75,246381.40625,241197.6875,236818.703125,222531.390625,228806.234375,219865.71875,210293.359375,165602.0,1.0,4
232357.75,246376.765625,241210.03125,236835.34375,222646.28125,228824.921875,219917.9375,210321.515625,165603.0,1.0,4
232264.9375,246287.890625,241175.0625,236783.75,222519.140625,228779.5,219851.59375,210271.0,165604.0,1.0,4
232286.84375,246284.671875,241168.890625,236769.890625,222417.578125,228758.21875,219803.21875,210249.375,165605.0,1.0,4
232354.796875,246340.203125,241188.5625,236797.15625,222423.5625,228781.828125,219813.6875,210273.6875,165606.0,1.0,4
232383.953125,246382.9375,241198.046875,236822.734375,222535.234375,228806.140625,219864.375,210300.25,165607.0,1.0,4
232347.734375,246371.9375,241198.578125,236828.453125,222634.46875,228812.140625,219902.46875,210313.03125,165608.0,1.0,4
232262.171875,246288.703125,241177.75,236792.15625,222524.140625,228780.125,219849.4375,210274.671875,165609.0,1.0,4
232296.859375,246299.96875,241179.796875,236787.234375,222437.15625,228771.28125,219812.515625,210258.125,165610.0,1.0,4
232360.609375,246346.453125,241190.890625,236801.1875,222428.828125,228781.5625,219815.5625,210265.640625,165611.0,1.0,4
232394.765625,246390.984375,241206.984375,236831.578125,222545.328125,228814.1875,219871.96875,210304.625,165612.0,1.0,4
232348.984375,246366.484375,241200.546875,236827.296875,222639.921875,228809.640625,219898.53125,210308.015625,165613.0,1.0,4
232260.65625,246278.140625,241174.625,236780.890625,222515.65625,228764.75,219832.015625,210254.375,165614.0,1.0,4
232299.453125,246299.609375,241185.53125,236782.953125,222435.265625,228768.140625,219809.484375,210250.703125,165615.0,1.0,4
232361.140625,246343.765625,241196.609375,236798.859375,222428.390625,228777.984375,219810.734375,210265.546875,165616.0,1.0,4
232392.265625,246382.046875,241203.9375,236821.296875,222538.09375,228799.796875,219854.984375,210293.625,165617.0,1.0,4
232354.359375,246370.328125,241199.828125,236822.28125,222634.296875,228800.609375,219886.453125,210303.109375,165618.0,1.0,4
232267.8125,246284.765625,241179.453125,236782.671875,222511.984375,228764.9375,219830.21875,210259.828125,165619.0,1.0,4
232310.09375,246306.046875,241193.9375,236790.453125,222432.765625,228767.796875,219810.640625,210256.875,165620.0,1.0,4
232373.484375,246358.171875,241205.375,236808.703125,222437.78125,228788.359375,219822.359375,210274.765625,165621.0,1.0,4
232401.46875,246394.828125,241213.515625,236829.34375,222542.5625,228808.5625,219872.25,210304.09375,165622.0,1.0,4
232361.421875,246377.75,241204.125,236827.828125,222636.265625,228804.53125,219899.953125,210312.046875,165623.0,1.0,4
232265.484375,246285.296875,241171.125,236777.765625,222509.296875,228758.3125,219833.078125,210263.578125,165624.0,1.0,4
232300.96875,246302.734375,241179.625,236777.765625,222418.109375,228754.109375,219802.59375,210251.0625,165625.0,1.0,4
232366.953125,246353.421875,241194.015625,236799.9375,222422.84375,228778.96875,219815.921875,210263.859375,165626.0,1.0,4
232399.953125,246395.0,241206.984375,236828.640625,222534.515625,228808.109375,219873.3125,210297.5625,165627.0,1.0,4
232359.71875,246377.296875,241201.53125,236828.1875,222625.265625,228804.171875,219905.6875,210308.375,165628.0,1.0,4
232260.828125,246278.59375,241170.6875,236777.046875,222493.03125,228756.53125,219837.109375,210264.75,165629.0,1.0,4
232288.90625,246285.125,241173.640625,236772.125,222404.703125,228747.5,219800.71875,210253.21875,165630.0,1.0,4
232363.921875,246343.328125,241193.125,236797.796875,222416.765625,228771.8125,219813.140625,210267.515625,165631.0,1.0,4
232415.0625,246403.234375,241222.71875,236841.0625,222545.25,228813.65625,219879.9375,210308.921875,165632.0,1.0,4
232368.203125,246380.25,241213.25,236837.390625,222635.1875,228808.375,219907.46875,210311.859375,165633.0,1.0,4
232276.125,246291.5625,241188.5625,236794.578125,222513.328125,228774.40625,219849.4375,210271.1875,165634.0,1.0,4
232316.984375,246312.03125,241199.75,236796.453125,222436.703125,228779.40625,219827.625,210265.828125,165635.0,1.0,4
232387.609375,246369.875,241214.765625,236814.859375,222444.21875,228803.109375,219837.828125,210278.15625,165636.0,1.0,4
232416.40625,246407.34375,241220.75,236837.9375,222553.109375,228823.671875,219886.09375,210311.859375,165637.0,1.0,4
232363.296875,246378.46875,241205.203125,236828.015625,222637.328125,228813.296875,219908.90625,210319.015625,165638.0,1.0,4
232263.6875,246287.265625,241173.640625,236774.640625,222506.796875,228767.96875,219842.5625,210263.859375,165639.0,1.0,4
232294.359375,246299.34375,241177.5625,236770.96875,222419.890625,228765.015625,219812.875,210253.390625,165640.0,1.0,4
232361.59375,246349.671875,241187.765625,236789.75,222420.96875,228779.59375,219817.890625,210269.484375,165641.0,1.0,4
232399.0625,246396.796875,241205.203125,236821.484375,222535.765625,228810.703125,219873.765625,210300.78125,165642.0,1.0,4
232341.5625,246362.28125,241189.1875,236807.359375,222616.765625,228801.3125,219892.359375,210296.484375,165643.0,1.0,4
232256.453125,246284.765625,241170.859375,236768.640625,222503.671875,228765.015625,219836.21875,210260.28125,165644.0,1.0,4
232281.65625,246288.15625,241171.125,236759.34375,222411.578125,228753.84375,219795.796875,210242.75,165645.0,1.0,4
232349.875,246338.671875,241185.96875,236780.0,222414.265625,228773.953125,219803.84375,210257.953125,165646.0,1.0,4
232396.28125,246395.625,241209.21875,236818.078125,222536.03125,228814.28125,219866.34375,210300.0625,165647.0,1.0,4
232347.921875,246370.234375,241198.484375,236814.859375,222624.640625,228809.71875,219892.453125,210303.375,165648.0,1.0,4
232264.046875,246290.21875,241178.734375,236779.28125,222509.75,228773.15625,219838.265625,210267.515625,165649.0,1.0,4
232296.234375,246303.625,241183.828125,236778.5625,222431.609375,228767.875,219807.328125,210259.5625,165650.0,1.0,4
232358.734375,246349.671875,241191.703125,236793.9375,222429.640625,228777.171875,219810.828125,210267.515625,165651.0,1.0,4
232401.015625,246398.84375,241213.59375,236830.25,222542.46875,228813.203125,219872.25,210312.40625,165652.0,1.0,4
232369.546875,246391.0625,241215.921875,236836.59375,222640.1875,228821.171875,219913.28125,210331.984375,165653.0,1.0,4
232262.796875,246287.453125,241179.984375,236780.890625,222508.59375,228770.828125,219847.390625,210274.9375,165654.0,1.0,4
232288.375,246290.84375,241181.328125,236772.3125,222417.65625,228761.71875,219814.484375,210250.703125,165655.0,1.0,4
232355.15625,246338.9375,241191.875,236791.4375,222425.4375,228778.78125,219815.828125,210256.703125,165656.0,1.0,4
232389.3125,246379.359375,241198.578125,236815.9375,222529.15625,228800.328125,219856.953125,210287.90625,165657.0,1.0,4
232348.09375,246363.984375,241189.90625,236817.09375,222625.0,228802.03125,219895.21875,210308.921875,165658.0,1.0,4
232242.421875,246262.859375,241148.875,236758.71875,222494.453125,228749.46875,219826.28125,210256.25,165659.0,1.0,4
232302.3125,246302.375,241180.078125,236781.25,222436.796875,228773.25,219820.828125,210262.609375,165660.0,1.0,4
232374.46875,246362.28125,241198.40625,236804.140625,222449.578125,228795.5,219836.21875,210279.140625,165661.0,1.0,4
232393.875,246390.984375,241204.75,236820.5,222543.71875,228810.703125,219877.96875,210303.546875,165662.0,1.0,4
232343.625,246362.90625,241197.328125,236816.125,222627.9375,228805.609375,219901.484375,210306.671875,165663.0,1.0,4
232259.484375,246286.546875,241184.984375,236782.59375,222521.28125,228775.921875,219857.140625,210280.21875,165664.0,1.0,4
232284.96875,246298.4375,241189.90625,236774.8125,222429.734375,228766.453125,219823.34375,210263.234375,165665.0,1.0,4
232351.140625,246348.953125,241197.0625,236791.984375,222433.65625,228779.59375,219825.9375,210272.171875,165666.0,1.0,4
232379.390625,246380.78125,241197.15625,236814.421875,222534.25,228798.375,219872.0625,210299.4375,165667.0,1.0,4
232340.046875,246358.53125,241182.3125,236808.78125,222617.578125,228795.6875,219897.015625,210304.890625,165668.0,1.0,4
232249.75,246270.734375,241153.703125,236764.625,222498.578125,228761.625,219840.0625,210260.28125,165669.0,1.0,4
232282.109375,246277.515625,241159.0625,236765.25,222416.140625,228757.15625,219808.5,210248.203125,165670.0,1.0,4
232357.03125,246334.65625,241176.140625,236788.84375,222427.9375,228772.96875,219815.734375,210267.609375,165671.0,1.0,4
232392.703125,246379.265625,241191.78125,236810.9375,222534.6875,228798.546875,219859.28125,210290.3125,165672.0,1.0,4
232353.546875,246364.78125,241200.015625,236816.125,222633.75,228803.28125,219896.5625,210307.03125,165673.0,1.0,4
232258.59375,246277.703125,241185.96875,236778.03125,222516.90625,228769.046875,219845.15625,210274.3125,165674.0,1.0,4
232279.703125,246279.75,241184.359375,236766.59375,222421.140625,228754.828125,219805.640625,210249.546875,165675.0,1.0,4
232363.65625,246347.625,241207.4375,236796.359375,222441.625,228783.171875,219823.96875,210273.953125,165676.0,1.0,4
232397.890625,246391.875,241216.8125,236822.28125,222549.265625,228806.953125,219873.40625,210308.28125,165677.0,1.0,4
232353.015625,246369.796875,241205.28125,236816.828125,222640.1875,228813.828125,219903.359375,210316.25,165678.0,1.0,4
232251.796875,246275.640625,241175.25,236767.65625,222514.84375,228778.96875,219841.84375,210271.28125,165679.0,1.0,4
232286.765625,246290.84375,241184.1875,236769.8125,222437.78125,228783.703125,219816.90625,210266.0,165680.0,1.0,4
232354.703125,246340.640625,241197.328125,236787.5,222446.890625,228805.515625,219817.34375,210279.234375,165681.0,1.0,4
232383.59375,246375.78125,241208.234375,236807.890625,222540.5,228829.484375,219859.453125,210300.875,165682.0,1.0,4
232341.828125,246362.09375,241199.03125,236802.703125,222625.703125,228836.1875,219888.421875,210304.53125,165683.0,1.0,4
232242.5,246276.1875,241174.625,236760.0625,222505.546875,228803.546875,219830.40625,210265.640625,165684.0,1.0,4
232264.9375,246282.0,241180.609375,236757.375,222412.03125,228799.703125,219795.171875,210262.953125,165685.0,1.0,4
232341.75,246346.640625,241196.96875,236778.203125,222420.609375,228820.265625,219807.328125,210272.078125,165686.0,1.0,4
232381.4375,246396.796875,241209.390625,236806.1875,222526.109375,228851.46875,219863.75,210299.4375,165687.0,1.0,4
232345.40625,246380.4375,241211.546875,236812.1875,222623.296875,228862.03125,219904.609375,210317.5,165688.0,1.0,4
232246.078125,246284.578125,241183.828125,236764.703125,222501.703125,228820.984375,219842.203125,210273.0625,165689.0,1.0,4
232270.484375,246287.0,241183.734375,236754.875,222404.0625,228806.859375,219803.40625,210254.015625,165690.0,1.0,4
232350.859375,246349.765625,241206.453125,236781.34375,222416.59375,228827.609375,219818.234375,210272.078125,165691.0,1.0,4
232389.84375,246394.640625,241226.921875,236813.96875,222525.390625,228851.5625,219873.40625,210308.375,165692.0,1.0,4
232337.71875,246366.84375,241207.609375,236797.796875,222602.203125,228830.375,219891.109375,210302.828125,165693.0,1.0,4
232245.8125,246279.9375,241192.140625,236762.109375,222487.9375,228793.0,219840.953125,210269.578125,165694.0,1.0,4
232282.734375,246292.8125,241212.078125,236772.3125,222413.375,228795.5,219822.171875,210269.578125,165695.0,1.0,4
232363.921875,246357.71875,241234.25,236799.484375,222432.6875,228821.875,219837.640625,210288.0,165696.0,1.0,4
232398.703125,246399.203125,241241.765625,236821.75,222538.984375,228845.03125,219882.96875,210317.234375,165697.0,1.0,4
232358.828125,246380.4375,241232.015625,236819.875,222629.90625,228838.78125,219909.796875,210323.125,165698.0,1.0,4
232255.015625,246281.28125,241197.859375,236768.015625,222507.0625,228790.328125,219846.40625,210277.0,165699.0,1.0,4
232281.65625,246291.296875,241204.484375,236769.0,222430.0,228791.65625,219821.734375,210272.25,165700.0,1.0,4
232362.3125,246357.0,241218.96875,236794.125,222457.171875,228816.875,219835.9375,210286.65625,165701.0,1.0,4
232396.8125,246401.0,241226.390625,236817.734375,222561.515625,228838.78125,219880.015625,210312.765625,165702.0,1.0,4
232356.3125,246386.6875,241215.484375,236816.125,222656.109375,228835.46875,219910.0625,210325.90625,165703.0,1.0,4
232271.5625,246310.328125,241204.484375,236787.328125,222556.859375,228812.3125,219869.46875,210302.75,165704.0,1.0,4
232291.234375,246312.21875,241196.875,236774.8125,222463.25,228799.625,219832.90625,210279.046875,165705.0,1.0,4
232359.890625,246366.390625,241198.484375,236784.46875,222469.6875,228807.125,219829.234375,210279.140625,165706.0,1.0,4
232391.28125,246405.734375,241204.65625,236805.203125,222570.640625,228827.515625,219870.71875,210302.125,165707.0,1.0,4
232346.21875,246385.703125,241194.640625,236799.21875,222658.078125,228824.203125,219898.890625,210309.09375,165708.0,1.0,4
232258.78125,246305.328125,241174.703125,236765.875,222551.5,228792.5625,219852.65625,210285.765625,165709.0,1.0,4
232287.03125,246314.53125,241180.34375,236766.3125,222465.578125,228788.625,219824.40625,210274.578125,165710.0,1.0,4
232368.75,246380.609375,241198.84375,236793.671875,222483.015625,228810.609375,219838.890625,210284.59375,165711.0,1.0,4
232394.9375,246411.453125,241202.25,236812.8125,222569.65625,228827.15625,219877.515625,210302.75,165712.0,1.0,4
232339.953125,246378.734375,241187.765625,236803.328125,222643.140625,228814.734375,219896.828125,210299.4375,165713.0,1.0,4
232262.703125,246309.0,241185.4375,236782.765625,222548.015625,228798.1875,219866.25,210285.3125,165714.0,1.0,4
232281.21875,246311.140625,241188.5625,236777.40625,222461.015625,228793.265625,219838.453125,210274.9375,165715.0,1.0,4
232352.46875,246365.765625,241200.640625,236797.609375,222470.765625,228810.34375,219844.96875,210287.71875,165716.0,1.0,4
232391.1875,246408.59375,241205.640625,236821.296875,222566.078125,228830.109375,219884.046875,210305.875,165717.0,1.0,4
232350.953125,246390.53125,241198.765625,236817.375,222653.15625,228830.28125,219914.796875,210313.921875,165718.0,1.0,4
232248.578125,246291.828125,241170.5,236770.96875,222529.421875,228788.09375,219853.734375,210269.84375,165719.0,1.0,4
232280.40625,246302.828125,241186.15625,236778.390625,222446.265625,228786.484375,219831.734375,210267.25,165720.0,1.0,4
232360.4375,246368.984375,241206.09375,236802.078125,222457.796875,228806.859375,219844.703125,210285.671875,165721.0,1.0,4
232386.8125,246401.265625,241211.09375,236817.734375,222540.5,228818.65625,219877.703125,210309.09375,165722.0,1.0,4
232342.90625,246379.09375,241201.171875,236811.109375,222626.6875,228814.015625,219904.34375,210316.875,165723.0,1.0,4
232249.75,246297.546875,241177.65625,236772.75,222518.59375,228785.21875,219856.328125,210280.125,165724.0,1.0,4
232275.671875,246306.046875,241182.390625,236771.859375,222428.921875,228784.6875,219827.625,210267.515625,165725.0,1.0,4
232344.875,246355.125,241190.359375,236785.1875,222427.40625,228793.71875,219827.09375,210272.4375,165726.0,1.0,4
232376.609375,246391.78125,241196.25,236806.546875,222518.0625,228809.09375,219863.296875,210294.703125,165727.0,1.0,4
232354.0,246393.390625,241198.046875,236815.671875,222626.78125,228822.234375,219907.203125,210312.765625,165728.0,1.0,4
232251.171875,246299.78125,241173.71875,236773.109375,222514.671875,228787.8125,219858.65625,210280.21875,165729.0,1.0,4
232268.25,246297.640625,241174.796875,236765.6875,222424.984375,228779.40625,219824.234375,210264.5625,165730.0,1.0,4
232344.609375,246355.03125,241187.765625,236782.859375,222436.875,228791.9375,219825.296875,210268.765625,165731.0,1.0,4
232388.6875,246401.984375,241206.453125,236814.15625,222538.890625,228821.4375,219872.78125,210301.578125,165732.0,1.0,4
232351.578125,246386.421875,241198.671875,236815.765625,222636.34375,228819.734375,219904.34375,210314.015625,165733.0,1.0,4
232251.71875,246295.9375,241175.0625,236774.28125,222531.125,228786.03125,219854.265625,210277.890625,165734.0,1.0,4
232269.765625,246292.546875,241177.75,236765.875,222440.640625,228776.828125,219819.9375,210265.46875,165735.0,1.0,4
232338.4375,246338.859375,241185.53125,236779.28125,222442.25,228784.78125,219818.328125,210270.828125,165736.0,1.0,4
232378.84375,246382.75,241199.109375,236805.84375,222539.15625,228811.59375,219860.171875,210299.796875,165737.0,1.0,4
232358.109375,246385.25,241206.453125,236819.0625,222652.703125,228832.15625,219910.15625,210323.9375,165738.0,1.0,4
232263.328125,246298.0,241183.5625,236779.734375,222547.203125,228797.46875,219857.671875,210287.71875,165739.0,1.0,4
232276.5625,246292.1875,241179.890625,236769.625,222448.6875,228779.859375,219815.109375,210265.90625,165740.0,1.0,4
232356.3125,246355.578125,241198.484375,236794.921875,222464.328125,228804.0,219826.28125,210277.984375,165741.0,1.0,4
232384.921875,246389.8125,241204.03125,236810.84375,222549.453125,228822.0625,219862.140625,210301.140625,165742.0,1.0,4
232346.03125,246375.15625,241192.5,236808.703125,222646.71875,228819.828125,219892.0,210309.71875,165743.0,1.0,4
232246.609375,246285.5625,241164.515625,236768.828125,222536.75,228782.8125,219836.84375,210264.5625,165744.0,1.0,4
232271.109375,246293.34375,241171.40625,236769.53125,222445.46875,228784.78125,219813.234375,210258.484375,165745.0,1.0,4
232365.078125,246369.96875,241198.046875,236807.171875,222473.546875,228822.78125,219841.84375,210293.625,165746.0,1.0,4
232394.578125,246402.515625,241197.6875,236821.75,222553.828125,228837.265625,219875.8125,210308.203125,165747.0,1.0,4
232359.265625,246388.828125,241191.875,236821.65625,222650.03125,228834.40625,219910.78125,210322.6875,165748.0,1.0,4
232250.375,246289.6875,241164.6875,236771.765625,222525.578125,228786.296875,219850.0625,210278.78125,165749.0,1.0,4
232257.4375,246277.25,241161.390625,236755.328125,222420.4375,228764.03125,219799.109375,210247.84375,165750.0,1.0,4
232344.875,246346.09375,241192.671875,236791.078125,222441.703125,228793.09375,219815.921875,210273.78125,165751.0,1.0,4
232393.59375,246400.453125,241217.71875,236829.890625,222548.546875,228832.15625,219874.5625,210319.28125,165752.0,1.0,4
232354.265625,246384.8125,241204.21875,236823.53125,222640.109375,228827.875,219904.15625,210326.890625,165753.0,1.0,4
232249.03125,246284.859375,241170.78125,236776.59375,222523.875,228782.453125,219847.921875,210279.40625,165754.0,1.0,4
232270.578125,246285.484375,241172.828125,236773.109375,222433.03125,228776.640625,219819.765625,210266.0,165755.0,1.0,4
232352.46875,246346.453125,241187.671875,236795.28125,222451.015625,228794.875,219828.609375,210275.921875,165756.0,1.0,4
232383.859375,246378.546875,241191.78125,236809.6875,222531.125,228806.6875,219859.015625,210295.5,165757.0,1.0,4
232355.25,246374.171875,241193.125,236817.90625,222633.125,228816.078125,219900.40625,210315.265625,165758.0,1.0,4
232242.6875,246276.53125,241159.6875,236767.390625,222520.5625,228770.03125,219841.390625,210268.953125,165759.0,1.0,4
232263.875,246285.5625,241175.609375,236771.140625,222436.25,228766.71875,219818.421875,210268.765625,165760.0,1.0,4
232349.4375,246356.5625,241200.1875,236800.921875,222458.703125,228795.421875,219837.734375,210286.203125,165761.0,1.0,4
232384.75,246396.96875,241203.046875,236817.640625,222540.59375,228812.671875,219866.703125,210296.21875,165762.0,1.0,4
232352.5625,246387.046875,241195.984375,236820.140625,222639.390625,228819.5625,219905.328125,210309.625,165763.0,1.0,4
232250.546875,246291.375,241161.390625,236773.46875,222531.03125,228782.90625,219854.265625,210272.796875,165764.0,1.0,4
232269.328125,246288.875,241162.546875,236768.28125,222434.015625,228777.453125,219821.640625,210267.34375,165765.0,1.0,4
232355.875,246362.453125,241182.671875,236796.453125,222451.09375,228802.296875,219836.484375,210286.65625,165766.0,1.0,4
232398.34375,246411.8125,241197.78125,236821.578125,222544.890625,228829.125,219879.03125,210306.046875,165767.0,1.0,4
232362.578125,246398.3125,241195.359375,236822.46875,222642.421875,228829.65625,219913.375,210317.59375,165768.0,1.0,4
232250.28125,246295.9375,241168.984375,236775.53125,222527.984375,228785.40625,219855.171875,210273.421875,165769.0,1.0,4
232271.65625,246303.09375,241182.578125,236776.0625,222436.796875,228785.21875,219829.234375,210265.828125,165770.0,1.0,4
232343.625,246360.3125,241193.9375,236792.0625,222439.125,228797.03125,219830.046875,210277.078125,165771.0,1.0,4
232378.9375,246400.546875,241205.375,236815.3125,222528.171875,228824.109375,219870.8125,210300.953125,165772.0,1.0,4
232340.9375,246379.265625,241190.71875,236809.234375,222625.4375,228817.859375,219895.21875,210303.109375,165773.0,1.0,4
232263.15625,246309.4375,241186.421875,236787.953125,222544.703125,228800.78125,219860.171875,210286.46875,165774.0,1.0,4
232277.546875,246305.59375,241191.78125,236782.859375,222450.390625,228790.328125,219824.40625,210273.59375,165775.0,1.0,4
232361.6875,246367.015625,241213.6875,236810.125,222464.859375,228812.578125,219837.546875,210291.75,165776.0,1.0,4
232390.5625,246394.203125,241214.765625,236822.828125,222546.859375,228825.90625,219867.6875,210306.59375,165777.0,1.0,4
232358.546875,246384.546875,241211.453125,236825.5,222647.796875,228824.03125,219901.65625,210319.28125,165778.0,1.0,4
232258.953125,246296.125,241186.59375,236784.921875,222549.359375,228787.640625,219852.484375,210287.1875,165779.0,1.0,4
232270.40625,246290.671875,241186.875,236775.078125,222447.515625,228775.390625,219816.625,210278.0625,165780.0,1.0,4
232350.15625,246350.296875,241197.953125,236793.234375,222456.1875,228790.140625,219821.1875,210276.8125,165781.0,1.0,4
232379.5625,246383.5625,241196.703125,236808.78125,222540.328125,228808.65625,219854.8125,210286.65625,165782.0,1.0,4
232348.359375,246369.515625,241191.515625,236813.25,222640.8125,228817.234375,219891.015625,210301.21875,165783.0,1.0,4
232261.640625,246292.71875,241177.65625,236781.078125,222548.734375,228790.765625,219850.703125,210275.75,165784.0,1.0,4
232271.828125,246286.546875,241178.375,236772.046875,222449.75,228779.328125,219816.359375,210261.625,165785.0,1.0,4
232353.1875,246349.578125,241196.171875,236797.34375,222463.890625,228797.390625,219825.9375,210276.375,165786.0,1.0,4
232395.75,246394.28125,241207.875,236823.625,222551.953125,228821.25,219866.4375,210302.296875,165787.0,1.0,4
232360.4375,246379.453125,241196.609375,236822.015625,222645.921875,228817.59375,219899.421875,210312.84375,165788.0,1.0,4
232262.625,246292.625,241173.8125,236781.609375,222546.140625,228784.515625,219853.921875,210279.953125,165789.0,1.0,4
232273.625,246287.796875,241175.78125,236773.921875,222448.140625,228774.9375,219816.71875,210264.484375,165790.0,1.0,4
232349.96875,246348.328125,241193.9375,236795.828125,222454.578125,228794.171875,219824.140625,210278.421875,165791.0,1.0,4
232387.875,246395.265625,241210.46875,236823.53125,222542.203125,228820.453125,219868.84375,210308.28125,165792.0,1.0,4
232360.15625,246388.921875,241209.75,236832.296875,222653.96875,228825.28125,219908.28125,210321.609375,165793.0,1.0,4
232252.421875,246288.078125,241181.40625,236783.21875,222549.171875,228780.390625,219850.703125,210279.328125,165794.0,1.0,4
232269.59375,246291.203125,241188.203125,236780.796875,222456.640625,228779.59375,219822.796875,210270.375,165795.0,1.0,4
232343.625,246348.0625,241194.109375,236794.03125,222458.609375,228796.046875,219827.984375,210277.71875,165796.0,1.0,4
232382.25,246387.40625,241199.5625,236812.625,222539.4375,228815.796875,219865.71875,210297.921875,165797.0,1.0,4
232350.6875,246375.15625,241187.671875,236810.484375,222639.125,228813.65625,219897.09375,210308.015625,165798.0,1.0,4
232254.3125,246288.34375,241169.25,236775.265625,222539.609375,228778.4375,219848.8125,210273.59375,165799.0,1.0,4
232261.8125,246279.75,241169.609375,236767.5625,222432.328125,228764.296875,219809.921875,210258.046875,165800.0,1.0,4
232365.34375,246363.078125,241202.421875,236807.09375,222461.203125,228800.875,219839.703125,210286.109375,165801.0,1.0,4
232402.453125,246403.9375,241210.296875,236825.59375,222542.375,228821.796875,219876.09375,210309.546875,165802.0,1.0,4
232375.265625,246400.09375,241209.84375,236833.28125,222653.15625,228828.765625,219918.375,210331.796875,165803.0,1.0,4
232267.1875,246301.578125,241179.09375,236785.8125,222546.9375,228782.984375,219859.71875,210291.75,165804.0,1.0,4
232272.453125,246293.171875,241177.03125,236773.65625,222442.421875,228769.9375,219818.859375,210264.296875,165805.0,1.0,4
232354.53125,246359.234375,241194.203125,236797.703125,222455.5625,228790.140625,219830.578125,210273.6875,165806.0,1.0,4
232397.453125,246403.59375,241206.984375,236823.265625,222547.296875,228815.265625,219874.484375,210302.390625,165807.0,1.0,4
232361.859375,246386.328125,241199.75,236822.109375,222644.21875,228813.484375,219907.203125,210311.5,165808.0,1.0,4
232265.03125,246297.546875,241182.125,236787.15625,222551.953125,228785.9375,219869.5625,210283.96875,165809.0,1.0,4
232262.53125,246282.078125,241179.625,236770.34375,222435.90625,228767.515625,219827.359375,210264.296875,165810.0,1.0,4
232346.390625,246349.40625,241197.15625,236792.15625,222445.640625,228789.515625,219833.34375,210277.171875,165811.0,1.0,4
232374.828125,246379.71875,241195.625,236804.234375,222518.875,228800.515625,219858.921875,210289.0625,165812.0,1.0,4
232353.640625,246377.65625,241197.59375,236815.765625,222634.65625,228812.9375,219906.21875,210311.953125,165813.0,1.0,4
232261.28125,246294.78125,241181.0625,236782.40625,222551.0625,228785.84375,219865.09375,210278.421875,165814.0,1.0,4
232271.109375,246288.609375,241186.234375,236777.5,222450.921875,228780.046875,219830.84375,210264.296875,165815.0,1.0,4
232348.984375,246349.671875,241200.546875,236798.328125,222457.359375,228801.9375,219838.71875,210275.390625,165816.0,1.0,4
232376.703125,246381.40625,241199.46875,236812.8125,222535.234375,228818.65625,219872.15625,210296.125,165817.0,1.0,4
232354.359375,246382.21875,241193.578125,236816.65625,222639.84375,228818.9375,219904.78125,210314.640625,165818.0,1.0,4
232251.0,246289.953125,241165.59375,236771.59375,222541.046875,228776.640625,219851.765625,210273.59375,165819.0,1.0,4
232248.859375,246270.375,241159.15625,236753.265625,222431.078125,228754.5625,219806.53125,210245.25,165820.0,1.0,4
232339.0625,246343.59375,241184.09375,236784.203125,222447.4375,228783.34375,219822.53125,210264.125,165821.0,1.0,4
232395.03125,246404.65625,241205.203125,236823.1875,222551.0625,228824.828125,219877.515625,210307.390625,165822.0,1.0,4
232365.53125,246396.25,241198.21875,236826.125,222661.65625,228828.234375,219914.71875,210323.3125,165823.0,1.0,4
232255.46875,246293.609375,241172.5625,236777.3125,222557.765625,228788.171875,219858.5625,210275.46875,165824.0,1.0,4
232250.015625,246270.28125,241164.6875,236761.125,222445.109375,228773.0625,219816.0,210253.296875,165825.0,1.0,4
232335.9375,246336.4375,241185.53125,236788.3125,222458.34375,228792.5625,219825.03125,210276.28125,165826.0,1.0,4
232380.90625,246385.078125,241199.75,236815.9375,222545.59375,228816.25,219863.921875,210309.71875,165827.0,1.0,4
232351.140625,246375.78125,241189.734375,236811.46875,222650.921875,228815.171875,219898.078125,210313.921875,165828.0,1.0,4
232251.171875,246285.21875,241167.734375,236771.234375,222561.96875,228780.671875,219853.015625,210275.296875,165829.0,1.0,4
232269.765625,246287.265625,241186.875,236775.609375,222464.0625,228783.796875,219831.734375,210271.71875,165830.0,1.0,4
232353.375,246352.53125,241204.484375,236799.484375,222468.078125,228805.25,219842.203125,210285.578125,165831.0,1.0,4
232397.71875,246400.546875,241217.4375,236825.78125,222552.390625,228829.75,219879.390625,210312.3125,165832.0,1.0,4
232362.578125,246386.0625,241205.203125,236821.75,222654.140625,228821.875,219909.25,210318.921875,165833.0,1.0,4
232263.96875,246298.984375,241179.796875,236781.703125,222566.34375,228790.953125,219864.734375,210278.875,165834.0,1.0,4
232250.1875,246266.25,241168.453125,236757.109375,222436.96875,228766.0,219809.484375,210242.03125,165835.0,1.0,4
232338.703125,246337.0625,241189.1875,236785.09375,222443.5,228790.953125,219821.015625,210261.890625,165836.0,1.0,4
232370.171875,246371.3125,241189.640625,236800.03125,222513.953125,228807.125,219847.125,210284.78125,165837.0,1.0,4
232358.375,246383.5625,241195.8125,236817.453125,222637.78125,228824.03125,219900.40625,210314.015625,165838.0,1.0,4
232259.9375,246298.0,241176.578125,236782.046875,222558.46875,228794.25,219862.859375,210279.328125,165839.0,1.0,4
232258.5,246282.265625,241174.34375,236768.828125,222443.3125,228776.90625,219820.65625,210258.046875,165840.0,1.0,4
232338.4375,246346.015625,241188.390625,236789.65625,222445.828125,228797.65625,219829.78125,210272.890625,165841.0,1.0,4
232377.953125,246389.015625,241196.96875,236811.015625,222523.25,228819.921875,219868.21875,210299.609375,165842.0,1.0,4
232349.875,246384.359375,241192.140625,236818.0,222635.90625,228822.234375,219906.671875,210320.890625,165843.0,1.0,4
232246.53125,246292.0,241163.078125,236774.09375,222544.4375,228782.90625,219853.734375,210275.296875,165844.0,1.0,4
232261.1875,246292.625,241173.90625,236772.84375,222454.3125,228783.53125,219830.578125,210270.296875,165845.0,1.0,4
232328.609375,246335.546875,241178.828125,236777.5,222442.421875,228788.0,219824.234375,210272.078125,165846.0,1.0,4
232370.171875,246375.25,241189.1875,236798.140625,222516.90625,228811.515625,219855.96875,210285.765625,165847.0,1.0,4
232357.125,246382.671875,241193.3125,236810.390625,222636.53125,228822.515625,219901.21875,210307.65625,165848.0,1.0,4
232254.21875,246292.625,241167.015625,236769.71875,222551.765625,228787.734375,219857.9375,210273.0625,165849.0,1.0,4
232249.921875,246272.421875,241167.203125,236756.9375,222441.625,228776.734375,219821.453125,210256.703125,165850.0,1.0,4
232338.4375,246340.640625,241193.03125,236787.6875,222448.328125,228803.28125,219836.21875,210281.203125,165851.0,1.0,4
232390.03125,246392.765625,241209.390625,236818.171875,222535.046875,228826.984375,219873.046875,210310.703125,165852.0,1.0,4
232361.234375,246384.546875,241197.78125,236817.734375,222643.328125,228823.484375,219905.953125,210315.171875,165853.0,1.0,4
232253.328125,246291.015625,241170.5,236775.265625,222551.765625,228781.203125,219858.5625,210278.34375,165854.0,1.0,4
232253.765625,246276.359375,241177.296875,236765.875,222443.859375,228774.671875,219825.03125,210262.6875,165855.0,1.0,4
232334.6875,246335.28125,241194.46875,236788.21875,222449.21875,228792.734375,219831.65625,210277.890625,165856.0,1.0,4
232370.71875,246374.53125,241196.96875,236806.734375,222524.40625,228808.03125,219860.625,210293.890625,165857.0,1.0,4
232343.171875,246372.828125,241187.5,236808.34375,222636.4375,228808.921875,219897.71875,210304.359375,165858.0,1.0,4
232240.890625,246286.546875,241161.46875,236765.875,222547.5625,228768.140625,219850.34375,210272.171875,165859.0,1.0,4
232243.390625,246272.6875,241162.28125,236758.359375,222437.59375,228761.078125,219814.75,210258.671875,165860.0,1.0,4
232327.53125,246334.828125,241179.890625,236781.78125,222442.6875,228785.3125,219826.015625,210271.90625,165861.0,1.0,4
232359.453125,246366.578125,241180.15625,236793.9375,222501.25,228797.734375,219850.875,210284.59375,165862.0,1.0,4
232345.671875,246375.609375,241182.84375,236807.984375,222625.4375,228812.765625,219899.0625,210307.484375,165863.0,1.0,4
232247.953125,246291.828125,241163.171875,236776.6875,222546.9375,228782.1875,219863.296875,210280.125,165864.0,1.0,4
232232.484375,246262.859375,241158.703125,236758.09375,222426.875,228759.921875,219810.1875,210254.46875,165865.0,1.0,4
232318.046875,246327.59375,241178.734375,236781.515625,222428.203125,228779.328125,219813.953125,210262.328125,165866.0,1.0,4
232374.375,246385.4375,241198.40625,236812.09375,222516.453125,228813.75,219861.6875,210295.0625,165867.0,1.0,4
232371.609375,246403.5,241211.8125,236832.03125,222650.5625,228838.15625,219920.078125,210326.4375,165868.0,1.0,4
232266.375,246309.703125,241182.578125,236786.25,222574.296875,228801.671875,219873.140625,210286.203125,165869.0,1.0,4
232241.34375,246264.828125,241171.671875,236755.765625,222436.875,228770.5625,219812.515625,210251.96875,165870.0,1.0,4
232317.96875,246323.203125,241185.609375,236775.703125,222424.09375,228788.265625,219815.203125,210261.171875,165871.0,1.0,4
232371.96875,246382.046875,241203.59375,236810.21875,222511.71875,228821.609375,219861.515625,210294.34375,165872.0,1.0,4
232351.671875,246385.171875,241199.203125,236814.6875,222627.765625,228822.234375,219902.546875,210312.484375,165873.0,1.0,4
232243.390625,246288.515625,241171.578125,236769.984375,222541.9375,228783.796875,219853.46875,210274.40625,165874.0,1.0,4
232249.203125,246278.953125,241181.328125,236767.390625,222435.0,228782.984375,219824.328125,210265.828125,165875.0,1.0,4
232341.125,246352.71875,241205.28125,236800.5625,222449.84375,228812.671875,219840.421875,210287.8125,165876.0,1.0,4
232380.28125,246395.71875,241210.734375,236820.140625,222522.890625,228830.28125,219870.640625,210305.0625,165877.0,1.0,4
232356.046875,246391.875,241204.296875,236823.53125,222637.15625,228830.546875,219908.71875,210317.671875,165878.0,1.0,4
232250.8125,246294.234375,241174.796875,236781.25,222557.5,228788.265625,219865.1875,210280.84375,165879.0,1.0,4
232242.5,246271.078125,241170.953125,236766.046875,222440.546875,228771.09375,219820.75,210259.390625,165880.0,1.0,4
232319.84375,246326.421875,241188.125,236786.078125,222438.140625,228786.484375,219822.171875,210270.65625,165881.0,1.0,4
232374.5625,246380.4375,241204.296875,236816.921875,222520.203125,228816.703125,219866.609375,210304.09375,165882.0,1.0,4
232355.25,246379.09375,241195.890625,236818.4375,222631.515625,228815.359375,219904.34375,210319.734375,165883.0,1.0,4
232257.25,246291.65625,241174.703125,236785.71875,222558.75,228779.0625,219867.0625,210288.0,165884.0,1.0,4
232243.21875,246259.375,241167.5625,236767.125,222435.8125,228760.546875,219816.625,210259.390625,165885.0,1.0,4
232332.359375,246326.78125,241191.96875,236797.4375,222441.265625,228787.640625,219829.59375,210283.515625,165886.0,1.0,4
232383.140625,246381.140625,241209.484375,236825.78125,222522.4375,228819.375,219876.265625,210313.03125,165887.0,1.0,4
232371.15625,246391.875,241211.1875,236835.4375,222646.28125,228831.8125,219925.171875,210335.46875,165888.0,1.0,4
232264.3125,246298.53125,241182.3125,236787.6875,222566.703125,228784.78125,219865.984375,210298.1875,165889.0,1.0,4
232239.28125,246257.9375,241171.125,236760.0625,222432.6875,228754.921875,219806.53125,210257.59375,165890.0,1.0,4
232324.125,246322.3125,241187.671875,236781.703125,222434.375,228774.40625,219815.734375,210265.1875,165891.0,1.0,4
232373.9375,246370.6875,241202.0625,236809.328125,222513.59375,228803.734375,219853.203125,210291.84375,165892.0,1.0,4
232362.3125,246382.671875,241200.546875,236821.125,222637.15625,228814.734375,219898.796875,210305.875,165893.0,1.0,4
232245.09375,246277.34375,241160.21875,236763.640625,222543.09375,228764.65625,219842.296875,210257.140625,165894.0,1.0,4
232241.25,246262.0625,241167.109375,236756.296875,222436.34375,228761.890625,219810.734375,210244.90625,165895.0,1.0,4
232336.375,246338.046875,241202.25,236793.59375,222448.953125,228795.6875,219832.546875,210274.765625,165896.0,1.0,4
232381.625,246380.4375,241207.875,236810.75,222513.859375,228811.15625,219859.90625,210292.46875,165897.0,1.0,4
232373.03125,246392.59375,241208.859375,236824.171875,222637.328125,228824.5625,219908.28125,210315.078125,165898.0,1.0,4
232265.578125,246298.625,241172.203125,236773.921875,222554.0,228777.984375,219860.53125,210276.1875,165899.0,1.0,4
232261.453125,246280.828125,241177.03125,236768.375,222439.46875,228772.890625,219828.34375,210262.421875,165900.0,1.0,4
232348.1875,246346.09375,241200.453125,236797.796875,222440.90625,228799.0,219841.125,210281.109375,165901.0,1.0,4
232394.671875,246391.25,241212.34375,236823.09375,222514.671875,228817.046875,219871.171875,210306.765625,165902.0,1.0,4
232381.265625,246399.828125,241210.5625,236832.125,222638.3125,228818.65625,219914.4375,210331.265625,165903.0,1.0,4
232273.703125,246307.65625,241184.359375,236790.453125,222563.484375,228781.46875,219871.703125,210302.390625,165904.0,1.0,4
232259.9375,246281.90625,241182.578125,236772.578125,222441.53125,228767.25,219827.09375,210271.28125,165905.0,1.0,4
232336.015625,246339.296875,241195.265625,236788.21875,222431.78125,228781.375,219825.65625,210273.859375,165906.0,1.0,4
232380.1875,246382.21875,241202.953125,236811.921875,222506.53125,228802.296875,219859.71875,210294.78125,165907.0,1.0,4
232361.953125,246383.375,241195.625,236814.953125,222622.484375,228809.28125,219903.984375,210307.75,165908.0,1.0,4
232262.890625,246297.1875,241171.21875,236774.546875,222555.078125,228775.84375,219858.5625,210273.421875,165909.0,1.0,4
232254.125,246275.828125,241176.859375,236764.984375,222443.40625,228769.671875,219820.125,210258.125,165910.0,1.0,4
232334.5,246338.3125,241194.015625,236783.578125,222434.921875,228791.65625,219827.8125,210274.5,165911.0,1.0,4
232382.421875,246384.28125,241203.140625,236809.40625,222508.234375,228811.6875,219864.90625,210302.390625,165912.0,1.0,4
232374.5625,246395.265625,241209.3125,236826.125,222630.359375,228820.09375,219913.28125,210327.953125,165913.0,1.0,4
232270.046875,246306.578125,241179.625,236783.21875,222558.03125,228778.34375,219865.890625,210286.65625,165914.0,1.0,4
232245.09375,246271.265625,241169.703125,236762.46875,222432.6875,228756.796875,219814.21875,210259.828125,165915.0,1.0,4
232323.6875,246332.234375,241185.703125,236783.9375,222425.703125,228773.953125,219817.171875,210273.15625,165916.0,1.0,4
232374.921875,246381.234375,241196.875,236809.859375,222494.640625,228802.5625,219852.484375,210292.28125,165917.0,1.0,4
232360.15625,246384.71875,241195.984375,236817.734375,222613.46875,228812.21875,219899.421875,210306.765625,165918.0,1.0,4
232259.3125,246297.28125,241172.203125,236778.203125,222544.265625,228776.734375,219863.21875,210275.46875,165919.0,1.0,4
232244.375,246269.125,241169.34375,236760.953125,222425.171875,228755.28125,219817.703125,210246.328125,165920.0,1.0,4
232333.96875,246334.203125,241195.984375,236791.265625,222427.765625,228777.265625,219829.421875,210269.484375,165921.0,1.0,4
232393.59375,246390.984375,241215.203125,236825.78125,222509.484375,228815.53125,219867.953125,210300.6875,165922.0,1.0,4
232383.671875,246399.390625,241215.125,236838.296875,222636.53125,228831.71875,219918.734375,210319.734375,165923.0,1.0,4
232275.578125,246305.15625,241180.609375,236789.296875,222566.078125,228786.828125,219874.203125,210285.671875,165924.0,1.0,4
232263.609375,246280.390625,241185.890625,236777.140625,222453.875,228782.1875,219838.265625,210271.984375,165925.0,1.0,4
232343.171875,246339.296875,241202.515625,236796.71875,222452.96875,228807.3125,219841.3125,210276.1875,165926.0,1.0,4
232379.03125,246373.09375,241200.1875,236804.140625,222510.203125,228819.109375,219861.96875,210290.859375,165927.0,1.0,4
232364.09375,246378.828125,241201.984375,236813.078125,222626.328125,228827.875,219908.90625,210312.84375,165928.0,1.0,4
232268.875,246298.359375,241180.875,236778.75,222570.90625,228797.734375,219876.0,210287.09375,165929.0,1.0,4
232249.125,246266.34375,241180.515625,236763.015625,222450.203125,228780.125,219830.21875,210268.765625,165930.0,1.0,4
232319.9375,246315.15625,241191.25,236778.125,222434.375,228787.375,219826.203125,210269.484375,165931.0,1.0,4
232363.65625,246355.03125,241194.734375,236797.15625,222494.1875,228802.5625,219848.734375,210287.71875,165932.0,1.0,4
232358.828125,246369.703125,241194.015625,236811.921875,222620.609375,228809.09375,219891.734375,210306.59375,165933.0,1.0,4
232265.296875,246289.234375,241169.4375,236777.9375,222562.046875,228772.53125,219855.25,210275.46875,165934.0,1.0,4
232251.265625,246261.609375,241170.234375,236763.71875,222442.15625,228761.078125,219814.9375,210250.984375,165935.0,1.0,4
232333.4375,246323.296875,241190.4375,236784.828125,222436.34375,228780.578125,219818.953125,210263.40625,165936.0,1.0,4
232377.859375,246365.140625,241200.453125,236803.6875,222498.484375,228797.296875,219842.734375,210281.734375,165937.0,1.0,4
232367.5,246377.5625,241203.765625,236817.1875,222619.71875,228803.015625,219891.015625,210307.75,165938.0,1.0,4
232281.03125,246304.34375,241185.703125,236789.296875,222570.546875,228778.703125,219864.828125,210289.421875,165939.0,1.0,4
232261.1875,246271.4375,241174.34375,236768.28125,222448.0625,228761.796875,219815.921875,210258.3125,165940.0,1.0,4
232337.984375,246329.109375,241187.21875,236785.09375,222437.421875,228778.15625,219818.59375,210265.46875,165941.0,1.0,4
232381.078125,246370.59375,241190.796875,236803.78125,222493.296875,228796.046875,219844.53125,210284.234375,165942.0,1.0,4
232376.609375,246386.78125,241191.25,236816.75,222626.328125,228815.359375,219900.765625,210312.671875,165943.0,1.0,4
232280.859375,246305.78125,241174.265625,236781.78125,222570.71875,228785.578125,219869.65625,210280.9375,165944.0,1.0,4
232257.96875,246270.8125,241172.03125,236763.546875,222438.578125,228765.734375,219818.0625,210249.453125,165945.0,1.0,4
232343.71875,246334.5625,241191.34375,236789.390625,222431.875,228785.578125,219826.28125,210266.0,165946.0,1.0,4
232388.328125,246373.09375,241198.671875,236813.25,222494.546875,228805.15625,219858.828125,210292.546875,165947.0,1.0,4
232385.375,246387.046875,241198.9375,236828.546875,222620.875,228819.109375,219909.171875,210319.109375,165948.0,1.0,4
232292.390625,246311.765625,241177.296875,236794.65625,222571.96875,228788.4375,219877.15625,210289.515625,165949.0,1.0,4
232269.140625,246276.359375,241173.015625,236774.1875,222449.84375,228769.578125,219824.765625,210256.609375,165950.0,1.0,4
232343.265625,246329.28125,241188.828125,236791.0,222433.03125,228783.265625,219824.140625,210262.515625,165951.0,1.0,4
232367.9375,246352.796875,241186.15625,236792.875,222470.328125,228783.703125,219831.921875,210260.28125,165952.0,1.0,4
232364.984375,246368.625,241198.671875,236813.171875,222603.359375,228802.75,219888.96875,210291.65625,165953.0,1.0,4
232283.453125,246303.71875,241194.375,236796.53125,222574.484375,228792.828125,219878.953125,210286.5625,165954.0,1.0,4
232246.796875,246258.484375,241175.6875,236764.796875,222436.171875,228760.546875,219819.84375,210255.0,165955.0,1.0,4
232332.171875,246322.40625,241189.015625,236789.828125,222427.40625,228780.046875,219826.46875,210275.921875,165956.0,1.0,4
232372.859375,246358.875,241182.3125,236800.375,222475.6875,228782.71875,219841.84375,210281.640625,165957.0,1.0,4
232373.125,246376.40625,241181.5,236815.9375,222604.875,228797.65625,219896.5625,210307.65625,165958.0,1.0,4
232297.125,246313.46875,241177.125,236799.578125,222576.359375,228787.375,219885.296875,210295.59375,165959.0,1.0,4
232271.46875,246276.71875,241178.90625,236781.34375,222447.25,228766.1875,219835.59375,210264.921875,165960.0,1.0,4
232334.328125,246320.078125,241187.140625,236785.984375,222424.28125,228772.0,219819.765625,210260.28125,165961.0,1.0,4
232380.015625,246363.4375,241202.515625,236807.625,222485.875,228785.9375,219846.21875,210281.015625,165962.0,1.0,4
232380.015625,246384.90625,241208.953125,236825.421875,222619.8125,228800.25,219899.0625,210309.453125,165963.0,1.0,4
232277.546875,246301.296875,241180.515625,236783.578125,222574.125,228766.625,219862.765625,210274.578125,165964.0,1.0,4
232242.328125,246256.15625,241167.203125,236755.859375,222444.484375,228742.578125,219806.34375,210241.765625,165965.0,1.0,4
232324.40625,246319.90625,241189.453125,236782.40625,222431.515625,228769.578125,219813.234375,210267.25,165966.0,1.0,4
232376.609375,246367.734375,241201.625,236804.046875,222491.59375,228798.453125,219840.953125,210284.5,165967.0,1.0,4
232375.453125,246381.953125,241204.03125,236816.921875,222619.453125,228814.640625,219892.53125,210310.171875,165968.0,1.0,4
232283.453125,246305.78125,241184.453125,236783.3125,222583.6875,228789.421875,219868.84375,210290.5,165969.0,1.0,4
232252.0625,246264.203125,241183.734375,236760.328125,222452.703125,228777.171875,219817.4375,210258.84375,165970.0,1.0,4
232335.484375,246325.265625,241203.9375,236779.734375,222437.78125,228803.28125,219818.0625,210264.296875,165971.0,1.0,4
232377.59375,246368.71875,241207.4375,236793.765625,222479.796875,228817.59375,219838.359375,210280.9375,165972.0,1.0,4
232373.3125,246387.578125,241209.125,236813.078125,222615.34375,228842.796875,219897.015625,210311.78125,165973.0,1.0,4
232276.296875,246306.9375,241184.09375,236776.15625,222571.265625,228818.578125,219865.8125,210281.90625,165974.0,1.0,4
232249.828125,246271.53125,241180.609375,236754.15625,222445.28125,228803.015625,219819.046875,210255.53125,165975.0,1.0,4
232323.234375,246319.984375,241190.890625,236764.625,222413.640625,228813.03125,219805.640625,210255.359375,165976.0,1.0,4
232372.234375,246363.0,241201.625,236783.3125,222461.46875,228830.28125,219827.0,210267.25,165977.0,1.0,4
232375.265625,246385.25,241208.328125,236799.671875,222591.921875,228846.640625,219881.8125,210294.96875,165978.0,1.0,4
232284.53125,246310.78125,241186.6875,236768.546875,222552.21875,228819.203125,219858.296875,210275.921875,165979.0,1.0,4
232246.609375,246260.71875,241181.140625,236745.125,222414.984375,228797.65625,219807.6875,210253.125,165980.0,1.0,4
232331.546875,246326.78125,241212.890625,236775.171875,222402.015625,228823.578125,219816.359375,210274.671875,165981.0,1.0,4
232380.546875,246374.34375,241223.25,236794.84375,222454.3125,228842.625,219841.125,210284.5,165982.0,1.0,4
232378.765625,246391.875,241224.953125,236807.0,222588.875,228854.421875,219891.203125,210303.453125,165983.0,1.0,4
232305.984375,246336.984375,241222.8125,236795.375,222581.09375,228844.40625,219885.390625,210298.71875,165984.0,1.0,4
232256.09375,246275.46875,241199.65625,236759.4375,222443.671875,228806.859375,219817.609375,210255.1875,165985.0,1.0,4
232325.03125,246319.640625,241208.234375,236765.421875,222414.796875,228809.71875,219806.34375,210254.203125,165986.0,1.0,4
232377.78125,246368.984375,241219.859375,236787.78125,222464.15625,228829.484375,219832.8125,210279.5,165987.0,1.0,4
232382.609375,246395.453125,241220.21875,236808.15625,222611.21875,228848.4375,219895.21875,210312.046875,165988.0,1.0,4
232296.140625,246328.84375,241201.34375,236781.703125,222595.671875,228827.0625,219881.546875,210290.765625,165989.0,1.0,4
232261.546875,246286.828125,241195.0,236760.328125,222474.609375,228806.140625,219834.609375,210263.765625,165990.0,1.0,4
232332.171875,246341.71875,241203.59375,236772.84375,222450.921875,228813.828125,219824.765625,210268.859375,165991.0,1.0,4
232375.546875,246384.546875,241204.65625,236789.296875,222501.96875,228831.1875,219844.265625,210280.65625,165992.0,1.0,4
232384.65625,246414.671875,241211.71875,236814.0625,222649.84375,228857.828125,219903.265625,210310.34375,165993.0,1.0,4
232292.21875,246338.765625,241186.421875,236780.0,222625.0,228826.625,219879.84375,210289.609375,165994.0,1.0,4
232248.046875,246283.515625,241169.078125,236747.453125,222487.484375,228790.953125,219818.6875,210256.171875,165995.0,1.0,4
232323.59375,246335.546875,241182.125,236764.625,222460.484375,228804.890625,219815.375,210264.484375,165996.0,1.0,4
232369.8125,246376.9375,241183.828125,236777.9375,222501.609375,228817.140625,219829.0625,210277.078125,165997.0,1.0,4
232383.5,246411.984375,241195.546875,236805.65625,222651.8125,228844.40625,219893.171875,210308.5625,165998.0,1.0,4
232297.9375,246346.71875,241175.6875,236776.328125,222631.96875,228822.515625,219877.875,210286.65625,165999.0,1.0,4
232263.78125,246302.203125,241170.859375,236757.28125,222502.0625,228799.53125,219831.109375,210262.6875,166000.0,1.0,4
232323.59375,246337.515625,241182.125,236767.21875,222452.890625,228800.953125,219817.4375,210261.890625,166001.0,1.0,4
232371.703125,246379.53125,241194.5625,236789.75,222493.203125,228820.265625,219839.609375,210276.453125,166002.0,1.0,4
232390.828125,246415.390625,241210.734375,236822.46875,222642.515625,228849.78125,219909.34375,210314.375,166003.0,1.0,4
232304.546875,246347.078125,241194.375,236797.34375,222623.828125,228824.75,219897.1875,210294.25,166004.0,1.0,4
232266.28125,246298.890625,241186.515625,236773.03125,222489.625,228802.390625,219846.046875,210266.53125,166005.0,1.0,4
232337.453125,246346.28125,241199.75,236787.0625,222449.9375,228808.203125,219832.90625,210268.859375,166006.0,1.0,4
232378.484375,246380.515625,241202.0625,236796.1875,222472.828125,228809.09375,219841.75,210278.34375,166007.0,1.0,4
232385.28125,246405.109375,241206.984375,236816.75,222610.25,228827.15625,219902.1875,210309.453125,166008.0,1.0,4
232301.609375,246339.390625,241195.359375,236797.34375,222601.125,228807.9375,219891.109375,210301.671875,166009.0,1.0,4
232255.46875,246286.640625,241178.734375,236762.921875,222459.6875,228774.671875,219830.765625,210264.296875,166010.0,1.0,4
232315.109375,246325.71875,241186.328125,236767.84375,222404.703125,228782.1875,219810.828125,210255.890625,166011.0,1.0,4
232369.640625,246376.046875,241200.453125,236795.28125,222451.015625,228810.703125,219838.890625,210278.15625,166012.0,1.0,4
232378.9375,246405.546875,241207.4375,236817.453125,222592.625,228825.1875,219902.640625,210309.265625,166013.0,1.0,4
232309.828125,246354.59375,241196.875,236803.515625,222600.5,228816.15625,219901.921875,210297.375,166014.0,1.0,4
232261.375,246297.015625,241172.921875,236766.140625,222464.0625,228789.34375,219836.03125,210253.390625,166015.0,1.0,4
232323.5,246334.46875,241181.328125,236772.9375,222415.421875,228794.078125,219820.296875,210255.984375,166016.0,1.0,4
232381.078125,246387.21875,241194.375,236795.640625,222460.03125,228815.09375,219842.65625,210274.21875,166017.0,1.0,4
232391.8125,246416.734375,241204.921875,236819.15625,222610.328125,228835.46875,219899.515625,210305.421875,166018.0,1.0,4
232298.65625,246341.53125,241182.125,236784.640625,222600.234375,228803.28125,219878.765625,210282.453125,166019.0,1.0,4
232255.203125,246289.953125,241175.953125,236759.875,222476.40625,228779.140625,219827.359375,210252.046875,166020.0,1.0,4
232323.0625,246335.375,241191.0625,236771.421875,222431.421875,228789.15625,219812.96875,210250.078125,166021.0,1.0,4
232375.265625,246383.203125,241203.765625,236792.15625,222468.890625,228810.890625,219835.3125,210271.546875,166022.0,1.0,4
232380.375,246404.21875,241207.078125,236813.078125,222614.71875,228831.625,219894.59375,210309.453125,166023.0,1.0,4
232289.703125,246330.1875,241181.40625,236781.078125,222602.546875,228797.828125,219870.8125,210287.09375,166024.0,1.0,4
232257.53125,246291.375,241179.0,236763.375,222482.84375,228779.6875,219824.59375,210258.21875,166025.0,1.0,4
232321.359375,246330.453125,241191.0625,236772.84375,222436.25,228788.890625,219809.390625,210256.4375,166026.0,1.0,4
232371.875,246376.3125,241204.65625,236795.90625,222473.984375,228811.0625,219831.921875,210275.5625,166027.0,1.0,4
232381.265625,246407.15625,241214.21875,236822.640625,222626.515625,228836.09375,219898.078125,210311.0625,166028.0,1.0,4
232299.453125,246344.9375,241194.734375,236796.984375,222630.890625,228809.8125,219884.484375,210291.921875,166029.0,1.0,4
232252.0625,246289.0625,241179.890625,236763.90625,222497.046875,228777.171875,219822.796875,210250.4375,166030.0,1.0,4
232314.296875,246330.453125,241194.46875,236774.8125,222446.984375,228785.40625,219809.921875,210249.640625,166031.0,1.0,4
232366.875,246376.578125,241203.59375,236795.015625,222474.515625,228798.90625,219830.125,210264.75,166032.0,1.0,4
232377.6875,246403.40625,241199.390625,236818.359375,222617.21875,228813.921875,219887.078125,210300.515625,166033.0,1.0,4
232290.34375,246333.484375,241169.515625,236788.40625,222615.96875,228785.140625,219875.734375,210288.625,166034.0,1.0,4
232252.78125,246286.109375,241160.9375,236764.4375,222485.703125,228764.21875,219827.984375,210259.828125,166035.0,1.0,4
232324.046875,246334.5625,241172.734375,236779.8125,222440.09375,228775.484375,219819.3125,210260.8125,166036.0,1.0,4
232377.59375,246379.453125,241185.265625,236799.484375,222471.578125,228794.796875,219839.15625,210276.8125,166037.0,1.0,4
232386.625,246407.078125,241198.40625,236824.4375,222612.921875,228817.328125,219903.453125,210314.546875,166038.0,1.0,4
232299.71875,246340.46875,241179.71875,236792.6875,222615.421875,228792.5625,219889.5,210288.890625,166039.0,1.0,4
232244.734375,246277.34375,241166.03125,236757.828125,222477.109375,228755.0,219831.65625,210246.78125,166040.0,1.0,4
232307.328125,246318.375,241180.34375,236769.625,222429.375,228763.953125,219820.5625,210249.734375,166041.0,1.0,4
232355.6875,246358.96875,241186.59375,236783.3125,222454.859375,228784.6875,219830.21875,210268.40625,166042.0,1.0,4
232376.171875,246396.96875,241194.734375,236812.359375,222605.0625,228809.984375,219898.0,210310.078125,166043.0,1.0,4
232300.4375,246340.28125,241172.296875,236791.078125,222616.6875,228792.015625,219889.859375,210294.875,166044.0,1.0,4
232248.671875,246279.671875,241155.21875,236756.84375,222484.171875,228768.421875,219830.9375,210254.640625,166045.0,1.0,4
232305.453125,246311.59375,241166.21875,236763.453125,222421.59375,228771.09375,219809.03125,210249.734375,166046.0,1.0,4
232360.25,246363.890625,241185.078125,236787.6875,222450.65625,228790.953125,219829.78125,210268.5,166047.0,1.0,4
232386.09375,246410.734375,241213.0625,236824.703125,222607.921875,228827.609375,219904.875,210314.8125,166048.0,1.0,4
232304.109375,246351.015625,241196.53125,236800.296875,222619.265625,228808.65625,219898.96875,210297.375,166049.0,1.0,4
232249.484375,246288.96875,241179.0,236766.859375,222479.34375,228774.234375,219839.609375,210258.578125,166050.0,1.0,4
232314.125,246330.09375,241188.125,236778.828125,222417.125,228778.96875,219819.3125,210260.015625,166051.0,1.0,4
232371.078125,246380.703125,241192.765625,236804.046875,222444.921875,228799.890625,219841.75,210279.765625,166052.0,1.0,4
232386.625,246414.671875,241191.609375,236827.03125,222593.609375,228820.359375,219905.234375,210312.40625,166053.0,1.0,4
232302.859375,246348.59375,241166.65625,236798.0625,222607.109375,228792.109375,219892.09375,210294.703125,166054.0,1.0,4
232248.40625,246288.15625,241152.171875,236761.3125,222474.515625,228760.546875,219824.765625,210250.265625,166055.0,1.0,4
232314.46875,246334.828125,241179.453125,236776.59375,222422.125,228778.875,219814.9375,210255.8125,166056.0,1.0,4
232362.9375,246376.765625,241193.9375,236792.609375,222444.21875,228797.5625,219828.171875,210268.0625,166057.0,1.0,4
232371.78125,246402.78125,241203.5,236815.765625,222587.265625,228815.625,219889.234375,210308.921875,166058.0,1.0,4
232295.078125,246345.375,241184.8125,236793.9375,222613.375,228799.0,219889.5,210298.453125,166059.0,1.0,4
232253.765625,246300.234375,241171.578125,236767.65625,222494.546875,228776.90625,219840.421875,210257.421875,166060.0,1.0,4
232300.890625,246320.53125,241171.671875,236768.015625,222421.140625,228773.78125,219808.765625,210244.359375,166061.0,1.0,4
232353.015625,246360.046875,241185.171875,236789.5625,222441.359375,228794.796875,219827.890625,210265.46875,166062.0,1.0,4
232383.59375,246405.734375,241205.375,236828.28125,222602.203125,228825.8125,219905.40625,210317.046875,166063.0,1.0,4
232306.4375,246348.15625,241187.046875,236801.359375,222629.828125,228801.765625,219899.515625,210304.890625,166064.0,1.0,4
232251.625,246288.15625,241176.765625,236766.5,222499.828125,228770.921875,219839.25,210266.359375,166065.0,1.0,4
232302.9375,246316.5,241189.375,236772.125,222432.859375,228775.125,219814.84375,210257.6875,166066.0,1.0,4
232349.171875,246356.734375,241199.03125,236788.046875,222444.578125,228790.953125,219827.890625,210265.640625,166067.0,1.0,4
232370.4375,246398.484375,241207.34375,236820.671875,222596.03125,228818.03125,219898.96875,210305.25,166068.0,1.0,4
232300.625,246352.53125,241189.90625,236808.609375,222639.84375,228807.3125,219910.6875,210303.546875,166069.0,1.0,4
232250.375,246295.5,241172.109375,236775.4375,222513.59375,228774.9375,219848.734375,210264.65625,166070.0,1.0,4
232300.171875,246318.296875,241176.765625,236773.65625,222431.875,228768.140625,219819.5,210253.84375,166071.0,1.0,4
232351.3125,246361.828125,241187.40625,236791.796875,222445.5625,228791.03125,219835.5,210271.0,166072.0,1.0,4
232369.109375,246397.234375,241199.75,236816.203125,222589.59375,228816.96875,219898.890625,210306.40625,166073.0,1.0,4
232296.0625,246344.671875,241182.671875,236794.578125,222620.34375,228798.09375,219897.640625,210296.3125,166074.0,1.0,4
232240.359375,246281.71875,241163.625,236758.890625,222490.96875,228760.90625,219836.65625,210251.78125,166075.0,1.0,4
232300.4375,246315.96875,241181.0625,236772.671875,222424.90625,228768.59375,219820.125,210252.859375,166076.0,1.0,4
232353.8125,246358.96875,241194.5625,236798.328125,222436.796875,228789.609375,219837.28125,210278.34375,166077.0,1.0,4
232376.96875,246399.46875,241201.078125,236825.5,222586.1875,228813.203125,219902.546875,210318.75,166078.0,1.0,4
232300.625,246344.40625,241177.390625,236799.21875,222622.140625,228794.34375,219896.5625,210300.0625,166079.0,1.0,4
232235.0,246271.171875,241157.359375,236758.453125,222488.921875,228757.15625,219831.390625,210252.140625,166080.0,1.0,4
232285.0625,246295.5,241168.359375,236760.78125,222409.609375,228758.84375,219806.265625,210244.546875,166081.0,1.0,4
232341.390625,246341.1875,241185.171875,236781.34375,222417.125,228780.3125,219821.28125,210261.625,166082.0,1.0,4
232362.40625,246376.859375,241190.0,236806.640625,222561.515625,228800.328125,219883.953125,210303.453125,166083.0,1.0,4
232291.671875,246323.75,241167.203125,236783.125,222608.71875,228780.3125,219887.078125,210291.484375,166084.0,1.0,4
232262.0,246289.0625,241178.28125,236773.734375,222502.59375,228775.5625,219851.234375,210269.9375,166085.0,1.0,4
232318.328125,246324.375,241189.453125,236782.765625,222427.9375,228780.9375,219827.984375,210265.546875,166086.0,1.0,4
232363.03125,246360.3125,241195.8125,236799.671875,222433.125,228800.328125,219840.140625,210275.203125,166087.0,1.0,4
232380.734375,246395.453125,241196.875,236821.578125,222578.0625,228820.265625,219896.65625,210299.4375,166088.0,1.0,4
232318.046875,246353.34375,241182.125,236809.59375,222631.96875,228808.65625,219902.90625,210297.5625,166089.0,1.0,4
232266.734375,246295.5,241174.890625,236779.28125,222510.640625,228783.609375,219849.796875,210262.0625,166090.0,1.0,4
232305.53125,246315.15625,241174.890625,236771.421875,222421.234375,228770.390625,219809.21875,210244.1875,166091.0,1.0,4
232353.640625,246355.125,241184.28125,236789.296875,222424.8125,228788.171875,219821.453125,210264.03125,166092.0,1.0,4
232372.40625,246390.53125,241191.515625,236815.671875,222568.9375,228811.875,219887.984375,210304.796875,166093.0,1.0,4
232312.0625,246352.71875,241176.40625,236801.015625,222625.171875,228796.84375,219903.796875,210299.4375,166094.0,1.0,4
232252.609375,246290.3125,241160.671875,236765.515625,222498.03125,228763.328125,219846.21875,210261.0,166095.0,1.0,4
232294.8125,246309.890625,241166.390625,236763.90625,222407.828125,228758.671875,219811.0,210247.3125,166096.0,1.0,4
232339.0625,246344.484375,241177.484375,236781.78125,222404.875,228777.453125,219817.25,210253.75,166097.0,1.0,4
232372.859375,246397.328125,241200.453125,236820.953125,222567.421875,228814.46875,219895.671875,210300.78125,166098.0,1.0,4
232304.015625,246346.546875,241182.578125,236799.21875,222617.390625,228795.859375,219898.796875,210294.078125,166099.0,1.0,4
232239.90625,246276.265625,241160.84375,236759.25,222485.609375,228758.578125,219836.03125,210253.390625,166100.0,1.0,4
232291.5,246303.625,241173.453125,236764.984375,222402.453125,228760.546875,219808.40625,210240.78125,166101.0,1.0,4
232336.828125,246339.03125,241181.234375,236779.90625,222399.59375,228774.9375,219813.40625,210250.171875,166102.0,1.0,4
232358.734375,246380.15625,241190.265625,236809.5,222551.859375,228802.125,219880.203125,210292.375,166103.0,1.0,4
232306.96875,246350.125,241184.984375,236806.546875,222631.25,228803.375,219905.765625,210304.890625,166104.0,1.0,4
232238.75,246273.671875,241156.375,236759.875,222502.234375,228761.4375,219835.046875,210251.6875,166105.0,1.0,4
232287.65625,246295.765625,241164.6875,236759.609375,222408.984375,228755.984375,219800.453125,210237.484375,166106.0,1.0,4
232334.234375,246335.28125,241175.875,236778.828125,222405.40625,228774.40625,219813.859375,210252.046875,166107.0,1.0,4
232368.125,246384.625,241190.359375,236816.828125,222565.265625,228810.703125,219893.078125,210296.3125,166108.0,1.0,4
232308.9375,246343.234375,241177.03125,236802.34375,222631.96875,228795.953125,219906.84375,210292.46875,166109.0,1.0,4
232250.546875,246277.34375,241160.9375,236767.921875,222511.265625,228757.953125,219845.515625,210256.703125,166110.0,1.0,4
232293.46875,246297.640625,241168.0,236766.671875,222416.3125,228752.0625,219809.75,210248.46875,166111.0,1.0,4
232332.625,246328.9375,241170.6875,236774.28125,222398.609375,228765.28125,219809.296875,210262.78125,166112.0,1.0,4
232370.796875,246385.4375,241193.75,236814.515625,222564.28125,228805.515625,219888.96875,210307.65625,166113.0,1.0,4
232311.96875,246348.78125,241181.6875,236804.859375,222638.765625,228794.4375,219907.296875,210301.21875,166114.0,1.0,4
232252.421875,246284.046875,241166.03125,236769.890625,222517.96875,228763.765625,219850.703125,210263.859375,166115.0,1.0,4
232296.140625,246304.875,241173.640625,236766.140625,222422.578125,228768.78125,219811.625,210244.453125,166116.0,1.0,4
232346.75,246345.828125,241185.890625,236782.140625,222411.046875,228783.34375,219819.21875,210252.671875,166117.0,1.0,4
232385.375,246400.09375,241207.4375,236823.53125,222570.546875,228816.25,219899.421875,210305.15625,166118.0,1.0,4
232333.78125,246368.71875,241197.0625,236816.828125,222653.6875,228814.28125,219921.15625,210313.75,166119.0,1.0,4
232261.546875,246288.15625,241167.203125,236767.03125,222520.03125,228761.890625,219845.953125,210258.125,166120.0,1.0,4
232303.390625,246306.3125,241172.921875,236764.703125,222423.46875,228759.75,219808.578125,210242.390625,166121.0,1.0,4
232347.203125,246338.9375,241183.015625,236778.203125,222403.984375,228774.234375,219809.65625,210250.625,166122.0,1.0,4
232374.46875,246381.765625,241197.328125,236815.484375,222556.859375,228805.078125,219886.09375,210296.671875,166123.0,1.0,4
232319.9375,246347.890625,241186.328125,236808.609375,222633.578125,228796.125,219905.234375,210299.171875,166124.0,1.0,4
232258.15625,246283.421875,241167.640625,236770.15625,222518.15625,228756.96875,219845.78125,210261.0,166125.0,1.0,4
232291.671875,246293.171875,241166.65625,236758.0,222407.734375,228746.328125,219799.375,210232.46875,166126.0,1.0,4
232340.40625,246332.6875,241180.96875,236775.171875,222387.34375,228768.234375,219806.0,210243.921875,166127.0,1.0,4
232371.34375,246384.09375,241196.875,236812.359375,222545.78125,228799.0,219885.03125,210295.0625,166128.0,1.0,4
232324.046875,246359.953125,241187.578125,236809.5,222638.234375,228798.71875,219913.90625,210305.25,166129.0,1.0,4
232260.46875,246294.875,241163.53125,236770.4375,222519.765625,228760.109375,219848.90625,210262.78125,166130.0,1.0,4
232292.125,246301.75,241162.90625,236760.0625,222413.1875,228743.5625,219798.84375,210237.484375,166131.0,1.0,4
232330.84375,246330.890625,241170.0625,236770.515625,222387.4375,228758.3125,219797.5,210245.53125,166132.0,1.0,4
232369.640625,246384.71875,241195.265625,236816.390625,222548.734375,228801.046875,219885.203125,210304.796875,166133.0,1.0,4
232324.578125,246361.65625,241187.40625,236814.15625,222644.671875,228802.125,219917.75,210316.609375,166134.0,1.0,4
232263.609375,246296.921875,241168.265625,236774.453125,222530.765625,228772.796875,219859.375,210273.515625,166135.0,1.0,4
232290.96875,246302.28125,241167.90625,236763.1875,222418.46875,228760.28125,219810.90625,210243.109375,166136.0,1.0,4
232327.703125,246328.125,241172.5625,236772.75,222391.640625,228769.75,219809.84375,210253.484375,166137.0,1.0,4
232357.21875,246374.265625,241179.890625,236796.359375,222536.21875,228796.40625,219877.421875,210292.203125,166138.0,1.0,4
232308.9375,246347.796875,241167.109375,236786.171875,222625.984375,228785.140625,219895.046875,210285.484375,166139.0,1.0,4
232249.921875,246283.515625,241156.015625,236757.5625,222514.75,228755.1875,219844.609375,210251.34375,166140.0,1.0,4
232294.984375,246300.40625,241171.21875,236764.53125,222421.421875,228763.59375,219819.21875,210250.265625,166141.0,1.0,4
232336.828125,246331.078125,241179.453125,236777.40625,222395.3125,228779.0625,219814.75,210258.3125,166142.0,1.0,4
232373.75,246382.3125,241194.109375,236815.3125,222552.125,228809.28125,219886.453125,210300.78125,166143.0,1.0,4
232324.21875,246353.875,241180.15625,236805.203125,222647.53125,228797.65625,219908.546875,210300.0625,166144.0,1.0,4
232262.890625,246288.25,241163.359375,236768.546875,222536.390625,228768.859375,219852.21875,210259.921875,166145.0,1.0,4
232291.140625,246291.109375,241160.9375,236753.796875,222418.203125,228750.984375,219800.1875,210231.9375,166146.0,1.0,4
232322.609375,246309.625,241163.359375,236761.671875,222377.609375,228753.484375,219789.546875,210229.4375,166147.0,1.0,4
232364.640625,246368.0,241183.109375,236804.046875,222536.296875,228795.328125,219871.703125,210281.46875,166148.0,1.0,4
232326.546875,246354.140625,241177.84375,236804.9375,222643.859375,228805.34375,219908.453125,210298.984375,166149.0,1.0,4
232264.9375,246291.109375,241164.0625,236773.921875,222540.765625,228776.46875,219856.0625,210269.21875,166150.0,1.0,4
232288.1875,246289.5,241159.59375,236758.09375,222414.4375,228747.671875,219799.375,210241.328125,166151.0,1.0,4
232330.65625,246319.1875,241168.890625,236768.546875,222375.8125,228760.1875,219796.421875,210247.765625,166152.0,1.0,4
232371.96875,246377.390625,241188.390625,236806.8125,222532.453125,228800.609375,219872.25,210289.953125,166153.0,1.0,4
232324.9375,246355.125,241178.109375,236805.390625,222636.265625,228797.921875,219902.640625,210298.09375,166154.0,1.0,4
232259.578125,246286.546875,241155.84375,236768.28125,222527.90625,228761.265625,219842.5625,210257.78125,166155.0,1.0,4
232289.265625,246290.84375,241159.0625,236759.609375,222410.78125,228756.53125,219798.484375,210233.015625,166156.0,1.0,4
232328.6875,246319.0,241171.21875,236770.25,222368.9375,228768.953125,219798.21875,210244.90625,166157.0,1.0,4
232370.0,246376.3125,241194.375,236813.171875,222524.5,228806.421875,219879.3125,210304.09375,166158.0,1.0,4
232330.84375,246361.03125,241189.453125,236813.53125,222634.65625,228808.203125,219914.265625,210310.96875,166159.0,1.0,4
232269.59375,246296.65625,241170.953125,236777.578125,222530.046875,228776.015625,219861.515625,210271.453125,166160.0,1.0,4
232295.875,246296.484375,241166.9375,236765.15625,222410.859375,228761.265625,219813.40625,210245.34375,166161.0,1.0,4
232325.203125,246315.25,241164.96875,236767.390625,222359.015625,228764.75,219796.6875,210243.203125,166162.0,1.0,4
232367.40625,246376.40625,241184.546875,236807.265625,222511.0,228805.34375,219873.859375,210290.140625,166163.0,1.0,4
232329.046875,246362.734375,241179.09375,236809.859375,222634.375,228808.828125,219914.796875,210306.140625,166164.0,1.0,4
232245.0,246275.828125,241150.65625,236758.625,222517.4375,228758.765625,219843.8125,210251.25,166165.0,1.0,4
232278.625,246284.40625,241158.890625,236753.09375,222405.140625,228748.03125,219799.734375,210232.375,166166.0,1.0,4
232321.546875,246313.28125,241165.59375,236762.296875,222354.265625,228761.078125,219789.0,210229.515625,166167.0,1.0,4
232378.046875,246386.234375,241197.6875,236816.5625,222525.125,228814.28125,219882.875,210293.625,166168.0,1.0,4
232327.265625,246358.171875,241180.609375,236807.453125,222635.8125,228810.890625,219913.8125,210303.375,166169.0,1.0,4
232252.703125,246279.84375,241153.25,236765.609375,222527.625,228776.46875,219852.84375,210257.234375,166170.0,1.0,4
232286.578125,246291.828125,241159.78125,236759.796875,222415.515625,228766.890625,219808.140625,210238.546875,166171.0,1.0,4
232330.75,246323.921875,241173.015625,236771.328125,222364.734375,228773.0625,219801.078125,210246.953125,166172.0,1.0,4
232371.078125,246378.734375,241189.8125,236809.6875,222511.09375,228808.921875,219877.78125,210298.28125,166173.0,1.0,4
232328.328125,246358.796875,241180.609375,236810.390625,222631.515625,228809.453125,219915.0625,210306.765625,166174.0,1.0,4
232264.671875,246293.171875,241164.875,236774.8125,222533.984375,228779.140625,219861.515625,210264.296875,166175.0,1.0,4
232286.40625,246290.125,241164.15625,236758.0,222403.625,228763.328125,219804.296875,210232.375,166176.0,1.0,4
232317.6875,246304.875,241165.59375,236761.484375,222342.203125,228760.734375,219787.9375,210231.484375,166177.0,1.0,4
232359.0,246360.578125,241181.0625,236801.359375,222485.078125,228791.390625,219858.828125,210279.765625,166178.0,1.0,4
232327.703125,246354.765625,241180.25,236811.296875,222619.09375,228803.015625,219904.96875,210299.53125,166179.0,1.0,4
232264.9375,246292.28125,241168.265625,236781.78125,222526.015625,228776.28125,219860.171875,210266.53125,166180.0,1.0,4
232284.875,246288.78125,241167.734375,236765.328125,222399.234375,228757.234375,219806.96875,210244.71875,166181.0,1.0,4
232322.078125,246314.453125,241177.921875,236774.09375,222344.34375,228763.140625,219795.359375,210245.171875,166182.0,1.0,4
232361.953125,246368.53125,241190.890625,236809.953125,222495.890625,228798.1875,219869.109375,210285.9375,166183.0,1.0,4
232335.484375,246366.21875,241192.046875,236817.90625,222634.203125,228807.9375,219918.734375,210308.28125,166184.0,1.0,4
232268.875,246299.25,241172.5625,236780.625,222537.015625,228772.890625,219863.296875,210275.5625,166185.0,1.0,4
232286.484375,246291.921875,241166.75,236762.203125,222406.03125,228758.140625,219807.328125,210244.90625,166186.0,1.0,4
232316.890625,246309.625,241163.796875,236760.421875,222337.1875,228760.015625,219787.484375,210237.84375,166187.0,1.0,4
232367.859375,246376.765625,241187.765625,236807.625,222495.625,228808.203125,219874.203125,210297.203125,166188.0,1.0,4
232339.953125,246374.0,241187.578125,236818.359375,222638.5,228815.625,219922.046875,210317.234375,166189.0,1.0,4
232260.109375,246293.96875,241155.578125,236770.96875,222534.34375,228766.453125,219859.90625,210262.6875,166190.0,1.0,4
232275.578125,246281.640625,241152.890625,236750.40625,222397.90625,228742.75,219795.796875,210227.203125,166191.0,1.0,4
232311.25,246304.4375,241160.671875,236756.03125,222331.296875,228750.0,219780.0625,210225.859375,166192.0,1.0,4
232360.4375,246368.453125,241181.234375,236799.84375,222482.390625,228793.0,219859.015625,210279.765625,166193.0,1.0,4
232338.609375,246368.265625,241183.734375,236814.421875,222631.34375,228806.421875,219913.109375,210307.484375,166194.0,1.0,4
232270.3125,246300.5,241165.765625,236779.90625,222541.21875,228770.734375,219860.703125,210271.0,166195.0,1.0,4
232283.1875,246288.609375,241156.921875,236754.96875,222399.59375,228744.015625,219793.921875,210230.859375,166196.0,1.0,4
232315.90625,246307.203125,241162.28125,236757.375,222329.765625,228752.59375,219773.984375,210215.390625,166197.0,1.0,4
232365.96875,246370.234375,241195.546875,236807.71875,222485.25,228805.703125,219865.359375,210276.546875,166198.0,1.0,4
232356.5,246388.75,241205.90625,236829.078125,222651.015625,228834.578125,219935.09375,210320.09375,166199.0,1.0,4
232282.109375,246316.765625,241178.828125,236785.265625,222554.984375,228797.03125,219879.125,210284.15625,166200.0,1.0,4
232298.390625,246307.390625,241174.53125,236768.375,222427.859375,228777.53125,219820.828125,210253.125,166201.0,1.0,4
232333.78125,246325.71875,241180.078125,236774.546875,222361.328125,228783.96875,219804.828125,210245.53125,166202.0,1.0,4
232373.84375,246379.453125,241195.984375,236808.34375,222500.09375,228816.515625,219878.234375,210289.15625,166203.0,1.0,4
232356.59375,246387.9375,241197.328125,236823.09375,222656.828125,228826.796875,219934.296875,210319.640625,166204.0,1.0,4
232276.75,246302.5625,241171.40625,236778.03125,222552.03125,228780.75,219869.5625,210274.765625,166205.0,1.0,4
232292.65625,246295.40625,241173.09375,236767.390625,222419.53125,228764.84375,219818.59375,210252.046875,166206.0,1.0,4
232311.34375,246298.09375,241169.875,236755.671875,222328.796875,228756.34375,219784.71875,210237.03125,166207.0,1.0,4
232358.734375,246360.484375,241191.34375,236797.25,222473.1875,228794.53125,219860.171875,210288.625,166208.0,1.0,4
232339.515625,246369.171875,241191.25,236815.21875,222636.625,228808.921875,219917.390625,210313.921875,166209.0,1.0,4
232265.03125,246294.15625,241163.078125,236771.59375,222544.34375,228770.828125,219860.078125,210268.859375,166210.0,1.0,4
232280.140625,246283.0625,241157.28125,236751.5625,222404.515625,228752.0625,219804.65625,210236.578125,166211.0,1.0,4
232314.75,246299.78125,241164.96875,236759.4375,222325.21875,228757.859375,219784.984375,210236.140625,166212.0,1.0,4
232372.6875,246372.203125,241190.53125,236811.921875,222479.96875,228805.78125,219865.53125,210291.5625,166213.0,1.0,4
232351.3125,246376.234375,241188.65625,236822.375,222637.328125,228821.609375,219922.40625,210315.0,166214.0,1.0,4
232274.328125,246298.265625,241162.640625,236779.546875,222547.65625,228780.21875,219862.046875,210267.96875,166215.0,1.0,4
232293.640625,246296.65625,241165.859375,236765.25,222414.984375,228763.234375,219804.46875,210238.46875,166216.0,1.0,4
232323.15625,246311.59375,241170.0625,236764.53125,222331.375,228763.765625,219778.359375,210231.9375,166217.0,1.0,4
232362.671875,246365.671875,241186.875,236799.84375,222468.171875,228796.9375,219852.484375,210280.390625,166218.0,1.0,4
232337.359375,246364.6875,241185.609375,236809.140625,222623.203125,228808.828125,219910.15625,210308.375,166219.0,1.0,4
232267.0,246294.421875,241172.734375,236778.125,222546.578125,228785.140625,219870.1875,210281.90625,166220.0,1.0,4
232286.40625,246287.265625,241174.703125,236762.5625,222414.265625,228769.484375,219812.78125,210246.234375,166221.0,1.0,4
232326.546875,246312.921875,241176.3125,236766.40625,222337.1875,228771.359375,219788.640625,210237.75,166222.0,1.0,4
232370.0,246366.65625,241190.09375,236806.546875,222475.0625,228804.453125,219861.515625,210288.34375,166223.0,1.0,4
232350.0625,246369.078125,241184.8125,236821.03125,222635.1875,228809.1875,219917.65625,210310.25,166224.0,1.0,4
232277.46875,246299.0625,241158.890625,236778.390625,222548.28125,228773.953125,219862.671875,210264.84375,166225.0,1.0,4
232298.390625,246296.921875,241162.90625,236761.9375,222421.5,228759.5625,219805.09375,210232.5625,166226.0,1.0,4
232320.640625,246305.328125,241167.828125,236758.09375,222337.109375,228753.671875,219776.75,210221.828125,166227.0,1.0,4
232360.875,246364.25,241195.625,236799.9375,222477.109375,228791.75,219851.59375,210275.46875,166228.0,1.0,4
232351.3125,246382.3125,241207.4375,236821.484375,222648.328125,228812.140625,219917.84375,210312.578125,166229.0,1.0,4
232268.4375,246300.046875,241181.0625,236776.6875,222559.109375,228772.265625,219861.6875,210266.625,166230.0,1.0,4
232276.921875,246286.828125,241174.53125,236759.34375,222420.703125,228757.0625,219800.71875,210237.390625,166231.0,1.0,4
232320.375,246314.359375,241180.078125,236770.703125,222344.875,228767.96875,219784.53125,210244.0,166232.0,1.0,4
232374.375,246381.6875,241194.828125,236813.703125,222488.296875,228809.640625,219864.109375,210295.59375,166233.0,1.0,4
232351.84375,246378.1875,241183.375,236821.125,222644.9375,228813.65625,219913.8125,210316.6875,166234.0,1.0,4
232285.515625,246309.4375,241164.0625,236786.609375,222568.21875,228779.859375,219864.828125,210280.75,166235.0,1.0,4
232297.21875,246298.0,241160.21875,236763.71875,222426.953125,228756.609375,219804.46875,210245.34375,166236.0,1.0,4
232320.828125,246305.59375,241162.015625,236755.140625,222338.53125,228750.265625,219773.0,210230.953125,166237.0,1.0,4
232364.71875,246363.078125,241191.703125,236797.4375,222475.328125,228789.25,219849.09375,210283.171875,166238.0,1.0,4
232357.03125,246384.8125,241208.328125,236823.8125,222654.5,228817.6875,219925.984375,210322.234375,166239.0,1.0,4
232275.578125,246309.984375,241185.171875,236781.078125,222575.828125,228779.140625,219871.96875,210277.4375,166240.0,1.0,4
232274.875,246285.390625,241173.90625,236751.828125,222420.703125,228749.8125,219799.28125,210229.25,166241.0,1.0,4
232323.15625,246318.203125,241188.03125,236763.8125,222347.5625,228765.640625,219787.125,210233.015625,166242.0,1.0,4
232378.40625,246384.09375,241213.59375,236811.46875,222494.8125,228812.40625,219867.953125,210291.484375,166243.0,1.0,4
232347.375,246375.953125,241201.171875,236812.8125,222645.015625,228815.53125,219916.671875,210317.671875,166244.0,1.0,4
232271.828125,246301.578125,241176.5,236772.3125,222567.0625,228782.984375,219863.296875,210274.765625,166245.0,1.0,4
232285.6875,246288.34375,241179.359375,236754.25,222425.609375,228768.859375,219801.515625,210237.65625,166246.0,1.0,4
232323.5,246313.28125,241190.53125,236759.796875,222339.515625,228777.53125,219778.28125,210231.84375,166247.0,1.0,4
232355.78125,246364.78125,241201.34375,236790.453125,222461.015625,228809.546875,219839.4375,210269.3125,166248.0,1.0,4
232341.125,246376.046875,241208.234375,236809.765625,222631.4375,228829.84375,219902.1875,210304.4375,166249.0,1.0,4
232273.703125,246312.5625,241193.03125,236781.78125,222560.359375,228804.171875,219859.90625,210273.421875,166250.0,1.0,4
232280.046875,246300.5,241182.671875,236757.46875,222416.3125,228785.140625,219798.921875,210239.265625,166251.0,1.0,4
232308.03125,246315.609375,241183.296875,236755.140625,222332.1875,228792.109375,219778.015625,210237.921875,166252.0,1.0,4
232349.703125,246368.984375,241199.03125,236788.9375,222451.71875,228822.953125,219843.359375,210281.734375,166253.0,1.0,4
232343.53125,246384.09375,241208.765625,236812.8125,222622.9375,228849.6875,219910.15625,210323.484375,166254.0,1.0,4
232266.109375,246307.203125,241187.140625,236770.609375,222544.53125,228812.3125,219855.96875,210277.890625,166255.0,1.0,4
232279.078125,246297.375,241190.625,236751.75,222408.625,228795.15625,219796.875,210245.171875,166256.0,1.0,4
232309.5625,246308.1875,241196.34375,236748.265625,222313.40625,228793.09375,219767.1875,210231.3125,166257.0,1.0,4
232357.84375,246368.359375,241219.5,236790.71875,222448.328125,228829.484375,219845.6875,210280.390625,166258.0,1.0,4
232352.75,246389.453125,241225.046875,236814.59375,222631.796875,228848.796875,219916.5,210317.5,166259.0,1.0,4
232275.578125,246311.9375,241197.0625,236774.453125,222559.90625,228809.984375,219863.65625,210279.046875,166260.0,1.0,4
232287.46875,246300.59375,241192.234375,236756.65625,222422.84375,228788.984375,219801.875,210247.3125,166261.0,1.0,4
232324.9375,246322.859375,241198.140625,236760.5,222336.390625,228793.09375,219780.15625,210239.359375,166262.0,1.0,4
232367.5,246378.640625,241212.171875,236798.765625,222465.046875,228826.796875,219848.640625,210284.234375,166263.0,1.0,4
232354.703125,246394.5625,241212.078125,236814.515625,222644.484375,228842.359375,219914.078125,210313.203125,166264.0,1.0,4
232265.65625,246306.484375,241179.09375,236760.421875,222561.34375,228795.59375,219851.59375,210261.34375,166265.0,1.0,4
232274.78125,246290.578125,241179.984375,236742.359375,222423.65625,228776.546875,219793.828125,210233.71875,166266.0,1.0,4
232317.609375,246318.109375,241190.4375,236752.8125,222345.421875,228787.1875,219778.546875,210235.953125,166267.0,1.0,4
232364.453125,246380.25,241203.671875,236793.40625,222477.828125,228825.09375,219848.28125,210280.21875,166268.0,1.0,4
232361.234375,246405.828125,241207.34375,236820.140625,222662.1875,228849.78125,219920.25,210319.90625,166269.0,1.0,4
232288.640625,246337.515625,241185.703125,236785.359375,222595.125,228816.515625,219876.171875,210295.234375,166270.0,1.0,4
232296.953125,246321.875,241177.390625,236762.65625,222455.5625,228793.359375,219814.484375,210253.578125,166271.0,1.0,4
232325.46875,246335.640625,241173.546875,236761.125,222365.796875,228788.984375,219784.53125,210237.921875,166272.0,1.0,4
232371.34375,246391.515625,241192.859375,236800.203125,222490.703125,228822.234375,219853.734375,210287.640625,166273.0,1.0,4
232360.4375,246404.390625,241199.296875,236821.484375,222668.171875,228842.171875,219923.5625,210320.625,166274.0,1.0,4
232284.078125,246332.859375,241178.109375,236783.484375,222598.265625,228808.828125,219878.328125,210284.5,166275.0,1.0,4
232293.28125,246321.25,241178.90625,236763.8125,222458.421875,228787.640625,219819.21875,210250.171875,166276.0,1.0,4
232325.734375,246336.265625,241180.515625,236763.640625,222369.46875,228779.40625,219787.84375,210239.984375,166277.0,1.0,4
232377.15625,246393.390625,241201.984375,236806.28125,222490.53125,228812.9375,219853.203125,210288.703125,166278.0,1.0,4
232365.796875,246405.46875,241205.28125,236826.9375,222661.03125,228827.328125,219917.84375,210317.59375,166279.0,1.0,4
232285.953125,246330.8125,241182.578125,236788.578125,222586.375,228792.375,219873.140625,210279.046875,166280.0,1.0,4
232284.25,246308.1875,241174.0,236759.609375,222439.03125,228765.46875,219808.859375,210243.46875,166281.0,1.0,4
232327.984375,246335.546875,241189.90625,236769.625,222359.28125,228778.25,219789.984375,210243.921875,166282.0,1.0,4
232378.765625,246397.421875,241211.984375,236813.703125,222484.453125,228817.859375,219864.109375,210301.21875,166283.0,1.0,4
232355.15625,246399.828125,241202.421875,236820.59375,222643.859375,228824.109375,219917.578125,210317.765625,166284.0,1.0,4
232280.953125,246326.875,241177.296875,236781.515625,222574.03125,228792.109375,219872.0625,210278.0625,166285.0,1.0,4
232286.765625,246309.625,241168.1875,236753.359375,222432.59375,228766.1875,219805.09375,210235.875,166286.0,1.0,4
232311.703125,246319.546875,241169.703125,236747.09375,222328.609375,228762.25,219771.65625,210215.75,166287.0,1.0,4
232364.640625,246388.125,241195.546875,236798.234375,222459.59375,228812.046875,219852.484375,210276.734375,166288.0,1.0,4
232351.671875,246402.609375,241199.390625,236814.78125,222635.8125,228825.640625,219914.359375,210313.75,166289.0,1.0,4
232278.625,246333.046875,241175.78125,236773.921875,222568.3125,228791.390625,219862.5,210268.859375,166290.0,1.0,4
232291.953125,246320.890625,241175.78125,236757.375,222434.203125,228774.40625,219803.3125,210241.6875,166291.0,1.0,4
232321.546875,246333.046875,241177.125,236755.046875,222341.578125,228772.171875,219772.90625,210231.046875,166292.0,1.0,4
232375.0,246399.65625,241203.40625,236807.625,222478.71875,228823.40625,219856.59375,210286.46875,166293.0,1.0,4
232351.21875,246402.328125,241190.890625,236813.34375,222641.984375,228829.484375,219910.328125,210305.609375,166294.0,1.0,4
232288.09375,246343.328125,241184.28125,236790.640625,222588.15625,228807.3125,219875.109375,210280.484375,166295.0,1.0,4
232289.4375,246319.640625,241182.3125,236770.078125,222452.796875,228784.328125,219812.078125,210248.203125,166296.0,1.0,4
232313.578125,246324.375,241180.515625,236761.40625,222356.59375,228779.6875,219777.375,210232.828125,166297.0,1.0,4
232361.5,246382.046875,241201.625,236800.109375,222476.21875,228812.9375,219843.984375,210275.75,166298.0,1.0,4
232344.703125,246387.40625,241203.3125,236818.4375,222646.71875,228827.6875,219908.359375,210312.84375,166299.0,1.0,4
232260.75,246309.0,241168.890625,236771.5,222575.90625,228786.921875,219854.1875,210272.078125,166300.0,1.0,4
232273.703125,246300.140625,241167.203125,236753.171875,222446.8125,228771.09375,219796.875,210234.96875,166301.0,1.0,4
232318.671875,246327.671875,241180.515625,236763.453125,222370.71875,228781.109375,219779.796875,210236.765625,166302.0,1.0,4
232359.8125,246380.25,241197.5,236798.6875,222483.1875,228811.59375,219839.4375,210276.1875,166303.0,1.0,4
232343.09375,246385.796875,241199.75,236816.921875,222652.53125,228828.9375,219903.53125,210303.8125,166304.0,1.0,4
232268.875,246314.53125,241181.859375,236783.03125,222587.796875,228799.078125,219862.765625,210273.859375,166305.0,1.0,4
232279.078125,246300.046875,241172.921875,236757.375,222446.359375,228769.75,219797.140625,210238.8125,166306.0,1.0,4
232325.203125,246328.03125,241176.578125,236762.03125,222364.640625,228775.84375,219777.109375,210232.109375,166307.0,1.0,4
232371.515625,246385.796875,241193.484375,236803.59375,222481.9375,228813.296875,219848.375,210282.984375,166308.0,1.0,4
232351.765625,246391.15625,241184.453125,236813.96875,222644.21875,228820.90625,219909.171875,210310.078125,166309.0,1.0,4
232280.5,246323.75,241167.28125,236783.125,222582.890625,228794.53125,219872.6875,210277.53125,166310.0,1.0,4
232278.265625,246300.5,241164.515625,236756.65625,222435.90625,228765.109375,219804.03125,210239.09375,166311.0,1.0,4
232312.78125,246319.0,241174.265625,236757.828125,222349.796875,228764.21875,219776.3125,210227.015625,166312.0,1.0,4
232363.65625,246379.171875,241201.171875,236803.421875,222471.296875,228807.75,219846.3125,210274.9375,166313.0,1.0,4
232355.25,246392.765625,241202.953125,236819.78125,222643.40625,228827.6875,219913.734375,210310.53125,166314.0,1.0,4
232278.890625,246315.78125,241174.4375,236775.265625,222576.265625,228796.84375,219869.296875,210274.9375,166315.0,1.0,4
232281.3125,246292.90625,241161.75,236749.953125,222437.78125,228771.359375,219804.296875,210239.09375,166316.0,1.0,4
232312.78125,246303.8125,241155.671875,236745.9375,222345.59375,228763.953125,219767.1875,210225.234375,166317.0,1.0,4
232370.359375,246370.0625,241184.8125,236794.484375,222467.1875,228808.734375,219839.78125,210274.765625,166318.0,1.0,4
232358.28125,246379.796875,241190.09375,236814.59375,222638.40625,228826.171875,219903.71875,210305.15625,166319.0,1.0,4
232278.359375,246305.859375,241171.125,236778.03125,222574.296875,228794.171875,219859.28125,210269.671875,166320.0,1.0,4
232281.125,246291.921875,241167.640625,236751.5625,222438.21875,228772.265625,219800.625,210232.203125,166321.0,1.0,4
232320.640625,246318.296875,241181.5,236756.390625,222354.53125,228779.59375,219778.453125,210228.8125,166322.0,1.0,4
232363.65625,246372.734375,241200.015625,236795.828125,222466.390625,228814.28125,219840.234375,210276.640625,166323.0,1.0,4
232343.09375,246377.125,241191.34375,236808.15625,222628.578125,228824.03125,219901.921875,210304.0,166324.0,1.0,4
232271.5625,246313.46875,241170.859375,236775.890625,222566.796875,228797.5625,219866.15625,210271.359375,166325.0,1.0,4
232278.53125,246299.609375,241162.734375,236756.390625,222433.75,228775.125,219807.421875,210236.859375,166326.0,1.0,4
232316.53125,246320.53125,241166.296875,236758.0,222345.859375,228772.625,219778.90625,210226.65625,166327.0,1.0,4
232362.75,246376.3125,241191.25,236796.8125,222454.9375,228804.625,219843.640625,210271.1875,166328.0,1.0,4
232339.6875,246377.5625,241189.546875,236804.234375,222612.125,228813.125,219898.4375,210295.859375,166329.0,1.0,4
232261.8125,246303.625,241166.03125,236764.796875,222543.8125,228779.40625,219852.3125,210258.21875,166330.0,1.0,4
232269.0625,246287.53125,241161.65625,236746.5625,222410.6875,228761.359375,219795.265625,210230.953125,166331.0,1.0,4
232312.0625,246312.921875,241166.9375,236752.28125,222329.6875,228766.1875,219773.890625,210227.015625,166332.0,1.0,4
232360.703125,246371.671875,241184.625,236793.140625,222445.5625,228803.90625,219841.3125,210277.984375,166333.0,1.0,4
232359.453125,246395.625,241196.53125,236825.328125,222633.125,228835.296875,219919.359375,210320.453125,166334.0,1.0,4
232268.15625,246308.90625,241163.265625,236775.53125,222554.1875,228790.5,219861.0625,210267.34375,166335.0,1.0,4
232275.40625,246296.203125,241162.546875,236754.25,222423.203125,228764.21875,219803.84375,210237.125,166336.0,1.0,4
232323.0625,246324.546875,241185.4375,236767.390625,222351.953125,228777.53125,219791.953125,210241.765625,166337.0,1.0,4
232358.640625,246370.953125,241201.796875,236797.34375,222453.421875,228804.8125,219847.390625,210277.078125,166338.0,1.0,4
232350.234375,246386.421875,241208.5,236820.40625,222630.625,228825.1875,219916.859375,210320.53125,166339.0,1.0,4
232258.15625,246300.234375,241172.828125,236774.640625,222559.734375,228782.90625,219861.25,210281.28125,166340.0,1.0,4
232252.0625,246275.015625,241151.46875,236739.140625,222414.984375,228748.484375,219790.4375,210224.78125,166341.0,1.0,4
232302.5,246307.109375,241162.734375,236751.296875,222343.09375,228762.25,219774.703125,210220.578125,166342.0,1.0,4
232359.453125,246374.265625,241187.5,236798.140625,222465.84375,228808.375,219848.109375,210277.4375,166343.0,1.0,4
232352.109375,246392.59375,241196.34375,236817.90625,222639.5625,228832.4375,219918.5625,210314.1875,166344.0,1.0,4
232270.484375,246315.4375,241178.546875,236777.5,222574.484375,228799.4375,219874.484375,210277.890625,166345.0,1.0,4
232273.796875,246296.390625,241172.828125,236751.5625,222438.40625,228771.90625,219810.46875,210244.453125,166346.0,1.0,4
232315.015625,246319.640625,241181.859375,236758.0,222358.203125,228774.671875,219786.953125,210241.765625,166347.0,1.0,4
232356.5,246370.59375,241199.75,236795.203125,222457.625,228808.03125,219845.0625,210277.4375,166348.0,1.0,4
232342.015625,246382.21875,241198.046875,236812.265625,222622.40625,228823.578125,219910.78125,210310.078125,166349.0,1.0,4
232267.984375,246313.90625,241174.34375,236777.046875,222557.40625,228792.28125,219872.328125,210283.96875,166350.0,1.0,4
232281.484375,246304.703125,241175.609375,236764.078125,222436.53125,228780.21875,219825.03125,210247.765625,166351.0,1.0,4
232315.90625,246317.9375,241177.296875,236761.125,222353.375,228779.765625,219795.359375,210231.40625,166352.0,1.0,4
232359.0,246371.75,241193.484375,236791.265625,222454.671875,228811.421875,219844.4375,210269.578125,166353.0,1.0,4
232346.75,246384.0,241196.078125,236806.8125,222624.8125,228831.1875,219904.78125,210302.390625,166354.0,1.0,4
232262.625,246306.125,241177.65625,236768.46875,222557.765625,228794.609375,219863.65625,210267.515625,166355.0,1.0,4
232272.09375,246293.703125,241179.171875,236749.875,222426.78125,228770.109375,219809.5625,210239.171875,166356.0,1.0,4
232312.953125,246316.0625,241182.75,236753.53125,222345.953125,228773.0625,219787.21875,210232.828125,166357.0,1.0,4
232362.125,246370.859375,241201.34375,236795.546875,222455.390625,228812.3125,219850.78125,210276.734375,166358.0,1.0,4
232335.125,246370.140625,241183.65625,236798.5,222611.21875,228807.390625,219897.28125,210291.484375,166359.0,1.0,4
232259.765625,246302.46875,241164.78125,236766.859375,222546.765625,228776.734375,219856.59375,210262.515625,166360.0,1.0,4
232272.984375,246295.140625,241165.953125,236757.640625,222428.296875,228764.65625,219810.90625,210238.375,166361.0,1.0,4
232322.171875,246325.53125,241182.578125,236770.34375,222361.0625,228780.9375,219797.59375,210238.1875,166362.0,1.0,4
232370.625,246384.1875,241204.390625,236805.484375,222465.046875,228813.390625,219854.09375,210285.046875,166363.0,1.0,4
232357.03125,246396.34375,241207.15625,236820.5,222623.828125,228827.609375,219914.0,210317.9375,166364.0,1.0,4
232278.984375,246320.53125,241180.609375,236783.03125,222558.203125,228793.0,219870.1875,210283.515625,166365.0,1.0,4
232282.46875,246300.859375,241169.4375,236762.5625,222433.484375,228769.484375,219812.078125,210248.296875,166366.0,1.0,4
232325.734375,246326.78125,241177.484375,236766.9375,222357.21875,228774.40625,219786.59375,210235.6875,166367.0,1.0,4
232376.078125,246388.296875,241199.65625,236806.734375,222470.5,228816.78125,219857.9375,210284.234375,166368.0,1.0,4
232359.265625,246394.46875,241202.78125,236823.0,222637.421875,228835.65625,219924.90625,210318.390625,166369.0,1.0,4
232272.453125,246313.28125,241177.5625,236777.765625,222562.765625,228793.1875,219869.5625,210275.5625,166370.0,1.0,4
232279.875,246300.765625,241174.34375,236759.796875,222438.9375,228772.0,219812.25,210245.796875,166371.0,1.0,4
232325.203125,246327.40625,241183.296875,236763.8125,222365.984375,228777.53125,219789.71875,210236.578125,166372.0,1.0,4
232365.265625,246372.65625,241196.4375,236792.515625,222461.828125,228808.828125,219840.859375,210268.0625,166373.0,1.0,4
232346.484375,246379.171875,241195.8125,236808.421875,222624.453125,228820.546875,219905.0625,210302.75,166374.0,1.0,4
232273.53125,246312.921875,241175.6875,236777.765625,222568.046875,228791.75,219868.484375,210278.15625,166375.0,1.0,4
232280.765625,246299.34375,241170.328125,236758.71875,222443.3125,228772.625,219813.859375,210248.828125,166376.0,1.0,4
232323.234375,246323.125,241172.65625,236758.546875,222367.953125,228777.890625,219788.5625,210239.53125,166377.0,1.0,4
232352.03125,246359.515625,241177.125,236781.078125,222449.75,228800.875,219828.609375,210264.5625,166378.0,1.0,4
232348.8125,246378.46875,241194.46875,236813.96875,222620.4375,228826.265625,219909.796875,210315.078125,166379.0,1.0,4
232273.4375,246311.234375,241178.734375,236784.828125,222567.859375,228805.078125,219878.234375,210287.09375,166380.0,1.0,4
232275.40625,246293.078125,241165.40625,236758.359375,222435.1875,228777.359375,219812.609375,210240.34375,166381.0,1.0,4
232308.75,246308.71875,241159.953125,236750.9375,222354.09375,228767.515625,219778.8125,210222.1875,166382.0,1.0,4
232354.359375,246363.53125,241182.84375,236791.265625,222455.921875,228808.65625,219842.03125,210266.53125,166383.0,1.0,4
232343.359375,246376.40625,241189.546875,236811.46875,222619.625,228827.6875,219908.453125,210304.265625,166384.0,1.0,4
232249.65625,246285.65625,241159.328125,236765.78125,222543.453125,228780.046875,219849.625,210262.78125,166385.0,1.0,4
232270.21875,246285.65625,241162.640625,236753.984375,222435.8125,228768.234375,219803.21875,210245.25,166386.0,1.0,4
232315.109375,246312.296875,241172.03125,236758.71875,222367.234375,228771.546875,219781.5,210241.328125,166387.0,1.0,4
232359.453125,246364.78125,241192.765625,236796.0,222467.453125,228809.90625,219842.828125,210280.84375,166388.0,1.0,4
232345.328125,246373.71875,241195.8125,236813.078125,222627.671875,228824.109375,219904.875,210314.015625,166389.0,1.0,4
232264.046875,246298.4375,241172.828125,236773.46875,222560.625,228791.65625,219861.15625,210277.796875,166390.0,1.0,4
232263.515625,246277.609375,241166.03125,236750.3125,222429.8125,228767.171875,219805.8125,210244.09375,166391.0,1.0,4
232314.46875,246309.890625,241175.6875,236758.984375,222363.484375,228766.625,219783.8125,210236.5,166392.0,1.0,4
232368.65625,246371.046875,241194.828125,236797.078125,222464.234375,228803.203125,219843.546875,210272.171875,166393.0,1.0,4
232353.015625,246381.59375,241193.125,236811.375,222623.75,228818.75,219905.5,210301.578125,166394.0,1.0,4
232266.640625,246303.1875,241173.015625,236774.0,222557.140625,228786.296875,219864.015625,210272.4375,166395.0,1.0,4
232267.265625,246287.453125,241167.46875,236751.828125,222432.6875,228763.59375,219805.28125,210239.265625,166396.0,1.0,4
232314.5625,246318.296875,241175.515625,236759.4375,222371.171875,228770.390625,219789.09375,210241.59375,166397.0,1.0,4
232353.375,246363.703125,241184.984375,236785.546875,222453.875,228792.828125,219834.78125,210268.140625,166398.0,1.0,4
232345.234375,246381.765625,241189.546875,236805.921875,222616.140625,228813.296875,219900.578125,210297.109375,166399.0,1.0,4
232264.140625,246306.40625,241175.609375,236778.296875,222554.625,228790.765625,219868.125,210280.21875,166400.0,1.0,4
232279.515625,246303.0,241176.046875,236769.265625,222441.703125,228780.578125,219827.984375,210258.84375,166401.0,1.0,4
232310.625,246316.59375,241166.65625,236757.46875,222361.15625,228765.828125,219784.796875,210229.609375,166402.0,1.0,4
232354.796875,246367.90625,241186.234375,236791.359375,222456.734375,228801.046875,219832.453125,210262.6875,166403.0,1.0,4
232345.953125,246380.34375,241193.3125,236811.5625,222613.734375,228819.828125,219895.9375,210294.875,166404.0,1.0,4
232264.765625,246306.484375,241174.0,236776.78125,222546.578125,228789.609375,219860.984375,210271.71875,166405.0,1.0,4
232271.109375,246293.609375,241174.0,236760.6875,222427.671875,228774.140625,219812.78125,210249.546875,166406.0,1.0,4
232321.1875,246319.71875,241183.296875,236763.90625,222369.5625,228770.921875,219784.09375,210232.5625,166407.0,1.0,4
232365.34375,246369.796875,241201.890625,236797.34375,222462.71875,228802.296875,219837.828125,210263.671875,166408.0,1.0,4
232353.90625,246386.0625,241204.484375,236812.359375,222615.609375,228823.484375,219901.484375,210298.09375,166409.0,1.0,4
232269.6875,246311.671875,241182.3125,236780.4375,222549.796875,228798.71875,219867.0625,210272.96875,166410.0,1.0,4
232268.34375,246286.015625,241168.625,236755.59375,222425.171875,228765.5625,219802.78125,210234.796875,166411.0,1.0,4
232309.109375,246305.6875,241164.96875,236750.671875,222354.09375,228757.859375,219770.5,210217.984375,166412.0,1.0,4
232359.1875,246359.78125,241185.890625,236789.5625,222457.890625,228797.03125,219833.4375,210264.03125,166413.0,1.0,4
232343.359375,246367.203125,241184.28125,236800.5625,222610.59375,228806.234375,219888.0625,210287.546875,166414.0,1.0,4
232256.265625,246292.453125,241165.59375,236763.90625,222541.125,228773.609375,219845.328125,210253.578125,166415.0,1.0,4
232278.09375,246296.484375,241181.765625,236763.8125,222437.953125,228774.5,219817.34375,210245.53125,166416.0,1.0,4
232327.53125,246326.96875,241187.21875,236769.8125,222380.734375,228779.234375,219800.265625,210241.953125,166417.0,1.0,4
232369.734375,246377.125,241202.25,236802.34375,222472.640625,228808.375,219850.0625,210277.4375,166418.0,1.0,4
232355.6875,246385.96875,241198.046875,236816.390625,222623.828125,228821.609375,219906.84375,210305.96875,166419.0,1.0,4
232269.0625,246305.78125,241172.5625,236777.765625,222551.40625,228783.078125,219861.0625,210271.453125,166420.0,1.0,4
232279.703125,246295.765625,241178.546875,236769.0,222436.078125,228769.84375,219814.578125,210248.390625,166421.0,1.0,4
232326.1875,246323.390625,241183.015625,236770.96875,222377.78125,228770.203125,219796.15625,210238.546875,166422.0,1.0,4
232369.015625,246373.8125,241198.484375,236800.03125,222464.0625,228799.53125,219846.3125,210274.5,166423.0,1.0,4
232372.140625,246401.34375,241214.140625,236830.6875,222627.9375,228829.578125,219919.625,210324.46875,166424.0,1.0,4
232279.703125,246318.203125,241186.515625,236790.90625,222555.703125,228788.09375,219868.9375,210283.96875,166425.0,1.0,4
232274.328125,246294.328125,241177.21875,236764.984375,222431.515625,228763.328125,219813.328125,210254.109375,166426.0,1.0,4
232321.1875,246322.578125,241179.171875,236764.34375,222366.609375,228765.5625,219787.390625,210235.421875,166427.0,1.0,4
232366.421875,246374.0,241197.59375,236797.875,222452.96875,228798.71875,219835.140625,210258.75,166428.0,1.0,4
232353.1875,246384.984375,241199.390625,236811.203125,222603.0,228810.171875,219890.484375,210286.203125,166429.0,1.0,4
232266.734375,246307.203125,241179.890625,236778.296875,222541.40625,228783.796875,219856.78125,210262.328125,166430.0,1.0,4
232277.28125,246296.5625,241181.40625,236766.5,222431.25,228773.328125,219817.078125,210252.59375,166431.0,1.0,4
232332.8125,246332.859375,241191.15625,236774.359375,222377.875,228782.8125,219800.53125,210252.671875,166432.0,1.0,4
232363.03125,246369.796875,241192.671875,236792.328125,222451.8125,228800.25,219835.234375,210266.53125,166433.0,1.0,4
232345.765625,246373.71875,241188.828125,236805.296875,222603.984375,228809.984375,219890.21875,210286.109375,166434.0,1.0,4
232261.8125,246296.03125,241167.734375,236770.703125,222537.375,228777.625,219854.359375,210254.46875,166435.0,1.0,4
232275.140625,246288.609375,241170.234375,236759.875,222419.890625,228758.578125,219805.546875,210230.140625,166436.0,1.0,4
232317.515625,246310.421875,241170.15625,236756.03125,222358.296875,228755.0,219778.8125,210220.671875,166437.0,1.0,4
232366.515625,246366.125,241194.203125,236792.96875,222454.40625,228795.6875,219837.640625,210266.53125,166438.0,1.0,4
232355.25,246378.640625,241199.828125,236812.625,222606.3125,228814.1875,219898.625,210299.703125,166439.0,1.0,4
232254.9375,246286.828125,241167.734375,236766.765625,222523.875,228768.140625,219846.21875,210257.78125,166440.0,1.0,4
232257.796875,246270.453125,241162.734375,236750.046875,222403.796875,228747.234375,219796.875,210229.25,166441.0,1.0,4
232325.734375,246318.921875,241178.375,236769.984375,222370.1875,228763.046875,219795.0,210238.46875,166442.0,1.0,4
232374.015625,246370.140625,241198.40625,236804.9375,222461.296875,228796.40625,219850.875,210280.296875,166443.0,1.0,4
232368.390625,246387.40625,241202.0625,236822.828125,222612.484375,228817.765625,219908.0,210308.828125,166444.0,1.0,4
232273.4375,246303.546875,241175.6875,236779.46875,222540.5,228779.765625,219857.40625,210264.390625,166445.0,1.0,4
232270.484375,246279.40625,241174.0,236761.125,222420.515625,228755.453125,219803.125,210239.796875,166446.0,1.0,4
232336.5625,246325.71875,241192.765625,236778.5625,222379.484375,228772.53125,219796.25,210246.15625,166447.0,1.0,4
232374.296875,246368.265625,241204.03125,236800.375,222455.921875,228803.640625,219840.328125,210268.0625,166448.0,1.0,4
232360.96875,246382.21875,241204.125,236814.234375,222604.703125,228815.890625,219897.015625,210298.71875,166449.0,1.0,4
232265.390625,246295.578125,241179.171875,236774.984375,222533.625,228780.9375,219852.484375,210264.484375,166450.0,1.0,4
232286.3125,246298.53125,241187.3125,236771.234375,222428.828125,228772.4375,219809.5625,210245.078125,166451.0,1.0,4
232350.0625,246341.359375,241196.875,236781.078125,222388.421875,228778.609375,219797.765625,210244.984375,166452.0,1.0,4
232377.78125,246371.9375,241200.015625,236798.0625,222461.921875,228795.78125,219832.375,210258.75,166453.0,1.0,4
232366.15625,246382.84375,241204.03125,236815.765625,222605.859375,228814.015625,219889.859375,210287.8125,166454.0,1.0,4
232270.75,246300.234375,241175.609375,236772.484375,222530.046875,228778.515625,219846.9375,210254.375,166455.0,1.0,4
232278.265625,246291.5625,241177.84375,236761.3125,222417.21875,228771.8125,219811.0,210239.453125,166456.0,1.0,4
232340.3125,246334.921875,241187.21875,236774.1875,222374.921875,228786.03125,219806.4375,210248.46875,166457.0,1.0,4
232379.921875,246380.34375,241193.03125,236798.765625,222455.390625,228808.203125,219846.3125,210280.9375,166458.0,1.0,4
232361.765625,246386.59375,241184.8125,236809.328125,222599.78125,228811.328125,219893.875,210296.125,166459.0,1.0,4
232273.53125,246305.15625,241165.328125,236772.390625,222528.796875,228781.65625,219853.46875,210259.65625,166460.0,1.0,4
232276.75,246289.5,241165.59375,236754.34375,222413.546875,228764.296875,219804.296875,210235.328125,166461.0,1.0,4
232335.75,246329.734375,241181.859375,236770.4375,222375.109375,228778.609375,219795.703125,210242.84375,166462.0,1.0,4
232370.53125,246373.28125,241196.171875,236799.125,222453.328125,228807.578125,219842.296875,210274.40625,166463.0,1.0,4
232358.734375,246385.4375,241196.875,236811.828125,222595.125,228822.421875,219899.421875,210296.046875,166464.0,1.0,4
232264.40625,246297.8125,241166.9375,236768.109375,222518.25,228778.703125,219846.046875,210258.75,166465.0,1.0,4
232268.15625,246280.65625,241164.421875,236751.921875,222401.5625,228763.234375,219795.078125,210237.03125,166466.0,1.0,4
232339.234375,246335.375,241180.25,236771.859375,222372.859375,228784.328125,219794.1875,210247.3125,166467.0,1.0,4
232387.078125,246390.078125,241201.078125,236809.953125,222471.84375,228819.828125,219847.125,210284.421875,166468.0,1.0,4
232379.125,246403.140625,241211.8125,236828.71875,222623.5625,228839.9375,219910.6875,210310.171875,166469.0,1.0,4
232280.046875,246313.546875,241182.484375,236779.28125,222539.515625,228798.375,219860.625,210266.625,166470.0,1.0,4
232275.234375,246292.8125,241177.125,236760.59375,222421.421875,228780.578125,219810.28125,210239.890625,166471.0,1.0,4
232334.6875,246336.4375,241189.453125,236774.1875,222384.84375,228791.84375,219800.71875,210241.953125,166472.0,1.0,4
232376.078125,246383.65625,241198.40625,236800.46875,222465.84375,228814.640625,219849.625,210278.421875,166473.0,1.0,4
