EEG 1,EEG 2,EEG 3,EEG 4,EEG 5,EEG 6,EEG 7,EEG 8,Accelerometer X,Accelerometer Y,Accelerometer Z,Gyroscope X,Gyroscope Y,Gyroscope Z,Battery Level,Counter,Validation Indicator
-1.897,0.360,2.088,4.207,5.930,7.158,6.928,12.831,-0.045,0.929,-0.431,-1.587,-1.587,0.519,60.000,14649.000,1.000
0.943,3.486,4.687,7.369,8.320,10.021,9.509,15.116,-0.045,0.929,-0.432,-1.617,-1.587,0.458,60.000,14650.000,1.000
4.662,6.993,7.570,10.201,10.471,12.650,10.900,15.940,-0.045,0.929,-0.427,-1.617,-1.648,0.336,60.000,14651.000,1.000
7.498,9.578,10.020,11.639,11.644,14.757,11.576,14.634,-0.045,0.928,-0.426,-1.648,-1.801,0.305,60.000,14652.000,1.000
8.352,10.614,11.544,11.449,11.760,16.199,12.199,11.804,-0.046,0.928,-0.424,-1.709,-1.862,0.305,60.000,14653.000,1.000
7.200,10.317,12.114,10.206,11.345,17.030,13.060,9.037,-0.046,0.930,-0.425,-1.770,-1.862,0.214,60.000,14654.000,1.000
5.309,9.575,11.989,8.794,10.985,17.315,14.111,7.667,-0.045,0.928,-0.425,-1.648,-1.831,0.214,60.000,14655.000,1.000
3.284,8.593,10.957,7.387,10.367,16.431,14.364,7.607,-0.045,0.927,-0.426,-1.617,-1.862,0.244,60.000,14656.000,1.000
1.069,7.031,8.908,5.873,8.971,13.818,13.082,8.060,-0.044,0.928,-0.428,-1.617,-1.953,0.244,60.000,14657.000,1.000
-1.379,4.628,6.370,4.360,6.881,9.801,10.718,8.466,-0.042,0.925,-0.429,-1.495,-1.831,0.214,60.000,14658.000,1.000
-4.330,1.086,4.053,2.948,4.461,5.183,8.102,8.457,-0.043,0.924,-0.429,-1.404,-1.801,0.214,60.000,14659.000,1.000
-7.731,-3.693,2.356,1.652,1.963,0.567,5.757,7.572,-0.045,0.924,-0.427,-1.434,-1.770,0.092,60.000,14660.000,1.000
-12.010,-9.963,0.777,-0.050,-1.065,-4.214,3.223,4.905,-0.043,0.924,-0.429,-1.282,-1.740,0.061,60.000,14661.000,1.000
-17.137,-17.336,-1.321,-2.573,-4.985,-9.267,0.063,-0.096,-0.042,0.923,-0.428,-1.190,-1.648,0.153,60.000,14662.000,1.000
-21.927,-24.298,-3.959,-5.682,-9.356,-14.106,-3.654,-6.646,-0.042,0.923,-0.434,-1.129,-1.617,0.305,60.000,14663.000,1.000
-24.910,-28.900,-6.526,-8.660,-13.120,-17.964,-7.694,-12.600,-0.043,0.922,-0.430,-1.007,-1.526,0.305,60.000,14664.000,1.000
-24.606,-29.393,-7.921,-10.388,-14.876,-19.893,-11.164,-15.488,-0.041,0.921,-0.433,-1.038,-1.495,0.366,60.000,14665.000,1.000
-21.152,-25.700,-7.535,-10.243,-13.998,-19.383,-13.249,-14.375,-0.042,0.925,-0.431,-0.824,-1.373,0.305,60.000,14666.000,1.000
-15.731,-19.158,-5.463,-8.203,-10.854,-16.474,-13.367,-10.327,-0.044,0.927,-0.431,-0.824,-1.251,0.458,60.000,14667.000,1.000
-9.575,-11.587,-2.505,-4.874,-6.604,-11.918,-11.379,-5.547,-0.040,0.930,-0.430,-0.732,-1.160,0.458,60.000,14668.000,1.000
-4.113,-4.907,-0.001,-1.528,-2.856,-7.167,-8.066,-1.960,-0.041,0.933,-0.429,-0.854,-1.099,0.427,60.000,14669.000,1.000
-0.010,-0.182,1.113,0.740,-0.553,-3.453,-4.413,-0.168,-0.043,0.934,-0.426,-0.916,-0.885,0.427,60.000,14670.000,1.000
2.298,2.210,0.525,1.248,0.078,-1.506,-1.621,0.037,-0.044,0.935,-0.430,-0.946,-0.854,0.488,60.000,14671.000,1.000
2.966,2.540,-1.236,0.158,-0.473,-1.312,-0.288,-0.796,-0.042,0.934,-0.428,-0.977,-0.885,0.427,60.000,14672.000,1.000
2.800,1.563,-3.166,-1.621,-1.230,-2.244,0.168,-1.940,-0.042,0.930,-0.428,-1.129,-0.793,0.397,60.000,14673.000,1.000
2.436,0.113,-4.484,-3.144,-1.372,-3.593,0.643,-2.692,-0.041,0.927,-0.428,-1.160,-0.702,0.549,60.000,14674.000,1.000
2.552,-0.852,-4.747,-3.688,-0.491,-4.749,1.546,-2.561,-0.039,0.924,-0.428,-1.190,-0.427,0.458,60.000,14675.000,1.000
2.782,-1.171,-4.213,-3.282,0.949,-5.593,2.103,-1.773,-0.037,0.921,-0.429,-1.129,-0.305,0.336,60.000,14676.000,1.000
2.518,-1.177,-3.427,-2.267,2.276,-6.143,1.582,-0.902,-0.037,0.921,-0.427,-1.068,-0.183,0.488,60.000,14677.000,1.000
1.679,-1.125,-2.983,-1.076,3.112,-6.498,-0.125,-0.519,-0.038,0.921,-0.429,-0.885,-0.061,0.580,60.000,14678.000,1.000
0.145,-1.278,-3.467,-0.319,3.282,-6.876,-2.882,-1.003,-0.038,0.924,-0.431,-0.854,0.000,0.641,60.000,14679.000,1.000
-1.679,-1.431,-4.760,-0.069,3.272,-6.952,-5.686,-1.887,-0.035,0.927,-0.432,-0.854,0.153,0.671,60.000,14680.000,1.000
-3.624,-1.437,-6.256,-0.062,3.717,-6.201,-7.337,-2.180,-0.033,0.930,-0.429,-0.885,0.275,0.763,60.000,14681.000,1.000
-5.373,-1.283,-7.246,0.001,4.885,-4.419,-7.004,-1.306,-0.031,0.934,-0.432,-0.885,0.397,0.916,60.000,14682.000,1.000
-6.400,-1.223,-7.472,0.043,6.322,-2.061,-4.722,0.135,-0.033,0.939,-0.436,-0.977,0.671,0.916,60.000,14683.000,1.000
-6.584,-1.820,-7.210,-0.322,7.162,0.115,-1.363,0.868,-0.037,0.940,-0.430,-1.221,0.824,0.977,60.000,14684.000,1.000
-5.436,-2.995,-6.562,-0.998,7.184,1.890,2.539,0.334,-0.042,0.939,-0.430,-1.373,0.916,0.977,60.000,14685.000,1.000
-3.111,-4.507,-5.758,-1.896,6.314,3.049,6.128,-1.214,-0.047,0.939,-0.428,-1.373,0.885,0.977,60.000,14686.000,1.000
-0.097,-5.913,-5.028,-2.991,4.411,3.241,8.208,-2.995,-0.053,0.937,-0.428,-1.526,0.824,0.946,60.000,14687.000,1.000
3.433,-6.350,-4.257,-4.054,1.645,2.478,8.174,-4.040,-0.056,0.937,-0.428,-1.587,0.671,0.793,60.000,14688.000,1.000
7.117,-5.200,-3.113,-4.764,-1.383,1.310,6.481,-3.693,-0.059,0.935,-0.430,-1.648,0.397,0.671,60.000,14689.000,1.000
10.744,-2.360,-1.353,-4.787,-3.726,0.508,4.481,-1.999,-0.059,0.932,-0.429,-1.648,0.183,0.488,60.000,14690.000,1.000
13.243,1.026,0.350,-4.484,-5.150,-0.009,2.669,-0.149,-0.056,0.932,-0.429,-1.617,-0.031,0.488,60.000,14691.000,1.000
13.440,3.341,0.905,-4.487,-6.028,-0.900,0.736,0.366,-0.056,0.929,-0.429,-1.587,-0.336,0.244,60.000,14692.000,1.000
11.056,3.598,-0.369,-5.138,-6.707,-2.539,-1.564,-1.215,-0.055,0.925,-0.430,-1.648,-0.641,0.397,60.000,14693.000,1.000
6.478,1.749,-3.467,-6.502,-7.380,-4.712,-4.293,-4.734,-0.052,0.926,-0.428,-1.587,-0.885,0.366,60.000,14694.000,1.000
1.156,-0.981,-7.486,-8.139,-7.772,-6.576,-6.896,-9.127,-0.051,0.929,-0.429,-1.587,-1.007,0.305,60.000,14695.000,1.000
-3.805,-3.243,-11.335,-9.646,-7.663,-7.381,-8.813,-12.926,-0.049,0.929,-0.427,-1.709,-1.129,0.183,60.000,14696.000,1.000
-7.629,-3.973,-13.982,-10.568,-6.903,-6.538,-9.413,-14.639,-0.048,0.927,-0.428,-1.678,-1.160,0.122,60.000,14697.000,1.000
-9.785,-2.664,-14.825,-10.480,-5.519,-3.810,-8.197,-13.575,-0.045,0.927,-0.429,-1.617,-1.373,0.183,60.000,14698.000,1.000
-10.811,-0.114,-14.208,-9.439,-4.075,0.223,-5.412,-10.493,-0.044,0.926,-0.427,-1.556,-1.312,0.214,60.000,14699.000,1.000
-11.245,2.262,-12.946,-7.632,-3.102,4.552,-1.601,-6.909,-0.041,0.927,-0.427,-1.556,-1.404,0.244,60.000,14700.000,1.000
-11.452,3.188,-11.904,-5.398,-2.918,7.994,2.060,-4.149,-0.040,0.926,-0.425,-1.434,-1.343,0.397,60.000,14701.000,1.000
-10.843,2.690,-11.195,-2.851,-3.224,9.886,4.515,-2.491,-0.040,0.926,-0.425,-1.373,-1.404,0.580,60.000,14702.000,1.000
-8.379,1.901,-10.213,-0.044,-3.363,10.285,5.584,-1.518,-0.041,0.926,-0.425,-1.465,-1.312,0.610,60.000,14703.000,1.000
-4.103,1.776,-8.412,2.552,-2.999,9.563,5.692,-1.066,-0.038,0.927,-0.427,-1.404,-1.343,0.702,60.000,14704.000,1.000
1.555,3.003,-5.584,4.512,-1.942,8.390,5.761,-1.185,-0.037,0.927,-0.428,-1.343,-1.251,0.763,60.000,14705.000,1.000
7.471,5.435,-2.276,5.530,-0.460,7.240,6.009,-1.768,-0.040,0.928,-0.427,-1.282,-1.221,0.732,60.000,14706.000,1.000
12.573,8.448,0.809,5.868,1.061,6.510,6.228,-2.008,-0.039,0.925,-0.426,-1.251,-1.068,0.854,60.000,14707.000,1.000
16.216,11.309,3.227,6.113,2.333,6.396,6.469,-1.060,-0.039,0.926,-0.429,-1.282,-1.007,0.854,60.000,14708.000,1.000
17.503,12.937,4.567,6.312,2.792,6.266,6.470,0.796,-0.040,0.928,-0.426,-1.343,-0.977,1.007,60.000,14709.000,1.000
16.379,12.754,4.747,6.202,2.033,5.036,5.561,2.576,-0.039,0.928,-0.427,-1.404,-0.824,0.946,60.000,14710.000,1.000
13.394,10.802,3.915,5.420,0.072,2.026,2.811,3.444,-0.039,0.928,-0.428,-1.373,-0.702,0.885,60.000,14711.000,1.000
9.911,7.943,2.715,4.194,-2.180,-1.982,-1.342,3.312,-0.037,0.927,-0.425,-1.404,-0.610,0.977,60.000,14712.000,1.000
7.545,5.371,1.958,3.282,-3.418,-5.396,-5.045,2.602,-0.039,0.928,-0.423,-1.282,-0.488,0.885,60.000,14713.000,1.000
6.752,3.561,1.832,3.111,-3.206,-7.437,-7.098,1.737,-0.038,0.926,-0.428,-1.251,-0.458,0.854,60.000,14714.000,1.000
7.599,2.634,2.112,3.682,-1.955,-8.243,-7.497,1.129,-0.036,0.926,-0.429,-1.221,-0.336,0.824,60.000,14715.000,1.000
9.518,2.340,2.408,4.425,-0.597,-8.342,-7.121,0.907,-0.035,0.926,-0.430,-1.099,-0.031,0.854,60.000,14716.000,1.000
11.803,2.425,2.858,4.914,0.371,-7.796,-6.389,1.210,-0.034,0.927,-0.429,-1.068,0.000,0.824,60.000,14717.000,1.000
13.642,2.544,3.743,5.077,0.944,-6.487,-5.336,2.217,-0.036,0.929,-0.429,-0.916,0.000,0.824,60.000,14718.000,1.000
13.556,1.883,4.434,4.592,0.798,-4.968,-4.643,3.689,-0.034,0.927,-0.427,-0.916,0.122,0.702,60.000,14719.000,1.000
10.978,0.191,3.907,3.219,-0.323,-3.930,-4.570,5.168,-0.036,0.928,-0.430,-0.916,0.305,0.580,60.000,14720.000,1.000
6.233,-2.241,1.533,0.905,-2.340,-3.765,-4.454,6.141,-0.038,0.927,-0.427,-0.977,0.366,0.610,60.000,14721.000,1.000
0.560,-4.733,-2.322,-1.884,-4.659,-4.351,-3.198,6.280,-0.039,0.928,-0.431,-0.916,0.397,0.519,60.000,14722.000,1.000
-4.610,-6.728,-6.769,-4.465,-6.719,-5.492,-1.005,5.197,-0.040,0.928,-0.428,-0.885,0.488,0.458,60.000,14723.000,1.000
-8.923,-8.471,-11.031,-6.501,-8.624,-7.189,0.041,2.217,-0.041,0.928,-0.431,-0.793,0.641,0.427,60.000,14724.000,1.000
-12.083,-10.274,-14.105,-7.600,-10.459,-8.944,-1.347,-2.829,-0.039,0.928,-0.428,-0.854,0.488,0.458,60.000,14725.000,1.000
-14.123,-12.421,-15.283,-7.669,-12.241,-10.129,-4.483,-9.195,-0.038,0.929,-0.430,-0.885,0.519,0.427,60.000,14726.000,1.000
-15.282,-14.947,-14.610,-7.069,-13.947,-10.578,-7.532,-15.349,-0.040,0.929,-0.430,-0.977,0.519,0.305,60.000,14727.000,1.000
-16.073,-17.770,-12.933,-6.509,-15.641,-10.783,-9.442,-19.733,-0.042,0.930,-0.427,-1.038,0.610,0.336,60.000,14728.000,1.000
-17.407,-20.895,-11.347,-6.649,-17.417,-11.385,-10.698,-21.415,-0.043,0.931,-0.428,-1.068,0.519,0.305,60.000,14729.000,1.000
-18.939,-23.582,-10.228,-7.284,-18.745,-12.267,-11.573,-20.185,-0.045,0.932,-0.429,-1.038,0.427,0.305,60.000,14730.000,1.000
-19.738,-24.930,-9.584,-7.907,-19.075,-12.991,-11.777,-16.951,-0.047,0.932,-0.427,-1.068,0.305,0.275,60.000,14731.000,1.000
-18.957,-24.330,-9.202,-8.069,-18.136,-13.027,-10.675,-13.145,-0.047,0.932,-0.427,-1.099,0.244,0.305,60.000,14732.000,1.000
-16.708,-21.902,-8.819,-7.699,-16.132,-11.970,-8.076,-9.921,-0.049,0.935,-0.429,-1.129,0.183,0.366,60.000,14733.000,1.000
-14.747,-18.854,-8.371,-7.323,-13.954,-9.912,-4.917,-7.905,-0.048,0.935,-0.425,-1.221,-0.031,0.488,60.000,14734.000,1.000
-14.137,-16.172,-7.471,-7.113,-12.201,-7.008,-1.998,-6.860,-0.048,0.934,-0.425,-1.373,-0.061,0.397,60.000,14735.000,1.000
-14.608,-14.208,-5.767,-6.810,-10.841,-3.627,0.316,-6.133,-0.047,0.933,-0.427,-1.434,-0.183,0.305,60.000,14736.000,1.000
-14.972,-12.676,-3.347,-6.064,-9.297,-0.405,2.072,-5.174,-0.047,0.933,-0.428,-1.343,-0.305,0.366,60.000,14737.000,1.000
-14.808,-11.370,-0.992,-5.148,-7.285,1.738,3.117,-3.967,-0.044,0.935,-0.430,-1.434,-0.336,0.458,60.000,14738.000,1.000
-15.520,-10.735,0.195,-5.009,-5.395,1.972,2.720,-3.050,-0.047,0.934,-0.428,-1.587,-0.458,0.549,60.000,14739.000,1.000
-17.399,-10.347,0.234,-5.681,-3.862,0.692,1.114,-2.719,-0.045,0.931,-0.425,-1.587,-0.519,0.671,60.000,14740.000,1.000
-18.660,-8.729,0.307,-6.069,-2.109,-0.654,-0.436,-2.757,-0.047,0.929,-0.425,-1.587,-0.671,0.610,60.000,14741.000,1.000
-16.977,-4.683,1.632,-5.062,0.564,-0.661,-0.687,-2.661,-0.046,0.928,-0.424,-1.617,-0.732,0.549,60.000,14742.000,1.000
-12.583,0.845,4.093,-2.994,3.703,0.707,0.141,-2.402,-0.047,0.924,-0.427,-1.678,-0.946,0.610,60.000,14743.000,1.000
-9.090,4.847,6.360,-1.470,5.734,2.182,0.417,-2.296,-0.046,0.925,-0.428,-1.526,-0.916,0.641,60.000,14744.000,1.000
-8.757,5.559,7.839,-1.039,6.192,3.091,-0.334,-1.721,-0.043,0.921,-0.428,-1.373,-0.977,0.671,60.000,14745.000,1.000
-9.938,4.048,9.075,-0.593,6.346,3.884,-1.057,0.446,-0.043,0.921,-0.431,-1.282,-1.129,0.702,60.000,14746.000,1.000
-8.868,3.060,10.860,1.429,7.906,5.283,-0.477,4.424,-0.042,0.921,-0.431,-1.221,-1.099,0.732,60.000,14747.000,1.000
-4.513,4.053,13.022,5.140,11.040,7.046,1.283,8.874,-0.040,0.921,-0.429,-1.160,-1.068,0.824,60.000,14748.000,1.000
-0.449,5.801,14.484,8.905,14.063,8.068,2.736,11.831,-0.038,0.922,-0.430,-1.007,-1.160,0.946,60.000,14749.000,1.000
0.596,7.056,15.077,11.611,15.847,8.222,3.614,12.689,-0.040,0.923,-0.428,-0.946,-1.221,0.977,60.000,14750.000,1.000
0.194,8.286,15.806,13.535,16.896,8.510,5.102,12.465,-0.042,0.923,-0.428,-0.916,-1.160,1.007,60.000,14751.000,1.000
2.106,10.761,17.613,15.326,18.299,9.759,8.026,12.513,-0.045,0.921,-0.426,-0.854,-1.251,0.946,60.000,14752.000,1.000
6.785,14.009,19.947,16.438,19.855,11.386,11.030,13.086,-0.049,0.923,-0.426,-0.732,-1.312,0.885,60.000,14753.000,1.000
9.926,15.416,21.216,15.482,20.080,12.022,11.519,13.512,-0.051,0.923,-0.423,-0.702,-1.343,0.793,60.000,14754.000,1.000
9.181,14.005,21.142,12.834,18.879,11.725,9.407,13.851,-0.049,0.926,-0.424,-0.641,-1.465,0.580,60.000,14755.000,1.000
7.853,12.147,21.027,10.873,18.161,11.963,7.388,15.018,-0.049,0.927,-0.428,-0.580,-1.617,0.458,60.000,14756.000,1.000
11.122,13.100,22.087,11.739,19.797,13.865,8.072,17.595,-0.050,0.927,-0.430,-0.549,-1.617,0.458,60.000,14757.000,1.000
18.640,16.792,23.556,14.739,23.046,16.542,10.754,20.629,-0.048,0.926,-0.428,-0.549,-1.770,0.336,60.000,14758.000,1.000
23.334,19.334,23.095,16.639,24.810,17.631,11.700,22.127,-0.047,0.927,-0.430,-0.580,-1.801,0.275,60.000,14759.000,1.000
20.463,18.183,19.820,15.453,23.340,16.109,9.012,21.266,-0.047,0.928,-0.429,-0.641,-1.831,0.214,60.000,14760.000,1.000
13.290,15.115,15.309,12.223,19.841,13.121,4.644,19.026,-0.046,0.929,-0.431,-0.671,-1.892,0.244,60.000,14761.000,1.000
9.329,14.041,11.929,9.479,16.791,10.529,2.010,16.863,-0.045,0.929,-0.430,-0.671,-1.984,0.061,60.000,14762.000,1.000
11.451,16.190,10.321,8.217,14.949,8.915,1.890,14.952,-0.043,0.930,-0.429,-0.641,-2.045,0.092,60.000,14763.000,1.000
14.724,18.425,9.074,7.106,12.654,7.331,1.654,12.221,-0.044,0.930,-0.430,-0.732,-2.014,0.092,60.000,14764.000,1.000
14.308,17.724,7.390,5.305,8.886,5.408,-0.217,8.387,-0.041,0.933,-0.431,-0.702,-2.045,0.122,60.000,14765.000,1.000
11.494,14.729,6.234,3.853,4.941,4.050,-1.875,4.632,-0.042,0.932,-0.430,-0.702,-1.892,0.244,60.000,14766.000,1.000
11.427,12.646,6.978,4.258,2.962,4.242,-0.529,2.469,-0.041,0.931,-0.431,-0.580,-1.770,0.214,60.000,14767.000,1.000
15.785,13.058,9.210,6.118,3.157,5.459,3.426,2.131,-0.039,0.933,-0.433,-0.580,-1.617,0.244,60.000,14768.000,1.000
20.038,14.081,10.772,7.170,3.370,5.913,6.205,2.412,-0.042,0.932,-0.431,-0.610,-1.678,0.305,60.000,14769.000,1.000
20.152,13.831,10.555,6.412,2.153,4.955,5.708,2.464,-0.042,0.931,-0.430,-0.610,-1.617,0.305,60.000,14770.000,1.000
17.441,13.057,9.613,5.223,0.427,3.831,3.880,2.593,-0.042,0.935,-0.431,-0.641,-1.465,0.427,60.000,14771.000,1.000
16.696,14.159,9.797,5.622,0.296,4.338,4.331,3.483,-0.040,0.932,-0.430,-0.671,-1.495,0.488,60.000,14772.000,1.000
19.879,17.646,11.416,7.593,2.380,6.745,8.164,4.750,-0.040,0.931,-0.430,-0.549,-1.404,0.580,60.000,14773.000,1.000
23.208,20.612,12.783,8.797,4.966,9.518,12.939,4.805,-0.041,0.931,-0.431,-0.732,-1.404,0.671,60.000,14774.000,1.000
22.630,20.215,12.447,7.527,6.400,11.399,16.003,2.485,-0.040,0.932,-0.431,-0.946,-1.190,0.732,60.000,14775.000,1.000
18.090,16.411,10.299,4.202,6.439,12.210,16.248,-1.978,-0.040,0.931,-0.433,-0.977,-1.221,0.793,60.000,14776.000,1.000
12.926,11.568,7.197,0.627,5.843,12.334,14.164,-6.952,-0.040,0.932,-0.431,-0.977,-1.099,0.732,60.000,14777.000,1.000
9.673,7.753,3.784,-1.906,5.066,11.737,10.639,-10.596,-0.042,0.930,-0.431,-1.068,-1.038,0.671,60.000,14778.000,1.000
7.596,5.093,0.124,-3.489,3.833,9.896,5.937,-12.147,-0.042,0.930,-0.429,-1.038,-0.977,0.732,60.000,14779.000,1.000
5.727,3.380,-3.199,-4.331,2.437,7.094,0.905,-11.683,-0.042,0.927,-0.431,-0.977,-0.885,0.702,60.000,14780.000,1.000
4.068,2.546,-5.374,-4.564,1.556,4.269,-3.203,-9.746,-0.041,0.925,-0.433,-1.068,-0.916,0.671,60.000,14781.000,1.000
3.136,2.381,-6.028,-4.396,1.542,2.336,-5.295,-7.007,-0.042,0.924,-0.430,-1.068,-0.916,0.732,60.000,14782.000,1.000
3.021,2.367,-5.512,-4.137,2.139,1.723,-4.845,-4.276,-0.042,0.927,-0.428,-1.038,-0.824,0.610,60.000,14783.000,1.000
2.639,1.711,-4.741,-4.235,2.595,2.124,-2.278,-2.441,-0.043,0.926,-0.427,-1.038,-0.824,0.641,60.000,14784.000,1.000
1.438,0.411,-4.249,-4.685,2.579,3.006,1.646,-1.711,-0.044,0.929,-0.428,-1.038,-0.763,0.641,60.000,14785.000,1.000
-0.626,-1.104,-4.182,-5.298,2.046,3.652,5.409,-1.609,-0.042,0.930,-0.424,-1.160,-0.763,0.519,60.000,14786.000,1.000
-2.808,-2.226,-4.298,-5.682,1.139,3.620,7.404,-1.417,-0.042,0.929,-0.424,-1.221,-0.671,0.549,60.000,14787.000,1.000
-3.541,-2.266,-4.161,-5.358,0.142,2.944,7.053,-0.754,-0.042,0.929,-0.427,-1.312,-0.671,0.458,60.000,14788.000,1.000
-1.955,-1.117,-3.649,-4.336,-0.884,1.722,4.808,0.219,-0.044,0.931,-0.428,-1.343,-0.671,0.397,60.000,14789.000,1.000
1.708,0.736,-2.972,-3.019,-2.006,0.049,1.984,1.293,-0.043,0.930,-0.426,-1.404,-0.580,0.549,60.000,14790.000,1.000
5.224,1.802,-2.957,-2.310,-3.751,-2.395,-0.795,2.196,-0.042,0.929,-0.426,-1.404,-0.549,0.427,60.000,14791.000,1.000
6.336,0.805,-4.215,-2.735,-6.386,-5.796,-3.649,2.760,-0.043,0.930,-0.427,-1.495,-0.580,0.488,60.000,14792.000,1.000
4.775,-2.032,-6.521,-3.937,-9.352,-9.619,-6.680,2.862,-0.043,0.929,-0.427,-1.587,-0.610,0.580,60.000,14793.000,1.000
1.335,-5.582,-9.384,-5.412,-11.981,-13.027,-10.042,2.190,-0.042,0.928,-0.424,-1.648,-0.610,0.519,60.000,14794.000,1.000
-1.901,-8.099,-12.127,-6.574,-13.572,-15.127,-13.091,0.763,-0.043,0.930,-0.426,-1.495,-0.641,0.519,60.000,14795.000,1.000
-1.746,-7.820,-13.900,-6.729,-13.339,-15.283,-14.070,-0.858,-0.046,0.931,-0.427,-1.617,-0.641,0.519,60.000,14796.000,1.000
4.478,-3.836,-13.875,-5.173,-10.645,-13.251,-10.922,-1.704,-0.043,0.931,-0.423,-1.648,-0.641,0.610,60.000,14797.000,1.000
12.737,1.032,-13.074,-3.222,-7.209,-10.441,-5.061,-1.776,-0.043,0.932,-0.423,-1.678,-0.671,0.549,60.000,14798.000,1.000
9.932,-0.592,-14.998,-5.059,-7.944,-10.218,-3.050,-3.039,-0.044,0.933,-0.421,-1.678,-0.671,0.580,60.000,14799.000,1.000
-11.289,-12.449,-21.019,-12.353,-15.183,-13.925,-8.904,-6.678,-0.045,0.931,-0.424,-1.801,-0.763,0.641,60.000,14800.000,1.000
-36.798,-26.371,-26.437,-19.303,-23.061,-17.544,-16.281,-9.899,-0.044,0.930,-0.422,-1.740,-0.793,0.610,60.000,14801.000,1.000
-39.823,-27.398,-24.246,-16.998,-21.625,-14.937,-13.207,-7.886,-0.045,0.931,-0.425,-1.770,-0.793,0.671,60.000,14802.000,1.000
-13.726,-11.930,-14.829,-5.376,-9.562,-6.429,1.583,-0.793,-0.046,0.932,-0.426,-1.923,-0.793,0.641,60.000,14803.000,1.000
12.554,3.719,-8.244,3.367,0.975,-0.955,12.390,4.017,-0.046,0.932,-0.425,-1.801,-0.824,0.671,60.000,14804.000,1.000
7.995,1.990,-12.033,-0.734,-1.394,-5.085,5.280,0.724,-0.047,0.933,-0.427,-1.831,-0.916,0.763,60.000,14805.000,1.000
-17.192,-11.724,-19.944,-10.903,-11.177,-12.824,-11.315,-6.139,-0.049,0.930,-0.427,-1.831,-1.007,0.671,60.000,14806.000,1.000
-19.951,-13.656,-18.547,-10.564,-11.403,-11.722,-14.432,-6.305,-0.046,0.930,-0.427,-1.831,-1.099,0.671,60.000,14807.000,1.000
14.872,4.587,-6.598,3.027,2.108,-0.536,1.594,1.469,-0.045,0.932,-0.427,-1.862,-1.099,0.671,60.000,14808.000,1.000
42.669,18.427,-0.148,10.977,10.771,6.121,12.791,5.224,-0.047,0.932,-0.427,-1.801,-1.221,0.671,60.000,14809.000,1.000
13.830,0.890,-11.666,-2.875,-3.050,-3.332,-3.199,-4.478,-0.046,0.932,-0.427,-1.770,-1.190,0.671,60.000,14810.000,1.000
-53.659,-37.438,-30.940,-27.415,-29.479,-20.236,-33.513,-19.971,-0.047,0.933,-0.425,-1.740,-1.282,0.610,60.000,14811.000,1.000
-86.895,-56.050,-35.631,-35.068,-40.015,-25.036,-42.516,-24.445,-0.047,0.933,-0.427,-1.709,-1.282,0.580,60.000,14812.000,1.000
-49.478,-35.196,-20.205,-17.112,-23.766,-12.913,-18.137,-13.809,-0.049,0.934,-0.424,-1.770,-1.282,0.519,60.000,14813.000,1.000
8.680,-2.786,-4.245,3.715,-2.775,-0.999,10.031,-2.767,-0.046,0.932,-0.425,-1.709,-1.251,0.549,60.000,14814.000,1.000
16.643,2.167,-6.614,2.984,-3.107,-5.450,8.959,-5.244,-0.047,0.930,-0.425,-1.648,-1.373,0.519,60.000,14815.000,1.000
-23.923,-19.165,-20.344,-13.213,-20.319,-19.484,-14.458,-15.643,-0.045,0.929,-0.427,-1.587,-1.404,0.580,60.000,14816.000,1.000
-42.889,-28.370,-22.245,-17.107,-25.933,-22.229,-23.237,-16.437,-0.044,0.930,-0.427,-1.434,-1.465,0.519,60.000,14817.000,1.000
-3.400,-5.799,-6.195,0.568,-8.463,-8.338,-3.223,-3.452,-0.045,0.930,-0.427,-1.312,-1.434,0.671,60.000,14818.000,1.000
35.584,15.838,5.183,13.662,6.497,1.846,12.425,5.676,-0.041,0.930,-0.427,-1.221,-1.343,0.671,60.000,14819.000,1.000
-2.133,-4.712,-8.126,-3.390,-8.835,-9.569,-10.558,-4.343,-0.041,0.927,-0.424,-1.007,-1.282,0.671,60.000,14820.000,1.000
-78.031,-45.380,-27.267,-29.647,-35.501,-25.904,-45.592,-19.001,-0.042,0.928,-0.426,-0.885,-1.282,0.671,60.000,14821.000,1.000
-43.932,-25.014,-7.974,-10.261,-16.800,-8.293,-19.624,-4.590,-0.041,0.928,-0.429,-0.732,-1.160,0.732,60.000,14822.000,1.000
164.883,90.117,57.096,68.008,64.781,48.870,86.865,44.377,-0.041,0.927,-0.429,-0.732,-1.068,0.671,60.000,14823.000,1.000
381.930,207.191,108.043,134.624,139.058,91.793,180.565,82.357,-0.041,0.927,-0.431,-0.610,-1.007,0.549,60.000,14824.000,1.000
366.149,195.402,82.007,108.790,118.878,65.389,150.523,61.580,-0.041,0.929,-0.428,-0.397,-0.885,0.549,60.000,14825.000,1.000
125.522,62.790,3.956,13.600,21.011,-6.503,22.778,0.809,-0.043,0.927,-0.427,-0.366,-0.885,0.549,60.000,14826.000,1.000
-31.101,-19.564,-26.067,-30.195,-30.903,-34.257,-41.781,-24.139,-0.041,0.927,-0.431,-0.244,-0.824,0.519,60.000,14827.000,1.000
130.282,73.811,40.061,44.079,40.387,23.775,51.910,23.783,-0.042,0.928,-0.433,-0.092,-0.702,0.580,60.000,14828.000,1.000
419.671,234.458,119.029,142.643,146.291,92.074,184.326,82.543,-0.042,0.929,-0.432,0.122,-0.671,0.549,60.000,14829.000,1.000
413.860,229.962,89.756,114.667,127.696,63.496,152.153,61.124,-0.040,0.929,-0.433,0.183,-0.549,0.519,60.000,14830.000,1.000
-17.542,-7.428,-51.765,-55.873,-44.012,-63.103,-73.153,-43.826,-0.041,0.929,-0.431,0.275,-0.580,0.519,60.000,14831.000,1.000
-534.004,-288.384,-180.803,-222.207,-223.590,-175.059,-298.857,-138.757,-0.042,0.929,-0.431,0.183,-0.519,0.488,60.000,14832.000,1.000
-720.759,-387.612,-190.278,-246.649,-261.949,-178.067,-336.567,-143.240,-0.042,0.929,-0.427,0.153,-0.427,0.671,60.000,14833.000,1.000
-539.167,-288.050,-104.913,-148.537,-167.579,-96.796,-205.901,-76.259,-0.040,0.929,-0.428,0.183,-0.427,0.549,60.000,14834.000,1.000
-286.931,-153.755,-28.930,-52.768,-66.207,-25.852,-73.164,-17.143,-0.041,0.927,-0.431,0.214,-0.305,0.519,60.000,14835.000,1.000
-200.356,-110.970,-16.865,-32.874,-40.044,-13.682,-41.212,-7.784,-0.042,0.927,-0.431,0.214,-0.305,0.519,60.000,14836.000,1.000
-230.153,-129.437,-32.382,-51.022,-56.428,-26.867,-62.913,-20.793,-0.042,0.923,-0.428,0.244,-0.336,0.519,60.000,14837.000,1.000
-205.538,-115.866,-21.997,-41.016,-46.675,-17.150,-49.060,-15.085,-0.044,0.921,-0.425,0.153,-0.214,0.488,60.000,14838.000,1.000
-91.570,-53.695,12.560,0.110,-3.656,13.853,6.100,8.847,-0.043,0.920,-0.427,0.153,-0.244,0.458,60.000,14839.000,1.000
-2.698,-6.906,30.878,24.979,24.951,30.070,38.960,21.038,-0.042,0.917,-0.426,0.183,-0.092,0.458,60.000,14840.000,1.000
-23.135,-20.535,14.604,8.529,10.591,15.484,14.542,7.924,-0.044,0.917,-0.428,0.153,-0.153,0.549,60.000,14841.000,1.000
-102.542,-65.466,-12.518,-23.148,-22.191,-8.363,-32.202,-12.631,-0.045,0.918,-0.429,0.275,-0.244,0.488,60.000,14842.000,1.000
-134.557,-83.197,-19.127,-31.441,-32.579,-13.499,-47.280,-17.511,-0.044,0.917,-0.429,0.183,-0.153,0.488,60.000,14843.000,1.000
-81.946,-54.045,-1.357,-9.356,-10.507,3.346,-18.797,-4.627,-0.044,0.918,-0.428,0.183,-0.305,0.458,60.000,14844.000,1.000
4.610,-6.243,20.964,19.931,21.610,24.466,22.811,10.626,-0.043,0.921,-0.426,0.061,-0.305,0.488,60.000,14845.000,1.000
55.504,22.073,28.791,32.083,37.735,32.867,43.471,14.478,-0.043,0.921,-0.428,-0.092,-0.366,0.610,60.000,14846.000,1.000
45.111,17.010,19.420,22.073,30.555,25.879,34.135,6.120,-0.041,0.922,-0.426,-0.122,-0.427,0.610,60.000,14847.000,1.000
3.111,-4.929,5.120,4.106,13.116,14.011,12.024,-4.582,-0.043,0.923,-0.427,-0.122,-0.427,0.549,60.000,14848.000,1.000
-15.902,-13.610,1.788,-1.825,5.861,11.074,3.545,-6.282,-0.042,0.924,-0.427,-0.275,-0.488,0.549,60.000,14849.000,1.000
21.013,8.834,15.662,13.293,19.204,22.435,22.027,4.617,-0.042,0.925,-0.429,-0.427,-0.488,0.549,60.000,14850.000,1.000
86.818,46.778,34.674,35.941,40.614,37.285,51.049,18.648,-0.040,0.925,-0.429,-0.641,-0.519,0.610,60.000,14851.000,1.000
113.575,62.230,38.385,41.005,44.416,37.646,57.318,20.890,-0.042,0.928,-0.428,-0.793,-0.549,0.519,60.000,14852.000,1.000
70.794,38.670,22.317,21.559,22.301,20.157,30.367,8.636,-0.042,0.931,-0.427,-1.068,-0.549,0.580,60.000,14853.000,1.000
13.292,7.025,6.941,1.701,-1.619,3.722,1.537,-2.391,-0.039,0.932,-0.427,-1.312,-0.610,0.580,60.000,14854.000,1.000
23.610,12.893,14.532,9.795,3.346,8.309,9.758,4.130,-0.041,0.934,-0.430,-1.678,-0.610,0.580,60.000,14855.000,1.000
101.408,55.473,38.049,39.233,32.925,27.137,47.903,21.795,-0.041,0.938,-0.426,-1.892,-0.671,0.671,60.000,14856.000,1.000
151.123,81.971,46.735,52.304,48.622,32.315,65.406,26.631,-0.042,0.937,-0.424,-2.106,-0.610,0.732,60.000,14857.000,1.000
103.888,55.464,26.660,29.202,27.360,11.576,33.769,8.671,-0.042,0.937,-0.425,-2.411,-0.732,0.763,60.000,14858.000,1.000
16.677,8.427,2.310,-2.358,-4.813,-12.618,-11.059,-11.873,-0.042,0.935,-0.427,-2.563,-0.732,0.763,60.000,14859.000,1.000
6.918,5.237,6.680,-0.636,-4.050,-10.321,-11.698,-8.547,-0.042,0.935,-0.429,-2.808,-0.793,0.671,60.000,14860.000,1.000
94.043,55.118,35.473,32.889,31.189,14.878,32.437,15.690,-0.040,0.936,-0.427,-3.052,-0.977,0.610,60.000,14861.000,1.000
165.578,95.309,50.212,52.676,54.977,28.907,61.059,30.881,-0.041,0.936,-0.427,-3.326,-0.916,0.671,60.000,14862.000,1.000
125.083,73.382,29.497,29.957,34.949,12.856,33.822,19.538,-0.041,0.937,-0.429,-3.479,-0.885,0.824,60.000,14863.000,1.000
23.928,18.511,-1.202,-7.163,-2.945,-10.952,-13.747,0.004,-0.041,0.937,-0.427,-3.723,-0.916,0.732,60.000,14864.000,1.000
-3.976,4.178,-2.679,-9.988,-7.772,-8.495,-16.410,1.824,-0.043,0.939,-0.424,-3.845,-0.885,0.854,60.000,14865.000,1.000
75.479,48.167,24.194,24.058,26.680,18.624,30.835,24.564,-0.043,0.940,-0.425,-4.059,-0.916,0.885,60.000,14866.000,1.000
148.456,87.622,38.971,46.972,52.244,34.124,63.899,37.269,-0.042,0.937,-0.425,-4.059,-1.038,0.854,60.000,14867.000,1.000
109.169,65.421,17.125,25.712,31.933,16.389,36.526,20.480,-0.042,0.936,-0.425,-4.181,-1.129,0.916,60.000,14868.000,1.000
5.086,8.713,-15.944,-12.566,-9.386,-11.725,-16.524,-6.942,-0.042,0.936,-0.421,-4.333,-1.160,0.854,60.000,14869.000,1.000
-26.459,-7.366,-18.665,-17.008,-18.197,-13.260,-25.905,-12.670,-0.042,0.935,-0.420,-4.333,-1.251,0.854,60.000,14870.000,1.000
52.442,36.586,9.807,17.045,14.328,12.364,17.359,5.584,-0.042,0.934,-0.422,-4.517,-1.282,0.854,60.000,14871.000,1.000
127.674,77.171,28.629,41.864,40.681,29.025,50.225,18.342,-0.042,0.933,-0.424,-4.517,-1.312,0.916,60.000,14872.000,1.000
90.822,55.802,11.517,23.367,23.156,14.123,25.350,6.202,-0.042,0.935,-0.423,-4.578,-1.495,1.038,60.000,14873.000,1.000
-12.488,-1.161,-17.920,-12.602,-14.605,-10.680,-24.197,-13.541,-0.042,0.937,-0.422,-4.608,-1.465,1.099,60.000,14874.000,1.000
-45.054,-18.612,-19.111,-16.119,-20.360,-9.633,-30.486,-11.492,-0.043,0.935,-0.417,-4.547,-1.465,1.190,60.000,14875.000,1.000
32.384,23.520,8.929,17.357,13.977,16.877,14.859,11.725,-0.043,0.933,-0.420,-4.547,-1.465,1.129,60.000,14876.000,1.000
107.803,63.306,26.418,40.848,41.004,32.414,48.964,25.332,-0.044,0.930,-0.419,-4.486,-1.556,1.251,60.000,14877.000,1.000
73.009,42.759,7.904,20.853,23.057,14.446,24.142,10.367,-0.044,0.929,-0.420,-4.333,-1.617,1.099,60.000,14878.000,1.000
-29.822,-13.726,-23.268,-17.271,-17.004,-15.250,-28.056,-14.607,-0.046,0.929,-0.420,-4.150,-1.709,0.977,60.000,14879.000,1.000
-66.345,-32.969,-26.537,-23.673,-26.932,-19.614,-39.847,-18.041,-0.046,0.927,-0.421,-3.998,-1.770,1.038,60.000,14880.000,1.000
7.061,7.561,1.160,8.680,4.380,4.491,1.328,2.817,-0.048,0.926,-0.417,-3.845,-1.862,1.007,60.000,14881.000,1.000
87.756,51.339,22.776,36.186,33.851,24.165,38.550,19.862,-0.046,0.928,-0.417,-3.632,-2.014,1.038,60.000,14882.000,1.000
69.972,41.572,12.316,24.764,24.244,16.223,24.876,12.841,-0.047,0.927,-0.418,-3.418,-2.106,0.977,60.000,14883.000,1.000
-15.761,-4.102,-11.772,-6.243,-7.204,-3.377,-15.328,-5.169,-0.046,0.924,-0.417,-3.113,-2.136,0.916,60.000,14884.000,1.000
-50.841,-21.437,-13.883,-13.133,-14.964,-3.963,-23.033,-7.778,-0.046,0.925,-0.418,-2.899,-2.197,0.854,60.000,14885.000,1.000
6.441,10.772,9.206,11.507,11.399,16.375,13.000,7.826,-0.043,0.925,-0.422,-2.838,-2.197,0.854,60.000,14886.000,1.000
68.687,44.181,25.292,30.692,34.740,29.007,42.760,18.360,-0.043,0.923,-0.419,-2.411,-2.136,0.763,60.000,14887.000,1.000
44.743,30.132,12.046,15.727,23.069,15.075,25.601,8.005,-0.042,0.924,-0.419,-2.045,-2.136,0.763,60.000,14888.000,1.000
-37.719,-14.919,-13.493,-15.308,-7.786,-9.402,-15.806,-9.888,-0.042,0.921,-0.420,-1.801,-2.106,0.763,60.000,14889.000,1.000
-73.755,-33.752,-19.095,-23.250,-17.268,-15.761,-28.159,-11.577,-0.040,0.920,-0.420,-1.343,-2.167,0.793,60.000,14890.000,1.000
-25.454,-7.109,-1.194,-1.432,4.095,-1.227,-0.400,4.042,-0.040,0.921,-0.420,-1.007,-2.075,0.793,60.000,14891.000,1.000
31.546,22.583,12.346,17.202,23.624,9.241,24.008,14.502,-0.039,0.920,-0.422,-0.763,-1.984,0.702,60.000,14892.000,1.000
16.797,11.863,1.831,6.580,12.849,-1.844,8.638,4.879,-0.039,0.919,-0.419,-0.549,-1.831,0.732,60.000,14893.000,1.000
-47.955,-25.971,-18.615,-18.553,-14.875,-21.874,-28.085,-12.951,-0.037,0.921,-0.423,-0.092,-1.648,0.671,60.000,14894.000,1.000
-73.284,-41.269,-21.616,-24.465,-23.877,-26.305,-39.897,-16.986,-0.036,0.922,-0.421,0.366,-1.556,0.641,60.000,14895.000,1.000
-26.170,-16.271,-4.170,-4.813,-4.664,-11.935,-15.691,-4.310,-0.038,0.924,-0.424,0.549,-1.526,0.732,60.000,14896.000,1.000
28.868,13.445,9.623,12.518,15.397,0.543,8.556,6.794,-0.037,0.926,-0.419,0.732,-1.404,0.641,60.000,14897.000,1.000
21.569,9.899,2.160,4.707,10.903,-4.239,1.111,2.500,-0.036,0.930,-0.422,0.885,-1.282,0.641,60.000,14898.000,1.000
-32.154,-17.602,-15.286,-16.601,-8.855,-16.955,-24.790,-9.300,-0.039,0.932,-0.420,0.977,-1.160,0.580,60.000,14899.000,1.000
-56.749,-28.036,-19.148,-22.786,-14.825,-17.874,-31.881,-11.213,-0.040,0.931,-0.420,0.946,-1.038,0.610,60.000,14900.000,1.000
-21.403,-6.066,-5.697,-7.562,1.162,-4.505,-10.691,-0.425,-0.041,0.933,-0.425,0.916,-1.068,0.519,60.000,14901.000,1.000
22.935,18.837,5.681,6.412,16.688,5.841,9.894,8.664,-0.040,0.932,-0.423,1.038,-0.824,0.397,60.000,14902.000,1.000
17.852,14.432,0.074,-0.047,10.683,0.234,3.867,5.044,-0.039,0.932,-0.424,1.007,-0.671,0.244,60.000,14903.000,1.000
-26.377,-12.574,-14.201,-18.007,-9.486,-13.586,-19.031,-4.819,-0.038,0.929,-0.427,1.007,-0.549,0.244,60.000,14904.000,1.000
-49.747,-28.043,-18.358,-24.026,-19.609,-18.660,-29.120,-6.831,-0.037,0.926,-0.428,1.099,-0.580,0.183,60.000,14905.000,1.000
-25.966,-17.137,-8.908,-12.170,-11.591,-11.752,-17.542,1.107,-0.032,0.926,-0.427,1.129,-0.305,0.214,60.000,14906.000,1.000
6.547,-1.024,-0.612,0.013,-1.840,-5.746,-5.023,7.195,-0.030,0.924,-0.429,1.312,-0.183,0.183,60.000,14907.000,1.000
2.340,-4.344,-4.978,-2.969,-6.305,-10.138,-10.218,2.472,-0.033,0.922,-0.428,1.373,-0.122,0.214,60.000,14908.000,1.000
-31.557,-22.518,-15.722,-14.957,-19.382,-18.435,-24.968,-7.923,-0.036,0.925,-0.427,1.465,0.031,0.153,60.000,14909.000,1.000
-49.282,-30.142,-18.385,-18.262,-22.914,-17.764,-26.805,-12.050,-0.038,0.929,-0.426,1.434,0.092,0.122,60.000,14910.000,1.000
-30.632,-16.998,-10.297,-8.528,-11.852,-7.009,-10.383,-6.775,-0.039,0.929,-0.425,1.343,0.305,0.031,60.000,14911.000,1.000
-5.450,-0.857,-3.051,0.500,-0.524,2.063,6.183,-0.672,-0.040,0.930,-0.424,1.190,0.366,0.153,60.000,14912.000,1.000
-9.086,-1.916,-5.824,-3.185,-2.634,0.884,6.285,-1.839,-0.041,0.930,-0.427,1.068,0.336,0.122,60.000,14913.000,1.000
-36.332,-17.089,-13.783,-14.530,-14.160,-5.621,-5.150,-8.127,-0.042,0.931,-0.429,1.007,0.397,0.183,60.000,14914.000,1.000
-51.130,-25.902,-15.249,-18.976,-19.854,-6.421,-9.911,-11.252,-0.043,0.933,-0.430,0.854,0.366,0.122,60.000,14915.000,1.000
-36.583,-18.752,-7.795,-12.282,-13.972,0.593,-1.489,-8.706,-0.047,0.932,-0.430,0.916,0.366,0.031,60.000,14916.000,1.000
-14.611,-7.709,-0.461,-4.777,-6.217,6.954,8.329,-6.100,-0.052,0.934,-0.429,0.732,0.183,-0.122,60.000,14917.000,1.000
-12.331,-7.619,-0.599,-6.051,-6.794,6.047,7.906,-8.006,-0.053,0.935,-0.429,0.763,0.061,-0.061,60.000,14918.000,1.000
-27.319,-16.955,-5.095,-13.119,-13.507,1.040,0.669,-11.698,-0.057,0.934,-0.426,0.641,-0.153,-0.153,60.000,14919.000,1.000
-33.876,-21.526,-5.618,-15.597,-15.991,-0.288,-0.942,-11.076,-0.057,0.935,-0.428,0.488,-0.427,-0.336,60.000,14920.000,1.000
-20.221,-15.047,-0.417,-10.423,-10.623,3.530,6.174,-5.353,-0.058,0.935,-0.431,0.244,-0.732,-0.397,60.000,14921.000,1.000
-3.262,-6.854,4.006,-5.147,-4.766,6.450,11.791,-0.143,-0.054,0.935,-0.432,0.031,-0.916,-0.336,60.000,14922.000,1.000
-3.223,-7.608,2.406,-6.601,-5.727,3.977,7.201,-0.081,-0.053,0.939,-0.432,-0.214,-1.068,-0.397,60.000,14923.000,1.000
-17.735,-15.373,-2.700,-12.180,-11.395,-1.051,-3.410,-3.566,-0.050,0.938,-0.430,-0.275,-1.373,-0.427,60.000,14924.000,1.000
-26.040,-18.539,-4.531,-13.578,-13.313,-2.188,-8.020,-5.276,-0.049,0.934,-0.429,-0.397,-1.495,-0.366,60.000,14925.000,1.000
-17.855,-11.990,-1.310,-8.302,-8.296,1.969,-2.664,-3.382,-0.049,0.933,-0.426,-0.519,-1.617,-0.397,60.000,14926.000,1.000
-5.880,-3.551,1.874,-2.632,-2.150,6.305,4.143,-1.251,-0.046,0.931,-0.427,-0.641,-1.526,-0.305,60.000,14927.000,1.000
-6.535,-2.763,0.366,-2.839,-1.279,6.072,3.707,-2.055,-0.045,0.930,-0.427,-0.854,-1.587,-0.336,60.000,14928.000,1.000
-19.363,-9.366,-4.543,-7.794,-5.080,2.129,-2.241,-4.659,-0.045,0.932,-0.427,-0.946,-1.617,-0.244,60.000,14929.000,1.000
-28.525,-14.350,-7.504,-10.819,-7.317,-0.687,-4.500,-5.153,-0.043,0.934,-0.427,-1.038,-1.587,-0.153,60.000,14930.000,1.000
-24.747,-12.380,-6.301,-8.690,-4.882,-0.295,0.252,-2.240,-0.045,0.932,-0.424,-1.160,-1.556,0.000,60.000,14931.000,1.000
-15.962,-7.688,-3.829,-4.799,-1.212,0.784,5.410,1.304,-0.043,0.933,-0.426,-1.251,-1.556,0.092,60.000,14932.000,1.000
-13.825,-6.550,-3.069,-3.246,-0.478,0.178,4.604,2.475,-0.042,0.932,-0.425,-1.343,-1.465,0.275,60.000,14933.000,1.000
-19.049,-9.295,-3.394,-3.746,-2.241,-0.973,-0.156,1.407,-0.042,0.930,-0.424,-1.556,-1.373,0.305,60.000,14934.000,1.000
-21.323,-10.329,-1.760,-2.497,-2.146,0.553,-1.158,1.121,-0.041,0.929,-0.422,-1.587,-1.373,0.397,60.000,14935.000,1.000
-15.046,-6.744,2.109,1.545,1.492,5.034,4.039,3.207,-0.042,0.927,-0.423,-1.587,-1.282,0.427,60.000,14936.000,1.000
-7.328,-2.521,4.687,4.721,5.084,8.896,9.344,5.813,-0.044,0.928,-0.425,-1.648,-1.282,0.519,60.000,14937.000,1.000
-7.113,-2.397,3.319,3.895,4.858,9.261,8.842,6.682,-0.042,0.928,-0.425,-1.648,-1.221,0.519,60.000,14938.000,1.000
-13.536,-5.586,-0.515,0.510,1.521,7.075,3.850,6.066,-0.044,0.926,-0.423,-1.709,-1.099,0.549,60.000,14939.000,1.000
-16.115,-6.225,-2.501,-0.730,-0.384,5.891,1.023,6.118,-0.044,0.927,-0.424,-1.678,-1.068,0.549,60.000,14940.000,1.000
-9.118,-1.523,-0.815,2.008,1.403,7.024,3.061,7.253,-0.045,0.927,-0.423,-1.770,-1.007,0.610,60.000,14941.000,1.000
0.893,4.433,2.238,5.756,4.310,8.273,5.759,7.518,-0.044,0.926,-0.423,-1.801,-0.977,0.519,60.000,14942.000,1.000
4.765,6.445,4.002,7.315,5.153,7.539,4.649,5.817,-0.046,0.926,-0.423,-1.770,-0.916,0.519,60.000,14943.000,1.000
1.465,3.992,4.396,6.832,3.965,5.386,0.347,3.724,-0.046,0.924,-0.421,-1.801,-0.854,0.549,60.000,14944.000,1.000
-0.705,1.662,5.551,7.329,3.844,4.452,-1.946,4.136,-0.046,0.926,-0.419,-1.801,-0.885,0.519,60.000,14945.000,1.000
4.046,2.605,7.935,9.910,6.148,5.703,0.653,7.556,-0.045,0.925,-0.419,-1.648,-0.885,0.397,60.000,14946.000,1.000
11.521,4.679,9.228,11.978,8.251,7.168,5.278,11.249,-0.045,0.925,-0.418,-1.556,-0.977,0.305,60.000,14947.000,1.000
14.482,4.361,7.462,10.914,7.022,6.613,7.327,12.251,-0.046,0.924,-0.422,-1.526,-1.007,0.275,60.000,14948.000,1.000
11.264,1.078,3.353,7.231,2.298,3.830,4.945,9.950,-0.045,0.924,-0.424,-1.526,-0.946,0.244,60.000,14949.000,1.000
8.129,-1.806,0.081,4.463,-2.599,0.901,0.870,6.386,-0.046,0.923,-0.423,-1.617,-0.916,0.244,60.000,14950.000,1.000
10.174,-1.750,-0.368,4.707,-4.940,-0.739,-1.705,3.528,-0.045,0.925,-0.425,-1.495,-0.854,0.153,60.000,14951.000,1.000
14.565,-0.283,1.036,6.404,-5.210,-1.761,-2.687,1.672,-0.043,0.927,-0.427,-1.343,-0.763,0.122,60.000,14952.000,1.000
15.405,-0.396,2.378,6.976,-5.151,-3.191,-3.630,0.385,-0.042,0.930,-0.427,-1.190,-0.763,0.153,60.000,14953.000,1.000
10.574,-3.210,2.743,5.431,-5.585,-5.041,-5.453,-0.729,-0.042,0.931,-0.426,-1.190,-0.732,0.244,60.000,14954.000,1.000
5.037,-6.198,2.987,3.360,-5.438,-6.119,-6.726,-1.549,-0.041,0.932,-0.426,-1.251,-0.702,0.244,60.000,14955.000,1.000
3.906,-6.765,3.709,2.342,-3.972,-6.045,-6.303,-2.187,-0.042,0.933,-0.427,-1.099,-0.641,0.244,60.000,14956.000,1.000
6.099,-5.577,4.243,2.115,-2.270,-5.895,-5.384,-3.269,-0.042,0.933,-0.425,-1.099,-0.549,0.336,60.000,14957.000,1.000
7.478,-4.901,3.929,1.716,-1.782,-6.654,-5.807,-5.154,-0.043,0.935,-0.425,-1.129,-0.580,0.244,60.000,14958.000,1.000
5.834,-5.941,2.850,0.679,-2.994,-8.328,-8.115,-7.532,-0.047,0.936,-0.426,-1.068,-0.488,0.275,60.000,14959.000,1.000
4.223,-6.939,2.171,-0.072,-4.614,-9.728,-10.111,-9.350,-0.047,0.936,-0.429,-0.824,-0.488,0.336,60.000,14960.000,1.000
5.949,-5.934,2.515,0.037,-5.445,-10.155,-9.786,-10.211,-0.047,0.935,-0.425,-0.793,-0.458,0.336,60.000,14961.000,1.000
9.819,-3.428,3.327,0.258,-5.625,-10.008,-7.622,-10.656,-0.045,0.934,-0.426,-0.763,-0.458,0.427,60.000,14962.000,1.000
12.470,-1.375,3.882,-0.267,-5.714,-9.921,-5.349,-10.900,-0.044,0.934,-0.426,-0.763,-0.519,0.366,60.000,14963.000,1.000
11.276,-1.759,3.654,-1.899,-6.234,-10.524,-4.658,-10.536,-0.045,0.936,-0.428,-0.763,-0.427,0.366,60.000,14964.000,1.000
7.623,-4.324,2.989,-3.772,-6.721,-11.598,-5.258,-8.957,-0.046,0.936,-0.426,-0.824,-0.458,0.366,60.000,14965.000,1.000
4.079,-7.557,2.081,-5.161,-6.741,-12.687,-6.375,-6.932,-0.046,0.933,-0.425,-0.641,-0.427,0.366,60.000,14966.000,1.000
1.077,-10.508,0.513,-6.285,-6.697,-13.660,-8.245,-6.328,-0.046,0.931,-0.428,-0.671,-0.427,0.336,60.000,14967.000,1.000
-1.716,-12.525,-1.714,-7.280,-6.847,-14.311,-10.760,-7.996,-0.048,0.931,-0.426,-0.641,-0.488,0.397,60.000,14968.000,1.000
-4.873,-13.397,-4.060,-8.057,-7.075,-14.507,-12.983,-11.014,-0.045,0.927,-0.424,-0.366,-0.397,0.397,60.000,14969.000,1.000
-7.372,-12.553,-5.447,-7.970,-6.547,-13.798,-12.983,-13.037,-0.045,0.927,-0.423,-0.336,-0.305,0.366,60.000,14970.000,1.000
-8.343,-10.140,-5.647,-6.906,-4.980,-12.144,-10.250,-12.286,-0.044,0.924,-0.422,-0.244,-0.427,0.275,60.000,14971.000,1.000
-8.304,-7.328,-5.383,-5.457,-3.054,-10.020,-6.335,-8.765,-0.045,0.921,-0.427,-0.092,-0.458,0.336,60.000,14972.000,1.000
-7.547,-4.779,-5.078,-3.912,-1.248,-7.675,-2.744,-3.779,-0.044,0.921,-0.427,0.275,-0.275,0.305,60.000,14973.000,1.000
-7.194,-3.136,-5.010,-2.727,-0.060,-5.526,-0.781,0.619,-0.043,0.922,-0.429,0.244,-0.244,0.275,60.000,14974.000,1.000
-7.766,-2.607,-5.114,-2.164,0.315,-3.850,-0.811,2.916,-0.041,0.921,-0.429,0.336,-0.153,0.305,60.000,14975.000,1.000
-9.055,-3.134,-5.411,-2.409,-0.208,-2.898,-2.589,2.709,-0.038,0.922,-0.427,0.458,-0.031,0.244,60.000,14976.000,1.000
-10.168,-4.229,-5.904,-3.322,-1.375,-2.717,-5.237,0.873,-0.037,0.923,-0.430,0.519,0.092,0.305,60.000,14977.000,1.000
-9.491,-4.811,-6.380,-4.276,-2.404,-3.017,-7.261,-1.075,-0.036,0.922,-0.435,0.671,0.183,0.427,60.000,14978.000,1.000
-7.871,-5.032,-7.220,-5.352,-3.260,-3.902,-8.433,-2.487,-0.039,0.923,-0.431,0.732,0.366,0.397,60.000,14979.000,1.000
-7.030,-5.490,-8.515,-6.617,-4.001,-5.147,-8.859,-3.126,-0.042,0.928,-0.428,0.824,0.366,0.397,60.000,14980.000,1.000
-7.649,-6.352,-9.715,-7.709,-4.344,-6.142,-8.238,-2.650,-0.045,0.929,-0.427,0.916,0.519,0.366,60.000,14981.000,1.000
-8.243,-6.790,-9.743,-7.804,-3.629,-6.120,-5.702,-0.662,-0.046,0.928,-0.429,0.977,0.549,0.275,60.000,14982.000,1.000
-5.639,-5.112,-7.698,-6.051,-1.118,-4.445,-0.473,2.755,-0.049,0.930,-0.431,0.946,0.488,0.214,60.000,14983.000,1.000
0.075,-1.420,-4.432,-3.200,2.407,-1.689,5.837,6.226,-0.048,0.930,-0.429,0.885,0.519,0.244,60.000,14984.000,1.000
6.060,2.639,-1.556,-0.771,5.369,0.978,10.609,8.192,-0.046,0.932,-0.428,0.702,0.458,0.092,60.000,14985.000,1.000
9.469,5.314,-0.150,0.114,6.528,2.406,12.228,7.970,-0.046,0.932,-0.428,0.549,0.397,0.153,60.000,14986.000,1.000
10.034,6.249,0.054,-0.288,5.951,2.276,11.414,6.450,-0.045,0.931,-0.427,0.427,0.397,0.153,60.000,14987.000,1.000
10.327,6.801,0.308,-0.426,5.102,1.443,10.642,5.688,-0.045,0.928,-0.429,0.488,0.336,0.122,60.000,14988.000,1.000
10.770,7.333,0.815,0.256,4.675,0.476,10.501,6.476,-0.044,0.927,-0.427,0.397,0.488,0.092,60.000,14989.000,1.000
9.771,7.206,0.933,1.206,4.357,-0.550,9.842,7.634,-0.042,0.927,-0.428,0.336,0.427,0.122,60.000,14990.000,1.000
6.170,5.915,0.104,1.600,3.552,-1.677,7.913,7.252,-0.044,0.926,-0.430,0.366,0.488,0.122,60.000,14991.000,1.000
1.293,4.076,-1.310,1.348,2.347,-2.359,5.985,4.526,-0.045,0.928,-0.428,0.214,0.397,0.122,60.000,14992.000,1.000
-1.407,3.320,-2.312,1.152,1.585,-1.746,6.225,0.229,-0.046,0.928,-0.429,0.153,0.366,0.122,60.000,14993.000,1.000
-1.260,3.895,-2.812,0.981,1.202,-0.275,8.099,-4.418,-0.048,0.927,-0.428,0.122,0.458,0.153,60.000,14994.000,1.000
0.229,5.201,-2.891,0.805,0.906,1.127,9.496,-7.840,-0.046,0.928,-0.430,0.000,0.519,0.122,60.000,14995.000,1.000
1.468,6.609,-2.368,0.939,0.833,1.973,8.971,-8.847,-0.046,0.929,-0.430,-0.061,0.336,0.092,60.000,14996.000,1.000
2.212,7.858,-1.076,1.690,1.367,2.401,6.808,-7.492,-0.046,0.928,-0.428,-0.122,0.275,0.244,60.000,14997.000,1.000
4.024,9.391,0.831,3.138,2.765,2.939,4.752,-4.922,-0.046,0.929,-0.430,-0.183,0.244,0.275,60.000,14998.000,1.000
6.809,10.789,2.302,4.451,4.153,3.666,3.767,-2.727,-0.045,0.928,-0.427,-0.336,0.183,0.244,60.000,14999.000,1.000
9.351,11.275,2.601,5.008,4.611,4.719,4.216,-1.382,-0.044,0.931,-0.426,-0.244,0.153,0.214,60.000,15000.000,1.000
10.347,10.344,1.667,4.637,3.758,6.038,5.582,-0.377,-0.046,0.932,-0.427,-0.366,0.122,0.275,60.000,15001.000,1.000
9.532,8.473,0.063,3.573,1.957,7.255,6.686,0.840,-0.045,0.932,-0.428,-0.580,0.061,0.305,60.000,15002.000,1.000
8.628,7.368,-1.131,2.620,0.392,8.220,7.056,2.425,-0.046,0.933,-0.427,-0.732,0.092,0.366,60.000,15003.000,1.000
8.503,7.826,-1.297,2.146,-0.220,8.848,6.639,3.841,-0.047,0.933,-0.427,-0.824,0.031,0.397,60.000,15004.000,1.000
9.663,9.881,-0.014,2.414,0.540,9.597,6.370,4.738,-0.048,0.931,-0.428,-0.854,-0.061,0.427,60.000,15005.000,1.000
11.617,12.768,2.297,3.068,2.341,10.599,6.688,4.780,-0.049,0.932,-0.427,-0.977,-0.183,0.427,60.000,15006.000,1.000
12.469,15.042,4.285,3.147,4.023,11.214,6.640,3.509,-0.049,0.933,-0.430,-1.038,-0.244,0.336,60.000,15007.000,1.000
11.437,16.067,5.033,2.397,4.907,11.049,5.680,1.248,-0.049,0.934,-0.426,-1.190,-0.397,0.336,60.000,15008.000,1.000
8.957,15.900,4.460,1.209,4.915,10.233,4.236,-0.931,-0.049,0.933,-0.425,-1.221,-0.488,0.366,60.000,15009.000,1.000
7.405,15.638,3.565,0.663,4.891,9.682,3.981,-1.648,-0.051,0.930,-0.426,-1.312,-0.641,0.336,60.000,15010.000,1.000
8.130,15.871,3.100,1.309,5.511,9.937,5.566,-0.399,-0.050,0.929,-0.430,-1.434,-0.702,0.336,60.000,15011.000,1.000
9.223,15.564,2.906,2.579,6.471,10.472,7.447,2.273,-0.049,0.927,-0.431,-1.465,-0.885,0.305,60.000,15012.000,1.000
8.521,13.774,2.771,3.814,7.337,10.540,7.980,5.605,-0.048,0.928,-0.429,-1.526,-1.038,0.366,60.000,15013.000,1.000
5.679,10.885,2.721,4.750,8.068,9.867,6.919,8.815,-0.049,0.929,-0.427,-1.617,-1.190,0.336,60.000,15014.000,1.000
3.832,9.362,3.507,6.238,9.802,9.432,6.358,11.654,-0.048,0.928,-0.429,-1.648,-1.282,0.275,60.000,15015.000,1.000
5.422,10.816,5.233,8.642,13.124,10.011,7.746,13.657,-0.048,0.928,-0.426,-1.740,-1.434,0.305,60.000,15016.000,1.000
8.523,13.717,6.630,10.628,16.509,10.912,9.525,13.635,-0.048,0.927,-0.424,-1.648,-1.556,0.336,60.000,15017.000,1.000
9.981,15.577,6.527,10.647,17.838,10.922,9.311,10.862,-0.046,0.925,-0.425,-1.678,-1.556,0.153,60.000,15018.000,1.000
8.297,14.965,4.882,8.276,16.158,9.382,6.323,6.054,-0.048,0.927,-0.426,-1.587,-1.556,0.092,60.000,15019.000,1.000
5.829,12.852,3.257,5.219,12.923,7.151,2.843,1.638,-0.048,0.926,-0.428,-1.587,-1.526,0.183,60.000,15020.000,1.000
5.287,10.745,3.004,3.584,10.226,5.427,1.410,-0.104,-0.047,0.929,-0.424,-1.434,-1.709,0.031,60.000,15021.000,1.000
6.209,8.829,3.995,4.047,8.820,4.559,2.172,1.389,-0.046,0.927,-0.423,-1.465,-1.740,0.092,60.000,15022.000,1.000
6.958,6.893,5.375,6.057,8.361,4.201,3.527,5.012,-0.046,0.927,-0.427,-1.556,-1.831,0.061,60.000,15023.000,1.000
6.358,4.870,6.237,8.262,7.836,3.479,3.116,8.509,-0.045,0.927,-0.428,-1.495,-1.770,0.122,60.000,15024.000,1.000
5.929,3.867,6.773,9.975,6.980,2.286,0.492,10.234,-0.045,0.929,-0.431,-1.434,-1.892,0.214,60.000,15025.000,1.000
7.218,4.627,7.566,10.933,5.954,1.179,-2.918,9.926,-0.044,0.929,-0.431,-1.434,-1.923,0.214,60.000,15026.000,1.000
9.097,6.219,8.706,10.899,4.645,0.641,-5.500,8.337,-0.044,0.931,-0.429,-1.495,-1.801,0.153,60.000,15027.000,1.000
10.146,7.510,10.025,10.173,3.167,0.937,-6.133,6.415,-0.045,0.931,-0.426,-1.434,-1.770,0.153,60.000,15028.000,1.000
9.741,7.776,10.965,8.990,1.661,1.765,-5.035,4.311,-0.044,0.930,-0.423,-1.373,-1.801,0.244,60.000,15029.000,1.000
9.500,7.697,11.354,7.855,0.766,2.967,-2.607,1.971,-0.044,0.932,-0.423,-1.343,-1.709,0.183,60.000,15030.000,1.000
10.734,8.150,11.040,6.934,0.685,4.093,-0.084,-0.749,-0.044,0.930,-0.425,-1.434,-1.709,0.122,60.000,15031.000,1.000
12.054,8.748,9.720,5.773,0.568,4.227,0.396,-4.003,-0.045,0.931,-0.428,-1.465,-1.648,0.122,60.000,15032.000,1.000
11.663,8.737,7.742,4.232,-0.244,3.147,-1.798,-7.307,-0.045,0.928,-0.428,-1.434,-1.587,0.153,60.000,15033.000,1.000
8.653,7.516,5.823,2.458,-1.816,1.466,-5.457,-9.718,-0.044,0.927,-0.426,-1.251,-1.526,0.183,60.000,15034.000,1.000
5.033,5.906,4.999,1.323,-3.205,0.393,-8.099,-10.037,-0.044,0.927,-0.425,-1.251,-1.495,0.183,60.000,15035.000,1.000
3.410,5.086,5.540,1.448,-3.621,0.410,-8.445,-8.043,-0.042,0.929,-0.427,-1.190,-1.404,0.183,60.000,15036.000,1.000
4.008,5.151,6.694,2.513,-3.224,1.019,-7.234,-4.914,-0.045,0.929,-0.429,-1.129,-1.343,0.214,60.000,15037.000,1.000
5.743,5.652,7.719,4.017,-2.346,1.780,-5.456,-2.059,-0.043,0.930,-0.427,-1.038,-1.190,0.244,60.000,15038.000,1.000
6.676,5.660,8.000,5.367,-1.456,2.285,-4.158,-0.455,-0.045,0.928,-0.428,-1.038,-1.251,0.214,60.000,15039.000,1.000
6.569,5.103,7.590,6.544,-0.585,2.396,-3.668,-0.233,-0.044,0.925,-0.428,-0.946,-1.160,0.214,60.000,15040.000,1.000
6.037,4.226,6.622,7.431,0.059,1.812,-4.165,-1.225,-0.043,0.922,-0.429,-0.946,-1.007,0.153,60.000,15041.000,1.000
4.919,2.845,5.107,7.517,-0.084,0.388,-5.725,-2.995,-0.044,0.922,-0.427,-0.732,-1.007,0.183,60.000,15042.000,1.000
3.521,1.178,3.476,6.733,-0.869,-1.153,-7.425,-4.555,-0.043,0.926,-0.427,-0.732,-1.007,0.122,60.000,15043.000,1.000
1.688,-0.754,1.913,5.056,-1.918,-2.126,-8.567,-5.241,-0.042,0.928,-0.429,-0.549,-0.885,0.153,60.000,15044.000,1.000
0.090,-2.462,0.664,2.960,-2.528,-2.064,-8.393,-4.671,-0.042,0.929,-0.428,-0.549,-0.763,0.214,60.000,15045.000,1.000
-0.424,-3.335,-0.217,0.985,-2.309,-1.089,-6.519,-2.871,-0.042,0.929,-0.429,-0.458,-0.702,0.336,60.000,15046.000,1.000
0.023,-3.398,-0.982,-0.684,-1.614,0.131,-3.397,-0.436,-0.042,0.927,-0.427,-0.458,-0.519,0.336,60.000,15047.000,1.000
1.304,-2.953,-1.771,-1.949,-1.017,0.860,0.146,1.721,-0.042,0.927,-0.427,-0.580,-0.397,0.366,60.000,15048.000,1.000
2.044,-3.115,-2.882,-3.250,-1.482,0.149,2.376,2.521,-0.042,0.926,-0.428,-0.549,-0.244,0.366,60.000,15049.000,1.000
1.248,-4.496,-4.065,-4.668,-3.202,-2.082,2.391,1.815,-0.043,0.928,-0.427,-0.458,-0.092,0.488,60.000,15050.000,1.000
-1.384,-7.013,-5.006,-6.118,-5.554,-4.996,0.671,0.235,-0.043,0.926,-0.430,-0.366,-0.031,0.366,60.000,15051.000,1.000
-5.411,-10.089,-5.699,-7.618,-7.628,-7.440,-1.452,-1.477,-0.045,0.928,-0.429,-0.275,0.092,0.427,60.000,15052.000,1.000
-8.462,-12.152,-5.945,-8.768,-8.244,-8.431,-2.319,-2.482,-0.044,0.927,-0.428,-0.336,0.183,0.458,60.000,15053.000,1.000
-9.322,-12.413,-5.946,-9.531,-7.233,-8.202,-2.057,-2.276,-0.042,0.927,-0.428,-0.275,0.153,0.488,60.000,15054.000,1.000
-8.540,-11.183,-6.016,-10.027,-5.356,-7.570,-1.971,-0.872,-0.043,0.926,-0.430,-0.336,0.214,0.427,60.000,15055.000,1.000
-8.021,-9.664,-6.557,-10.599,-3.896,-7.331,-3.390,0.560,-0.042,0.930,-0.430,-0.275,0.336,0.458,60.000,15056.000,1.000
-9.158,-8.876,-7.536,-11.304,-3.572,-7.623,-6.278,0.549,-0.043,0.930,-0.427,-0.366,0.397,0.519,60.000,15057.000,1.000
-10.558,-8.396,-8.043,-11.273,-3.578,-7.542,-8.495,-0.953,-0.043,0.928,-0.430,-0.488,0.519,0.488,60.000,15058.000,1.000
-11.239,-8.111,-7.742,-10.222,-3.198,-6.410,-8.374,-3.015,-0.042,0.927,-0.427,-0.488,0.488,0.488,60.000,15059.000,1.000
-11.415,-8.345,-7.053,-8.683,-2.343,-4.133,-5.676,-4.462,-0.041,0.927,-0.426,-0.519,0.702,0.458,60.000,15060.000,1.000
-12.201,-9.455,-6.870,-7.721,-1.567,-1.507,-1.920,-4.643,-0.042,0.928,-0.425,-0.427,0.702,0.519,60.000,15061.000,1.000
-14.368,-11.276,-7.670,-8.014,-1.458,0.296,0.774,-3.516,-0.042,0.929,-0.427,-0.458,0.854,0.519,60.000,15062.000,1.000
-16.449,-12.532,-8.828,-8.955,-1.756,0.795,1.749,-1.340,-0.042,0.929,-0.428,-0.488,0.916,0.610,60.000,15063.000,1.000
-17.478,-12.683,-9.880,-9.953,-2.344,-0.203,0.850,0.838,-0.042,0.929,-0.427,-0.488,0.854,0.580,60.000,15064.000,1.000
-17.325,-12.048,-10.632,-10.625,-3.158,-2.352,-1.610,1.870,-0.044,0.927,-0.427,-0.519,0.854,0.549,60.000,15065.000,1.000
-16.706,-11.630,-11.170,-10.963,-4.249,-5.002,-4.959,1.174,-0.044,0.930,-0.428,-0.610,0.916,0.519,60.000,15066.000,1.000
-16.646,-12.536,-11.644,-11.191,-5.743,-7.424,-8.021,-0.987,-0.043,0.927,-0.427,-0.610,0.885,0.549,60.000,15067.000,1.000
-16.666,-14.651,-11.873,-11.135,-7.251,-8.796,-8.932,-3.622,-0.044,0.928,-0.427,-0.580,0.824,0.610,60.000,15068.000,1.000
-16.615,-17.501,-12.014,-10.866,-8.576,-9.100,-7.239,-5.949,-0.045,0.929,-0.427,-0.549,0.824,0.580,60.000,15069.000,1.000
-16.096,-20.003,-12.026,-10.216,-9.423,-8.727,-3.793,-7.215,-0.046,0.929,-0.424,-0.610,0.793,0.610,60.000,15070.000,1.000
-14.670,-20.965,-11.749,-9.052,-9.652,-8.176,-0.215,-6.914,-0.045,0.930,-0.426,-0.671,0.763,0.702,60.000,15071.000,1.000
-12.419,-19.884,-11.075,-7.537,-9.374,-7.634,2.101,-5.098,-0.047,0.929,-0.427,-0.732,0.763,0.580,60.000,15072.000,1.000
-8.959,-16.784,-9.756,-5.615,-8.398,-6.642,3.126,-2.213,-0.049,0.928,-0.431,-0.763,0.763,0.641,60.000,15073.000,1.000
-5.179,-13.111,-8.138,-3.720,-7.066,-5.232,2.827,0.514,-0.046,0.930,-0.431,-0.793,0.641,0.610,60.000,15074.000,1.000
-1.960,-10.304,-6.515,-2.235,-5.766,-3.712,1.656,1.779,-0.047,0.928,-0.432,-0.824,0.610,0.610,60.000,15075.000,1.000
0.178,-8.936,-4.876,-1.305,-4.606,-2.243,0.725,0.986,-0.045,0.928,-0.430,-0.885,0.580,0.671,60.000,15076.000,1.000
0.734,-8.857,-3.046,-0.794,-3.412,-0.596,1.201,-1.088,-0.045,0.930,-0.430,-0.854,0.488,0.671,60.000,15077.000,1.000
0.580,-8.900,-0.769,-0.052,-1.639,1.653,3.821,-2.560,-0.044,0.931,-0.430,-0.916,0.458,0.732,60.000,15078.000,1.000
0.210,-8.373,1.381,0.971,0.432,3.963,7.349,-2.402,-0.045,0.932,-0.432,-0.977,0.366,0.763,60.000,15079.000,1.000
0.090,-7.034,2.689,2.044,2.166,5.523,9.947,-0.829,-0.045,0.930,-0.429,-0.916,0.366,0.610,60.000,15080.000,1.000
0.120,-5.217,2.669,2.724,2.999,5.793,10.154,1.237,-0.047,0.929,-0.428,-0.885,0.244,0.610,60.000,15081.000,1.000
-0.632,-3.694,1.237,2.440,2.565,4.539,7.245,2.621,-0.047,0.927,-0.430,-1.007,0.183,0.610,60.000,15082.000,1.000
-1.941,-2.513,-0.883,1.195,1.195,2.074,2.211,2.373,-0.048,0.927,-0.426,-0.977,0.092,0.671,60.000,15083.000,1.000
-3.638,-1.758,-2.945,-0.880,-0.767,-1.183,-3.219,0.091,-0.046,0.925,-0.427,-1.099,0.061,0.641,60.000,15084.000,1.000
-5.038,-1.184,-4.145,-3.069,-2.660,-4.329,-6.886,-3.208,-0.047,0.925,-0.431,-1.038,-0.031,0.641,60.000,15085.000,1.000
-5.511,-0.509,-4.155,-4.492,-3.874,-6.450,-7.564,-5.837,-0.045,0.926,-0.430,-1.038,-0.122,0.549,60.000,15086.000,1.000
-5.161,0.198,-3.228,-4.503,-4.167,-7.002,-5.601,-6.493,-0.044,0.926,-0.428,-1.099,-0.092,0.610,60.000,15087.000,1.000
-3.418,1.263,-1.526,-2.460,-3.177,-5.717,-1.847,-4.455,-0.042,0.930,-0.426,-1.038,-0.153,0.610,60.000,15088.000,1.000
-0.632,2.561,0.468,1.224,-1.233,-3.357,2.026,-0.294,-0.044,0.930,-0.427,-1.099,-0.092,0.671,60.000,15089.000,1.000
2.431,3.904,2.303,5.385,0.911,-1.136,4.631,4.447,-0.045,0.931,-0.428,-1.160,-0.122,0.732,60.000,15090.000,1.000
4.417,4.730,3.362,8.465,2.191,-0.218,4.978,7.865,-0.043,0.928,-0.431,-1.129,-0.092,0.641,60.000,15091.000,1.000
3.912,4.282,3.194,9.345,1.830,-1.034,2.671,8.786,-0.042,0.929,-0.429,-1.160,-0.183,0.641,60.000,15092.000,1.000
2.007,3.188,2.427,8.490,0.546,-2.617,-0.871,7.713,-0.042,0.930,-0.427,-1.099,-0.214,0.580,60.000,15093.000,1.000
0.151,2.313,1.875,6.862,-0.591,-3.849,-3.881,5.975,-0.043,0.931,-0.425,-1.038,-0.275,0.610,60.000,15094.000,1.000
-0.784,2.086,2.117,5.417,-0.944,-4.132,-5.129,4.906,-0.043,0.929,-0.428,-1.099,-0.305,0.610,60.000,15095.000,1.000
-1.149,2.116,3.006,4.542,-0.836,-3.675,-4.749,4.781,-0.044,0.929,-0.428,-1.160,-0.458,0.580,60.000,15096.000,1.000
-1.849,1.842,4.050,4.157,-0.991,-2.883,-3.697,4.823,-0.046,0.931,-0.426,-1.129,-0.458,0.519,60.000,15097.000,1.000
-1.870,2.091,5.398,4.576,-1.118,-1.492,-2.110,4.454,-0.046,0.933,-0.426,-1.160,-0.458,0.488,60.000,15098.000,1.000
-0.316,3.744,7.074,5.719,-0.647,0.636,-0.191,3.460,-0.046,0.932,-0.427,-1.221,-0.549,0.427,60.000,15099.000,1.000
2.905,7.013,8.846,7.131,0.836,3.350,2.034,2.103,-0.045,0.931,-0.427,-1.404,-0.641,0.336,60.000,15100.000,1.000
6.498,10.932,10.004,7.879,3.032,5.918,4.426,0.785,-0.045,0.932,-0.429,-1.312,-0.793,0.244,60.000,15101.000,1.000
8.414,13.937,9.922,7.166,5.177,7.501,6.565,0.103,-0.047,0.930,-0.427,-1.343,-0.824,0.244,60.000,15102.000,1.000
8.421,15.545,9.030,5.452,7.054,8.249,8.582,1.006,-0.045,0.929,-0.425,-1.343,-0.854,0.214,60.000,15103.000,1.000
6.579,15.522,7.870,3.391,8.158,8.555,10.056,3.412,-0.043,0.929,-0.423,-1.373,-0.977,0.183,60.000,15104.000,1.000
3.623,14.106,6.837,1.577,7.913,8.639,10.467,6.092,-0.043,0.928,-0.425,-1.404,-1.007,0.183,60.000,15105.000,1.000
0.586,11.752,5.838,0.208,5.932,8.134,9.391,7.519,-0.042,0.924,-0.427,-1.373,-0.946,0.122,60.000,15106.000,1.000
-2.304,8.506,4.310,-1.083,2.054,6.322,6.525,6.656,-0.042,0.926,-0.429,-1.373,-0.977,0.092,60.000,15107.000,1.000
-4.747,4.562,1.946,-2.612,-3.177,3.058,2.399,3.234,-0.043,0.926,-0.426,-1.312,-0.977,0.092,60.000,15108.000,1.000
-7.443,-0.241,-1.412,-4.828,-9.107,-1.356,-2.583,-2.541,-0.044,0.923,-0.426,-1.190,-0.977,0.153,60.000,15109.000,1.000
-10.064,-5.146,-4.939,-7.227,-14.331,-5.781,-7.531,-9.227,-0.045,0.921,-0.425,-1.160,-0.946,0.122,60.000,15110.000,1.000
-10.847,-8.346,-7.137,-8.522,-16.992,-8.819,-11.277,-14.540,-0.046,0.920,-0.427,-1.007,-0.854,0.183,60.000,15111.000,1.000
-8.570,-8.502,-6.887,-7.783,-16.015,-9.635,-13.069,-16.632,-0.044,0.922,-0.429,-0.854,-0.885,0.244,60.000,15112.000,1.000
-2.937,-5.313,-3.877,-4.732,-11.443,-7.912,-12.213,-14.604,-0.042,0.923,-0.427,-0.732,-0.946,0.366,60.000,15113.000,1.000
4.003,-0.285,0.827,-0.317,-4.853,-4.118,-8.893,-8.915,-0.040,0.923,-0.429,-0.610,-1.007,0.305,60.000,15114.000,1.000
10.221,4.825,5.766,4.177,1.838,1.022,-3.555,-1.099,-0.041,0.927,-0.427,-0.519,-0.946,0.366,60.000,15115.000,1.000
14.842,8.882,9.560,7.493,7.069,6.369,2.860,6.204,-0.041,0.929,-0.428,-0.580,-0.916,0.397,60.000,15116.000,1.000
17.437,11.214,11.278,8.706,9.923,10.503,8.794,10.256,-0.044,0.931,-0.425,-0.793,-0.854,0.549,60.000,15117.000,1.000
18.525,11.937,11.008,7.843,10.487,12.387,12.984,10.066,-0.046,0.932,-0.425,-0.885,-0.793,0.488,60.000,15118.000,1.000
17.842,10.851,9.202,5.131,8.928,11.228,14.016,6.429,-0.048,0.933,-0.430,-0.946,-0.702,0.336,60.000,15119.000,1.000
15.864,8.290,7.057,1.639,6.252,7.736,12.080,1.538,-0.044,0.934,-0.425,-1.038,-0.793,0.275,60.000,15120.000,1.000
14.030,5.345,5.833,-1.005,4.209,3.993,8.904,-2.332,-0.043,0.930,-0.427,-1.007,-0.702,0.336,60.000,15121.000,1.000
13.091,3.051,5.667,-1.869,3.800,1.649,5.749,-4.025,-0.039,0.927,-0.429,-0.977,-0.610,0.427,60.000,15122.000,1.000
13.447,2.413,5.900,-0.968,4.953,1.159,3.290,-3.467,-0.036,0.923,-0.432,-0.977,-0.549,0.549,60.000,15123.000,1.000
13.917,3.186,5.535,0.517,6.546,1.815,1.539,-1.515,-0.035,0.922,-0.428,-0.854,-0.427,0.671,60.000,15124.000,1.000
13.611,4.613,4.502,1.627,7.839,3.057,0.998,0.929,-0.035,0.922,-0.429,-0.854,-0.366,0.641,60.000,15125.000,1.000
12.524,6.061,3.456,2.087,8.710,4.670,2.078,3.122,-0.036,0.926,-0.429,-0.885,-0.183,0.671,60.000,15126.000,1.000
10.478,7.002,2.925,1.929,9.124,6.343,3.934,4.470,-0.040,0.927,-0.427,-0.885,-0.092,0.702,60.000,15127.000,1.000
7.820,7.511,3.018,1.489,9.354,7.689,5.235,4.799,-0.040,0.933,-0.428,-0.946,-0.031,0.641,60.000,15128.000,1.000
4.176,7.255,2.843,0.583,9.309,7.922,4.567,3.964,-0.039,0.935,-0.426,-1.007,0.031,0.732,60.000,15129.000,1.000
0.054,6.257,1.764,-0.655,9.060,6.882,2.229,2.415,-0.041,0.938,-0.428,-1.160,0.000,0.763,60.000,15130.000,1.000
-3.131,5.065,0.051,-1.602,8.850,5.144,-0.120,1.169,-0.040,0.938,-0.432,-1.160,0.092,0.793,60.000,15131.000,1.000
-4.678,4.102,-1.433,-1.710,8.706,3.504,-1.049,1.113,-0.042,0.937,-0.434,-1.251,0.244,0.824,60.000,15132.000,1.000
-4.017,4.002,-1.594,-0.564,8.794,2.931,0.361,2.595,-0.044,0.934,-0.434,-1.312,0.183,0.732,60.000,15133.000,1.000
-2.001,4.668,-0.324,1.313,8.818,3.705,3.325,4.835,-0.051,0.933,-0.433,-1.312,0.153,0.610,60.000,15134.000,1.000
0.565,5.884,1.878,3.251,8.604,5.562,6.375,6.772,-0.054,0.933,-0.429,-1.373,0.031,0.519,60.000,15135.000,1.000
3.124,7.172,4.155,4.682,8.065,7.613,8.218,7.793,-0.058,0.933,-0.428,-1.373,0.000,0.336,60.000,15136.000,1.000
4.330,7.216,5.440,4.916,6.826,8.537,8.068,7.841,-0.061,0.933,-0.424,-1.373,-0.275,0.275,60.000,15137.000,1.000
3.526,5.150,5.167,3.704,4.922,7.540,6.199,7.155,-0.059,0.932,-0.430,-1.495,-0.488,0.153,60.000,15138.000,1.000
0.219,0.746,3.028,0.930,2.469,4.288,2.530,5.326,-0.061,0.932,-0.431,-1.556,-0.732,0.031,60.000,15139.000,1.000
-4.488,-4.694,-0.321,-2.595,0.156,-0.437,-2.499,2.099,-0.058,0.931,-0.429,-1.648,-1.038,-0.031,60.000,15140.000,1.000
-8.442,-9.053,-3.486,-5.391,-1.001,-4.909,-7.223,-1.766,-0.056,0.927,-0.426,-1.648,-1.160,-0.214,60.000,15141.000,1.000
-10.553,-11.057,-5.266,-6.315,-0.484,-7.416,-9.588,-4.820,-0.054,0.927,-0.428,-1.617,-1.343,-0.427,60.000,15142.000,1.000
-10.547,-10.306,-5.097,-4.862,1.625,-7.012,-8.255,-5.905,-0.050,0.929,-0.431,-1.526,-1.526,-0.336,60.000,15143.000,1.000
-10.223,-7.989,-3.897,-2.063,3.950,-4.487,-4.539,-5.397,-0.049,0.930,-0.429,-1.495,-1.556,-0.275,60.000,15144.000,1.000
-11.104,-5.577,-2.999,0.537,5.082,-1.301,-0.773,-4.317,-0.045,0.930,-0.432,-1.556,-1.556,-0.275,60.000,15145.000,1.000
-13.033,-3.996,-3.243,1.757,4.554,1.306,1.408,-3.204,-0.044,0.930,-0.429,-1.587,-1.587,-0.214,60.000,15146.000,1.000
-15.165,-3.750,-4.731,1.065,2.671,2.606,1.456,-2.051,-0.043,0.931,-0.427,-1.587,-1.556,-0.061,60.000,15147.000,1.000
-15.913,-4.298,-6.705,-0.949,0.450,2.819,0.420,-0.818,-0.042,0.932,-0.426,-1.617,-1.587,0.061,60.000,15148.000,1.000
-15.145,-5.182,-8.593,-3.577,-1.599,2.321,-0.649,-0.286,-0.041,0.930,-0.425,-1.709,-1.495,0.244,60.000,15149.000,1.000
-13.108,-5.848,-9.894,-5.989,-3.315,1.418,-1.201,-1.298,-0.042,0.929,-0.425,-1.740,-1.282,0.397,60.000,15150.000,1.000
-9.838,-5.766,-10.371,-7.541,-4.770,0.007,-1.798,-4.119,-0.041,0.926,-0.423,-1.770,-1.282,0.458,60.000,15151.000,1.000
-5.998,-5.017,-10.184,-8.019,-6.198,-2.104,-3.597,-8.021,-0.042,0.926,-0.425,-1.648,-1.068,0.488,60.000,15152.000,1.000
-1.943,-3.717,-9.283,-7.112,-7.320,-4.340,-6.245,-11.082,-0.041,0.926,-0.427,-1.587,-0.946,0.671,60.000,15153.000,1.000
1.040,-2.662,-7.891,-5.181,-8.103,-6.107,-8.596,-11.761,-0.040,0.924,-0.425,-1.526,-0.916,0.580,60.000,15154.000,1.000
2.329,-2.197,-6.110,-2.705,-8.329,-6.840,-9.180,-9.804,-0.043,0.926,-0.425,-1.373,-0.763,0.671,60.000,15155.000,1.000
2.526,-1.765,-4.071,-0.023,-7.543,-6.268,-7.434,-6.411,-0.043,0.926,-0.424,-1.312,-0.702,0.793,60.000,15156.000,1.000
2.178,-0.862,-2.227,2.453,-5.689,-4.771,-4.520,-3.424,-0.042,0.927,-0.422,-1.190,-0.641,0.793,60.000,15157.000,1.000
2.299,0.914,-0.764,4.753,-2.856,-2.863,-1.550,-1.613,-0.042,0.925,-0.423,-1.221,-0.488,0.763,60.000,15158.000,1.000
2.850,3.046,0.211,6.926,0.409,-1.134,1.062,-0.305,-0.040,0.924,-0.424,-1.282,-0.427,0.824,60.000,15159.000,1.000
3.792,5.052,1.009,9.315,3.663,0.332,3.822,1.886,-0.040,0.923,-0.426,-1.221,-0.366,0.885,60.000,15160.000,1.000
5.133,6.575,1.657,11.887,6.181,1.366,6.256,5.027,-0.040,0.922,-0.425,-1.160,-0.275,0.885,60.000,15161.000,1.000
6.141,6.877,1.561,13.808,6.696,1.317,6.293,7.383,-0.041,0.924,-0.425,-1.068,-0.122,0.793,60.000,15162.000,1.000
6.990,5.939,0.635,14.597,4.769,0.035,2.962,7.479,-0.039,0.924,-0.424,-0.916,0.000,0.641,60.000,15163.000,1.000
7.553,4.021,-0.796,14.058,0.758,-2.227,-3.110,5.169,-0.040,0.923,-0.425,-0.854,0.031,0.671,60.000,15164.000,1.000
8.094,2.010,-1.841,12.749,-4.022,-4.564,-9.628,1.909,-0.040,0.924,-0.426,-0.793,0.122,0.580,60.000,15165.000,1.000
9.147,0.880,-1.629,11.583,-7.874,-5.727,-13.811,-0.273,-0.038,0.925,-0.430,-0.763,0.214,0.580,60.000,15166.000,1.000
10.463,0.682,0.056,10.973,-9.709,-4.886,-14.041,-0.241,-0.037,0.927,-0.427,-0.641,0.305,0.580,60.000,15167.000,1.000
12.347,1.311,3.022,10.993,-9.133,-2.034,-10.342,1.765,-0.037,0.928,-0.428,-0.580,0.458,0.702,60.000,15168.000,1.000
14.480,2.198,6.288,11.037,-7.073,1.404,-5.288,4.285,-0.037,0.929,-0.427,-0.549,0.580,0.641,60.000,15169.000,1.000
16.627,2.973,8.851,10.679,-4.800,3.842,-1.718,6.142,-0.037,0.926,-0.427,-0.366,0.671,0.580,60.000,15170.000,1.000
18.399,3.246,9.895,9.578,-3.450,4.323,-0.843,6.674,-0.041,0.927,-0.428,-0.336,0.793,0.519,60.000,15171.000,1.000
18.394,2.016,8.832,7.048,-4.143,2.482,-2.390,5.113,-0.041,0.927,-0.433,-0.336,0.793,0.397,60.000,15172.000,1.000
16.194,-1.052,6.054,3.049,-7.018,-1.081,-4.925,1.124,-0.043,0.930,-0.432,-0.397,0.824,0.427,60.000,15173.000,1.000
11.940,-5.525,2.465,-1.822,-11.298,-5.300,-7.519,-4.776,-0.044,0.929,-0.430,-0.336,0.854,0.519,60.000,15174.000,1.000
7.164,-9.806,-0.639,-6.234,-15.226,-8.808,-9.281,-10.807,-0.045,0.930,-0.429,-0.305,0.916,0.458,60.000,15175.000,1.000
3.666,-12.413,-2.468,-9.237,-17.334,-10.956,-9.469,-14.899,-0.044,0.932,-0.425,-0.275,0.793,0.397,60.000,15176.000,1.000
1.542,-13.380,-3.258,-11.041,-17.614,-12.272,-8.246,-15.893,-0.046,0.934,-0.426,-0.305,0.732,0.397,60.000,15177.000,1.000
0.646,-13.102,-3.382,-11.955,-16.555,-13.239,-5.983,-13.624,-0.046,0.934,-0.424,-0.427,0.763,0.305,60.000,15178.000,1.000
-0.088,-12.457,-3.368,-12.373,-14.889,-13.967,-3.779,-9.312,-0.045,0.933,-0.427,-0.427,0.549,0.336,60.000,15179.000,1.000
-1.515,-12.202,-3.406,-12.334,-12.969,-13.892,-2.371,-4.917,-0.045,0.932,-0.429,-0.519,0.519,0.275,60.000,15180.000,1.000
-3.916,-12.772,-3.592,-11.805,-11.033,-12.594,-1.647,-2.302,-0.044,0.934,-0.430,-0.671,0.366,0.458,60.000,15181.000,1.000
-7.656,-14.449,-4.255,-11.071,-9.694,-10.628,-1.317,-2.340,-0.045,0.932,-0.429,-0.702,0.336,0.336,60.000,15182.000,1.000
-11.801,-16.462,-5.321,-10.106,-9.149,-8.836,-0.868,-4.209,-0.047,0.932,-0.428,-0.793,0.305,0.305,60.000,15183.000,1.000
-15.718,-17.988,-6.665,-9.117,-9.402,-8.008,-0.564,-6.455,-0.046,0.931,-0.429,-0.793,0.275,0.336,60.000,15184.000,1.000
-18.732,-18.240,-7.780,-8.177,-9.861,-8.144,-0.540,-7.803,-0.046,0.930,-0.430,-0.885,0.214,0.275,60.000,15185.000,1.000
-20.182,-16.833,-8.098,-7.201,-9.614,-8.698,-0.607,-7.827,-0.047,0.929,-0.429,-0.854,0.122,0.244,60.000,15186.000,1.000
-20.361,-14.346,-7.552,-6.322,-8.237,-9.177,-0.878,-7.080,-0.046,0.929,-0.430,-0.854,0.031,0.275,60.000,15187.000,1.000
-19.483,-11.492,-6.377,-5.626,-5.717,-9.054,-1.118,-6.299,-0.044,0.928,-0.429,-0.854,-0.122,0.305,60.000,15188.000,1.000
-18.903,-9.533,-5.387,-5.670,-2.986,-8.367,-1.309,-6.151,-0.045,0.927,-0.425,-0.763,-0.183,0.397,60.000,15189.000,1.000
-19.334,-8.972,-4.912,-6.578,-0.919,-7.193,-1.039,-6.548,-0.048,0.925,-0.424,-0.763,-0.183,0.397,60.000,15190.000,1.000
-19.923,-8.996,-4.576,-7.864,0.203,-5.548,0.012,-6.755,-0.046,0.923,-0.426,-0.702,-0.305,0.397,60.000,15191.000,1.000
-19.923,-8.761,-3.985,-9.106,0.341,-3.743,1.142,-6.038,-0.045,0.923,-0.426,-0.610,-0.427,0.427,60.000,15192.000,1.000
-18.655,-7.732,-2.811,-9.731,0.027,-2.077,1.807,-3.923,-0.046,0.923,-0.427,-0.580,-0.427,0.549,60.000,15193.000,1.000
-16.867,-6.472,-1.388,-9.622,-0.384,-1.067,1.849,-0.999,-0.042,0.925,-0.431,-0.397,-0.458,0.580,60.000,15194.000,1.000
-14.935,-5.310,0.002,-8.662,-0.437,-0.683,2.280,1.616,-0.038,0.926,-0.428,-0.366,-0.519,0.610,60.000,15195.000,1.000
-12.217,-3.754,1.358,-6.719,0.391,-0.345,4.175,3.197,-0.037,0.927,-0.431,-0.305,-0.488,0.610,60.000,15196.000,1.000
-8.846,-1.638,2.616,-4.123,2.111,0.382,7.013,3.783,-0.038,0.926,-0.430,-0.244,-0.366,0.580,60.000,15197.000,1.000
-5.134,0.941,3.907,-1.248,4.586,1.781,9.756,4.152,-0.041,0.926,-0.427,-0.305,-0.244,0.488,60.000,15198.000,1.000
-2.280,3.252,5.043,1.081,7.153,3.473,11.324,4.915,-0.047,0.928,-0.428,-0.244,-0.305,0.488,60.000,15199.000,1.000
-0.898,4.930,5.902,2.287,9.233,4.906,11.571,6.363,-0.049,0.927,-0.430,-0.397,-0.397,0.458,60.000,15200.000,1.000
-0.832,6.015,6.360,2.276,10.558,5.669,10.870,8.164,-0.051,0.929,-0.428,-0.458,-0.397,0.458,60.000,15201.000,1.000
-2.180,6.306,6.219,1.291,11.054,5.686,9.349,9.464,-0.052,0.927,-0.428,-0.397,-0.641,0.397,60.000,15202.000,1.000
-3.837,6.324,5.795,0.356,11.422,5.530,7.617,9.896,-0.051,0.928,-0.429,-0.458,-0.732,0.336,60.000,15203.000,1.000
-5.021,6.457,5.233,0.158,12.110,5.437,5.965,9.512,-0.047,0.929,-0.430,-0.488,-0.854,0.244,60.000,15204.000,1.000
-5.356,6.721,4.617,0.832,13.111,5.401,4.763,8.752,-0.046,0.929,-0.430,-0.549,-0.946,0.092,60.000,15205.000,1.000
-5.070,6.626,3.894,1.942,14.003,5.247,4.249,8.059,-0.047,0.929,-0.427,-0.671,-1.038,0.122,60.000,15206.000,1.000
-5.298,5.340,2.825,2.691,14.145,4.586,4.049,7.596,-0.046,0.929,-0.428,-0.732,-1.007,0.061,60.000,15207.000,1.000
-5.890,3.215,1.626,2.892,13.600,3.409,3.991,7.509,-0.044,0.930,-0.426,-0.793,-0.977,0.092,60.000,15208.000,1.000
-6.666,0.964,0.448,2.462,12.488,1.750,3.118,7.554,-0.046,0.930,-0.428,-0.885,-1.007,0.153,60.000,15209.000,1.000
-7.252,-0.509,-0.343,1.751,11.192,0.112,0.631,7.590,-0.044,0.930,-0.427,-0.885,-1.099,0.061,60.000,15210.000,1.000
-7.058,-0.396,-0.347,1.339,10.299,-0.690,-2.904,7.695,-0.044,0.928,-0.431,-0.946,-1.129,0.092,60.000,15211.000,1.000
-6.113,1.193,0.350,1.241,9.820,-0.330,-6.045,7.768,-0.044,0.928,-0.432,-0.946,-1.068,0.092,60.000,15212.000,1.000
-3.770,3.861,1.481,1.294,9.540,1.090,-7.201,7.678,-0.044,0.927,-0.433,-1.038,-1.099,0.092,60.000,15213.000,1.000
-0.192,6.646,2.348,1.010,8.899,2.929,-6.437,6.917,-0.041,0.926,-0.432,-0.977,-1.129,0.183,60.000,15214.000,1.000
3.980,8.878,2.513,0.251,7.675,4.627,-4.771,5.079,-0.041,0.927,-0.430,-0.885,-1.038,0.244,60.000,15215.000,1.000
7.748,10.320,1.897,-0.839,5.956,5.665,-3.223,2.223,-0.041,0.927,-0.434,-1.068,-0.946,0.092,60.000,15216.000,1.000
9.582,10.727,0.649,-2.133,3.830,5.676,-2.349,-1.086,-0.041,0.930,-0.429,-1.038,-0.946,0.183,60.000,15217.000,1.000
9.761,10.700,-0.496,-3.015,1.975,5.225,-1.437,-3.819,-0.043,0.929,-0.430,-1.038,-0.946,0.305,60.000,15218.000,1.000
9.063,10.581,-1.174,-3.267,0.759,4.928,-0.215,-5.491,-0.043,0.929,-0.432,-1.038,-0.916,0.336,60.000,15219.000,1.000
8.417,10.363,-1.333,-2.922,0.237,5.076,1.077,-5.952,-0.044,0.929,-0.431,-1.099,-0.946,0.427,60.000,15220.000,1.000
8.346,9.969,-1.129,-2.152,0.272,5.579,2.146,-5.054,-0.044,0.930,-0.432,-1.129,-0.916,0.458,60.000,15221.000,1.000
8.233,9.292,-0.911,-1.343,0.508,6.235,2.754,-2.971,-0.045,0.931,-0.428,-1.099,-0.885,0.488,60.000,15222.000,1.000
8.331,9.050,-0.497,-0.320,1.203,7.447,3.609,-0.093,-0.044,0.933,-0.428,-1.190,-0.824,0.519,60.000,15223.000,1.000
8.499,9.346,0.199,0.958,2.477,9.239,4.987,2.890,-0.044,0.932,-0.428,-1.251,-0.763,0.397,60.000,15224.000,1.000
8.257,9.425,0.967,2.260,4.036,10.775,6.308,5.484,-0.044,0.931,-0.426,-1.312,-0.793,0.336,60.000,15225.000,1.000
7.013,8.313,1.118,2.956,5.137,10.689,6.290,7.108,-0.045,0.933,-0.430,-1.343,-0.732,0.580,60.000,15226.000,1.000
3.977,5.518,-0.095,2.298,4.958,8.324,3.869,6.944,-0.046,0.929,-0.433,-1.404,-0.732,0.580,60.000,15227.000,1.000
0.139,2.236,-2.366,0.571,3.783,4.913,0.082,4.925,-0.047,0.928,-0.429,-1.373,-0.702,0.519,60.000,15228.000,1.000
-3.374,-0.209,-4.932,-1.536,2.289,2.321,-3.137,1.745,-0.046,0.929,-0.427,-1.404,-0.732,0.488,60.000,15229.000,1.000
-5.624,-1.119,-6.815,-3.139,1.201,2.009,-4.030,-1.273,-0.047,0.927,-0.427,-1.343,-0.824,0.488,60.000,15230.000,1.000
-6.172,-0.581,-7.416,-3.663,0.828,4.207,-2.303,-2.946,-0.045,0.927,-0.429,-1.343,-0.854,0.549,60.000,15231.000,1.000
-5.744,0.529,-6.931,-3.279,0.710,7.733,0.365,-2.990,-0.045,0.927,-0.427,-1.343,-0.824,0.519,60.000,15232.000,1.000
-4.181,1.918,-5.534,-2.090,0.667,11.144,2.553,-1.479,-0.046,0.926,-0.428,-1.221,-0.824,0.519,60.000,15233.000,1.000
-1.504,3.377,-3.602,-0.508,0.613,13.047,3.651,1.139,-0.046,0.925,-0.426,-1.221,-0.946,0.458,60.000,15234.000,1.000
2.003,4.773,-1.565,0.902,0.567,12.750,3.961,3.962,-0.047,0.927,-0.425,-1.282,-0.977,0.427,60.000,15235.000,1.000
5.392,5.656,-0.026,1.406,0.253,10.340,3.658,5.553,-0.046,0.927,-0.427,-1.190,-0.977,0.366,60.000,15236.000,1.000
6.876,5.091,0.442,0.434,-0.949,6.588,2.495,4.766,-0.045,0.925,-0.425,-1.099,-0.946,0.458,60.000,15237.000,1.000
6.867,3.506,0.263,-1.201,-2.735,3.226,1.551,2.021,-0.047,0.927,-0.425,-1.160,-1.038,0.458,60.000,15238.000,1.000
6.771,2.002,-0.006,-2.370,-4.578,1.397,1.914,-1.352,-0.046,0.927,-0.427,-1.190,-1.068,0.366,60.000,15239.000,1.000
7.636,1.456,-0.078,-2.433,-6.184,0.872,3.421,-3.871,-0.046,0.929,-0.425,-1.160,-0.977,0.458,60.000,15240.000,1.000
9.049,1.773,-0.096,-1.616,-7.602,0.409,4.471,-4.693,-0.045,0.930,-0.425,-1.190,-0.977,0.580,60.000,15241.000,1.000
9.129,1.734,-0.454,-0.777,-9.102,-1.200,3.102,-4.066,-0.044,0.929,-0.429,-1.312,-0.946,0.580,60.000,15242.000,1.000
7.953,0.966,-0.897,-0.038,-10.163,-3.859,-0.665,-2.602,-0.044,0.929,-0.428,-1.221,-0.885,0.641,60.000,15243.000,1.000
6.849,0.026,-0.992,0.870,-10.075,-6.614,-5.351,-1.090,-0.040,0.928,-0.426,-1.129,-0.824,0.519,60.000,15244.000,1.000
7.267,0.094,-0.264,2.362,-8.306,-8.062,-8.722,-0.091,-0.042,0.931,-0.427,-1.160,-0.763,0.610,60.000,15245.000,1.000
9.382,1.770,1.334,4.465,-5.050,-7.419,-9.296,0.193,-0.044,0.933,-0.427,-1.160,-0.854,0.580,60.000,15246.000,1.000
11.641,4.195,3.285,6.673,-1.390,-5.197,-7.423,-0.033,-0.043,0.931,-0.430,-1.190,-0.702,0.641,60.000,15247.000,1.000
13.778,6.679,5.382,8.922,1.976,-2.331,-3.959,0.025,-0.045,0.930,-0.428,-1.251,-0.732,0.580,60.000,15248.000,1.000
15.798,8.609,7.246,10.902,4.395,-0.027,-0.373,0.696,-0.045,0.930,-0.426,-1.190,-0.763,0.519,60.000,15249.000,1.000
17.399,9.656,8.515,12.169,5.439,1.049,2.244,1.776,-0.046,0.931,-0.426,-1.282,-0.702,0.519,60.000,15250.000,1.000
17.984,9.901,9.085,12.596,5.226,1.031,3.845,2.950,-0.044,0.931,-0.427,-1.251,-0.641,0.671,60.000,15251.000,1.000
16.760,9.589,9.142,12.407,4.272,0.326,4.669,3.848,-0.044,0.930,-0.425,-1.251,-0.641,0.641,60.000,15252.000,1.000
14.892,9.785,9.391,12.405,3.709,-0.376,5.083,4.228,-0.045,0.931,-0.424,-1.282,-0.702,0.641,60.000,15253.000,1.000
13.507,10.847,9.855,12.780,4.109,-0.701,4.670,3.743,-0.046,0.927,-0.431,-1.282,-0.671,0.519,60.000,15254.000,1.000
12.880,12.145,9.981,13.210,5.354,-0.414,3.334,2.539,-0.046,0.928,-0.432,-1.221,-0.641,0.488,60.000,15255.000,1.000
12.560,12.673,9.262,13.219,6.829,0.506,1.774,1.291,-0.046,0.928,-0.429,-1.190,-0.671,0.397,60.000,15256.000,1.000
11.509,11.658,7.616,12.316,7.602,1.667,0.736,0.569,-0.045,0.927,-0.430,-1.038,-0.580,0.397,60.000,15257.000,1.000
10.194,9.813,5.745,10.713,7.441,2.741,1.119,0.638,-0.043,0.927,-0.428,-1.068,-0.610,0.336,60.000,15258.000,1.000
8.868,7.915,4.052,8.573,6.269,3.112,2.455,0.961,-0.044,0.927,-0.427,-1.007,-0.580,0.366,60.000,15259.000,1.000
7.523,6.319,2.709,6.211,4.271,2.516,3.387,0.963,-0.043,0.927,-0.429,-1.038,-0.458,0.336,60.000,15260.000,1.000
6.296,5.096,1.748,4.067,1.893,1.300,2.929,0.540,-0.044,0.927,-0.429,-1.038,-0.458,0.427,60.000,15261.000,1.000
4.692,3.826,0.816,2.144,-0.564,-0.043,0.984,-0.165,-0.042,0.930,-0.429,-0.977,-0.275,0.305,60.000,15262.000,1.000
3.080,2.625,-0.235,0.560,-2.404,-0.844,-0.996,-0.590,-0.042,0.929,-0.429,-0.916,-0.305,0.305,60.000,15263.000,1.000
1.579,1.523,-1.622,-0.847,-3.296,-1.003,-1.797,-0.287,-0.043,0.929,-0.431,-0.885,-0.214,0.305,60.000,15264.000,1.000
0.542,0.682,-3.254,-2.157,-3.336,-0.768,-1.047,0.739,-0.042,0.929,-0.432,-0.885,-0.214,0.336,60.000,15265.000,1.000
0.637,0.405,-4.847,-3.336,-2.871,-0.490,0.704,1.639,-0.042,0.930,-0.429,-0.824,-0.092,0.366,60.000,15266.000,1.000
1.250,0.345,-6.380,-4.600,-2.533,-0.609,2.060,1.133,-0.044,0.928,-0.430,-0.732,-0.061,0.366,60.000,15267.000,1.000
1.581,0.152,-7.613,-5.877,-2.528,-1.079,2.367,-1.022,-0.045,0.927,-0.430,-0.671,0.000,0.305,60.000,15268.000,1.000
0.290,-0.845,-8.436,-7.330,-3.154,-1.807,1.423,-4.093,-0.046,0.927,-0.430,-0.641,0.061,0.366,60.000,15269.000,1.000
-2.703,-2.739,-8.509,-8.897,-4.336,-2.441,-0.079,-6.749,-0.045,0.928,-0.432,-0.580,0.031,0.427,60.000,15270.000,1.000
-5.765,-4.724,-7.464,-10.106,-5.424,-2.544,-0.817,-7.862,-0.044,0.928,-0.426,-0.702,-0.031,0.397,60.000,15271.000,1.000
-7.981,-6.294,-5.600,-10.691,-6.090,-2.202,-0.316,-7.341,-0.045,0.931,-0.427,-0.549,-0.031,0.397,60.000,15272.000,1.000
-9.119,-7.207,-3.550,-10.443,-6.315,-1.744,1.111,-5.877,-0.045,0.931,-0.426,-0.641,0.000,0.366,60.000,15273.000,1.000
-10.287,-8.023,-2.207,-9.586,-6.544,-1.716,2.364,-4.347,-0.045,0.929,-0.424,-0.702,0.061,0.336,60.000,15274.000,1.000
-11.628,-8.782,-1.616,-7.951,-6.532,-1.889,3.353,-2.517,-0.044,0.931,-0.426,-0.793,0.092,0.427,60.000,15275.000,1.000
-11.602,-8.533,-1.072,-5.144,-5.381,-1.386,4.982,0.505,-0.045,0.931,-0.431,-0.854,0.153,0.366,60.000,15276.000,1.000
-10.141,-7.227,-0.467,-1.891,-3.199,-0.016,7.105,4.499,-0.044,0.930,-0.428,-0.916,0.092,0.488,60.000,15277.000,1.000
-8.717,-5.915,-0.240,0.376,-1.057,1.611,8.787,7.892,-0.044,0.928,-0.424,-0.977,0.153,0.519,60.000,15278.000,1.000
-9.634,-6.206,-1.014,0.311,-0.365,2.425,8.763,8.441,-0.043,0.928,-0.427,-1.099,0.061,0.641,60.000,15279.000,1.000
-12.702,-8.112,-2.362,-1.702,-1.156,2.213,7.111,5.138,-0.044,0.928,-0.429,-1.099,-0.031,0.641,60.000,15280.000,1.000
-15.127,-10.018,-3.181,-3.911,-2.086,1.514,5.058,-0.801,-0.043,0.929,-0.431,-1.221,0.000,0.610,60.000,15281.000,1.000
-15.553,-11.077,-3.180,-5.223,-2.283,0.435,3.025,-6.866,-0.043,0.927,-0.430,-1.190,-0.031,0.641,60.000,15282.000,1.000
-14.295,-11.275,-2.667,-5.395,-1.617,-1.090,1.010,-10.590,-0.042,0.929,-0.430,-1.038,0.000,0.702,60.000,15283.000,1.000
-12.905,-11.168,-2.183,-4.866,-0.638,-3.072,-1.143,-11.056,-0.043,0.928,-0.431,-1.099,-0.031,0.732,60.000,15284.000,1.000
-11.687,-10.755,-1.658,-3.764,0.504,-4.882,-2.729,-8.814,-0.046,0.930,-0.429,-1.190,-0.061,0.732,60.000,15285.000,1.000
-9.642,-9.699,-0.858,-2.085,2.057,-5.741,-2.743,-5.289,-0.045,0.929,-0.427,-1.160,-0.031,0.732,60.000,15286.000,1.000
-7.274,-8.655,-0.248,-0.552,3.572,-5.744,-1.571,-2.148,-0.045,0.929,-0.427,-1.068,-0.092,0.671,60.000,15287.000,1.000
-5.587,-8.324,-0.192,0.238,4.391,-5.432,-0.311,-0.118,-0.045,0.928,-0.430,-1.160,-0.092,0.763,60.000,15288.000,1.000
-5.561,-9.150,-0.637,0.145,3.964,-5.385,-0.286,1.032,-0.045,0.928,-0.428,-1.129,-0.061,0.641,60.000,15289.000,1.000
-6.173,-10.330,-0.695,0.130,2.791,-5.282,-1.489,2.186,-0.045,0.928,-0.427,-1.099,-0.122,0.580,60.000,15290.000,1.000
-4.874,-10.182,0.505,1.444,2.114,-4.271,-2.661,3.956,-0.044,0.928,-0.430,-1.038,-0.092,0.763,60.000,15291.000,1.000
-1.153,-8.300,2.587,3.996,2.406,-2.137,-3.082,5.879,-0.046,0.929,-0.430,-1.099,-0.122,0.732,60.000,15292.000,1.000
3.836,-5.416,4.602,6.815,3.485,0.879,-2.465,7.032,-0.045,0.930,-0.429,-0.916,-0.275,0.702,60.000,15293.000,1.000
7.778,-2.972,5.591,8.607,4.578,3.984,-1.270,6.607,-0.045,0.928,-0.425,-0.916,-0.305,0.793,60.000,15294.000,1.000
9.610,-1.632,5.478,8.877,5.202,6.394,0.154,4.654,-0.044,0.928,-0.424,-0.854,-0.305,0.702,60.000,15295.000,1.000
9.869,-1.230,4.753,7.871,5.216,7.479,1.550,1.721,-0.044,0.929,-0.423,-0.916,-0.336,0.671,60.000,15296.000,1.000
8.436,-2.004,3.613,5.779,4.209,6.669,2.014,-1.695,-0.042,0.930,-0.428,-1.007,-0.244,0.549,60.000,15297.000,1.000
5.832,-3.500,2.506,3.352,2.465,4.319,1.379,-4.546,-0.040,0.930,-0.427,-0.977,-0.336,0.519,60.000,15298.000,1.000
2.875,-4.762,1.838,1.439,0.765,1.434,0.148,-5.653,-0.042,0.929,-0.428,-0.977,-0.366,0.549,60.000,15299.000,1.000
0.881,-4.741,1.908,0.785,-0.005,-0.727,-0.709,-4.467,-0.042,0.929,-0.427,-0.946,-0.397,0.488,60.000,15300.000,1.000
0.919,-3.094,2.512,1.525,0.346,-1.557,-0.934,-1.947,-0.042,0.928,-0.427,-0.946,-0.366,0.397,60.000,15301.000,1.000
2.139,-0.866,2.815,2.772,0.767,-1.605,-1.794,-0.279,-0.042,0.928,-0.427,-0.977,-0.305,0.488,60.000,15302.000,1.000
3.689,1.018,2.375,3.694,0.257,-1.579,-4.016,-1.010,-0.042,0.926,-0.432,-0.916,-0.305,0.549,60.000,15303.000,1.000
4.497,1.760,0.963,3.501,-1.879,-2.162,-7.403,-4.407,-0.041,0.925,-0.431,-0.977,-0.275,0.488,60.000,15304.000,1.000
4.171,1.162,-1.095,2.034,-5.441,-3.501,-10.755,-9.222,-0.040,0.926,-0.432,-0.824,-0.244,0.336,60.000,15305.000,1.000
3.276,-0.232,-3.059,-0.122,-9.406,-5.283,-12.825,-13.385,-0.042,0.927,-0.428,-0.824,-0.244,0.366,60.000,15306.000,1.000
1.874,-1.995,-4.525,-2.361,-12.930,-7.321,-13.750,-15.448,-0.042,0.929,-0.428,-0.854,-0.275,0.366,60.000,15307.000,1.000
0.810,-3.285,-5.194,-3.841,-15.197,-9.270,-14.094,-14.966,-0.042,0.927,-0.430,-0.824,-0.366,0.366,60.000,15308.000,1.000
0.492,-3.724,-5.283,-4.257,-16.049,-11.092,-14.670,-12.524,-0.043,0.928,-0.429,-0.732,-0.275,0.275,60.000,15309.000,1.000
0.880,-3.388,-5.118,-3.722,-15.774,-12.776,-15.606,-8.971,-0.043,0.928,-0.428,-0.580,-0.366,0.305,60.000,15310.000,1.000
1.789,-2.565,-4.873,-2.542,-14.787,-14.046,-16.274,-5.143,-0.044,0.925,-0.426,-0.519,-0.366,0.336,60.000,15311.000,1.000
2.417,-1.947,-4.624,-1.257,-13.648,-14.504,-16.223,-1.899,-0.043,0.926,-0.427,-0.458,-0.305,0.275,60.000,15312.000,1.000
3.271,-1.513,-3.914,0.069,-12.254,-13.534,-14.735,0.434,-0.043,0.927,-0.430,-0.458,-0.305,0.275,60.000,15313.000,1.000
4.558,-1.408,-2.742,1.097,-10.617,-11.347,-11.977,1.517,-0.044,0.929,-0.430,-0.336,-0.305,0.336,60.000,15314.000,1.000
5.707,-1.983,-1.589,1.358,-9.017,-8.864,-8.869,1.064,-0.044,0.928,-0.430,-0.397,-0.397,0.275,60.000,15315.000,1.000
6.008,-3.250,-0.950,0.674,-7.780,-7.094,-6.469,-0.661,-0.044,0.930,-0.428,-0.427,-0.305,0.305,60.000,15316.000,1.000
4.700,-5.019,-1.057,-0.789,-7.201,-6.650,-5.694,-2.731,-0.045,0.931,-0.428,-0.427,-0.366,0.366,60.000,15317.000,1.000
3.108,-6.084,-1.242,-1.890,-6.628,-6.901,-5.902,-3.601,-0.046,0.930,-0.430,-0.397,-0.427,0.336,60.000,15318.000,1.000
2.544,-5.694,-0.970,-1.817,-5.488,-6.885,-6.111,-2.488,-0.045,0.931,-0.433,-0.366,-0.549,0.305,60.000,15319.000,1.000
2.939,-4.255,-0.296,-0.782,-3.966,-6.030,-5.836,-0.025,-0.045,0.932,-0.432,-0.397,-0.580,0.336,60.000,15320.000,1.000
3.289,-2.667,0.311,0.346,-2.663,-4.272,-4.959,2.351,-0.046,0.932,-0.428,-0.397,-0.641,0.305,60.000,15321.000,1.000
2.240,-1.665,0.426,0.765,-1.948,-1.839,-3.482,3.722,-0.044,0.934,-0.425,-0.397,-0.732,0.458,60.000,15322.000,1.000
0.467,-0.763,0.417,0.773,-1.094,1.228,-0.816,4.538,-0.044,0.931,-0.426,-0.519,-0.793,0.427,60.000,15323.000,1.000
-1.269,0.274,0.392,0.625,0.318,4.147,2.411,5.249,-0.043,0.931,-0.428,-0.488,-0.732,0.519,60.000,15324.000,1.000
-3.072,1.113,0.087,0.186,1.880,5.681,4.466,5.769,-0.043,0.929,-0.428,-0.641,-0.763,0.397,60.000,15325.000,1.000
-5.318,1.529,-0.594,-0.668,2.957,5.175,4.227,6.056,-0.043,0.927,-0.427,-0.549,-0.793,0.427,60.000,15326.000,1.000
-8.380,1.441,-1.320,-1.834,3.188,3.060,2.074,6.379,-0.046,0.927,-0.429,-0.641,-0.763,0.488,60.000,15327.000,1.000
-10.654,1.680,-1.059,-2.477,3.247,1.008,0.296,7.166,-0.047,0.927,-0.430,-0.580,-0.885,0.488,60.000,15328.000,1.000
-10.849,2.634,0.592,-2.225,3.707,0.435,0.594,8.084,-0.046,0.930,-0.428,-0.488,-0.946,0.488,60.000,15329.000,1.000
-9.111,3.943,3.187,-1.283,4.705,1.860,3.081,8.581,-0.047,0.929,-0.426,-0.366,-1.007,0.488,60.000,15330.000,1.000
-6.393,5.164,5.864,-0.032,6.179,4.758,6.662,8.566,-0.048,0.929,-0.427,-0.427,-1.038,0.366,60.000,15331.000,1.000
-4.189,5.956,7.657,0.988,7.713,7.675,9.586,8.076,-0.047,0.930,-0.424,-0.549,-1.038,0.336,60.000,15332.000,1.000
-2.271,7.109,8.363,1.827,9.286,9.600,11.353,7.362,-0.047,0.929,-0.427,-0.549,-1.068,0.305,60.000,15333.000,1.000
-0.353,9.274,7.977,2.414,10.750,10.194,12.256,6.651,-0.046,0.929,-0.429,-0.641,-1.068,0.305,60.000,15334.000,1.000
1.056,12.190,6.588,2.467,11.795,9.824,12.888,6.247,-0.045,0.928,-0.428,-0.671,-1.129,0.244,60.000,15335.000,1.000
0.975,14.610,4.273,1.555,11.977,8.979,13.417,6.196,-0.045,0.928,-0.431,-0.732,-1.251,0.275,60.000,15336.000,1.000
-2.093,14.456,0.924,-0.964,10.565,7.648,12.887,5.948,-0.046,0.928,-0.426,-0.702,-1.221,0.214,60.000,15337.000,1.000
-7.434,11.116,-2.825,-4.686,7.831,6.053,10.901,5.322,-0.045,0.929,-0.426,-0.732,-1.221,0.214,60.000,15338.000,1.000
-12.948,5.716,-5.897,-8.377,4.879,4.534,7.734,4.688,-0.043,0.929,-0.428,-0.671,-1.160,0.214,60.000,15339.000,1.000
-16.352,0.382,-7.176,-10.601,2.967,3.455,4.271,4.556,-0.043,0.927,-0.429,-0.671,-1.129,0.275,60.000,15340.000,1.000
-16.651,-3.374,-6.490,-10.916,2.387,2.675,1.217,4.561,-0.043,0.925,-0.427,-0.671,-1.129,0.244,60.000,15341.000,1.000
-15.593,-6.013,-5.167,-10.482,1.874,1.277,-1.810,3.303,-0.044,0.924,-0.427,-0.580,-1.190,0.244,60.000,15342.000,1.000
-14.877,-8.325,-4.625,-10.381,0.390,-1.177,-4.833,0.020,-0.043,0.924,-0.429,-0.549,-1.160,0.214,60.000,15343.000,1.000
-15.719,-10.967,-5.766,-11.122,-2.206,-4.438,-7.651,-4.785,-0.044,0.926,-0.428,-0.488,-1.038,0.275,60.000,15344.000,1.000
-17.664,-13.608,-8.149,-12.170,-4.771,-7.426,-9.608,-9.254,-0.043,0.925,-0.430,-0.427,-0.977,0.366,60.000,15345.000,1.000
-18.199,-14.598,-10.074,-12.208,-5.473,-8.732,-9.775,-11.054,-0.042,0.924,-0.430,-0.580,-0.916,0.366,60.000,15346.000,1.000
-15.725,-12.816,-10.063,-10.510,-3.530,-7.740,-8.182,-9.054,-0.043,0.928,-0.431,-0.519,-0.916,0.305,60.000,15347.000,1.000
-10.161,-8.368,-7.553,-7.094,0.638,-4.526,-5.266,-3.836,-0.044,0.928,-0.430,-0.580,-0.977,0.366,60.000,15348.000,1.000
-3.859,-3.141,-3.492,-3.069,5.423,0.026,-2.080,2.319,-0.045,0.930,-0.433,-0.641,-0.916,0.488,60.000,15349.000,1.000
0.699,0.858,0.736,0.358,9.263,4.873,0.762,6.931,-0.045,0.933,-0.432,-0.702,-0.854,0.427,60.000,15350.000,1.000
3.203,3.157,4.220,2.735,11.573,9.219,3.696,8.908,-0.046,0.937,-0.431,-0.763,-0.824,0.519,60.000,15351.000,1.000
4.212,4.089,6.338,3.992,12.290,12.370,7.065,8.586,-0.044,0.935,-0.432,-0.946,-0.854,0.427,60.000,15352.000,1.000
5.011,4.445,7.030,4.466,11.915,14.215,10.899,6.996,-0.042,0.933,-0.431,-1.129,-0.671,0.458,60.000,15353.000,1.000
5.812,4.396,6.280,4.154,10.698,14.692,13.867,4.717,-0.042,0.929,-0.430,-1.343,-0.671,0.427,60.000,15354.000,1.000
6.572,4.118,4.461,3.242,8.884,13.847,14.357,2.179,-0.040,0.922,-0.430,-1.465,-0.549,0.458,60.000,15355.000,1.000
7.726,4.054,2.325,2.287,6.865,11.821,11.910,-0.016,-0.039,0.919,-0.431,-1.495,-0.427,0.458,60.000,15356.000,1.000
8.394,3.644,0.362,1.413,4.512,8.664,7.112,-1.425,-0.038,0.918,-0.436,-1.373,-0.336,0.488,60.000,15357.000,1.000
7.936,2.414,-0.819,0.856,1.942,5.098,2.010,-1.704,-0.041,0.918,-0.436,-1.343,-0.336,0.519,60.000,15358.000,1.000
6.113,0.477,-0.997,0.767,-0.536,2.004,-1.590,-1.164,-0.041,0.922,-0.435,-1.190,-0.305,0.641,60.000,15359.000,1.000
3.826,-1.202,-0.299,1.392,-2.242,-0.003,-2.887,-0.425,-0.038,0.925,-0.431,-1.251,-0.153,0.610,60.000,15360.000,1.000
2.743,-1.574,0.819,2.828,-2.465,-0.945,-2.066,0.033,-0.035,0.930,-0.428,-1.343,0.000,0.793,60.000,15361.000,1.000
2.841,-0.890,1.467,4.334,-1.501,-1.654,-0.412,-0.158,-0.032,0.933,-0.429,-1.465,0.153,0.854,60.000,15362.000,1.000
3.513,0.344,1.300,5.265,-0.049,-2.658,1.225,-0.683,-0.033,0.936,-0.429,-1.617,0.275,0.885,60.000,15363.000,1.000
3.559,1.409,0.433,5.226,0.962,-3.991,2.218,-0.916,-0.037,0.937,-0.434,-1.770,0.336,0.854,60.000,15364.000,1.000
2.796,2.114,-0.403,4.593,1.207,-4.920,2.626,-0.211,-0.042,0.938,-0.432,-1.953,0.427,0.854,60.000,15365.000,1.000
2.823,3.237,-0.243,4.398,1.252,-4.367,3.330,1.727,-0.050,0.939,-0.432,-1.984,0.427,0.824,60.000,15366.000,1.000
4.443,5.099,1.112,5.097,1.459,-2.082,4.670,4.308,-0.056,0.940,-0.429,-2.075,0.275,0.732,60.000,15367.000,1.000
7.824,7.612,3.407,6.555,1.952,1.331,6.489,6.485,-0.057,0.938,-0.428,-2.197,0.153,0.549,60.000,15368.000,1.000
11.816,9.905,5.894,7.780,2.233,4.416,7.639,6.984,-0.058,0.932,-0.429,-2.258,-0.031,0.397,60.000,15369.000,1.000
15.081,11.114,7.959,7.835,1.783,5.960,7.113,5.135,-0.060,0.931,-0.429,-2.319,-0.244,0.275,60.000,15370.000,1.000
17.069,11.151,9.409,6.628,0.636,5.774,5.029,1.253,-0.059,0.929,-0.431,-2.411,-0.488,0.214,60.000,15371.000,1.000
17.048,10.291,10.171,4.651,-0.916,4.398,1.906,-3.688,-0.056,0.927,-0.431,-2.350,-0.793,0.122,60.000,15372.000,1.000
15.743,9.742,10.706,3.161,-1.911,2.991,-1.091,-8.005,-0.055,0.926,-0.429,-2.258,-0.977,0.061,60.000,15373.000,1.000
14.053,10.275,11.220,2.986,-1.674,2.322,-3.023,-10.284,-0.051,0.926,-0.431,-2.228,-1.221,-0.092,60.000,15374.000,1.000
12.438,11.778,11.630,4.209,-0.088,2.759,-3.082,-10.036,-0.051,0.926,-0.430,-2.136,-1.343,-0.061,60.000,15375.000,1.000
11.089,13.800,11.763,6.330,2.568,4.408,-0.893,-7.913,-0.050,0.926,-0.428,-2.014,-1.404,-0.183,60.000,15376.000,1.000
9.127,15.439,11.268,8.232,5.434,6.761,2.449,-5.343,-0.047,0.928,-0.426,-2.014,-1.526,-0.183,60.000,15377.000,1.000
6.579,16.340,10.287,9.288,7.923,9.199,5.746,-3.171,-0.046,0.927,-0.427,-1.923,-1.495,-0.183,60.000,15378.000,1.000
3.594,16.063,8.957,9.132,9.306,10.806,7.946,-1.683,-0.044,0.928,-0.430,-1.892,-1.526,-0.122,60.000,15379.000,1.000
0.499,14.318,7.396,7.761,8.981,10.967,8.719,-0.955,-0.042,0.926,-0.429,-1.862,-1.495,0.061,60.000,15380.000,1.000
-1.763,11.512,5.683,5.567,7.053,9.857,8.438,-1.048,-0.042,0.926,-0.426,-1.801,-1.495,0.244,60.000,15381.000,1.000
-2.903,8.214,3.597,2.873,4.045,8.002,7.086,-1.852,-0.040,0.926,-0.425,-1.678,-1.434,0.275,60.000,15382.000,1.000
-2.123,5.738,1.316,0.431,1.129,6.234,5.089,-2.552,-0.040,0.925,-0.424,-1.617,-1.434,0.458,60.000,15383.000,1.000
0.376,4.886,-0.999,-1.315,-1.006,4.826,3.074,-2.648,-0.042,0.925,-0.422,-1.587,-1.282,0.580,60.000,15384.000,1.000
3.281,5.456,-3.151,-2.249,-2.371,3.570,1.839,-2.333,-0.042,0.925,-0.422,-1.434,-1.221,0.580,60.000,15385.000,1.000
5.402,6.854,-4.879,-2.278,-3.136,2.165,1.576,-2.115,-0.042,0.926,-0.423,-1.434,-1.160,0.641,60.000,15386.000,1.000
5.652,8.250,-6.149,-1.572,-3.528,0.387,1.008,-2.538,-0.041,0.926,-0.421,-1.404,-1.068,0.702,60.000,15387.000,1.000
4.884,9.623,-6.562,0.005,-3.150,-1.320,-0.485,-3.420,-0.040,0.927,-0.426,-1.343,-1.007,0.824,60.000,15388.000,1.000
3.967,10.615,-6.139,2.070,-2.034,-2.803,-2.706,-4.234,-0.042,0.927,-0.423,-1.312,-0.946,0.854,60.000,15389.000,1.000
2.849,10.351,-5.422,3.810,-0.892,-4.296,-5.033,-4.375,-0.043,0.926,-0.422,-1.282,-0.885,0.763,60.000,15390.000,1.000
1.478,8.489,-4.895,4.712,-0.330,-5.749,-6.761,-3.316,-0.045,0.926,-0.422,-1.251,-0.702,0.763,60.000,15391.000,1.000
-0.375,5.272,-4.764,4.626,-0.673,-6.912,-7.766,-1.010,-0.042,0.927,-0.422,-1.129,-0.580,0.732,60.000,15392.000,1.000
-1.428,2.178,-4.545,4.242,-1.359,-7.390,-7.701,2.228,-0.041,0.927,-0.425,-1.038,-0.458,0.641,60.000,15393.000,1.000
-0.726,0.394,-4.054,4.013,-1.859,-7.454,-6.847,5.476,-0.039,0.926,-0.425,-0.977,-0.458,0.671,60.000,15394.000,1.000
1.403,-0.060,-3.475,3.911,-1.988,-7.587,-5.892,7.960,-0.038,0.926,-0.426,-0.977,-0.275,0.610,60.000,15395.000,1.000
3.990,0.049,-2.980,3.778,-1.721,-7.773,-5.137,9.472,-0.036,0.925,-0.425,-0.946,-0.183,0.610,60.000,15396.000,1.000
5.338,-0.542,-2.823,3.262,-1.382,-7.721,-4.732,9.623,-0.037,0.927,-0.427,-0.916,-0.092,0.519,60.000,15397.000,1.000
5.493,-1.915,-2.803,2.656,-0.830,-6.879,-4.029,8.092,-0.038,0.927,-0.428,-0.854,0.244,0.549,60.000,15398.000,1.000
5.217,-3.527,-2.882,2.271,-0.077,-5.421,-2.926,4.982,-0.036,0.927,-0.427,-0.793,0.397,0.458,60.000,15399.000,1.000
5.046,-4.891,-3.148,2.124,0.532,-4.118,-2.041,1.342,-0.036,0.925,-0.429,-0.671,0.519,0.458,60.000,15400.000,1.000
5.123,-5.902,-3.613,1.942,0.593,-3.706,-1.823,-1.357,-0.038,0.924,-0.427,-0.580,0.610,0.397,60.000,15401.000,1.000
4.351,-7.375,-4.391,1.080,-0.453,-4.657,-2.412,-2.508,-0.038,0.926,-0.430,-0.549,0.732,0.427,60.000,15402.000,1.000
2.933,-9.415,-5.085,-0.355,-2.330,-6.408,-2.841,-2.388,-0.039,0.927,-0.429,-0.549,0.946,0.214,60.000,15403.000,1.000
1.815,-11.457,-5.422,-1.978,-4.429,-8.076,-2.624,-2.066,-0.039,0.929,-0.431,-0.519,0.977,0.214,60.000,15404.000,1.000
1.724,-12.766,-5.453,-3.554,-6.300,-9.120,-2.273,-2.443,-0.039,0.933,-0.426,-0.488,1.007,0.275,60.000,15405.000,1.000
2.597,-13.137,-5.521,-5.144,-7.874,-9.611,-2.329,-3.525,-0.042,0.934,-0.427,-0.458,1.099,0.244,60.000,15406.000,1.000
2.671,-13.719,-6.267,-7.273,-9.700,-10.097,-2.937,-4.835,-0.044,0.932,-0.430,-0.488,1.038,0.183,60.000,15407.000,1.000
1.529,-15.014,-7.608,-9.791,-11.764,-10.543,-3.218,-5.645,-0.045,0.932,-0.425,-0.641,1.038,0.214,60.000,15408.000,1.000
0.022,-16.407,-9.084,-12.260,-13.753,-10.739,-3.113,-5.740,-0.043,0.932,-0.426,-0.610,1.068,0.153,60.000,15409.000,1.000
-0.851,-16.802,-10.165,-14.294,-15.363,-10.554,-3.505,-5.596,-0.046,0.931,-0.428,-0.549,1.007,0.183,60.000,15410.000,1.000
-1.020,-15.896,-10.654,-15.837,-16.591,-10.218,-4.978,-6.325,-0.047,0.931,-0.425,-0.580,0.885,0.183,60.000,15411.000,1.000
-2.407,-15.238,-11.074,-17.468,-18.180,-10.673,-7.725,-9.187,-0.047,0.930,-0.426,-0.732,0.885,0.183,60.000,15412.000,1.000
-5.491,-15.885,-11.438,-19.029,-20.135,-12.170,-10.491,-13.792,-0.047,0.929,-0.427,-0.732,0.732,0.183,60.000,15413.000,1.000
-9.122,-17.575,-11.217,-19.735,-21.532,-13.849,-11.582,-18.026,-0.048,0.929,-0.423,-0.671,0.519,0.153,60.000,15414.000,1.000
-11.797,-19.227,-9.803,-18.835,-21.229,-14.269,-10.002,-19.563,-0.049,0.930,-0.425,-0.671,0.458,0.122,60.000,15415.000,1.000
-12.876,-19.982,-7.257,-16.334,-18.860,-12.631,-6.185,-17.573,-0.049,0.932,-0.426,-0.671,0.336,0.122,60.000,15416.000,1.000
-13.912,-20.254,-4.640,-13.357,-15.461,-9.603,-2.245,-13.068,-0.049,0.932,-0.427,-0.610,0.244,0.092,60.000,15417.000,1.000
-15.709,-20.143,-2.621,-10.639,-12.035,-6.232,0.262,-7.385,-0.046,0.932,-0.427,-0.610,-0.031,0.183,60.000,15418.000,1.000
-18.042,-19.365,-1.343,-8.425,-9.235,-3.485,0.897,-1.839,-0.047,0.931,-0.428,-0.732,-0.122,0.244,60.000,15419.000,1.000
-19.929,-17.519,-0.464,-6.573,-7.188,-1.686,0.459,2.329,-0.048,0.933,-0.427,-0.702,-0.183,0.244,60.000,15420.000,1.000
-20.121,-14.426,0.510,-4.848,-5.531,-0.578,-0.006,4.307,-0.047,0.933,-0.427,-0.641,-0.397,0.366,60.000,15421.000,1.000
-19.003,-11.049,1.584,-3.560,-4.116,-0.070,-0.986,4.122,-0.047,0.930,-0.430,-0.671,-0.305,0.549,60.000,15422.000,1.000
-16.943,-8.209,2.810,-2.779,-2.549,0.149,-2.924,2.957,-0.049,0.927,-0.429,-0.610,-0.427,0.549,60.000,15423.000,1.000
-14.739,-6.646,3.987,-2.564,-0.832,0.301,-5.294,1.744,-0.049,0.925,-0.429,-0.549,-0.519,0.397,60.000,15424.000,1.000
-13.092,-6.673,5.016,-2.667,0.764,0.724,-6.382,0.740,-0.047,0.921,-0.427,-0.397,-0.641,0.488,60.000,15425.000,1.000
-11.564,-7.554,6.096,-2.439,2.279,1.897,-4.593,0.186,-0.046,0.920,-0.428,-0.275,-0.702,0.671,60.000,15426.000,1.000
-10.307,-8.570,6.970,-1.893,3.515,3.652,-0.710,0.244,-0.044,0.921,-0.427,-0.244,-0.763,0.671,60.000,15427.000,1.000
-9.351,-8.942,7.364,-1.316,4.471,5.501,3.273,1.076,-0.043,0.922,-0.428,-0.092,-0.824,0.610,60.000,15428.000,1.000
-9.158,-8.443,7.154,-1.088,5.243,6.776,5.518,2.614,-0.042,0.923,-0.428,0.000,-0.946,0.580,60.000,15429.000,1.000
-9.698,-6.923,6.844,-1.032,6.348,7.221,5.750,4.819,-0.039,0.925,-0.430,0.000,-0.885,0.519,60.000,15430.000,1.000
-9.778,-4.053,7.136,-0.517,8.451,6.976,4.902,7.471,-0.038,0.925,-0.429,0.031,-0.854,0.610,60.000,15431.000,1.000
-9.413,-0.684,7.775,0.435,11.071,5.921,3.201,9.774,-0.039,0.923,-0.431,0.092,-0.824,0.671,60.000,15432.000,1.000
-9.047,1.959,8.160,1.639,13.219,4.315,1.051,11.289,-0.041,0.926,-0.431,0.122,-0.610,0.641,60.000,15433.000,1.000
-9.786,2.662,7.542,2.569,13.833,2.537,-0.877,11.945,-0.044,0.926,-0.429,0.092,-0.580,0.702,60.000,15434.000,1.000
-12.052,1.186,5.610,2.768,12.580,1.003,-1.721,11.890,-0.047,0.926,-0.430,0.061,-0.580,0.488,60.000,15435.000,1.000
-14.172,-1.130,2.862,2.349,10.233,0.139,-0.867,11.424,-0.050,0.925,-0.427,0.000,-0.702,0.458,60.000,15436.000,1.000
-14.725,-2.976,-0.033,1.442,7.662,-0.097,0.972,10.585,-0.050,0.926,-0.427,-0.031,-0.793,0.366,60.000,15437.000,1.000
-13.101,-3.551,-2.326,0.406,5.763,0.195,2.820,9.430,-0.052,0.926,-0.427,-0.061,-0.793,0.275,60.000,15438.000,1.000
-10.682,-3.311,-3.936,-0.686,4.818,0.656,3.511,7.897,-0.051,0.928,-0.428,-0.183,-0.977,0.244,60.000,15439.000,1.000
-9.022,-2.958,-4.971,-1.533,4.873,1.127,2.729,6.252,-0.050,0.926,-0.428,-0.214,-1.038,0.153,60.000,15440.000,1.000
-7.686,-2.344,-5.185,-1.316,6.174,1.832,1.658,5.358,-0.048,0.923,-0.424,-0.305,-1.129,0.061,60.000,15441.000,1.000
-6.426,-1.800,-4.689,0.054,8.162,2.537,1.190,5.734,-0.047,0.928,-0.428,-0.427,-1.099,-0.031,60.000,15442.000,1.000
-5.260,-1.828,-3.877,2.010,9.754,2.820,1.455,6.923,-0.046,0.930,-0.431,-0.702,-1.251,-0.153,60.000,15443.000,1.000
-5.037,-2.757,-3.448,3.560,9.725,2.325,1.318,7.405,-0.046,0.933,-0.436,-0.763,-1.251,-0.183,60.000,15444.000,1.000
-5.896,-3.781,-3.439,4.432,7.955,1.515,-0.066,6.254,-0.045,0.934,-0.432,-0.885,-1.251,-0.214,60.000,15445.000,1.000
-6.084,-3.142,-2.995,5.282,5.735,1.415,-1.616,4.024,-0.043,0.931,-0.434,-0.946,-1.221,-0.214,60.000,15446.000,1.000
-4.882,-0.633,-1.785,6.099,3.917,2.051,-1.814,1.518,-0.042,0.931,-0.433,-1.038,-1.190,-0.183,60.000,15447.000,1.000
-2.720,2.481,-0.203,6.305,2.523,2.593,0.008,-0.724,-0.042,0.932,-0.432,-1.099,-1.190,-0.092,60.000,15448.000,1.000
-1.096,4.402,0.856,5.300,0.951,2.142,2.465,-2.441,-0.042,0.932,-0.434,-1.190,-1.068,-0.031,60.000,15449.000,1.000
-0.431,4.738,1.266,3.614,-0.751,0.996,3.897,-3.080,-0.043,0.934,-0.429,-1.221,-1.038,-0.031,60.000,15450.000,1.000
1.122,5.061,1.925,2.726,-1.492,0.433,4.353,-2.135,-0.044,0.933,-0.428,-1.434,-0.977,0.092,60.000,15451.000,1.000
4.424,6.452,3.264,3.097,-0.810,0.952,4.477,-0.397,-0.044,0.934,-0.429,-1.526,-0.916,0.183,60.000,15452.000,1.000
9.032,8.871,5.162,4.224,0.959,2.284,4.968,0.695,-0.043,0.934,-0.428,-1.740,-0.916,0.275,60.000,15453.000,1.000
13.085,11.117,7.026,5.167,2.883,3.799,5.583,0.271,-0.043,0.932,-0.430,-1.831,-0.946,0.366,60.000,15454.000,1.000
15.254,12.214,8.480,5.678,4.395,5.230,5.813,-1.225,-0.044,0.932,-0.428,-1.862,-0.916,0.519,60.000,15455.000,1.000
16.298,12.494,9.492,6.381,5.702,6.662,5.708,-2.699,-0.046,0.933,-0.429,-1.923,-0.977,0.549,60.000,15456.000,1.000
16.718,12.388,9.687,7.436,6.786,7.834,5.006,-3.580,-0.044,0.932,-0.427,-1.953,-0.854,0.580,60.000,15457.000,1.000
16.878,12.387,8.997,8.705,7.767,8.712,3.964,-3.564,-0.043,0.931,-0.430,-2.045,-0.824,0.610,60.000,15458.000,1.000
16.199,12.309,7.622,9.637,8.668,9.334,3.174,-2.723,-0.044,0.931,-0.429,-1.984,-0.793,0.671,60.000,15459.000,1.000
14.162,11.818,6.140,9.844,9.522,9.870,3.500,-1.396,-0.046,0.931,-0.430,-1.953,-0.793,0.702,60.000,15460.000,1.000
11.760,11.393,5.325,9.658,10.554,10.688,5.494,-0.053,-0.046,0.929,-0.427,-2.045,-0.854,0.763,60.000,15461.000,1.000
9.663,11.329,5.338,9.511,11.540,11.832,7.979,0.605,-0.046,0.929,-0.425,-2.045,-0.763,0.641,60.000,15462.000,1.000
8.616,11.844,6.013,10.006,12.313,13.282,9.520,0.333,-0.048,0.927,-0.426,-2.136,-0.824,0.763,60.000,15463.000,1.000
8.343,12.475,6.645,11.059,12.450,14.444,9.279,-0.708,-0.047,0.926,-0.426,-2.136,-0.763,0.702,60.000,15464.000,1.000
7.941,12.477,6.587,12.052,11.585,14.459,7.568,-1.836,-0.048,0.925,-0.428,-2.106,-0.854,0.793,60.000,15465.000,1.000
7.277,11.694,5.796,12.574,9.952,12.975,5.480,-2.143,-0.046,0.926,-0.427,-2.075,-0.854,0.732,60.000,15466.000,1.000
6.168,10.176,4.469,12.404,7.878,10.257,3.341,-1.365,-0.046,0.926,-0.427,-2.075,-0.916,0.671,60.000,15467.000,1.000
5.822,8.965,3.402,12.133,6.142,7.462,1.585,0.263,-0.045,0.925,-0.427,-2.014,-0.885,0.610,60.000,15468.000,1.000
7.292,8.883,3.118,12.119,5.083,5.390,0.442,1.762,-0.043,0.927,-0.428,-1.923,-0.916,0.610,60.000,15469.000,1.000
10.333,9.670,3.487,11.995,4.257,3.974,-0.347,1.982,-0.046,0.925,-0.428,-1.923,-0.916,0.702,60.000,15470.000,1.000
14.010,10.533,4.024,11.232,3.092,2.878,-1.341,0.639,-0.047,0.924,-0.428,-1.862,-0.854,0.610,60.000,15471.000,1.000
16.476,10.471,4.065,9.444,1.175,1.922,-3.344,-1.564,-0.046,0.925,-0.426,-1.923,-0.885,0.519,60.000,15472.000,1.000
17.644,9.955,3.771,7.355,-0.770,1.720,-5.591,-3.036,-0.045,0.925,-0.430,-1.709,-0.946,0.549,60.000,15473.000,1.000
18.310,9.889,3.466,5.800,-1.837,2.564,-6.659,-2.594,-0.045,0.925,-0.428,-1.648,-0.946,0.488,60.000,15474.000,1.000
18.920,10.334,3.047,4.900,-1.833,3.838,-5.934,-0.221,-0.044,0.927,-0.427,-1.556,-0.885,0.549,60.000,15475.000,1.000
19.906,10.962,2.204,4.311,-1.092,4.646,-3.826,3.050,-0.044,0.927,-0.425,-1.526,-0.824,0.519,60.000,15476.000,1.000
20.511,11.038,0.586,3.299,-0.507,4.316,-1.700,5.617,-0.044,0.930,-0.429,-1.465,-0.793,0.488,60.000,15477.000,1.000
20.309,10.342,-1.418,1.721,-0.565,3.076,-0.255,6.588,-0.043,0.930,-0.430,-1.526,-0.763,0.488,60.000,15478.000,1.000
18.986,8.754,-3.252,-0.310,-1.531,1.304,0.056,5.746,-0.042,0.931,-0.428,-1.526,-0.793,0.427,60.000,15479.000,1.000
16.786,6.470,-4.391,-2.445,-3.318,-0.775,-1.013,3.413,-0.042,0.930,-0.429,-1.465,-0.732,0.458,60.000,15480.000,1.000
14.899,4.344,-4.415,-4.024,-5.224,-2.940,-2.962,0.574,-0.043,0.928,-0.427,-1.465,-0.702,0.458,60.000,15481.000,1.000
13.156,2.577,-3.680,-4.923,-6.798,-5.255,-5.242,-1.639,-0.043,0.928,-0.426,-1.434,-0.580,0.458,60.000,15482.000,1.000
11.271,1.223,-2.721,-5.149,-7.590,-7.435,-6.783,-2.178,-0.043,0.928,-0.431,-1.434,-0.519,0.427,60.000,15483.000,1.000
9.028,0.161,-2.092,-4.959,-7.475,-9.040,-6.984,-0.775,-0.043,0.930,-0.434,-1.312,-0.488,0.458,60.000,15484.000,1.000
6.593,-0.590,-1.946,-4.535,-6.549,-9.606,-6.038,1.927,-0.043,0.931,-0.428,-1.251,-0.458,0.427,60.000,15485.000,1.000
4.640,-0.689,-2.094,-3.923,-4.999,-9.008,-4.481,4.478,-0.043,0.931,-0.427,-1.221,-0.397,0.458,60.000,15486.000,1.000
2.621,-0.454,-2.609,-3.708,-3.616,-7.939,-3.212,5.089,-0.044,0.928,-0.427,-1.190,-0.305,0.427,60.000,15487.000,1.000
0.691,0.067,-3.174,-4.140,-2.785,-6.858,-2.192,3.231,-0.046,0.927,-0.429,-1.099,-0.336,0.366,60.000,15488.000,1.000
-0.841,0.593,-3.621,-5.286,-2.648,-5.980,-1.450,-0.386,-0.045,0.928,-0.426,-1.099,-0.305,0.458,60.000,15489.000,1.000
-2.303,0.275,-4.224,-7.082,-3.345,-5.432,-1.537,-4.596,-0.045,0.929,-0.426,-1.099,-0.275,0.397,60.000,15490.000,1.000
-4.026,-1.522,-5.332,-9.127,-4.799,-5.219,-2.625,-8.365,-0.046,0.930,-0.428,-0.977,-0.366,0.427,60.000,15491.000,1.000
-6.711,-4.993,-7.133,-11.044,-6.894,-5.346,-4.431,-11.123,-0.043,0.929,-0.427,-0.946,-0.336,0.305,60.000,15492.000,1.000
-9.175,-8.620,-8.844,-11.910,-8.608,-5.129,-5.430,-12.224,-0.044,0.929,-0.426,-0.793,-0.275,0.275,60.000,15493.000,1.000
-9.952,-10.625,-9.749,-11.378,-9.046,-4.117,-4.670,-11.517,-0.046,0.928,-0.427,-0.793,-0.275,0.275,60.000,15494.000,1.000
-9.131,-10.613,-9.918,-10.267,-8.431,-2.688,-2.709,-9.564,-0.045,0.928,-0.431,-0.763,-0.275,0.366,60.000,15495.000,1.000
-7.543,-9.172,-9.700,-9.604,-7.555,-1.374,-0.377,-6.989,-0.045,0.928,-0.431,-0.671,-0.275,0.397,60.000,15496.000,1.000
-6.575,-7.372,-9.412,-9.985,-7.303,-0.484,1.531,-4.267,-0.042,0.927,-0.429,-0.671,-0.336,0.397,60.000,15497.000,1.000
-6.007,-5.348,-8.837,-10.846,-7.703,0.165,2.924,-1.608,-0.042,0.927,-0.426,-0.641,-0.275,0.458,60.000,15498.000,1.000
-5.395,-3.181,-8.044,-11.535,-8.570,0.317,3.488,0.277,-0.042,0.928,-0.428,-0.580,-0.153,0.458,60.000,15499.000,1.000
-5.089,-1.528,-7.385,-11.806,-9.748,-0.495,3.031,0.435,-0.042,0.928,-0.424,-0.580,-0.183,0.458,60.000,15500.000,1.000
-5.367,-0.983,-6.975,-11.520,-10.771,-2.078,2.361,-1.382,-0.041,0.929,-0.426,-0.580,-0.275,0.427,60.000,15501.000,1.000
-6.961,-2.140,-6.974,-10.937,-11.441,-3.944,2.035,-4.715,-0.042,0.926,-0.425,-0.610,-0.183,0.519,60.000,15502.000,1.000
-9.023,-4.293,-7.164,-10.045,-11.395,-5.482,2.355,-8.332,-0.043,0.927,-0.428,-0.671,-0.092,0.519,60.000,15503.000,1.000
-10.498,-6.332,-7.529,-9.079,-10.607,-6.734,2.774,-10.806,-0.044,0.928,-0.427,-0.671,-0.092,0.580,60.000,15504.000,1.000
-11.656,-7.936,-8.282,-8.539,-9.491,-8.143,2.302,-10.970,-0.042,0.926,-0.430,-0.610,0.000,0.580,60.000,15505.000,1.000
-13.138,-9.299,-9.372,-8.488,-8.330,-9.706,0.477,-8.618,-0.043,0.924,-0.434,-0.702,0.031,0.580,60.000,15506.000,1.000
-15.618,-10.838,-10.543,-8.630,-7.311,-10.983,-2.760,-5.148,-0.044,0.924,-0.433,-0.580,-0.092,0.549,60.000,15507.000,1.000
-17.508,-11.645,-10.947,-7.953,-5.891,-11.035,-6.033,-2.310,-0.044,0.929,-0.429,-0.549,-0.153,0.519,60.000,15508.000,1.000
-17.094,-10.731,-10.261,-6.021,-3.870,-9.637,-7.795,-1.332,-0.045,0.929,-0.429,-0.549,-0.153,0.488,60.000,15509.000,1.000
-14.895,-8.454,-9.083,-3.575,-1.988,-7.600,-7.580,-2.374,-0.046,0.930,-0.429,-0.671,-0.061,0.549,60.000,15510.000,1.000
-12.603,-5.893,-8.075,-1.644,-0.984,-5.895,-5.840,-4.262,-0.045,0.930,-0.427,-0.763,0.000,0.458,60.000,15511.000,1.000
-11.959,-4.250,-7.432,-0.839,-1.005,-5.089,-3.667,-5.151,-0.044,0.929,-0.427,-0.732,-0.092,0.488,60.000,15512.000,1.000
-11.928,-3.411,-6.400,-0.395,-0.910,-4.660,-1.160,-3.376,-0.044,0.930,-0.431,-0.824,-0.092,0.519,60.000,15513.000,1.000
-10.799,-2.957,-4.610,0.485,0.184,-3.999,1.579,0.859,-0.045,0.931,-0.428,-0.977,-0.153,0.580,60.000,15514.000,1.000
-8.782,-3.121,-2.714,1.541,1.698,-3.143,3.504,5.473,-0.043,0.928,-0.428,-1.068,-0.153,0.580,60.000,15515.000,1.000
-7.291,-4.190,-1.699,1.909,2.278,-2.589,3.365,8.349,-0.045,0.929,-0.430,-0.946,-0.122,0.427,60.000,15516.000,1.000
-7.942,-6.201,-2.223,0.801,0.880,-2.952,0.538,8.744,-0.044,0.928,-0.430,-1.099,-0.214,0.427,60.000,15517.000,1.000
-9.349,-7.612,-3.492,-1.059,-1.558,-3.739,-3.274,7.774,-0.045,0.927,-0.430,-1.099,-0.305,0.427,60.000,15518.000,1.000
-9.008,-6.820,-4.228,-2.343,-3.197,-3.899,-5.719,6.851,-0.044,0.928,-0.429,-1.038,-0.336,0.519,60.000,15519.000,1.000
-6.365,-3.968,-3.847,-2.452,-3.081,-2.831,-5.817,6.488,-0.043,0.929,-0.435,-1.099,-0.397,0.488,60.000,15520.000,1.000
-2.893,-0.724,-2.701,-1.792,-1.624,-0.859,-4.054,6.434,-0.045,0.928,-0.431,-1.007,-0.549,0.488,60.000,15521.000,1.000
-1.432,0.583,-1.783,-1.475,-0.309,0.826,-1.881,6.130,-0.046,0.928,-0.430,-1.160,-0.549,0.610,60.000,15522.000,1.000
-2.145,-0.325,-1.190,-1.563,0.272,1.724,0.326,5.636,-0.045,0.930,-0.430,-1.312,-0.519,0.580,60.000,15523.000,1.000
-3.047,-1.895,-0.403,-1.391,0.372,2.044,2.446,5.179,-0.045,0.932,-0.431,-1.373,-0.519,0.641,60.000,15524.000,1.000
-2.602,-2.515,0.939,-0.550,0.273,2.084,3.688,4.641,-0.044,0.932,-0.429,-1.373,-0.580,0.671,60.000,15525.000,1.000
-0.468,-1.405,2.744,0.846,0.131,2.002,3.464,3.644,-0.044,0.930,-0.430,-1.343,-0.702,0.610,60.000,15526.000,1.000
1.843,0.736,4.368,2.054,-0.305,1.703,1.856,1.907,-0.048,0.929,-0.429,-1.190,-0.702,0.641,60.000,15527.000,1.000
3.878,3.331,5.776,2.966,-0.728,1.652,0.565,0.254,-0.045,0.928,-0.428,-1.282,-0.732,0.671,60.000,15528.000,1.000
5.806,5.742,7.170,3.740,-0.801,2.297,0.979,-0.206,-0.045,0.928,-0.429,-1.343,-0.793,0.671,60.000,15529.000,1.000
7.292,7.021,8.500,4.429,-0.545,3.622,2.787,0.756,-0.044,0.930,-0.431,-1.343,-0.763,0.732,60.000,15530.000,1.000
8.208,6.882,9.547,5.208,0.027,5.264,4.806,2.262,-0.043,0.931,-0.431,-1.343,-0.854,0.702,60.000,15531.000,1.000
7.772,5.290,9.720,5.823,0.440,6.244,5.473,2.707,-0.044,0.930,-0.431,-1.404,-0.824,0.763,60.000,15532.000,1.000
6.167,2.832,8.905,6.155,0.414,5.830,4.447,1.379,-0.045,0.929,-0.432,-1.434,-0.916,0.763,60.000,15533.000,1.000
3.951,0.074,7.386,6.051,-0.130,3.917,2.302,-1.045,-0.043,0.930,-0.430,-1.434,-0.824,0.732,60.000,15534.000,1.000
1.894,-2.187,5.883,5.637,-0.840,1.455,0.279,-2.944,-0.042,0.928,-0.429,-1.373,-0.885,0.793,60.000,15535.000,1.000
1.593,-2.511,5.393,5.598,-0.809,0.137,0.021,-3.032,-0.042,0.929,-0.431,-1.312,-0.916,0.641,60.000,15536.000,1.000
3.150,-0.644,6.093,6.085,0.098,0.741,1.695,-1.893,-0.042,0.929,-0.429,-1.312,-1.007,0.702,60.000,15537.000,1.000
5.885,2.552,7.575,6.914,1.449,2.864,4.325,-1.147,-0.043,0.930,-0.429,-1.343,-1.007,0.702,60.000,15538.000,1.000
8.221,5.338,8.871,7.449,2.371,4.984,6.127,-2.061,-0.042,0.929,-0.427,-1.434,-0.977,0.641,60.000,15539.000,1.000
8.804,6.332,9.270,7.118,2.259,5.592,5.892,-4.388,-0.044,0.928,-0.426,-1.526,-0.854,0.580,60.000,15540.000,1.000
8.364,5.842,9.090,6.125,1.557,4.504,4.191,-6.400,-0.043,0.931,-0.429,-1.465,-0.824,0.519,60.000,15541.000,1.000
7.576,4.539,8.850,4.802,0.881,2.513,1.911,-6.458,-0.042,0.929,-0.429,-1.434,-0.793,0.488,60.000,15542.000,1.000
7.103,3.298,9.133,3.864,0.968,0.939,0.163,-3.833,-0.042,0.929,-0.429,-1.343,-0.732,0.549,60.000,15543.000,1.000
7.033,2.748,10.089,3.835,2.139,0.424,-0.390,0.699,-0.044,0.927,-0.425,-1.343,-0.763,0.549,60.000,15544.000,1.000
7.517,3.414,11.557,4.838,4.260,0.780,0.297,5.362,-0.044,0.928,-0.428,-1.373,-0.763,0.580,60.000,15545.000,1.000
9.566,5.827,13.268,6.665,6.954,1.538,1.788,8.515,-0.045,0.927,-0.427,-1.495,-0.763,0.610,60.000,15546.000,1.000
12.270,8.895,14.382,8.164,8.972,1.798,2.379,9.148,-0.044,0.927,-0.427,-1.465,-0.641,0.519,60.000,15547.000,1.000
13.955,10.984,14.420,8.441,9.353,1.150,0.932,7.642,-0.043,0.926,-0.426,-1.434,-0.641,0.519,60.000,15548.000,1.000
13.403,11.076,13.504,7.432,8.111,0.001,-2.006,5.411,-0.044,0.926,-0.427,-1.343,-0.671,0.397,60.000,15549.000,1.000
11.033,9.488,12.429,6.114,6.424,-0.388,-3.959,4.134,-0.044,0.927,-0.426,-1.312,-0.671,0.488,60.000,15550.000,1.000
9.146,7.738,12.187,5.959,5.970,1.244,-2.186,4.816,-0.042,0.926,-0.425,-1.404,-0.732,0.427,60.000,15551.000,1.000
8.397,6.432,12.519,7.102,6.899,4.359,2.703,6.766,-0.042,0.928,-0.427,-1.373,-0.732,0.458,60.000,15552.000,1.000
8.056,5.443,12.329,8.568,8.136,7.150,7.436,8.231,-0.043,0.929,-0.426,-1.404,-0.671,0.458,60.000,15553.000,1.000
6.730,4.241,10.469,8.937,8.335,7.713,8.444,7.368,-0.042,0.927,-0.425,-1.404,-0.671,0.397,60.000,15554.000,1.000
4.197,2.799,6.991,7.597,7.148,5.420,4.603,3.792,-0.044,0.928,-0.429,-1.282,-0.671,0.336,60.000,15555.000,1.000
2.561,2.215,3.415,5.370,5.644,1.401,-1.649,-0.727,-0.044,0.925,-0.427,-1.312,-0.610,0.488,60.000,15556.000,1.000
2.565,2.688,0.926,3.062,4.610,-2.750,-7.013,-3.953,-0.045,0.926,-0.425,-1.251,-0.671,0.488,60.000,15557.000,1.000
3.244,3.370,-0.263,1.185,4.177,-5.624,-9.175,-4.761,-0.045,0.926,-0.427,-1.160,-0.610,0.488,60.000,15558.000,1.000
2.695,2.894,-0.984,-0.282,3.751,-6.724,-8.275,-3.918,-0.045,0.929,-0.429,-1.160,-0.610,0.488,60.000,15559.000,1.000
0.172,0.748,-2.021,-1.315,2.863,-6.225,-5.926,-2.840,-0.044,0.930,-0.427,-1.190,-0.549,0.519,60.000,15560.000,1.000
-2.710,-1.928,-3.244,-1.404,1.946,-4.483,-3.215,-2.072,-0.045,0.930,-0.427,-1.038,-0.580,0.580,60.000,15561.000,1.000
-5.023,-4.105,-4.359,-0.661,1.312,-2.347,-1.037,-1.656,-0.044,0.930,-0.427,-1.129,-0.610,0.580,60.000,15562.000,1.000
-5.999,-4.745,-4.750,0.646,1.397,-0.234,0.702,-1.301,-0.047,0.930,-0.426,-1.068,-0.549,0.671,60.000,15563.000,1.000
-5.236,-3.278,-4.034,2.200,2.509,1.918,2.576,-0.776,-0.045,0.929,-0.429,-1.099,-0.488,0.671,60.000,15564.000,1.000
-3.139,-0.220,-2.477,3.660,4.443,4.123,4.827,-0.055,-0.045,0.927,-0.427,-1.068,-0.488,0.580,60.000,15565.000,1.000
-0.424,3.169,-0.860,4.776,6.584,5.997,7.182,0.734,-0.045,0.930,-0.427,-1.099,-0.458,0.458,60.000,15566.000,1.000
0.833,4.948,-0.352,4.898,7.813,6.730,8.532,1.204,-0.043,0.929,-0.430,-1.068,-0.427,0.519,60.000,15567.000,1.000
-0.199,4.543,-1.076,3.965,7.897,6.334,8.849,1.479,-0.043,0.928,-0.431,-1.068,-0.427,0.519,60.000,15568.000,1.000
-2.651,2.905,-2.102,2.436,7.398,5.426,8.928,1.922,-0.042,0.931,-0.431,-1.038,-0.305,0.488,60.000,15569.000,1.000
-4.799,1.552,-2.216,0.997,7.024,4.601,9.305,2.539,-0.042,0.930,-0.427,-1.038,-0.275,0.427,60.000,15570.000,1.000
-4.762,1.720,-0.806,0.298,7.315,4.127,9.871,2.907,-0.043,0.928,-0.429,-1.068,-0.244,0.580,60.000,15571.000,1.000
-2.987,2.910,1.293,0.099,7.863,3.542,9.302,2.409,-0.043,0.928,-0.431,-1.099,-0.214,0.641,60.000,15572.000,1.000
-0.359,4.311,3.072,0.206,8.324,2.737,7.039,1.274,-0.044,0.927,-0.425,-1.007,-0.275,0.702,60.000,15573.000,1.000
2.122,5.238,3.850,0.452,8.484,1.990,3.681,0.103,-0.042,0.927,-0.425,-1.038,-0.275,0.580,60.000,15574.000,1.000
3.151,5.013,3.473,0.581,8.117,1.612,0.481,-0.769,-0.041,0.926,-0.425,-1.038,0.000,0.580,60.000,15575.000,1.000
2.361,3.611,2.450,0.577,7.276,1.814,-1.407,-1.238,-0.041,0.927,-0.427,-0.977,0.092,0.610,60.000,15576.000,1.000
-0.670,0.989,1.113,0.076,5.662,2.113,-2.642,-1.675,-0.043,0.927,-0.424,-1.038,0.092,0.671,60.000,15577.000,1.000
-4.939,-2.289,-0.145,-1.021,3.301,1.971,-4.199,-2.281,-0.044,0.927,-0.423,-0.916,-0.031,0.580,60.000,15578.000,1.000
-8.844,-5.521,-1.204,-2.596,0.529,1.030,-6.300,-2.897,-0.046,0.928,-0.422,-0.916,-0.122,0.641,60.000,15579.000,1.000
-11.216,-8.122,-2.052,-4.175,-1.997,-0.399,-8.075,-2.954,-0.046,0.930,-0.424,-0.824,-0.214,0.580,60.000,15580.000,1.000
-10.901,-9.147,-2.375,-4.812,-3.150,-1.145,-7.824,-1.803,-0.050,0.933,-0.427,-1.007,-0.275,0.580,60.000,15581.000,1.000
-8.321,-8.305,-2.166,-4.190,-2.475,-0.406,-5.116,0.366,-0.051,0.934,-0.427,-1.068,-0.244,0.610,60.000,15582.000,1.000
-3.827,-5.365,-1.341,-2.330,-0.036,2.017,-0.592,3.005,-0.049,0.934,-0.423,-1.129,-0.214,0.610,60.000,15583.000,1.000
1.901,-0.740,-0.127,0.121,3.285,5.427,4.087,5.461,-0.052,0.933,-0.426,-1.190,-0.275,0.488,60.000,15584.000,1.000
7.179,4.081,0.809,1.925,5.937,8.601,6.953,7.281,-0.051,0.931,-0.427,-1.160,-0.427,0.427,60.000,15585.000,1.000
10.663,7.562,0.921,2.188,6.808,10.609,7.188,8.708,-0.049,0.932,-0.429,-1.160,-0.427,0.366,60.000,15586.000,1.000
10.965,8.343,-0.096,0.547,5.467,10.896,5.039,10.208,-0.048,0.931,-0.428,-1.160,-0.397,0.336,60.000,15587.000,1.000
8.735,6.642,-1.657,-2.198,2.786,9.812,2.336,11.896,-0.049,0.928,-0.428,-1.129,-0.488,0.427,60.000,15588.000,1.000
5.719,3.617,-3.178,-5.174,-0.157,7.830,0.689,12.711,-0.047,0.927,-0.425,-1.221,-0.641,0.366,60.000,15589.000,1.000
2.819,0.127,-4.725,-8.218,-3.055,4.910,0.010,11.176,-0.044,0.927,-0.425,-1.190,-0.702,0.397,60.000,15590.000,1.000
0.211,-3.322,-6.604,-11.370,-6.074,0.825,-0.778,6.747,-0.045,0.925,-0.427,-1.129,-0.702,0.366,60.000,15591.000,1.000
-3.298,-7.060,-9.201,-14.764,-9.719,-4.506,-3.005,-0.108,-0.043,0.922,-0.427,-1.129,-0.610,0.519,60.000,15592.000,1.000
-7.543,-10.791,-11.986,-17.612,-13.502,-10.000,-6.257,-7.598,-0.045,0.924,-0.424,-1.068,-0.519,0.427,60.000,15593.000,1.000
-11.296,-13.719,-14.067,-18.860,-16.357,-14.294,-9.314,-13.450,-0.042,0.924,-0.427,-0.946,-0.397,0.427,60.000,15594.000,1.000
-13.770,-15.311,-14.921,-18.043,-17.620,-16.784,-11.598,-16.089,-0.039,0.924,-0.431,-0.885,-0.336,0.549,60.000,15595.000,1.000
-14.382,-15.251,-14.426,-15.287,-17.110,-17.553,-12.943,-15.209,-0.039,0.924,-0.430,-0.732,-0.305,0.671,60.000,15596.000,1.000
-13.994,-14.206,-13.158,-11.614,-15.480,-17.341,-13.908,-12.000,-0.040,0.924,-0.429,-0.763,-0.244,0.763,60.000,15597.000,1.000
-12.912,-12.546,-11.417,-7.748,-13.097,-16.431,-14.345,-7.959,-0.042,0.924,-0.429,-0.641,-0.183,0.824,60.000,15598.000,1.000
-11.091,-10.367,-9.246,-4.056,-10.050,-14.556,-13.459,-4.431,-0.042,0.929,-0.426,-0.610,-0.153,0.824,60.000,15599.000,1.000
-8.781,-7.883,-6.635,-0.777,-6.554,-11.325,-10.496,-2.412,-0.043,0.931,-0.426,-0.763,0.031,0.854,60.000,15600.000,1.000
-5.689,-5.016,-3.537,2.097,-2.894,-6.711,-5.331,-2.116,-0.044,0.932,-0.423,-0.824,0.000,0.671,60.000,15601.000,1.000
-2.832,-2.535,-0.666,4.029,-0.127,-1.980,0.020,-3.280,-0.046,0.934,-0.424,-0.793,-0.031,0.641,60.000,15602.000,1.000
-1.238,-1.342,1.194,4.700,0.938,1.304,3.173,-4.943,-0.043,0.932,-0.424,-0.946,0.061,0.641,60.000,15603.000,1.000
-1.331,-1.785,1.702,4.313,0.343,2.341,3.037,-5.827,-0.041,0.927,-0.425,-0.885,0.153,0.610,60.000,15604.000,1.000
-2.443,-2.993,1.378,3.607,-0.939,1.784,0.557,-4.989,-0.039,0.924,-0.426,-0.885,0.031,0.641,60.000,15605.000,1.000
-2.449,-2.992,1.319,3.516,-1.491,1.284,-1.815,-2.464,-0.037,0.923,-0.428,-0.885,0.122,0.702,60.000,15606.000,1.000
-1.019,-1.251,1.724,3.807,-1.254,1.650,-2.820,0.332,-0.036,0.924,-0.426,-0.763,0.305,0.763,60.000,15607.000,1.000
0.886,1.365,2.275,3.798,-1.074,2.832,-2.337,2.061,-0.036,0.926,-0.427,-0.793,0.427,0.854,60.000,15608.000,1.000
1.805,3.459,2.556,3.043,-1.753,4.318,-0.994,2.389,-0.038,0.927,-0.429,-0.732,0.488,0.854,60.000,15609.000,1.000
1.065,4.336,2.475,1.851,-3.137,5.664,0.488,1.957,-0.037,0.928,-0.427,-0.732,0.488,0.824,60.000,15610.000,1.000
-0.019,4.662,2.287,1.155,-4.068,6.643,1.885,1.529,-0.038,0.933,-0.423,-0.854,0.458,0.885,60.000,15611.000,1.000
-0.936,4.679,1.770,1.090,-4.095,6.630,2.500,0.944,-0.036,0.936,-0.424,-1.099,0.519,0.885,60.000,15612.000,1.000
-1.412,4.616,1.025,1.506,-3.293,5.478,2.255,0.056,-0.039,0.936,-0.425,-1.282,0.610,0.977,60.000,15613.000,1.000
-1.606,4.594,0.293,1.968,-2.233,3.451,1.358,-0.962,-0.042,0.935,-0.426,-1.251,0.641,1.007,60.000,15614.000,1.000
-2.093,4.417,-0.446,1.794,-1.754,0.961,-0.110,-1.893,-0.046,0.936,-0.429,-1.404,0.671,0.916,60.000,15615.000,1.000
-2.119,4.492,-0.991,0.946,-1.939,-1.030,-1.204,-2.296,-0.050,0.936,-0.429,-1.434,0.580,0.793,60.000,15616.000,1.000
-1.233,4.965,-1.160,-0.301,-2.509,-1.654,-0.938,-1.901,-0.054,0.937,-0.428,-1.495,0.336,0.671,60.000,15617.000,1.000
0.915,5.763,-0.643,-1.254,-2.868,-0.511,1.263,-0.604,-0.056,0.938,-0.427,-1.495,0.122,0.580,60.000,15618.000,1.000
3.850,6.249,0.457,-1.520,-2.803,1.772,4.405,1.199,-0.057,0.938,-0.427,-1.556,-0.092,0.519,60.000,15619.000,1.000
6.518,5.703,1.798,-1.149,-2.469,4.094,6.641,2.830,-0.055,0.936,-0.429,-1.770,-0.366,0.458,60.000,15620.000,1.000
8.872,4.418,3.261,-0.220,-1.750,5.786,7.259,3.827,-0.053,0.934,-0.432,-1.831,-0.671,0.366,60.000,15621.000,1.000
10.127,2.637,4.218,0.535,-0.958,6.194,6.237,3.624,-0.051,0.934,-0.427,-2.075,-0.946,0.336,60.000,15622.000,1.000
9.840,0.865,4.063,0.544,-0.268,5.190,4.617,2.130,-0.050,0.933,-0.427,-2.106,-1.160,0.244,60.000,15623.000,1.000
7.783,-0.663,2.400,-0.496,0.190,3.046,3.468,-0.141,-0.047,0.934,-0.425,-2.136,-1.343,0.214,60.000,15624.000,1.000
3.834,-2.261,-0.609,-2.578,0.205,0.277,3.003,-2.389,-0.046,0.934,-0.425,-2.258,-1.465,0.214,60.000,15625.000,1.000
-0.608,-3.620,-3.895,-4.958,0.049,-2.264,3.112,-3.925,-0.045,0.932,-0.425,-2.258,-1.465,0.153,60.000,15626.000,1.000
-4.439,-4.352,-6.551,-6.991,-0.110,-4.163,2.832,-4.765,-0.044,0.931,-0.427,-2.258,-1.465,0.183,60.000,15627.000,1.000
-6.577,-3.860,-7.933,-8.030,0.005,-5.197,1.510,-5.058,-0.041,0.930,-0.425,-2.228,-1.526,0.214,60.000,15628.000,1.000
-6.875,-2.231,-7.956,-7.871,0.374,-5.390,-0.907,-4.951,-0.042,0.930,-0.427,-2.258,-1.526,0.366,60.000,15629.000,1.000
-6.284,-0.473,-6.920,-6.796,0.619,-4.943,-3.826,-4.399,-0.041,0.929,-0.424,-2.075,-1.526,0.488,60.000,15630.000,1.000
-5.008,0.707,-5.106,-5.050,0.632,-3.978,-5.935,-3.021,-0.039,0.927,-0.423,-2.045,-1.434,0.397,60.000,15631.000,1.000
-3.634,0.682,-3.258,-3.307,0.150,-2.908,-6.755,-0.924,-0.038,0.927,-0.424,-1.984,-1.434,0.488,60.000,15632.000,1.000
-2.128,-0.250,-1.909,-1.954,-0.662,-1.895,-6.217,1.350,-0.038,0.926,-0.422,-1.953,-1.373,0.610,60.000,15633.000,1.000
-0.580,-1.509,-1.484,-1.255,-1.645,-1.234,-4.874,2.879,-0.037,0.926,-0.426,-1.923,-1.312,0.671,60.000,15634.000,1.000
0.518,-2.685,-2.148,-1.220,-2.750,-1.273,-3.518,2.995,-0.035,0.923,-0.424,-1.770,-1.221,0.763,60.000,15635.000,1.000
1.839,-2.845,-3.307,-1.031,-3.301,-1.656,-2.081,1.992,-0.035,0.924,-0.424,-1.709,-1.099,0.793,60.000,15636.000,1.000
3.289,-1.872,-4.456,-0.251,-2.949,-1.936,-0.868,0.457,-0.034,0.925,-0.423,-1.709,-0.977,0.854,60.000,15637.000,1.000
4.731,-0.051,-5.138,1.069,-1.661,-1.659,-0.135,-0.887,-0.035,0.923,-0.422,-1.709,-0.885,0.824,60.000,15638.000,1.000
5.960,2.188,-5.240,2.389,0.211,-0.755,0.062,-1.582,-0.035,0.924,-0.425,-1.678,-0.824,0.793,60.000,15639.000,1.000
6.389,4.161,-4.925,3.111,2.073,0.495,-0.095,-1.639,-0.037,0.925,-0.421,-1.495,-0.732,0.763,60.000,15640.000,1.000
5.983,5.324,-4.278,3.189,3.529,1.883,-0.062,-1.296,-0.037,0.928,-0.424,-1.526,-0.549,0.671,60.000,15641.000,1.000
4.062,4.812,-3.763,2.565,3.944,2.938,-0.133,-0.965,-0.038,0.926,-0.424,-1.434,-0.427,0.580,60.000,15642.000,1.000
1.180,2.858,-3.499,1.846,3.484,3.574,-0.291,-0.472,-0.037,0.926,-0.425,-1.373,-0.275,0.519,60.000,15643.000,1.000
-1.353,0.507,-3.535,1.726,2.860,3.792,-0.225,0.450,-0.037,0.928,-0.422,-1.343,-0.214,0.366,60.000,15644.000,1.000
-2.860,-1.419,-4.118,2.254,2.513,3.429,0.155,1.637,-0.036,0.928,-0.423,-1.282,-0.092,0.183,60.000,15645.000,1.000
-2.646,-2.218,-5.158,3.249,2.720,2.673,1.140,2.910,-0.039,0.928,-0.421,-1.312,0.061,0.031,60.000,15646.000,1.000
-1.488,-2.285,-6.395,4.129,3.036,1.806,2.406,4.027,-0.037,0.927,-0.424,-1.404,0.214,0.031,60.000,15647.000,1.000
0.016,-2.075,-6.942,4.817,3.098,1.445,3.806,4.981,-0.039,0.928,-0.424,-1.495,0.305,-0.153,60.000,15648.000,1.000
1.689,-1.804,-6.043,5.511,2.809,1.813,5.081,5.643,-0.039,0.928,-0.425,-1.495,0.366,-0.366,60.000,15649.000,1.000
3.297,-1.663,-3.713,6.301,2.331,2.459,5.788,5.852,-0.039,0.931,-0.427,-1.556,0.305,-0.427,60.000,15650.000,1.000
5.371,-1.256,-0.384,7.367,2.350,2.955,6.239,6.015,-0.038,0.930,-0.426,-1.587,0.397,-0.519,60.000,15651.000,1.000
7.318,-0.605,2.992,8.242,2.940,2.835,6.640,6.525,-0.041,0.933,-0.428,-1.617,0.458,-0.580,60.000,15652.000,1.000
8.617,0.219,5.799,8.478,3.781,2.088,7.335,7.468,-0.040,0.932,-0.427,-1.587,0.488,-0.671,60.000,15653.000,1.000
9.080,0.895,7.718,7.883,4.327,0.924,8.144,8.321,-0.040,0.932,-0.428,-1.556,0.427,-0.641,60.000,15654.000,1.000
8.689,0.946,8.734,6.688,4.179,-0.257,8.412,8.370,-0.041,0.933,-0.429,-1.678,0.488,-0.732,60.000,15655.000,1.000
8.183,0.445,9.248,5.563,3.495,-0.926,8.160,7.219,-0.042,0.934,-0.425,-1.801,0.458,-0.641,60.000,15656.000,1.000
6.997,-0.962,9.227,4.462,2.062,-1.442,7.282,4.506,-0.044,0.932,-0.426,-1.923,0.458,-0.732,60.000,15657.000,1.000
5.168,-2.992,8.899,3.446,0.081,-2.228,6.178,0.643,-0.044,0.931,-0.426,-1.862,0.610,-0.671,60.000,15658.000,1.000
3.620,-4.887,8.721,2.844,-1.873,-3.239,5.111,-3.246,-0.044,0.930,-0.426,-1.892,0.610,-0.641,60.000,15659.000,1.000
2.702,-6.598,8.862,2.757,-3.568,-4.195,3.525,-5.992,-0.045,0.931,-0.428,-1.923,0.519,-0.641,60.000,15660.000,1.000
2.463,-8.386,9.201,3.096,-4.906,-4.745,1.200,-6.763,-0.046,0.932,-0.425,-1.923,0.519,-0.580,60.000,15661.000,1.000
1.647,-10.770,9.108,3.241,-6.088,-4.934,-1.612,-5.665,-0.047,0.933,-0.428,-1.923,0.397,-0.488,60.000,15662.000,1.000
-0.047,-13.222,8.459,3.099,-6.800,-4.593,-3.690,-3.427,-0.049,0.935,-0.426,-1.923,0.305,-0.397,60.000,15663.000,1.000
-2.094,-15.007,7.374,2.777,-6.926,-3.904,-4.600,-1.582,-0.049,0.934,-0.424,-1.984,0.244,-0.336,60.000,15664.000,1.000
-4.437,-16.291,5.791,2.048,-7.172,-3.762,-5.606,-1.945,-0.049,0.935,-0.428,-1.923,0.122,-0.244,60.000,15665.000,1.000
-6.582,-17.008,3.980,1.019,-7.888,-4.720,-7.703,-5.012,-0.050,0.932,-0.425,-1.892,-0.031,-0.122,60.000,15666.000,1.000
-8.741,-16.861,2.256,-0.153,-8.849,-6.619,-10.881,-9.718,-0.051,0.932,-0.427,-1.770,-0.244,0.122,60.000,15667.000,1.000
-10.501,-14.986,1.142,-1.023,-9.122,-8.341,-13.423,-13.924,-0.051,0.928,-0.425,-1.770,-0.397,0.275,60.000,15668.000,1.000
-11.512,-11.336,0.611,-1.646,-8.253,-8.974,-13.589,-16.035,-0.050,0.931,-0.427,-1.740,-0.427,0.366,60.000,15669.000,1.000
-12.496,-7.417,-0.002,-2.709,-6.836,-8.524,-11.175,-15.959,-0.050,0.934,-0.427,-1.678,-0.580,0.488,60.000,15670.000,1.000
-13.694,-4.568,-1.001,-4.346,-5.483,-7.415,-7.163,-14.547,-0.050,0.934,-0.425,-1.617,-0.702,0.610,60.000,15671.000,1.000
-15.452,-3.475,-2.369,-6.226,-4.707,-6.457,-3.803,-12.956,-0.049,0.934,-0.423,-1.617,-0.824,0.732,60.000,15672.000,1.000
-16.716,-3.274,-3.384,-7.297,-4.136,-5.905,-2.333,-11.558,-0.046,0.934,-0.422,-1.678,-0.885,0.824,60.000,15673.000,1.000
-16.344,-2.821,-3.423,-6.942,-3.187,-5.669,-2.281,-10.074,-0.046,0.928,-0.425,-1.617,-1.007,0.824,60.000,15674.000,1.000
-14.965,-2.104,-2.635,-5.736,-1.999,-5.832,-2.497,-8.165,-0.045,0.925,-0.422,-1.587,-1.007,0.885,60.000,15675.000,1.000
-13.529,-1.514,-1.562,-4.543,-0.983,-6.453,-2.156,-5.849,-0.046,0.922,-0.426,-1.556,-1.160,0.885,60.000,15676.000,1.000
