EEG 1,EEG 2,EEG 3,EEG 4,EEG 5,EEG 6,EEG 7,EEG 8,Accelerometer X,Accelerometer Y,Accelerometer Z,Gyroscope X,Gyroscope Y,Gyroscope Z,Battery Level,Counter,Validation Indicator
-13.200,-0.616,-6.437,-3.953,-6.422,2.133,-2.945,-10.647,-0.049,0.932,-0.420,-1.556,-1.434,0.488,60.000,21209.000,1.000
-12.567,-2.079,-6.266,-3.239,-7.245,2.282,-0.200,-10.257,-0.048,0.932,-0.416,-1.495,-1.373,0.580,60.000,21210.000,1.000
-9.545,-2.780,-4.920,-2.000,-6.837,3.111,3.838,-7.179,-0.048,0.932,-0.414,-1.526,-1.312,0.641,60.000,21211.000,1.000
-5.617,-3.531,-3.695,-1.136,-6.088,3.314,7.185,-3.246,-0.046,0.932,-0.417,-1.465,-1.251,0.641,60.000,21212.000,1.000
-2.001,-4.696,-3.302,-1.003,-5.633,2.183,8.428,-0.409,-0.045,0.933,-0.419,-1.434,-1.190,0.732,60.000,21213.000,1.000
0.480,-6.194,-3.581,-1.374,-5.610,-0.122,7.098,0.582,-0.046,0.930,-0.418,-1.526,-1.160,0.946,60.000,21214.000,1.000
2.168,-7.293,-3.539,-1.409,-5.434,-2.681,3.860,0.504,-0.045,0.930,-0.418,-1.465,-0.946,0.946,60.000,21215.000,1.000
3.364,-7.392,-2.412,-0.503,-4.581,-4.652,-0.455,0.498,-0.045,0.929,-0.416,-1.434,-0.946,1.007,60.000,21216.000,1.000
4.197,-6.212,-0.166,1.385,-2.906,-5.532,-4.761,1.409,-0.044,0.929,-0.416,-1.312,-0.793,1.068,60.000,21217.000,1.000
4.734,-3.894,2.482,3.648,-0.739,-5.272,-7.567,3.373,-0.045,0.929,-0.417,-1.312,-0.702,0.977,60.000,21218.000,1.000
4.788,-1.157,4.476,5.262,1.196,-4.226,-7.604,5.515,-0.044,0.930,-0.416,-1.282,-0.610,1.007,60.000,21219.000,1.000
4.761,1.244,5.187,5.647,2.402,-2.760,-4.490,6.596,-0.045,0.928,-0.413,-1.190,-0.580,0.977,60.000,21220.000,1.000
4.576,2.219,4.343,4.683,2.450,-1.585,-0.068,5.724,-0.046,0.926,-0.418,-1.190,-0.427,0.977,60.000,21221.000,1.000
4.011,1.155,2.354,2.990,1.339,-1.394,2.854,3.027,-0.046,0.927,-0.417,-1.099,-0.336,0.946,60.000,21222.000,1.000
3.146,-1.386,0.131,1.583,-0.437,-2.478,2.624,-0.467,-0.047,0.929,-0.416,-1.068,-0.153,0.732,60.000,21223.000,1.000
2.129,-4.039,-1.524,1.133,-2.195,-4.540,-0.423,-3.264,-0.046,0.929,-0.417,-1.007,0.000,0.732,60.000,21224.000,1.000
1.877,-5.097,-1.937,2.013,-2.928,-6.315,-3.973,-3.739,-0.046,0.930,-0.414,-0.977,0.092,0.702,60.000,21225.000,1.000
2.770,-4.066,-0.988,3.917,-2.085,-6.482,-5.786,-1.277,-0.045,0.930,-0.415,-1.007,0.122,0.580,60.000,21226.000,1.000
4.601,-1.785,0.969,6.157,0.109,-4.642,-4.997,3.210,-0.045,0.929,-0.416,-0.977,0.183,0.427,60.000,21227.000,1.000
6.714,0.146,3.013,7.830,2.487,-1.975,-2.672,7.634,-0.044,0.931,-0.411,-1.038,0.244,0.427,60.000,21228.000,1.000
7.960,0.178,3.939,8.097,3.416,-0.471,-1.054,9.976,-0.044,0.931,-0.413,-0.977,0.366,0.305,60.000,21229.000,1.000
8.372,-1.484,3.510,7.244,2.490,-0.837,-1.069,9.777,-0.048,0.933,-0.413,-0.916,0.397,0.244,60.000,21230.000,1.000
8.464,-3.429,2.445,6.222,0.585,-2.192,-2.031,7.837,-0.046,0.934,-0.415,-1.068,0.610,0.244,60.000,21231.000,1.000
8.717,-4.317,1.816,5.815,-0.980,-2.995,-2.426,5.324,-0.046,0.934,-0.414,-1.038,0.671,0.153,60.000,21232.000,1.000
9.166,-3.944,2.172,5.963,-1.518,-2.335,-1.305,3.105,-0.045,0.933,-0.413,-1.099,0.671,0.214,60.000,21233.000,1.000
9.058,-3.444,3.156,5.807,-1.420,-0.498,0.912,1.542,-0.046,0.934,-0.416,-1.038,0.702,0.122,60.000,21234.000,1.000
8.131,-3.931,4.093,4.672,-1.355,1.620,3.460,0.660,-0.049,0.933,-0.414,-1.099,0.702,0.122,60.000,21235.000,1.000
6.128,-6.062,4.049,2.102,-2.068,2.733,5.332,-0.116,-0.048,0.938,-0.414,-1.160,0.702,0.153,60.000,21236.000,1.000
3.339,-9.360,2.621,-1.635,-3.607,2.268,6.012,-1.339,-0.049,0.940,-0.416,-1.312,0.580,0.183,60.000,21237.000,1.000
0.812,-12.368,0.515,-5.351,-4.944,1.067,5.932,-2.688,-0.051,0.940,-0.417,-1.404,0.610,0.122,60.000,21238.000,1.000
-0.681,-13.839,-1.031,-7.782,-4.973,0.248,5.523,-3.205,-0.051,0.937,-0.415,-1.678,0.519,0.153,60.000,21239.000,1.000
-0.590,-13.140,-1.150,-8.381,-3.523,-0.158,4.508,-2.700,-0.052,0.935,-0.417,-1.740,0.488,0.183,60.000,21240.000,1.000
0.222,-11.029,-0.314,-8.044,-1.918,-1.454,1.548,-2.979,-0.052,0.934,-0.416,-1.770,0.458,0.183,60.000,21241.000,1.000
0.279,-8.943,0.374,-8.102,-1.539,-4.450,-3.819,-6.114,-0.054,0.931,-0.416,-1.740,0.397,0.305,60.000,21242.000,1.000
-1.149,-7.802,0.185,-9.102,-2.480,-8.351,-10.042,-12.081,-0.054,0.933,-0.417,-1.587,0.092,0.366,60.000,21243.000,1.000
-3.932,-7.727,-0.930,-10.628,-3.704,-11.457,-14.699,-18.609,-0.054,0.936,-0.417,-1.617,0.122,0.397,60.000,21244.000,1.000
-6.813,-8.029,-2.266,-11.594,-3.705,-12.173,-15.601,-22.602,-0.053,0.939,-0.418,-1.617,-0.061,0.458,60.000,21245.000,1.000
-9.252,-8.406,-3.390,-11.612,-1.985,-10.307,-12.545,-22.431,-0.052,0.940,-0.415,-1.648,-0.092,0.458,60.000,21246.000,1.000
-11.514,-8.919,-4.462,-11.261,0.676,-7.111,-7.328,-18.928,-0.054,0.940,-0.417,-1.801,-0.305,0.427,60.000,21247.000,1.000
-13.974,-9.580,-5.872,-11.412,2.926,-4.474,-2.482,-14.575,-0.056,0.939,-0.417,-1.923,-0.397,0.580,60.000,21248.000,1.000
-16.898,-10.408,-7.635,-12.384,3.760,-3.699,0.217,-11.587,-0.057,0.937,-0.417,-1.923,-0.458,0.671,60.000,21249.000,1.000
-19.373,-10.934,-8.850,-13.232,3.465,-4.373,1.120,-10.252,-0.057,0.935,-0.419,-1.984,-0.610,0.671,60.000,21250.000,1.000
-20.621,-10.849,-8.757,-12.891,2.798,-5.184,1.354,-9.447,-0.057,0.934,-0.418,-2.075,-0.763,0.702,60.000,21251.000,1.000
-20.395,-10.099,-7.433,-11.149,2.193,-5.048,1.629,-8.015,-0.055,0.933,-0.417,-1.923,-0.854,0.732,60.000,21252.000,1.000
-18.973,-8.955,-5.736,-8.859,1.469,-3.838,1.888,-5.902,-0.052,0.932,-0.416,-1.892,-0.946,0.824,60.000,21253.000,1.000
-17.112,-7.981,-4.558,-7.256,0.255,-2.132,1.747,-3.913,-0.053,0.932,-0.414,-1.892,-0.977,0.854,60.000,21254.000,1.000
-14.308,-6.620,-3.606,-6.407,-0.700,0.139,1.934,-2.141,-0.052,0.932,-0.415,-1.953,-1.068,0.916,60.000,21255.000,1.000
-9.862,-3.636,-1.912,-5.461,-0.063,3.567,3.527,0.261,-0.052,0.930,-0.415,-2.106,-1.099,0.946,60.000,21256.000,1.000
-4.494,1.114,0.927,-3.907,2.459,8.098,6.618,3.780,-0.052,0.932,-0.417,-2.167,-1.251,1.007,60.000,21257.000,1.000
-0.904,5.406,3.800,-2.580,5.121,11.991,9.377,7.166,-0.051,0.931,-0.417,-2.197,-1.282,1.007,60.000,21258.000,1.000
-2.098,6.029,4.752,-2.931,5.378,12.644,8.911,8.228,-0.050,0.933,-0.417,-2.289,-1.190,1.007,60.000,21259.000,1.000
-8.089,1.952,2.839,-5.206,2.342,8.935,4.073,6.125,-0.047,0.933,-0.421,-2.228,-1.190,1.038,60.000,21260.000,1.000
-16.654,-5.382,-1.539,-8.609,-3.057,1.941,-3.871,1.836,-0.046,0.934,-0.416,-2.350,-1.221,1.038,60.000,21261.000,1.000
-24.538,-12.870,-6.688,-11.666,-8.618,-5.478,-11.671,-2.524,-0.043,0.935,-0.415,-2.472,-1.129,1.099,60.000,21262.000,1.000
-28.793,-17.309,-10.388,-12.820,-11.918,-10.280,-15.954,-4.964,-0.045,0.936,-0.411,-2.594,-1.068,1.221,60.000,21263.000,1.000
-28.571,-17.448,-11.456,-11.576,-12.042,-11.314,-15.822,-4.999,-0.048,0.933,-0.412,-2.869,-0.854,1.129,60.000,21264.000,1.000
-24.690,-14.182,-10.265,-8.676,-10.008,-9.729,-12.920,-3.612,-0.052,0.930,-0.412,-2.899,-0.732,0.916,60.000,21265.000,1.000
-19.622,-10.016,-8.315,-5.744,-8.044,-8.019,-10.128,-2.224,-0.055,0.929,-0.414,-2.960,-0.702,0.885,60.000,21266.000,1.000
-15.662,-7.125,-6.646,-3.806,-7.510,-7.804,-9.123,-1.313,-0.055,0.932,-0.415,-2.899,-0.854,0.732,60.000,21267.000,1.000
-13.495,-6.042,-5.316,-2.684,-8.004,-8.792,-9.558,-0.385,-0.056,0.929,-0.415,-2.838,-0.977,0.641,60.000,21268.000,1.000
-12.795,-6.125,-4.163,-1.852,-8.442,-9.684,-10.183,0.969,-0.055,0.929,-0.414,-2.869,-1.007,0.488,60.000,21269.000,1.000
-12.266,-6.014,-3.003,-0.821,-7.828,-9.282,-9.561,2.748,-0.055,0.927,-0.412,-2.869,-1.038,0.427,60.000,21270.000,1.000
-11.152,-4.842,-1.825,0.511,-5.877,-7.423,-7.321,4.821,-0.052,0.927,-0.412,-2.869,-0.946,0.519,60.000,21271.000,1.000
-9.387,-2.463,-0.532,2.143,-2.797,-4.640,-4.043,7.417,-0.050,0.928,-0.415,-2.716,-0.946,0.427,60.000,21272.000,1.000
-7.318,0.757,0.844,3.869,0.754,-1.673,-0.837,10.649,-0.050,0.931,-0.413,-2.686,-0.885,0.366,60.000,21273.000,1.000
-5.525,4.203,1.988,5.156,3.840,0.926,1.151,14.070,-0.052,0.934,-0.413,-2.655,-0.946,0.488,60.000,21274.000,1.000
-3.579,7.703,2.815,5.736,6.093,3.292,2.213,16.896,-0.053,0.933,-0.417,-2.655,-0.824,0.519,60.000,21275.000,1.000
-1.368,10.613,3.081,5.293,7.279,5.476,3.416,17.694,-0.051,0.932,-0.414,-2.655,-0.946,0.488,60.000,21276.000,1.000
0.855,12.171,2.564,3.773,7.273,7.121,5.456,15.174,-0.049,0.932,-0.416,-2.625,-0.854,0.519,60.000,21277.000,1.000
3.069,12.389,1.379,1.607,6.226,7.742,7.842,9.384,-0.047,0.932,-0.417,-2.533,-0.732,0.641,60.000,21278.000,1.000
5.152,11.750,-0.007,-0.588,4.460,7.283,9.336,1.823,-0.045,0.930,-0.416,-2.411,-0.671,0.580,60.000,21279.000,1.000
7.622,11.121,-0.595,-1.869,2.793,6.728,9.928,-5.174,-0.046,0.932,-0.418,-2.319,-0.610,0.824,60.000,21280.000,1.000
10.603,10.995,0.241,-1.696,1.854,7.001,10.368,-9.663,-0.046,0.932,-0.420,-2.258,-0.549,0.824,60.000,21281.000,1.000
13.963,11.694,2.442,-0.060,1.883,8.156,11.257,-10.588,-0.047,0.935,-0.414,-2.258,-0.458,0.885,60.000,21282.000,1.000
17.471,13.299,5.323,2.549,2.770,9.476,12.582,-8.119,-0.047,0.934,-0.413,-2.045,-0.366,0.854,60.000,21283.000,1.000
20.292,15.147,7.823,5.194,4.068,10.154,13.793,-3.745,-0.048,0.934,-0.415,-1.923,-0.336,1.038,60.000,21284.000,1.000
22.183,16.777,9.398,7.349,5.650,10.189,14.857,0.778,-0.050,0.936,-0.411,-1.801,-0.183,1.099,60.000,21285.000,1.000
22.829,17.893,9.865,8.759,7.316,9.852,15.612,4.144,-0.053,0.937,-0.413,-1.801,-0.214,1.129,60.000,21286.000,1.000
22.013,18.439,9.392,9.496,8.817,9.401,15.795,5.965,-0.052,0.938,-0.414,-1.892,-0.153,1.190,60.000,21287.000,1.000
20.024,18.513,8.356,9.856,10.065,8.932,15.339,6.505,-0.052,0.938,-0.413,-1.831,-0.183,1.190,60.000,21288.000,1.000
17.196,17.914,6.996,9.937,10.973,8.219,14.114,6.091,-0.052,0.938,-0.414,-1.953,-0.153,1.251,60.000,21289.000,1.000
14.543,16.797,5.688,9.936,11.765,7.441,12.531,5.278,-0.050,0.936,-0.411,-1.892,-0.153,1.251,60.000,21290.000,1.000
12.566,15.386,4.649,9.892,12.546,7.101,10.907,4.755,-0.049,0.934,-0.411,-1.801,-0.122,1.221,60.000,21291.000,1.000
11.278,13.971,4.131,9.985,13.466,7.779,9.479,5.228,-0.050,0.936,-0.411,-1.740,-0.061,1.221,60.000,21292.000,1.000
10.669,12.845,4.449,10.573,14.817,9.618,8.675,6.972,-0.051,0.935,-0.411,-1.678,-0.061,1.282,60.000,21293.000,1.000
10.355,11.936,5.491,11.591,16.397,11.759,8.509,9.336,-0.051,0.935,-0.411,-1.648,-0.061,1.251,60.000,21294.000,1.000
10.374,11.344,6.820,12.670,17.602,12.940,8.555,11.151,-0.051,0.934,-0.415,-1.587,0.031,1.251,60.000,21295.000,1.000
10.337,10.915,7.594,13.089,17.526,12.206,7.625,11.362,-0.051,0.936,-0.411,-1.617,-0.092,1.190,60.000,21296.000,1.000
9.812,10.378,7.230,12.439,15.766,9.735,4.881,9.879,-0.051,0.934,-0.410,-1.587,-0.061,1.129,60.000,21297.000,1.000
9.051,9.816,5.921,11.011,12.802,6.617,0.756,7.562,-0.049,0.933,-0.407,-1.465,0.000,0.977,60.000,21298.000,1.000
8.620,9.626,4.488,9.438,9.473,3.884,-3.573,5.480,-0.048,0.933,-0.409,-1.556,0.092,0.946,60.000,21299.000,1.000
9.487,10.404,3.981,8.460,6.644,2.203,-6.705,4.324,-0.049,0.935,-0.409,-1.373,0.000,0.854,60.000,21300.000,1.000
11.178,11.509,4.474,7.984,4.301,1.457,-8.366,3.668,-0.051,0.933,-0.410,-1.373,-0.061,0.702,60.000,21301.000,1.000
12.305,11.509,5.247,7.364,1.891,1.182,-8.984,2.568,-0.049,0.932,-0.411,-1.343,-0.061,0.671,60.000,21302.000,1.000
12.392,9.911,5.735,6.277,-0.725,1.074,-8.754,0.850,-0.049,0.929,-0.407,-1.129,-0.153,0.641,60.000,21303.000,1.000
11.826,7.465,5.884,4.997,-3.070,0.949,-7.885,-0.481,-0.049,0.929,-0.406,-1.129,-0.122,0.427,60.000,21304.000,1.000
11.531,5.515,6.115,4.268,-4.309,0.771,-6.620,-0.109,-0.047,0.928,-0.411,-1.068,-0.122,0.244,60.000,21305.000,1.000
11.386,4.493,6.478,4.177,-4.441,0.152,-5.781,1.702,-0.047,0.928,-0.408,-0.977,-0.214,0.122,60.000,21306.000,1.000
10.989,4.218,6.739,4.283,-4.173,-1.233,-6.016,3.063,-0.046,0.928,-0.406,-0.854,-0.214,0.092,60.000,21307.000,1.000
10.479,4.507,6.604,4.236,-4.215,-3.108,-7.212,2.158,-0.046,0.927,-0.408,-0.702,-0.275,0.000,60.000,21308.000,1.000
9.714,4.851,5.674,3.822,-5.070,-4.803,-8.933,-1.408,-0.047,0.927,-0.408,-0.641,-0.214,-0.092,60.000,21309.000,1.000
8.716,4.756,3.945,3.203,-6.641,-5.592,-10.337,-6.327,-0.046,0.929,-0.407,-0.336,-0.183,-0.153,60.000,21310.000,1.000
7.047,3.476,1.650,2.483,-8.639,-5.417,-10.918,-10.543,-0.047,0.935,-0.408,-0.275,-0.214,-0.275,60.000,21311.000,1.000
4.745,0.873,-0.494,1.982,-10.338,-4.414,-10.157,-11.956,-0.047,0.937,-0.409,-0.275,-0.336,-0.275,60.000,21312.000,1.000
3.005,-1.896,-1.369,2.317,-10.492,-2.360,-7.422,-9.283,-0.049,0.937,-0.406,-0.305,-0.305,-0.397,60.000,21313.000,1.000
2.758,-3.446,-0.350,3.719,-8.294,0.870,-2.912,-3.137,-0.050,0.938,-0.407,-0.305,-0.336,-0.458,60.000,21314.000,1.000
4.239,-3.098,2.129,5.786,-4.027,4.724,2.389,3.963,-0.051,0.938,-0.407,-0.336,-0.336,-0.549,60.000,21315.000,1.000
6.022,-1.844,4.294,7.140,0.461,7.422,6.490,8.575,-0.051,0.937,-0.408,-0.397,-0.336,-0.580,60.000,21316.000,1.000
6.463,-1.286,4.423,6.486,3.021,7.215,7.703,8.612,-0.051,0.936,-0.409,-0.244,-0.366,-0.702,60.000,21317.000,1.000
5.162,-2.318,2.034,3.647,2.555,3.775,5.884,4.550,-0.051,0.935,-0.411,-0.275,-0.549,-0.763,60.000,21318.000,1.000
2.381,-5.122,-2.301,-0.612,-0.829,-1.736,2.204,-1.490,-0.050,0.935,-0.409,-0.275,-0.641,-0.763,60.000,21319.000,1.000
-0.761,-8.897,-7.244,-4.811,-5.744,-7.163,-1.143,-7.032,-0.048,0.937,-0.408,-0.244,-0.610,-0.885,60.000,21320.000,1.000
-3.596,-12.693,-11.660,-7.836,-10.536,-10.909,-2.763,-10.372,-0.049,0.935,-0.408,-0.336,-0.671,-0.793,60.000,21321.000,1.000
-5.914,-15.757,-14.943,-9.286,-14.004,-12.672,-2.779,-10.894,-0.050,0.934,-0.406,-0.244,-0.641,-0.763,60.000,21322.000,1.000
-7.800,-17.852,-17.159,-9.578,-15.936,-13.449,-2.650,-9.453,-0.051,0.935,-0.409,-0.244,-0.763,-0.793,60.000,21323.000,1.000
-10.274,-19.765,-19.096,-10.003,-17.321,-15.069,-4.602,-8.228,-0.052,0.940,-0.411,-0.244,-0.885,-0.793,60.000,21324.000,1.000
-13.874,-22.152,-21.286,-11.536,-19.003,-18.589,-9.481,-8.938,-0.051,0.942,-0.412,-0.275,-1.007,-0.702,60.000,21325.000,1.000
-18.404,-24.943,-23.637,-14.219,-20.965,-23.459,-16.202,-11.708,-0.051,0.938,-0.407,-0.458,-1.129,-0.763,60.000,21326.000,1.000
-22.384,-27.010,-25.239,-16.839,-22.190,-27.495,-22.053,-15.051,-0.053,0.938,-0.408,-0.458,-1.190,-0.610,60.000,21327.000,1.000
-23.844,-27.043,-25.038,-17.819,-21.640,-28.355,-24.096,-17.036,-0.052,0.935,-0.408,-0.488,-1.160,-0.427,60.000,21328.000,1.000
-22.464,-24.989,-22.878,-16.657,-19.497,-25.454,-21.172,-16.624,-0.053,0.934,-0.407,-0.549,-1.312,-0.244,60.000,21329.000,1.000
-18.798,-21.320,-19.189,-13.762,-16.554,-19.916,-14.123,-13.799,-0.054,0.933,-0.410,-0.610,-1.495,-0.031,60.000,21330.000,1.000
-14.106,-16.826,-14.917,-10.345,-13.743,-13.922,-5.889,-9.629,-0.055,0.932,-0.414,-0.519,-1.709,0.092,60.000,21331.000,1.000
-9.649,-12.448,-11.091,-7.723,-11.586,-9.396,0.187,-5.690,-0.054,0.932,-0.411,-0.458,-1.831,0.305,60.000,21332.000,1.000
-6.088,-8.892,-8.270,-6.429,-9.835,-6.892,2.550,-3.106,-0.053,0.936,-0.412,-0.427,-1.953,0.397,60.000,21333.000,1.000
-3.894,-6.476,-6.460,-6.066,-7.857,-5.611,1.778,-2.041,-0.052,0.935,-0.411,-0.610,-2.045,0.458,60.000,21334.000,1.000
-2.552,-4.560,-5.073,-5.423,-4.831,-4.049,-0.021,-1.634,-0.051,0.936,-0.413,-0.519,-2.045,0.580,60.000,21335.000,1.000
-1.373,-2.315,-3.600,-3.581,-0.554,-1.369,-1.170,-0.895,-0.047,0.934,-0.413,-0.641,-2.136,0.610,60.000,21336.000,1.000
0.384,0.874,-1.716,-0.368,4.518,2.308,-0.885,0.705,-0.046,0.934,-0.411,-0.671,-2.136,0.610,60.000,21337.000,1.000
2.876,4.860,0.482,3.399,9.330,6.198,0.938,2.942,-0.046,0.935,-0.412,-0.610,-2.045,0.549,60.000,21338.000,1.000
4.597,8.237,2.277,6.096,12.369,9.197,3.601,5.118,-0.045,0.933,-0.411,-0.671,-1.923,0.519,60.000,21339.000,1.000
4.431,9.859,3.285,6.887,13.090,10.751,6.462,7.066,-0.044,0.934,-0.410,-0.610,-1.831,0.519,60.000,21340.000,1.000
2.244,9.349,3.512,6.082,12.092,10.705,8.583,8.977,-0.043,0.934,-0.413,-0.671,-1.678,0.580,60.000,21341.000,1.000
-1.088,7.077,3.238,4.715,10.487,9.247,9.019,10.855,-0.041,0.931,-0.411,-0.610,-1.587,0.458,60.000,21342.000,1.000
-4.280,3.954,2.893,3.769,9.199,6.992,7.473,12.347,-0.043,0.929,-0.413,-0.580,-1.343,0.519,60.000,21343.000,1.000
-6.816,0.967,2.886,3.591,8.624,4.756,4.266,13.050,-0.048,0.930,-0.411,-0.580,-1.312,0.519,60.000,21344.000,1.000
-8.137,-0.609,3.848,4.341,9.174,3.561,0.732,13.282,-0.047,0.930,-0.413,-0.458,-1.282,0.305,60.000,21345.000,1.000
-8.037,-0.134,6.078,5.777,11.016,4.036,-1.500,13.954,-0.048,0.932,-0.416,-0.427,-1.221,0.214,60.000,21346.000,1.000
-6.306,2.227,9.428,7.440,14.100,6.294,-0.918,15.669,-0.047,0.932,-0.417,-0.397,-1.129,0.153,60.000,21347.000,1.000
-2.808,5.732,13.221,8.825,18.053,9.739,2.774,17.498,-0.045,0.933,-0.411,-0.336,-1.068,0.061,60.000,21348.000,1.000
1.460,9.052,16.300,9.382,21.821,13.027,7.580,17.373,-0.046,0.934,-0.414,-0.366,-1.007,0.122,60.000,21349.000,1.000
5.574,11.368,18.009,9.127,24.323,15.132,11.082,14.252,-0.045,0.933,-0.413,-0.336,-0.946,0.000,60.000,21350.000,1.000
8.856,12.390,18.328,8.271,24.671,15.673,12.104,8.907,-0.043,0.934,-0.415,-0.397,-0.763,0.031,60.000,21351.000,1.000
11.600,12.574,17.992,7.379,22.915,15.118,11.562,3.657,-0.044,0.934,-0.415,-0.366,-0.671,-0.122,60.000,21352.000,1.000
14.933,12.960,18.087,7.384,20.327,14.546,11.439,1.193,-0.045,0.931,-0.412,-0.305,-0.580,-0.122,60.000,21353.000,1.000
18.970,14.055,19.065,8.662,18.286,14.778,12.635,2.692,-0.048,0.933,-0.411,-0.153,-0.458,-0.153,60.000,21354.000,1.000
23.195,15.896,20.688,10.771,17.494,16.114,14.872,7.066,-0.046,0.933,-0.412,-0.122,-0.366,-0.305,60.000,21355.000,1.000
26.536,17.928,22.046,12.437,17.327,17.944,16.779,11.477,-0.047,0.934,-0.411,-0.244,-0.183,-0.244,60.000,21356.000,1.000
28.336,19.561,22.299,12.606,16.530,19.181,16.891,13.319,-0.049,0.936,-0.414,-0.214,-0.244,-0.183,60.000,21357.000,1.000
28.691,20.497,21.157,11.183,14.219,18.950,14.631,11.837,-0.049,0.936,-0.413,-0.275,-0.183,-0.183,60.000,21358.000,1.000
27.418,20.285,18.635,8.625,10.098,16.888,10.326,8.015,-0.053,0.936,-0.415,-0.305,-0.153,-0.183,60.000,21359.000,1.000
24.873,18.960,15.217,5.770,4.825,13.434,5.361,3.488,-0.053,0.933,-0.417,-0.183,-0.153,-0.214,60.000,21360.000,1.000
21.434,16.872,11.455,3.119,-0.575,9.341,1.050,-0.875,-0.054,0.930,-0.416,-0.183,-0.214,-0.031,60.000,21361.000,1.000
17.526,14.525,7.964,0.913,-5.106,5.606,-1.607,-4.884,-0.055,0.932,-0.416,-0.122,-0.244,-0.092,60.000,21362.000,1.000
13.723,12.412,5.344,-0.620,-8.130,3.202,-2.046,-8.260,-0.055,0.934,-0.418,-0.122,-0.275,-0.031,60.000,21363.000,1.000
10.199,10.758,3.907,-1.342,-9.583,2.564,-0.717,-10.404,-0.055,0.932,-0.417,-0.061,-0.427,-0.092,60.000,21364.000,1.000
7.638,10.047,3.922,-0.865,-9.371,3.729,1.583,-10.633,-0.056,0.935,-0.414,-0.122,-0.427,-0.092,60.000,21365.000,1.000
6.268,10.218,5.046,0.758,-7.802,5.944,3.599,-9.094,-0.054,0.934,-0.414,-0.092,-0.397,0.000,60.000,21366.000,1.000
5.975,10.796,6.529,3.044,-5.430,8.243,4.654,-6.524,-0.055,0.933,-0.415,-0.031,-0.641,0.031,60.000,21367.000,1.000
6.865,11.687,7.773,5.483,-2.509,10.288,5.670,-3.402,-0.054,0.935,-0.415,-0.031,-0.580,0.000,60.000,21368.000,1.000
8.275,12.722,8.205,7.351,0.591,11.941,7.787,0.003,-0.055,0.935,-0.415,-0.092,-0.702,0.153,60.000,21369.000,1.000
9.197,13.458,7.484,8.105,3.268,12.886,10.938,3.209,-0.055,0.936,-0.412,-0.031,-0.732,0.214,60.000,21370.000,1.000
8.356,13.020,5.538,7.523,4.719,12.493,13.231,5.130,-0.053,0.936,-0.413,-0.153,-0.763,0.305,60.000,21371.000,1.000
5.578,11.162,2.920,6.017,4.657,10.520,12.751,4.898,-0.054,0.936,-0.414,-0.122,-0.854,0.397,60.000,21372.000,1.000
1.974,8.427,0.392,4.107,3.316,7.263,9.100,2.659,-0.053,0.933,-0.415,-0.061,-0.763,0.458,60.000,21373.000,1.000
-1.732,5.128,-1.758,1.772,0.986,3.257,3.393,-0.458,-0.055,0.934,-0.415,-0.183,-0.824,0.488,60.000,21374.000,1.000
-4.457,2.089,-3.046,-0.551,-1.121,-0.155,-1.509,-2.367,-0.055,0.934,-0.414,-0.153,-0.885,0.580,60.000,21375.000,1.000
-5.201,0.558,-2.887,-1.943,-1.249,-1.342,-2.816,-1.092,-0.054,0.935,-0.416,-0.153,-0.824,0.641,60.000,21376.000,1.000
-3.708,1.239,-1.272,-1.826,1.488,0.263,0.182,3.608,-0.052,0.933,-0.417,-0.122,-0.793,0.610,60.000,21377.000,1.000
-0.973,3.399,0.763,-0.718,6.018,3.193,5.342,9.450,-0.051,0.934,-0.417,-0.214,-0.854,0.671,60.000,21378.000,1.000
0.619,4.917,1.579,-0.060,9.707,4.647,8.721,13.089,-0.048,0.931,-0.418,-0.244,-0.793,0.671,60.000,21379.000,1.000
-0.431,4.144,0.263,-0.823,10.407,2.758,7.570,12.669,-0.049,0.930,-0.420,-0.275,-0.732,0.763,60.000,21380.000,1.000
-4.289,0.622,-3.252,-3.158,7.365,-2.509,1.440,8.331,-0.050,0.930,-0.421,-0.183,-0.763,0.885,60.000,21381.000,1.000
-9.497,-4.565,-8.072,-6.148,1.638,-9.421,-7.497,1.842,-0.051,0.931,-0.422,-0.122,-0.610,0.916,60.000,21382.000,1.000
-13.668,-9.378,-12.708,-8.280,-4.420,-15.488,-15.524,-4.268,-0.052,0.933,-0.420,-0.153,-0.641,1.068,60.000,21383.000,1.000
-15.800,-12.624,-16.109,-8.780,-8.803,-18.966,-19.929,-8.256,-0.051,0.933,-0.420,-0.153,-0.671,0.946,60.000,21384.000,1.000
-16.278,-14.351,-17.832,-7.915,-10.699,-19.283,-19.896,-9.874,-0.055,0.932,-0.419,-0.153,-0.671,0.885,60.000,21385.000,1.000
-16.767,-15.774,-18.211,-6.985,-10.932,-17.192,-16.677,-10.092,-0.054,0.932,-0.420,-0.275,-0.488,0.732,60.000,21386.000,1.000
-18.348,-17.779,-17.695,-7.047,-10.736,-13.921,-12.123,-9.719,-0.054,0.930,-0.419,-0.458,-0.519,0.641,60.000,21387.000,1.000
-20.348,-19.976,-16.471,-8.031,-10.603,-10.491,-7.663,-8.893,-0.053,0.928,-0.421,-0.580,-0.397,0.458,60.000,21388.000,1.000
-22.120,-21.980,-15.158,-9.595,-10.949,-8.150,-5.041,-8.024,-0.050,0.928,-0.420,-0.671,-0.336,0.275,60.000,21389.000,1.000
-23.356,-23.822,-14.646,-11.506,-12.269,-8.078,-5.560,-7.878,-0.048,0.927,-0.420,-0.580,-0.244,0.092,60.000,21390.000,1.000
-24.252,-25.652,-15.405,-13.566,-14.619,-10.549,-8.956,-8.723,-0.046,0.927,-0.422,-0.610,-0.183,0.061,60.000,21391.000,1.000
-24.377,-26.613,-16.494,-14.849,-16.692,-13.900,-12.681,-9.393,-0.046,0.928,-0.419,-0.519,-0.183,0.000,60.000,21392.000,1.000
-22.743,-25.258,-16.250,-14.128,-16.634,-15.431,-13.571,-8.160,-0.047,0.931,-0.420,-0.427,-0.031,0.000,60.000,21393.000,1.000
-19.741,-21.555,-14.115,-11.422,-14.079,-13.707,-10.640,-4.693,-0.049,0.934,-0.418,-0.427,0.122,0.031,60.000,21394.000,1.000
-16.353,-16.734,-10.733,-7.926,-10.155,-9.214,-4.965,-0.434,-0.049,0.935,-0.414,-0.488,0.183,-0.031,60.000,21395.000,1.000
-13.849,-12.743,-7.520,-5.516,-6.810,-4.117,1.066,2.296,-0.052,0.936,-0.415,-0.580,0.397,-0.122,60.000,21396.000,1.000
-12.942,-11.105,-5.680,-5.590,-5.640,-0.917,5.136,1.985,-0.051,0.938,-0.417,-0.763,0.366,-0.061,60.000,21397.000,1.000
-12.926,-11.681,-5.343,-8.025,-6.828,-0.699,6.191,-1.067,-0.050,0.939,-0.416,-0.824,0.427,0.031,60.000,21398.000,1.000
-12.468,-12.909,-5.596,-11.296,-9.195,-2.452,4.630,-5.204,-0.051,0.941,-0.414,-0.854,0.519,0.000,60.000,21399.000,1.000
-9.888,-12.634,-5.007,-13.256,-10.862,-3.842,2.462,-8.393,-0.052,0.939,-0.415,-1.068,0.610,0.061,60.000,21400.000,1.000
-5.245,-10.299,-3.184,-13.078,-11.107,-3.664,1.311,-9.749,-0.053,0.936,-0.416,-1.068,0.458,0.153,60.000,21401.000,1.000
-0.520,-7.422,-1.007,-11.636,-10.749,-2.620,1.209,-9.888,-0.054,0.935,-0.417,-1.221,0.458,0.275,60.000,21402.000,1.000
2.422,-5.888,0.554,-10.206,-10.751,-1.926,1.446,-9.955,-0.058,0.934,-0.412,-1.312,0.305,0.305,60.000,21403.000,1.000
3.075,-6.419,1.344,-9.323,-11.114,-2.039,1.603,-10.464,-0.060,0.935,-0.411,-1.495,0.183,0.397,60.000,21404.000,1.000
3.090,-7.791,2.251,-8.194,-10.578,-2.309,2.122,-10.684,-0.059,0.935,-0.418,-1.465,0.122,0.427,60.000,21405.000,1.000
3.904,-8.382,3.874,-5.966,-8.139,-2.060,2.958,-9.617,-0.061,0.935,-0.418,-1.465,-0.031,0.427,60.000,21406.000,1.000
5.432,-7.472,5.776,-2.717,-4.037,-1.200,3.347,-7.029,-0.059,0.932,-0.416,-1.495,-0.153,0.458,60.000,21407.000,1.000
6.598,-5.577,6.804,0.537,0.329,-0.292,2.653,-3.682,-0.059,0.930,-0.418,-1.526,-0.305,0.488,60.000,21408.000,1.000
5.870,-4.189,5.892,2.461,3.027,-0.264,0.835,-0.863,-0.058,0.934,-0.419,-1.465,-0.366,0.427,60.000,21409.000,1.000
2.962,-4.241,3.160,2.661,3.102,-1.362,-1.127,0.618,-0.054,0.935,-0.420,-1.495,-0.427,0.488,60.000,21410.000,1.000
-1.966,-6.109,-0.549,1.428,0.687,-3.285,-2.833,0.459,-0.054,0.934,-0.417,-1.556,-0.580,0.458,60.000,21411.000,1.000
-8.418,-9.581,-4.218,-0.633,-3.281,-5.527,-4.892,-1.318,-0.050,0.933,-0.416,-1.465,-0.519,0.458,60.000,21412.000,1.000
-14.745,-13.439,-6.941,-2.752,-7.358,-7.679,-7.654,-4.496,-0.051,0.930,-0.415,-1.343,-0.488,0.549,60.000,21413.000,1.000
-19.141,-16.198,-8.411,-4.485,-10.386,-9.787,-10.647,-8.625,-0.051,0.930,-0.415,-1.343,-0.519,0.641,60.000,21414.000,1.000
-20.264,-16.731,-8.701,-5.575,-11.683,-11.889,-12.600,-12.533,-0.054,0.931,-0.412,-1.221,-0.580,0.793,60.000,21415.000,1.000
-18.679,-15.255,-8.245,-6.160,-11.455,-13.925,-13.103,-14.861,-0.054,0.931,-0.415,-1.282,-0.580,0.854,60.000,21416.000,1.000
-16.142,-12.957,-7.419,-6.462,-10.442,-15.591,-12.838,-14.876,-0.054,0.934,-0.413,-1.251,-0.610,0.824,60.000,21417.000,1.000
-13.885,-10.951,-6.407,-6.596,-9.365,-16.540,-12.617,-12.902,-0.055,0.932,-0.416,-1.251,-0.580,0.824,60.000,21418.000,1.000
-12.344,-9.834,-5.463,-6.791,-8.729,-16.867,-13.065,-10.000,-0.049,0.932,-0.415,-1.251,-0.580,0.763,60.000,21419.000,1.000
-10.569,-9.000,-4.467,-6.911,-8.198,-16.685,-13.864,-6.887,-0.049,0.929,-0.416,-1.190,-0.641,0.793,60.000,21420.000,1.000
-8.018,-7.726,-3.263,-6.820,-7.255,-16.239,-14.531,-3.957,-0.047,0.930,-0.414,-1.190,-0.610,0.732,60.000,21421.000,1.000
-5.133,-5.957,-1.833,-6.396,-5.812,-15.940,-15.059,-1.574,-0.047,0.931,-0.414,-1.251,-0.580,0.916,60.000,21422.000,1.000
-2.324,-4.131,-0.225,-5.259,-4.240,-16.114,-15.712,-0.061,-0.047,0.930,-0.412,-1.251,-0.549,0.946,60.000,21423.000,1.000
0.176,-2.903,1.329,-3.085,-3.182,-16.709,-16.556,0.487,-0.046,0.932,-0.415,-1.221,-0.427,0.793,60.000,21424.000,1.000
2.762,-2.291,2.702,0.245,-2.698,-16.910,-16.588,0.640,-0.048,0.935,-0.413,-1.038,-0.305,0.702,60.000,21425.000,1.000
4.795,-2.389,3.560,3.971,-2.525,-16.003,-14.832,1.186,-0.049,0.938,-0.412,-1.221,-0.214,0.732,60.000,21426.000,1.000
4.961,-3.269,3.661,6.934,-2.271,-13.800,-11.052,2.787,-0.048,0.939,-0.413,-1.251,-0.122,0.732,60.000,21427.000,1.000
3.332,-4.046,3.290,8.463,-1.380,-10.541,-5.914,5.749,-0.046,0.938,-0.411,-1.312,-0.092,0.763,60.000,21428.000,1.000
1.227,-3.434,2.926,8.457,0.399,-6.954,-1.245,9.474,-0.043,0.931,-0.411,-1.404,-0.031,0.732,60.000,21429.000,1.000
0.521,-0.612,3.008,7.522,3.013,-3.749,1.410,12.545,-0.040,0.929,-0.415,-1.282,0.092,0.702,60.000,21430.000,1.000
1.396,3.532,3.339,6.191,5.687,-1.532,1.566,13.335,-0.041,0.927,-0.413,-1.160,0.214,0.702,60.000,21431.000,1.000
2.604,7.207,3.621,4.858,7.563,-0.252,0.350,11.519,-0.042,0.927,-0.412,-1.038,0.427,0.580,60.000,21432.000,1.000
3.374,9.448,4.127,4.119,8.741,1.104,-0.037,8.652,-0.043,0.930,-0.411,-1.129,0.488,0.488,60.000,21433.000,1.000
3.524,10.271,5.145,4.346,9.933,3.614,1.730,6.775,-0.047,0.934,-0.408,-1.160,0.458,0.427,60.000,21434.000,1.000
3.702,10.393,6.375,5.456,11.609,7.417,5.457,6.817,-0.046,0.937,-0.411,-1.160,0.427,0.458,60.000,21435.000,1.000
3.758,9.908,6.444,6.405,12.910,10.876,9.112,7.721,-0.047,0.940,-0.414,-1.312,0.488,0.488,60.000,21436.000,1.000
2.896,8.454,4.157,6.110,12.584,11.922,10.494,7.743,-0.047,0.944,-0.414,-1.465,0.549,0.427,60.000,21437.000,1.000
1.213,6.299,-0.059,4.577,10.593,10.055,9.264,6.334,-0.050,0.941,-0.414,-1.617,0.458,0.397,60.000,21438.000,1.000
-0.636,4.051,-4.570,2.447,7.835,6.384,6.599,4.264,-0.051,0.940,-0.412,-1.801,0.519,0.458,60.000,21439.000,1.000
-1.428,2.507,-7.510,0.555,5.390,2.718,4.344,2.517,-0.055,0.938,-0.413,-1.892,0.488,0.427,60.000,21440.000,1.000
-0.780,1.980,-8.136,-0.768,3.504,0.185,3.280,0.943,-0.058,0.937,-0.414,-1.923,0.336,0.488,60.000,21441.000,1.000
0.802,2.408,-6.949,-1.632,1.793,-1.046,2.864,-1.389,-0.059,0.937,-0.413,-1.953,0.061,0.305,60.000,21442.000,1.000
2.807,3.634,-5.005,-2.286,0.044,-1.316,2.180,-4.974,-0.062,0.938,-0.412,-1.831,-0.092,0.244,60.000,21443.000,1.000
4.611,5.103,-3.270,-3.012,-1.569,-1.174,0.520,-9.269,-0.061,0.938,-0.413,-1.770,-0.275,0.214,60.000,21444.000,1.000
6.469,6.586,-1.844,-3.459,-2.245,-0.774,-1.601,-12.668,-0.063,0.938,-0.414,-1.678,-0.549,0.031,60.000,21445.000,1.000
8.408,7.882,-0.526,-3.175,-1.466,-0.151,-3.083,-13.625,-0.062,0.938,-0.416,-1.831,-0.854,-0.092,60.000,21446.000,1.000
9.867,8.796,0.885,-1.884,0.751,0.839,-2.797,-11.523,-0.061,0.936,-0.415,-1.862,-1.160,-0.031,60.000,21447.000,1.000
10.352,9.368,2.523,0.413,4.104,2.439,-0.026,-7.087,-0.061,0.934,-0.414,-1.862,-1.373,-0.092,60.000,21448.000,1.000
9.238,9.503,3.963,2.968,7.708,4.319,4.617,-2.256,-0.059,0.933,-0.411,-1.892,-1.587,-0.061,60.000,21449.000,1.000
7.212,9.803,4.817,5.111,10.780,6.149,9.889,1.408,-0.058,0.931,-0.414,-1.984,-1.648,-0.122,60.000,21450.000,1.000
5.609,11.213,4.966,6.603,12.859,8.036,14.179,3.598,-0.055,0.933,-0.415,-1.892,-1.740,-0.153,60.000,21451.000,1.000
5.265,14.087,4.450,7.495,13.673,10.278,16.063,4.849,-0.052,0.933,-0.413,-1.862,-1.801,-0.061,60.000,21452.000,1.000
6.014,17.605,3.273,7.768,12.934,12.609,14.939,5.633,-0.049,0.931,-0.413,-1.892,-1.892,-0.031,60.000,21453.000,1.000
6.435,19.818,1.381,7.113,10.313,14.021,11.058,5.811,-0.048,0.933,-0.414,-1.801,-1.862,0.000,60.000,21454.000,1.000
5.948,19.565,-0.648,5.768,6.415,14.058,6.131,5.253,-0.046,0.936,-0.417,-1.617,-1.862,0.122,60.000,21455.000,1.000
4.942,17.150,-2.032,4.442,2.638,13.188,2.203,4.261,-0.046,0.939,-0.413,-1.587,-1.831,0.214,60.000,21456.000,1.000
4.308,14.086,-2.280,3.993,0.518,12.382,0.636,3.642,-0.045,0.941,-0.406,-1.587,-1.617,0.397,60.000,21457.000,1.000
4.856,12.145,-1.440,4.897,0.924,12.272,1.776,4.102,-0.046,0.938,-0.410,-1.617,-1.556,0.488,60.000,21458.000,1.000
6.264,12.008,-0.054,6.721,3.393,12.713,4.827,5.720,-0.045,0.937,-0.407,-1.678,-1.465,0.549,60.000,21459.000,1.000
8.306,13.621,1.823,8.886,7.032,13.770,9.060,8.500,-0.045,0.932,-0.409,-1.740,-1.465,0.580,60.000,21460.000,1.000
10.413,15.995,4.300,10.666,10.748,15.530,13.546,12.216,-0.048,0.928,-0.410,-1.770,-1.373,0.610,60.000,21461.000,1.000
11.769,17.696,7.140,11.371,13.436,17.505,17.001,16.111,-0.052,0.927,-0.408,-1.678,-1.343,0.732,60.000,21462.000,1.000
12.339,18.073,9.775,10.882,14.470,18.728,18.352,18.933,-0.049,0.925,-0.410,-1.587,-1.312,0.702,60.000,21463.000,1.000
12.324,17.204,11.324,9.485,13.693,18.183,16.776,19.245,-0.050,0.924,-0.410,-1.495,-1.221,0.824,60.000,21464.000,1.000
12.488,15.955,11.389,7.983,11.816,15.758,12.600,16.598,-0.049,0.923,-0.412,-1.282,-1.251,0.763,60.000,21465.000,1.000
13.045,15.112,10.254,7.032,9.931,12.249,7.127,11.954,-0.047,0.922,-0.413,-1.190,-1.251,0.824,60.000,21466.000,1.000
13.419,14.830,8.772,6.826,8.973,9.098,2.371,7.297,-0.044,0.925,-0.414,-1.099,-1.068,0.732,60.000,21467.000,1.000
13.083,14.770,7.843,7.241,9.402,7.786,0.440,4.747,-0.041,0.925,-0.416,-1.007,-0.946,0.702,60.000,21468.000,1.000
11.602,14.130,7.647,7.882,10.865,8.796,2.002,5.519,-0.042,0.928,-0.411,-0.824,-0.824,0.702,60.000,21469.000,1.000
9.599,12.448,7.868,8.649,12.723,11.384,6.069,9.396,-0.040,0.928,-0.413,-0.732,-0.793,0.671,60.000,21470.000,1.000
7.906,9.612,7.802,9.457,14.021,13.803,10.103,14.404,-0.039,0.928,-0.412,-0.732,-0.519,0.610,60.000,21471.000,1.000
7.356,6.354,7.114,10.368,14.041,14.806,11.860,17.924,-0.041,0.929,-0.414,-0.702,-0.336,0.549,60.000,21472.000,1.000
8.667,4.142,6.222,11.620,12.831,14.564,10.931,18.250,-0.042,0.930,-0.414,-0.488,-0.214,0.458,60.000,21473.000,1.000
11.051,3.535,5.620,12.887,10.647,13.744,7.935,15.087,-0.042,0.931,-0.414,-0.397,-0.092,0.397,60.000,21474.000,1.000
13.520,4.235,5.825,13.683,8.033,13.014,4.448,9.677,-0.042,0.936,-0.411,-0.214,0.092,0.305,60.000,21475.000,1.000
15.336,5.342,6.958,13.545,5.478,12.597,2.408,3.982,-0.044,0.939,-0.411,-0.061,0.336,0.244,60.000,21476.000,1.000
16.146,5.877,8.608,12.256,3.203,12.274,3.189,-0.322,-0.047,0.939,-0.415,-0.244,0.275,0.153,60.000,21477.000,1.000
16.166,5.509,10.080,10.040,1.295,11.613,6.421,-2.517,-0.049,0.937,-0.413,-0.275,0.336,0.153,60.000,21478.000,1.000
15.450,4.425,10.614,7.340,-0.296,10.078,9.564,-2.942,-0.049,0.931,-0.413,-0.336,0.366,0.031,60.000,21479.000,1.000
14.563,3.291,10.052,4.912,-1.381,7.580,10.289,-2.315,-0.048,0.927,-0.414,-0.214,0.397,0.000,60.000,21480.000,1.000
13.669,2.127,8.592,2.990,-2.155,4.242,7.749,-1.673,-0.050,0.927,-0.417,-0.092,0.488,-0.214,60.000,21481.000,1.000
12.403,0.268,6.594,1.167,-3.314,0.290,2.551,-2.094,-0.052,0.931,-0.414,0.092,0.549,-0.214,60.000,21482.000,1.000
10.550,-2.685,4.395,-0.982,-5.476,-3.933,-3.805,-4.140,-0.054,0.936,-0.413,0.153,0.397,-0.244,60.000,21483.000,1.000
7.677,-6.652,1.947,-3.638,-8.903,-8.098,-9.913,-7.579,-0.053,0.938,-0.413,0.214,0.336,-0.336,60.000,21484.000,1.000
4.413,-10.389,-0.505,-6.111,-12.715,-11.307,-14.129,-11.092,-0.052,0.937,-0.413,0.305,0.214,-0.397,60.000,21485.000,1.000
1.963,-12.237,-2.407,-7.380,-15.395,-12.582,-15.323,-13.086,-0.051,0.938,-0.412,0.275,0.153,-0.275,60.000,21486.000,1.000
1.071,-11.353,-3.301,-7.002,-15.877,-11.770,-13.531,-12.780,-0.052,0.940,-0.412,0.214,0.244,-0.153,60.000,21487.000,1.000
1.299,-8.538,-3.365,-5.715,-14.401,-9.883,-9.912,-10.815,-0.053,0.939,-0.413,-0.061,0.061,-0.031,60.000,21488.000,1.000
0.724,-6.144,-3.585,-5.295,-12.656,-8.520,-6.451,-9.021,-0.055,0.938,-0.416,-0.153,-0.122,0.031,60.000,21489.000,1.000
-1.461,-5.733,-4.618,-6.763,-12.090,-8.281,-4.249,-8.888,-0.057,0.938,-0.416,-0.153,-0.153,0.183,60.000,21490.000,1.000
-4.665,-7.314,-6.539,-9.807,-13.082,-8.703,-3.539,-10.724,-0.060,0.938,-0.416,-0.244,-0.305,0.183,60.000,21491.000,1.000
-7.961,-10.040,-8.981,-13.189,-15.002,-9.007,-4.193,-13.562,-0.061,0.940,-0.414,-0.427,-0.366,0.214,60.000,21492.000,1.000
-10.692,-12.900,-11.211,-15.406,-16.589,-8.620,-5.506,-15.529,-0.060,0.942,-0.413,-0.519,-0.488,0.031,60.000,21493.000,1.000
-13.203,-15.364,-12.588,-15.590,-16.876,-7.560,-6.474,-14.871,-0.056,0.941,-0.415,-0.519,-0.488,-0.031,60.000,21494.000,1.000
-15.643,-17.063,-12.763,-13.678,-15.518,-6.276,-6.217,-10.990,-0.053,0.937,-0.415,-0.610,-0.732,-0.092,60.000,21495.000,1.000
-18.231,-18.324,-12.281,-10.790,-13.212,-5.816,-5.358,-5.232,-0.052,0.935,-0.412,-0.824,-0.671,-0.061,60.000,21496.000,1.000
-21.031,-19.804,-12.095,-8.492,-10.952,-7.013,-5.263,0.017,-0.052,0.931,-0.416,-0.854,-0.641,0.061,60.000,21497.000,1.000
-23.332,-21.374,-12.560,-7.562,-9.020,-9.490,-6.214,2.824,-0.050,0.928,-0.417,-0.854,-0.671,0.092,60.000,21498.000,1.000
-24.909,-22.489,-13.355,-7.947,-7.341,-12.048,-7.710,2.475,-0.051,0.926,-0.417,-0.702,-0.610,0.122,60.000,21499.000,1.000
-25.994,-22.645,-13.672,-9.002,-5.817,-13.512,-9.094,-0.128,-0.053,0.927,-0.415,-0.610,-0.580,0.031,60.000,21500.000,1.000
-27.465,-22.228,-13.157,-10.328,-4.778,-13.759,-10.550,-3.433,-0.053,0.929,-0.417,-0.458,-0.519,0.122,60.000,21501.000,1.000
-29.597,-21.906,-11.900,-11.580,-4.367,-13.198,-12.416,-6.125,-0.054,0.931,-0.419,-0.488,-0.549,0.305,60.000,21502.000,1.000
-31.116,-21.517,-9.899,-12.042,-3.936,-11.819,-13.994,-7.324,-0.054,0.934,-0.415,-0.458,-0.549,0.427,60.000,21503.000,1.000
-30.925,-20.516,-7.475,-11.415,-2.930,-9.708,-14.350,-6.973,-0.055,0.935,-0.414,-0.458,-0.671,0.671,60.000,21504.000,1.000
-28.381,-18.207,-5.271,-10.084,-1.362,-7.451,-13.012,-5.760,-0.058,0.934,-0.412,-0.580,-0.580,0.702,60.000,21505.000,1.000
-23.851,-14.499,-4.052,-9.120,0.017,-6.088,-10.640,-4.709,-0.057,0.932,-0.413,-0.671,-0.702,0.916,60.000,21506.000,1.000
-18.162,-9.843,-3.844,-9.257,0.554,-6.015,-8.081,-4.224,-0.060,0.930,-0.412,-0.763,-0.793,0.854,60.000,21507.000,1.000
-11.890,-4.820,-3.713,-10.115,0.370,-6.427,-5.470,-3.822,-0.061,0.926,-0.412,-0.732,-0.793,0.824,60.000,21508.000,1.000
-6.334,-0.557,-2.755,-10.852,-0.205,-6.261,-3.083,-3.017,-0.062,0.924,-0.415,-0.763,-0.977,0.854,60.000,21509.000,1.000
-2.520,2.158,-0.524,-10.557,-0.647,-4.789,-1.041,-1.718,-0.062,0.922,-0.416,-0.641,-1.129,0.732,60.000,21510.000,1.000
-0.925,3.172,2.429,-8.980,-0.744,-2.273,0.619,-0.388,-0.059,0.924,-0.417,-0.549,-1.312,0.610,60.000,21511.000,1.000
-1.122,2.971,4.923,-6.500,-0.651,0.241,1.858,0.504,-0.058,0.929,-0.420,-0.427,-1.404,0.519,60.000,21512.000,1.000
-1.853,2.351,6.017,-3.669,-0.446,1.810,2.618,0.981,-0.055,0.933,-0.416,-0.305,-1.587,0.519,60.000,21513.000,1.000
-2.851,1.365,5.194,-1.325,-0.259,2.001,2.499,1.110,-0.054,0.936,-0.412,-0.366,-1.648,0.488,60.000,21514.000,1.000
-4.336,-0.114,2.741,0.035,0.106,1.213,1.759,0.901,-0.051,0.941,-0.414,-0.580,-1.587,0.488,60.000,21515.000,1.000
-6.704,-2.092,-0.620,0.327,0.875,0.000,1.140,0.305,-0.052,0.940,-0.414,-0.641,-1.526,0.397,60.000,21516.000,1.000
-9.790,-4.167,-3.948,-0.145,2.015,-1.291,1.337,-0.486,-0.052,0.939,-0.416,-0.763,-1.465,0.458,60.000,21517.000,1.000
-12.481,-5.473,-6.261,-0.761,3.186,-2.342,2.666,-0.953,-0.052,0.936,-0.419,-0.916,-1.495,0.397,60.000,21518.000,1.000
-14.257,-5.689,-7.132,-1.097,3.592,-2.978,4.473,-0.774,-0.053,0.934,-0.416,-0.946,-1.404,0.336,60.000,21519.000,1.000
-14.842,-4.907,-6.480,-0.730,2.800,-2.899,6.026,0.133,-0.053,0.934,-0.418,-0.946,-1.373,0.366,60.000,21520.000,1.000
-14.308,-3.591,-4.651,0.308,0.891,-2.061,6.689,1.398,-0.054,0.933,-0.419,-0.977,-1.312,0.397,60.000,21521.000,1.000
-12.813,-2.300,-2.249,1.478,-1.638,-0.840,6.151,2.325,-0.053,0.928,-0.421,-0.977,-1.190,0.397,60.000,21522.000,1.000
-10.342,-1.428,0.091,2.151,-3.987,0.108,4.738,2.332,-0.052,0.927,-0.419,-0.946,-1.129,0.366,60.000,21523.000,1.000
-7.605,-1.428,1.694,1.733,-5.569,0.027,2.913,1.226,-0.051,0.927,-0.418,-0.916,-1.068,0.275,60.000,21524.000,1.000
-4.893,-1.945,2.457,0.377,-5.788,-1.102,1.547,-0.457,-0.051,0.930,-0.416,-0.854,-1.038,0.305,60.000,21525.000,1.000
-2.355,-2.330,2.509,-1.327,-4.543,-2.832,1.041,-1.941,-0.051,0.932,-0.418,-0.763,-0.977,0.305,60.000,21526.000,1.000
-0.272,-2.341,1.924,-2.741,-2.467,-4.784,0.834,-2.738,-0.050,0.932,-0.416,-0.610,-0.793,0.214,60.000,21527.000,1.000
1.439,-1.940,0.947,-3.259,-0.469,-6.668,0.204,-2.840,-0.051,0.931,-0.416,-0.641,-0.641,0.122,60.000,21528.000,1.000
2.749,-1.235,-0.008,-2.697,0.625,-8.147,-1.034,-2.640,-0.051,0.934,-0.420,-0.732,-0.641,0.183,60.000,21529.000,1.000
4.324,0.143,-0.170,-1.024,0.850,-8.385,-1.804,-2.223,-0.048,0.932,-0.416,-0.824,-0.610,0.275,60.000,21530.000,1.000
6.544,2.271,0.791,1.262,0.648,-6.762,-1.211,-1.359,-0.050,0.937,-0.418,-0.763,-0.427,0.275,60.000,21531.000,1.000
8.878,4.436,2.470,3.265,0.322,-3.533,0.418,0.338,-0.046,0.941,-0.417,-0.671,-0.336,0.244,60.000,21532.000,1.000
10.640,5.805,4.095,4.320,-0.022,0.238,2.024,3.035,-0.047,0.941,-0.415,-0.580,-0.214,0.427,60.000,21533.000,1.000
11.134,5.794,4.804,4.189,-0.604,3.100,2.424,5.867,-0.046,0.942,-0.416,-0.671,-0.092,0.427,60.000,21534.000,1.000
10.912,4.834,4.481,3.550,-1.256,4.495,1.755,7.288,-0.047,0.941,-0.416,-0.793,0.031,0.549,60.000,21535.000,1.000
10.746,3.742,3.592,3.262,-1.651,4.866,1.110,6.032,-0.049,0.938,-0.415,-0.946,0.122,0.549,60.000,21536.000,1.000
10.693,3.062,2.740,3.663,-1.733,4.994,1.465,2.053,-0.052,0.935,-0.414,-1.099,0.183,0.580,60.000,21537.000,1.000
10.559,3.046,2.325,4.499,-1.737,5.326,2.838,-3.462,-0.055,0.932,-0.416,-1.129,0.183,0.641,60.000,21538.000,1.000
9.727,3.241,2.120,4.993,-2.225,5.514,3.691,-8.879,-0.053,0.930,-0.415,-0.977,0.214,0.610,60.000,21539.000,1.000
8.268,3.218,1.847,4.858,-3.254,5.161,2.656,-12.423,-0.052,0.934,-0.417,-1.068,0.214,0.580,60.000,21540.000,1.000
6.496,2.773,1.299,4.405,-4.380,4.252,-0.333,-13.062,-0.054,0.933,-0.416,-0.977,0.214,0.488,60.000,21541.000,1.000
4.689,2.103,0.438,4.197,-4.941,3.309,-3.974,-11.112,-0.052,0.936,-0.415,-0.946,0.122,0.549,60.000,21542.000,1.000
3.341,1.716,-0.534,4.574,-4.320,3.019,-6.500,-7.803,-0.050,0.934,-0.415,-1.038,0.214,0.488,60.000,21543.000,1.000
2.359,1.558,-1.472,5.147,-2.611,3.437,-7.214,-4.438,-0.052,0.933,-0.414,-1.099,0.214,0.488,60.000,21544.000,1.000
2.014,1.526,-1.905,5.558,-0.254,4.289,-6.094,-1.611,-0.053,0.929,-0.413,-1.038,0.183,0.458,60.000,21545.000,1.000
2.390,1.459,-1.439,5.598,2.039,5.046,-3.829,0.417,-0.053,0.929,-0.412,-0.977,0.244,0.427,60.000,21546.000,1.000
3.062,1.253,-0.050,5.264,3.574,5.183,-1.543,1.525,-0.055,0.928,-0.412,-0.977,0.153,0.366,60.000,21547.000,1.000
3.849,1.307,1.957,4.879,4.154,4.577,0.046,1.869,-0.054,0.928,-0.414,-0.824,0.031,0.397,60.000,21548.000,1.000
4.492,1.885,3.748,4.518,3.779,3.268,0.545,1.556,-0.053,0.928,-0.414,-0.732,-0.031,0.488,60.000,21549.000,1.000
5.468,3.164,4.699,4.248,2.844,1.640,0.317,0.873,-0.055,0.928,-0.414,-0.641,-0.122,0.488,60.000,21550.000,1.000
7.244,4.976,4.800,4.134,1.924,0.242,0.030,0.334,-0.052,0.929,-0.413,-0.610,-0.031,0.366,60.000,21551.000,1.000
9.698,6.928,4.722,4.250,1.584,-0.476,0.191,0.481,-0.052,0.930,-0.412,-0.488,-0.092,0.427,60.000,21552.000,1.000
12.420,8.646,5.286,4.565,2.166,-0.568,0.890,1.505,-0.051,0.931,-0.417,-0.397,-0.244,0.458,60.000,21553.000,1.000
14.351,9.389,6.542,4.641,3.274,-0.838,1.419,2.990,-0.051,0.931,-0.416,-0.427,-0.244,0.458,60.000,21554.000,1.000
15.109,8.851,8.007,4.262,4.330,-1.892,1.309,4.329,-0.051,0.934,-0.416,-0.397,-0.336,0.427,60.000,21555.000,1.000
14.744,7.279,8.867,3.390,4.808,-3.720,0.510,4.679,-0.052,0.934,-0.414,-0.427,-0.366,0.427,60.000,21556.000,1.000
13.545,5.413,8.671,2.297,4.657,-5.462,-0.399,3.520,-0.051,0.933,-0.410,-0.397,-0.336,0.458,60.000,21557.000,1.000
12.332,4.245,7.892,1.696,4.546,-5.760,-0.326,1.464,-0.052,0.933,-0.413,-0.366,-0.336,0.275,60.000,21558.000,1.000
11.361,4.028,7.217,1.880,4.950,-4.196,0.825,-0.232,-0.051,0.934,-0.411,-0.427,-0.336,0.275,60.000,21559.000,1.000
10.978,4.818,7.159,2.732,6.069,-1.479,2.416,-0.345,-0.049,0.936,-0.415,-0.580,-0.427,0.275,60.000,21560.000,1.000
11.142,6.474,7.627,3.835,7.764,1.134,3.622,1.682,-0.048,0.937,-0.415,-0.580,-0.427,0.214,60.000,21561.000,1.000
11.027,8.264,7.965,4.680,9.531,2.591,4.003,5.495,-0.048,0.938,-0.413,-0.610,-0.397,0.183,60.000,21562.000,1.000
9.773,9.124,7.270,4.762,10.571,2.315,3.678,9.736,-0.051,0.940,-0.414,-0.641,-0.458,0.122,60.000,21563.000,1.000
6.684,8.111,4.727,3.570,9.970,0.116,2.594,12.347,-0.051,0.940,-0.417,-0.702,-0.427,0.153,60.000,21564.000,1.000
2.537,5.559,0.692,1.483,7.843,-3.165,0.962,12.164,-0.053,0.936,-0.414,-0.946,-0.458,0.092,60.000,21565.000,1.000
-1.222,2.677,-3.385,-0.476,5.283,-5.943,-0.885,9.741,-0.053,0.933,-0.417,-0.854,-0.610,0.183,60.000,21566.000,1.000
-3.429,0.745,-5.758,-1.353,3.566,-6.609,-2.410,6.829,-0.053,0.931,-0.419,-0.916,-0.793,0.183,60.000,21567.000,1.000
-3.479,0.533,-5.536,-0.853,3.325,-4.400,-2.779,5.027,-0.053,0.929,-0.419,-0.824,-0.763,0.153,60.000,21568.000,1.000
-2.292,1.444,-3.576,0.216,3.889,-0.201,-1.889,4.708,-0.056,0.929,-0.418,-0.824,-0.793,0.305,60.000,21569.000,1.000
-0.907,2.467,-1.391,0.956,4.257,4.228,-0.192,5.374,-0.057,0.931,-0.417,-0.763,-0.916,0.366,60.000,21570.000,1.000
-0.359,2.524,-0.327,0.726,3.583,6.984,1.104,5.836,-0.057,0.930,-0.413,-0.793,-1.099,0.458,60.000,21571.000,1.000
-1.713,0.637,-1.122,-0.813,1.388,6.782,0.503,4.630,-0.056,0.932,-0.417,-0.671,-1.312,0.702,60.000,21572.000,1.000
-4.835,-3.095,-3.404,-3.205,-1.858,3.925,-2.281,1.228,-0.059,0.930,-0.416,-0.763,-1.404,0.793,60.000,21573.000,1.000
-8.369,-7.200,-5.835,-5.270,-4.764,0.269,-5.817,-3.133,-0.060,0.931,-0.416,-0.702,-1.709,0.793,60.000,21574.000,1.000
-9.751,-9.101,-6.740,-5.579,-5.530,-1.690,-7.324,-5.868,-0.059,0.931,-0.417,-0.671,-1.740,0.732,60.000,21575.000,1.000
-7.690,-7.345,-5.790,-4.082,-3.762,-0.912,-5.273,-5.323,-0.054,0.930,-0.418,-0.641,-1.770,0.458,60.000,21576.000,1.000
-3.421,-2.942,-4.392,-2.257,-1.000,1.539,-0.764,-2.166,-0.045,0.931,-0.417,-0.702,-1.770,0.305,60.000,21577.000,1.000
1.017,1.860,-4.142,-1.404,0.931,3.998,3.888,1.577,-0.038,0.931,-0.417,-0.732,-1.556,0.214,60.000,21578.000,1.000
4.149,5.312,-5.318,-1.527,1.442,5.769,6.960,4.310,-0.035,0.931,-0.419,-0.671,-1.343,0.122,60.000,21579.000,1.000
6.527,7.670,-6.334,-1.145,1.814,7.676,8.854,6.048,-0.038,0.930,-0.419,-0.702,-1.129,0.183,60.000,21580.000,1.000
9.079,9.917,-5.610,0.939,3.506,10.382,10.687,7.467,-0.040,0.930,-0.420,-0.702,-0.946,0.305,60.000,21581.000,1.000
11.501,12.168,-3.203,4.318,6.561,13.130,12.531,8.685,-0.044,0.930,-0.420,-0.641,-0.763,0.305,60.000,21582.000,1.000
12.787,13.784,-0.454,7.440,9.821,14.423,13.600,9.288,-0.045,0.932,-0.418,-0.580,-0.702,0.275,60.000,21583.000,1.000
11.306,13.440,1.005,8.480,11.584,13.021,12.821,8.857,-0.046,0.929,-0.417,-0.519,-0.580,0.244,60.000,21584.000,1.000
6.305,10.083,0.407,6.609,10.697,8.743,9.885,7.489,-0.047,0.931,-0.420,-0.519,-0.519,0.214,60.000,21585.000,1.000
-1.642,3.651,-2.129,2.206,6.969,2.273,5.056,5.381,-0.048,0.932,-0.419,-0.610,-0.458,0.092,60.000,21586.000,1.000
-10.398,-4.266,-5.590,-3.195,1.578,-4.760,-0.687,2.824,-0.048,0.934,-0.419,-0.610,-0.458,0.061,60.000,21587.000,1.000
-16.609,-10.692,-8.327,-7.369,-3.144,-9.999,-5.468,0.606,-0.046,0.935,-0.417,-0.671,-0.305,-0.092,60.000,21588.000,1.000
-18.155,-13.263,-9.230,-8.895,-5.436,-11.867,-7.955,-0.625,-0.047,0.934,-0.418,-0.641,-0.244,-0.061,60.000,21589.000,1.000
-14.693,-11.273,-8.087,-7.679,-4.977,-10.391,-7.903,-1.000,-0.047,0.933,-0.417,-0.671,-0.214,-0.061,60.000,21590.000,1.000
-8.083,-6.336,-5.656,-4.999,-3.080,-7.216,-6.503,-1.423,-0.048,0.934,-0.414,-0.702,-0.061,-0.061,60.000,21591.000,1.000
-1.163,-1.254,-2.908,-2.425,-1.608,-4.307,-5.335,-2.487,-0.047,0.933,-0.419,-0.763,0.031,-0.061,60.000,21592.000,1.000
4.634,2.342,-0.186,-0.510,-1.364,-2.441,-4.716,-3.684,-0.049,0.933,-0.420,-0.702,0.092,-0.061,60.000,21593.000,1.000
9.094,4.362,2.455,0.987,-1.960,-1.229,-3.999,-3.928,-0.050,0.933,-0.417,-0.732,0.122,-0.092,60.000,21594.000,1.000
12.871,5.619,5.039,2.641,-2.309,0.306,-2.061,-2.222,-0.052,0.932,-0.420,-0.702,0.092,-0.092,60.000,21595.000,1.000
15.825,6.301,7.087,4.468,-1.947,2.584,1.387,1.293,-0.054,0.933,-0.418,-0.641,0.061,-0.061,60.000,21596.000,1.000
16.831,5.838,7.756,5.953,-1.321,5.204,5.447,5.146,-0.055,0.931,-0.417,-0.580,0.031,0.031,60.000,21597.000,1.000
15.503,4.209,6.734,6.824,-0.848,7.645,8.981,7.547,-0.056,0.932,-0.417,-0.671,0.122,0.092,60.000,21598.000,1.000
12.402,2.170,4.544,7.104,-0.608,9.569,10.950,7.299,-0.057,0.934,-0.418,-0.732,0.122,0.153,60.000,21599.000,1.000
9.391,1.197,2.561,7.310,-0.131,11.103,11.215,4.522,-0.056,0.930,-0.418,-0.824,0.031,0.183,60.000,21600.000,1.000
7.874,2.091,1.798,7.684,0.809,12.168,10.094,0.409,-0.055,0.930,-0.418,-0.854,-0.122,0.244,60.000,21601.000,1.000
7.508,4.164,2.126,7.771,1.670,12.184,7.838,-3.432,-0.052,0.933,-0.420,-0.885,-0.153,0.305,60.000,21602.000,1.000
6.980,5.955,2.621,6.956,1.629,10.728,4.869,-5.659,-0.053,0.932,-0.418,-0.854,-0.122,0.305,60.000,21603.000,1.000
4.683,6.030,2.231,4.967,0.248,8.112,1.782,-5.857,-0.054,0.935,-0.415,-0.763,-0.153,0.366,60.000,21604.000,1.000
0.989,4.645,0.979,2.689,-1.492,5.804,0.017,-4.393,-0.055,0.937,-0.414,-0.763,-0.122,0.488,60.000,21605.000,1.000
-2.093,3.530,-0.234,1.477,-1.910,5.310,0.823,-2.293,-0.054,0.940,-0.417,-0.793,-0.183,0.458,60.000,21606.000,1.000
-2.893,4.191,-0.465,2.067,-0.063,7.017,4.140,-0.564,-0.053,0.938,-0.416,-1.007,-0.153,0.641,60.000,21607.000,1.000
-1.170,6.666,0.673,4.138,3.572,9.964,8.592,0.476,-0.053,0.936,-0.414,-1.190,-0.305,0.854,60.000,21608.000,1.000
1.193,9.140,2.485,6.114,7.007,12.039,11.656,0.734,-0.053,0.932,-0.417,-1.373,-0.366,1.007,60.000,21609.000,1.000
2.299,9.714,3.837,6.324,8.256,11.234,11.369,0.120,-0.052,0.931,-0.416,-1.404,-0.488,1.251,60.000,21610.000,1.000
1.206,7.537,3.709,3.897,6.499,6.563,7.071,-1.408,-0.055,0.933,-0.416,-1.312,-0.488,1.312,60.000,21611.000,1.000
-1.894,3.118,1.922,-0.671,2.540,-1.161,-0.311,-3.625,-0.056,0.934,-0.418,-1.282,-0.427,1.282,60.000,21612.000,1.000
-5.439,-1.753,-0.431,-5.565,-1.497,-9.214,-8.020,-6.055,-0.056,0.937,-0.418,-1.160,-0.488,1.221,60.000,21613.000,1.000
-7.929,-5.272,-1.880,-8.918,-3.651,-14.593,-12.918,-8.203,-0.055,0.937,-0.415,-1.251,-0.610,1.190,60.000,21614.000,1.000
-8.251,-6.285,-1.515,-9.633,-3.063,-15.766,-13.158,-9.427,-0.054,0.935,-0.414,-1.465,-0.671,1.007,60.000,21615.000,1.000
-6.603,-4.942,0.189,-8.093,-0.527,-13.653,-9.850,-9.375,-0.049,0.932,-0.416,-1.465,-0.641,0.763,60.000,21616.000,1.000
-4.182,-2.270,1.964,-5.641,2.305,-10.502,-6.024,-8.158,-0.048,0.929,-0.417,-1.495,-0.519,0.641,60.000,21617.000,1.000
-1.851,0.764,2.884,-3.447,4.240,-8.139,-3.981,-6.218,-0.048,0.925,-0.419,-1.404,-0.275,0.549,60.000,21618.000,1.000
-0.462,3.115,2.493,-2.246,4.713,-7.434,-4.412,-4.323,-0.045,0.922,-0.420,-1.251,-0.214,0.397,60.000,21619.000,1.000
-0.159,4.202,1.024,-1.973,3.983,-7.960,-6.112,-2.895,-0.045,0.921,-0.419,-1.129,-0.244,0.336,60.000,21620.000,1.000
-1.199,3.602,-1.067,-2.333,2.451,-8.674,-7.399,-1.877,-0.045,0.923,-0.417,-1.038,-0.031,0.214,60.000,21621.000,1.000
-4.186,0.998,-3.245,-3.022,0.383,-8.675,-7.237,-0.754,-0.043,0.928,-0.419,-0.824,0.122,0.122,60.000,21622.000,1.000
-8.750,-3.105,-4.794,-3.448,-1.632,-7.593,-5.427,1.230,-0.047,0.933,-0.418,-0.732,0.305,0.031,60.000,21623.000,1.000
-13.942,-7.849,-5.505,-3.311,-3.202,-6.120,-3.337,4.022,-0.049,0.935,-0.419,-0.580,0.397,0.153,60.000,21624.000,1.000
-18.061,-12.055,-5.593,-2.662,-4.243,-5.231,-2.569,6.508,-0.053,0.937,-0.417,-0.671,0.519,0.244,60.000,21625.000,1.000
-19.533,-14.504,-5.337,-1.826,-4.848,-5.083,-3.223,7.323,-0.057,0.938,-0.417,-0.732,0.519,0.427,60.000,21626.000,1.000
-17.570,-14.234,-4.581,-0.959,-4.880,-4.681,-3.593,6.244,-0.060,0.935,-0.417,-0.824,0.427,0.580,60.000,21627.000,1.000
-12.320,-10.986,-2.907,0.047,-4.165,-3.006,-2.015,4.354,-0.063,0.934,-0.411,-0.916,0.336,0.641,60.000,21628.000,1.000
-5.771,-5.996,-0.544,0.841,-3.352,-0.295,1.012,2.701,-0.063,0.935,-0.413,-0.977,0.122,0.702,60.000,21629.000,1.000
-0.124,-0.966,1.932,0.983,-3.293,2.642,4.000,1.647,-0.062,0.933,-0.412,-1.068,0.031,0.580,60.000,21630.000,1.000
3.087,2.575,3.827,0.136,-4.578,4.858,5.555,0.773,-0.060,0.932,-0.414,-1.099,-0.183,0.580,60.000,21631.000,1.000
3.500,3.786,4.715,-1.699,-7.254,5.472,4.898,-0.723,-0.055,0.929,-0.416,-1.007,-0.244,0.549,60.000,21632.000,1.000
2.313,2.993,4.722,-4.067,-10.638,4.172,2.354,-3.496,-0.053,0.928,-0.417,-0.977,-0.244,0.549,60.000,21633.000,1.000
0.440,0.638,3.946,-6.746,-14.039,1.150,-1.371,-7.766,-0.052,0.927,-0.418,-1.007,-0.397,0.549,60.000,21634.000,1.000
-1.571,-2.822,2.604,-9.462,-16.688,-2.740,-5.076,-12.642,-0.052,0.928,-0.420,-0.854,-0.336,0.732,60.000,21635.000,1.000
-3.399,-6.691,1.166,-11.598,-17.658,-6.281,-7.387,-16.194,-0.053,0.928,-0.420,-0.763,-0.397,0.793,60.000,21636.000,1.000
-4.446,-9.701,0.340,-12.190,-15.992,-8.274,-7.268,-16.388,-0.056,0.933,-0.417,-0.671,-0.397,0.854,60.000,21637.000,1.000
-3.753,-10.421,0.547,-10.589,-11.424,-8.161,-4.573,-12.502,-0.055,0.935,-0.416,-0.641,-0.549,0.885,60.000,21638.000,1.000
-1.889,-8.939,1.212,-7.466,-5.373,-6.653,-0.713,-6.054,-0.056,0.935,-0.417,-0.641,-0.610,0.885,60.000,21639.000,1.000
-0.077,-6.362,1.697,-3.926,0.164,-4.744,2.757,0.314,-0.057,0.934,-0.412,-0.671,-0.641,0.916,60.000,21640.000,1.000
0.708,-3.898,1.806,-0.773,3.704,-3.152,4.674,4.265,-0.054,0.936,-0.413,-0.732,-0.732,0.885,60.000,21641.000,1.000
-0.121,-2.625,1.511,1.431,4.498,-2.505,4.154,4.610,-0.053,0.933,-0.418,-0.732,-0.671,1.007,60.000,21642.000,1.000
-2.347,-3.095,0.826,2.346,2.711,-3.223,1.161,1.594,-0.053,0.931,-0.416,-0.671,-0.793,0.946,60.000,21643.000,1.000
-5.352,-5.097,-0.124,2.007,-0.532,-5.189,-3.300,-3.233,-0.052,0.932,-0.417,-0.763,-0.885,0.977,60.000,21644.000,1.000
-7.468,-7.194,-0.571,1.439,-3.032,-7.249,-6.876,-7.281,-0.052,0.932,-0.419,-0.763,-0.885,0.946,60.000,21645.000,1.000
-7.247,-7.974,0.143,1.704,-3.016,-8.154,-7.595,-8.429,-0.049,0.931,-0.417,-0.732,-0.824,0.854,60.000,21646.000,1.000
-4.522,-7.085,1.777,2.858,-0.466,-7.692,-5.649,-6.335,-0.049,0.933,-0.417,-0.732,-0.732,0.824,60.000,21647.000,1.000
-0.012,-5.007,3.398,4.144,3.188,-6.757,-3.082,-2.404,-0.048,0.935,-0.416,-0.732,-0.702,0.946,60.000,21648.000,1.000
4.329,-3.025,3.932,4.491,5.914,-6.654,-2.364,1.174,-0.049,0.935,-0.417,-0.854,-0.793,0.977,60.000,21649.000,1.000
7.017,-2.002,3.321,3.673,6.593,-7.605,-4.107,3.150,-0.051,0.934,-0.419,-0.946,-0.763,0.977,60.000,21650.000,1.000
7.714,-1.939,2.373,2.280,5.391,-8.621,-7.063,3.873,-0.051,0.937,-0.417,-0.885,-0.549,0.885,60.000,21651.000,1.000
6.998,-2.273,2.035,1.188,3.415,-8.317,-9.222,4.823,-0.048,0.939,-0.418,-0.916,-0.549,0.793,60.000,21652.000,1.000
6.241,-2.135,2.955,1.199,2.232,-5.786,-8.739,7.349,-0.051,0.940,-0.416,-1.068,-0.549,0.671,60.000,21653.000,1.000
6.066,-1.275,4.949,2.272,2.606,-1.505,-5.542,11.099,-0.052,0.939,-0.415,-1.129,-0.671,0.671,60.000,21654.000,1.000
6.522,0.092,7.316,3.722,4.111,3.054,-1.199,14.134,-0.053,0.935,-0.415,-1.312,-0.610,0.641,60.000,21655.000,1.000
6.983,1.339,9.030,4.510,5.329,6.194,1.965,14.278,-0.053,0.932,-0.415,-1.434,-0.519,0.549,60.000,21656.000,1.000
6.909,2.109,9.521,4.114,5.211,7.171,2.738,11.035,-0.052,0.930,-0.412,-1.434,-0.641,0.458,60.000,21657.000,1.000
7.122,3.146,9.304,3.207,4.301,6.751,2.143,6.363,-0.052,0.930,-0.413,-1.343,-0.671,0.275,60.000,21658.000,1.000
8.161,4.988,8.864,2.498,3.546,5.925,1.381,2.893,-0.053,0.929,-0.415,-1.373,-0.671,0.244,60.000,21659.000,1.000
9.683,7.209,8.032,2.063,3.265,5.281,0.732,1.840,-0.052,0.930,-0.414,-1.404,-0.702,0.183,60.000,21660.000,1.000
10.426,8.532,6.273,1.460,3.086,5.173,-0.016,2.397,-0.051,0.932,-0.417,-1.282,-0.702,0.183,60.000,21661.000,1.000
9.142,7.811,3.540,0.494,2.585,5.998,-0.556,3.021,-0.048,0.933,-0.414,-1.221,-0.671,0.031,60.000,21662.000,1.000
5.846,5.009,0.421,-0.490,1.655,7.907,0.007,2.782,-0.051,0.935,-0.414,-1.251,-0.610,0.031,60.000,21663.000,1.000
0.893,0.654,-2.826,-1.425,-0.031,10.149,1.716,1.514,-0.050,0.936,-0.416,-1.343,-0.610,-0.092,60.000,21664.000,1.000
-4.956,-4.399,-6.294,-2.475,-2.765,11.514,3.795,-0.272,-0.051,0.938,-0.417,-1.221,-0.610,-0.214,60.000,21665.000,1.000
-11.258,-9.701,-10.256,-4.042,-6.779,10.662,4.879,-2.101,-0.053,0.936,-0.416,-1.312,-0.549,-0.092,60.000,21666.000,1.000
-17.840,-15.112,-14.551,-6.372,-11.911,6.924,3.868,-3.865,-0.055,0.935,-0.417,-1.312,-0.610,-0.153,60.000,21667.000,1.000
-23.521,-19.783,-18.078,-8.966,-16.959,1.345,1.124,-5.565,-0.053,0.930,-0.417,-1.373,-0.610,-0.183,60.000,21668.000,1.000
-27.087,-22.742,-19.737,-11.233,-20.513,-4.069,-2.328,-7.475,-0.053,0.925,-0.415,-1.373,-0.580,-0.183,60.000,21669.000,1.000
-27.507,-23.212,-18.924,-12.627,-21.550,-7.600,-5.346,-9.682,-0.052,0.922,-0.417,-1.190,-0.702,-0.183,60.000,21670.000,1.000
-24.383,-20.744,-15.606,-12.617,-19.662,-8.539,-6.979,-11.681,-0.051,0.922,-0.420,-1.038,-0.610,-0.092,60.000,21671.000,1.000
-18.334,-15.439,-10.361,-10.882,-15.189,-7.074,-6.557,-12.760,-0.052,0.923,-0.425,-0.885,-0.610,-0.092,60.000,21672.000,1.000
-10.999,-8.501,-4.609,-7.890,-9.483,-4.187,-4.134,-12.902,-0.050,0.926,-0.420,-0.763,-0.610,0.031,60.000,21673.000,1.000
-5.272,-2.597,-0.438,-5.147,-4.744,-1.547,-1.147,-12.866,-0.053,0.931,-0.418,-0.549,-0.671,0.244,60.000,21674.000,1.000
-2.894,0.235,1.071,-3.624,-2.099,-0.192,1.157,-12.760,-0.056,0.934,-0.414,-0.458,-0.671,0.427,60.000,21675.000,1.000
-3.745,-0.123,0.327,-3.153,-0.983,-0.151,2.324,-11.770,-0.057,0.938,-0.414,-0.427,-0.854,0.671,60.000,21676.000,1.000
-6.641,-2.306,-1.494,-3.045,-0.241,-0.925,2.314,-9.270,-0.060,0.940,-0.412,-0.549,-1.038,0.854,60.000,21677.000,1.000
-9.574,-4.321,-3.099,-2.663,0.903,-1.822,1.732,-5.607,-0.063,0.940,-0.414,-0.580,-1.160,1.099,60.000,21678.000,1.000
-10.741,-4.669,-3.575,-1.779,2.542,-2.269,1.654,-1.763,-0.066,0.939,-0.411,-0.763,-1.373,1.312,60.000,21679.000,1.000
-8.513,-2.422,-2.373,-0.195,4.683,-1.745,3.349,1.714,-0.063,0.938,-0.413,-0.793,-1.617,1.343,60.000,21680.000,1.000
-2.893,2.051,-0.011,1.739,6.892,-0.295,6.674,4.466,-0.053,0.933,-0.416,-0.916,-1.709,1.099,60.000,21681.000,1.000
3.894,7.094,2.150,3.151,8.299,1.562,9.871,5.971,-0.042,0.929,-0.418,-1.038,-1.770,0.946,60.000,21682.000,1.000
9.124,11.027,3.129,3.565,8.421,3.343,11.394,5.934,-0.035,0.929,-0.418,-0.916,-1.648,0.641,60.000,21683.000,1.000
10.604,12.676,2.649,2.987,7.180,4.403,10.628,4.431,-0.030,0.930,-0.420,-0.885,-1.343,0.427,60.000,21684.000,1.000
8.455,12.234,1.263,2.194,5.314,4.495,8.318,2.268,-0.029,0.930,-0.420,-0.793,-0.977,0.488,60.000,21685.000,1.000
4.190,10.597,-0.472,2.073,3.920,3.920,5.460,0.628,-0.030,0.933,-0.415,-0.824,-0.671,0.641,60.000,21686.000,1.000
-1.278,8.090,-2.655,2.751,3.520,3.003,2.229,0.295,-0.033,0.935,-0.414,-0.885,-0.305,0.763,60.000,21687.000,1.000
-7.423,4.766,-5.533,3.719,4.005,1.785,-1.486,1.406,-0.036,0.936,-0.418,-0.946,-0.122,0.916,60.000,21688.000,1.000
-13.668,1.143,-8.819,4.368,5.057,0.255,-5.373,3.781,-0.040,0.936,-0.418,-1.038,0.061,0.977,60.000,21689.000,1.000
-18.145,-0.987,-11.122,4.995,7.044,-0.622,-7.711,7.590,-0.045,0.937,-0.418,-1.099,0.153,0.946,60.000,21690.000,1.000
-19.202,-0.152,-11.138,6.074,10.243,0.484,-6.703,12.614,-0.050,0.937,-0.416,-1.190,0.183,0.824,60.000,21691.000,1.000
-17.314,2.911,-9.012,7.188,13.641,3.755,-2.462,17.367,-0.052,0.938,-0.419,-1.251,0.244,0.671,60.000,21692.000,1.000
-14.202,5.872,-6.185,7.418,15.406,7.846,2.917,19.790,-0.056,0.938,-0.418,-1.343,0.183,0.488,60.000,21693.000,1.000
-11.706,6.446,-4.479,6.061,14.049,10.643,6.351,18.597,-0.057,0.937,-0.418,-1.495,0.153,0.183,60.000,21694.000,1.000
-9.872,4.374,-4.596,3.495,9.776,10.966,6.187,14.332,-0.060,0.936,-0.415,-1.495,0.061,-0.061,60.000,21695.000,1.000
-7.640,1.084,-5.915,0.704,4.115,9.000,2.945,8.755,-0.061,0.932,-0.415,-1.526,-0.092,-0.183,60.000,21696.000,1.000
-4.414,-1.842,-7.150,-1.508,-1.216,5.725,-1.551,3.710,-0.062,0.932,-0.418,-1.526,-0.275,-0.244,60.000,21697.000,1.000
-0.013,-3.288,-7.005,-2.580,-4.807,2.484,-5.229,0.536,-0.058,0.932,-0.419,-1.556,-0.549,-0.366,60.000,21698.000,1.000
5.042,-2.996,-5.049,-2.366,-6.012,0.457,-7.070,-0.321,-0.057,0.931,-0.418,-1.465,-0.671,-0.427,60.000,21699.000,1.000
10.562,-0.977,-1.668,-0.849,-4.743,0.439,-6.711,0.886,-0.056,0.932,-0.418,-1.343,-0.824,-0.427,60.000,21700.000,1.000
16.233,2.302,2.040,1.478,-1.759,2.255,-4.254,3.199,-0.056,0.932,-0.417,-1.190,-0.916,-0.458,60.000,21701.000,1.000
21.111,5.902,4.911,3.675,1.573,5.142,-0.051,5.475,-0.057,0.934,-0.417,-1.190,-1.068,-0.366,60.000,21702.000,1.000
24.522,9.206,6.650,5.242,4.401,8.868,5.682,7.427,-0.058,0.934,-0.416,-1.221,-1.129,-0.366,60.000,21703.000,1.000
25.619,11.664,7.565,6.055,6.365,13.376,11.869,9.203,-0.057,0.936,-0.414,-1.282,-1.160,-0.305,60.000,21704.000,1.000
24.197,13.124,8.128,6.210,7.402,18.042,16.639,10.003,-0.057,0.935,-0.416,-1.312,-1.190,-0.122,60.000,21705.000,1.000
20.901,13.958,8.374,5.672,7.480,21.409,18.154,7.892,-0.057,0.933,-0.415,-1.434,-1.251,0.031,60.000,21706.000,1.000
17.076,14.950,8.073,4.523,6.862,22.231,15.946,1.951,-0.055,0.932,-0.412,-1.373,-1.373,0.092,60.000,21707.000,1.000
14.567,16.854,7.300,3.349,6.258,20.634,11.540,-6.250,-0.053,0.929,-0.418,-1.465,-1.434,0.275,60.000,21708.000,1.000
13.865,19.104,6.248,2.589,5.971,17.787,7.138,-13.820,-0.051,0.928,-0.418,-1.373,-1.404,0.336,60.000,21709.000,1.000
14.447,20.358,5.321,2.444,5.910,15.225,4.711,-18.160,-0.046,0.927,-0.417,-1.251,-1.251,0.610,60.000,21710.000,1.000
15.155,19.408,4.618,2.618,5.614,13.557,4.557,-18.368,-0.047,0.929,-0.418,-1.160,-1.282,0.702,60.000,21711.000,1.000
14.894,16.090,3.789,2.650,4.672,12.236,5.210,-15.339,-0.047,0.927,-0.415,-1.038,-1.038,0.824,60.000,21712.000,1.000
14.003,12.036,2.735,2.718,3.532,10.733,5.451,-10.735,-0.045,0.927,-0.410,-1.007,-0.977,0.977,60.000,21713.000,1.000
13.105,9.170,1.565,3.113,2.855,8.881,4.941,-6.381,-0.048,0.928,-0.409,-1.007,-0.854,1.160,60.000,21714.000,1.000
12.460,8.231,0.507,3.790,2.884,6.798,4.108,-3.519,-0.048,0.931,-0.415,-1.007,-0.793,1.190,60.000,21715.000,1.000
11.532,8.342,-0.422,4.275,3.276,4.643,3.272,-2.373,-0.051,0.933,-0.414,-0.946,-0.671,1.251,60.000,21716.000,1.000
9.996,8.519,-1.161,4.403,3.798,2.807,2.583,-2.127,-0.049,0.935,-0.415,-0.946,-0.580,1.373,60.000,21717.000,1.000
9.077,9.145,-1.321,4.740,4.768,1.752,2.495,-1.515,-0.047,0.937,-0.413,-0.854,-0.519,1.465,60.000,21718.000,1.000
9.515,10.512,-0.905,5.524,6.039,0.993,2.827,0.136,-0.046,0.936,-0.412,-0.977,-0.397,1.495,60.000,21719.000,1.000
10.789,11.848,-0.234,6.490,6.876,-0.504,2.859,2.852,-0.046,0.934,-0.412,-1.007,-0.244,1.617,60.000,21720.000,1.000
11.585,11.724,0.345,7.094,6.405,-3.348,1.680,5.985,-0.047,0.929,-0.416,-1.099,-0.122,1.648,60.000,21721.000,1.000
11.167,9.459,0.871,6.951,4.349,-7.081,-1.075,8.315,-0.051,0.928,-0.419,-1.160,-0.092,1.648,60.000,21722.000,1.000
10.465,6.111,1.877,6.206,1.519,-10.477,-4.439,8.752,-0.051,0.928,-0.418,-1.160,0.061,1.526,60.000,21723.000,1.000
10.369,3.248,3.570,5.036,-1.001,-12.815,-7.086,6.985,-0.050,0.930,-0.422,-1.221,0.153,1.282,60.000,21724.000,1.000
11.276,2.071,5.815,3.786,-2.329,-14.080,-8.026,3.932,-0.047,0.929,-0.415,-1.221,0.397,0.946,60.000,21725.000,1.000
12.774,2.644,8.197,2.799,-2.319,-14.695,-7.410,1.074,-0.044,0.929,-0.416,-1.251,0.580,0.671,60.000,21726.000,1.000
13.975,3.927,10.225,2.302,-1.475,-14.937,-6.328,-0.367,-0.039,0.927,-0.417,-1.343,0.763,0.488,60.000,21727.000,1.000
14.565,4.726,11.478,2.424,-0.341,-14.710,-5.786,0.036,-0.037,0.927,-0.417,-1.251,1.129,0.275,60.000,21728.000,1.000
13.780,3.697,11.108,2.539,0.173,-14.395,-6.990,1.402,-0.035,0.929,-0.420,-1.160,1.495,-0.061,60.000,21729.000,1.000
10.917,0.123,8.536,1.821,-0.762,-14.632,-10.381,2.496,-0.036,0.930,-0.420,-0.977,1.801,-0.214,60.000,21730.000,1.000
5.884,-5.573,4.223,0.023,-3.256,-15.665,-14.682,2.994,-0.037,0.932,-0.419,-0.793,2.014,-0.183,60.000,21731.000,1.000
-0.525,-11.918,-0.220,-2.216,-6.444,-17.037,-17.316,3.693,-0.043,0.932,-0.418,-0.763,2.106,-0.275,60.000,21732.000,1.000
-6.479,-16.995,-2.894,-3.799,-8.943,-17.878,-16.356,5.397,-0.050,0.934,-0.417,-0.519,2.228,-0.031,60.000,21733.000,1.000
-10.694,-19.751,-3.131,-4.283,-10.071,-17.750,-12.793,7.534,-0.057,0.935,-0.417,-0.549,2.136,0.122,60.000,21734.000,1.000
-12.373,-19.828,-1.465,-3.819,-9.815,-16.640,-9.131,8.520,-0.063,0.935,-0.418,-0.549,1.953,0.214,60.000,21735.000,1.000
-11.694,-17.770,0.857,-3.238,-8.818,-15.160,-7.188,6.865,-0.064,0.934,-0.416,-0.641,1.709,0.153,60.000,21736.000,1.000
-9.809,-15.035,2.747,-3.718,-8.208,-14.261,-7.090,2.233,-0.064,0.933,-0.413,-0.702,1.465,0.305,60.000,21737.000,1.000
-7.346,-12.851,4.118,-5.657,-8.712,-14.156,-7.445,-4.182,-0.064,0.936,-0.415,-0.793,1.282,0.366,60.000,21738.000,1.000
-4.761,-11.945,5.294,-8.591,-10.471,-14.201,-7.101,-10.570,-0.062,0.935,-0.417,-0.763,1.129,0.366,60.000,21739.000,1.000
-1.888,-12.021,6.565,-11.385,-12.850,-13.303,-5.514,-15.328,-0.061,0.936,-0.414,-0.702,0.885,0.427,60.000,21740.000,1.000
1.507,-12.253,7.691,-13.122,-15.094,-11.137,-2.962,-17.768,-0.061,0.937,-0.414,-0.732,0.580,0.427,60.000,21741.000,1.000
4.835,-12.317,7.937,-13.661,-16.967,-8.668,-0.472,-18.259,-0.060,0.938,-0.414,-0.732,0.397,0.610,60.000,21742.000,1.000
7.224,-12.381,6.804,-13.214,-18.424,-7.128,1.244,-17.860,-0.060,0.937,-0.413,-0.916,0.122,0.702,60.000,21743.000,1.000
7.419,-12.993,4.277,-12.274,-19.515,-7.138,1.967,-17.892,-0.059,0.938,-0.411,-1.007,-0.183,0.946,60.000,21744.000,1.000
4.892,-14.211,1.062,-11.200,-20.025,-8.337,2.188,-18.799,-0.058,0.939,-0.414,-1.038,-0.397,0.946,60.000,21745.000,1.000
-0.112,-15.632,-1.993,-10.255,-19.641,-9.992,2.369,-19.800,-0.058,0.938,-0.411,-1.129,-0.397,0.946,60.000,21746.000,1.000
-6.893,-16.833,-4.411,-9.521,-18.066,-11.407,2.411,-19.498,-0.058,0.936,-0.415,-1.343,-0.549,1.007,60.000,21747.000,1.000
-14.160,-17.525,-6.155,-8.799,-15.081,-12.067,2.198,-16.883,-0.056,0.935,-0.415,-1.251,-0.793,1.160,60.000,21748.000,1.000
-21.407,-18.196,-7.773,-8.274,-11.270,-12.067,1.782,-12.294,-0.054,0.934,-0.417,-1.282,-0.885,1.190,60.000,21749.000,1.000
-28.253,-19.208,-9.571,-8.068,-7.459,-11.564,1.803,-7.095,-0.054,0.932,-0.416,-1.221,-1.007,1.282,60.000,21750.000,1.000
-34.113,-20.292,-11.435,-7.989,-4.206,-10.771,2.141,-3.080,-0.053,0.930,-0.417,-1.129,-1.099,1.282,60.000,21751.000,1.000
-38.462,-20.851,-13.065,-7.696,-1.706,-10.128,1.296,-1.744,-0.052,0.927,-0.415,-0.916,-1.160,1.251,60.000,21752.000,1.000
-40.459,-20.043,-13.878,-6.682,0.423,-9.859,-1.426,-3.225,-0.052,0.925,-0.413,-0.977,-1.282,1.404,60.000,21753.000,1.000
-39.890,-17.538,-13.345,-4.764,2.676,-9.953,-4.719,-5.968,-0.052,0.921,-0.417,-0.946,-1.160,1.251,60.000,21754.000,1.000
-36.800,-13.502,-10.993,-2.000,5.548,-9.893,-5.976,-7.323,-0.050,0.918,-0.421,-0.732,-1.221,1.129,60.000,21755.000,1.000
-31.866,-8.913,-6.942,1.023,8.949,-8.997,-4.038,-5.593,-0.047,0.920,-0.419,-0.610,-1.129,1.099,60.000,21756.000,1.000
-26.480,-5.261,-2.210,3.227,12.007,-6.997,-0.364,-1.359,-0.041,0.923,-0.422,-0.427,-1.129,1.007,60.000,21757.000,1.000
-21.321,-3.120,1.894,3.941,13.938,-4.151,2.997,3.493,-0.039,0.928,-0.419,-0.305,-1.068,1.038,60.000,21758.000,1.000
-16.604,-2.055,4.264,3.209,14.412,-1.349,4.907,7.461,-0.039,0.931,-0.418,-0.183,-0.977,0.946,60.000,21759.000,1.000
-11.883,-0.964,4.821,2.052,13.901,0.605,5.578,10.454,-0.040,0.936,-0.415,-0.153,-0.763,1.007,60.000,21760.000,1.000
-7.048,0.668,4.275,1.603,13.019,1.266,5.212,12.991,-0.043,0.938,-0.414,-0.244,-0.580,0.885,60.000,21761.000,1.000
-3.096,2.145,3.398,2.109,11.748,0.404,3.268,15.148,-0.047,0.938,-0.413,-0.488,-0.458,0.824,60.000,21762.000,1.000
-0.737,2.854,2.866,3.102,9.926,-1.800,-0.413,16.746,-0.053,0.936,-0.412,-0.549,-0.305,0.671,60.000,21763.000,1.000
0.031,2.953,3.129,3.891,7.745,-4.649,-5.229,18.006,-0.056,0.934,-0.415,-0.641,-0.427,0.427,60.000,21764.000,1.000
0.489,3.460,4.630,4.463,6.093,-6.650,-9.502,19.819,-0.057,0.930,-0.417,-0.610,-0.458,0.244,60.000,21765.000,1.000
1.907,4.989,7.111,5.046,5.548,-6.418,-11.223,22.274,-0.056,0.929,-0.416,-0.610,-0.732,0.122,60.000,21766.000,1.000
4.301,7.023,9.377,5.440,5.637,-3.666,-9.261,23.796,-0.055,0.930,-0.415,-0.427,-0.763,0.061,60.000,21767.000,1.000
7.172,8.771,10.272,5.398,5.547,0.825,-4.373,22.512,-0.053,0.933,-0.412,-0.549,-0.854,-0.061,60.000,21768.000,1.000
9.320,9.425,9.154,4.733,4.581,5.466,0.060,17.606,-0.051,0.932,-0.414,-0.610,-0.885,-0.153,60.000,21769.000,1.000
9.967,8.989,6.374,3.726,2.900,8.963,0.760,9.970,-0.050,0.934,-0.416,-0.580,-0.916,-0.244,60.000,21770.000,1.000
9.007,8.226,2.994,2.855,1.433,10.887,-2.515,1.894,-0.049,0.934,-0.417,-0.641,-0.885,-0.336,60.000,21771.000,1.000
6.622,7.882,0.182,2.419,1.134,11.612,-6.809,-3.853,-0.050,0.936,-0.418,-0.549,-0.854,-0.397,60.000,21772.000,1.000
3.558,8.348,-1.255,2.653,2.402,12.122,-8.321,-5.349,-0.050,0.936,-0.420,-0.488,-0.916,-0.305,60.000,21773.000,1.000
-0.058,8.946,-1.554,3.307,4.441,13.286,-5.809,-2.895,-0.052,0.937,-0.416,-0.488,-0.946,-0.366,60.000,21774.000,1.000
-4.183,8.681,-1.550,3.949,6.035,15.546,-0.674,1.292,-0.051,0.939,-0.414,-0.580,-1.007,-0.336,60.000,21775.000,1.000
-8.472,6.951,-2.142,4.039,6.228,18.200,4.571,4.440,-0.051,0.935,-0.419,-0.702,-0.916,-0.153,60.000,21776.000,1.000
-12.252,3.859,-3.704,3.126,4.623,19.559,7.921,4.854,-0.050,0.932,-0.418,-0.732,-0.763,-0.214,60.000,21777.000,1.000
-13.954,0.732,-5.499,1.495,1.923,18.721,9.132,2.664,-0.052,0.929,-0.419,-0.671,-0.916,-0.153,60.000,21778.000,1.000
-12.483,-0.710,-6.353,-0.126,-0.558,16.377,8.898,-1.062,-0.053,0.928,-0.420,-0.641,-0.946,-0.031,60.000,21779.000,1.000
-7.600,0.801,-5.261,-0.812,-1.401,14.273,8.394,-4.914,-0.054,0.929,-0.419,-0.580,-0.977,0.031,60.000,21780.000,1.000
-0.477,4.920,-2.132,-0.163,0.009,13.590,8.599,-7.630,-0.052,0.932,-0.415,-0.397,-0.977,0.000,60.000,21781.000,1.000
6.447,9.556,1.932,1.300,2.966,14.040,9.596,-8.705,-0.051,0.938,-0.414,-0.275,-0.977,0.000,60.000,21782.000,1.000
11.261,12.578,5.363,2.794,6.127,14.522,10.957,-8.410,-0.052,0.943,-0.416,-0.305,-1.007,-0.061,60.000,21783.000,1.000
12.716,12.742,6.832,3.582,8.147,13.999,12.172,-7.493,-0.052,0.946,-0.418,-0.427,-1.038,-0.031,60.000,21784.000,1.000
10.923,10.387,6.119,3.468,8.602,12.358,13.360,-6.546,-0.051,0.944,-0.416,-0.580,-0.977,0.000,60.000,21785.000,1.000
7.216,7.094,3.986,2.709,7.981,10.217,14.361,-5.912,-0.051,0.940,-0.414,-0.763,-0.885,-0.031,60.000,21786.000,1.000
3.460,4.781,1.687,1.822,7.205,8.469,14.181,-5.583,-0.050,0.937,-0.415,-1.038,-0.793,0.061,60.000,21787.000,1.000
1.758,4.956,0.688,1.556,7.336,8.019,12.511,-5.048,-0.049,0.933,-0.416,-1.038,-0.854,0.153,60.000,21788.000,1.000
2.658,7.516,1.672,2.051,8.594,8.840,10.033,-3.908,-0.048,0.927,-0.417,-1.068,-0.854,0.275,60.000,21789.000,1.000
5.285,11.178,4.100,2.749,10.143,9.892,7.688,-2.321,-0.049,0.927,-0.418,-0.977,-0.793,0.244,60.000,21790.000,1.000
7.901,14.302,6.397,2.764,10.636,9.999,5.436,-0.957,-0.050,0.928,-0.418,-0.732,-0.916,0.336,60.000,21791.000,1.000
8.780,15.631,7.197,1.827,9.489,9.145,2.712,-0.133,-0.052,0.929,-0.416,-0.519,-0.916,0.427,60.000,21792.000,1.000
7.698,15.014,6.421,0.815,7.631,8.433,0.046,0.615,-0.053,0.931,-0.410,-0.549,-1.038,0.427,60.000,21793.000,1.000
4.968,12.662,4.533,0.450,6.093,8.218,-1.646,1.570,-0.053,0.932,-0.413,-0.519,-1.068,0.610,60.000,21794.000,1.000
1.337,9.204,2.136,0.769,5.184,7.944,-1.818,2.588,-0.054,0.932,-0.416,-0.610,-1.038,0.580,60.000,21795.000,1.000
-2.039,5.892,0.002,1.576,4.792,7.495,-0.564,3.598,-0.054,0.933,-0.415,-0.641,-1.251,0.793,60.000,21796.000,1.000
-3.761,4.241,-0.960,3.071,4.923,7.762,1.557,5.073,-0.057,0.930,-0.416,-0.793,-1.434,0.732,60.000,21797.000,1.000
-2.452,5.109,-0.323,5.609,5.540,9.428,3.813,7.568,-0.057,0.930,-0.417,-0.885,-1.617,0.885,60.000,21798.000,1.000
1.196,7.256,0.820,8.430,5.549,11.417,4.823,10.411,-0.055,0.929,-0.414,-0.854,-1.740,0.854,60.000,21799.000,1.000
5.202,8.477,0.859,10.200,3.633,11.998,3.601,12.006,-0.054,0.930,-0.417,-0.793,-1.770,0.763,60.000,21800.000,1.000
7.924,7.418,-0.924,10.108,-0.539,10.372,0.226,11.179,-0.052,0.931,-0.419,-0.824,-1.892,0.580,60.000,21801.000,1.000
8.998,4.412,-3.897,8.384,-6.021,7.060,-4.261,8.260,-0.044,0.930,-0.418,-0.732,-1.709,0.397,60.000,21802.000,1.000
9.872,1.440,-6.473,6.306,-10.836,3.554,-7.970,5.003,-0.038,0.930,-0.419,-0.793,-1.556,0.244,60.000,21803.000,1.000
11.684,0.128,-7.535,4.956,-13.426,1.058,-9.800,3.041,-0.037,0.929,-0.417,-0.671,-1.404,0.092,60.000,21804.000,1.000
14.421,0.631,-7.016,4.595,-13.415,-0.160,-9.931,2.855,-0.035,0.927,-0.417,-0.610,-1.068,0.092,60.000,21805.000,1.000
16.990,1.839,-5.755,4.665,-11.602,-0.773,-9.134,3.777,-0.038,0.928,-0.419,-0.519,-0.977,-0.031,60.000,21806.000,1.000
17.926,2.361,-4.765,4.358,-9.234,-1.673,-7.839,4.847,-0.041,0.932,-0.420,-0.488,-0.793,0.000,60.000,21807.000,1.000
16.670,1.478,-4.529,3.209,-7.172,-3.218,-6.044,5.514,-0.048,0.935,-0.418,-0.427,-0.671,0.092,60.000,21808.000,1.000
13.206,-0.957,-5.067,0.995,-5.998,-5.263,-4.479,5.609,-0.052,0.935,-0.416,-0.488,-0.702,0.092,60.000,21809.000,1.000
8.843,-3.841,-5.565,-1.594,-5.551,-6.893,-3.599,5.673,-0.052,0.933,-0.417,-0.763,-0.641,0.061,60.000,21810.000,1.000
5.539,-5.466,-4.997,-3.325,-5.223,-7.099,-2.714,6.455,-0.050,0.931,-0.421,-0.793,-0.610,0.031,60.000,21811.000,1.000
4.400,-4.960,-3.164,-3.619,-4.671,-5.683,-0.700,7.915,-0.050,0.932,-0.419,-0.854,-0.488,0.000,60.000,21812.000,1.000
5.798,-2.438,-0.803,-2.810,-3.803,-3.170,2.879,9.060,-0.051,0.934,-0.417,-0.763,-0.366,-0.061,60.000,21813.000,1.000
8.873,0.950,0.777,-1.866,-2.907,-0.629,6.617,8.447,-0.051,0.936,-0.417,-0.793,-0.397,-0.031,60.000,21814.000,1.000
12.710,4.148,0.930,-1.267,-2.064,1.106,8.695,5.465,-0.051,0.936,-0.416,-0.854,-0.458,0.000,60.000,21815.000,1.000
16.572,6.504,-0.089,-1.039,-1.265,1.602,8.282,0.694,-0.053,0.938,-0.418,-0.916,-0.458,0.183,60.000,21816.000,1.000
19.471,7.486,-1.511,-1.206,-0.739,0.848,5.877,-4.471,-0.055,0.938,-0.419,-0.977,-0.427,0.305,60.000,21817.000,1.000
21.182,7.315,-2.146,-1.460,-0.412,-0.302,3.375,-8.187,-0.057,0.939,-0.417,-1.160,-0.397,0.275,60.000,21818.000,1.000
21.579,6.413,-1.329,-1.634,-0.213,-0.824,2.442,-9.132,-0.057,0.938,-0.420,-1.190,-0.458,0.336,60.000,21819.000,1.000
20.635,4.988,0.615,-1.807,-0.239,-0.200,3.604,-7.130,-0.055,0.937,-0.418,-1.251,-0.488,0.336,60.000,21820.000,1.000
18.164,2.706,2.263,-2.401,-0.977,1.156,5.812,-3.688,-0.055,0.933,-0.418,-1.373,-0.488,0.397,60.000,21821.000,1.000
13.755,-1.066,1.879,-3.994,-3.148,2.170,6.864,-1.624,-0.055,0.931,-0.422,-1.495,-0.458,0.519,60.000,21822.000,1.000
8.127,-5.935,-0.963,-6.473,-6.649,2.134,5.420,-3.119,-0.056,0.927,-0.423,-1.404,-0.488,0.549,60.000,21823.000,1.000
2.488,-10.662,-5.187,-9.220,-10.481,0.960,1.785,-8.496,-0.056,0.923,-0.423,-1.404,-0.458,0.519,60.000,21824.000,1.000
-2.059,-13.995,-9.071,-11.524,-13.338,-0.944,-2.503,-16.402,-0.057,0.923,-0.421,-1.373,-0.366,0.519,60.000,21825.000,1.000
-5.447,-15.751,-11.638,-13.102,-14.629,-3.326,-6.323,-24.691,-0.055,0.924,-0.419,-1.312,-0.366,0.458,60.000,21826.000,1.000
-8.640,-16.788,-13.036,-13.979,-14.656,-6.222,-9.668,-30.874,-0.051,0.924,-0.419,-1.312,-0.397,0.305,60.000,21827.000,1.000
-11.899,-17.603,-13.776,-13.906,-13.764,-9.297,-12.358,-32.712,-0.047,0.925,-0.422,-1.160,-0.244,0.061,60.000,21828.000,1.000
-14.972,-18.210,-14.430,-12.734,-12.224,-11.847,-13.709,-29.459,-0.043,0.929,-0.421,-1.099,-0.092,-0.031,60.000,21829.000,1.000
-16.968,-18.184,-15.050,-10.356,-9.975,-12.920,-12.764,-21.960,-0.044,0.932,-0.423,-0.977,0.153,0.092,60.000,21830.000,1.000
-17.150,-17.235,-15.298,-7.007,-7.021,-12.072,-9.647,-12.156,-0.050,0.936,-0.419,-0.824,0.244,0.336,60.000,21831.000,1.000
-15.763,-15.590,-14.842,-3.479,-3.847,-9.779,-5.953,-2.195,-0.053,0.935,-0.419,-0.702,0.214,0.458,60.000,21832.000,1.000
-13.162,-13.425,-13.327,-0.512,-0.998,-6.837,-3.086,6.510,-0.058,0.934,-0.417,-0.763,0.275,0.641,60.000,21833.000,1.000
-10.211,-11.234,-10.888,1.129,0.794,-4.142,-1.695,12.840,-0.062,0.936,-0.417,-0.854,0.183,0.793,60.000,21834.000,1.000
-7.553,-9.453,-8.027,0.983,1.033,-2.296,-1.479,15.637,-0.064,0.931,-0.414,-0.946,0.061,0.763,60.000,21835.000,1.000
-5.302,-8.050,-5.311,-0.792,-0.165,-1.650,-1.970,14.301,-0.062,0.931,-0.416,-0.977,-0.092,0.793,60.000,21836.000,1.000
-3.475,-6.627,-3.088,-3.414,-2.212,-2.413,-3.167,9.606,-0.057,0.928,-0.417,-1.068,-0.183,0.854,60.000,21837.000,1.000
-1.657,-4.518,-1.269,-5.705,-4.307,-4.330,-4.889,3.598,-0.054,0.927,-0.421,-0.977,-0.153,0.763,60.000,21838.000,1.000
0.077,-1.730,0.208,-6.948,-6.089,-6.928,-6.975,-1.538,-0.051,0.928,-0.420,-0.793,-0.183,0.854,60.000,21839.000,1.000
1.675,1.255,1.554,-6.778,-7.200,-9.472,-8.964,-3.911,-0.052,0.929,-0.418,-0.702,-0.214,0.885,60.000,21840.000,1.000
3.117,3.747,2.965,-5.191,-7.148,-11.298,-10.213,-2.538,-0.052,0.928,-0.419,-0.763,-0.153,0.977,60.000,21841.000,1.000
3.795,4.792,4.245,-2.845,-5.933,-12.272,-10.470,1.605,-0.053,0.931,-0.418,-0.702,-0.183,1.007,60.000,21842.000,1.000
3.382,3.974,5.066,-0.693,-4.105,-12.613,-9.820,5.770,-0.052,0.932,-0.418,-0.610,-0.244,1.160,60.000,21843.000,1.000
1.953,1.732,5.222,0.472,-2.469,-12.611,-8.877,7.310,-0.053,0.933,-0.419,-0.671,-0.183,1.160,60.000,21844.000,1.000
0.490,-0.621,5.033,0.755,-1.326,-12.131,-7.976,5.778,-0.054,0.932,-0.421,-0.641,-0.244,1.251,60.000,21845.000,1.000
-0.239,-2.159,4.700,0.629,-0.774,-11.078,-7.099,2.612,-0.054,0.933,-0.418,-0.702,-0.214,1.190,60.000,21846.000,1.000
-0.729,-3.061,3.842,0.241,-1.018,-9.725,-6.185,-0.541,-0.052,0.931,-0.420,-0.885,-0.153,1.129,60.000,21847.000,1.000
-1.408,-3.557,2.189,-0.188,-1.708,-8.197,-4.880,-2.689,-0.051,0.933,-0.417,-0.854,-0.214,1.129,60.000,21848.000,1.000
-2.619,-3.760,-0.192,-0.460,-2.229,-6.627,-3.349,-3.713,-0.050,0.935,-0.416,-0.885,-0.305,1.038,60.000,21849.000,1.000
-4.291,-3.563,-2.721,-0.363,-2.052,-5.181,-2.071,-3.934,-0.051,0.933,-0.417,-0.885,-0.336,1.099,60.000,21850.000,1.000
-6.283,-2.973,-4.684,0.081,-1.066,-4.115,-1.267,-3.870,-0.052,0.931,-0.418,-0.946,-0.275,1.007,60.000,21851.000,1.000
-8.717,-2.380,-5.503,0.632,0.561,-3.531,-0.605,-3.821,-0.051,0.931,-0.423,-0.946,-0.336,0.946,60.000,21852.000,1.000
-11.118,-2.020,-4.702,1.257,2.856,-3.050,0.756,-3.395,-0.048,0.930,-0.424,-0.977,-0.305,0.885,60.000,21853.000,1.000
-13.191,-2.156,-2.554,1.728,5.479,-2.427,2.831,-2.120,-0.047,0.931,-0.419,-0.916,-0.214,0.854,60.000,21854.000,1.000
-14.651,-2.739,0.051,1.686,7.632,-1.679,4.946,-0.070,-0.045,0.931,-0.421,-0.946,-0.122,0.763,60.000,21855.000,1.000
-15.373,-3.546,2.103,0.779,8.407,-0.961,6.480,2.037,-0.045,0.935,-0.418,-0.885,-0.031,0.641,60.000,21856.000,1.000
-15.412,-4.313,3.258,-0.818,7.610,-0.191,7.423,3.677,-0.045,0.938,-0.416,-1.007,0.000,0.519,60.000,21857.000,1.000
-13.974,-4.261,4.209,-1.975,6.274,0.985,8.403,5.031,-0.047,0.938,-0.412,-1.068,0.061,0.458,60.000,21858.000,1.000
-10.734,-3.124,5.494,-1.891,5.284,2.187,9.268,6.040,-0.049,0.936,-0.416,-1.160,0.122,0.397,60.000,21859.000,1.000
-6.153,-1.411,7.139,-0.660,4.826,2.676,9.593,6.278,-0.048,0.933,-0.417,-1.099,0.183,0.305,60.000,21860.000,1.000
-1.303,0.052,8.907,0.962,4.618,2.187,9.426,5.532,-0.049,0.935,-0.416,-1.282,0.244,0.275,60.000,21861.000,1.000
2.633,0.835,10.568,2.107,4.208,0.957,8.806,4.029,-0.050,0.933,-0.416,-1.160,0.214,0.183,60.000,21862.000,1.000
5.854,1.686,12.283,2.623,3.607,-0.432,7.749,2.226,-0.049,0.937,-0.419,-1.282,0.275,0.214,60.000,21863.000,1.000
8.941,3.385,14.139,2.826,3.048,-1.543,6.038,0.214,-0.048,0.935,-0.415,-1.282,0.153,0.183,60.000,21864.000,1.000
12.116,5.907,15.929,3.165,2.736,-2.109,3.667,-2.121,-0.049,0.934,-0.416,-1.282,0.153,-0.061,60.000,21865.000,1.000
14.724,8.467,16.979,3.609,2.442,-2.252,0.721,-4.833,-0.052,0.934,-0.419,-1.312,0.122,-0.061,60.000,21866.000,1.000
15.334,10.122,16.481,3.601,1.659,-2.345,-2.583,-7.620,-0.053,0.931,-0.419,-1.343,0.092,-0.153,60.000,21867.000,1.000
13.218,10.467,14.214,2.815,0.381,-2.459,-5.115,-9.585,-0.053,0.927,-0.418,-1.312,0.031,-0.305,60.000,21868.000,1.000
8.284,9.179,10.460,1.211,-1.110,-2.602,-5.617,-9.835,-0.052,0.928,-0.417,-1.282,0.000,-0.275,60.000,21869.000,1.000
1.995,6.797,6.309,-0.501,-2.073,-2.437,-3.277,-7.910,-0.049,0.929,-0.421,-1.160,-0.122,-0.305,60.000,21870.000,1.000
-3.257,4.794,3.062,-1.337,-1.809,-1.560,1.208,-4.415,-0.049,0.927,-0.421,-1.160,-0.214,-0.366,60.000,21871.000,1.000
-6.520,3.981,0.981,-1.216,-0.761,-0.317,5.193,-1.264,-0.051,0.928,-0.418,-1.068,-0.244,-0.244,60.000,21872.000,1.000
-8.231,4.085,-0.467,-0.656,-0.016,0.584,6.256,-0.247,-0.052,0.930,-0.417,-1.190,-0.244,-0.153,60.000,21873.000,1.000
-9.451,4.169,-1.716,0.000,-0.202,0.843,3.943,-1.403,-0.053,0.930,-0.414,-1.038,-0.336,0.031,60.000,21874.000,1.000
-10.238,3.834,-2.408,1.126,-0.741,1.009,0.161,-2.862,-0.055,0.931,-0.416,-0.885,-0.549,0.153,60.000,21875.000,1.000
-10.002,3.255,-2.168,2.951,-0.779,1.609,-2.685,-2.865,-0.058,0.932,-0.416,-0.977,-0.702,0.275,60.000,21876.000,1.000
-8.859,2.539,-1.339,4.817,-0.315,2.509,-3.603,-1.354,-0.059,0.935,-0.416,-0.977,-0.854,0.305,60.000,21877.000,1.000
-6.991,2.054,-0.309,6.003,0.257,3.608,-2.600,0.707,-0.060,0.936,-0.415,-1.099,-1.190,0.549,60.000,21878.000,1.000
-4.680,2.114,0.819,6.110,0.509,4.915,-0.361,2.374,-0.060,0.938,-0.415,-1.099,-1.434,0.641,60.000,21879.000,1.000
-1.552,3.124,2.392,5.338,0.470,6.416,2.393,3.317,-0.062,0.937,-0.415,-1.190,-1.587,0.916,60.000,21880.000,1.000
2.849,5.246,4.727,4.182,0.474,7.793,4.970,3.638,-0.062,0.936,-0.413,-1.373,-1.831,0.916,60.000,21881.000,1.000
7.594,7.674,7.582,2.972,0.624,8.455,6.616,3.589,-0.061,0.936,-0.416,-1.465,-2.106,1.007,60.000,21882.000,1.000
11.320,9.393,10.443,2.044,0.959,8.117,7.157,3.639,-0.055,0.934,-0.416,-1.648,-2.197,0.916,60.000,21883.000,1.000
13.036,9.898,12.728,1.566,1.411,6.875,6.641,4.071,-0.045,0.933,-0.418,-1.862,-2.197,0.549,60.000,21884.000,1.000
13.212,9.760,14.365,1.873,2.209,5.432,5.556,4.834,-0.038,0.931,-0.420,-1.801,-2.167,0.336,60.000,21885.000,1.000
12.981,9.830,15.589,3.298,3.745,4.646,4.614,5.503,-0.035,0.930,-0.421,-1.801,-1.862,0.244,60.000,21886.000,1.000
12.492,10.102,16.289,5.628,5.987,4.795,4.002,5.621,-0.036,0.929,-0.420,-1.801,-1.709,0.244,60.000,21887.000,1.000
11.317,10.019,16.016,8.213,8.597,5.592,3.695,5.426,-0.037,0.926,-0.417,-1.617,-1.526,0.275,60.000,21888.000,1.000
8.638,8.863,14.177,10.172,11.082,6.396,3.677,5.758,-0.042,0.927,-0.418,-1.587,-1.312,0.427,60.000,21889.000,1.000
4.682,6.880,10.918,11.262,13.474,6.990,4.549,7.503,-0.044,0.927,-0.418,-1.587,-1.190,0.336,60.000,21890.000,1.000
0.672,5.128,7.102,11.777,16.080,7.524,6.769,10.604,-0.047,0.926,-0.417,-1.556,-1.160,0.427,60.000,21891.000,1.000
-2.890,4.021,3.550,11.745,18.526,7.889,9.412,13.798,-0.046,0.926,-0.420,-1.556,-1.038,0.366,60.000,21892.000,1.000
-6.224,3.149,0.797,10.985,19.861,7.752,10.786,15.595,-0.046,0.926,-0.418,-1.465,-0.977,0.275,60.000,21893.000,1.000
-9.895,1.858,-1.073,9.391,19.140,6.819,9.455,15.329,-0.046,0.927,-0.418,-1.282,-0.824,0.153,60.000,21894.000,1.000
-13.016,0.617,-1.835,7.757,16.694,5.689,5.987,14.050,-0.046,0.928,-0.420,-1.160,-0.854,0.244,60.000,21895.000,1.000
-13.539,0.699,-1.242,7.356,14.076,5.643,2.879,13.584,-0.048,0.932,-0.415,-1.129,-0.732,0.336,60.000,21896.000,1.000
-10.567,2.533,0.302,8.565,12.485,7.303,2.297,14.306,-0.047,0.934,-0.415,-1.129,-0.641,0.366,60.000,21897.000,1.000
-4.852,5.357,1.859,10.551,11.849,9.871,4.325,14.485,-0.051,0.937,-0.416,-1.160,-0.671,0.427,60.000,21898.000,1.000
1.285,7.484,2.384,11.715,10.940,11.392,6.549,11.775,-0.053,0.939,-0.415,-1.221,-0.702,0.427,60.000,21899.000,1.000
6.186,7.900,1.714,11.135,8.933,10.502,6.550,5.690,-0.052,0.937,-0.415,-1.343,-0.641,0.427,60.000,21900.000,1.000
9.907,7.003,0.498,8.997,6.008,7.414,3.948,-1.943,-0.053,0.937,-0.414,-1.404,-0.671,0.580,60.000,21901.000,1.000
13.089,5.774,-0.586,6.020,2.774,3.551,0.255,-8.497,-0.053,0.935,-0.417,-1.343,-0.732,0.580,60.000,21902.000,1.000
16.391,5.098,-1.064,3.137,-0.043,0.801,-2.176,-12.059,-0.053,0.933,-0.416,-1.465,-0.732,0.580,60.000,21903.000,1.000
19.318,4.927,-1.061,0.756,-2.262,0.172,-2.290,-12.550,-0.052,0.930,-0.414,-1.617,-0.702,0.427,60.000,21904.000,1.000
21.049,4.916,-0.935,-1.047,-3.995,1.437,-0.567,-11.297,-0.051,0.928,-0.415,-1.709,-0.702,0.427,60.000,21905.000,1.000
20.908,4.751,-1.051,-2.297,-5.357,3.347,1.636,-9.840,-0.049,0.926,-0.417,-1.709,-0.763,0.305,60.000,21906.000,1.000
17.895,3.694,-1.769,-3.190,-6.483,4.268,2.650,-8.967,-0.048,0.927,-0.422,-1.495,-0.641,0.275,60.000,21907.000,1.000
11.794,1.239,-3.152,-3.731,-7.193,3.323,1.646,-8.409,-0.048,0.932,-0.417,-1.404,-0.488,0.366,60.000,21908.000,1.000
3.176,-2.612,-5.345,-4.054,-7.370,0.578,-1.275,-7.680,-0.049,0.936,-0.419,-1.312,-0.488,0.366,60.000,21909.000,1.000
-6.131,-6.893,-8.373,-4.252,-6.845,-2.915,-4.692,-6.433,-0.049,0.939,-0.415,-1.312,-0.458,0.458,60.000,21910.000,1.000
-13.721,-10.178,-12.005,-4.293,-5.390,-5.702,-6.588,-4.404,-0.052,0.940,-0.416,-1.465,-0.366,0.397,60.000,21911.000,1.000
-18.301,-11.767,-15.806,-4.196,-3.128,-6.870,-6.120,-1.518,-0.054,0.940,-0.415,-1.648,-0.183,0.366,60.000,21912.000,1.000
-19.650,-11.638,-18.878,-3.833,-0.448,-6.150,-3.793,1.989,-0.053,0.935,-0.413,-1.831,-0.183,0.336,60.000,21913.000,1.000
-18.903,-10.472,-20.384,-3.294,1.854,-4.019,-0.988,5.222,-0.053,0.937,-0.415,-1.923,-0.214,0.275,60.000,21914.000,1.000
-17.340,-9.035,-19.871,-2.724,3.019,-1.349,1.296,7.076,-0.053,0.936,-0.413,-1.892,-0.244,0.244,60.000,21915.000,1.000
-15.505,-7.814,-17.496,-2.180,2.703,0.988,2.687,7.005,-0.056,0.937,-0.414,-1.923,-0.214,0.244,60.000,21916.000,1.000
-13.261,-6.914,-13.820,-1.524,1.266,2.609,3.026,5.605,-0.057,0.940,-0.415,-2.014,-0.244,0.427,60.000,21917.000,1.000
-9.475,-5.620,-9.250,-0.206,0.068,3.937,2.773,4.327,-0.056,0.939,-0.412,-2.014,-0.275,0.580,60.000,21918.000,1.000
-3.972,-3.513,-4.557,1.733,0.155,5.128,2.271,3.809,-0.057,0.934,-0.414,-2.014,-0.305,0.702,60.000,21919.000,1.000
1.855,-1.121,-0.900,3.302,1.311,5.644,1.516,3.342,-0.059,0.931,-0.416,-1.984,-0.519,0.793,60.000,21920.000,1.000
5.773,0.314,0.662,3.033,2.213,4.827,0.279,1.694,-0.059,0.930,-0.417,-1.892,-0.549,0.702,60.000,21921.000,1.000
5.896,-0.381,-0.264,-0.081,1.338,2.548,-1.732,-1.851,-0.059,0.928,-0.413,-1.862,-0.763,0.793,60.000,21922.000,1.000
2.475,-3.148,-3.100,-5.647,-1.884,-0.601,-4.326,-6.838,-0.058,0.927,-0.412,-1.740,-0.854,0.824,60.000,21923.000,1.000
-2.947,-7.207,-6.939,-12.281,-7.101,-3.928,-7.340,-12.024,-0.056,0.925,-0.413,-1.587,-0.946,0.916,60.000,21924.000,1.000
-8.178,-11.381,-10.598,-18.008,-13.029,-6.649,-10.431,-15.826,-0.055,0.926,-0.416,-1.495,-0.977,0.946,60.000,21925.000,1.000
-11.415,-14.573,-12.939,-21.125,-18.074,-8.169,-13.090,-17.123,-0.052,0.925,-0.415,-1.404,-1.007,1.038,60.000,21926.000,1.000
-12.463,-16.469,-13.495,-21.150,-21.291,-8.572,-14.951,-15.937,-0.053,0.925,-0.417,-1.190,-1.038,1.068,60.000,21927.000,1.000
-11.827,-17.184,-12.338,-18.600,-22.314,-8.301,-15.389,-13.150,-0.052,0.927,-0.415,-1.038,-1.099,1.160,60.000,21928.000,1.000
-10.587,-17.308,-10.103,-14.724,-21.392,-7.942,-14.256,-10.036,-0.050,0.925,-0.413,-0.946,-1.068,1.251,60.000,21929.000,1.000
-9.421,-17.273,-7.563,-10.658,-19.006,-7.765,-12.017,-7.561,-0.052,0.926,-0.415,-0.824,-1.068,1.282,60.000,21930.000,1.000
-8.292,-16.934,-5.451,-7.065,-15.700,-7.738,-9.572,-6.089,-0.051,0.927,-0.414,-0.671,-1.068,1.251,60.000,21931.000,1.000
-7.159,-15.866,-4.343,-4.324,-12.101,-7.735,-7.920,-5.326,-0.050,0.929,-0.414,-0.580,-1.068,1.251,60.000,21932.000,1.000
-5.787,-13.477,-4.298,-2.452,-8.580,-7.270,-7.157,-4.423,-0.048,0.935,-0.414,-0.519,-0.946,1.312,60.000,21933.000,1.000
-4.781,-10.013,-5.234,-1.549,-5.607,-5.874,-6.815,-2.823,-0.049,0.937,-0.417,-0.610,-0.946,1.495,60.000,21934.000,1.000
-5.063,-6.473,-6.797,-1.574,-3.518,-3.509,-6.193,-0.526,-0.047,0.939,-0.418,-0.641,-0.946,1.373,60.000,21935.000,1.000
-6.948,-3.895,-8.338,-2.165,-2.271,-1.011,-4.975,2.036,-0.047,0.938,-0.413,-0.793,-0.854,1.312,60.000,21936.000,1.000
-9.850,-2.695,-9.105,-2.738,-1.463,0.386,-3.342,4.289,-0.045,0.939,-0.418,-0.824,-0.793,1.129,60.000,21937.000,1.000
-11.999,-2.245,-8.406,-2.669,-0.310,0.215,-1.116,5.800,-0.044,0.936,-0.417,-0.977,-0.641,1.068,60.000,21938.000,1.000
-12.578,-2.271,-6.437,-2.225,1.344,-1.400,1.386,5.910,-0.043,0.933,-0.416,-0.854,-0.519,0.977,60.000,21939.000,1.000
-11.907,-2.939,-3.928,-2.072,3.022,-3.869,3.245,4.232,-0.041,0.926,-0.415,-0.854,-0.580,0.885,60.000,21940.000,1.000
-10.427,-4.099,-1.446,-2.430,4.166,-6.298,3.624,1.283,-0.040,0.921,-0.417,-0.793,-0.458,0.732,60.000,21941.000,1.000
-8.626,-5.399,0.709,-3.137,4.284,-8.042,2.057,-1.765,-0.040,0.924,-0.419,-0.732,-0.305,0.671,60.000,21942.000,1.000
-6.482,-6.294,2.595,-3.741,3.370,-8.813,-1.065,-3.536,-0.041,0.925,-0.417,-0.488,-0.153,0.580,60.000,21943.000,1.000
-4.190,-6.518,4.257,-4.059,1.785,-8.789,-4.938,-3.208,-0.042,0.927,-0.420,-0.366,0.000,0.488,60.000,21944.000,1.000
-1.790,-5.838,5.745,-4.109,0.273,-8.216,-8.292,-0.945,-0.042,0.933,-0.418,-0.366,0.092,0.397,60.000,21945.000,1.000
0.873,-4.173,6.947,-4.042,-0.471,-7.237,-9.842,2.042,-0.041,0.936,-0.416,-0.549,0.183,0.366,60.000,21946.000,1.000
3.542,-1.962,7.530,-4.059,-0.374,-5.952,-9.128,4.273,-0.039,0.939,-0.416,-0.580,0.214,0.519,60.000,21947.000,1.000
6.149,0.421,7.326,-4.060,0.193,-4.482,-6.527,5.141,-0.040,0.942,-0.417,-0.916,0.366,0.549,60.000,21948.000,1.000
8.243,2.538,6.248,-4.060,0.444,-3.319,-3.448,4.846,-0.040,0.945,-0.417,-0.916,0.366,0.488,60.000,21949.000,1.000
9.747,4.328,4.728,-3.941,0.053,-2.497,-0.935,4.055,-0.045,0.948,-0.418,-1.007,0.549,0.244,60.000,21950.000,1.000
11.036,5.974,3.428,-3.623,-0.781,-1.469,0.998,3.302,-0.054,0.948,-0.415,-1.038,0.427,0.122,60.000,21951.000,1.000
11.632,6.971,2.408,-3.602,-2.221,-0.256,2.266,2.547,-0.062,0.949,-0.412,-1.251,0.366,0.000,60.000,21952.000,1.000
11.075,6.848,1.459,-4.278,-4.448,0.475,2.598,1.557,-0.068,0.944,-0.415,-1.526,0.153,-0.183,60.000,21953.000,1.000
9.510,5.944,0.648,-5.492,-7.126,0.274,1.838,0.056,-0.069,0.937,-0.416,-1.709,-0.214,-0.397,60.000,21954.000,1.000
8.098,5.520,0.750,-6.359,-9.103,-0.133,0.842,-1.980,-0.065,0.931,-0.415,-1.862,-0.580,-0.549,60.000,21955.000,1.000
7.714,6.291,2.410,-6.151,-9.266,0.423,1.020,-4.355,-0.061,0.930,-0.416,-1.862,-0.854,-0.854,60.000,21956.000,1.000
7.555,7.343,5.082,-5.107,-7.617,2.144,2.847,-6.785,-0.055,0.932,-0.417,-1.678,-1.068,-1.038,60.000,21957.000,1.000
6.709,7.509,7.512,-3.693,-4.785,4.349,5.727,-8.406,-0.056,0.934,-0.417,-1.709,-1.282,-1.099,60.000,21958.000,1.000
4.656,6.211,8.402,-2.250,-1.724,6.042,8.037,-8.126,-0.055,0.934,-0.417,-1.648,-1.434,-0.885,60.000,21959.000,1.000
1.573,3.744,7.226,-0.843,0.691,6.633,8.279,-5.673,-0.057,0.934,-0.418,-1.740,-1.648,-0.671,60.000,21960.000,1.000
-1.963,0.992,4.520,0.542,2.004,6.100,6.047,-2.297,-0.058,0.933,-0.418,-1.801,-2.014,-0.488,60.000,21961.000,1.000
-5.511,-1.064,1.650,1.691,2.291,4.881,2.115,-0.176,-0.060,0.932,-0.413,-1.709,-2.136,-0.275,60.000,21962.000,1.000
-8.084,-1.307,0.299,2.309,2.121,3.870,-1.559,-0.973,-0.059,0.931,-0.413,-1.801,-2.411,-0.183,60.000,21963.000,1.000
-9.218,0.451,1.175,1.895,1.683,3.587,-3.376,-4.835,-0.060,0.932,-0.414,-1.770,-2.655,0.153,60.000,21964.000,1.000
-8.971,3.282,3.736,0.425,0.793,3.841,-3.104,-9.921,-0.061,0.931,-0.415,-1.770,-2.960,0.275,60.000,21965.000,1.000
-7.372,5.845,6.618,-1.378,-0.707,3.956,-1.887,-13.610,-0.058,0.931,-0.415,-1.648,-3.082,0.458,60.000,21966.000,1.000
-4.235,7.381,8.610,-2.351,-2.465,3.646,-1.043,-14.182,-0.056,0.931,-0.413,-1.648,-3.296,0.732,60.000,21967.000,1.000
1.369,8.605,9.769,-1.188,-3.146,3.755,-0.217,-11.307,-0.055,0.933,-0.415,-1.587,-3.448,0.946,60.000,21968.000,1.000
9.147,10.329,10.692,2.202,-1.689,5.024,1.759,-6.155,-0.052,0.932,-0.409,-1.617,-3.357,0.946,60.000,21969.000,1.000
17.181,12.615,11.694,6.473,1.820,7.029,5.399,-0.571,-0.046,0.933,-0.411,-1.648,-3.326,0.854,60.000,21970.000,1.000
23.142,15.030,12.501,9.874,6.366,8.363,9.636,4.030,-0.038,0.935,-0.415,-1.770,-3.265,0.641,60.000,21971.000,1.000
25.287,16.792,12.403,11.328,10.587,7.741,12.184,7.111,-0.031,0.933,-0.416,-1.648,-2.960,0.610,60.000,21972.000,1.000
23.656,17.173,10.861,11.045,13.484,5.065,11.741,8.889,-0.032,0.931,-0.413,-1.770,-2.655,0.610,60.000,21973.000,1.000
18.952,15.435,7.510,9.743,14.340,0.996,8.700,9.808,-0.036,0.927,-0.412,-1.648,-2.472,0.610,60.000,21974.000,1.000
12.324,11.811,2.682,8.332,13.267,-3.259,4.870,10.788,-0.040,0.926,-0.412,-1.587,-2.136,0.732,60.000,21975.000,1.000
5.309,7.739,-2.546,7.613,11.293,-6.303,1.997,12.927,-0.045,0.927,-0.416,-1.343,-1.953,0.610,60.000,21976.000,1.000
-0.927,4.632,-7.070,7.782,9.490,-7.352,0.427,16.291,-0.045,0.925,-0.416,-1.221,-1.892,0.458,60.000,21977.000,1.000
-5.092,3.526,-9.957,8.807,8.733,-6.383,0.071,19.736,-0.046,0.926,-0.417,-1.129,-1.617,0.458,60.000,21978.000,1.000
-6.801,4.554,-10.813,10.402,9.354,-4.169,0.823,21.871,-0.043,0.924,-0.417,-1.007,-1.526,0.397,60.000,21979.000,1.000
-6.628,7.043,-9.745,12.204,11.203,-1.643,2.512,22.225,-0.042,0.922,-0.417,-0.885,-1.404,0.275,60.000,21980.000,1.000
-5.515,9.769,-7.322,13.764,13.614,0.643,4.538,21.132,-0.040,0.922,-0.416,-0.763,-1.190,0.122,60.000,21981.000,1.000
-4.450,11.215,-4.405,14.543,15.441,2.549,5.925,19.078,-0.040,0.923,-0.415,-0.641,-1.038,0.000,60.000,21982.000,1.000
-3.391,10.660,-1.601,14.422,15.788,4.167,6.308,16.510,-0.039,0.925,-0.415,-0.458,-0.763,-0.183,60.000,21983.000,1.000
-2.158,8.218,0.531,13.430,14.120,5.079,5.514,13.543,-0.040,0.927,-0.417,-0.336,-0.458,-0.336,60.000,21984.000,1.000
-0.440,4.960,1.811,11.862,10.670,4.799,3.685,10.443,-0.042,0.930,-0.412,-0.336,-0.275,-0.427,60.000,21985.000,1.000
2.353,2.420,2.577,10.169,6.330,3.537,1.627,7.806,-0.042,0.932,-0.413,-0.183,0.031,-0.427,60.000,21986.000,1.000
6.368,1.439,3.264,8.527,1.929,2.184,0.648,6.142,-0.044,0.938,-0.416,-0.061,0.305,-0.275,60.000,21987.000,1.000
11.680,2.091,4.279,7.108,-1.807,1.928,2.182,5.948,-0.047,0.942,-0.417,-0.031,0.397,-0.183,60.000,21988.000,1.000
17.512,3.478,5.556,5.841,-4.710,3.080,5.770,7.272,-0.048,0.941,-0.414,-0.153,0.488,-0.061,60.000,21989.000,1.000
22.779,4.513,6.753,4.472,-7.146,4.833,8.942,9.093,-0.050,0.942,-0.413,-0.122,0.580,0.061,60.000,21990.000,1.000
26.756,4.736,7.529,2.660,-9.619,5.913,9.482,9.408,-0.051,0.942,-0.414,-0.305,0.580,0.092,60.000,21991.000,1.000
28.830,4.331,7.770,0.221,-12.268,5.496,7.304,6.677,-0.057,0.942,-0.412,-0.336,0.580,0.122,60.000,21992.000,1.000
29.278,4.240,7.930,-2.239,-14.288,3.986,4.354,1.276,-0.059,0.944,-0.416,-0.519,0.549,0.092,60.000,21993.000,1.000
28.288,4.832,8.304,-4.026,-14.891,2.281,1.968,-5.121,-0.058,0.940,-0.416,-0.702,0.610,0.092,60.000,21994.000,1.000
25.708,5.259,8.802,-4.870,-13.956,1.030,0.146,-10.594,-0.059,0.936,-0.415,-0.854,0.580,0.214,60.000,21995.000,1.000
21.511,4.259,9.137,-4.882,-11.845,0.320,-1.254,-13.691,-0.059,0.937,-0.418,-0.854,0.427,0.214,60.000,21996.000,1.000
15.877,1.292,8.880,-4.469,-9.130,-0.297,-2.055,-13.976,-0.059,0.934,-0.417,-0.946,0.214,0.214,60.000,21997.000,1.000
9.758,-2.727,7.783,-3.965,-6.175,-1.143,-1.943,-12.079,-0.060,0.933,-0.415,-1.038,0.122,0.244,60.000,21998.000,1.000
3.596,-6.693,5.678,-3.854,-3.460,-2.157,-1.254,-9.426,-0.059,0.935,-0.417,-1.160,0.031,0.275,60.000,21999.000,1.000
-2.611,-10.051,2.717,-4.447,-1.425,-2.756,-0.271,-7.220,-0.060,0.934,-0.418,-1.190,0.031,0.275,60.000,22000.000,1.000
-8.836,-12.921,-0.769,-5.775,-0.371,-2.566,0.834,-6.049,-0.058,0.931,-0.416,-1.251,-0.031,0.244,60.000,22001.000,1.000
-15.237,-15.914,-4.533,-7.739,-0.525,-2.161,1.037,-6.252,-0.058,0.932,-0.416,-1.282,0.000,0.336,60.000,22002.000,1.000
-21.108,-18.803,-8.044,-9.665,-1.416,-2.296,-0.665,-7.906,-0.056,0.933,-0.418,-1.190,-0.153,0.427,60.000,22003.000,1.000
-25.720,-20.807,-10.878,-10.836,-2.332,-3.328,-4.302,-10.946,-0.057,0.936,-0.416,-1.099,-0.214,0.427,60.000,22004.000,1.000
-28.850,-21.493,-12.909,-11.010,-2.878,-5.034,-8.431,-14.891,-0.058,0.938,-0.420,-1.068,-0.275,0.580,60.000,22005.000,1.000
-30.589,-21.154,-14.146,-10.489,-3.059,-6.912,-11.208,-18.546,-0.058,0.939,-0.418,-1.007,-0.458,0.610,60.000,22006.000,1.000
-31.141,-20.437,-14.452,-9.746,-3.000,-8.458,-11.971,-20.260,-0.060,0.941,-0.419,-1.038,-0.580,0.763,60.000,22007.000,1.000
-30.043,-19.397,-13.319,-8.819,-2.438,-9.034,-10.860,-18.783,-0.059,0.940,-0.416,-1.068,-0.610,0.824,60.000,22008.000,1.000
-27.460,-18.119,-10.636,-7.812,-1.264,-8.438,-8.355,-14.430,-0.058,0.937,-0.416,-1.190,-0.610,0.763,60.000,22009.000,1.000
-23.933,-16.679,-6.677,-6.832,0.402,-6.873,-4.631,-8.751,-0.058,0.933,-0.412,-1.129,-0.671,0.763,60.000,22010.000,1.000
-19.436,-14.619,-1.752,-5.760,2.396,-4.637,0.148,-3.395,-0.058,0.928,-0.416,-1.099,-0.763,0.854,60.000,22011.000,1.000
-13.923,-11.324,3.648,-4.515,4.379,-2.034,4.994,0.685,-0.057,0.925,-0.412,-1.099,-0.824,0.977,60.000,22012.000,1.000
-7.448,-6.512,8.828,-3.128,6.023,0.710,8.799,3.395,-0.060,0.921,-0.414,-0.946,-1.007,1.068,60.000,22013.000,1.000
-1.160,-1.149,12.682,-2.120,6.748,3.044,10.856,4.655,-0.059,0.921,-0.415,-0.824,-1.038,1.129,60.000,22014.000,1.000
3.500,3.234,14.360,-1.923,6.233,4.438,11.412,4.364,-0.060,0.921,-0.416,-0.793,-1.099,1.190,60.000,22015.000,1.000
5.654,5.572,13.688,-2.418,4.779,4.654,10.929,2.826,-0.055,0.921,-0.415,-0.641,-1.190,1.251,60.000,22016.000,1.000
4.575,5.298,10.973,-3.241,2.934,3.604,9.007,0.679,-0.050,0.922,-0.418,-0.519,-1.068,1.373,60.000,22017.000,1.000
0.422,2.655,6.996,-3.860,1.375,1.537,5.231,-1.375,-0.048,0.924,-0.416,-0.549,-1.099,1.373,60.000,22018.000,1.000
-6.174,-1.688,2.405,-4.140,0.251,-1.370,-0.605,-3.009,-0.045,0.926,-0.417,-0.427,-1.099,1.404,60.000,22019.000,1.000
-13.722,-6.424,-2.274,-3.997,-0.618,-4.813,-7.894,-3.836,-0.047,0.927,-0.416,-0.336,-1.129,1.282,60.000,22020.000,1.000
-20.165,-9.877,-6.580,-3.126,-1.271,-8.044,-14.758,-3.264,-0.051,0.931,-0.415,-0.305,-1.007,1.190,60.000,22021.000,1.000
-24.494,-11.240,-10.308,-1.527,-1.712,-10.172,-18.947,-1.205,-0.055,0.934,-0.413,-0.275,-1.038,1.190,60.000,22022.000,1.000
-26.464,-10.567,-13.213,0.440,-1.734,-10.378,-18.873,1.694,-0.057,0.934,-0.414,-0.214,-1.068,1.129,60.000,22023.000,1.000
-26.741,-8.778,-15.215,1.974,-1.377,-8.572,-15.197,4.266,-0.057,0.935,-0.416,-0.275,-1.007,0.946,60.000,22024.000,1.000
-26.068,-6.961,-16.251,2.539,-0.871,-5.442,-10.326,5.561,-0.057,0.933,-0.413,-0.427,-1.129,0.885,60.000,22025.000,1.000
-24.681,-5.775,-16.206,2.259,-0.386,-2.160,-6.498,5.309,-0.055,0.933,-0.415,-0.458,-1.221,0.671,60.000,22026.000,1.000
-22.704,-5.435,-15.054,1.566,-0.016,0.147,-4.510,4.057,-0.054,0.932,-0.419,-0.488,-1.373,0.519,60.000,22027.000,1.000
-19.427,-5.254,-12.697,1.186,0.592,1.297,-3.339,3.090,-0.053,0.934,-0.421,-0.488,-1.312,0.336,60.000,22028.000,1.000
-14.410,-4.459,-9.451,1.539,1.751,1.820,-1.951,3.284,-0.052,0.934,-0.420,-0.427,-1.251,0.092,60.000,22029.000,1.000
-7.941,-2.690,-5.901,2.671,3.503,2.359,-0.291,4.375,-0.051,0.935,-0.417,-0.397,-1.160,0.000,60.000,22030.000,1.000
-0.958,-0.150,-2.599,4.202,5.373,2.827,0.822,5.114,-0.050,0.937,-0.415,-0.488,-1.129,-0.031,60.000,22031.000,1.000
4.981,2.282,0.165,5.355,6.311,2.266,0.293,4.323,-0.050,0.937,-0.414,-0.641,-1.129,-0.183,60.000,22032.000,1.000
9.460,4.181,2.949,5.880,5.821,0.229,-1.700,2.283,-0.048,0.935,-0.417,-0.641,-1.160,-0.244,60.000,22033.000,1.000
12.806,5.524,6.426,5.894,4.130,-2.788,-4.138,0.239,-0.051,0.932,-0.420,-0.732,-1.007,-0.305,60.000,22034.000,1.000
15.377,6.367,10.533,5.514,1.867,-5.659,-5.925,-0.996,-0.051,0.930,-0.421,-0.702,-1.007,-0.275,60.000,22035.000,1.000
17.405,6.850,14.313,4.827,-0.224,-7.127,-6.093,-1.679,-0.051,0.932,-0.421,-0.793,-0.916,-0.275,60.000,22036.000,1.000
19.009,7.225,16.534,4.008,-1.521,-6.319,-4.092,-2.389,-0.049,0.934,-0.418,-0.732,-0.916,-0.214,60.000,22037.000,1.000
21.125,8.188,16.754,3.602,-1.455,-3.074,0.018,-3.006,-0.049,0.935,-0.418,-0.763,-0.793,-0.244,60.000,22038.000,1.000
24.022,9.828,15.141,3.737,-0.319,1.407,4.648,-3.222,-0.051,0.936,-0.415,-0.702,-0.885,-0.183,60.000,22039.000,1.000
26.651,11.391,12.262,3.968,0.857,5.391,7.815,-2.987,-0.049,0.935,-0.416,-0.824,-0.763,-0.092,60.000,22040.000,1.000
27.311,11.935,8.800,3.652,1.174,7.873,8.726,-2.432,-0.050,0.936,-0.415,-0.946,-0.641,-0.122,60.000,22041.000,1.000
24.544,10.871,5.218,2.344,0.326,8.643,7.477,-1.884,-0.049,0.937,-0.415,-1.160,-0.610,0.031,60.000,22042.000,1.000
19.118,8.912,2.060,0.531,-0.996,8.153,4.979,-1.730,-0.050,0.936,-0.417,-1.160,-0.610,0.153,60.000,22043.000,1.000
13.056,7.297,-0.401,-0.930,-1.944,7.146,2.458,-2.504,-0.053,0.937,-0.417,-1.251,-0.610,0.244,60.000,22044.000,1.000
8.084,6.742,-2.289,-1.500,-2.250,6.375,0.987,-4.437,-0.057,0.936,-0.417,-1.312,-0.641,0.305,60.000,22045.000,1.000
4.666,6.925,-3.982,-1.278,-2.376,5.993,0.631,-7.053,-0.059,0.937,-0.416,-1.251,-0.610,0.244,60.000,22046.000,1.000
1.696,6.568,-5.737,-0.831,-3.058,5.566,0.326,-9.149,-0.058,0.939,-0.417,-1.251,-0.793,0.153,60.000,22047.000,1.000
-1.606,4.873,-7.142,-0.388,-4.283,5.108,-0.284,-9.263,-0.055,0.938,-0.419,-1.495,-0.854,0.183,60.000,22048.000,1.000
-5.399,1.942,-7.830,-0.109,-5.606,4.905,-0.775,-7.205,-0.056,0.938,-0.417,-1.678,-0.916,0.183,60.000,22049.000,1.000
-8.795,-0.999,-7.677,0.007,-6.333,5.220,-0.600,-4.187,-0.054,0.937,-0.415,-1.678,-0.916,0.214,60.000,22050.000,1.000
-10.156,-2.159,-6.662,0.212,-5.734,6.188,0.293,-1.664,-0.054,0.933,-0.417,-1.709,-0.854,0.183,60.000,22051.000,1.000
-8.992,-0.828,-5.154,0.443,-3.866,7.505,1.105,-0.656,-0.054,0.930,-0.415,-1.740,-0.763,0.183,60.000,22052.000,1.000
-5.923,2.394,-3.700,0.460,-1.402,8.647,1.297,-1.260,-0.055,0.926,-0.414,-1.770,-0.702,0.244,60.000,22053.000,1.000
-2.741,5.701,-2.966,-0.183,0.569,8.827,0.711,-2.710,-0.056,0.922,-0.416,-1.678,-0.793,0.305,60.000,22054.000,1.000
-0.970,7.410,-3.113,-1.636,1.292,7.581,-0.364,-3.715,-0.056,0.920,-0.416,-1.465,-0.793,0.244,60.000,22055.000,1.000
-0.457,7.378,-3.440,-3.347,0.969,5.406,-1.281,-3.284,-0.056,0.920,-0.414,-1.312,-0.854,0.458,60.000,22056.000,1.000
-0.320,6.461,-3.115,-4.616,0.251,3.300,-1.760,-1.580,-0.057,0.921,-0.414,-1.282,-1.038,0.519,60.000,22057.000,1.000
0.371,5.496,-1.798,-5.011,-0.308,1.977,-1.689,0.406,-0.056,0.922,-0.414,-1.038,-1.129,0.580,60.000,22058.000,1.000
1.611,4.500,0.075,-4.671,-0.648,1.221,-1.246,1.761,-0.056,0.927,-0.414,-0.885,-1.282,0.580,60.000,22059.000,1.000
3.461,3.684,2.157,-3.583,-0.464,0.684,-0.297,2.629,-0.057,0.929,-0.414,-0.763,-1.282,0.854,60.000,22060.000,1.000
6.425,3.842,4.352,-1.510,0.838,0.450,1.597,3.820,-0.056,0.931,-0.416,-0.824,-1.434,0.793,60.000,22061.000,1.000
9.819,4.973,5.971,1.019,2.917,0.447,4.131,5.557,-0.055,0.933,-0.416,-0.702,-1.465,0.854,60.000,22062.000,1.000
12.359,6.280,6.040,2.969,4.575,0.332,6.594,7.368,-0.054,0.934,-0.414,-0.793,-1.617,0.885,60.000,22063.000,1.000
12.915,6.760,4.096,3.574,4.721,-0.258,8.261,8.572,-0.052,0.935,-0.415,-0.854,-1.678,0.702,60.000,22064.000,1.000
11.756,6.322,1.045,3.313,3.652,-0.865,9.197,9.054,-0.052,0.934,-0.411,-0.977,-1.709,0.580,60.000,22065.000,1.000
10.260,5.799,-1.486,3.418,2.733,-0.517,9.979,9.239,-0.048,0.934,-0.417,-1.190,-1.648,0.366,60.000,22066.000,1.000
8.925,5.575,-2.774,4.325,2.674,0.855,10.342,9.250,-0.045,0.934,-0.420,-1.251,-1.465,0.153,60.000,22067.000,1.000
7.949,5.675,-3.062,5.710,3.345,2.499,9.753,8.903,-0.043,0.936,-0.419,-1.312,-1.312,0.031,60.000,22068.000,1.000
7.300,5.785,-3.118,6.905,4.215,3.473,7.871,8.073,-0.043,0.939,-0.416,-1.251,-1.129,-0.061,60.000,22069.000,1.000
6.691,5.299,-3.676,7.435,4.899,3.195,4.808,7.091,-0.045,0.940,-0.418,-1.282,-1.038,-0.092,60.000,22070.000,1.000
5.488,3.483,-5.217,7.145,5.185,1.543,1.021,6.502,-0.048,0.942,-0.418,-1.404,-0.946,-0.031,60.000,22071.000,1.000
2.629,-0.138,-7.780,6.043,4.738,-1.233,-3.111,6.499,-0.051,0.941,-0.413,-1.587,-0.763,0.061,60.000,22072.000,1.000
-1.539,-4.542,-10.324,4.732,3.715,-4.102,-6.679,7.165,-0.051,0.935,-0.417,-1.617,-0.732,0.122,60.000,22073.000,1.000
-5.483,-7.769,-11.416,3.916,2.702,-5.768,-8.665,8.678,-0.052,0.933,-0.418,-1.648,-0.732,0.000,60.000,22074.000,1.000
-7.388,-8.195,-10.266,3.823,2.243,-5.502,-8.449,10.988,-0.051,0.931,-0.419,-1.648,-0.549,0.061,60.000,22075.000,1.000
-6.293,-5.674,-7.326,3.928,2.175,-3.664,-6.158,12.892,-0.052,0.930,-0.417,-1.617,-0.458,-0.061,60.000,22076.000,1.000
-3.188,-1.862,-3.943,3.313,1.531,-1.330,-2.816,12.317,-0.049,0.930,-0.414,-1.556,-0.427,-0.092,60.000,22077.000,1.000
0.671,1.575,-1.000,1.995,-0.146,0.923,0.599,8.469,-0.050,0.930,-0.417,-1.556,-0.336,-0.092,60.000,22078.000,1.000
4.495,3.918,1.282,0.814,-2.548,2.961,2.992,2.579,-0.052,0.930,-0.417,-1.465,-0.397,-0.092,60.000,22079.000,1.000
8.173,5.314,3.031,0.535,-5.070,4.639,3.526,-3.143,-0.054,0.932,-0.418,-1.343,-0.366,0.122,60.000,22080.000,1.000
11.657,5.943,4.358,1.081,-7.331,5.499,2.295,-6.943,-0.052,0.933,-0.416,-1.312,-0.244,0.397,60.000,22081.000,1.000
13.977,5.361,5.118,1.485,-9.437,4.872,0.054,-8.356,-0.056,0.936,-0.415,-1.343,-0.214,0.488,60.000,22082.000,1.000
14.682,3.584,5.266,0.988,-11.380,2.710,-1.926,-7.902,-0.058,0.937,-0.416,-1.282,-0.336,0.610,60.000,22083.000,1.000
14.073,1.280,4.736,-0.596,-13.094,-0.320,-2.834,-6.512,-0.061,0.938,-0.413,-1.282,-0.488,0.916,60.000,22084.000,1.000
13.176,-0.471,3.776,-2.629,-14.283,-2.914,-2.375,-4.756,-0.062,0.935,-0.408,-1.343,-0.549,1.068,60.000,22085.000,1.000
12.903,-0.900,2.824,-4.155,-14.549,-3.917,-0.644,-2.998,-0.060,0.934,-0.408,-1.343,-0.671,1.190,60.000,22086.000,1.000
12.334,-0.556,1.806,-5.023,-14.122,-3.400,1.435,-2.103,-0.060,0.932,-0.410,-1.434,-0.824,1.160,60.000,22087.000,1.000
10.059,-0.397,0.509,-5.530,-13.395,-2.142,2.946,-2.869,-0.058,0.929,-0.412,-1.434,-0.793,1.099,60.000,22088.000,1.000
5.399,-0.974,-1.178,-5.960,-12.569,-0.926,3.276,-5.290,-0.054,0.927,-0.414,-1.526,-0.824,1.099,60.000,22089.000,1.000
-0.657,-1.931,-3.027,-6.124,-11.384,-0.045,2.572,-8.283,-0.056,0.926,-0.414,-1.465,-0.732,1.068,60.000,22090.000,1.000
-6.073,-2.393,-4.635,-5.525,-9.390,0.501,1.632,-10.224,-0.053,0.925,-0.419,-1.343,-0.702,1.038,60.000,22091.000,1.000
-10.170,-2.387,-6.033,-4.265,-6.866,0.278,0.629,-10.066,-0.051,0.923,-0.417,-1.251,-0.671,0.977,60.000,22092.000,1.000
-13.601,-2.828,-7.520,-3.009,-4.645,-1.385,-0.859,-7.910,-0.050,0.923,-0.413,-1.099,-0.519,1.007,60.000,22093.000,1.000
-17.649,-4.865,-9.429,-2.591,-3.518,-4.892,-3.305,-4.940,-0.047,0.929,-0.417,-0.977,-0.427,0.916,60.000,22094.000,1.000
-22.400,-8.478,-11.486,-3.104,-3.307,-9.574,-6.162,-2.382,-0.049,0.934,-0.417,-0.916,-0.275,0.854,60.000,22095.000,1.000
-26.173,-12.226,-12.887,-3.842,-2.941,-13.844,-8.230,-0.708,-0.046,0.936,-0.413,-0.854,-0.153,0.671,60.000,22096.000,1.000
-27.519,-14.816,-13.179,-4.296,-1.728,-16.347,-9.201,0.261,-0.042,0.937,-0.415,-0.916,0.214,0.336,60.000,22097.000,1.000
-25.749,-15.588,-12.261,-4.209,0.399,-16.394,-9.122,1.040,-0.040,0.935,-0.417,-0.977,0.427,0.153,60.000,22098.000,1.000
-21.610,-14.818,-10.385,-3.691,2.865,-14.333,-7.970,1.743,-0.041,0.935,-0.415,-1.068,0.732,0.183,60.000,22099.000,1.000
-16.558,-13.387,-7.799,-2.946,4.881,-11.386,-5.800,2.075,-0.048,0.935,-0.411,-1.038,0.824,0.366,60.000,22100.000,1.000
-11.507,-12.116,-4.586,-2.047,5.885,-9.065,-3.328,1.916,-0.055,0.938,-0.411,-1.068,0.854,0.732,60.000,22101.000,1.000
-6.885,-11.477,-0.936,-1.071,5.670,-8.456,-2.126,1.769,-0.062,0.941,-0.415,-1.099,0.732,1.007,60.000,22102.000,1.000
-2.185,-11.005,2.975,0.079,4.760,-9.456,-3.147,2.687,-0.065,0.941,-0.410,-1.099,0.580,1.099,60.000,22103.000,1.000
2.803,-10.103,6.701,1.108,3.691,-11.363,-6.372,4.923,-0.063,0.938,-0.412,-1.251,0.488,1.129,60.000,22104.000,1.000
7.949,-8.326,9.898,1.527,2.766,-13.168,-10.480,7.362,-0.058,0.934,-0.413,-1.373,0.336,0.946,60.000,22105.000,1.000
13.424,-5.098,12.692,1.250,2.394,-13.511,-13.037,8.357,-0.055,0.929,-0.417,-1.434,0.275,0.854,60.000,22106.000,1.000
18.849,-0.365,15.228,0.498,2.752,-11.462,-12.449,6.729,-0.052,0.928,-0.417,-1.404,0.275,0.824,60.000,22107.000,1.000
23.553,5.145,17.456,-0.207,3.615,-7.181,-9.132,2.351,-0.051,0.927,-0.419,-1.282,0.397,0.793,60.000,22108.000,1.000
26.319,9.652,18.917,-0.556,4.146,-2.053,-5.479,-3.993,-0.050,0.929,-0.416,-1.221,0.366,0.824,60.000,22109.000,1.000
26.532,11.685,19.293,-0.260,3.809,2.649,-3.552,-10.359,-0.052,0.928,-0.416,-1.038,0.336,0.916,60.000,22110.000,1.000
25.074,11.554,18.721,1.120,3.191,6.720,-3.217,-14.117,-0.053,0.929,-0.415,-1.038,0.427,1.007,60.000,22111.000,1.000
22.636,10.449,17.255,3.416,3.215,10.308,-3.053,-13.703,-0.056,0.930,-0.415,-0.885,0.366,1.038,60.000,22112.000,1.000
19.210,9.351,14.969,5.843,4.394,13.381,-1.606,-9.559,-0.057,0.933,-0.416,-0.763,0.214,1.038,60.000,22113.000,1.000
14.038,8.298,12.062,7.372,6.308,15.576,1.214,-3.685,-0.057,0.934,-0.412,-0.732,0.122,1.038,60.000,22114.000,1.000
6.966,6.988,9.092,7.624,8.101,16.667,4.385,1.885,-0.057,0.934,-0.411,-0.732,-0.061,0.977,60.000,22115.000,1.000
-0.952,5.332,6.554,7.004,9.041,16.660,6.868,5.776,-0.055,0.934,-0.414,-0.702,-0.061,0.793,60.000,22116.000,1.000
-8.647,3.302,4.337,6.024,8.617,15.585,8.099,6.993,-0.055,0.936,-0.413,-0.763,-0.092,0.702,60.000,22117.000,1.000
-14.741,1.574,2.364,5.379,7.220,13.946,8.606,5.344,-0.054,0.937,-0.413,-0.824,-0.061,0.732,60.000,22118.000,1.000
-18.513,0.797,0.683,5.411,5.730,12.323,8.993,1.627,-0.053,0.936,-0.415,-0.793,-0.061,0.763,60.000,22119.000,1.000
-20.062,1.098,-0.519,5.960,4.996,11.026,9.499,-2.459,-0.051,0.934,-0.413,-0.824,-0.183,0.763,60.000,22120.000,1.000
-19.555,2.373,-0.867,6.751,5.707,10.252,10.527,-4.841,-0.051,0.932,-0.411,-0.793,-0.244,0.732,60.000,22121.000,1.000
-17.659,3.899,-0.248,7.341,7.885,9.895,12.180,-4.454,-0.050,0.932,-0.415,-0.885,-0.214,0.519,60.000,22122.000,1.000
-14.954,4.633,1.083,7.238,10.789,9.450,13.943,-2.119,-0.052,0.934,-0.413,-0.793,-0.214,0.488,60.000,22123.000,1.000
-12.124,3.609,2.329,5.725,12.921,7.947,14.485,-0.032,-0.052,0.933,-0.412,-0.793,-0.336,0.519,60.000,22124.000,1.000
-9.526,0.771,2.687,2.349,12.921,4.694,12.795,0.015,-0.050,0.934,-0.413,-0.793,-0.336,0.427,60.000,22125.000,1.000
-7.074,-2.920,1.873,-2.592,10.367,-0.247,8.881,-2.307,-0.051,0.933,-0.415,-0.824,-0.275,0.366,60.000,22126.000,1.000
-4.969,-6.216,0.390,-7.976,5.958,-6.004,3.503,-5.703,-0.049,0.932,-0.415,-0.824,-0.244,0.275,60.000,22127.000,1.000
-2.637,-7.491,-0.243,-11.744,1.728,-10.651,-1.255,-7.569,-0.048,0.928,-0.416,-0.977,-0.305,0.244,60.000,22128.000,1.000
0.383,-6.007,1.056,-12.472,-0.518,-12.574,-3.226,-6.067,-0.049,0.929,-0.416,-0.793,-0.214,0.153,60.000,22129.000,1.000
3.672,-2.675,3.935,-10.410,-0.488,-11.704,-1.597,-1.719,-0.050,0.932,-0.415,-0.641,-0.275,0.061,60.000,22130.000,1.000
6.444,0.933,7.074,-6.980,0.947,-9.171,2.756,3.254,-0.051,0.934,-0.412,-0.793,-0.336,-0.122,60.000,22131.000,1.000
7.740,3.574,9.056,-3.845,2.607,-6.309,7.563,6.711,-0.054,0.937,-0.413,-0.854,-0.366,-0.183,60.000,22132.000,1.000
7.604,5.087,9.335,-1.786,4.010,-3.787,10.845,8.110,-0.053,0.937,-0.418,-0.885,-0.336,-0.366,60.000,22133.000,1.000
6.370,5.611,8.051,-0.932,5.011,-2.046,11.506,8.220,-0.053,0.937,-0.417,-0.977,-0.397,-0.458,60.000,22134.000,1.000
4.302,5.247,5.704,-1.103,5.318,-1.467,9.416,7.992,-0.052,0.933,-0.413,-1.007,-0.366,-0.580,60.000,22135.000,1.000
1.739,4.203,2.841,-1.956,4.502,-2.014,5.157,7.601,-0.051,0.929,-0.415,-1.038,-0.427,-0.549,60.000,22136.000,1.000
-1.431,2.493,-0.209,-3.180,2.266,-3.035,-0.421,6.467,-0.050,0.928,-0.415,-1.068,-0.397,-0.549,60.000,22137.000,1.000
-4.847,0.416,-3.024,-4.182,-0.879,-3.307,-5.620,4.371,-0.052,0.924,-0.417,-0.946,-0.519,-0.427,60.000,22138.000,1.000
-8.334,-1.922,-5.583,-4.713,-4.255,-2.263,-8.887,1.707,-0.054,0.924,-0.416,-0.916,-0.702,-0.305,60.000,22139.000,1.000
-11.969,-4.562,-8.159,-4.922,-7.354,-0.307,-9.659,-0.603,-0.059,0.926,-0.422,-0.763,-0.732,-0.122,60.000,22140.000,1.000
-15.417,-7.146,-10.732,-4.883,-9.597,1.878,-8.247,-1.574,-0.061,0.927,-0.417,-0.702,-0.916,-0.031,60.000,22141.000,1.000
-18.546,-9.434,-13.086,-4.819,-10.724,3.577,-5.810,-1.092,-0.062,0.929,-0.415,-0.641,-1.282,-0.031,60.000,22142.000,1.000
-20.786,-11.134,-14.776,-4.872,-10.722,4.471,-3.336,0.165,-0.062,0.931,-0.417,-0.549,-1.434,0.122,60.000,22143.000,1.000
-21.413,-11.780,-15.395,-5.064,-9.717,4.831,-1.280,1.320,-0.060,0.932,-0.415,-0.641,-1.587,0.122,60.000,22144.000,1.000
-19.706,-10.611,-14.623,-5.152,-7.740,5.444,0.437,1.798,-0.058,0.934,-0.413,-0.549,-1.862,0.244,60.000,22145.000,1.000
-15.576,-7.458,-12.796,-5.208,-5.357,6.399,1.676,1.177,-0.060,0.935,-0.412,-0.458,-2.106,0.427,60.000,22146.000,1.000
-10.704,-3.986,-11.280,-6.178,-4.320,6.245,1.566,-0.892,-0.062,0.936,-0.411,-0.580,-2.228,0.610,60.000,22147.000,1.000
-6.605,-2.075,-10.999,-8.489,-5.881,3.926,0.272,-3.917,-0.063,0.940,-0.414,-0.732,-2.289,0.641,60.000,22148.000,1.000
-3.796,-2.290,-11.640,-11.365,-9.568,0.217,-0.979,-6.770,-0.057,0.940,-0.412,-0.885,-2.472,0.458,60.000,22149.000,1.000
-1.967,-3.701,-12.132,-13.355,-13.552,-3.024,-1.264,-8.501,-0.050,0.939,-0.412,-0.977,-2.625,0.214,60.000,22150.000,1.000
-0.461,-4.820,-11.596,-13.360,-15.883,-4.587,-0.607,-8.719,-0.041,0.938,-0.417,-1.129,-2.502,-0.031,60.000,22151.000,1.000
0.612,-4.980,-9.989,-11.417,-15.649,-4.696,0.279,-7.487,-0.037,0.936,-0.415,-1.221,-2.136,-0.122,60.000,22152.000,1.000
1.123,-4.169,-7.701,-8.176,-12.806,-4.080,1.173,-4.981,-0.034,0.934,-0.412,-1.160,-1.862,-0.153,60.000,22153.000,1.000
0.685,-2.999,-5.519,-4.638,-8.206,-3.468,1.885,-1.803,-0.033,0.933,-0.413,-1.129,-1.740,-0.031,60.000,22154.000,1.000
-0.984,-2.191,-4.221,-1.666,-3.156,-3.368,1.962,1.141,-0.040,0.929,-0.418,-1.190,-1.556,0.061,60.000,22155.000,1.000
-3.470,-1.955,-4.064,0.394,1.368,-3.949,1.063,3.293,-0.044,0.928,-0.415,-0.977,-1.404,0.214,60.000,22156.000,1.000
-6.378,-2.206,-4.801,1.521,4.937,-5.149,-0.982,4.831,-0.049,0.929,-0.416,-1.038,-1.221,0.366,60.000,22157.000,1.000
-8.787,-2.150,-5.557,2.273,8.033,-6.297,-3.256,6.673,-0.054,0.928,-0.418,-0.916,-1.190,0.458,60.000,22158.000,1.000
-10.192,-1.056,-5.523,3.227,11.304,-6.549,-4.190,9.326,-0.054,0.928,-0.417,-0.885,-1.190,0.366,60.000,22159.000,1.000
-10.933,1.025,-4.449,4.530,14.790,-5.438,-2.635,12.194,-0.053,0.930,-0.416,-0.793,-1.099,0.244,60.000,22160.000,1.000
-11.325,3.470,-2.669,5.965,17.779,-3.093,1.229,14.161,-0.051,0.935,-0.414,-0.763,-1.068,0.061,60.000,22161.000,1.000
-11.400,5.397,-0.966,7.063,19.079,-0.141,5.518,14.415,-0.051,0.935,-0.414,-0.885,-0.824,0.031,60.000,22162.000,1.000
-9.978,6.733,0.220,7.827,18.239,2.944,8.310,12.922,-0.050,0.937,-0.414,-0.916,-0.885,0.000,60.000,22163.000,1.000
-5.990,7.988,0.867,8.537,15.761,5.704,8.645,10.117,-0.053,0.938,-0.414,-1.038,-0.854,0.153,60.000,22164.000,1.000
0.414,9.535,1.328,9.411,12.688,7.785,7.007,6.833,-0.056,0.942,-0.416,-1.099,-0.702,0.366,60.000,22165.000,1.000
7.959,11.089,2.047,10.276,9.861,9.211,4.952,4.032,-0.058,0.943,-0.417,-1.068,-0.732,0.580,60.000,22166.000,1.000
14.382,11.555,2.958,10.306,7.164,10.145,3.605,2.218,-0.059,0.942,-0.417,-1.129,-0.854,0.793,60.000,22167.000,1.000
18.579,10.659,3.937,9.067,4.304,11.044,3.528,1.711,-0.061,0.940,-0.416,-1.160,-0.946,0.793,60.000,22168.000,1.000
20.766,9.191,5.025,6.879,1.258,12.307,4.462,2.474,-0.062,0.937,-0.415,-1.465,-0.977,0.793,60.000,22169.000,1.000
21.538,7.973,6.448,4.518,-1.780,14.028,5.641,3.701,-0.063,0.930,-0.414,-1.526,-1.099,0.885,60.000,22170.000,1.000
21.094,7.011,8.237,2.578,-4.732,15.786,6.347,3.952,-0.059,0.922,-0.413,-1.556,-1.007,0.732,60.000,22171.000,1.000
18.473,5.371,9.625,0.835,-8.075,16.286,5.551,1.772,-0.055,0.918,-0.414,-1.495,-0.977,0.671,60.000,22172.000,1.000
13.060,2.443,9.552,-1.183,-12.160,14.116,2.374,-3.239,-0.054,0.918,-0.417,-1.373,-0.854,0.519,60.000,22173.000,1.000
5.006,-1.843,7.244,-3.758,-16.733,8.833,-3.492,-9.977,-0.052,0.922,-0.417,-1.099,-0.824,0.488,60.000,22174.000,1.000
-4.263,-6.776,3.109,-6.346,-20.486,1.909,-10.756,-15.876,-0.052,0.925,-0.417,-0.946,-0.702,0.458,60.000,22175.000,1.000
-12.055,-10.686,-1.154,-7.571,-21.403,-3.863,-16.531,-17.981,-0.048,0.924,-0.417,-0.885,-0.641,0.427,60.000,22176.000,1.000
-16.547,-12.189,-3.821,-6.441,-18.379,-6.457,-18.427,-14.886,-0.049,0.925,-0.416,-1.068,-0.336,0.305,60.000,22177.000,1.000
-17.394,-10.908,-4.142,-3.030,-12.059,-5.850,-15.946,-7.878,-0.045,0.924,-0.417,-1.007,-0.031,0.031,60.000,22178.000,1.000
-16.048,-7.955,-3.004,1.163,-4.928,-4.083,-11.323,-0.746,-0.040,0.924,-0.418,-0.916,0.336,-0.092,60.000,22179.000,1.000
-14.315,-5.009,-1.987,4.335,0.291,-3.477,-7.762,2.853,-0.041,0.926,-0.419,-0.580,0.488,-0.183,60.000,22180.000,1.000
-12.626,-3.013,-2.015,5.830,2.431,-4.931,-6.715,1.983,-0.048,0.929,-0.415,-0.458,0.702,0.092,60.000,22181.000,1.000
-10.915,-2.490,-3.305,5.865,1.660,-8.160,-7.834,-1.874,-0.056,0.932,-0.417,-0.336,0.732,0.336,60.000,22182.000,1.000
-8.785,-3.470,-5.370,5.029,-0.968,-12.161,-9.767,-6.378,-0.064,0.937,-0.416,-0.336,0.610,0.732,60.000,22183.000,1.000
-5.926,-5.350,-7.215,3.848,-3.872,-15.640,-11.167,-9.552,-0.069,0.939,-0.411,-0.366,0.397,0.977,60.000,22184.000,1.000
-1.823,-6.613,-7.355,3.002,-5.094,-17.173,-10.698,-10.065,-0.072,0.942,-0.410,-0.427,0.275,1.068,60.000,22185.000,1.000
3.996,-5.659,-4.551,3.047,-3.293,-15.972,-7.452,-7.729,-0.068,0.943,-0.412,-0.641,0.153,0.977,60.000,22186.000,1.000
10.519,-2.462,0.971,3.610,0.886,-12.785,-2.328,-4.027,-0.062,0.942,-0.412,-0.916,-0.061,0.732,60.000,22187.000,1.000
16.420,1.843,7.748,3.977,5.447,-9.118,2.610,-1.010,-0.054,0.938,-0.416,-1.007,-0.031,0.732,60.000,22188.000,1.000
20.754,5.616,13.736,3.601,8.174,-6.267,5.310,0.058,-0.046,0.932,-0.416,-1.129,0.000,0.610,60.000,22189.000,1.000
23.658,7.803,17.461,2.682,8.007,-4.555,5.138,-0.550,-0.044,0.926,-0.418,-1.068,0.183,0.732,60.000,22190.000,1.000
26.413,8.722,18.719,2.195,5.703,-3.304,3.120,-1.615,-0.043,0.923,-0.416,-0.946,0.305,0.854,60.000,22191.000,1.000
29.220,8.894,17.981,2.648,2.754,-1.823,0.391,-2.366,-0.048,0.921,-0.414,-0.793,0.305,0.977,60.000,22192.000,1.000
31.018,8.419,16.055,3.655,0.463,0.119,-2.116,-2.645,-0.052,0.923,-0.416,-0.702,0.397,1.129,60.000,22193.000,1.000
30.189,6.977,13.671,4.181,-0.787,2.054,-3.800,-2.484,-0.054,0.927,-0.415,-0.824,0.458,1.099,60.000,22194.000,1.000
26.290,4.703,11.377,3.568,-1.262,3.354,-4.214,-1.805,-0.054,0.931,-0.414,-0.732,0.397,1.160,60.000,22195.000,1.000
20.798,2.588,9.339,2.114,-1.220,3.850,-3.167,-0.808,-0.055,0.935,-0.414,-0.732,0.397,1.099,60.000,22196.000,1.000
15.301,1.479,7.125,0.594,-0.860,3.769,-1.386,-0.267,-0.053,0.939,-0.417,-0.763,0.336,1.160,60.000,22197.000,1.000
10.940,1.753,4.457,0.111,-0.027,3.681,0.341,-0.562,-0.053,0.940,-0.418,-0.824,0.275,0.977,60.000,22198.000,1.000
7.497,2.745,1.375,1.281,1.219,3.766,1.369,-1.255,-0.058,0.939,-0.418,-0.946,0.244,0.946,60.000,22199.000,1.000
4.016,3.285,-1.642,3.961,2.427,3.838,1.439,-1.543,-0.060,0.938,-0.421,-0.977,0.031,1.007,60.000,22200.000,1.000
0.381,2.990,-3.729,7.561,3.202,3.960,1.019,-1.001,-0.062,0.936,-0.416,-1.068,-0.183,0.732,60.000,22201.000,1.000
-3.131,2.106,-4.414,10.935,3.128,4.194,0.584,0.018,-0.063,0.935,-0.416,-1.129,-0.366,0.641,60.000,22202.000,1.000
-5.861,1.148,-3.921,12.842,2.024,4.396,0.465,0.946,-0.060,0.935,-0.417,-1.129,-0.549,0.519,60.000,22203.000,1.000
-7.685,-0.025,-3.320,12.260,-0.112,3.976,0.468,1.443,-0.059,0.938,-0.420,-1.099,-0.580,0.366,60.000,22204.000,1.000
-8.753,-1.980,-3.640,9.177,-2.709,2.509,0.503,1.747,-0.058,0.939,-0.419,-1.251,-0.793,0.336,60.000,22205.000,1.000
-8.682,-4.783,-4.953,4.821,-4.573,0.221,1.118,2.314,-0.056,0.943,-0.421,-1.312,-0.977,0.214,60.000,22206.000,1.000
-7.490,-8.045,-6.639,0.529,-4.975,-2.565,2.276,2.977,-0.057,0.943,-0.419,-1.495,-1.007,0.153,60.000,22207.000,1.000
-5.296,-10.626,-7.717,-2.743,-3.927,-5.484,3.236,3.230,-0.056,0.940,-0.416,-1.587,-1.007,0.183,60.000,22208.000,1.000
-2.713,-11.412,-7.626,-4.734,-2.198,-8.148,2.954,2.698,-0.052,0.938,-0.418,-1.770,-1.099,0.183,60.000,22209.000,1.000
-0.407,-9.932,-6.396,-5.568,-0.639,-10.013,1.034,1.561,-0.050,0.936,-0.417,-1.740,-1.038,0.153,60.000,22210.000,1.000
1.654,-6.410,-4.482,-5.528,0.401,-10.601,-1.867,0.373,-0.048,0.936,-0.417,-1.740,-0.977,0.214,60.000,22211.000,1.000
3.230,-2.094,-2.767,-5.393,0.718,-9.963,-4.867,-0.786,-0.045,0.933,-0.413,-1.648,-0.977,0.153,60.000,22212.000,1.000
4.330,1.651,-1.763,-5.728,0.429,-8.191,-6.798,-2.198,-0.046,0.933,-0.416,-1.678,-1.007,0.214,60.000,22213.000,1.000
4.939,3.786,-1.490,-6.700,-0.342,-5.609,-7.019,-4.116,-0.047,0.929,-0.416,-1.770,-0.946,0.336,60.000,22214.000,1.000
5.191,4.177,-1.537,-7.964,-1.414,-2.825,-5.732,-6.247,-0.045,0.926,-0.417,-1.648,-0.671,0.488,60.000,22215.000,1.000
5.796,3.987,-1.133,-8.540,-1.983,-0.030,-3.165,-7.542,-0.047,0.926,-0.415,-1.587,-0.671,0.427,60.000,22216.000,1.000
6.674,4.266,0.034,-7.670,-1.280,2.882,0.231,-6.989,-0.046,0.926,-0.410,-1.495,-0.458,0.397,60.000,22217.000,1.000
7.281,5.240,1.593,-5.268,0.714,5.739,3.638,-4.361,-0.047,0.926,-0.407,-1.404,-0.275,0.397,60.000,22218.000,1.000
6.946,6.390,2.761,-1.994,3.105,7.797,5.804,-0.472,-0.045,0.928,-0.410,-1.343,-0.275,0.336,60.000,22219.000,1.000
5.341,7.116,2.997,1.242,4.867,8.469,5.972,3.350,-0.045,0.931,-0.414,-1.282,-0.122,0.183,60.000,22220.000,1.000
2.485,6.867,2.070,3.511,5.290,7.673,4.327,5.809,-0.044,0.931,-0.413,-1.282,0.000,0.183,60.000,22221.000,1.000
-1.822,5.061,0.031,4.176,4.110,5.811,1.628,6.276,-0.047,0.933,-0.411,-1.190,0.183,0.061,60.000,22222.000,1.000
-6.308,2.557,-2.060,3.955,2.427,4.312,-0.147,5.520,-0.046,0.932,-0.410,-1.129,0.275,0.092,60.000,22223.000,1.000
-8.962,1.100,-3.000,4.056,1.763,4.582,0.855,4.603,-0.047,0.931,-0.410,-1.160,0.305,0.061,60.000,22224.000,1.000
-8.782,1.629,-2.548,4.827,2.521,6.736,4.652,3.743,-0.046,0.930,-0.412,-1.282,0.458,-0.061,60.000,22225.000,1.000
-6.176,3.730,-1.312,5.677,3.763,9.612,9.417,2.606,-0.048,0.927,-0.413,-1.251,0.549,-0.031,60.000,22226.000,1.000
-3.006,5.821,-0.186,5.665,3.877,11.490,12.460,1.064,-0.048,0.926,-0.414,-1.099,0.580,0.000,60.000,22227.000,1.000
-0.533,6.699,0.652,4.739,2.271,11.627,12.807,-0.107,-0.050,0.925,-0.415,-1.038,0.610,-0.122,60.000,22228.000,1.000
1.066,6.208,1.612,3.585,-0.234,10.589,11.788,0.183,-0.051,0.925,-0.417,-0.977,0.549,0.061,60.000,22229.000,1.000
2.218,5.039,3.011,2.750,-2.423,9.241,11.212,2.068,-0.050,0.925,-0.413,-0.885,0.580,0.000,60.000,22230.000,1.000
3.449,4.068,4.624,2.189,-3.780,7.659,11.243,4.150,-0.053,0.927,-0.413,-0.793,0.458,-0.031,60.000,22231.000,1.000
4.582,3.554,5.866,1.457,-4.593,5.161,10.179,4.583,-0.053,0.929,-0.414,-0.763,0.336,-0.061,60.000,22232.000,1.000
6.066,3.795,6.701,0.655,-4.822,1.656,7.108,2.880,-0.052,0.933,-0.412,-0.671,0.366,0.031,60.000,22233.000,1.000
8.490,4.842,7.236,-0.022,-4.390,-2.250,2.751,-0.213,-0.052,0.940,-0.412,-0.763,0.214,0.153,60.000,22234.000,1.000
11.815,6.295,7.440,-0.646,-3.560,-5.671,-1.318,-3.339,-0.052,0.945,-0.413,-0.793,0.122,0.183,60.000,22235.000,1.000
15.666,7.840,7.513,-1.140,-2.441,-7.669,-3.510,-4.661,-0.057,0.949,-0.417,-0.885,0.061,0.305,60.000,22236.000,1.000
