Time,FZ,C3,CZ,C4,PZ,PO7,OZ,PO8
217538.1875,659882.5625,427951.78125,443837.34375,317204.78125,223979.78125,208114.953125,220304.25,-0.19677734375
217172.328125,659420.5625,427126.3125,443409.8125,316745.875,223878.484375,207917.90625,219964.59375,-0.19580078125
216833.03125,658764.125,426223.8125,443073.375,316207.8125,223820.1875,207777.71875,219719.265625,-0.194580078125
216956.59375,658697.375,426387.1875,443227.59375,316284.4375,223876.6875,207874.0,219881.0,-0.19482421875
217375.546875,659239.25,427381.75,443634.40625,316870.5,223967.984375,208072.484375,220231.65625,-0.19482421875
217499.5625,659555.0625,427793.375,443694.5,317146.15625,223962.796875,208094.921875,220284.5,-0.19580078125
217138.09375,659093.9375,426972.34375,443270.6875,316689.90625,223857.296875,207897.078125,219943.59375,-0.197265625
216795.296875,658425.0,426055.5625,442928.09375,316140.125,223795.78125,207751.78125,219688.15625,-0.194580078125
216918.59375,658357.3125,426213.28125,443080.25,316214.0,223854.078125,207847.1875,219847.125,-0.1953125
217351.0625,658915.25,427219.46875,443497.625,316813.46875,223951.609375,208051.65625,220207.078125,-0.195556640625
217490.890625,659243.875,427644.40625,443568.6875,317100.0,223957.34375,208083.484375,220268.046875,-0.195068359375
217142.828125,658797.5,426836.625,443154.65625,316658.875,223868.28125,207898.765625,219938.140625,-0.19287109375
216809.25,658135.25,425927.625,442820.0,316123.0625,223819.921875,207765.28125,219695.671875,-0.194091796875
216933.4375,658065.6875,426076.65625,442968.78125,316192.625,223873.109375,207854.515625,219853.375,-0.193603515625
217361.0625,658617.5,427079.625,443381.65625,316788.4375,223963.859375,208056.03125,220211.28125,-0.194091796875
217503.40625,658945.75,427513.0,443452.28125,317077.125,223966.1875,208089.390625,220272.78125,-0.19384765625
217158.921875,658500.75,426713.15625,443038.6875,316635.1875,223875.625,207903.953125,219943.328125,-0.195068359375
216821.40625,657835.5,425798.4375,442700.09375,316091.3125,223823.40625,207768.59375,219695.125,-0.1962890625
216946.671875,657763.9375,425940.9375,442849.0625,316156.21875,223880.71875,207862.03125,219854.546875,-0.1953125
217383.328125,658323.625,426947.3125,443268.90625,316751.5,223973.703125,208063.90625,220217.625,-0.19482421875
217526.734375,658657.1875,427389.15625,443347.0625,317043.0625,223976.375,208097.703125,220283.6875,-0.193115234375
217180.5625,658215.375,426595.40625,442939.34375,316604.34375,223884.828125,207914.0625,219957.1875,-0.193359375
216846.078125,657555.5625,425676.125,442598.90625,316055.125,223828.234375,207775.65625,219706.296875,-0.189208984375
216960.890625,657474.875,425800.46875,442740.96875,316108.40625,223880.171875,207862.65625,219855.4375,-0.187255859375
217387.625,658018.375,426794.6875,443157.40625,316696.875,223973.703125,208064.171875,220213.953125,-0.187744140625
217525.671875,658344.8125,427236.90625,443232.96875,316987.0,223969.046875,208093.953125,220276.453125,-0.189453125
217178.140625,657906.75,426447.96875,442825.28125,316555.34375,223875.0,207911.375,219948.859375,-0.189208984375
216839.734375,657254.5,425531.0,442487.59375,316013.8125,223823.40625,207775.75,219699.78125,-0.187744140625
216949.4375,657173.625,425653.59375,442628.9375,316068.53125,223876.6875,207863.015625,219847.65625,-0.18798828125
217368.046875,657714.0625,426644.21875,443034.21875,316651.46875,223962.703125,208057.734375,220197.78125,-0.186767578125
217513.234375,658055.125,427099.65625,443111.65625,316948.46875,223962.796875,208088.9375,220264.734375,-0.189208984375
217171.796875,657624.8125,426323.4375,442708.3125,316522.96875,223874.1875,207909.40625,219943.671875,-0.1875
216825.609375,656959.125,425392.34375,442359.1875,315968.46875,223811.875,207761.53125,219682.4375,-0.1865234375
216930.21875,656866.0625,425501.875,442494.03125,316011.125,223865.0625,207846.109375,219827.890625,-0.188232421875
217355.34375,657409.625,426500.4375,442912.71875,316600.6875,223961.625,208049.78125,220191.78125,-0.190185546875
217505.375,657754.0,426966.0,442996.3125,316902.25,223963.328125,208083.9375,220266.171875,-0.19140625
217167.234375,657338.375,426191.625,442590.75,316473.71875,223867.75,207898.5,219942.78125,-0.195556640625
216821.859375,656684.1875,425267.09375,442245.90625,315925.65625,223810.171875,207757.78125,219691.109375,-0.198974609375
216918.421875,656583.9375,425366.875,442374.03125,315960.34375,223861.5,207836.0,219831.03125,-0.200439453125
217343.28125,657126.1875,426357.65625,442787.71875,316543.1875,223956.796875,208038.6875,220190.890625,-0.202880859375
217496.25,657476.6875,426830.0,442873.0,316850.46875,223958.328125,208076.0625,220268.3125,-0.202392578125
217146.140625,657049.4375,426049.75,442461.375,316417.84375,223851.21875,207881.78125,219938.765625,-0.2021484375
216788.15625,656373.125,425100.875,442103.59375,315850.71875,223786.75,207731.21875,219674.5625,-0.19970703125
216888.90625,656269.0625,425193.9375,442236.625,315888.8125,223842.09375,207821.25,219822.984375,-0.19873046875
217317.703125,656813.3125,426187.53125,442654.3125,316478.625,223932.84375,208028.40625,220189.375,-0.197998046875
217483.734375,657179.5625,426680.34375,442754.1875,316802.90625,223943.65625,208080.984375,220278.953125,-0.196044921875
217154.453125,656769.375,425923.59375,442352.3125,316392.90625,223858.09375,207909.765625,219965.578125,-0.1953125
216800.578125,656094.75,424978.3125,441990.9375,315836.6875,223793.28125,207761.625,219700.84375,-0.19384765625
216886.046875,655973.125,425057.15625,442107.34375,315863.25,223834.5,207838.421875,219832.546875,-0.19287109375
217302.421875,656496.625,426040.625,442510.8125,316444.46875,223927.125,208039.3125,220185.796875,-0.19091796875
217457.546875,656840.75,426525.21875,442596.84375,316762.5,223933.109375,208080.453125,220258.921875,-0.190673828125
217109.75,656414.0625,425757.9375,442180.90625,316340.15625,223828.234375,207886.875,219926.421875,-0.193603515625
216724.671875,655709.9375,424784.65625,441790.28125,315754.78125,223734.265625,207706.1875,219633.265625,-0.194091796875
216818.8125,655596.4375,424868.9375,441913.0625,315790.8125,223794.265625,207792.375,219775.859375,-0.19384765625
217215.25,656100.4375,425832.59375,442295.8125,316349.96875,223862.921875,207965.921875,220110.421875,-0.19482421875
217398.796875,656473.25,426354.53125,442415.15625,316698.84375,223899.140625,208034.3125,220222.625,-0.19580078125
217135.859375,656145.6875,425687.90625,442086.5,316370.90625,223870.703125,207916.203125,219980.25,-0.19873046875
216821.140625,655524.6875,424791.34375,441767.9375,315859.65625,223855.0625,207810.609375,219760.65625,-0.202392578125
216901.703125,655403.0,424856.25,441877.125,315877.90625,223896.625,207880.171875,219889.234375,-0.204345703125
217318.6875,655927.1875,425838.65625,442283.03125,316457.4375,223988.546875,208081.421875,220247.21875,-0.2060546875
217503.859375,656316.4375,426369.75,442401.84375,316806.40625,224011.078125,208142.9375,220352.890625,-0.207763671875
217172.15625,655918.875,425631.59375,442002.09375,316403.53125,223910.21875,207953.484375,220035.765625,-0.208740234375
216809.15625,655251.5,424683.25,441640.375,315842.78125,223840.65625,207799.34375,219768.078125,-0.208984375
216876.390625,655109.8125,424729.21875,441740.9375,315843.3125,223870.4375,207860.421875,219884.671875,-0.20947265625
217300.09375,655631.3125,425709.5625,442152.21875,316419.28125,223958.59375,208058.0,220242.03125,-0.208984375
217475.875,656004.625,426224.1875,442258.4375,316746.0625,223963.6875,208102.265625,220331.34375,-0.208984375
217148.1875,655610.5,425486.75,441860.46875,316338.09375,223863.453125,207916.734375,220010.828125,-0.2080078125
216788.328125,654942.0,424532.25,441495.6875,315770.625,223794.4375,207764.65625,219736.703125,-0.202392578125
216864.859375,654812.375,424578.46875,441604.59375,315773.46875,223833.328125,207836.8125,219854.984375,-0.19873046875
217284.359375,655334.0625,425551.75,442010.25,316341.21875,223922.640625,208035.5625,220203.234375,-0.195556640625
217459.6875,655708.0625,426078.625,442120.46875,316681.84375,223933.28125,208091.171875,220298.71875,-0.193603515625
217135.5,655318.9375,425358.28125,441728.4375,316288.46875,223837.53125,207915.765625,219985.4375,-0.19091796875
216779.203125,654655.875,424406.8125,441360.78125,315723.59375,223772.796875,207763.765625,219710.328125,-0.191162109375
216851.1875,654516.125,424447.3125,441464.21875,315725.8125,223820.90625,207835.375,219829.953125,-0.1875
217274.609375,655048.6875,425436.96875,441886.6875,316312.5,223924.4375,208048.34375,220199.921875,-0.186279296875
217450.75,655422.3125,425965.625,441998.71875,316649.9375,223941.15625,208099.3125,220295.234375,-0.18408203125
217136.75,655045.6875,425254.21875,441615.40625,316263.53125,223858.90625,207923.625,219989.640625,-0.185546875
216776.171875,654376.3125,424298.4375,441246.625,315696.78125,223803.203125,207765.828125,219713.8125,-0.18310546875
216844.65625,654229.625,424330.8125,441347.65625,315692.75,223863.734375,207839.21875,219829.953125,-0.181884765625
217259.765625,654746.75,425298.09375,441753.28125,316258.6875,223960.015625,208037.0,220180.609375,-0.1796875
217447.078125,655144.0625,425841.78125,441874.6875,316607.46875,223978.4375,208091.359375,220283.6875,-0.177490234375
217129.5,654775.6875,425134.03125,441488.1875,316219.34375,223885.8125,207909.234375,219974.96875,-0.17431640625
216760.96875,654095.3125,424174.625,441119.125,315645.71875,223826.453125,207752.40625,219695.21875,-0.172119140625
216826.328125,653940.4375,424198.5,441219.4375,315633.46875,223878.84375,207822.6875,219808.859375,-0.173095703125
217248.328125,654467.6875,425172.125,441633.75,316205.3125,223980.21875,208028.953125,220169.796875,-0.174560546875
217437.609375,654866.5625,425723.0625,441761.15625,316559.375,223995.875,208088.3125,220278.15625,-0.174560546875
217122.53125,654494.9375,425025.25,441381.09375,316175.71875,223903.78125,207912.625,219973.1875,-0.176025390625
216759.8125,653818.3125,424068.59375,441015.40625,315609.5,223839.40625,207758.484375,219699.421875,-0.178466796875
216820.421875,653658.8125,424079.9375,441107.5,315593.5,223874.28125,207819.734375,219806.96875,-0.18017578125
217238.3125,654169.875,425044.0,441523.78125,316165.53125,223967.34375,208025.28125,220165.9375,-0.181640625
217428.21875,654565.3125,425596.71875,441652.15625,316523.0625,223974.140625,208081.609375,220271.09375,-0.182373046875
217122.265625,654207.3125,424908.03125,441277.71875,316147.8125,223879.46875,207908.6875,219966.484375,-0.183349609375
216759.359375,653538.0625,423947.25,440910.34375,315576.96875,223806.78125,207752.859375,219686.1875,-0.183349609375
216816.671875,653373.8125,423947.6875,440999.59375,315554.6875,223836.015625,207814.734375,219790.34375,-0.18310546875
217233.125,653888.625,424909.625,441413.71875,316124.3125,223922.296875,208017.0625,220148.25,-0.1845703125
217420.4375,654282.8125,425466.1875,441543.8125,316481.75,223925.859375,208069.359375,220255.0,-0.185302734375
217111.71875,653922.125,424779.53125,441170.4375,316108.5,223830.828125,207895.546875,219952.0,-0.18603515625
216746.578125,653245.3125,423811.90625,440797.78125,315530.84375,223759.5625,207737.84375,219669.828125,-0.187255859375
216799.234375,653073.5625,423803.3125,440883.96875,315499.34375,223795.78125,207799.96875,219774.515625,-0.188720703125
217212.296875,653576.5,424756.5625,441296.0625,316060.125,223887.6875,208003.203125,220132.859375,-0.18896484375
217412.828125,653978.375,425320.46875,441435.4375,316422.84375,223901.015625,208065.609375,220248.828125,-0.1875
217106.890625,653617.4375,424635.875,441063.875,316048.5,223809.375,207891.703125,219949.40625,-0.189453125
216741.203125,652940.625,423662.0625,440692.75,315470.46875,223745.53125,207735.515625,219669.296875,-0.18994140625
216789.046875,652759.375,423645.78125,440778.9375,315436.78125,223789.515625,207796.40625,219773.1875,-0.189208984375
217207.640625,653268.9375,424603.25,441194.21875,315998.53125,223891.4375,208000.515625,220131.875,-0.18798828125
217412.5625,653682.875,425178.125,441332.90625,316363.125,223917.375,208065.0625,220248.5625,-0.186767578125
217108.40625,653329.375,424509.1875,440964.09375,315995.75,223833.78125,207895.734375,219950.828125,-0.19384765625
216739.0625,652646.9375,423538.65625,440589.75,315414.6875,223775.3125,207735.875,219664.1875,-0.197021484375
216791.28125,652473.1875,423521.0625,440670.90625,315374.28125,223819.03125,207791.125,219761.28125,-0.198974609375
217208.546875,652981.75,424480.9375,441084.96875,315936.46875,223926.578125,207997.828125,220124.109375,-0.202392578125
217408.09375,653386.875,425061.625,441222.21875,316305.625,223950.0,208060.234375,220243.109375,-0.205078125
217106.890625,653041.0,424401.625,440853.75,315944.15625,223861.765625,207888.484375,219947.25,-0.207275390625
216737.640625,652366.875,423436.65625,440481.46875,315371.25,223802.03125,207730.328125,219665.265625,-0.20703125
216784.3125,652188.5,423416.53125,440566.84375,315335.84375,223850.40625,207794.875,219769.515625,-0.204833984375
217192.984375,652679.375,424360.6875,440975.1875,315886.59375,223943.75,207995.859375,220122.140625,-0.20458984375
217397.1875,653087.6875,424948.53125,441123.15625,316263.25,223956.71875,208060.953125,220243.375,-0.204345703125
217104.828125,652747.9375,424298.34375,440765.96875,315913.40625,223871.234375,207898.6875,219954.859375,-0.201171875
216728.96875,652062.4375,423320.15625,440383.9375,315334.21875,223798.546875,207737.390625,219665.265625,-0.20263671875
216765.171875,651865.25,423279.46875,440453.65625,315286.46875,223830.640625,207790.046875,219753.953125,-0.201904296875
217176.09375,652360.0,424229.96875,440867.875,315849.375,223923.546875,207996.140625,220112.75,-0.20166015625
217385.921875,652772.8125,424831.5,441020.6875,316241.25,223941.78125,208067.296875,220241.671875,-0.202880859375
217097.765625,652439.875,424184.625,440656.09375,315897.5625,223849.421875,207900.640625,219947.796875,-0.202880859375
216721.90625,651752.3125,423203.125,440274.125,315323.9375,223776.375,207738.203125,219655.609375,-0.198974609375
216752.03125,651541.5625,423152.15625,440345.375,315278.96875,223809.28125,207790.3125,219743.40625,-0.201416015625
217165.984375,652032.625,424097.09375,440757.8125,315842.9375,223905.65625,207995.421875,220098.625,-0.200439453125
217379.3125,652454.6875,424700.96875,440908.375,316235.09375,223924.078125,208066.671875,220224.953125,-0.198974609375
217083.1875,652112.25,424056.0625,440544.9375,315892.40625,223834.671875,207899.75,219933.578125,-0.197998046875
216706.96875,651420.25,423071.5,440158.0,315313.65625,223765.375,207734.34375,219640.59375,-0.1962890625
216743.09375,651220.4375,423021.625,440224.875,315264.9375,223801.40625,207785.671875,219730.53125,-0.198486328125
217153.828125,651716.125,423968.625,440636.15625,315827.40625,223900.03125,207991.03125,220091.734375,-0.19921875
217364.90625,652135.4375,424578.03125,440790.90625,316221.59375,223923.8125,208061.84375,220223.078125,-0.198486328125
217077.734375,651810.0625,423943.84375,440432.84375,315882.1875,223838.34375,207894.296875,219934.5625,-0.198486328125
216700.890625,651128.1875,422959.21875,440049.1875,315299.4375,223771.453125,207728.453125,219642.734375,-0.197265625
216729.3125,650919.5625,422894.03125,440115.71875,315238.46875,223815.53125,207780.390625,219733.484375,-0.194091796875
217137.46875,651407.5625,423826.90625,440526.09375,315788.0625,223914.953125,207982.09375,220093.609375,-0.194580078125
217359.375,651841.0,424442.03125,440685.125,316181.34375,223943.125,208059.078125,220233.265625,-0.194091796875
217072.28125,651521.0,423813.5,440330.8125,315842.5,223861.40625,207897.875,219951.546875,-0.193359375
216687.921875,650830.875,422818.5,439941.375,315251.625,223792.46875,207728.546875,219656.5,-0.1943359375
216718.859375,650619.6875,422745.34375,440003.59375,315184.09375,223832.078125,207778.875,219742.6875,-0.194091796875
217124.953125,651101.9375,423671.0,440409.9375,315724.21875,223923.90625,207975.84375,220095.765625,-0.195068359375
217348.015625,651541.125,424293.34375,440576.78125,316118.40625,223946.875,208050.765625,220234.15625,-0.1953125
217067.453125,651233.3125,423677.15625,440230.5,315788.3125,223870.078125,207895.375,219956.90625,-0.193359375
216677.828125,650534.125,422677.125,439830.9375,315192.6875,223797.65625,207726.03125,219654.8125,-0.19287109375
216694.890625,650309.1875,422591.9375,439882.96875,315115.71875,223822.875,207767.15625,219732.5,-0.19482421875
217099.28125,650789.3125,423519.1875,440287.625,315655.65625,223911.03125,207965.828125,220086.1875,-0.19384765625
217324.765625,651228.8125,424155.84375,440457.96875,316061.5625,223933.5625,208045.484375,220229.875,-0.194091796875
217047.609375,650918.5625,423553.34375,440116.40625,315744.96875,223854.4375,207891.890625,219953.609375,-0.195556640625
216664.234375,650225.0625,422557.875,439720.78125,315159.4375,223778.609375,207725.328125,219653.203125,-0.195556640625
216678.265625,649991.8125,422465.4375,439768.34375,315087.71875,223801.859375,207766.71875,219727.40625,-0.1962890625
217078.28125,650461.5625,423387.5625,440171.5,315632.9375,223888.140625,207961.71875,220074.125,-0.19677734375
217312.515625,650906.625,424034.59375,440346.09375,316052.59375,223915.859375,208045.671875,220221.375,-0.198974609375
217036.703125,650602.4375,423438.0,439999.125,315739.5,223831.71875,207889.203125,219945.109375,-0.201171875
216659.765625,649923.3125,422454.78125,439607.0625,315164.4375,223763.59375,207726.578125,219651.5,-0.20068359375
216680.765625,649692.1875,422365.8125,439658.3125,315100.5,223797.921875,207774.765625,219729.640625,-0.19970703125
217080.0625,650149.8125,423284.46875,440059.09375,315644.5625,223890.109375,207971.28125,220077.34375,-0.2021484375
217313.59375,650587.0625,423932.25,440231.75,316061.1875,223917.375,208051.390625,220222.984375,-0.200927734375
217044.65625,650295.25,423345.90625,439892.0,315755.875,223835.828125,207897.34375,219949.578125,-0.203125
216653.765625,649605.125,422346.875,439493.4375,315168.28125,223756.890625,207723.265625,219643.8125,-0.202880859375
216658.859375,649361.8125,422240.46875,439535.71875,315084.34375,223788.171875,207763.140625,219714.4375,-0.203857421875
217062.1875,649832.625,423162.875,439938.78125,315624.96875,223889.75,207965.921875,220068.21875,-0.204833984375
217297.671875,650277.4375,423823.4375,440116.59375,316042.0625,223916.65625,208044.421875,220216.90625,-0.205322265625
217024.71875,649980.625,423241.3125,439775.875,315730.9375,223834.21875,207885.71875,219941.53125,-0.20703125
216636.15625,649288.8125,422239.84375,439376.75,315137.71875,223764.671875,207715.75,219637.734375,-0.20703125
216643.578125,649040.875,422122.8125,439417.71875,315043.125,223803.015625,207759.203125,219706.125,-0.205322265625
217048.40625,649504.875,423032.25,439820.9375,315573.21875,223899.40625,207961.359375,220059.90625,-0.206787109375
217295.4375,649965.0,423702.1875,440009.75,315997.4375,223932.75,208052.640625,220220.75,-0.206298828125
217024.8125,649671.4375,423121.3125,439668.5,315682.65625,223847.09375,207894.03125,219944.65625,-0.205810546875
216632.046875,648980.1875,422112.90625,439263.75,315083.71875,223766.984375,207720.21875,219636.828125,-0.2041015625
216626.140625,648726.4375,421978.78125,439296.1875,314977.84375,223794.890625,207754.46875,219695.84375,-0.203857421875
217027.140625,649186.875,422888.21875,439702.28125,315510.625,223892.15625,207957.25,220050.15625,-0.203857421875
217269.25,649638.1875,423555.46875,439885.3125,315937.53125,223918.359375,208039.671875,220206.453125,-0.202880859375
217006.484375,649354.5,422987.90625,439551.375,315644.8125,223837.171875,207886.34375,219941.53125,-0.20263671875
216621.140625,648666.25,421982.0,439148.6875,315058.40625,223767.890625,207718.890625,219635.9375,-0.203125
216624.171875,648409.5,421847.25,439184.09375,314962.5625,223798.375,207758.484375,219698.25,-0.202880859375
217025.53125,648871.4375,422761.71875,439593.46875,315505.15625,223896.546875,207964.75,220052.125,-0.20166015625
217267.453125,649324.125,423440.6875,439777.46875,315938.875,223922.921875,208051.5625,220208.140625,-0.1982421875
217003.171875,649039.4375,422880.09375,439444.96875,315651.15625,223841.375,207897.703125,219943.328125,-0.196533203125
216611.125,648345.0,421867.84375,439041.3125,315062.53125,223770.484375,207725.765625,219632.8125,-0.197265625
216603.4375,648075.375,421714.75,439068.375,314955.5,223802.390625,207759.46875,219684.84375,-0.196044921875
217007.28125,648534.0,422621.71875,439477.59375,315495.96875,223901.1875,207963.046875,220041.671875,-0.19482421875
217257.0,648992.75,423307.0,439670.28125,315934.6875,223925.234375,208046.5625,220202.328125,-0.19384765625
217001.828125,648718.375,422757.59375,439343.9375,315653.3125,223848.265625,207895.640625,219939.75,-0.195068359375
216612.46875,648022.1875,421740.4375,438935.1875,315064.21875,223777.0,207724.6875,219630.84375,-0.196044921875
216600.125,647750.4375,421580.75,438956.1875,314953.625,223803.921875,207757.421875,219685.203125,-0.195068359375
217006.03125,648212.625,422489.9375,439364.5,315490.78125,223906.015625,207964.75,220045.953125,-0.195068359375
217263.171875,648686.4375,423189.96875,439565.03125,315934.21875,223939.90625,208060.421875,220216.453125,-0.194580078125
217001.46875,648413.125,422643.25,439232.28125,315644.1875,223852.46875,207903.78125,219949.765625,-0.19580078125
216609.25,647725.75,421631.09375,438827.15625,315052.40625,223776.46875,207729.796875,219642.640625,-0.19775390625
216596.640625,647455.875,421465.21875,438848.90625,314936.4375,223808.65625,207761.625,219696.640625,-0.195068359375
216990.484375,647907.4375,422358.84375,439245.78125,315456.53125,223898.859375,207956.890625,220047.125,-0.1943359375
217243.234375,648378.8125,423059.0,439441.40625,315891.3125,223923.8125,208043.609375,220212.34375,-0.193603515625
216989.21875,648117.8125,422525.40625,439115.15625,315604.84375,223843.515625,207891.625,219950.203125,-0.192138671875
216596.375,647431.375,421510.90625,438703.96875,315002.34375,223770.390625,207719.953125,219638.625,-0.1953125
216586.984375,647167.625,421349.4375,438727.9375,314883.0,223799.265625,207758.84375,219699.421875,-0.197509765625
216981.625,647618.25,422247.625,439130.78125,315402.875,223891.359375,207954.203125,220054.71875,-0.19677734375
217236.171875,648087.0625,422956.71875,439330.09375,315838.5625,223914.6875,208038.328125,220222.1875,-0.19384765625
216993.34375,647846.5,422440.65625,439011.34375,315561.75,223830.921875,207889.203125,219965.671875,-0.196044921875
216596.640625,647163.6875,421429.03125,438600.15625,314959.96875,223752.328125,207711.46875,219652.484375,-0.19677734375
216575.546875,646884.0,421251.8125,438610.53125,314826.9375,223777.453125,207736.40625,219698.25,-0.19677734375
216971.34375,647330.9375,422149.71875,439010.71875,315348.09375,223873.5625,207937.3125,220050.078125,-0.1953125
217241.4375,647821.8125,422887.25,439225.9375,315809.59375,223911.203125,208042.265625,220234.078125,-0.1953125
217003.359375,647587.5625,422391.40625,438916.21875,315553.1875,223838.15625,207903.515625,219986.421875,-0.19580078125
216599.40625,646889.75,421374.125,438498.59375,314955.125,223760.828125,207723.71875,219666.515625,-0.19580078125
216578.40625,646611.125,421197.0,438512.46875,314833.1875,223786.65625,207750.53125,219711.125,-0.196533203125
216975.375,647064.0625,422104.3125,438918.90625,315365.78125,223886.078125,207953.578125,220064.921875,-0.1962890625
217240.734375,647545.625,422846.5625,439131.0625,315826.3125,223914.15625,208048.171875,220240.15625,-0.1962890625
217002.71875,647314.9375,422365.65625,438826.71875,315580.71875,223830.734375,207902.609375,219993.125,-0.19677734375
216599.234375,646633.6875,421360.53125,438411.96875,314994.5625,223746.609375,207718.609375,219671.53125,-0.19775390625
216574.46875,646363.5625,421192.09375,438423.5,314875.65625,223769.5,207742.75,219713.90625,-0.197265625
216978.140625,646828.5625,422124.6875,438835.5,315421.65625,223868.90625,207949.375,220075.640625,-0.197998046875
217267.109375,647359.5,422935.96875,439078.5,315932.09375,223916.484375,208067.125,220285.484375,-0.19775390625
217042.328125,647162.25,422516.375,438791.3125,315723.6875,223849.875,207935.875,220058.828125,-0.198974609375
216652.34375,646521.4375,421571.8125,438392.84375,315172.9375,223774.40625,207763.671875,219755.484375,-0.200927734375
216628.296875,646275.5,421452.96875,438415.1875,315084.25,223795.875,207792.015625,219810.734375,-0.2001953125
217040.546875,646779.3125,422454.59375,438851.125,315676.03125,223900.390625,208010.796875,220195.265625,-0.199462890625
217327.359375,647334.0625,423328.8125,439104.59375,316218.1875,223940.265625,208123.265625,220407.609375,-0.20068359375
217111.359375,647187.4375,422988.09375,438833.34375,316054.3125,223868.109375,207995.953125,220190.078125,-0.2001953125
216724.484375,646583.8125,422110.5625,438438.53125,315540.3125,223785.9375,207824.390625,219894.59375,-0.200439453125
216701.875,646376.0625,422058.71875,438465.53125,315487.28125,223808.828125,207853.171875,219956.28125,-0.201416015625
217108.765625,646909.9375,423118.90625,438899.40625,316102.5,223907.53125,208061.9375,220338.671875,-0.200439453125
217405.953125,647509.875,424067.25,439163.6875,316686.40625,223952.78125,208182.546875,220566.84375,-0.199462890625
217198.265625,647410.25,423792.5,438896.46875,316560.4375,223887.0625,208057.921875,220358.96875,-0.200439453125
216806.390625,646825.4375,422951.0,438499.6875,316065.65625,223814.375,207884.28125,220062.40625,-0.20263671875
216782.515625,646633.5,422924.8125,438526.5,316027.75,223844.421875,207915.484375,220123.65625,-0.20361328125
217187.984375,647186.375,424009.84375,438954.40625,316657.96875,223947.59375,208123.546875,220502.296875,-0.202880859375
217481.953125,647811.5,424983.9375,439209.375,317254.59375,223988.546875,208234.5,220723.046875,-0.20263671875
217260.578125,647705.9375,424712.75,438928.125,317125.75,223918.265625,208101.8125,220502.734375,-0.20263671875
216859.5,647119.125,423863.46875,438522.5625,316625.53125,223845.671875,207930.78125,220195.453125,-0.201416015625
216824.8125,646919.875,423814.40625,438532.84375,316567.875,223861.578125,207948.84375,220239.890625,-0.20166015625
217222.125,647461.5,424880.84375,438952.6875,317186.75,223955.453125,208149.375,220612.078125,-0.202392578125
217511.546875,648080.1875,425849.75,439208.125,317783.34375,223993.71875,208262.828125,220831.765625,-0.202880859375
217284.625,647968.6875,425562.5625,438918.09375,317645.46875,223916.296875,208123.265625,220595.90625,-0.20166015625
216874.78125,647365.625,424682.28125,438495.46875,317129.6875,223837.625,207940.171875,220269.296875,-0.198974609375
216828.296875,647134.875,424595.90625,438490.46875,317061.75,223863.109375,207964.75,220301.84375,-0.1953125
217213.71875,647651.3125,425625.4375,438894.0625,317664.53125,223960.28125,208170.125,220659.296875,-0.196044921875
217507.34375,648268.375,426575.8125,439147.34375,318257.84375,224006.6875,208292.96875,220874.5,-0.1943359375
217279.53125,648144.625,426269.0625,438855.875,318119.34375,223920.0625,208155.015625,220637.390625,-0.193359375
216861.375,647522.75,425361.6875,438424.40625,317598.71875,223828.0625,207964.84375,220301.578125,-0.194580078125
216807.1875,647276.25,425242.9375,438408.375,317518.25,223846.390625,207974.765625,220318.828125,-0.193359375
217203.890625,647784.25,426259.5,438814.75,318122.90625,223949.65625,208176.921875,220676.1875,-0.197998046875
217489.546875,648375.75,427189.875,439056.15625,318705.59375,223987.828125,208286.4375,220881.640625,-0.198486328125
217249.484375,648233.8125,426864.15625,438753.40625,318560.65625,223904.5,208140.265625,220635.421875,-0.19775390625
216836.609375,647618.5625,425933.875,438313.71875,318034.21875,223819.5625,207947.9375,220294.953125,-0.197021484375
216783.671875,647368.625,425782.78125,438289.3125,317942.5,223846.109375,207963.859375,220310.96875,-0.196533203125
217165.0,647845.75,426746.59375,438675.53125,318515.875,223946.25,208159.484375,220653.21875,-0.197998046875
217464.421875,648440.125,427652.46875,438922.65625,319090.125,223994.265625,208275.265625,220862.78125,-0.198974609375
217235.359375,648300.125,427300.09375,438627.53125,318929.8125,223921.75,208135.703125,220617.890625,-0.19775390625
216811.390625,647654.25,426322.25,438183.0,318364.5,223833.328125,207940.703125,220269.203125,-0.19775390625
216746.21875,647369.25,426114.46875,438144.71875,318223.84375,223843.4375,207942.671875,220273.328125,-0.195556640625
217130.484375,647844.625,427052.1875,438532.9375,318774.15625,223937.578125,208140.171875,220624.421875,-0.194580078125
217419.71875,648416.8125,427917.5625,438765.75,319310.40625,223980.5,208255.953125,220826.578125,-0.19580078125
217188.78125,648247.75,427509.6875,438443.875,319101.125,223901.09375,208109.0625,220566.21875,-0.196533203125
216759.53125,647558.9375,426463.34375,437976.90625,318483.21875,223807.046875,207908.0625,220202.328125,-0.19873046875
216690.875,647240.1875,426203.1875,437940.625,318304.21875,223813.921875,207914.421875,220201.796875,-0.199462890625
217046.796875,647652.375,427059.34375,438318.96875,318794.09375,223884.109375,208091.359375,220525.1875,-0.1962890625
217323.421875,648172.4375,427857.90625,438549.75,319286.8125,223910.125,208190.953125,220713.46875,-0.19580078125
217098.390625,647976.75,427406.3125,438231.09375,319049.53125,223823.234375,208039.140625,220444.8125,-0.197509765625
216663.421875,647256.6875,426305.90625,437748.84375,318399.625,223720.234375,207825.1875,220061.34375,-0.197265625
216583.859375,646896.625,425984.46875,437684.5625,318184.78125,223727.203125,207823.21875,220041.046875,-0.1982421875
216957.484375,647303.5,426819.1875,438061.65625,318670.4375,223823.3125,208023.5,220375.515625,-0.198486328125
217242.515625,647814.5,427600.0625,438289.65625,319156.375,223858.90625,208136.328125,220566.40625,-0.19775390625
217021.5,647612.875,427132.90625,437977.4375,318920.25,223777.8125,207996.40625,220311.046875,-0.19677734375
216586.453125,646875.6875,425999.9375,437501.25,318260.875,223676.6875,207784.328125,219932.40625,-0.195068359375
216503.828125,646482.0625,425632.75,437440.90625,318026.53125,223695.203125,207780.578125,219909.890625,-0.194091796875
216875.671875,646853.8125,426419.34375,437813.375,318489.3125,223805.171875,207976.015625,220240.0625,-0.191650390625
217164.1875,647348.3125,427167.25,438040.46875,318961.46875,223852.828125,208085.359375,220433.1875,-0.192626953125
216941.84375,647125.0625,426667.90625,437725.0625,318709.15625,223778.875,207943.828125,220176.9375,-0.194091796875
216519.578125,646386.9375,425520.28125,437259.59375,318053.0,223700.65625,207752.5,219817.609375,-0.1953125
216443.84375,645994.875,425128.6875,437199.59375,317812.125,223719.96875,207752.234375,219803.671875,-0.19482421875
216812.921875,646344.875,425886.03125,437572.0,318253.4375,223819.734375,207940.609375,220127.140625,-0.19384765625
217121.90625,646837.9375,426641.96875,437828.3125,318733.125,223873.5625,208065.0625,220340.015625,-0.192138671875
216914.921875,646634.375,426161.875,437537.75,318489.9375,223789.96875,207922.375,220098.4375,-0.196533203125
216483.265625,645887.75,425002.15625,437067.65625,317815.8125,223693.046875,207713.078125,219726.15625,-0.197265625
216396.1875,645476.75,424586.875,436995.21875,317549.71875,223699.84375,207702.078125,219697.625,-0.19775390625
216778.578125,645847.1875,425354.6875,437373.9375,317995.4375,223802.65625,207898.859375,220033.0,-0.19873046875
217085.15625,646348.625,426114.84375,437625.09375,318470.1875,223853.453125,208020.359375,220248.015625,-0.197021484375
216872.640625,646134.25,425633.75,437331.65625,318217.34375,223771.015625,207879.09375,220006.71875,-0.196044921875
216463.953125,645407.0,424489.6875,436887.03125,317551.59375,223690.71875,207687.859375,219657.84375,-0.1962890625
216386.0,645001.5625,424072.0625,436830.25,317280.34375,223703.25,207683.390625,219642.015625,-0.19482421875
216759.71875,645358.4375,424820.21875,437210.96875,317706.375,223796.21875,207875.4375,219977.75,-0.1962890625
217078.8125,645866.5625,425581.96875,437474.4375,318175.5625,223843.078125,207999.71875,220201.703125,-0.194091796875
216873.265625,645657.875,425103.90625,437184.0625,317919.59375,223763.140625,207861.046875,219963.609375,-0.189208984375
216439.546875,644900.5,423924.09375,436707.875,317221.25,223668.015625,207654.78125,219588.28125,-0.187744140625
216342.640625,644467.0625,423472.40625,436631.96875,316920.75,223673.828125,207640.921875,219553.5,-0.185546875
216706.609375,644797.6875,424193.21875,437010.59375,317329.4375,223771.1875,207834.84375,219883.859375,-0.185546875
217021.234375,645290.4375,424938.6875,437275.0625,317790.21875,223825.46875,207963.765625,220106.125,-0.184814453125
216829.546875,645087.75,424455.71875,436990.46875,317535.875,223757.515625,207834.046875,219873.140625,-0.1845703125
216397.796875,644314.875,423257.84375,436515.09375,316828.84375,223666.5,207626.53125,219496.375,-0.185302734375
216303.828125,643869.5625,422795.25,436449.125,316535.21875,223681.421875,207622.0625,219475.546875,-0.1845703125
216663.34375,644174.8125,423487.71875,436820.4375,316938.28125,223777.71875,207812.140625,219805.546875,-0.183837890625
216972.421875,644641.4375,424212.96875,437078.0,317394.4375,223821.265625,207930.59375,220021.734375,-0.185302734375
216782.96875,644432.5,423729.09375,436805.6875,317159.28125,223750.625,207805.609375,219796.421875,-0.182373046875
216351.578125,643658.9375,422523.375,436335.84375,316467.46875,223659.875,207603.8125,219425.828125,-0.179443359375
216243.125,643184.875,422018.03125,436243.40625,316153.90625,223659.875,207580.921875,219379.15625,-0.179931640625
216597.890625,643474.9375,422684.125,436604.0625,316548.90625,223756.0,207766.09375,219696.640625,-0.181884765625
216914.21875,643946.4375,423398.5625,436858.34375,317002.8125,223807.671875,207883.21875,219910.15625,-0.181884765625
216732.0,643736.8125,422897.53125,436578.40625,316755.78125,223742.671875,207754.921875,219679.921875,-0.18212890625
216302.578125,642957.8125,421664.25,436096.3125,316044.5625,223657.015625,207552.3125,219305.140625,-0.178955078125
216184.734375,642456.9375,421098.75,435986.4375,315692.9375,223663.1875,207530.5,219249.609375,-0.178466796875
216539.328125,642714.25,421688.375,436334.15625,316039.1875,223766.984375,207719.0625,219566.03125,-0.17578125
216854.9375,643150.0,422321.375,436585.8125,316444.03125,223824.390625,207845.21875,219783.015625,-0.173095703125
216643.9375,642863.3125,421710.46875,436286.03125,316120.5625,223750.453125,207708.15625,219535.265625,-0.169921875
216195.921875,642008.5,420364.1875,435792.25,315335.03125,223650.9375,207495.453125,219143.21875,-0.1669921875
216074.6875,641446.75,419687.375,435671.09375,314913.125,223640.921875,207463.8125,219075.53125,-0.1669921875
216413.359375,641632.1875,420152.28125,435987.875,315176.875,223725.59375,207637.609375,219364.046875,-0.16455078125
216716.359375,641996.5625,420684.34375,436216.5,315519.21875,223773.703125,207759.921875,219563.96875,-0.167724609375
216519.75,641686.6875,420023.625,435908.46875,315163.8125,223698.859375,207627.875,219313.1875,-0.17041015625
216080.046875,640820.6875,418647.84375,435407.875,314353.53125,223599.625,207418.03125,218918.453125,-0.1748046875
215971.328125,640268.5,417988.1875,435304.53125,313935.0,223597.46875,207395.671875,218869.453125,-0.176025390625
216333.609375,640491.3125,418532.3125,435665.90625,314239.0,223683.65625,207580.390625,219190.515625,-0.18017578125
216673.703125,640932.1875,419210.28125,435959.71875,314658.3125,223737.671875,207717.28125,219437.1875,-0.182861328125
216519.03125,640738.5625,418744.125,435726.53125,314413.40625,223668.828125,207602.65625,219247.640625,-0.186279296875
216119.5625,639986.875,417567.96875,435294.25,313719.96875,223585.9375,207412.84375,218916.125,-0.187744140625
216036.59375,639520.625,417076.40625,435236.59375,313393.1875,223603.828125,207411.765625,218912.09375,-0.190673828125
216416.84375,639827.9375,417776.28125,435638.75,313777.03125,223704.21875,207616.78125,219278.3125,-0.1923828125
216763.296875,640341.1875,418589.28125,435955.25,314256.34375,223752.234375,207755.09375,219552.53125,-0.191162109375
216621.578125,640210.125,418270.71875,435761.40625,314082.78125,223691.171875,207658.09375,219402.59375,-0.1884765625
216235.078125,639538.0,417263.71875,435375.875,313467.9375,223607.21875,207487.671875,219111.75,-0.189697265625
216161.3125,639169.0,416959.65625,435370.6875,313231.625,223618.3125,207506.09375,219148.21875,-0.1904296875
216559.0,639582.5625,417858.625,435822.75,313716.5,223721.21875,207735.15625,219554.21875,-0.1875
216945.140625,640240.375,418918.375,436207.71875,314328.21875,223787.640625,207916.5625,219886.1875,-0.18408203125
216840.359375,640270.75,418882.25,436076.125,314302.5625,223737.75,207853.0,219787.484375,-0.181640625
216503.65625,639803.0,418223.34375,435768.1875,313886.625,223678.484375,207725.5,219564.859375,-0.1826171875
216480.046875,639666.125,418327.9375,435851.09375,313894.78125,223716.5625,207781.640625,219679.125,-0.1806640625
216923.875,640322.0,419681.375,436397.8125,314659.28125,223842.265625,208037.265625,220167.90625,-0.181640625
217372.953125,641264.5,421256.09375,436900.625,315606.75,223945.0,208259.96875,220607.34375,-0.180908203125
217335.3125,641605.4375,421766.96875,436893.46875,315948.625,223929.53125,208232.078125,220625.5,-0.1806640625
217036.875,641423.8125,421627.5,436686.59375,315882.375,223884.109375,208118.0,220497.203125,-0.182861328125
217017.484375,641499.1875,422123.0,436809.25,316166.59375,223926.140625,208165.734375,220654.375,-0.18603515625
217420.4375,642266.25,423673.65625,437322.53125,317092.84375,224042.71875,208389.796875,221121.703125,-0.185791015625
217781.1875,643188.1875,425216.125,437707.4375,318055.3125,224107.1875,208539.28125,221460.015625,-0.185546875
217654.0625,643460.5,425588.5,437568.59375,318341.15625,224051.484375,208444.78125,221355.59375,-0.18798828125
217277.828125,643177.625,425249.5625,437233.3125,318183.34375,223964.765625,208272.84375,221105.171875,-0.187744140625
217177.96875,643117.625,425481.21875,437217.40625,318322.21875,223960.828125,208261.578125,221130.640625,-0.18798828125
217471.671875,643642.75,426565.71875,437528.625,318968.0,224031.09375,208414.828125,221408.171875,-0.18896484375
217751.421875,644318.9375,427646.75,437745.15625,319640.59375,224070.796875,208524.34375,221588.765625,-0.19091796875
217574.21875,644400.75,427686.875,437496.96875,319704.53125,223995.609375,208413.671875,221384.46875,-0.19189453125
217177.0625,643981.75,427083.375,437085.15625,319366.125,223902.984375,208236.453125,221066.8125,-0.193603515625
217074.34375,643831.8125,427132.75,437038.6875,319382.21875,223912.09375,208240.390625,221066.0,-0.193115234375
217373.5,644297.5,428136.96875,437360.53125,319978.375,223983.171875,208396.765625,221349.515625,-0.19287109375
217653.96875,644927.5,429160.5625,437581.5625,320626.9375,224005.078125,208475.09375,221527.96875,-0.193359375
217501.078125,644983.6875,429132.875,437347.5,320681.125,223939.359375,208358.328125,221334.765625,-0.192626953125
217120.203125,644541.8125,428491.53125,436950.59375,320330.46875,223861.3125,208193.453125,221032.03125,-0.19287109375
217008.8125,644325.25,428439.96875,436885.6875,320286.84375,223875.890625,208183.359375,221013.4375,-0.191650390625
217287.671875,644709.75,429303.625,437169.9375,320789.65625,223947.40625,208325.78125,221264.046875,-0.191650390625
217557.671875,645258.75,430184.65625,437361.875,321335.5625,223972.453125,208416.265625,221412.1875,-0.191650390625
217404.34375,645259.875,430050.1875,437111.71875,321306.25,223903.96875,208308.078125,221200.5625,-0.190185546875
217033.03125,644798.125,429343.875,436720.03125,320916.0,223829.484375,208145.359375,220899.171875,-0.18994140625
216910.71875,644549.625,429201.71875,436643.3125,320820.15625,223833.328125,208128.1875,220862.15625,-0.188232421875
217182.34375,644886.6875,429954.25,436913.25,321262.8125,223909.765625,208270.703125,221096.578125,-0.185791015625
217448.59375,645384.75,430725.125,437096.4375,321752.5625,223949.5625,208358.953125,221240.609375,-0.182861328125
217298.75,645352.5,430500.0625,436844.5625,321673.90625,223894.84375,208241.734375,221029.703125,-0.180908203125
216920.46875,644847.25,429695.3125,436444.84375,321221.21875,223825.375,208063.546875,220721.78125,-0.1787109375
216805.765625,644557.4375,429463.3125,436368.46875,321071.1875,223838.96875,208045.484375,220695.328125,-0.176025390625
217079.890625,644861.0625,430130.5625,436638.40625,321459.75,223918.265625,208187.828125,220937.34375,-0.1728515625
217341.3125,645320.1875,430812.5625,436815.6875,321889.71875,223962.875,208274.546875,221077.09375,-0.172607421875
217186.015625,645246.5,430505.78125,436557.40625,321753.1875,223909.328125,208158.59375,220858.84375,-0.174560546875
216809.609375,644706.25,429632.125,436153.53125,321251.90625,223842.8125,207987.546875,220546.1875,-0.17626953125
216682.46875,644372.1875,429328.40625,436066.8125,321047.5,223847.359375,207964.125,220505.421875,-0.181396484375
216949.796875,644634.6875,429923.40625,436326.28125,321384.21875,223917.375,208097.515625,220735.28125,-0.18359375
217216.140625,645067.0,430549.25,436499.46875,321775.1875,223954.296875,208183.796875,220870.296875,-0.185546875
217074.875,644985.8125,430229.15625,436255.375,321633.40625,223901.015625,208081.15625,220668.328125,-0.18701171875
216706.78125,644432.1875,429348.5,435868.25,321135.5625,223831.1875,207919.6875,220370.421875,-0.1865234375
216575.0,644067.6875,429015.28125,435782.9375,320925.75,223823.3125,207896.171875,220331.96875,-0.186767578125
216843.9375,644302.625,429584.8125,436047.34375,321254.84375,223891.890625,208036.546875,220566.671875,-0.183349609375
217106.609375,644707.125,430185.53125,436227.75,321637.40625,223908.609375,208123.265625,220704.078125,-0.184814453125
216964.90625,644598.5625,429850.625,435994.59375,321491.3125,223829.578125,208019.296875,220501.125,-0.18505859375
216600.390625,644028.8125,428957.71875,435611.90625,320992.875,223742.671875,207862.203125,220205.734375,-0.1884765625
216472.453125,643651.9375,428612.4375,435524.84375,320778.46875,223725.234375,207839.5,220168.265625,-0.188720703125
216742.1875,643863.875,429154.6875,435779.65625,321097.125,223782.453125,207971.28125,220392.234375,-0.18994140625
217026.421875,644273.875,429759.25,435966.40625,321489.53125,223816.703125,208067.921875,220536.53125,-0.193115234375
216890.078125,644155.0625,429422.375,435730.90625,321343.1875,223759.5625,207968.234375,220334.03125,-0.193115234375
216525.109375,643558.1875,428503.0625,435340.9375,320831.40625,223686.609375,207811.421875,220034.15625,-0.192138671875
216409.328125,643178.0625,428136.40625,435262.78125,320608.625,223689.46875,207799.703125,220005.90625,-0.18994140625
216671.46875,643357.625,428633.15625,435515.1875,320894.34375,223756.890625,207930.0625,220228.796875,-0.188232421875
216955.34375,643732.875,429192.5,435710.1875,321259.65625,223806.859375,208028.5,220379.359375,-0.1865234375
216828.5625,643591.0625,428818.25,435483.4375,321093.375,223761.0,207934.796875,220188.828125,-0.18505859375
216469.328125,642987.6875,427867.03125,435099.0,320558.4375,223692.609375,207773.78125,219891.375,-0.181396484375
216342.1875,642568.25,427447.0,435010.5625,320295.875,223700.109375,207752.234375,219853.375,-0.179931640625
216610.234375,642736.25,427907.4375,435262.6875,320561.84375,223774.140625,207890.8125,220081.640625,-0.1787109375
216894.453125,643102.8125,428436.5625,435444.09375,320904.09375,223817.859375,207985.578125,220229.953125,-0.181884765625
216772.234375,642972.1875,428043.625,435217.1875,320722.875,223782.640625,207889.828125,220042.46875,-0.18701171875
216417.828125,642370.6875,427069.4375,434836.3125,320172.75,223731.9375,207729.4375,219747.78125,-0.1904296875
216294.171875,641942.25,426615.25,434748.0625,319883.96875,223747.5,207704.125,219707.015625,-0.192138671875
216563.46875,642097.3125,427047.53125,435002.25,320118.65625,223825.1875,207834.046875,219933.484375,-0.193603515625
216854.75,642463.625,427557.875,435187.40625,320429.96875,223867.75,207927.015625,220091.203125,-0.195068359375
216731.828125,642329.0625,427139.09375,434953.0625,320208.34375,223807.140625,207822.78125,219905.59375,-0.19775390625
216359.359375,641693.6875,426117.53125,434558.78125,319602.6875,223726.84375,207653.078125,219601.078125,-0.197998046875
216232.84375,641253.0625,425622.125,434469.28125,319270.1875,223726.3125,207630.734375,219564.59375,-0.19580078125
216487.296875,641381.5625,426004.6875,434715.78125,319454.09375,223783.625,207755.0,219790.609375,-0.19677734375
216761.328125,641705.3125,426465.9375,434900.5,319719.46875,223810.796875,207842.4375,219941.71875,-0.193359375
216642.5,641541.6875,426008.625,434679.03125,319468.65625,223751.171875,207746.421875,219757.09375,-0.19140625
216277.359375,640898.5,424948.53125,434293.0625,318842.375,223669.796875,207584.234375,219460.875,-0.1923828125
216126.71875,640404.625,424379.4375,434179.4375,318464.8125,223646.921875,207542.125,219400.53125,-0.192138671875
216375.796875,640485.125,424700.59375,434413.78125,318623.15625,223702.4375,207668.09375,219614.65625,-0.19189453125
216649.296875,640770.625,425107.3125,434586.15625,318873.3125,223729.703125,207759.5625,219757.171875,-0.193115234375
216524.484375,640572.4375,424586.15625,434345.5625,318594.90625,223668.828125,207657.46875,219553.5,-0.196533203125
216136.375,639854.75,423420.375,433925.6875,317906.71875,223585.140625,207486.421875,219218.859375,-0.1982421875
215970.4375,639282.375,422736.78125,433793.1875,317455.9375,223571.8125,207460.234375,219136.421875,-0.197998046875
216198.953125,639288.6875,422938.75,434006.875,317529.78125,223614.109375,207586.03125,219324.09375,-0.197998046875
216466.1875,639513.9375,423233.34375,434161.03125,317703.875,223636.71875,207671.5,219439.15625,-0.19970703125
216322.703125,639213.5,422556.71875,433884.03125,317335.59375,223581.03125,207556.4375,219196.234375,-0.200927734375
215909.375,638370.875,421179.125,433406.0625,316531.75,223497.96875,207348.921875,218806.515625,-0.19873046875
215720.359375,637678.5,420268.0625,433221.8125,315980.71875,223495.8125,207284.453125,218678.21875,-0.19775390625
215931.453125,637560.5625,420236.875,433385.78125,315956.21875,223552.6875,207367.78125,218822.15625,-0.196533203125
216193.328125,637661.5625,420306.78125,433515.40625,316040.09375,223596.484375,207438.421875,218916.21875,-0.197021484375
216000.65625,637174.125,419315.71875,433167.71875,315514.5625,223521.921875,207277.484375,218610.265625,-0.196044921875
215522.765625,636092.75,417499.84375,432581.90625,314482.71875,223417.40625,207021.59375,218129.171875,-0.194580078125
215259.296875,635096.9375,416025.96875,432253.25,313612.34375,223384.6875,206902.59375,217873.109375,-0.194580078125
215370.875,634587.25,415307.40625,432239.21875,313173.34375,223410.875,206929.59375,217853.25,-0.194091796875
215456.34375,634123.125,414394.75,432074.875,312650.0625,223392.109375,206883.640625,217676.59375,-0.194580078125
215056.515625,632900.75,412070.34375,431343.625,311322.875,223257.90625,206584.046875,217021.046875,-0.195556640625
214488.328125,631200.875,409129.65625,430530.125,309618.71875,223141.234375,206275.59375,216325.203125,-0.19775390625
214440.046875,630216.25,407681.96875,430458.9375,308764.15625,223202.203125,206318.5,216291.9375,-0.1962890625
215010.5625,630405.5625,408227.28125,431127.0,309086.03125,223389.515625,206676.21875,216889.171875,-0.19482421875
215672.078125,631172.4375,409548.25,431899.5625,309888.25,223546.515625,207038.40625,217565.453125,-0.196044921875
215810.84375,631414.875,409923.40625,432127.375,310138.78125,223561.0,207125.765625,217783.78125,-0.196533203125
215523.21875,630898.6875,409191.15625,431918.6875,309711.25,223498.40625,207020.171875,217649.9375,-0.19580078125
215395.640625,630398.875,408699.96875,431884.53125,309388.3125,223482.046875,207002.28125,217668.890625,-0.195068359375
215745.125,630618.3125,409359.25,432314.59375,309753.09375,223567.4375,207207.65625,218060.765625,-0.194580078125
216212.453125,631267.5,410490.78125,432820.375,310433.90625,223656.578125,207440.296875,218502.34375,-0.1982421875
216230.25,631414.8125,410677.65625,432849.78125,310572.6875,223631.8125,207442.796875,218546.609375,-0.1962890625
215893.546875,630906.25,409963.75,432558.75,310150.0625,223546.15625,207299.921875,218341.5,-0.196044921875
215766.234375,630520.9375,409678.71875,432534.0,309941.65625,223531.21875,207285.890625,218366.890625,-0.196533203125
216108.03125,630849.3125,410518.25,432961.1875,310404.78125,223629.125,207492.78125,218756.0,-0.19677734375
216509.640625,631486.1875,411639.65625,433376.75,311066.75,223697.703125,207675.4375,219114.96875,-0.19921875
216449.296875,631559.0,411687.40625,433277.9375,311110.71875,223641.109375,207606.765625,219044.6875,-0.1962890625
216053.671875,630974.125,410799.25,432874.90625,310578.9375,223545.96875,207411.328125,218736.0625,-0.19580078125
215884.78125,630526.625,410365.25,432765.75,310281.84375,223533.1875,207364.03125,218683.578125,-0.19775390625
216201.453125,630814.375,411103.59375,433139.625,310684.4375,223631.359375,207544.09375,219024.125,-0.196044921875
216596.1875,631444.5,412172.96875,433529.625,311310.375,223708.34375,207714.0625,219355.828125,-0.19482421875
216536.921875,631515.875,412196.84375,433423.40625,311340.40625,223678.03125,207651.375,219274.828125,-0.193603515625
216139.234375,630923.875,411278.03125,433006.5,310794.40625,223598.453125,207459.0625,218954.125,-0.1943359375
215966.59375,630462.5625,410795.21875,432877.59375,310468.96875,223595.0625,207414.28125,218886.703125,-0.19482421875
216257.25,630713.125,411458.4375,433209.0,310822.375,223682.328125,207579.40625,219192.484375,-0.194091796875
216633.03125,631310.5625,412465.96875,433572.46875,311416.15625,223755.09375,207744.640625,219502.90625,-0.192626953125
216561.6875,631361.0625,412444.78125,433445.3125,311425.8125,223709.40625,207675.15625,219404.203125,-0.19482421875
216158.71875,630755.4375,411490.375,433019.84375,310870.3125,223626.0,207487.140625,219072.140625,-0.192626953125
215968.28125,630258.3125,410946.5,432866.21875,310518.40625,223607.84375,207426.078125,218972.359375,-0.191650390625
216259.75,630488.125,411561.15625,433187.8125,310855.8125,223697.703125,207591.484375,219261.5,-0.19189453125
216644.03125,631077.75,412538.84375,433541.875,311443.6875,223774.40625,207762.421875,219564.234375,-0.18994140625
216581.625,631131.125,412502.53125,433408.84375,311456.09375,223731.046875,207700.109375,219457.125,-0.189453125
216168.46875,630504.75,411507.53125,432958.75,310881.40625,223633.78125,207497.328125,219098.421875,-0.188720703125
215977.671875,629998.1875,410946.125,432799.875,310524.84375,223620.453125,207443.0625,218998.734375,-0.187255859375
216278.96875,630239.75,411583.78125,433130.6875,310880.25,223706.90625,207616.953125,219302.8125,-0.1884765625
216675.046875,630853.4375,412625.03125,433508.0,311503.59375,223780.671875,207796.84375,219626.546875,-0.1904296875
216622.203125,630938.1875,412675.71875,433402.3125,311559.71875,223742.21875,207743.65625,219543.84375,-0.19091796875
216226.9375,630368.75,411803.1875,432991.125,311053.40625,223649.421875,207557.5,219222.875,-0.1904296875
216046.515625,629929.6875,411382.1875,432867.375,310773.84375,223623.765625,207504.9375,219155.828125,-0.190185546875
216356.671875,630235.0,412174.5,433233.25,311210.40625,223712.0,207684.375,219489.578125,-0.189697265625
216787.4375,630955.1875,413409.65625,433664.375,311949.375,223800.25,207890.09375,219863.65625,-0.188232421875
216768.84375,631161.875,413667.6875,433611.4375,312133.46875,223761.359375,207857.828125,219831.46875,-0.18701171875
216390.28125,630695.25,412980.0625,433234.3125,311735.15625,223671.59375,207685.53125,219546.984375,-0.187744140625
216224.609375,630342.1875,412724.625,433137.9375,311557.21875,223666.59375,207660.765625,219513.625,-0.185791015625
216544.515625,630740.25,413669.46875,433524.71875,312090.28125,223751.875,207848.875,219869.03125,-0.18408203125
216978.046875,631544.375,415051.15625,433979.0,312922.03125,223835.828125,208049.875,220257.9375,-0.1845703125
216957.03125,631824.75,415432.75,433937.5,313186.9375,223803.828125,208014.015625,220229.609375,-0.185546875
216568.390625,631400.875,414820.9375,433548.21875,312840.3125,223713.34375,207829.296875,219930.71875,-0.185791015625
216396.8125,631086.6875,414617.5625,433441.21875,312703.25,223710.484375,207790.5,219882.53125,-0.186279296875
216708.75,631510.0625,415597.53125,433819.75,313270.53125,223811.515625,207980.40625,220231.84375,-0.185302734375
217125.390625,632319.0625,416980.5,434244.4375,314106.03125,223897.96875,208175.484375,220598.671875,-0.1865234375
217094.28125,632595.8125,417340.25,434174.625,314360.03125,223863.546875,208131.5,220546.90625,-0.188232421875
216684.890625,632153.3125,416667.375,433750.09375,313982.5625,223768.515625,207928.28125,220212.078125,-0.189697265625
216480.140625,631789.3125,416361.78125,433595.53125,313790.15625,223755.359375,207864.609375,220117.671875,-0.19189453125
216760.796875,632148.125,417213.75,433921.0625,314281.09375,223841.015625,208025.734375,220419.5,-0.192138671875
217152.21875,632892.625,418462.5,434294.9375,315040.4375,223912.09375,208197.21875,220740.921875,-0.195068359375
217092.765625,633097.875,418673.75,434169.875,315208.0625,223863.546875,208130.421875,220638.640625,-0.194580078125
216660.03125,632582.1875,417840.9375,433695.03125,314737.6875,223757.0625,207913.25,220260.09375,-0.194580078125
216433.65625,632141.1875,417361.4375,433486.0,314437.125,223725.765625,207830.375,220117.21875,-0.197509765625
216689.4375,632412.625,418043.1875,433764.15625,314824.25,223798.109375,207973.515625,220372.46875,-0.198486328125
217059.234375,633065.4375,419142.71875,434102.46875,315485.84375,223859.703125,208128.8125,220659.46875,-0.201416015625
216994.765625,633197.4375,419222.46875,433950.375,315569.09375,223809.453125,208052.734375,220534.5625,-0.19921875
216565.25,632628.5,418272.59375,433459.25,315027.125,223708.15625,207836.359375,220144.21875,-0.2001953125
216330.296875,632119.625,417678.40625,433230.5625,314653.21875,223678.03125,207749.90625,219986.140625,-0.202392578125
216587.78125,632336.25,418275.90625,433504.40625,314985.09375,223756.890625,207899.21875,220239.171875,-0.201904296875
216979.125,632977.625,419328.9375,433852.84375,315618.34375,223832.96875,208072.578125,220534.484375,-0.201904296875
216915.28125,633083.6875,419364.875,433698.53125,315667.53125,223780.046875,207998.453125,220410.203125,-0.200439453125
216469.859375,632463.125,418359.6875,433193.1875,315084.40625,223668.375,207768.765625,220007.78125,-0.200439453125
216239.09375,631927.1875,417726.6875,432965.28125,314685.75,223648.078125,207687.140625,219848.375,-0.2021484375
216500.890625,632130.4375,418294.40625,433239.6875,314996.625,223729.890625,207838.6875,220102.28125,-0.20458984375
216890.4375,632754.75,419333.6875,433598.75,315623.375,223804.0,208015.0,220408.328125,-0.204345703125
216841.703125,632855.0625,419370.96875,433466.40625,315680.3125,223770.65625,207957.78125,220299.96875,-0.20556640625
216410.21875,632234.125,418358.15625,432973.0625,315095.96875,223666.59375,207736.5,219904.421875,-0.207275390625
216175.71875,631688.375,417712.46875,432753.84375,314697.28125,223643.15625,207656.203125,219751.71875,-0.20751953125
216425.609375,631862.1875,418258.1875,433028.6875,315001.4375,223725.421875,207804.53125,220003.21875,-0.207275390625
216813.984375,632460.8125,419275.03125,433383.0,315618.1875,223801.859375,207974.140625,220302.203125,-0.205810546875
216771.96875,632555.3125,419306.6875,433253.8125,315678.53125,223761.171875,207915.84375,220193.578125,-0.203857421875
216349.421875,631935.8125,418293.0625,432774.59375,315105.6875,223660.78125,207705.46875,219807.25,-0.201904296875
216117.78125,631379.25,417625.28125,432559.28125,314704.25,223637.53125,207625.90625,219655.15625,-0.198486328125
216377.40625,631551.9375,418162.96875,432849.875,315017.375,223726.484375,207784.59375,219919.8125,-0.197509765625
216782.25,632166.4375,419189.375,433226.625,315651.96875,223808.125,207969.046875,220239.609375,-0.19580078125
216745.6875,632269.25,419221.90625,433112.09375,315720.28125,223766.0,207910.9375,220140.546875,-0.1953125
216308.5625,631622.25,418176.3125,432619.375,315132.25,223659.515625,207688.03125,219740.8125,-0.19287109375
216070.03125,631041.5625,417473.46875,432390.40625,314713.65625,223629.75,207603.640625,219578.984375,-0.194091796875
216331.90625,631209.6875,417985.59375,432675.34375,315016.1875,223712.453125,207757.328125,219840.859375,-0.19189453125
216740.3125,631822.875,419002.34375,433056.75,315646.6875,223797.484375,207944.546875,220164.25,-0.191162109375
216708.9375,631923.625,419033.34375,432951.96875,315715.625,223766.359375,207898.59375,220074.125,-0.191650390625
216289.4375,631298.125,417993.75,432478.46875,315138.4375,223668.015625,207691.25,219694.5,-0.191162109375
216057.515625,630729.6875,417281.6875,432256.75,314716.0625,223637.078125,207604.078125,219536.25,-0.1904296875
216320.90625,630899.5625,417779.5,432543.5625,315003.78125,223717.28125,207753.390625,219796.421875,-0.18896484375
216728.609375,631513.5,418794.46875,432930.4375,315626.6875,223801.59375,207939.09375,220122.046875,-0.189208984375
216699.8125,631620.1875,418831.75,432828.6875,315692.03125,223765.015625,207887.78125,220038.359375,-0.189453125
216277.09375,630991.5,417785.78125,432349.28125,315097.75,223663.90625,207673.28125,219656.859375,-0.187744140625
216033.734375,630412.375,417057.46875,432117.625,314652.0625,223635.109375,207585.21875,219496.5625,-0.1875
216292.203125,630570.0,417540.4375,432394.875,314918.125,223717.1875,207735.515625,219755.484375,-0.18701171875
216702.765625,631177.4375,418550.28125,432776.375,315526.71875,223801.765625,207919.328125,220083.25,-0.187744140625
216676.296875,631282.25,418585.78125,432670.34375,315578.75,223764.21875,207866.140625,219998.484375,-0.18798828125
216248.3125,630643.0625,417526.5,432184.0625,314965.25,223658.0,207644.234375,219609.5625,-0.1875
215994.578125,630039.625,416766.96875,431937.46875,314484.0625,223616.078125,207542.9375,219434.0625,-0.188232421875
216235.25,630155.625,417215.8125,432201.75,314713.1875,223689.203125,207684.640625,219680.46875,-0.18798828125
216645.90625,630746.25,418210.1875,432581.75,315298.28125,223768.515625,207867.296875,220005.28125,-0.1865234375
216630.4375,630858.25,418251.6875,432483.84375,315343.875,223724.25,207815.0,219924.09375,-0.18798828125
216208.609375,630223.1875,417197.21875,432003.4375,314730.8125,223620.09375,207601.765625,219542.78125,-0.191162109375
215955.859375,629611.5,416432.34375,431759.375,314248.65625,223584.0625,207506.71875,219371.109375,-0.19189453125
216197.609375,629722.875,416871.78125,432024.8125,314473.25,223658.0,207648.875,219618.5,-0.19091796875
216613.53125,630313.6875,417872.15625,432415.34375,315067.34375,223739.453125,207837.890625,219951.8125,-0.1884765625
216601.46875,630426.3125,417920.6875,432325.0625,315126.875,223703.78125,207793.0,219876.4375,-0.188720703125
216175.71875,629780.8125,416852.0,431838.75,314509.09375,223594.875,207574.046875,219483.59375,-0.19189453125
215925.8125,629166.125,416075.875,431599.34375,314033.1875,223565.109375,207487.3125,219314.96875,-0.193115234375
216166.59375,629271.75,416500.5625,431867.90625,314265.375,223640.484375,207631.796875,219562.890625,-0.1943359375
216580.546875,629852.4375,417486.15625,432258.71875,314862.4375,223722.375,207818.75,219891.734375,-0.195068359375
216574.28125,629959.25,417529.25,432175.90625,314927.40625,223692.515625,207779.5,219820.46875,-0.195556640625
216145.84375,629300.875,416437.6875,431683.8125,314302.03125,223582.71875,207556.515625,219423.15625,-0.197021484375
215890.234375,628668.5,415626.15625,431432.125,313807.59375,223549.90625,207461.578125,219243.71875,-0.19921875
216129.75,628759.0,416020.0625,431697.0625,314028.25,223634.125,207610.96875,219492.0,-0.198486328125
216539.234375,629319.75,416971.28125,432078.71875,314605.1875,223717.8125,207796.671875,219817.703125,-0.19970703125
216534.40625,629421.3125,416992.90625,431991.65625,314654.0,223679.640625,207748.296875,219742.328125,-0.198974609375
216116.171875,628775.1875,415891.59375,431508.03125,314025.125,223576.828125,207530.953125,219351.0,-0.201171875
215856.34375,628133.375,415054.75,431258.0625,313515.25,223550.171875,207437.15625,219169.859375,-0.20166015625
216087.375,628206.875,415419.625,431518.40625,313709.15625,223626.359375,207576.1875,219410.640625,-0.200927734375
216496.140625,628758.0,416350.34375,431900.8125,314268.9375,223704.859375,207759.296875,219734.734375,-0.20068359375
216495.4375,628855.625,416368.0625,431818.375,314315.34375,223680.0,207725.140625,219669.921875,-0.2001953125
216073.96875,628197.6875,415257.0,431334.78125,313678.6875,223575.484375,207509.40625,219281.0,-0.201416015625
215806.453125,627540.375,414392.5,431074.78125,313148.21875,223537.65625,207405.78125,219095.46875,-0.20068359375
216029.703125,627590.0,414717.3125,431324.5,313318.8125,223615.890625,207544.09375,219330.34375,-0.2001953125
216436.78125,628124.375,415616.40625,431700.09375,313855.78125,223695.109375,207725.328125,219649.890625,-0.19970703125
216433.03125,628201.6875,415604.4375,431612.46875,313877.59375,223661.21875,207681.78125,219578.453125,-0.199462890625
216015.671875,627531.875,414461.4375,431122.53125,313216.1875,223558.765625,207463.0,219185.328125,-0.203125
215740.125,626837.1875,413529.71875,430840.71875,312639.125,223524.515625,207350.796875,218978.265625,-0.205810546875
215940.03125,626816.0,413735.0,431052.4375,312732.125,223597.75,207473.640625,219176.921875,-0.20556640625
216317.15625,627248.5625,414461.625,431372.25,313161.0,223669.625,207633.5,219446.484375,-0.206787109375
216276.46875,627194.6875,414221.5625,431214.625,313041.1875,223627.15625,207564.125,219310.859375,-0.2080078125
215804.140625,626350.875,412791.5,430641.0625,312205.25,223499.484375,207306.53125,218840.046875,-0.208251953125
215493.09375,625502.0625,411582.0,430298.1875,311468.53125,223443.34375,207170.640625,218577.09375,-0.2080078125
215698.546875,625394.25,411622.9375,430495.0625,311468.28125,223511.375,207291.25,218765.109375,-0.2060546875
216120.453125,625835.1875,412375.9375,430878.0,311920.125,223598.453125,207485.078125,219092.796875,-0.20556640625
216164.625,625909.9375,412372.625,430853.59375,311952.21875,223580.578125,207479.984375,219077.59375,-0.204833984375
215776.6875,625234.5,411257.09375,430417.8125,311311.34375,223487.765625,207289.375,218731.765625,-0.204833984375
215537.078125,624556.875,410370.53125,430193.21875,310770.53125,223461.21875,207209.71875,218578.703125,-0.2041015625
215787.859375,624608.1875,410711.0,430484.78125,310952.3125,223539.09375,207369.296875,218855.0625,-0.20361328125
216242.3125,625197.8125,411736.21875,430937.28125,311570.1875,223632.515625,207588.171875,219248.265625,-0.20166015625
216317.421875,625418.0,412000.875,430973.9375,311766.34375,223624.828125,207602.46875,219290.203125,-0.20068359375
215985.90625,624949.25,411259.875,430640.09375,311356.96875,223549.109375,207451.5625,219039.328125,-0.198974609375
215801.8125,624513.9375,410823.75,430535.84375,311091.875,223543.921875,207420.0,218997.390625,-0.195556640625
216104.546875,624809.6875,411620.0,430939.5,311550.0625,223645.671875,207620.984375,219372.546875,-0.1953125
216619.265625,625668.75,413127.03125,431510.5625,312457.8125,223763.859375,207885.359375,219870.359375,-0.193359375
216755.0625,626181.9375,413918.90625,431666.375,312964.59375,223773.515625,207943.5625,220022.171875,-0.19189453125
216495.875,626055.9375,413781.3125,431470.3125,312911.28125,223724.171875,207847.453125,219903.0,-0.192626953125
216361.234375,625946.0625,413935.1875,431477.375,312988.90625,223733.640625,207851.203125,219967.546875,-0.193359375
216671.734375,626489.8125,415174.90625,431922.0,313700.125,223835.828125,208056.390625,220390.359375,-0.193359375
217138.796875,627467.4375,416893.21875,432445.46875,314722.21875,223937.484375,208284.296875,220852.328125,-0.193359375
217200.21875,627999.8125,417696.0,432500.46875,315231.125,223919.875,208282.78125,220914.109375,-0.19287109375
216867.359375,627837.8125,417473.28125,432190.3125,315121.25,223845.75,208126.40625,220689.78125,-0.19482421875
216663.15625,627662.6875,417467.65625,432073.90625,315100.5,223831.71875,208067.921875,220643.921875,-0.1962890625
216879.875,628058.8125,418407.5,432356.78125,315628.71875,223902.4375,208197.03125,220918.03125,-0.195556640625
217250.828125,628836.25,419750.40625,432710.65625,316421.15625,223969.59375,208351.265625,221221.84375,-0.19384765625
217250.390625,629186.625,420215.59375,432637.0,316725.9375,223936.59375,208303.875,221160.515625,-0.193115234375
216862.71875,628848.375,419655.28125,432213.5625,316419.0,223839.859375,208103.25,220824.515625,-0.191650390625
216598.96875,628480.6875,419284.15625,431984.21875,316179.125,223801.140625,208004.71875,220665.734375,-0.18994140625
216765.265625,628695.25,419888.28125,432179.40625,316505.09375,223855.234375,208105.84375,220852.5,-0.19091796875
217117.171875,629327.5,420960.96875,432484.0,317141.21875,223918.09375,208253.265625,221106.953125,-0.190673828125
217120.03125,629584.125,421250.03125,432397.5625,317346.15625,223885.359375,208215.09375,221029.078125,-0.190185546875
216746.21875,629192.625,420590.90625,431977.6875,316978.0625,223789.609375,208027.78125,220692.640625,-0.189697265625
216490.0625,628775.625,420155.0625,431754.53125,316704.84375,223749.828125,207938.5625,220538.765625,-0.19287109375
216662.796875,628933.75,420676.9375,431947.84375,316994.34375,223804.265625,208045.484375,220722.59375,-0.1923828125
217002.453125,629494.0625,421634.84375,432230.53125,317573.40625,223853.0,208180.84375,220953.796875,-0.19189453125
217008.0,629699.8125,421829.21875,432134.875,317731.59375,223816.796875,208139.09375,220861.890625,-0.1923828125
216640.8125,629278.625,421102.5,431718.875,317334.15625,223725.140625,207959.390625,220524.828125,-0.193603515625
216395.46875,628834.0625,420602.0,431502.9375,317036.96875,223695.375,207880.890625,220374.078125,-0.192626953125
216557.390625,628937.375,421041.625,431684.0,317282.84375,223748.21875,207981.375,220546.8125,-0.19140625
216894.640625,629446.0625,421918.25,431954.90625,317813.3125,223804.90625,208116.65625,220770.78125,-0.19287109375
216904.109375,629620.4375,422049.40625,431855.40625,317933.71875,223778.796875,208077.765625,220679.140625,-0.19482421875
216542.734375,629177.4375,421271.125,431439.28125,317507.53125,223696.1875,207896.71875,220346.015625,-0.1953125
216290.78125,628703.8125,420708.9375,431219.25,317170.03125,223665.515625,207809.71875,220195.71875,-0.196533203125
216448.9375,628774.1875,421077.46875,431399.5,317372.96875,223721.390625,207905.390625,220371.140625,-0.19921875
216788.328125,629257.8125,421885.09375,431671.125,317860.0625,223784.328125,208036.546875,220596.796875,-0.198486328125
216800.390625,629404.9375,421962.96875,431574.125,317943.21875,223758.671875,207995.234375,220509.625,-0.197998046875
216442.953125,628943.9375,421142.75,431162.5,317484.46875,223674.984375,207817.40625,220182.125,-0.1982421875
216187.609375,628444.0,420532.28125,430941.65625,317109.21875,223646.203125,207731.671875,220035.046875,-0.198486328125
216344.25,628489.625,420849.5625,431119.84375,317274.0,223701.640625,207826.625,220209.671875,-0.198486328125
216694.265625,628959.6875,421622.125,431402.0,317739.0,223771.734375,207966.359375,220443.640625,-0.199951171875
216716.4375,629099.4375,421677.125,431316.1875,317807.21875,223752.953125,207932.828125,220366.125,-0.199951171875
216367.84375,628629.4375,420836.25,430914.21875,317334.15625,223671.5,207757.6875,220044.53125,-0.1982421875
216116.078125,628114.8125,420199.0625,430698.375,316941.03125,223641.1875,207677.40625,219899.6875,-0.198486328125
216273.078125,628143.0625,420486.75,430880.6875,317082.40625,223693.9375,207777.265625,220075.015625,-0.2001953125
216618.984375,628596.4375,421238.40625,431164.8125,317527.28125,223758.765625,207916.921875,220310.78125,-0.20068359375
216636.25,628716.5,421281.84375,431083.4375,317585.5,223733.1875,207884.109375,220236.3125,-0.199951171875
216296.140625,628244.4375,420446.0,430695.0625,317117.71875,223651.828125,207717.546875,219926.328125,-0.200927734375
216056.265625,627736.375,419813.53125,430492.90625,316732.375,223624.828125,207642.171875,219792.21875,-0.20068359375
216215.40625,627754.6875,420093.1875,430677.625,316877.65625,223681.421875,207744.359375,219970.5,-0.19873046875
216561.40625,628190.8125,420836.96875,430962.5625,317327.03125,223742.140625,207887.234375,220206.171875,-0.19921875
216593.515625,628316.625,420898.46875,430898.1875,317406.9375,223712.625,207861.21875,220145.203125,-0.20166015625
216264.5,627853.375,420081.75,430525.28125,316961.25,223631.1875,207702.96875,219847.65625,-0.200927734375
216020.765625,627342.9375,419450.96875,430321.34375,316583.34375,223599.171875,207625.71875,219710.140625,-0.200439453125
216172.578125,627356.625,419732.53125,430505.25,316734.59375,223652.546875,207725.328125,219887.0,-0.20068359375
216519.921875,627791.75,420481.40625,430795.84375,317189.5,223715.3125,207868.734375,220126.875,-0.198486328125
216552.109375,627912.8125,420541.21875,430729.65625,317267.1875,223690.546875,207840.484375,220064.921875,-0.19921875
216221.3125,627441.5625,419719.1875,430353.625,316817.9375,223616.078125,207676.6875,219764.953125,-0.196533203125
215984.296875,626932.0625,419089.78125,430155.78125,316440.0,223591.84375,207602.65625,219633.171875,-0.19482421875
216138.15625,626939.4375,419361.5625,430341.46875,316577.6875,223647.90625,207702.875,219813.953125,-0.19580078125
216484.171875,627364.75,420101.78125,430631.0625,317020.625,223712.90625,207842.09375,220055.4375,-0.197265625
216528.328125,627499.4375,420171.15625,430575.34375,317099.03125,223694.296875,207818.75,220001.890625,-0.197998046875
216205.484375,627042.8125,419358.71875,430206.1875,316650.84375,223625.375,207660.59375,219711.75,-0.199951171875
215959.078125,626520.9375,418713.28125,430000.90625,316257.0,223600.515625,207578.78125,219575.40625,-0.199462890625
216107.671875,626513.6875,418960.03125,430175.0625,316373.5,223650.5,207670.421875,219747.25,-0.198486328125
216451.078125,626927.1875,419680.5,430461.09375,316798.1875,223711.828125,207807.484375,219984.359375,-0.1982421875
216490.78125,627044.4375,419732.78125,430405.125,316862.0,223691.890625,207781.921875,219929.015625,-0.1953125
216166.234375,626573.6875,418902.5625,430038.03125,316401.65625,223618.21875,207624.109375,219635.9375,-0.194091796875
215917.421875,626047.6875,418240.3125,429832.46875,315996.28125,223586.75,207543.828125,219498.171875,-0.195556640625
216063.78125,626037.4375,418475.28125,430010.375,316108.5,223639.234375,207639.484375,219672.59375,-0.194091796875
216408.53125,626444.125,419185.25,430297.84375,316531.375,223699.9375,207781.375,219912.5625,-0.19384765625
216459.9375,626574.3125,419239.96875,430246.59375,316599.34375,223680.984375,207765.640625,219864.90625,-0.1953125
216131.8125,626097.9375,418404.03125,429877.09375,316137.09375,223604.359375,207610.515625,219574.609375,-0.193359375
215878.609375,625557.25,417725.6875,429666.96875,315723.9375,223572.4375,207529.34375,219436.828125,-0.194091796875
216017.109375,625524.0,417936.34375,429837.3125,315819.71875,223619.5625,207620.984375,219605.546875,-0.193603515625
216361.953125,625922.625,418631.03125,430123.21875,316231.78125,223675.265625,207757.6875,219844.4375,-0.1943359375
216417.5625,626050.125,418688.4375,430077.96875,316302.3125,223659.34375,207740.34375,219802.5,-0.194091796875
216101.6875,625588.8125,417862.40625,429716.59375,315844.375,223588.359375,207587.984375,219517.203125,-0.193359375
215849.375,625053.0625,417182.90625,429505.6875,315426.75,223554.828125,207505.375,219378.1875,-0.192626953125
215982.40625,625016.875,417390.40625,429676.09375,315515.53125,223602.296875,207596.125,219548.953125,-0.193115234375
216328.328125,625415.8125,418102.1875,429970.15625,315931.46875,223668.828125,207739.625,219797.953125,-0.1943359375
216387.609375,625556.8125,418176.65625,429926.25,316002.375,223649.6875,207721.5625,219758.703125,-0.195556640625
216070.125,625094.5625,417359.40625,429565.9375,315543.96875,223582.1875,207568.140625,219477.0625,-0.19384765625
215823.71875,624552.1875,416685.34375,429363.96875,315129.46875,223564.21875,207494.296875,219345.453125,-0.193603515625
215963.28125,624520.625,416898.0625,429541.09375,315222.71875,223608.296875,207582.453125,219517.203125,-0.1923828125
216308.84375,624923.875,417615.0,429841.3125,315642.9375,223669.359375,207723.0,219767.09375,-0.192138671875
216370.34375,625062.8125,417703.6875,429808.25,315725.1875,223650.3125,207709.234375,219733.03125,-0.18896484375
216054.921875,624604.25,416887.15625,429449.0,315268.34375,223575.21875,207555.984375,219446.578125,-0.1884765625
215800.734375,624058.0625,416205.0625,429240.6875,314851.4375,223546.609375,207476.234375,219308.890625,-0.18798828125
215932.703125,624010.5625,416405.34375,429409.3125,314940.84375,223593.546875,207565.546875,219478.140625,-0.1875
216278.078125,624401.375,417117.1875,429707.65625,315361.75,223655.953125,207709.578125,219726.0625,-0.1884765625
216342.359375,624539.125,417202.65625,429673.6875,315445.8125,223642.890625,207697.515625,219688.6875,-0.186767578125
216026.3125,624077.8125,416383.96875,429312.9375,314991.875,223570.390625,207543.640625,219401.96875,-0.1875
215775.171875,623526.25,415689.34375,429102.8125,314575.875,223547.046875,207465.328125,219262.671875,-0.18798828125
215912.5,623477.6875,415877.03125,429271.4375,314663.9375,223599.171875,207558.21875,219429.234375,-0.190185546875
216264.21875,623875.125,416577.09375,429569.0625,315080.84375,223663.71875,207705.296875,219675.640625,-0.18896484375
216324.84375,624005.0625,416653.34375,429535.90625,315163.09375,223648.25,207695.015625,219637.90625,-0.18798828125
215996.0,623521.6875,415804.875,429162.71875,314692.28125,223563.765625,207530.6875,219340.453125,-0.189453125
215721.4375,622945.8125,415061.53125,428925.25,314242.125,223513.703125,207429.828125,219178.359375,-0.190673828125
215856.078125,622875.125,415212.65625,429090.84375,314310.4375,223569.21875,207523.890625,219344.296875,-0.19140625
216205.484375,623246.75,415877.5625,429382.65625,314702.84375,223629.921875,207662.46875,219584.625,-0.19384765625
216276.921875,623370.5,415932.375,429350.5625,314770.78125,223616.78125,207653.890625,219550.640625,-0.193603515625
215951.03125,622874.0625,415052.15625,428976.84375,314282.71875,223540.609375,207493.3125,219252.5625,-0.19580078125
215678.15625,622264.5625,414256.875,428736.0625,313801.6875,223508.421875,207402.5625,219087.609375,-0.19580078125
215796.09375,622153.0625,414339.59375,428878.84375,313818.25,223554.203125,207485.4375,219235.3125,-0.195068359375
216133.515625,622486.375,414946.46875,429152.96875,314164.34375,223605.796875,207610.875,219461.59375,-0.195068359375
216190.46875,622566.5,414930.84375,429096.65625,314177.84375,223578.25,207583.609375,219407.234375,-0.193359375
215854.203125,622020.375,413956.5625,428696.09375,313622.78125,223499.03125,207411.765625,219086.359375,-0.1923828125
215569.625,621358.6875,413052.5625,428431.90625,313071.15625,223463.71875,207308.78125,218899.9375,-0.193359375
215673.0625,621181.5,413019.5,428550.09375,313015.53125,223509.5,207380.203125,219024.125,-0.192138671875
216000.734375,621451.3125,413524.8125,428808.75,313301.65625,223570.734375,207510.5625,219237.90625,-0.19091796875
216053.578125,621480.0625,413407.6875,428739.65625,313256.6875,223554.296875,207486.0625,219171.203125,-0.19091796875
215694.515625,620851.1875,412277.6875,428298.5,312611.59375,223467.921875,207297.859375,218813.125,-0.19189453125
215368.546875,620055.3125,411154.1875,427970.75,311930.9375,223420.8125,207169.484375,218568.15625,-0.19140625
215440.515625,619749.875,410896.0625,428035.3125,311745.96875,223456.21875,207220.4375,218637.796875,-0.19189453125
215746.828125,619901.5,411176.28125,428246.75,311903.5,223510.03125,207331.9375,218804.984375,-0.19091796875
215756.84375,619741.75,410739.625,428097.875,311675.96875,223480.625,207277.578125,218664.71875,-0.189208984375
215309.0,618801.875,409079.0625,427503.6875,310723.875,223366.625,207024.375,218166.8125,-0.18994140625
214842.921875,617561.5625,407165.21875,426934.25,309578.46875,223265.859375,206787.984375,217697.78125,-0.187744140625
214757.0,616704.875,405915.5625,426715.75,308817.15625,223247.984375,206724.671875,217511.90625,-0.18896484375
214890.484375,616194.625,405008.34375,426609.09375,308285.90625,223248.25,206709.65625,217385.125,-0.19140625
214815.828125,615487.125,403587.21875,426267.625,307487.5,223198.890625,206589.859375,217059.953125,-0.19140625
214508.71875,614459.875,401743.375,425821.75,306443.15625,223141.859375,206432.046875,216687.75,-0.19287109375
214367.640625,613628.125,400536.9375,425717.4375,305731.90625,223161.53125,206431.25,216640.09375,-0.19384765625
214735.453125,613655.9375,400905.46875,426231.875,305926.28125,223295.09375,206700.09375,217118.859375,-0.194091796875
215372.65625,614391.4375,402287.4375,426992.90625,306734.4375,223447.359375,207054.859375,217785.84375,-0.195556640625
215644.546875,614844.5625,402990.25,427310.125,307168.9375,223483.921875,207185.84375,218068.90625,-0.196044921875
215362.734375,614432.4375,402314.15625,427051.75,306780.65625,223399.96875,207046.8125,217877.21875,-0.19677734375
215081.1875,613782.625,401488.40625,426838.40625,306267.28125,223351.34375,206949.265625,217739.53125,-0.1982421875
215278.6875,613765.6875,401788.375,427127.0,306410.34375,223422.859375,207093.390625,218021.25,-0.1953125
215780.265625,614416.5625,403018.875,427691.25,307125.40625,223530.328125,207346.421875,218513.609375,-0.19677734375
215982.59375,614855.0625,403705.59375,427905.03125,307545.96875,223546.15625,207426.515625,218705.578125,-0.1982421875
215695.234375,614526.1875,403171.75,427628.84375,307247.90625,223471.046875,207287.9375,218502.171875,-0.197021484375
215402.96875,613968.375,402519.96875,427407.3125,306841.46875,223423.84375,207184.5,218357.6875,-0.1982421875
215567.296875,613997.25,402901.03125,427655.40625,307032.15625,223488.578125,207307.609375,218601.40625,-0.1982421875
216027.109375,614629.9375,404086.84375,428145.28125,307727.46875,223594.53125,207537.125,219029.765625,-0.197509765625
216176.34375,615001.6875,404644.75,428262.46875,308076.78125,223601.234375,207577.703125,219131.6875,-0.1982421875
215839.546875,614595.5625,403969.71875,427896.53125,307692.6875,223510.125,207400.59375,218840.125,-0.198486328125
215525.90625,613993.9375,403215.75,427620.375,307228.40625,223460.765625,207277.21875,218640.125,-0.19921875
215670.390625,613991.8125,403528.40625,427831.625,307381.03125,223527.640625,207386.203125,218845.140625,-0.199462890625
216107.21875,614605.5625,404672.28125,428287.25,308046.03125,223620.8125,207593.265625,219238.796875,-0.197998046875
216249.03125,614976.0,405214.4375,428383.8125,308383.375,223615.890625,207622.59375,219321.3125,-0.197021484375
215915.71875,614578.25,404524.65625,428004.53125,307992.3125,223529.609375,207447.171875,219019.921875,-0.19482421875
215581.6875,613945.25,403710.53125,427691.96875,307490.0,223472.84375,207311.8125,218791.21875,-0.193603515625
215692.734375,613880.125,403923.59375,427854.34375,307576.65625,223523.984375,207399.96875,218956.453125,-0.1943359375
216118.21875,614450.625,404974.375,428278.5,308186.65625,223617.765625,207601.765625,219320.953125,-0.19384765625
216259.671875,614800.25,405452.625,428364.40625,308492.90625,223625.453125,207638.15625,219394.359375,-0.19384765625
215909.453125,614364.125,404692.3125,427965.125,308063.1875,223536.046875,207454.5,219075.8125,-0.193603515625
215565.328125,613696.125,403805.65625,427632.0625,307520.15625,223482.40625,207315.484375,218831.015625,-0.190673828125
215677.0,613616.6875,403958.96875,427779.5,307575.40625,223536.140625,207402.390625,218984.796875,-0.19140625
216094.265625,614156.5,404958.71875,428191.40625,308153.6875,223629.921875,207598.359375,219336.6875,-0.190673828125
216237.140625,614488.9375,405407.28125,428270.53125,308440.15625,223634.21875,207631.359375,219402.234375,-0.19140625
215894.609375,614053.75,404632.84375,427868.8125,307999.8125,223540.875,207449.046875,219078.3125,-0.19091796875
215550.671875,613383.375,403739.21875,427538.03125,307449.96875,223482.3125,207309.125,218831.09375,-0.19189453125
215666.265625,613302.75,403907.3125,427700.75,307518.09375,223536.765625,207402.5625,218995.96875,-0.191162109375
216103.203125,613871.3125,404955.59375,428140.1875,308133.125,223634.40625,207612.484375,219373.265625,-0.19091796875
216258.765625,614236.8125,405461.90625,428241.65625,308456.3125,223635.5625,207650.75,219458.640625,-0.18994140625
215923.578125,613828.9375,404745.3125,427860.34375,308056.59375,223544.09375,207473.28125,219153.859375,-0.189453125
215588.84375,613194.3125,403896.84375,427542.75,307543.65625,223486.515625,207336.84375,218919.34375,-0.187255859375
215698.453125,613123.75,404081.03125,427702.4375,307627.875,223540.4375,207425.546875,219082.78125,-0.186279296875
216125.375,613686.125,405138.875,428133.46875,308250.25,223634.84375,207630.640625,219452.75,-0.18359375
216283.171875,614065.125,405677.75,428239.78125,308599.28125,223642.171875,207679.546875,219543.765625,-0.18310546875
215952.46875,613671.0,404986.4375,427860.5,308217.96875,223552.6875,207506.8125,219239.421875,-0.184326171875
215619.78125,613044.75,404157.46875,427545.15625,307720.6875,223497.875,207375.375,219006.609375,-0.182861328125
215730.109375,612984.1875,404367.75,427707.625,307819.84375,223551.78125,207468.546875,219172.71875,-0.182861328125
216160.609375,613565.8125,405463.0,428145.09375,308464.375,223643.15625,207674.8125,219548.046875,-0.183837890625
216328.953125,613974.1875,406051.5625,428260.59375,308843.09375,223651.5625,207723.625,219645.859375,-0.183349609375
216002.625,613612.5625,405420.53125,427893.15625,308499.40625,223559.75,207552.140625,219351.171875,-0.185302734375
215682.8125,613026.3125,404654.03125,427595.25,308042.28125,223508.875,207426.796875,219131.0625,-0.183837890625
215800.375,613002.5,404928.5,427774.5,308186.40625,223567.078125,207527.28125,219312.109375,-0.184814453125
216236.515625,613619.9375,406094.125,428227.25,308874.46875,223662.734375,207739.359375,219703.890625,-0.18359375
216413.984375,614070.125,406776.90625,428369.78125,309307.9375,223672.3125,207795.859375,219825.03125,-0.184326171875
216131.359375,613809.625,406318.0,428059.875,309070.625,223594.25,207650.9375,219580.515625,-0.186767578125
215844.8125,613349.625,405777.875,427818.125,308747.25,223548.296875,207545.703125,219416.0,-0.185546875
215987.234375,613457.5,406277.40625,428047.46875,309021.46875,223612.40625,207663.8125,219646.21875,-0.18896484375
216437.859375,614188.4375,407636.125,428536.78125,309821.65625,223710.65625,207887.859375,220071.796875,-0.191162109375
216645.09375,614775.75,408546.90625,428725.96875,310388.84375,223732.75,207963.234375,220237.109375,-0.193603515625
216378.84375,614646.375,408308.1875,428450.875,310275.75,223667.03125,207829.75,220030.40625,-0.196044921875
216093.015625,614285.75,407954.21875,428232.875,310055.09375,223626.890625,207731.484375,219888.78125,-0.19775390625
216241.78125,614493.5625,408628.625,428481.625,310425.875,223692.6875,207853.4375,220135.015625,-0.19921875
216692.84375,615315.5,410136.5625,428977.46875,311306.96875,223791.578125,208074.453125,220566.484375,-0.200439453125
216879.078125,615938.375,411102.15625,429139.75,311903.3125,223804.984375,208133.546875,220708.734375,-0.20166015625
216591.28125,615824.625,410883.5625,428833.96875,311802.65625,223728.359375,207988.53125,220473.6875,-0.201904296875
216276.5625,615462.5625,410499.5625,428566.125,311566.34375,223673.375,207868.46875,220286.375,-0.20556640625
216367.046875,615595.5,411044.5,428728.21875,311859.6875,223712.0,207946.15625,220453.484375,-0.204345703125
216763.03125,616302.625,412360.75,429131.0625,312625.46875,223790.859375,208128.90625,220796.625,-0.20654296875
216913.3125,616840.375,413162.0,429225.40625,313120.6875,223790.953125,208164.125,220873.328125,-0.208740234375
216604.953125,616672.6875,412829.21875,428876.53125,312950.53125,223704.859375,208000.609375,220595.09375,-0.208251953125
216294.984375,616292.5,412401.3125,428602.9375,312688.84375,223659.875,207887.6875,220403.859375,-0.2109375
216403.703125,616440.3125,412949.3125,428778.53125,312986.5,223714.234375,207983.625,220587.046875,-0.210693359375
216802.359375,617145.9375,414268.25,429184.4375,313756.375,223797.203125,208170.65625,220937.4375,-0.2109375
216958.203125,617682.1875,415079.875,429284.0625,314260.0,223802.9375,208212.140625,221016.5625,-0.211181640625
216662.078125,617536.4375,414774.28125,428944.21875,314110.34375,223718.171875,208055.953125,220746.375,-0.211669921875
216340.671875,617146.875,414323.65625,428654.0,313839.78125,223660.421875,207928.71875,220539.3125,-0.2109375
216410.765625,617215.0,414733.25,428772.28125,314060.1875,223705.125,207995.421875,220668.40625,-0.212158203125
216771.609375,617823.25,415855.46875,429110.96875,314720.53125,223779.78125,208156.984375,220956.390625,-0.212646484375
216903.3125,618267.5,416496.4375,429165.0625,315131.09375,223781.75,208183.171875,220993.140625,-0.2119140625
216604.953125,618063.5,416080.59375,428811.8125,314925.46875,223707.53125,208026.265625,220706.5,-0.21142578125
216286.125,617646.5625,415569.46875,428527.125,314630.21875,223657.28125,207903.0625,220501.671875,-0.210205078125
216355.328125,617698.5625,415935.5,428646.03125,314831.5,223695.46875,207969.140625,220630.765625,-0.20849609375
216710.546875,618268.6875,416986.21875,428974.34375,315456.8125,223768.6875,208127.03125,220906.140625,-0.209228515625
216845.1875,618683.625,417552.25,429018.875,315834.46875,223775.9375,208153.40625,220933.859375,-0.209716796875
216544.25,618440.5,417061.3125,428652.75,315592.625,223702.4375,207997.296875,220637.5625,-0.210205078125
216225.15625,617979.0625,416460.5,428354.21875,315253.59375,223665.609375,207882.5,220420.75,-0.21142578125
216276.390625,617958.25,416703.3125,428445.40625,315387.96875,223698.140625,207935.15625,220523.578125,-0.211181640625
216623.1875,618471.75,417638.625,428754.3125,315951.40625,223765.5625,208080.53125,220778.5625,-0.2109375
216747.640625,618823.0,418093.15625,428781.03125,316266.65625,223766.28125,208095.015625,220784.28125,-0.2109375
216440.453125,618527.3125,417513.96875,428410.0,315981.625,223682.765625,207934.0,220480.03125,-0.21142578125
216114.828125,618013.0,416828.03125,428101.90625,315597.34375,223630.734375,207808.109375,220251.15625,-0.211669921875
216172.9375,617952.8125,416985.3125,428186.5,315685.40625,223668.640625,207864.609375,220347.890625,-0.211669921875
216513.578125,618409.125,417826.8125,428483.21875,316196.65625,223735.34375,208012.5,220596.796875,-0.207275390625
216641.609375,618723.9375,418220.28125,428510.0625,316479.78125,223733.8125,208031.625,220609.21875,-0.202880859375
216346.203125,618407.375,417589.0,428138.46875,316157.5625,223651.828125,207871.234375,220303.546875,-0.201171875
216016.75,617861.0625,416842.25,427822.0625,315731.09375,223598.90625,207744.8125,220069.03125,-0.2001953125
216050.1875,617739.5625,416922.28125,427887.78125,315769.28125,223626.078125,207794.078125,220151.640625,-0.196533203125
216385.109375,618153.375,417701.09375,428175.75,316234.90625,223690.640625,207936.671875,220393.75,-0.19580078125
216517.515625,618441.3125,418044.34375,428199.90625,316479.4375,223690.640625,207952.953125,220402.78125,-0.197021484375
216214.515625,618084.6875,417363.3125,427823.3125,316123.5,223607.484375,207785.671875,220093.25,-0.195068359375
215885.9375,617512.1875,416569.9375,427502.96875,315661.71875,223552.328125,207654.25,219856.59375,-0.195068359375
215928.140625,617373.1875,416602.21875,427564.21875,315659.03125,223581.46875,207700.5625,219939.296875,-0.192626953125
216265.46875,617760.3125,417332.46875,427852.90625,316086.125,223649.59375,207843.875,220183.109375,-0.190673828125
216410.40625,618038.9375,417651.9375,427891.625,316308.40625,223656.125,207864.96875,220205.640625,-0.19091796875
216129.578125,617687.625,416962.25,427534.25,315939.40625,223583.890625,207706.28125,219917.75,-0.191650390625
215819.15625,617119.625,416158.65625,427236.28125,315470.3125,223544.71875,207588.171875,219703.890625,-0.19189453125
215867.890625,616977.8125,416177.15625,427317.8125,315458.59375,223588.625,207647.53125,219806.0,-0.189453125
216216.21875,617363.875,416895.8125,427623.59375,315878.53125,223667.125,207800.328125,220064.828125,-0.19287109375
216363.640625,617636.6875,417197.46875,427665.0625,316083.28125,223674.1875,207824.03125,220088.515625,-0.19091796875
216088.1875,617292.5625,416507.34375,427318.78125,315711.15625,223601.046875,207671.765625,219808.234375,-0.19189453125
215765.0625,616709.625,415688.65625,427017.21875,315227.375,223541.140625,207541.140625,219588.5625,-0.19189453125
215806.8125,616546.0,415690.53125,427096.78125,315203.59375,223572.984375,207594.703125,219685.5625,-0.193115234375
216162.03125,616936.8125,416413.28125,427411.15625,315622.5625,223645.3125,207751.78125,219953.15625,-0.192138671875
216315.8125,617208.9375,416731.40625,427468.0,315833.90625,223647.90625,207781.015625,219989.09375,-0.19189453125
216040.265625,616856.125,416053.78125,427130.6875,315467.0,223568.953125,207631.984375,219714.171875,-0.192626953125
215726.984375,616282.875,415251.0,426838.15625,314992.59375,223516.203125,207512.265625,219505.859375,-0.19384765625
215774.71875,616130.0,415260.84375,426921.8125,314972.3125,223547.3125,207568.5,219607.59375,-0.193603515625
216122.96875,616506.3125,415981.1875,427232.875,315391.53125,223614.546875,207724.6875,219871.171875,-0.19580078125
216280.5,616780.6875,416312.25,427295.1875,315616.3125,223618.9375,207760.28125,219914.984375,-0.194091796875
216017.46875,616447.75,415657.34375,426969.65625,315268.59375,223551.515625,207622.234375,219653.828125,-0.192138671875
215706.5,615879.625,414858.78125,426683.5625,314801.8125,223499.9375,207505.828125,219447.65625,-0.192626953125
215744.328125,615716.8125,414861.90625,426769.03125,314781.78125,223529.96875,207558.9375,219548.140625,-0.193603515625
216086.75,616081.3125,415574.03125,427080.34375,315196.96875,223596.046875,207708.78125,219808.234375,-0.196533203125
216248.84375,616361.8125,415906.71875,427147.125,315424.34375,223599.625,207741.234375,219851.671875,-0.198486328125
215980.71875,616026.0625,415243.5,426816.5,315069.125,223524.875,207594.875,219585.421875,-0.197265625
215659.390625,615435.4375,414420.9375,426517.875,314584.71875,223468.109375,207467.828125,219368.25,-0.19775390625
215700.421875,615261.0625,414402.53125,426598.96875,314551.09375,223504.21875,207520.3125,219467.40625,-0.19775390625
216044.640625,615614.8125,415086.9375,426901.25,314946.28125,223575.03125,207672.390625,219723.5625,-0.199462890625
216203.609375,615869.625,415389.65625,426961.34375,315149.96875,223581.734375,207706.453125,219764.234375,-0.199462890625
215938.25,615513.5,414693.53125,426626.875,314775.53125,223509.671875,207558.671875,219492.890625,-0.20166015625
215618.34375,614917.0,413832.375,426320.75,314267.34375,223460.0625,207431.53125,219271.421875,-0.202880859375
215645.4375,614713.125,413760.21875,426388.875,314198.21875,223495.8125,207476.046875,219361.46875,-0.20654296875
215981.703125,615039.0625,414395.625,426682.3125,314558.625,223569.125,207618.03125,219611.359375,-0.209716796875
216143.078125,615284.125,414662.78125,426738.71875,314737.0625,223585.40625,207649.59375,219651.5,-0.209716796875
215876.5625,614915.1875,413919.09375,426395.125,314328.21875,223524.25,207502.078125,219375.3125,-0.211181640625
215546.203125,614282.0,412987.03125,426071.65625,313771.65625,223470.421875,207366.171875,219138.5625,-0.21044921875
215565.15625,614039.3125,412838.09375,426122.875,313652.375,223501.625,207406.578125,219211.703125,-0.208984375
215899.265625,614333.0625,413416.09375,426412.375,313979.15625,223572.265625,207549.90625,219456.328125,-0.209716796875
216059.03125,614540.125,413628.25,426464.875,314129.03125,223575.390625,207578.25,219486.625,-0.211181640625
215781.15625,614117.5,412810.90625,426111.09375,313683.59375,223497.421875,207425.625,219196.59375,-0.20947265625
215436.765625,613424.25,411785.84375,425768.21875,313084.21875,223439.578125,207294.921875,218948.3125,-0.205322265625
215439.625,613108.1875,411530.3125,425793.15625,312912.46875,223462.375,207332.734375,219004.640625,-0.204833984375
215760.421875,613328.9375,412000.0625,426056.09375,313184.53125,223521.296875,207469.609375,219228.25,-0.20361328125
215902.75,613459.8125,412098.5,426082.46875,313275.71875,223522.109375,207492.0625,219238.34375,-0.199462890625
215606.90625,612958.6875,411140.0625,425690.34375,312754.65625,223432.609375,207323.703125,218913.796875,-0.19775390625
215235.15625,612155.375,409935.75,425305.34375,312058.96875,223365.734375,207172.421875,218623.140625,-0.197021484375
215226.390625,611739.9375,409502.3125,425301.9375,311795.6875,223393.53125,207203.625,218648.984375,-0.195068359375
215537.34375,611861.0,409800.75,425538.625,311974.65625,223454.78125,207331.84375,218845.21875,-0.1953125
215670.03125,611888.6875,409714.5625,425529.9375,311959.90625,223448.875,207336.046875,218820.90625,-0.193115234375
215344.578125,611240.5,408505.5,425076.28125,311287.65625,223354.109375,207142.828125,218445.671875,-0.193603515625
214928.21875,610244.875,406970.21875,424604.9375,310388.9375,223279.0,206952.125,218081.328125,-0.1923828125
214863.578125,609607.3125,406143.8125,424497.375,309877.625,223288.03125,206931.203125,218016.515625,-0.190185546875
215115.796875,609485.4375,405994.0625,424626.03125,309776.875,223329.34375,207009.703125,218118.34375,-0.191162109375
215157.359375,609180.5625,405305.8125,424459.8125,309388.21875,223297.421875,206945.0625,217955.53125,-0.189453125
214681.625,608023.1875,403171.40625,423746.53125,308160.75,223160.546875,206639.296875,217340.6875,-0.1875
214008.484375,606219.5625,400169.75,422833.78125,306384.21875,223000.5,206259.3125,216566.78125,-0.186279296875
213809.015625,604858.1875,398017.4375,422434.21875,305094.25,222983.15625,206141.390625,216225.328125,-0.18505859375
214316.84375,604787.0,397942.78125,422878.65625,305054.65625,223142.03125,206413.984375,216605.21875,-0.18359375
214828.53125,605217.25,398565.875,423416.09375,305441.34375,223269.890625,206690.4375,217078.90625,-0.183349609375
214841.140625,605131.0625,398370.0625,423511.75,305345.0625,223279.984375,206739.4375,217203.625,-0.181640625
214678.328125,604684.25,397836.46875,423492.09375,305010.125,223267.296875,206727.625,217246.359375,-0.181396484375
214821.734375,604594.4375,398030.40625,423785.6875,305076.125,223331.40625,206860.125,217543.640625,-0.177978515625
215295.859375,605116.5625,399070.125,424333.84375,305659.9375,223439.578125,207107.703125,218028.9375,-0.1767578125
215588.9375,605591.9375,399825.15625,424633.375,306104.84375,223471.234375,207227.328125,218289.65625,-0.17626953125
215395.09375,605375.125,399428.46875,424447.9375,305883.46875,223411.78125,207130.859375,218157.328125,-0.177490234375
215096.03125,604813.0,398688.625,424221.03125,305432.84375,223366.53125,207028.03125,218006.9375,-0.179443359375
215189.828125,604720.9375,398871.28125,424430.3125,305506.6875,223422.140625,207132.375,218224.390625,-0.17822265625
215662.25,605326.0625,400090.34375,424982.15625,306205.875,223531.578125,207381.546875,218707.0,-0.17724609375
215955.765625,605904.3125,401037.34375,425284.25,306773.59375,223564.296875,207500.375,218964.765625,-0.17822265625
215722.953125,605720.75,400700.1875,425038.90625,306594.5,223484.734375,207370.203125,218774.6875,-0.1787109375
215359.34375,605126.9375,399908.03125,424716.59375,306118.78125,223411.234375,207217.9375,218538.203125,-0.179931640625
215392.234375,604974.375,399987.09375,424829.625,306137.375,223449.0625,207279.71875,218667.390625,-0.1796875
215827.203125,605529.6875,401101.4375,425306.96875,306782.53125,223555.71875,207506.28125,219082.0625,-0.1826171875
216088.71875,606060.4375,401957.53125,425549.78125,307300.03125,223585.140625,207606.671875,219286.625,-0.18505859375
215841.953125,605855.75,401565.5625,425268.34375,307091.625,223507.0,207467.203125,219061.5,-0.188720703125
215472.4375,605251.1875,400737.46875,424916.96875,306595.125,223433.765625,207309.40625,218797.578125,-0.189697265625
215489.953125,605078.5,400774.21875,424991.875,306579.75,223460.953125,207352.046875,218895.03125,-0.19189453125
215904.359375,605602.0625,401828.78125,425423.09375,307177.0,223555.28125,207550.703125,219273.125,-0.193603515625
216148.796875,606096.75,402611.625,425628.28125,307643.875,223583.265625,207635.46875,219446.84375,-0.195068359375
215872.71875,605837.875,402107.09375,425294.71875,307356.09375,223494.5625,207472.390625,219178.0,-0.19677734375
215475.921875,605169.75,401140.875,424891.75,306765.46875,223419.90625,207295.28125,218870.078125,-0.2001953125
215473.78125,604933.8125,401040.65625,424931.09375,306664.0625,223452.453125,207329.15625,218936.515625,-0.19873046875
215873.96875,605399.0625,401975.75,425339.6875,307186.375,223544.546875,207522.453125,219288.765625,-0.1982421875
216109.640625,605839.9375,402655.34375,425521.71875,307586.3125,223565.375,207598.359375,219434.5,-0.19970703125
215836.6875,605543.3125,402078.125,425180.1875,307258.09375,223482.9375,207440.203125,219155.5625,-0.198974609375
215428.0,604817.375,401022.9375,424756.46875,306618.21875,223403.734375,207257.984375,218828.5,-0.2001953125
215417.1875,604536.9375,400846.625,424777.03125,306473.375,223431.984375,207292.234375,218876.25,-0.19921875
215817.546875,604982.25,401746.34375,425182.9375,306977.625,223524.421875,207488.125,219225.109375,-0.19921875
216072.265625,605446.9375,402450.15625,425390.03125,307398.0,223555.09375,207581.203125,219396.328125,-0.199951171875
215813.34375,605174.0625,401909.96875,425075.21875,307101.625,223476.78125,207433.234375,219138.296875,-0.199951171875
215419.421875,604481.3125,400907.53125,424682.90625,306507.59375,223404.890625,207262.734375,218834.234375,-0.197998046875
215420.046875,604236.875,400786.75,424732.15625,306411.9375,223437.4375,207304.03125,218902.359375,-0.1982421875
215829.890625,604713.3125,401751.4375,425166.78125,306974.75,223540.34375,207518.171875,219275.90625,-0.197998046875
216092.03125,605204.1875,402518.28125,425394.21875,307452.5625,223575.296875,207619.90625,219461.78125,-0.19970703125
215844.90625,604967.9375,402044.5,425095.25,307209.625,223497.15625,207478.109375,219217.515625,-0.197021484375
215458.046875,604306.6875,401093.59375,424710.96875,306658.875,223427.953125,207314.3125,218925.0625,-0.193359375
215448.921875,604062.6875,401001.5,424756.75,306589.6875,223461.671875,207353.203125,218994.890625,-0.19140625
215858.3125,604545.0625,401994.90625,425190.28125,307172.53125,223561.0,207560.453125,219369.6875,-0.19091796875
216135.03125,605066.3125,402811.8125,425431.3125,307681.0625,223599.625,207665.953125,219568.34375,-0.189697265625
215897.125,604868.75,402389.4375,425145.5625,307469.625,223527.828125,207530.40625,219336.15625,-0.189208984375
215506.046875,604229.5625,401467.75,424757.65625,306928.34375,223456.125,207360.359375,219040.21875,-0.19091796875
215501.84375,604012.5,401402.125,424801.0,306865.40625,223487.765625,207396.296875,219109.59375,-0.192138671875
215917.0625,604529.875,402425.125,425234.90625,307459.0,223591.21875,207606.859375,219486.1875,-0.19287109375
216180.546875,605052.4375,403253.90625,425465.03125,307968.6875,223626.0,207705.65625,219678.234375,-0.1943359375
215937.171875,604845.9375,402830.65625,425168.28125,307748.5,223550.71875,207560.984375,219436.828125,-0.19287109375
215541.28125,604199.625,401888.21875,424767.84375,307189.53125,223476.421875,207380.65625,219125.6875,-0.19140625
215527.515625,603966.0,401783.25,424795.625,307106.46875,223502.53125,207407.21875,219180.859375,-0.19091796875
215922.15625,604440.0,402746.53125,425206.5625,307661.84375,223595.59375,207607.9375,219536.96875,-0.1904296875
216178.484375,604932.625,403525.1875,425419.96875,308135.71875,223624.828125,207699.84375,219710.59375,-0.1865234375
215926.171875,604698.6875,403048.375,425101.0625,307884.125,223536.765625,207547.9375,219448.1875,-0.187255859375
215516.421875,604009.5,402044.78125,424681.28125,307296.96875,223451.5625,207365.71875,219119.34375,-0.1884765625
215493.890625,603734.625,401880.71875,424693.8125,307185.9375,223478.828125,207398.265625,219156.71875,-0.18798828125
215884.6875,604180.5625,402798.65625,425090.59375,307725.0625,223568.953125,207595.5,219498.96875,-0.1884765625
216153.359375,604668.5625,403559.59375,425305.71875,308207.78125,223599.625,207696.796875,219674.828125,-0.189697265625
215906.5,604424.0,403066.78125,424987.3125,307964.21875,223513.703125,207547.765625,219410.09375,-0.187255859375
215500.328125,603730.75,402045.84375,424566.21875,307383.53125,223432.78125,207367.78125,219080.453125,-0.189208984375
215462.59375,603425.4375,401851.9375,424568.625,307259.6875,223451.828125,207387.0,219105.75,-0.190185546875
215851.96875,603855.375,402757.09375,424967.5625,307792.65625,223543.203125,207580.921875,219448.359375,-0.192138671875
216137.0,604365.5625,403546.46875,425202.53125,308291.28125,223586.5625,207691.796875,219643.265625,-0.195068359375
215899.625,604137.3125,403082.34375,424895.78125,308054.875,223508.609375,207547.3125,219393.203125,-0.194091796875
215495.59375,603453.125,402082.6875,424479.59375,307470.6875,223427.875,207365.8125,219070.703125,-0.196533203125
215464.296875,603169.0,401911.46875,424488.96875,307345.8125,223451.203125,207387.625,219110.3125,-0.19775390625
215861.796875,603625.25,402842.28125,424895.875,307875.09375,223549.28125,207584.59375,219466.609375,-0.2001953125
216144.328125,604139.875,403647.3125,425131.53125,308363.15625,223591.84375,207689.828125,219665.265625,-0.201416015625
215912.140625,603932.1875,403208.0625,424836.59375,308125.96875,223521.296875,207550.171875,219426.375,-0.202392578125
215509.546875,603261.8125,402217.25,424422.0,307533.03125,223444.140625,207368.671875,219109.328125,-0.200927734375
215476.734375,602983.125,402038.53125,424421.03125,307387.71875,223464.609375,207384.953125,219143.9375,-0.200439453125
215867.96875,603435.6875,402967.8125,424828.625,307911.75,223565.46875,207587.015625,219503.078125,-0.199462890625
216139.234375,603941.5,403768.46875,425058.9375,308387.375,223603.546875,207689.46875,219697.1875,-0.201904296875
215909.640625,603740.3125,403331.34375,424761.5,308145.53125,223528.984375,207548.203125,219457.484375,-0.201904296875
215502.03125,603065.9375,402327.03125,424341.4375,307539.90625,223452.453125,207363.765625,219132.578125,-0.20263671875
215463.046875,602784.8125,402133.125,424342.53125,307388.96875,223477.484375,207383.34375,219165.84375,-0.20166015625
215850.265625,603230.4375,403046.75,424749.0625,307905.21875,223574.9375,207580.75,219522.390625,-0.2021484375
216135.921875,603748.1875,403853.21875,424991.09375,308396.34375,223623.40625,207695.28125,219725.609375,-0.200927734375
215903.734375,603543.5,403410.90625,424692.71875,308164.0625,223545.796875,207555.453125,219479.03125,-0.19970703125
215491.296875,602858.375,402395.25,424269.03125,307567.53125,223464.796875,207374.046875,219146.4375,-0.19970703125
215445.53125,602554.875,402179.25,424260.34375,307422.6875,223484.109375,207392.09375,219166.546875,-0.19921875
215832.125,602991.0,403076.0,424660.1875,307948.75,223577.171875,207589.59375,219509.875,-0.198486328125
216113.65625,603497.6875,403876.5625,424901.6875,308451.59375,223614.734375,207700.109375,219706.390625,-0.197509765625
215886.75,603292.625,403437.46875,424608.40625,308235.3125,223532.5625,207558.84375,219464.015625,-0.1962890625
215477.4375,602611.625,402418.40625,424187.03125,307650.59375,223449.140625,207375.5625,219134.1875,-0.19384765625
215428.8125,602304.375,402194.625,424181.5,307509.5,223470.78125,207393.890625,219157.4375,-0.1953125
215817.90625,602733.9375,403091.03125,424586.59375,308040.65625,223567.34375,207595.765625,219508.359375,-0.1943359375
216107.84375,603253.3125,403904.71875,424834.09375,308553.6875,223606.6875,207707.078125,219713.90625,-0.19287109375
215884.15625,603056.0625,403478.78125,424542.71875,308346.25,223528.453125,207567.15625,219475.453125,-0.193359375
215480.125,602386.625,402465.53125,424121.25,307767.71875,223446.828125,207383.421875,219148.671875,-0.191650390625
215431.75,602081.75,402239.15625,424110.34375,307626.0,223467.75,207400.859375,219171.03125,-0.19287109375
215822.46875,602517.75,403139.375,424514.53125,308154.9375,223568.5,207599.96875,219520.421875,-0.1923828125
216108.125,603035.8125,403954.96875,424755.84375,308659.46875,223607.40625,207706.640625,219717.921875,-0.1904296875
215883.078125,602840.5,403541.71875,424469.75,308451.5,223540.34375,207574.484375,219481.984375,-0.189453125
215474.046875,602163.375,402526.875,424043.0,307860.34375,223453.078125,207383.25,219149.203125,-0.187744140625
215424.96875,601851.875,402288.6875,424023.625,307696.90625,223468.453125,207390.3125,219165.390625,-0.187744140625
215815.3125,602287.125,403189.71875,424429.0625,308216.4375,223569.671875,207591.921875,219521.5,-0.188232421875
216113.125,602820.5,404026.5,424683.6875,308726.40625,223614.8125,207708.609375,219734.640625,-0.18994140625
215893.984375,602634.25,403626.3125,424398.75,308519.96875,223542.3125,207575.828125,219507.015625,-0.18896484375
215482.359375,601959.0,402609.03125,423966.375,307920.6875,223457.1875,207387.8125,219173.265625,-0.186767578125
215424.609375,601644.0,402366.375,423945.90625,307750.90625,223473.5625,207398.0,219186.671875,-0.1875
215807.53125,602068.5,403255.25,424344.125,308260.625,223568.953125,207593.453125,219532.5,-0.188720703125
216099.265625,602591.5,404088.53125,424592.25,308767.09375,223607.75,207704.84375,219739.65625,-0.189697265625
215889.609375,602425.5,403699.34375,424313.75,308565.9375,223536.953125,207575.203125,219514.171875,-0.190185546875
215483.078125,601760.375,402685.125,423885.9375,307970.65625,223455.40625,207390.84375,219183.8125,-0.191162109375
215420.84375,601436.5625,402429.6875,423858.03125,307794.09375,223473.46875,207396.21875,219193.828125,-0.18994140625
215800.5625,601860.875,403311.6875,424253.125,308297.8125,223566.984375,207586.828125,219538.671875,-0.191162109375
216093.375,602391.875,404148.71875,424506.9375,308801.25,223600.96875,207694.46875,219744.84375,-0.1923828125
215887.734375,602228.5625,403767.125,424236.21875,308602.875,223527.640625,207564.484375,219519.0,-0.193115234375
215474.3125,601554.25,402745.46875,423804.125,307999.8125,223442.078125,207376.28125,219179.78125,-0.195556640625
215409.046875,601235.0625,402482.0625,423770.6875,307818.21875,223458.71875,207384.6875,219185.78125,-0.196533203125
215786.96875,601652.8125,403357.0,424165.78125,308320.875,223551.96875,207579.234375,219531.953125,-0.1982421875
216083.625,602182.3125,404199.75,424420.75,308832.8125,223588.0,207690.359375,219742.0625,-0.19921875
215874.859375,602019.4375,403814.15625,424140.5625,308629.6875,223509.234375,207553.65625,219506.5625,-0.200927734375
215462.15625,601346.625,402788.8125,423710.40625,308028.15625,223425.71875,207366.359375,219167.71875,-0.201416015625
215391.515625,601012.75,402514.71875,423681.09375,307844.15625,223438.859375,207373.140625,219173.609375,-0.201171875
215769.984375,601426.8125,403384.8125,424078.875,308344.21875,223532.75,207570.015625,219519.265625,-0.20166015625
216071.90625,601959.875,404233.375,424342.625,308861.25,223576.640625,207690.71875,219737.6875,-0.20166015625
215860.734375,601791.9375,403854.5625,424063.21875,308665.625,223496.796875,207555.984375,219507.8125,-0.20166015625
215446.15625,601114.0,402824.78125,423627.28125,308063.65625,223413.65625,207366.984375,219166.734375,-0.2041015625
215377.9375,600781.6875,402541.96875,423595.15625,307877.21875,223432.96875,207376.90625,219171.5625,-0.20654296875
215750.84375,601189.1875,403399.46875,423983.1875,308371.65625,223525.140625,207570.734375,219511.390625,-0.208251953125
216052.328125,601719.1875,404250.625,424243.90625,308893.625,223569.578125,207689.46875,219728.390625,-0.20556640625
215855.1875,601566.9375,403887.1875,423977.84375,308715.875,223505.390625,207566.625,219509.875,-0.205322265625
215437.65625,600891.1875,402854.53125,423539.46875,308116.5,223419.734375,207372.15625,219165.65625,-0.20654296875
215362.28125,600545.4375,402557.09375,423500.65625,307923.5625,223435.734375,207373.953125,219160.296875,-0.20751953125
215740.75,600953.125,403415.65625,423896.5625,308422.96875,223538.28125,207572.25,219503.796875,-0.206298828125
216043.84375,601486.625,404268.875,424159.15625,308947.0,223583.265625,207692.59375,219722.046875,-0.206787109375
215847.953125,601330.875,403908.90625,423895.5,308773.71875,223520.765625,207571.546875,219504.875,-0.207275390625
215435.515625,600655.0625,402874.75,423456.59375,308174.78125,223440.46875,207379.40625,219162.265625,-0.204833984375
215364.609375,600312.0,402574.34375,423414.5625,307981.21875,223455.9375,207380.203125,219159.9375,-0.203857421875
215743.15625,600715.125,403426.46875,423807.6875,308476.8125,223555.359375,207577.4375,219504.515625,-0.203857421875
216050.984375,601255.5,404283.96875,424075.46875,309000.53125,223601.59375,207699.03125,219724.546875,-0.203857421875
215852.953125,601112.9375,403932.59375,423811.8125,308827.28125,223529.96875,207572.703125,219506.484375,-0.203369140625
215431.671875,600434.3125,402897.625,423371.375,308225.28125,223441.28125,207375.734375,219160.75,-0.20361328125
215348.515625,600078.5625,402585.25,423323.375,308023.0625,223457.640625,207375.203125,219154.03125,-0.19775390625
215717.859375,600471.25,403423.25,423707.90625,308502.8125,223548.484375,207566.171875,219491.015625,-0.198974609375
216040.265625,601024.6875,404290.78125,423987.03125,309031.3125,223600.25,207695.015625,219721.6875,-0.1982421875
215846.15625,600877.875,403944.21875,423727.5,308856.96875,223529.875,207571.1875,219506.921875,-0.196044921875
215426.484375,600198.625,402905.40625,423286.375,308250.34375,223439.046875,207377.796875,219161.375,-0.195556640625
215340.296875,599836.625,402579.96875,423232.1875,308036.90625,223446.109375,207370.640625,219146.34375,-0.194091796875
215714.734375,600229.6875,403417.1875,423619.59375,308520.78125,223544.1875,207565.46875,219487.078125,-0.192626953125
216032.390625,600771.625,404284.4375,423895.5,309052.75,223592.921875,207693.40625,219717.75,-0.19140625
215848.125,600640.0625,403953.71875,423643.0,308894.3125,223528.1875,207577.078125,219512.5625,-0.190185546875
215434.265625,599969.9375,402921.25,423206.78125,308299.59375,223444.046875,207387.265625,219171.5625,-0.190673828125
215346.46875,599605.6875,402587.75,423156.0,308088.5,223455.40625,207383.609375,219159.671875,-0.191162109375
215708.46875,599980.375,403409.3125,423538.5625,308563.4375,223547.046875,207571.09375,219492.984375,-0.192626953125
216036.59375,600543.125,404291.75,423822.8125,309107.125,223600.25,207702.34375,219728.921875,-0.191650390625
215850.71875,600417.4375,403965.96875,423568.0,308953.34375,223528.984375,207577.625,219519.0,-0.18994140625
215426.03125,599738.5625,402925.875,423121.9375,308353.0625,223440.390625,207380.484375,219171.734375,-0.18994140625
215328.671875,599358.6875,402575.78125,423059.0,308131.15625,223451.390625,207370.640625,219150.90625,-0.19091796875
215698.1875,599743.75,403394.5625,423443.90625,308605.8125,223548.21875,207560.640625,219487.796875,-0.19189453125
216024.171875,600302.0,404272.28125,423728.375,309145.46875,223601.765625,207690.28125,219724.1875,-0.19091796875
215841.515625,600180.5625,403947.09375,423478.3125,308989.90625,223533.1875,207569.578125,219518.546875,-0.187744140625
215421.75,599505.125,402902.625,423037.0,308386.40625,223450.3125,207376.1875,219171.5625,-0.1884765625
215322.40625,599121.0,402543.9375,422972.1875,308157.09375,223461.046875,207367.25,219148.84375,-0.18798828125
215687.8125,599496.25,403353.875,423352.6875,308623.59375,223550.453125,207554.90625,219483.234375,-0.18896484375
216018.0,600060.4375,404239.53125,423641.03125,309163.625,223596.765625,207683.921875,219721.59375,-0.190673828125
215843.296875,599948.5625,403931.1875,423398.46875,309015.84375,223530.328125,207568.859375,219521.046875,-0.189208984375
215417.0,599263.375,402883.25,422948.9375,308404.8125,223435.109375,207367.15625,219165.921875,-0.189697265625
215316.6875,598878.1875,402517.28125,422881.4375,308166.65625,223442.53125,207357.234375,219138.21875,-0.190185546875
215682.546875,599260.75,403327.0625,423265.09375,308627.28125,223536.59375,207550.625,219473.84375,-0.19091796875
216005.75,599818.75,404215.9375,423554.21875,309163.8125,223589.421875,207685.453125,219713.453125,-0.19091796875
215831.40625,599708.0,403918.03125,423313.71875,309018.5,223529.34375,207574.671875,219514.890625,-0.1923828125
215410.296875,599037.0,402878.6875,422867.125,308409.28125,223431.796875,207375.734375,219163.515625,-0.193115234375
215314.71875,598665.375,402519.4375,422799.1875,308173.53125,223434.578125,207362.234375,219138.5625,-0.19384765625
215673.609375,599037.4375,403327.9375,423176.5625,308633.4375,223529.875,207551.96875,219473.125,-0.1943359375
216001.28125,599592.0,404220.84375,423465.09375,309169.875,223582.0,207682.578125,219711.9375,-0.1943359375
215835.609375,599493.75,403938.15625,423232.09375,309031.9375,223519.953125,207570.921875,219520.421875,-0.196533203125
215416.734375,598830.4375,402904.15625,422786.84375,308427.8125,223427.6875,207373.5,219173.53125,-0.19775390625
215302.734375,598432.75,402522.03125,422705.84375,308179.15625,223421.875,207352.046875,219135.703125,-0.198974609375
215660.640625,598788.75,403314.0,423082.59375,308631.75,223515.3125,207541.671875,219462.671875,-0.199951171875
216001.546875,599358.6875,404217.8125,423381.03125,309178.5625,223568.0625,207676.234375,219708.453125,-0.19921875
215834.171875,599260.25,403938.34375,423144.28125,309041.75,223498.40625,207560.1875,219511.671875,-0.2001953125
215411.28125,598591.625,402899.5,422693.21875,308434.5,223403.28125,207359.109375,219157.25,-0.19921875
215310.34375,598203.875,402519.8125,422618.5,308190.875,223413.203125,207348.203125,219126.953125,-0.200439453125
215670.921875,598567.125,403313.03125,422994.8125,308647.46875,223510.578125,207541.234375,219460.078125,-0.203857421875
216004.765625,599135.9375,404221.9375,423293.25,309200.28125,223567.609375,207682.140625,219711.40625,-0.204833984375
215839.546875,599045.4375,403951.84375,423062.84375,309071.0,223506.375,207570.734375,219522.03125,-0.205810546875
215413.515625,598374.8125,402912.65625,422614.90625,308466.6875,223421.875,207371.625,219167.171875,-0.203369140625
215298.8125,597975.1875,402518.28125,422533.90625,308214.84375,223436.90625,207358.3125,219131.328125,-0.20263671875
215648.03125,598326.1875,403292.71875,422899.6875,308653.03125,223530.6875,207544.8125,219454.09375,-0.2021484375
215976.328125,598887.3125,404192.0625,423192.84375,309194.65625,223572.984375,207675.796875,219698.703125,-0.201904296875
215817.28125,598799.0,403926.09375,422966.625,309069.65625,223509.671875,207566.71875,219514.078125,-0.201904296875
215398.9375,598134.9375,402883.78125,422519.25,308464.0,223419.90625,207370.375,219164.140625,-0.20166015625
215273.421875,597718.125,402466.25,422426.0,308196.0625,223418.84375,207343.203125,219117.203125,-0.20166015625
215616.828125,598051.875,403223.6875,422788.28125,308627.8125,223506.1875,207521.828125,219435.671875,-0.201904296875
215953.890625,598614.875,404129.03125,423091.8125,309182.21875,223560.1875,207664.34375,219687.171875,-0.202880859375
215791.625,598523.125,403865.8125,422868.125,309064.03125,223498.765625,207559.734375,219500.84375,-0.20068359375
215370.0625,597855.0,402824.15625,422421.25,308465.96875,223410.796875,207365.8125,219149.75,-0.1982421875
215249.1875,597445.0625,402409.28125,422330.15625,308210.09375,223410.078125,207342.296875,219104.140625,-0.200439453125
215598.59375,597783.9375,403174.0,422698.0625,308655.0625,223500.203125,207525.234375,219426.015625,-0.197509765625
215944.0625,598348.5625,404088.1875,423006.34375,309216.5625,223560.015625,207665.953125,219679.03125,-0.19482421875
215796.53125,598275.25,403841.3125,422789.15625,309110.78125,223499.21875,207559.921875,219496.203125,-0.196533203125
215371.234375,597603.9375,402796.6875,422338.375,308513.1875,223406.6875,207361.796875,219139.109375,-0.196533203125
215247.84375,597190.4375,402375.40625,422243.6875,308250.96875,223408.203125,207336.84375,219089.21875,-0.197265625
215594.296875,597524.3125,403137.34375,422610.625,308695.125,223507.703125,207525.046875,219412.421875,-0.197021484375
215943.515625,598102.375,404063.78125,422922.84375,309264.21875,223569.21875,207671.3125,219670.625,-0.19580078125
215796.625,598028.75,403827.46875,422707.8125,309166.21875,223512.53125,207570.5625,219492.171875,-0.19482421875
215372.125,597355.125,402785.34375,422256.9375,308570.3125,223422.953125,207371.1875,219135.984375,-0.1923828125
215249.015625,596937.5,402361.625,422166.625,308310.59375,223424.46875,207347.75,219092.609375,-0.192626953125
215600.015625,597279.125,403120.34375,422534.8125,308749.65625,223518.4375,207531.390625,219416.890625,-0.190185546875
215943.4375,597841.5,404036.3125,422838.0625,309304.875,223567.078125,207667.03125,219667.5,-0.189697265625
215798.59375,597770.4375,403807.4375,422624.65625,309203.9375,223502.875,207561.53125,219492.171875,-0.1845703125
215379.09375,597107.5,402773.09375,422178.25,308610.46875,223417.859375,207365.71875,219140.890625,-0.183837890625
215249.640625,596685.9375,402338.40625,422080.15625,308336.34375,223420.8125,207340.953125,219089.84375,-0.183349609375
215593.046875,597023.875,403087.1875,422446.5625,308763.09375,223518.703125,207528.265625,219412.515625,-0.184326171875
215937.0,597598.0625,404012.53125,422759.03125,309320.625,223574.234375,207670.78125,219671.703125,-0.18408203125
215792.609375,597533.0625,403787.40625,422544.375,309214.59375,223507.984375,207561.265625,219492.625,-0.1826171875
215370.78125,596878.3125,402748.59375,422090.90625,308607.5,223411.421875,207357.59375,219134.1875,-0.185791015625
215237.75,596462.5,402308.96875,421991.375,308324.71875,223412.046875,207331.578125,219084.921875,-0.188720703125
215584.375,596804.375,403061.96875,422362.0625,308750.65625,223508.15625,207517.890625,219412.6875,-0.188720703125
215936.640625,597379.25,403997.0625,422679.28125,309308.8125,223569.484375,207663.90625,219678.40625,-0.189208984375
215798.328125,597327.9375,403784.09375,422469.34375,309205.65625,223504.765625,207558.125,219505.578125,-0.19091796875
215378.203125,596676.0625,402744.75,422017.0625,308594.09375,223411.59375,207353.03125,219148.140625,-0.191162109375
