Time,FZ,C3,CZ,C4,PZ,PO7,OZ,PO8
208369.953125,335476.8125,377657.6875,290173.03125,683538.75,220495.328125,210410.921875,217626.515625,-0.23388671875
208087.859375,335087.1875,376858.75,289806.90625,682947.0625,220386.6875,210169.890625,217256.640625,-0.232666015625
207808.921875,334279.28125,375964.21875,289545.6875,682030.625,220295.3125,209929.828125,216953.015625,-0.231201171875
207905.296875,334132.75,376160.125,289733.34375,682073.6875,220342.96875,210009.9375,217120.203125,-0.2294921875
208253.53125,334863.9375,377178.5625,290115.28125,682997.1875,220460.90625,210300.515625,217529.6875,-0.2314453125
208374.328125,335457.9375,377609.75,290166.6875,683531.25,220486.375,210401.265625,217620.4375,-0.230712890625
208101.28125,335084.3125,376821.28125,289811.75,682947.3125,220383.5625,210167.5625,217259.328125,-0.23046875
207824.390625,334283.9375,375921.3125,289547.0,682027.5625,220296.75,209923.921875,216955.609375,-0.230224609375
207916.03125,334135.15625,376103.53125,289728.0625,682063.8125,220344.765625,209998.578125,217118.515625,-0.232177734375
208260.78125,334858.125,377118.5625,290113.0625,682981.25,220465.640625,210291.484375,217532.015625,-0.232666015625
208385.140625,335458.40625,377557.09375,290171.25,683514.75,220495.59375,210396.53125,217630.359375,-0.231689453125
208107.71875,335085.46875,376768.875,289812.65625,682926.375,220393.84375,210164.875,217273.453125,-0.233154296875
207819.90625,334277.40625,375860.875,289543.4375,682000.1875,220305.234375,209925.625,216970.546875,-0.23291015625
207904.671875,334120.5,376032.1875,289722.15625,682022.5625,220349.671875,210001.359375,217131.375,-0.232177734375
208248.53125,334848.71875,377043.8125,290108.21875,682925.25,220469.484375,210296.125,217547.21875,-0.232177734375
208375.84375,335461.53125,377496.75,290176.71875,683492.6875,220504.53125,210412.8125,217655.84375,-0.232666015625
208091.984375,335093.4375,376710.15625,289813.28125,682906.0625,220397.78125,210181.59375,217293.03125,-0.23095703125
207792.640625,334269.625,375781.375,289530.375,681970.25,220299.15625,209932.328125,216970.984375,-0.230224609375
207875.34375,334103.96875,375936.40625,289703.3125,681993.3125,220343.328125,210006.1875,217121.375,-0.23388671875
208212.765625,334814.5,376931.34375,290076.46875,682881.75,220456.609375,210288.0,217522.71875,-0.231201171875
208343.84375,335420.65625,377384.71875,290143.28125,683447.875,220490.5,210402.703125,217627.40625,-0.23046875
208075.4375,335065.53125,376608.0625,289791.625,682862.875,220387.5,210176.6875,217271.9375,-0.230224609375
207792.734375,334258.09375,375685.09375,289518.6875,681947.5625,220294.609375,209931.890625,216958.46875,-0.228271484375
207869.796875,334077.3125,375824.75,289683.1875,681971.625,220328.671875,209991.78125,217099.640625,-0.230224609375
208211.34375,334787.125,376820.125,290059.84375,682859.3125,220438.453125,210272.703125,217499.296875,-0.229248046875
208340.703125,335398.9375,377276.09375,290125.75,683441.5625,220469.578125,210382.3125,217600.40625,-0.22802734375
208071.0625,335046.59375,376505.40625,289772.40625,682872.0,220368.1875,210154.59375,217244.921875,-0.229248046875
207787.90625,334236.90625,375577.625,289497.65625,681949.9375,220272.25,209905.78125,216927.171875,-0.229736328125
207873.734375,334067.40625,375716.75,289668.4375,681972.0625,220312.484375,209970.421875,217073.09375,-0.229736328125
208225.828125,334783.375,376721.59375,290054.5,682871.375,220432.109375,210260.640625,217484.546875,-0.229248046875
208371.828125,335414.40625,377199.84375,290132.09375,683467.75,220470.546875,210380.984375,217599.78125,-0.22900390625
208104.5,335066.4375,376433.71875,289781.8125,682900.4375,220370.953125,210153.4375,217247.515625,-0.229248046875
207813.203125,334243.96875,375492.15625,289502.59375,681961.75,220279.484375,209903.640625,216928.421875,-0.23046875
207891.4375,334057.375,375620.09375,289673.53125,681968.3125,220327.5,209971.40625,217079.078125,-0.231201171875
208236.640625,334766.65625,376621.71875,290062.53125,682861.3125,220454.46875,210267.875,217495.984375,-0.2294921875
208363.6875,335381.3125,377091.65625,290131.90625,683450.0625,220489.15625,210383.65625,217605.234375,-0.228759765625
208100.203125,335046.9375,376338.5,289787.53125,682900.0,220397.421875,210169.53125,217261.109375,-0.23095703125
207810.171875,334234.21875,375399.875,289504.8125,681969.25,220303.453125,209922.234375,216939.421875,-0.23046875
207880.078125,334034.0625,375519.25,289665.125,681972.5625,220340.640625,209982.484375,217077.375,-0.2314453125
208227.4375,334743.125,376527.84375,290053.875,682872.5,220465.90625,210282.359375,217491.609375,-0.23046875
208373.171875,335381.5,377019.6875,290135.125,683480.4375,220500.859375,210406.1875,217610.78125,-0.23046875
208100.46875,335039.875,376260.34375,289779.5625,682934.875,220391.15625,210177.390625,217254.671875,-0.22802734375
207801.671875,334220.375,375316.03125,289494.25,681997.4375,220290.125,209924.375,216927.984375,-0.2265625
207877.140625,334025.65625,375432.25,289660.84375,681986.0,220333.21875,209988.21875,217068.703125,-0.2255859375
208226.71875,334727.3125,376434.96875,290051.625,682888.3125,220458.390625,210283.515625,217484.890625,-0.2265625
208367.796875,335355.84375,376925.625,290131.75,683487.125,220488.078125,210401.71875,217599.96875,-0.22509765625
208102.625,335026.5625,376176.5625,289785.09375,682950.6875,220387.40625,210177.84375,217246.0,-0.227294921875
207813.921875,334222.4375,375235.1875,289504.1875,682018.875,220294.0625,209926.4375,216920.828125,-0.22705078125
207878.46875,334008.75,375334.1875,289654.40625,681989.375,220324.28125,209973.109375,217045.1875,-0.22705078125
208224.21875,334700.9375,376335.34375,290042.875,682870.5625,220441.5,210260.09375,217451.28125,-0.227783203125
208377.453125,335344.03125,376848.09375,290133.625,683495.25,220482.0,210387.953125,217579.765625,-0.22998046875
208116.5625,335031.03125,376111.125,289786.625,682963.1875,220379.984375,210167.46875,217239.390625,-0.22900390625
207822.15625,334221.28125,375160.28125,289497.84375,682015.75,220284.859375,209912.3125,216918.859375,-0.230712890625
207885.625,333999.71875,375248.71875,289650.1875,681970.1875,220325.8125,209962.375,217053.234375,-0.2314453125
208229.75,334685.90625,376242.375,290040.28125,682838.9375,220448.921875,210251.609375,217470.5,-0.232666015625
208376.03125,335319.46875,376751.46875,290129.15625,683454.0,220490.40625,210378.109375,217603.625,-0.2353515625
208117.28125,335005.8125,376020.375,289783.125,682916.25,220394.828125,210158.890625,217264.234375,-0.23876953125
207824.46875,334199.625,375072.5625,289493.625,681970.4375,220305.859375,209908.015625,216940.40625,-0.238037109375
207883.75,333979.0625,375154.375,289640.90625,681927.875,220341.1875,209958.078125,217065.046875,-0.2373046875
208227.515625,334667.78125,376146.25,290029.71875,682794.4375,220465.015625,210251.96875,217477.828125,-0.2373046875
208374.234375,335311.6875,376662.125,290121.28125,683430.1875,220505.875,210384.734375,217610.875,-0.236572265625
208115.5,335009.75,375937.9375,289781.09375,682911.0625,220408.234375,210176.234375,217277.109375,-0.235595703125
207815.359375,334203.125,374978.59375,289487.90625,681968.75,220310.875,209928.40625,216949.890625,-0.23486328125
207871.40625,333979.78125,375050.125,289631.3125,681928.75,220342.078125,209979.984375,217074.78125,-0.2333984375
208214.015625,334664.8125,376040.40625,290022.3125,682799.0,220464.46875,210275.921875,217491.96875,-0.233642578125
208364.671875,335312.84375,376563.875,290115.03125,683443.0,220498.625,210408.609375,217627.6875,-0.232666015625
208116.203125,335024.6875,375845.84375,289778.40625,682931.5,220400.375,210198.3125,217291.6875,-0.232177734375
207821.4375,334221.4375,374884.28125,289487.1875,681991.1875,220302.734375,209946.09375,216963.5625,-0.231201171875
207874.1875,333985.40625,374949.5625,289629.71875,681944.625,220333.046875,209993.484375,217086.5,-0.232666015625
208211.609375,334657.40625,375939.8125,290015.6875,682808.8125,220449.09375,210283.515625,217498.671875,-0.234130859375
208377.90625,335321.4375,376485.125,290119.03125,683464.0,220493.53125,210423.4375,217644.40625,-0.2333984375
208129.34375,335036.03125,375775.9375,289776.34375,682949.1875,220391.25,210205.734375,217305.375,-0.23388671875
207831.53125,334226.90625,374810.96875,289477.375,681993.75,220290.671875,209943.6875,216968.296875,-0.234619140625
207887.140625,333991.03125,374876.40625,289621.03125,681935.0625,220324.203125,209987.3125,217088.109375,-0.234130859375
208230.734375,334666.96875,375874.8125,290016.21875,682788.6875,220449.359375,210276.734375,217508.328125,-0.234130859375
208394.53125,335327.21875,376428.4375,290123.59375,683443.875,220494.96875,210412.53125,217657.625,-0.234130859375
208151.875,335050.25,375736.0625,289789.125,682931.75,220399.390625,210199.03125,217328.53125,-0.2353515625
207851.921875,334233.34375,374771.53125,289491.5,681966.9375,220304.171875,209935.109375,216997.1875,-0.235107421875
207902.890625,333980.75,374822.59375,289632.21875,681890.4375,220341.09375,209973.109375,217117.609375,-0.23193359375
208241.921875,334645.78125,375811.34375,290024.4375,682728.0,220465.640625,210262.6875,217535.859375,-0.232666015625
208403.296875,335309.4375,376371.46875,290134.6875,683402.5,220510.515625,210407.078125,217691.421875,-0.23193359375
208155.8125,335036.21875,375688.40625,289808.09375,682909.375,220422.90625,210205.828125,217371.265625,-0.230712890625
207848.96875,334220.5625,374717.8125,289507.3125,681958.5625,220325.53125,209946.640625,217030.625,-0.228271484375
207893.859375,333964.5,374756.34375,289641.53125,681902.0625,220357.0,209987.40625,217135.5,-0.225830078125
208238.96875,334636.375,375747.875,290039.28125,682772.3125,220484.859375,210286.65625,217551.234375,-0.22265625
208401.953125,335306.21875,376310.84375,290147.46875,683458.375,220524.46875,210428.625,217694.28125,-0.222900390625
208149.375,335035.9375,375620.375,289811.21875,682985.1875,220419.953125,210218.25,217353.5625,-0.22314453125
207846.28125,334226.53125,374647.4375,289510.90625,682044.8125,220319.71875,209959.421875,217007.109375,-0.22265625
207885.359375,333958.59375,374672.9375,289637.0625,681966.9375,220346.28125,209990.984375,217102.59375,-0.22412109375
208225.640625,334618.9375,375659.78125,290026.78125,682842.4375,220463.84375,210279.328125,217511.359375,-0.2236328125
208389.53125,335288.78125,376237.375,290141.125,683519.6875,220504.34375,210420.9375,217660.21875,-0.225830078125
208152.953125,335038.71875,375573.0625,289817.28125,683067.8125,220410.828125,210216.46875,217333.53125,-0.224365234375
207855.5,334242.71875,374611.15625,289519.375,682130.9375,220312.578125,209957.453125,216993.421875,-0.224365234375
207890.453125,333966.375,374636.96875,289642.15625,682027.0625,220335.1875,209983.5625,217090.875,-0.22509765625
208225.28125,334611.34375,375618.59375,290025.875,682888.5,220448.46875,210257.78125,217494.015625,-0.22900390625
208394.265625,335288.78125,376210.375,290139.875,683547.75,220490.140625,210397.25,217645.03125,-0.229736328125
208160.375,335042.75,375559.03125,289817.65625,683094.3125,220397.859375,210195.546875,217324.0625,-0.230712890625
207855.59375,334227.53125,374586.375,289509.1875,682138.0,220299.15625,209927.6875,216976.0,-0.231689453125
207894.03125,333941.59375,374607.125,289637.40625,682000.1875,220332.15625,209956.03125,217073.0,-0.23095703125
208232.34375,334587.03125,375592.65625,290027.125,682840.8125,220451.15625,210237.296875,217481.859375,-0.23095703125
208411.25,335280.03125,376200.34375,290151.21875,683519.75,220498.890625,210385.890625,217648.328125,-0.230224609375
208170.125,335036.40625,375555.625,289828.1875,683064.6875,220411.015625,210186.25,217331.03125,-0.2314453125
207853.265625,334213.65625,374573.78125,289512.40625,682095.5,220307.390625,209918.109375,216979.125,-0.2353515625
207881.421875,333917.03125,374578.59375,289628.03125,681959.875,220334.390625,209944.9375,217072.46875,-0.235107421875
208216.25,334553.78125,375557.78125,290014.25,682789.4375,220452.5,210235.421875,217484.09375,-0.2333984375
208397.9375,335245.875,376170.3125,290144.53125,683482.5,220504.265625,210398.140625,217655.390625,-0.234130859375
208166.09375,335012.625,375531.3125,289826.9375,683037.5,220416.828125,210210.828125,217343.71875,-0.234130859375
207856.578125,334202.5,374549.375,289515.1875,682076.8125,220318.03125,209955.578125,217000.140625,-0.234619140625
207882.671875,333906.125,374545.6875,289632.3125,681942.4375,220343.5,209985.984375,217092.3125,-0.235595703125
208215.625,334545.1875,375524.25,290021.125,682779.0625,220460.09375,210271.453125,217503.5,-0.237548828125
208395.0625,335245.6875,376139.375,290148.1875,683477.5,220505.25,210425.234375,217672.203125,-0.23876953125
208164.84375,335026.1875,375507.625,289830.625,683038.4375,220410.296875,210234.53125,217359.90625,-0.237060546875
207858.8125,334228.96875,374530.21875,289520.28125,682080.5,220310.6875,209975.78125,217014.96875,-0.239501953125
207878.03125,333922.375,374510.375,289626.21875,681927.5,220328.75,209989.46875,217093.5625,-0.2392578125
208218.125,334557.34375,375484.75,290017.28125,682743.125,220447.75,210272.34375,217504.65625,-0.239501953125
208404.453125,335263.125,376105.3125,290149.875,683456.5625,220494.25,210425.234375,217678.109375,-0.238037109375
208173.078125,335045.0625,375475.34375,289833.5625,683016.3125,220404.125,210229.703125,217365.265625,-0.23681640625
207860.859375,334234.875,374483.75,289516.53125,682043.25,220300.0625,209958.703125,217011.125,-0.23291015625
207882.40625,333928.1875,374457.71875,289621.3125,681889.0,220315.25,209970.515625,217090.96875,-0.22802734375
208219.734375,334556.28125,375427.875,290013.8125,682700.0,220436.40625,210254.46875,217501.796875,-0.22802734375
208404.546875,335256.5,376053.90625,290146.65625,683401.375,220487.09375,210409.859375,217676.046875,-0.227783203125
208177.265625,335052.9375,375434.59375,289828.46875,682947.5,220394.734375,210216.828125,217361.96875,-0.23046875
207863.453125,334246.46875,374444.40625,289510.1875,681975.0,220293.34375,209947.265625,217000.40625,-0.234130859375
207882.59375,333941.5,374422.03125,289619.78125,681845.625,220319.1875,209964.96875,217079.265625,-0.235107421875
208220.015625,334573.90625,375401.78125,290014.875,682653.0625,220450.4375,210255.53125,217495.453125,-0.239013671875
208413.125,335283.6875,376052.375,290161.0625,683393.375,220515.703125,210425.234375,217683.921875,-0.241943359375
208185.5,335081.375,375445.3125,289848.3125,682970.4375,220429.875,210237.390625,217378.5,-0.240234375
207868.640625,334276.6875,374454.59375,289526.90625,682000.9375,220331.34375,209969.609375,217021.40625,-0.23681640625
207883.390625,333952.25,374417.3125,289632.9375,681858.5625,220356.5625,209984.546875,217099.46875,-0.234619140625
208212.859375,334571.75,375383.625,290020.875,682668.6875,220471.453125,210264.03125,217508.328125,-0.232666015625
208403.203125,335282.4375,376031.5625,290162.65625,683421.0625,220524.015625,210429.25,217690.625,-0.233154296875
208180.84375,335083.78125,375432.0625,289852.96875,683022.6875,220433.1875,210246.859375,217388.875,-0.232177734375
207856.75,334270.1875,374434.21875,289524.21875,682057.625,220323.03125,209973.1875,217022.65625,-0.232666015625
207869.71875,333942.84375,374389.5,289620.6875,681908.3125,220337.78125,209984.09375,217088.28125,-0.2314453125
208200.78125,334557.96875,375356.53125,290006.65625,682735.4375,220453.921875,210265.640625,217490.625,-0.233642578125
208393.375,335269.84375,376013.125,290150.96875,683480.625,220505.953125,210433.015625,217671.9375,-0.233154296875
208175.484375,335078.40625,375425.09375,289839.71875,683094.375,220414.046875,210250.265625,217367.421875,-0.23388671875
207863.28125,334271.875,374435.0,289514.90625,682143.0,220309.4375,209981.15625,217005.234375,-0.233642578125
207871.59375,333933.125,374384.3125,289612.375,681970.4375,220325.09375,209985.625,217066.390625,-0.232421875
208202.9375,334542.0625,375348.03125,290001.90625,682806.125,220441.3125,210262.953125,217466.75,-0.231201171875
208402.578125,335267.15625,376017.4375,290153.0,683543.9375,220498.09375,210431.9375,217655.484375,-0.232666015625
208185.859375,335088.34375,375439.6875,289847.5,683167.6875,220411.90625,210244.625,217351.953125,-0.230224609375
207864.4375,334274.5625,374440.8125,289516.71875,682213.6875,220302.46875,209960.671875,216979.125,-0.2294921875
207872.390625,333927.65625,374376.28125,289607.1875,682008.6875,220319.8125,209957.359375,217035.53125,-0.23046875
208206.859375,334535.34375,375337.5625,289998.0625,682837.6875,220438.8125,210231.9375,217438.859375,-0.228515625
208407.046875,335261.25,376012.59375,290152.3125,683572.25,220492.015625,210398.671875,217630.546875,-0.229248046875
208193.453125,335091.65625,375444.25,289850.28125,683198.25,220406.625,210219.78125,217333.984375,-0.228271484375
207874.71875,334279.5625,374445.03125,289524.3125,682243.3125,220306.9375,209951.203125,216970.546875,-0.2275390625
207880.265625,333922.84375,374367.15625,289614.15625,682017.5625,220326.078125,209955.125,217030.796875,-0.2294921875
208215.984375,334526.59375,375323.28125,290010.5,682846.375,220453.296875,210244.359375,217445.375,-0.228759765625
208419.828125,335253.21875,376006.6875,290174.75,683572.8125,220519.28125,210428.09375,217650.65625,-0.22900390625
208205.96875,335093.0,375444.6875,289873.625,683199.25,220435.6875,210255.71875,217361.25,-0.229736328125
207879.09375,334282.0625,374437.6875,289538.0,682241.5,220331.96875,209981.5,216994.140625,-0.232666015625
207873.109375,333923.71875,374346.59375,289619.0625,682004.0,220344.671875,209977.03125,217049.75,-0.23291015625
208196.140625,334515.34375,375292.96875,290006.125,682814.0,220461.796875,210255.09375,217457.8125,-0.23193359375
208400.796875,335255.25,375976.375,290161.96875,683543.4375,220514.90625,210427.109375,217659.59375,-0.233154296875
208191.125,335104.4375,375418.21875,289863.6875,683170.4375,220430.046875,210250.890625,217370.546875,-0.2333984375
207866.9375,334295.46875,374403.0,289528.6875,682202.125,220320.53125,209973.734375,217000.84375,-0.232421875
207860.234375,333926.6875,374297.5,289607.71875,681957.8125,220330.0,209967.734375,217050.921875,-0.233154296875
208191.671875,334518.28125,375240.5625,289996.8125,682748.8125,220447.9375,210249.28125,217460.765625,-0.230712890625
208403.03125,335257.0625,375932.75,290159.4375,683499.5,220507.03125,210429.96875,217668.8125,-0.23291015625
208193.359375,335099.15625,375374.59375,289859.9375,683123.25,220423.53125,210254.640625,217377.25,-0.231201171875
207873.828125,334296.1875,374365.0,289529.65625,682152.125,220315.34375,209983.03125,217008.71875,-0.2333984375
207868.46875,333926.21875,374258.53125,289606.5625,681920.75,220325.0,209975.515625,217056.640625,-0.234130859375
208199.359375,334514.71875,375198.09375,289995.125,682691.75,220444.453125,210251.609375,217462.8125,-0.233642578125
208416.703125,335266.34375,375908.34375,290170.71875,683464.875,220511.140625,210435.6875,217679.09375,-0.234619140625
208209.109375,335125.25,375369.21875,289875.125,683103.25,220420.046875,210256.515625,217392.265625,-0.2353515625
207883.84375,334319.0,374352.5625,289535.65625,682122.6875,220305.859375,209971.671875,217014.703125,-0.2333984375
207869.625,333938.46875,374224.53125,289602.1875,681870.1875,220308.015625,209947.625,217048.0625,-0.232177734375
208198.546875,334522.84375,375163.6875,289991.8125,682636.1875,220428.984375,210225.40625,217454.859375,-0.232421875
208414.46875,335270.5625,375875.625,290163.9375,683417.9375,220491.75,210410.21875,217666.65625,-0.235595703125
208212.859375,335139.65625,375346.0625,289876.9375,683064.25,220407.703125,210243.203125,217383.78125,-0.23486328125
207880.078125,334324.53125,374318.5,289530.28125,682076.3125,220295.578125,209959.6875,217000.84375,-0.23486328125
207872.03125,333945.625,374197.375,289605.5625,681853.6875,220317.046875,209958.265625,217049.75,-0.233154296875
208192.5625,334515.15625,375126.46875,289989.40625,682605.5,220436.3125,210236.578125,217452.53125,-0.234375
208413.671875,335272.4375,375850.9375,290170.1875,683403.5625,220503.640625,210432.5625,217677.921875,-0.2353515625
208212.40625,335154.59375,375329.96875,289879.96875,683064.4375,220419.765625,210267.609375,217402.828125,-0.238037109375
207875.078125,334344.21875,374301.96875,289530.125,682079.4375,220306.3125,209983.734375,217023.46875,-0.23828125
207849.6875,333945.53125,374158.28125,289589.65625,681832.75,220309.078125,209962.375,217057.53125,-0.237060546875
208179.328125,334522.65625,375089.46875,289977.40625,682587.0625,220432.640625,210238.8125,217463.53125,-0.237548828125
208395.25,335272.25,375810.53125,290152.5625,683397.5625,220497.375,210422.28125,217681.234375,-0.239501953125
208191.40625,335148.5,375289.75,289860.375,683073.1875,220413.0625,210251.34375,217400.765625,-0.23974609375
207865.328125,334347.15625,374267.46875,289517.0625,682102.875,220306.765625,209970.15625,217020.34375,-0.23779296875
207850.484375,333955.03125,374121.5625,289580.09375,681863.125,220318.03125,209954.78125,217049.84375,-0.23828125
208167.96875,334507.375,375036.4375,289961.6875,682615.4375,220432.921875,210225.140625,217443.59375,-0.237548828125
208391.140625,335259.03125,375765.46875,290146.5625,683430.875,220500.953125,210419.59375,217665.765625,-0.23486328125
208202.390625,335156.46875,375262.75,289865.65625,683127.75,220421.46875,210261.171875,217390.75,-0.23388671875
207874.625,334360.125,374237.875,289521.34375,682164.25,220309.0,209982.484375,217006.75,-0.23388671875
207846.109375,333940.96875,374067.46875,289573.3125,681897.0625,220310.875,209956.921875,217023.640625,-0.23388671875
208171.8125,334492.25,374979.78125,289959.1875,682661.5625,220428.890625,210230.328125,217419.546875,-0.234619140625
208400.171875,335253.21875,375712.90625,290144.0625,683476.6875,220492.8125,210421.125,217639.75,-0.233154296875
208211.34375,335148.40625,375210.09375,289862.4375,683178.0625,220415.390625,210260.453125,217367.0625,-0.2314453125
207882.859375,334340.375,374172.34375,289512.78125,682215.3125,220308.109375,209975.0625,216978.3125,-0.23193359375
207854.421875,333922.03125,373994.21875,289562.65625,681935.6875,220311.859375,209944.046875,216992.71875,-0.232666015625
208176.203125,334463.90625,374899.65625,289947.28125,682704.9375,220432.28125,210212.796875,217388.0625,-0.23095703125
208407.234375,335227.71875,375637.96875,290137.90625,683507.6875,220503.546875,210407.703125,217614.453125,-0.231201171875
208223.859375,335143.5,375148.84375,289863.25,683210.875,220427.734375,210253.390625,217347.84375,-0.232666015625
207896.171875,334349.46875,374117.53125,289514.46875,682251.375,220319.90625,209972.46875,216965.625,-0.231201171875
207862.03125,333922.21875,373933.15625,289562.75,681954.0,220326.609375,209946.453125,216986.359375,-0.23193359375
208176.375,334456.40625,374835.375,289944.96875,682705.25,220446.234375,210218.96875,217387.171875,-0.230712890625
208407.40625,335226.125,375584.53125,290139.15625,683512.25,220517.046875,210420.859375,217625.625,-0.23046875
208213.484375,335135.1875,375096.8125,289859.5,683209.875,220435.0625,210264.75,217359.8125,-0.23193359375
207878.296875,334333.5625,374061.28125,289508.40625,682240.4375,220322.140625,209982.9375,216975.1875,-0.23291015625
207839.21875,333891.8125,373864.15625,289553.1875,681929.25,220322.5,209950.21875,216990.125,-0.23046875
208151.796875,334412.875,374749.8125,289930.3125,682657.5625,220434.875,210212.4375,217384.671875,-0.233642578125
208386.671875,335184.90625,375504.6875,290126.90625,683471.0625,220505.15625,210414.765625,217627.859375,-0.233154296875
208208.5625,335116.6875,375035.28125,289857.34375,683187.1875,220430.953125,210263.859375,217374.65625,-0.232666015625
207874.546875,334321.125,373995.75,289505.09375,682216.125,220317.484375,209974.171875,216987.265625,-0.23046875
207833.140625,333880.1875,373788.15625,289544.34375,681893.1875,220316.15625,209936.171875,216994.671875,-0.22900390625
208145.53125,334401.34375,374671.40625,289919.5625,682605.6875,220428.890625,210196.53125,217385.5625,-0.23046875
208383.359375,335175.25,375430.5625,290120.28125,683434.9375,220496.921875,210398.59375,217625.453125,-0.23193359375
208206.78125,335111.9375,374965.0,289849.65625,683159.75,220421.65625,210252.765625,217366.96875,-0.2314453125
207876.953125,334319.4375,373923.34375,289496.5,682187.1875,220312.125,209973.28125,216978.671875,-0.231201171875
207839.140625,333874.625,373710.1875,289541.125,681873.1875,220313.5625,209941.8125,216987.890625,-0.234619140625
208151.34375,334387.03125,374588.6875,289918.0625,682581.4375,220422.8125,210204.125,217377.78125,-0.232666015625
208396.234375,335168.625,375361.28125,290124.0625,683418.375,220497.46875,210411.90625,217627.5,-0.233154296875
208225.90625,335116.78125,374910.125,289859.59375,683148.0,220425.765625,210266.359375,217376.171875,-0.231689453125
207890.015625,334320.0625,373865.40625,289501.0625,682167.3125,220313.46875,209977.578125,216983.859375,-0.232421875
207847.71875,333869.625,373640.0,289535.65625,681848.5625,220312.9375,209937.078125,216987.265625,-0.23486328125
208166.546875,334389.96875,374525.21875,289919.5625,682553.3125,220430.5,210204.578125,217385.75,-0.2353515625
208406.609375,335169.15625,375298.59375,290123.96875,683387.25,220501.046875,210406.640625,217633.21875,-0.232177734375
208233.15625,335116.9375,374853.875,289860.9375,683120.1875,220429.15625,210261.0,217385.828125,-0.233642578125
207896.984375,334323.375,373810.15625,289504.1875,682138.4375,220317.21875,209973.734375,216998.25,-0.234130859375
207849.859375,333874.375,373580.90625,289537.28125,681826.25,220317.578125,209932.953125,217001.75,-0.234130859375
208156.359375,334382.1875,374461.75,289913.6875,682518.3125,220432.734375,210197.953125,217395.140625,-0.23486328125
208394.796875,335161.5625,375247.1875,290120.65625,683368.0625,220502.921875,210407.625,217647.96875,-0.234619140625
208222.515625,335115.53125,374818.75,289862.09375,683123.5,220433.0,210273.234375,217408.1875,-0.23291015625
207884.734375,334324.90625,373774.5625,289498.09375,682142.4375,220319.1875,209987.140625,217015.15625,-0.2314453125
207833.140625,333865.875,373536.375,289523.6875,681815.5,220311.40625,209945.390625,217011.484375,-0.232421875
208135.78125,334366.8125,374413.28125,289902.125,682512.3125,220421.921875,210209.3125,217402.375,-0.233642578125
208382.546875,335148.40625,375212.125,290118.5,683370.75,220499.96875,210423.0,217662.546875,-0.23583984375
208219.734375,335120.875,374793.96875,289859.21875,683128.25,220425.578125,210282.0,217420.609375,-0.235595703125
207882.59375,334340.90625,373752.3125,289495.4375,682155.0,220309.359375,209990.625,217025.53125,-0.23681640625
207828.234375,333871.875,373505.28125,289522.875,681829.8125,220305.859375,209943.859375,217016.9375,-0.2353515625
208140.078125,334368.53125,374375.46875,289903.40625,682524.875,220417.359375,210202.15625,217404.078125,-0.23486328125
208388.71875,335149.65625,375169.40625,290116.53125,683389.25,220491.03125,210408.78125,217657.09375,-0.234619140625
208225.46875,335127.3125,374753.5625,289861.8125,683165.8125,220419.234375,210267.15625,217412.828125,-0.23388671875
207886.96875,334342.78125,373710.28125,289500.96875,682201.5625,220306.84375,209978.828125,217016.671875,-0.2333984375
207831.09375,333867.9375,373447.875,289518.5,681847.75,220298.265625,209925.453125,216998.875,-0.231201171875
208138.375,334356.71875,374306.25,289891.59375,682538.625,220412.171875,210180.4375,217380.375,-0.230224609375
208388.1875,335136.34375,375106.625,290110.09375,683401.9375,220489.78125,210392.0625,217636.359375,-0.230712890625
208234.5,335117.3125,374705.09375,289862.1875,683184.25,220425.84375,210262.15625,217399.875,-0.229736328125
207902.53125,334342.40625,373661.8125,289498.28125,682218.0,220311.671875,209976.328125,216999.78125,-0.2294921875
207838.515625,333860.4375,373391.90625,289513.125,681856.1875,220303.625,209923.484375,216978.046875,-0.22998046875
208144.8125,334341.0625,374252.09375,289893.46875,682545.9375,220423.078125,210183.65625,217366.609375,-0.2314453125
208396.765625,335126.25,375064.53125,290117.34375,683413.9375,220500.859375,210399.3125,217631.53125,-0.23046875
208238.0625,335118.375,374673.71875,289871.375,683201.3125,220433.453125,210268.5,217399.6875,-0.231201171875
207894.84375,334339.1875,373624.28125,289501.15625,682232.0625,220314.71875,209976.234375,217000.21875,-0.2314453125
207829.21875,333856.65625,373346.03125,289514.28125,681868.8125,220305.953125,209921.875,216982.96875,-0.233154296875
208121.65625,334322.46875,374191.28125,289883.09375,682541.75,220412.265625,210173.28125,217365.453125,-0.230712890625
208373.875,335112.03125,375007.03125,290105.28125,683414.375,220486.828125,210388.390625,217630.71875,-0.230224609375
208213.75,335104.4375,374626.78125,289862.09375,683215.8125,220420.75,210261.796875,217405.5,-0.2294921875
207871.953125,334326.59375,373584.21875,289493.46875,682251.625,220302.921875,209972.65625,217009.515625,-0.23046875
207812.765625,333843.53125,373307.3125,289507.21875,681874.75,220296.484375,209920.796875,216991.375,-0.230712890625
208109.40625,334305.59375,374150.4375,289873.53125,682544.875,220402.34375,210172.03125,217371.890625,-0.230224609375
208366.8125,335098.625,374975.03125,290102.5,683415.4375,220479.671875,210391.34375,217642.515625,-0.2314453125
208222.609375,335110.4375,374608.8125,289865.9375,683223.1875,220417.09375,210271.1875,217421.515625,-0.230224609375
207881.96875,334332.40625,373558.28125,289494.625,682260.75,220301.390625,209980.515625,217019.359375,-0.228759765625
207805.96875,333825.8125,373256.0,289496.0625,681857.6875,220289.0625,209916.15625,216986.625,-0.228271484375
208106.90625,334285.65625,374094.90625,289870.03125,682517.1875,220403.046875,210170.875,217368.9375,-0.22802734375
208367.359375,335080.65625,374923.53125,290101.59375,683398.625,220483.421875,210390.546875,217639.21875,-0.226318359375
208221.265625,335094.0625,374559.03125,289860.375,683221.25,220419.765625,210265.1875,217412.296875,-0.227783203125
207889.03125,334332.03125,373517.15625,289494.09375,682271.3125,220308.8125,209979.359375,217013.984375,-0.22705078125
207817.40625,333826.28125,373209.25,289495.6875,681869.4375,220296.84375,209916.0625,216978.671875,-0.22607421875
208117.1875,334286.53125,374042.25,289864.0625,682523.625,220409.046875,210166.9375,217354.28125,-0.22607421875
208380.234375,335085.84375,374877.5625,290099.375,683411.75,220494.96875,210392.328125,217626.34375,-0.226318359375
208232.53125,335104.96875,374518.6875,289861.8125,683238.4375,220429.421875,210267.875,217401.484375,-0.224365234375
207900.109375,334350.65625,373480.40625,289502.59375,682291.875,220319.09375,209989.546875,217008.8125,-0.22509765625
207826.984375,333849.5,373172.59375,289506.96875,681876.625,220311.765625,209931.4375,216981.359375,-0.2294921875
208125.0625,334299.21875,374007.28125,289880.0625,682533.1875,220429.875,210191.875,217368.84375,-0.229248046875
208394.796875,335110.78125,374857.625,290120.28125,683418.8125,220515.703125,210422.28125,217654.5,-0.22900390625
208248.265625,335141.71875,374515.21875,289887.9375,683239.375,220450.890625,210302.296875,217440.28125,-0.22802734375
207896.71875,334366.28125,373466.375,289509.46875,682269.625,220330.28125,210006.984375,217035.984375,-0.227783203125
207809.359375,333847.375,373140.5,289495.6875,681838.5,220309.890625,209931.53125,216994.140625,-0.228515625
208103.78125,334289.03125,373965.625,289860.3125,682471.9375,220418.4375,210178.109375,217373.671875,-0.23046875
208372.359375,335098.71875,374819.8125,290102.3125,683360.1875,220503.09375,210408.0625,217662.640625,-0.230712890625
208220.90625,335121.875,374476.0625,289864.6875,683181.25,220430.234375,210286.03125,217444.390625,-0.229736328125
207879.453125,334357.625,373423.5625,289486.5625,682206.5625,220305.15625,209991.15625,217035.53125,-0.228271484375
207791.921875,333827.96875,373083.09375,289468.34375,681788.4375,220282.359375,209912.3125,216985.65625,-0.230224609375
208082.0625,334252.46875,373896.5,289834.5625,682410.875,220388.203125,210156.296875,217358.75,-0.230712890625
208357.515625,335055.96875,374757.15625,290086.21875,683317.0625,220475.296875,210391.96875,217647.265625,-0.2314453125
208228.859375,335108.46875,374440.5625,289864.78125,683182.875,220414.671875,210284.15625,217439.125,-0.230224609375
207890.015625,334354.75,373395.125,289491.59375,682226.5625,220296.921875,209995.546875,217030.796875,-0.22998046875
207798.640625,333820.5625,373046.4375,289474.40625,681805.5625,220276.359375,209917.046875,216974.03125,-0.2314453125
208092.421875,334248.53125,373860.3125,289841.96875,682443.125,220389.46875,210165.6875,217348.28125,-0.231201171875
208371.46875,335061.875,374725.9375,290091.59375,683357.3125,220477.078125,210397.515625,217636.625,-0.230224609375
208246.203125,335127.40625,374417.125,289873.8125,683230.1875,220417.890625,210286.65625,217433.125,-0.229736328125
207905.296875,334371.5625,373370.1875,289500.0625,682281.5,220301.3125,209993.84375,217026.78125,-0.22900390625
207816.515625,333834.6875,373019.78125,289483.625,681853.25,220283.96875,209915.171875,216971.34375,-0.227783203125
208100.921875,334245.21875,373822.46875,289846.15625,682483.1875,220389.640625,210152.8125,217337.375,-0.229248046875
208375.40625,335055.15625,374690.09375,290096.78125,683388.8125,220480.296875,210382.140625,217624.1875,-0.2275390625
208253.53125,335127.84375,374395.03125,289883.71875,683264.6875,220429.609375,210279.40625,217425.078125,-0.22802734375
207914.0625,334375.0625,373348.71875,289509.5625,682319.5,220317.671875,209990.625,217019.171875,-0.226806640625
207824.65625,333836.0,372990.625,289489.875,681862.625,220303.546875,209914.71875,216968.03125,-0.226806640625
208109.953125,334242.71875,373791.5625,289851.71875,682487.0625,220413.6875,210158.359375,217341.578125,-0.2275390625
208388.09375,335052.03125,374669.78125,290109.28125,683395.25,220505.328125,210396.625,217640.640625,-0.2265625
208259.4375,335123.375,374381.625,289892.65625,683269.625,220449.359375,210294.515625,217447.703125,-0.2265625
207912.1875,334366.5625,373333.96875,289507.9375,682319.875,220329.5625,210000.109375,217041.625,-0.22705078125
207810.796875,333816.4375,372962.375,289478.71875,681862.4375,220306.671875,209911.953125,216979.65625,-0.228515625
208088.21875,334215.09375,373750.875,289831.34375,682473.8125,220406.890625,210146.015625,217341.9375,-0.2255859375
208370.484375,335028.4375,374632.0625,290087.9375,683393.0625,220492.90625,210383.484375,217637.96875,-0.225341796875
208246.203125,335102.8125,374347.75,289873.71875,683286.625,220435.953125,210281.375,217442.78125,-0.22216796875
207899.578125,334346.71875,373297.03125,289493.0,682345.0625,220313.015625,209985.4375,217029.90625,-0.22119140625
207808.5625,333805.09375,372926.96875,289470.03125,681882.75,220290.9375,209903.90625,216966.96875,-0.220947265625
208090.1875,334204.375,373713.5,289828.46875,682494.125,220391.34375,210141.09375,217330.40625,-0.220458984375
208372.359375,335017.0,374601.21875,290090.34375,683410.6875,220478.875,210380.34375,217633.671875,-0.2236328125
208255.953125,335106.3125,374333.1875,289879.78125,683303.9375,220426.03125,210283.515625,217446.09375,-0.225830078125
207917.375,334368.4375,373290.6875,289499.09375,682365.8125,220310.421875,209990.984375,217037.140625,-0.22900390625
207814.1875,333809.90625,372905.53125,289469.3125,681875.875,220288.078125,209900.234375,216968.84375,-0.232177734375
208093.765625,334196.5,373686.0625,289828.28125,682466.0,220393.3125,210133.59375,217332.734375,-0.233642578125
208377.90625,335019.3125,374581.8125,290091.15625,683384.5,220481.375,210371.59375,217636.0,-0.23388671875
208266.765625,335122.40625,374330.6875,289890.875,683296.375,220430.953125,210278.6875,217457.8125,-0.233154296875
207926.9375,334381.5,373285.15625,289509.46875,682347.125,220316.15625,209984.1875,217049.21875,-0.23388671875
207826.34375,333818.21875,372888.8125,289477.09375,681854.5,220299.703125,209895.40625,216979.84375,-0.233154296875
208100.734375,334194.625,373653.15625,289829.375,682426.3125,220403.234375,210127.515625,217337.203125,-0.232421875
208383.453125,335014.75,374548.03125,290091.875,683337.3125,220492.453125,210372.484375,217643.421875,-0.232177734375
208273.828125,335120.53125,374300.71875,289895.96875,683252.4375,220446.421875,210291.03125,217468.984375,-0.23291015625
207928.8125,334379.0625,373254.21875,289516.78125,682304.125,220329.203125,210009.40625,217063.515625,-0.233154296875
207821.171875,333822.96875,372853.5,289479.34375,681822.9375,220309.625,209929.203125,216997.8125,-0.234375
208087.953125,334200.875,373618.71875,289825.96875,682399.25,220410.65625,210166.21875,217362.140625,-0.230712890625
208373.875,335023.875,374524.6875,290093.28125,683332.75,220502.921875,210419.25,217680.078125,-0.231201171875
208270.25,335149.21875,374292.75,289894.625,683275.6875,220452.9375,210341.09375,217511.453125,-0.231201171875
207920.9375,334407.5,373245.375,289504.53125,682337.375,220330.8125,210051.515625,217102.421875,-0.23095703125
207806.234375,333833.96875,372831.9375,289459.5,681842.5625,220299.34375,209957.1875,217023.828125,-0.230224609375
208075.96875,334198.375,373588.875,289809.0625,682419.1875,220397.6875,210186.25,217379.671875,-0.23291015625
208368.515625,335025.9375,374500.71875,290079.0,683352.125,220488.171875,210431.21875,217694.734375,-0.232421875
208271.234375,335161.84375,374286.59375,289887.65625,683295.8125,220438.28125,210346.28125,217527.546875,-0.233642578125
207928.28125,334434.3125,373248.75,289498.375,682361.6875,220319.28125,210049.28125,217114.03125,-0.23291015625
207815.265625,333860.875,372830.78125,289451.34375,681845.875,220292.8125,209946.8125,217030.4375,-0.2314453125
208086.53125,334225.90625,373585.09375,289799.3125,682405.4375,220392.953125,210169.34375,217382.96875,-0.230712890625
208375.3125,335036.9375,374494.375,290070.21875,683329.625,220482.453125,210408.0625,217691.875,-0.232421875
208283.125,335176.3125,374287.5,289885.5,683279.0625,220437.03125,210326.625,217527.015625,-0.2314453125
207947.859375,334450.40625,373250.53125,289506.6875,682337.4375,220322.859375,210036.3125,217117.609375,-0.228515625
207836.1875,333870.53125,372818.09375,289457.78125,681818.25,220294.78125,209930.71875,217028.828125,-0.2294921875
208106.90625,334223.78125,373559.625,289806.5625,682367.4375,220400.375,210151.46875,217379.9375,-0.227294921875
208402.40625,335045.6875,374474.34375,290086.40625,683300.625,220498.890625,210396.0,217696.875,-0.2255859375
208305.578125,335181.21875,374268.90625,289905.28125,683266.125,220457.859375,210316.6875,217535.234375,-0.22265625
207959.828125,334447.03125,373222.65625,289521.09375,682332.0,220344.765625,210026.03125,217124.234375,-0.22314453125
207845.84375,333866.9375,372783.3125,289473.96875,681826.6875,220325.09375,209929.03125,217036.609375,-0.223388671875
208110.125,334216.8125,373515.28125,289821.3125,682386.125,220432.375,210159.421875,217382.96875,-0.224853515625
208400.25,335040.25,374433.03125,290099.1875,683339.6875,220526.609375,210415.3125,217698.3125,-0.223876953125
208306.640625,335190.71875,374237.59375,289917.25,683336.125,220482.0,210344.765625,217533.796875,-0.224609375
207957.78125,334462.59375,373191.09375,289530.03125,682433.125,220363.4375,210057.5,217114.65625,-0.224853515625
207826.0,333868.75,372734.9375,289465.03125,681899.4375,220326.609375,209951.375,217011.21875,-0.22412109375
208088.578125,334212.5,373470.5,289810.6875,682484.5625,220421.65625,210178.828125,217357.21875,-0.225341796875
208380.9375,335031.46875,374400.15625,290090.875,683439.375,220511.859375,210430.78125,217675.15625,-0.22607421875
208286.96875,335185.53125,374212.84375,289905.09375,683414.75,220457.765625,210351.46875,217512.703125,-0.223388671875
207938.375,334458.375,373166.25,289513.21875,682523.0625,220329.828125,210050.171875,217092.484375,-0.2265625
207812.9375,333850.0625,372702.3125,289451.15625,681962.0625,220296.484375,209933.046875,216989.046875,-0.223876953125
208077.578125,334179.25,373423.90625,289794.84375,682527.375,220393.671875,210147.625,217333.0,-0.225830078125
208379.6875,335005.625,374358.65625,290080.15625,683466.5625,220485.578125,210395.453125,217656.734375,-0.225341796875
208296.546875,335171.5625,374188.96875,289903.84375,683434.9375,220436.046875,210320.265625,217503.765625,-0.225830078125
207956.078125,334457.5625,373158.625,289519.125,682552.6875,220318.390625,210029.421875,217094.8125,-0.227294921875
207823.484375,333845.21875,372691.5,289449.84375,681953.1875,220280.65625,209908.28125,216984.9375,-0.228271484375
208084.640625,334173.4375,373408.875,289789.3125,682484.875,220379.359375,210122.140625,217323.875,-0.228759765625
208390.328125,335007.0625,374349.96875,290080.15625,683422.75,220481.90625,210374.546875,217650.21875,-0.2294921875
208307.0,335173.71875,374184.84375,289907.0625,683392.9375,220442.5625,210301.9375,217495.625,-0.227783203125
207962.609375,334456.59375,373143.96875,289518.125,682478.25,220327.5,210009.046875,217080.234375,-0.227294921875
207832.703125,333843.34375,372668.6875,289453.59375,681898.5,220300.40625,209900.59375,216978.59375,-0.229736328125
208100.65625,334172.0,373385.71875,289800.5625,682422.5625,220406.890625,210130.71875,217327.90625,-0.231201171875
208398.203125,334993.03125,374323.6875,290089.96875,683358.125,220505.953125,210391.34375,217659.59375,-0.2314453125
208316.921875,335174.875,374171.0,289923.96875,683348.375,220467.875,210330.8125,217519.953125,-0.232421875
207972.171875,334473.125,373136.71875,289536.375,682434.1875,220352.453125,210045.171875,217113.5,-0.232421875
207835.5625,333861.6875,372651.53125,289463.25,681857.6875,220321.6875,209932.421875,217010.328125,-0.232421875
208087.859375,334174.15625,373354.625,289802.09375,682367.25,220422.71875,210151.921875,217354.09375,-0.232177734375
208387.640625,335007.78125,374302.0625,290093.5625,683306.1875,220516.78125,210410.125,217688.03125,-0.232177734375
208312.09375,335206.53125,374162.78125,289929.9375,683310.375,220472.703125,210351.5625,217549.265625,-0.233154296875
207962.34375,334505.75,373127.0625,289535.46875,682383.875,220347.0,210060.984375,217133.4375,-0.23486328125
207828.59375,333898.15625,372643.65625,289464.5,681813.25,220312.9375,209949.40625,217027.9375,-0.234130859375
208083.3125,334208.5,373344.5,289802.09375,682313.75,220410.65625,210164.796875,217369.65625,-0.2353515625
208386.75,335043.8125,374297.15625,290098.46875,683252.6875,220504.96875,210421.296875,217706.359375,-0.235107421875
208309.5,335240.875,374163.65625,289935.3125,683262.0,220462.234375,210357.640625,217571.71875,-0.233642578125
207960.46875,334534.09375,373120.71875,289539.25,682322.0625,220336.71875,210057.5,217152.84375,-0.2333984375
207815.71875,333903.15625,372611.28125,289457.25,681737.0,220289.859375,209926.796875,217031.78125,-0.2314453125
208068.46875,334199.09375,373297.65625,289793.875,682214.8125,220384.546875,210138.953125,217366.078125,-0.230712890625
208370.84375,335025.3125,374244.9375,290085.6875,683149.8125,220476.09375,210391.4375,217694.921875,-0.228759765625
208298.859375,335226.46875,374118.96875,289927.0,683213.5625,220434.34375,210332.078125,217556.328125,-0.227783203125
207957.15625,334533.5625,373084.6875,289534.59375,682282.3125,220316.0625,210041.3125,217134.59375,-0.227783203125
207813.203125,333910.75,372575.34375,289451.625,681730.75,220278.234375,209918.5625,217008.453125,-0.23095703125
208069.0,334211.875,373261.28125,289787.6875,682225.25,220381.78125,210134.65625,217338.890625,-0.2333984375
208381.125,335051.25,374220.4375,290086.5,683183.875,220486.828125,210396.71875,217672.828125,-0.236083984375
208315.765625,335263.125,374109.03125,289933.25,683253.9375,220458.484375,210344.59375,217539.796875,-0.23876953125
207974.3125,334565.75,373077.1875,289544.78125,682343.875,220350.03125,210056.34375,217122.703125,-0.237548828125
207829.03125,333930.15625,372552.8125,289456.625,681772.5625,220314.546875,209930.8125,216994.859375,-0.237060546875
208075.890625,334204.71875,373218.625,289786.8125,682269.0,220411.015625,210141.453125,217325.484375,-0.235107421875
208381.5625,335027.71875,374174.5625,290088.03125,683233.6875,220507.484375,210404.21875,217665.328125,-0.236083984375
208313.703125,335243.46875,374069.875,289935.03125,683301.0,220472.875,210355.765625,217538.984375,-0.23486328125
207967.078125,334555.21875,373040.1875,289543.15625,682410.6875,220350.125,210066.078125,217122.703125,-0.23095703125
207817.328125,333916.03125,372515.09375,289455.375,681828.1875,220314.265625,209940.921875,216994.59375,-0.23095703125
208061.671875,334198.1875,373183.03125,289781.4375,682329.25,220408.421875,210146.1875,217320.203125,-0.230712890625
208367.890625,335024.9375,374145.40625,290080.59375,683300.25,220505.15625,210406.90625,217654.40625,-0.2314453125
208305.390625,335249.375,374052.34375,289928.15625,683371.5625,220466.078125,210356.921875,217525.75,-0.230712890625
207959.921875,334560.125,373024.625,289530.65625,682496.125,220342.796875,210066.078125,217104.828125,-0.232177734375
207809.359375,333914.875,372493.34375,289437.125,681893.375,220299.15625,209936.4375,216969.203125,-0.23046875
208046.296875,334171.1875,373147.90625,289759.1875,682388.0,220387.140625,210135.28125,217285.15625,-0.23095703125
208364.484375,335006.4375,374122.0,290069.6875,683365.875,220492.015625,210404.140625,217628.9375,-0.22900390625
208312.375,335242.375,374047.25,289930.40625,683438.6875,220460.90625,210363.453125,217507.703125,-0.229248046875
207966.8125,334555.46875,373020.78125,289530.03125,682579.375,220333.9375,210065.8125,217081.3125,-0.227783203125
207813.390625,333909.5,372481.03125,289430.78125,681953.875,220288.96875,209925.453125,216938.4375,-0.228515625
208058.90625,334175.21875,373137.8125,289758.65625,682450.4375,220386.875,210124.109375,217260.21875,-0.2294921875
208373.171875,335001.78125,374107.875,290063.875,683419.3125,220486.828125,210381.875,217601.3125,-0.225830078125
208321.125,335242.03125,374034.8125,289922.96875,683482.125,220450.703125,210332.96875,217482.125,-0.226318359375
207978.796875,334561.71875,373013.875,289530.65625,682634.4375,220330.625,210043.203125,217063.703125,-0.22705078125
207824.203125,333909.96875,372464.40625,289431.40625,681975.25,220288.875,209909.171875,216923.25,-0.228759765625
208066.140625,334162.875,373107.5,289758.09375,682442.6875,220387.5,210112.9375,217246.265625,-0.229736328125
208382.734375,334992.40625,374083.1875,290071.65625,683402.125,220494.0625,210385.0,217598.625,-0.228759765625
208330.609375,335232.5625,374019.34375,289935.40625,683458.0625,220463.671875,210346.5625,217488.46875,-0.2265625
207987.015625,334554.125,372997.53125,289543.875,682592.0,220346.453125,210058.3125,217074.4375,-0.228515625
207824.03125,333888.3125,372434.0,289436.875,681921.875,220301.75,209917.140625,216933.25,-0.229248046875
208058.625,334131.15625,373065.65625,289755.96875,682362.3125,220392.765625,210110.875,217252.34375,-0.2275390625
208372.53125,334959.78125,374044.40625,290070.9375,683319.6875,220497.5625,210379.09375,217610.421875,-0.22998046875
208318.796875,335209.40625,373991.09375,289933.25,683395.125,220466.265625,210341.453125,217506.890625,-0.229736328125
207977.53125,334548.40625,372977.0625,289541.03125,682517.625,220346.015625,210056.875,217098.75,-0.230712890625
207810.078125,333893.15625,372408.78125,289431.9375,681857.4375,220296.484375,209915.875,216955.515625,-0.23046875
208040.296875,334131.875,373034.4375,289751.21875,682288.9375,220386.15625,210113.921875,217276.3125,-0.230712890625
208354.828125,334962.28125,374016.21875,290068.96875,683244.125,220485.125,210385.171875,217630.984375,-0.23193359375
208304.59375,335222.4375,373967.3125,289929.59375,683335.625,220447.125,210345.03125,217520.75,-0.23291015625
207963.765625,334560.375,372948.71875,289532.09375,682443.25,220326.875,210058.03125,217104.828125,-0.231201171875
207798.015625,333891.0,372369.1875,289418.96875,681793.4375,220279.3125,209918.109375,216955.96875,-0.236083984375
208028.671875,334112.8125,372983.75,289734.5,682216.5,220370.0625,210114.0,217271.296875,-0.235107421875
208354.828125,334946.09375,373966.53125,290055.5625,683174.3125,220474.75,210386.34375,217630.546875,-0.232666015625
208314.609375,335217.96875,373928.875,289928.0625,683294.125,220439.984375,210350.046875,217527.8125,-0.232666015625
207974.234375,334558.15625,372910.09375,289531.09375,682399.9375,220315.34375,210056.96875,217110.546875,-0.232421875
207808.46875,333890.46875,372325.8125,289417.5625,681759.8125,220269.921875,209910.421875,216958.46875,-0.23388671875
208043.34375,334114.6875,372939.21875,289736.8125,682183.5625,220365.5,210105.421875,217274.4375,-0.232421875
208358.859375,334937.875,373923.4375,290052.0625,683134.5,220463.9375,210369.890625,217627.0625,-0.233154296875
208329.4375,335232.46875,373915.03125,289939.875,683284.75,220442.75,210347.1875,217540.859375,-0.23388671875
207992.296875,334584.1875,372905.15625,289547.09375,682394.5,220326.4375,210060.453125,217125.65625,-0.234619140625
207821.703125,333914.78125,372307.84375,289425.875,681757.0,220278.953125,209911.046875,216964.8125,-0.232177734375
208041.90625,334118.1875,372904.4375,289732.34375,682166.6875,220367.375,210099.34375,217265.3125,-0.235107421875
208365.390625,334940.5625,373897.84375,290058.5,683129.25,220478.25,210377.671875,217625.453125,-0.234130859375
208335.703125,335236.5625,373895.875,289942.46875,683302.3125,220455.09375,210359.078125,217541.21875,-0.233642578125
207997.125,334589.09375,372889.4375,289547.1875,682428.375,220337.609375,210074.578125,217123.34375,-0.233642578125
207823.765625,333913.09375,372295.9375,289430.4375,681780.375,220294.421875,209933.21875,216965.4375,-0.234375
208042.625,334113.0,372892.03125,289738.875,682196.375,220382.125,210121.78125,217268.796875,-0.233642578125
208363.953125,334939.03125,373884.4375,290055.84375,683164.625,220483.609375,210389.109375,217622.765625,-0.234130859375
208327.828125,335228.15625,373884.625,289937.8125,683338.5625,220456.078125,210361.84375,217532.1875,-0.235595703125
207986.03125,334579.6875,372877.71875,289537.1875,682481.375,220332.78125,210070.734375,217113.328125,-0.23486328125
207813.65625,333909.59375,372276.46875,289413.96875,681833.5625,220287.0,209922.234375,216952.125,-0.233642578125
208027.96875,334103.78125,372863.9375,289720.03125,682260.75,220372.03125,210104.625,217251.015625,-0.235595703125
208351.078125,334926.4375,373863.25,290047.4375,683246.875,220480.484375,210378.734375,217612.84375,-0.234619140625
208320.6875,335222.8125,373869.40625,289929.78125,683411.875,220452.046875,210351.296875,217522.0,-0.235595703125
207984.515625,334579.96875,372867.15625,289535.46875,682579.375,220331.078125,210064.75,217103.125,-0.235595703125
207804.359375,333895.5625,372256.59375,289410.65625,681899.375,220280.75,209911.59375,216933.4375,-0.234375
208018.125,334080.46875,372830.34375,289711.34375,682313.5,220363.53125,210090.671875,217226.0625,-0.234375
208345.1875,334899.6875,373822.9375,290037.15625,683296.5,220470.546875,210363.90625,217585.84375,-0.2333984375
208318.359375,335198.5625,373838.84375,289926.5625,683453.875,220444.359375,210342.4375,217500.453125,-0.23193359375
207988.71875,334568.0,372841.6875,289536.09375,682641.25,220329.015625,210061.796875,217087.21875,-0.232177734375
207810.25,333880.625,372218.25,289406.75,681934.25,220279.578125,209907.125,216914.21875,-0.230712890625
208025.28125,334059.0,372783.84375,289711.0,682329.4375,220364.421875,210084.59375,217205.40625,-0.229248046875
208346.875,334877.25,373779.9375,290038.84375,683309.3125,220473.421875,210359.96875,217567.0625,-0.23095703125
208326.765625,335195.34375,373809.59375,289933.0625,683474.1875,220446.859375,210344.859375,217486.78125,-0.230224609375
207996.578125,334571.75,372815.75,289541.65625,682663.4375,220334.03125,210066.53125,217075.234375,-0.23193359375
207814.8125,333868.8125,372178.28125,289408.0625,681949.0,220284.859375,209909.984375,216897.671875,-0.22998046875
208032.796875,334044.5,372737.15625,289710.625,682338.25,220377.03125,210091.125,217191.90625,-0.230224609375
208362.34375,334872.875,373745.6875,290047.15625,683319.5,220494.6875,210376.5,217566.890625,-0.2275390625
208339.375,335195.28125,373789.40625,289945.84375,683484.125,220474.40625,210367.75,217497.59375,-0.227783203125
207997.203125,334563.6875,372796.28125,289550.6875,682663.625,220353.15625,210088.265625,217086.234375,-0.2294921875
207806.234375,333870.25,372159.34375,289410.65625,681938.875,220296.75,209930.453125,216912.6875,-0.229248046875
208011.328125,334037.28125,372714.375,289706.96875,682311.6875,220380.515625,210108.109375,217209.609375,-0.227783203125
208339.8125,334865.28125,373724.84375,290041.78125,683280.625,220487.546875,210387.6875,217583.6875,-0.22802734375
208327.125,335202.0625,373780.09375,289944.96875,683448.8125,220465.90625,210379.90625,217520.578125,-0.229736328125
207984.15625,334573.25,372783.65625,289541.125,682601.625,220339.75,210088.796875,217106.34375,-0.22900390625
207790.140625,333861.59375,372131.71875,289392.59375,681872.8125,220281.546875,209919.8125,216926.1875,-0.231201171875
208003.734375,334025.5625,372681.65625,289690.59375,682230.5,220367.296875,210094.609375,217224.1875,-0.2314453125
208337.140625,334857.40625,373694.625,290028.5625,683191.1875,220476.984375,210373.640625,217603.984375,-0.229736328125
208330.78125,335208.5,373762.125,289934.78125,683390.375,220455.53125,210364.890625,217545.34375,-0.229248046875
207995.234375,334600.96875,372772.5,289534.78125,682539.6875,220331.34375,210074.84375,217130.3125,-0.230224609375
207800.78125,333893.78125,372113.375,289388.3125,681810.125,220276.546875,209906.9375,216945.6875,-0.230224609375
207998.015625,334029.5,372636.59375,289673.09375,682142.625,220350.75,210071.359375,217225.34375,-0.230712890625
208335.4375,334851.40625,373644.375,290012.46875,683095.0,220463.21875,210351.109375,217599.96875,-0.229736328125
208337.3125,335209.84375,373721.53125,289930.3125,683324.6875,220451.25,210357.1875,217546.234375,-0.22900390625
208009.359375,334604.46875,372737.34375,289539.78125,682479.6875,220336.265625,210082.890625,217139.25,-0.229248046875
207815.796875,333894.84375,372069.125,289391.1875,681772.3125,220279.40625,209918.03125,216950.328125,-0.22802734375
208013.65625,334026.53125,372581.4375,289676.75,682111.625,220361.484375,210085.046875,217227.234375,-0.23046875
208346.34375,334847.375,373584.125,290016.3125,683068.5625,220474.21875,210364.890625,217599.609375,-0.22998046875
208350.359375,335217.875,373672.8125,289940.59375,683330.3125,220467.15625,210373.640625,217550.703125,-0.232177734375
208029.3125,334639.6875,372709.28125,289559.875,682515.5625,220356.828125,210108.109375,217154.0,-0.231201171875
207829.03125,333939.1875,372043.09375,289408.875,681822.1875,220299.875,209941.546875,216966.15625,-0.23095703125
208007.046875,334048.34375,372531.96875,289674.96875,682148.8125,220367.734375,210087.28125,217222.578125,-0.231201171875
208321.84375,334828.0625,373513.59375,289996.8125,683091.625,220468.9375,210346.375,217576.984375,-0.230712890625
208326.21875,335183.28125,373600.125,289919.125,683343.0,220458.3125,210349.234375,217527.546875,-0.232666015625
207999.984375,334586.75,372624.78125,289532.25,682528.0625,220342.171875,210075.390625,217123.609375,-0.236083984375
207798.640625,333867.5625,371944.84375,289379.09375,681803.625,220284.234375,209907.125,216926.015625,-0.237548828125
207993.453125,333989.53125,372455.90625,289667.4375,682150.0625,220363.71875,210076.546875,217201.65625,-0.2373046875
208327.203125,334800.34375,373477.28125,290012.90625,683129.9375,220472.34375,210360.859375,217579.9375,-0.237548828125
208336.59375,335179.34375,373595.84375,289938.96875,683392.375,220454.015625,210367.203125,217534.703125,-0.240234375
208008.109375,334593.84375,372632.5625,289545.21875,682589.875,220331.4375,210083.25,217123.609375,-0.240234375
207803.1875,333873.9375,371948.59375,289382.59375,681859.125,220272.078125,209903.09375,216920.03125,-0.235107421875
207993.546875,333982.09375,372445.875,289661.53125,682199.3125,220351.734375,210059.015625,217190.484375,-0.23095703125
208333.203125,334799.90625,373469.3125,290009.96875,683186.4375,220465.28125,210338.0625,217574.390625,-0.226318359375
208343.578125,335187.3125,373590.65625,289936.84375,683450.8125,220452.859375,210344.3125,217533.09375,-0.224853515625
208018.671875,334606.875,372627.125,289545.59375,682672.4375,220343.15625,210072.171875,217127.0,-0.223388671875
207807.125,333873.125,371923.5625,289375.1875,681922.1875,220285.03125,209895.234375,216917.796875,-0.223876953125
207988.796875,333968.0625,372402.875,289648.03125,682255.625,220363.984375,210053.75,217181.265625,-0.224609375
208327.484375,334780.78125,373424.875,289998.0625,683249.875,220480.125,210346.109375,217560.453125,-0.224853515625
208345.359375,335174.875,373552.5625,289930.5625,683505.75,220478.328125,210367.5625,217514.84375,-0.228515625
208019.109375,334595.71875,372585.0,289535.5625,682740.0625,220368.90625,210097.828125,217096.0625,-0.229736328125
207808.109375,333864.28125,371882.1875,289363.71875,681977.75,220303.359375,209918.203125,216882.828125,-0.228759765625
207991.390625,333956.8125,372359.15625,289636.40625,682296.25,220379.8125,210071.8125,217143.984375,-0.22900390625
208329.09375,334766.65625,373379.90625,289987.0,683279.25,220496.125,210355.5,217527.015625,-0.2275390625
208342.3125,335151.1875,373506.875,289920.75,683522.875,220483.34375,210365.15625,217490.890625,-0.227294921875
208022.875,334578.71875,372544.9375,289538.0,682757.875,220373.640625,210092.546875,217094.8125,-0.22705078125
207811.59375,333843.96875,371831.46875,289369.8125,681967.125,220308.734375,209906.3125,216893.65625,-0.224853515625
207988.71875,333924.71875,372290.9375,289635.78125,682247.1875,220372.921875,210050.96875,217155.34375,-0.226318359375
208319.25,334718.375,373301.78125,289980.375,683202.625,220479.046875,210328.9375,217537.5625,-0.2255859375
208338.65625,335112.9375,373447.96875,289921.375,683453.4375,220468.5,210349.421875,217513.59375,-0.224609375
208009.71875,334533.9375,372484.96875,289528.34375,682654.6875,220345.390625,210073.59375,217106.890625,-0.226806640625
207797.734375,333795.15625,371762.46875,289355.59375,681868.6875,220279.046875,209891.296875,216892.484375,-0.226806640625
207980.578125,333874.625,372228.8125,289634.0,682150.6875,220351.90625,210049.015625,217155.515625,-0.2265625
208317.28125,334674.03125,373250.09375,289986.4375,683101.6875,220458.75,210332.96875,217537.46875,-0.226318359375
208340.984375,335080.125,373400.46875,289928.4375,683396.1875,220448.828125,210352.1875,217508.953125,-0.226806640625
208013.5625,334512.5625,372439.625,289532.8125,682594.25,220327.765625,210072.96875,217098.921875,-0.223876953125
207798.640625,333778.25,371714.8125,289362.21875,681833.125,220265.640625,209889.859375,216888.640625,-0.222412109375
207978.703125,333856.21875,372164.625,289633.84375,682116.4375,220342.53125,210039.796875,217151.953125,-0.2236328125
208311.921875,334652.65625,373181.15625,289985.375,683064.5,220453.390625,210320.625,217540.328125,-0.22265625
208336.0625,335064.375,373347.5625,289933.0625,683378.9375,220449.90625,210346.109375,217525.484375,-0.22265625
208021.609375,334518.09375,372405.03125,289549.53125,682591.4375,220340.734375,210079.671875,217130.9375,-0.22314453125
207809.71875,333784.25,371673.9375,289373.84375,681822.8125,220283.25,209896.21875,216917.078125,-0.2216796875
207989.25,333847.09375,372113.46875,289640.71875,682094.4375,220365.59375,210048.296875,217173.671875,-0.220703125
208332.125,334647.5625,373134.9375,289996.5625,683044.125,220479.765625,210336.265625,217564.5625,-0.22119140625
208369.3125,335081.90625,373316.25,289951.03125,683369.375,220480.296875,210369.171875,217553.828125,-0.221435546875
208050.21875,334537.59375,372376.78125,289563.65625,682581.8125,220368.984375,210103.546875,217157.578125,-0.220458984375
207829.125,333794.09375,371640.0625,289381.78125,681802.25,220306.40625,209916.15625,216937.09375,-0.218994140625
207993.1875,333841.125,372069.65625,289636.6875,682056.25,220375.15625,210052.671875,217182.4375,-0.22021484375
208329.171875,334635.21875,373092.03125,289988.3125,682991.1875,220485.84375,210333.40625,217567.0625,-0.21630859375
208366.453125,335077.34375,373286.21875,289946.5625,683341.4375,220482.453125,210369.078125,217560.796875,-0.216552734375
208040.296875,334536.15625,372349.59375,289555.96875,682548.8125,220361.75,210096.484375,217158.828125,-0.21630859375
207807.3125,333782.46875,371603.75,289363.46875,681771.9375,220288.703125,209899.515625,216928.875,-0.2177734375
207984.515625,333846.9375,372046.15625,289629.53125,682044.1875,220367.109375,210050.796875,217188.609375,-0.218017578125
208324.703125,334651.9375,373081.5625,289988.5,682991.1875,220479.234375,210338.328125,217580.921875,-0.218017578125
208365.296875,335100.0625,373292.125,289952.125,683357.125,220477.4375,210377.40625,217576.71875,-0.218505859375
208039.671875,334558.15625,372366.21875,289563.1875,682587.1875,220356.296875,210110.96875,217176.4375,-0.221435546875
207806.234375,333800.625,371615.03125,289367.84375,681807.0,220283.96875,209917.046875,216942.375,-0.22119140625
207965.734375,333836.71875,372029.875,289618.09375,682061.25,220348.328125,210054.640625,217182.703125,-0.22265625
208302.0,334631.375,373060.1875,289974.1875,683016.25,220448.65625,210340.125,217571.0,-0.223876953125
208348.578125,335086.71875,373283.34375,289947.5625,683392.4375,220450.4375,210386.4375,217574.03125,-0.225830078125
208025.8125,334541.78125,372355.3125,289557.375,682638.125,220332.328125,210118.125,217168.3125,-0.22607421875
207790.859375,333780.03125,371590.71875,289353.71875,681832.9375,220249.984375,209912.21875,216920.65625,-0.227294921875
207951.25,333807.3125,371998.65625,289605.5625,682078.625,220313.90625,210043.203125,217156.5,-0.228759765625
208298.953125,334596.78125,373033.375,289969.09375,683039.3125,220430.5,210330.015625,217548.90625,-0.232177734375
208348.75,335051.25,373260.46875,289938.875,683416.125,220430.59375,210366.765625,217549.546875,-0.2314453125
208032.875,334520.0625,372347.28125,289557.21875,682682.125,220323.390625,210101.3125,217154.8125,-0.231689453125
207804.0,333763.9375,371589.46875,289362.46875,681882.75,220258.21875,209900.6875,216918.140625,-0.233154296875
207974.234375,333801.78125,372003.0625,289623.71875,682138.25,220332.15625,210039.171875,217164.46875,-0.235107421875
208321.484375,334596.15625,373044.03125,289992.34375,683109.0625,220451.78125,210327.515625,217561.34375,-0.23291015625
208371.5625,335055.0,373284.0625,289965.875,683473.8125,220453.03125,210368.109375,217567.234375,-0.233154296875
208060.421875,334540.625,372378.03125,289583.03125,682754.5625,220345.828125,210104.703125,217172.953125,-0.2333984375
207825.015625,333779.78125,371610.03125,289383.03125,681941.375,220283.0625,209908.734375,216933.609375,-0.232421875
207975.21875,333791.40625,371995.625,289624.53125,682170.6875,220351.015625,210039.265625,217161.15625,-0.23291015625
208307.625,334568.0,373015.75,289976.71875,683127.8125,220461.171875,210318.65625,217539.890625,-0.23291015625
208357.421875,335030.65625,373256.28125,289950.40625,683488.125,220469.65625,210365.328125,217544.359375,-0.233642578125
208040.125,334515.40625,372346.5625,289564.1875,682778.5625,220357.8125,210106.5,217147.75,-0.23291015625
207804.359375,333752.78125,371565.40625,289357.90625,681952.9375,220281.734375,209905.15625,216900.625,-0.232177734375
207962.875,333767.8125,371951.03125,289604.78125,682177.6875,220349.859375,210039.984375,217132.8125,-0.232421875
208311.109375,334560.375,372989.125,289972.875,683149.375,220471.359375,210332.25,217532.46875,-0.231201171875
208369.59375,335040.6875,373243.65625,289952.84375,683514.75,220478.421875,210379.375,217546.765625,-0.23095703125
208053.265625,334526.3125,372332.6875,289564.09375,682804.6875,220362.1875,210116.25,217150.34375,-0.23046875
207814.453125,333756.625,371543.9375,289354.625,681962.125,220289.6875,209910.515625,216908.3125,-0.23095703125
207963.046875,333761.90625,371914.625,289595.5625,682158.1875,220353.796875,210033.625,217141.03125,-0.228271484375
208307.890625,334553.96875,372951.9375,289966.0625,683115.5,220465.546875,210322.328125,217544.984375,-0.227783203125
208364.21875,335026.03125,373208.71875,289947.75,683481.75,220467.515625,210369.265625,217560.359375,-0.2265625
208047.640625,334512.28125,372301.9375,289561.40625,682751.6875,220348.609375,210106.046875,217163.125,-0.225341796875
207809.8125,333744.90625,371514.09375,289356.03125,681909.8125,220275.640625,209907.390625,216917.796875,-0.224853515625
207958.671875,333741.15625,371881.0,289598.0625,682098.1875,220337.25,210034.4375,217146.84375,-0.225341796875
208306.90625,334530.78125,372919.03125,289967.40625,683034.3125,220451.953125,210326.4375,217548.46875,-0.2265625
208369.59375,335018.96875,373193.0625,289952.9375,683422.875,220456.515625,210382.671875,217570.8125,-0.22802734375
208059.078125,334519.875,372299.4375,289569.1875,682680.5,220343.421875,210121.609375,217179.125,-0.2294921875
207815.171875,333748.5,371508.4375,289357.03125,681851.0,220267.875,209910.15625,216930.65625,-0.23193359375
207959.203125,333738.90625,371865.09375,289591.375,682039.1875,220328.21875,210024.0625,217156.421875,-0.23193359375
208305.390625,334524.71875,372899.1875,289960.34375,682967.5,220445.25,210309.71875,217559.46875,-0.231201171875
208368.875,335017.25,373176.0625,289950.25,683382.0625,220454.90625,210361.75,217584.5,-0.23291015625
208060.328125,334529.53125,372283.25,289570.15625,682652.625,220349.234375,210103.375,217197.71875,-0.231689453125
207809.359375,333760.5625,371471.15625,289350.59375,681820.0,220274.484375,209889.859375,216941.921875,-0.23291015625
207948.484375,333745.90625,371809.5625,289581.53125,682008.0,220339.390625,210009.3125,217161.609375,-0.233154296875
208292.703125,334527.03125,372842.9375,289956.3125,682946.0625,220461.609375,210310.34375,217569.75,-0.23291015625
208354.125,335012.625,373116.625,289942.90625,683364.9375,220468.046875,210370.421875,217594.875,-0.2314453125
208043.609375,334526.0625,372219.5,289556.9375,682639.0,220354.5,210116.6875,217203.359375,-0.231201171875
207801.140625,333763.0625,371411.0,289344.59375,681818.625,220285.03125,209918.921875,216953.46875,-0.22900390625
207936.59375,333727.9375,371740.28125,289574.90625,682002.375,220350.578125,210043.734375,217171.609375,-0.23046875
208284.5625,334499.6875,372770.78125,289946.40625,682936.6875,220473.421875,210342.0,217581.09375,-0.2294921875
208358.046875,335001.15625,373063.6875,289940.21875,683384.75,220484.859375,210405.5625,217617.40625,-0.228759765625
208056.65625,334529.46875,372180.78125,289555.96875,682679.4375,220373.734375,210152.09375,217235.90625,-0.229736328125
207809.1875,333760.1875,371364.96875,289332.4375,681845.625,220297.28125,209941.265625,216982.96875,-0.22802734375
207948.484375,333726.9375,371694.15625,289560.59375,682027.9375,220359.6875,210058.125,217201.484375,-0.22900390625
208289.125,334493.34375,372724.375,289925.375,682960.8125,220472.609375,210348.34375,217602.109375,-0.227294921875
208370.390625,335013.40625,373039.28125,289926.375,683408.4375,220486.640625,210418.703125,217643.59375,-0.22705078125
208075.4375,334556.53125,372177.40625,289551.9375,682712.0,220379.453125,210169.96875,217263.265625,-0.22802734375
207823.125,333781.21875,371362.90625,289323.84375,681873.0625,220297.375,209951.90625,216995.75,-0.228515625
207955.546875,333739.375,371684.9375,289544.78125,682044.1875,220351.546875,210058.03125,217198.53125,-0.23046875
208302.53125,334506.46875,372724.375,289919.9375,682984.3125,220466.796875,210347.625,217596.75,-0.230224609375
208381.5625,335017.875,373045.0,289925.65625,683422.4375,220476.984375,210410.21875,217632.59375,-0.228271484375
208090.375,334572.28125,372192.875,289554.0625,682737.4375,220365.328125,210157.8125,217250.109375,-0.22900390625
207840.125,333799.09375,371382.46875,289331.8125,681885.25,220287.0,209944.046875,216985.296875,-0.225830078125
207965.203125,333743.84375,371694.875,289549.96875,682036.3125,220340.828125,210045.4375,217185.65625,-0.2255859375
208317.90625,334518.46875,372739.5,289930.40625,682972.6875,220465.546875,210337.875,217596.125,-0.2265625
208399.71875,335044.15625,373078.625,289946.3125,683447.0625,220483.25,210405.921875,217645.921875,-0.225341796875
208094.75,334579.25,372214.9375,289567.9375,682764.625,220375.15625,210146.28125,217258.78125,-0.22412109375
207844.765625,333809.09375,371392.03125,289345.03125,681915.8125,220304.4375,209931.4375,216996.015625,-0.22265625
207968.328125,333752.59375,371695.03125,289564.0,682076.8125,220360.9375,210037.125,217197.984375,-0.221435546875
208310.84375,334515.40625,372728.21875,289938.53125,683023.625,220477.890625,210327.15625,217599.25,-0.22216796875
208391.765625,335040.40625,373065.90625,289950.78125,683490.375,220494.609375,210399.9375,217646.1875,-0.22216796875
208091.703125,334586.75,372208.15625,289574.1875,682838.5,220388.484375,210151.640625,217258.78125,-0.221923828125
207839.578125,333814.90625,371379.53125,289350.21875,681983.75,220315.796875,209944.3125,216989.3125,-0.220947265625
207957.421875,333744.90625,371665.625,289563.375,682128.6875,220367.5625,210047.40625,217180.5625,-0.220703125
208307.546875,334510.5,372704.625,289946.03125,683098.0625,220492.453125,210348.25,217589.953125,-0.220947265625
208387.46875,335034.875,373048.03125,289959.375,683539.4375,220502.65625,210421.828125,217637.875,-0.220703125
208085.453125,334585.59375,372189.5625,289579.03125,682891.3125,220388.921875,210164.609375,217248.78125,-0.22119140625
207834.671875,333816.875,371355.5625,289349.96875,682026.3125,220311.59375,209947.796875,216980.109375,-0.220703125
207956.4375,333744.71875,371637.5625,289564.0,682157.9375,220366.578125,210046.421875,217176.796875,-0.22412109375
208305.296875,334498.53125,372673.25,289943.53125,683110.3125,220488.171875,210336.0,217582.0,-0.2236328125
208398.90625,335037.5625,373036.875,289967.5,683567.625,220502.5625,210411.375,217639.75,-0.224609375
208100.203125,334596.0625,372193.75,289592.0625,682928.875,220384.09375,210156.296875,217257.453125,-0.226318359375
207839.3125,333812.21875,371346.625,289352.8125,682042.3125,220300.6875,209930.546875,216978.234375,-0.227783203125
207957.15625,333728.90625,371617.34375,289560.96875,682147.375,220351.015625,210024.78125,217166.96875,-0.22607421875
208305.84375,334482.78125,372656.4375,289938.25,683088.8125,220470.203125,210317.046875,217571.359375,-0.227783203125
208405.796875,335035.78125,373037.3125,289965.0,683544.125,220491.125,210403.0625,217633.046875,-0.22802734375
208112.0,334605.90625,372204.21875,289590.5625,682897.75,220379.625,210154.515625,217253.421875,-0.22900390625
207846.46875,333815.71875,371348.15625,289343.625,681999.6875,220291.5625,209922.5,216967.328125,-0.229736328125
207956.796875,333720.9375,371608.6875,289549.0625,682094.875,220345.03125,210015.296875,217152.21875,-0.22802734375
208298.515625,334465.71875,372645.875,289926.46875,683019.625,220462.6875,210307.65625,217558.390625,-0.228271484375
208400.875,335027.53125,373038.84375,289959.1875,683499.3125,220484.0625,210400.5625,217632.0625,-0.230224609375
208110.75,334614.9375,372218.34375,289590.46875,682857.375,220376.953125,210159.875,217260.390625,-0.229248046875
207842.890625,333833.59375,371359.59375,289341.375,681962.1875,220293.265625,209933.3125,216974.03125,-0.229248046875
207955.28125,333742.0625,371616.09375,289544.0625,682058.0625,220352.359375,210031.03125,217165.0,-0.230224609375
208304.671875,334494.59375,372655.28125,289927.34375,682982.5,220478.328125,210326.890625,217581.453125,-0.232177734375
208408.03125,335055.71875,373050.28125,289964.625,683476.3125,220505.78125,210418.53125,217657.625,-0.2314453125
208124.875,334646.40625,372232.75,289600.125,682833.9375,220402.875,210181.78125,217288.828125,-0.2314453125
207858.453125,333863.03125,371365.9375,289349.875,681938.875,220314.1875,209952.09375,216998.53125,-0.231201171875
207958.765625,333751.4375,371602.59375,289545.21875,682024.8125,220360.765625,210040.96875,217176.171875,-0.23193359375
208309.78125,334501.75,372639.375,289929.6875,682935.75,220480.203125,210338.59375,217587.8125,-0.232666015625
208416.265625,335079.65625,373045.1875,289970.625,683453.25,220501.3125,210433.453125,217661.125,-0.2333984375
208124.96875,334670.28125,372228.625,289602.28125,682812.75,220391.703125,210192.234375,217285.25,-0.235107421875
207857.015625,333878.5625,371354.75,289352.90625,681914.1875,220311.40625,209963.53125,216997.09375,-0.234375
207959.390625,333764.65625,371577.21875,289544.875,681986.6875,220357.71875,210046.5,217170.984375,-0.234130859375
208305.296875,334503.875,372602.15625,289927.34375,682884.625,220473.953125,210334.484375,217578.5,-0.23095703125
208413.671875,335073.59375,373013.0,289973.21875,683416.625,220498.265625,210427.640625,217659.6875,-0.2275390625
208128.453125,334672.25,372205.90625,289610.59375,682775.75,220393.03125,210187.59375,217294.1875,-0.2255859375
207852.8125,333879.28125,371318.46875,289349.59375,681880.5,220303.09375,209948.875,216994.671875,-0.2255859375
207945.984375,333751.4375,371530.625,289536.71875,681961.0625,220344.578125,210027.1875,217159.8125,-0.228759765625
208294.3125,334499.5,372565.40625,289922.34375,682869.9375,220463.578125,210319.015625,217568.140625,-0.231689453125
208408.921875,335089.78125,372994.75,289974.75,683409.375,220494.515625,210420.5,217655.046875,-0.2333984375
208122.734375,334701.5625,372194.65625,289607.46875,682781.5625,220388.65625,210179.984375,217283.640625,-0.236572265625
207853.265625,333915.78125,371316.0625,289351.03125,681893.4375,220310.15625,209948.34375,216989.3125,-0.236083984375
207948.125,333779.59375,371523.21875,289537.4375,681973.5625,220359.6875,210025.5,217153.203125,-0.234375
208288.671875,334499.0625,372544.6875,289920.75,682886.625,220477.078125,210312.9375,217555.625,-0.232421875
208404.90625,335080.65625,372974.1875,289970.34375,683436.4375,220501.484375,210412.984375,217637.0625,-0.2294921875
208125.0625,334696.75,372183.03125,289609.6875,682837.875,220399.828125,210181.234375,217270.859375,-0.22802734375
207847.0,333906.8125,371297.90625,289349.78125,681944.6875,220314.265625,209952.0,216974.390625,-0.227783203125
207939.890625,333769.40625,371499.34375,289529.9375,682014.3125,220361.5625,210034.078125,217137.546875,-0.228759765625
208277.59375,334492.09375,372521.875,289903.40625,682926.125,220471.890625,210321.4375,217538.90625,-0.230712890625
208394.4375,335080.03125,372966.84375,289957.3125,683488.1875,220498.53125,210424.96875,217629.296875,-0.2294921875
208110.484375,334701.21875,372179.71875,289592.0625,682897.5,220389.8125,210185.984375,217260.390625,-0.2294921875
207837.171875,333911.75,371294.6875,289335.3125,682001.9375,220307.125,209955.046875,216963.828125,-0.228271484375
207924.78125,333755.28125,371487.875,289514.46875,682062.4375,220349.5,210031.65625,217123.609375,-0.22900390625
208271.15625,334470.71875,372514.0,289895.53125,682982.5,220460.0,210316.609375,217525.9375,-0.2275390625
208395.78125,335070.1875,372967.75,289952.21875,683525.6875,220483.703125,210417.71875,217617.75,-0.229248046875
208117.546875,334699.34375,372191.6875,289590.28125,682946.4375,220374.703125,210178.921875,217249.046875,-0.229736328125
207843.421875,333903.96875,371303.09375,289329.75,682041.0625,220291.109375,209941.265625,216943.8125,-0.228271484375
207931.671875,333744.46875,371486.375,289509.375,682077.625,220338.40625,210011.453125,217097.59375,-0.227783203125
208282.328125,334477.15625,372516.96875,289896.875,683000.0625,220457.234375,210301.671875,217507.703125,-0.22705078125
208407.9375,335086.1875,372980.09375,289955.6875,683549.125,220484.59375,210407.359375,217603.546875,-0.226806640625
208133.015625,334719.71875,372205.125,289595.28125,682975.5625,220381.859375,210175.515625,217240.015625,-0.2275390625
207850.765625,333914.4375,371298.15625,289325.8125,682051.625,220293.34375,209934.03125,216931.46875,-0.225830078125
207933.453125,333753.125,371467.78125,289501.40625,682063.3125,220336.625,210004.3125,217085.15625,-0.225341796875
208279.5625,334472.9375,372490.84375,289889.09375,682970.875,220456.421875,210297.921875,217498.125,-0.22412109375
208404.015625,335072.25,372953.4375,289953.71875,683525.9375,220487.28125,210409.046875,217600.6875,-0.224853515625
208130.25,334715.15625,372185.96875,289600.46875,682955.625,220386.25,210182.9375,217246.890625,-0.22314453125
207844.765625,333911.84375,371271.78125,289325.09375,682028.5625,220295.765625,209938.859375,216936.03125,-0.224365234375
207919.15625,333731.15625,371426.09375,289494.71875,682036.3125,220341.984375,210003.859375,217086.765625,-0.222412109375
208265.96875,334444.15625,372445.875,289883.53125,682938.8125,220468.765625,210294.96875,217502.6875,-0.2216796875
208396.671875,335064.65625,372922.875,289952.03125,683497.0625,220498.984375,210405.5625,217610.328125,-0.220703125
208117.546875,334711.40625,372158.1875,289596.1875,682919.25,220394.640625,210175.78125,217253.78125,-0.220947265625
207830.546875,333913.96875,371239.59375,289322.6875,681991.375,220308.015625,209933.3125,216944.34375,-0.2197265625
207903.6875,333735.0625,371382.46875,289489.34375,681993.625,220343.859375,209994.734375,217090.609375,-0.223876953125
208250.3125,334449.34375,372402.78125,289878.625,682877.9375,220460.984375,210287.546875,217505.8125,-0.2236328125
208390.234375,335077.0625,372894.09375,289954.8125,683458.5625,220493.078125,210405.921875,217620.4375,-0.223876953125
208119.875,334730.4375,372138.875,289600.75,682882.5625,220388.296875,210180.4375,217269.421875,-0.225341796875
207831.984375,333921.5,371218.3125,289325.375,681954.8125,220297.375,209940.109375,216959.0,-0.2275390625
207912.546875,333737.3125,371361.65625,289493.625,681961.4375,220337.25,210006.984375,217108.046875,-0.22705078125
208255.6875,334436.21875,372377.65625,289880.0625,682835.875,220454.015625,210296.75,217521.109375,-0.226318359375
208390.59375,335055.875,372873.0625,289952.75,683427.0,220482.890625,210411.734375,217631.796875,-0.22802734375
208123.1875,334723.1875,372133.21875,289602.8125,682857.8125,220378.734375,210186.15625,217282.65625,-0.22705078125
207831.359375,333919.96875,371210.90625,289321.96875,681932.625,220281.640625,209937.34375,216966.34375,-0.226318359375
207904.765625,333732.40625,371343.59375,289483.90625,681937.625,220317.484375,209994.5625,217104.296875,-0.226318359375
208251.125,334437.28125,372365.6875,289871.375,682805.9375,220438.28125,210282.265625,217513.59375,-0.226318359375
208394.359375,335067.6875,372878.34375,289953.8125,683431.0625,220476.1875,210402.34375,217632.328125,-0.225830078125
208127.65625,334735.625,372143.6875,289604.78125,682877.9375,220371.484375,210176.859375,217280.6875,-0.2265625
207834.390625,333927.46875,371210.8125,289317.59375,681940.25,220273.328125,209924.109375,216952.21875,-0.225830078125
207906.1875,333732.65625,371335.4375,289474.25,681934.0625,220309.359375,209982.046875,217087.03125,-0.228515625
208265.25,334445.40625,372366.03125,289874.15625,682819.375,220437.296875,210283.515625,217510.109375,-0.229736328125
208411.078125,335082.09375,372886.40625,289960.96875,683444.3125,220476.1875,210410.484375,217634.65625,-0.23046875
208143.03125,334762.28125,372158.25,289610.5,682898.0625,220370.59375,210186.78125,217283.203125,-0.22900390625
207846.921875,333955.09375,371229.59375,289324.21875,681962.3125,220278.953125,209940.109375,216961.0625,-0.231201171875
207913.4375,333750.8125,371344.3125,289481.3125,681944.0,220321.6875,209997.59375,217097.046875,-0.232177734375
208250.59375,334434.9375,372350.03125,289862.1875,682805.75,220439.265625,210280.125,217502.25,-0.233642578125
208399.09375,335078.5,372875.65625,289948.09375,683432.9375,220477.53125,210405.390625,217627.328125,-0.23291015625
208140.078125,334768.875,372160.84375,289610.21875,682904.0,220383.828125,210191.703125,217288.296875,-0.2353515625
207842.890625,333964.9375,371227.09375,289325.71875,681973.3125,220290.40625,209941.8125,216964.1875,-0.234375
207899.390625,333748.5,371328.125,289472.375,681948.875,220325.71875,209988.84375,217089.453125,-0.233154296875
208238.34375,334431.1875,372329.65625,289852.15625,682815.9375,220438.90625,210270.921875,217491.0625,-0.232666015625
208391.40625,335081.46875,372861.90625,289945.0625,683456.375,220478.875,210403.0625,217618.203125,-0.2333984375
208129.703125,334776.3125,372146.09375,289602.09375,682937.125,220378.46875,210187.953125,217272.375,-0.23291015625
207835.5625,333970.46875,371204.75,289314.375,682004.125,220285.21875,209940.375,216944.078125,-0.23046875
207892.0625,333740.34375,371291.625,289462.15625,681968.625,220319.28125,209989.015625,217065.3125,-0.230224609375
208229.046875,334410.53125,372289.5,289847.96875,682843.6875,220436.40625,210275.75,217474.53125,-0.228515625
208385.5,335062.40625,372826.5,289944.4375,683480.0625,220477.078125,210407.625,217606.40625,-0.2265625
208135.078125,334769.78125,372124.90625,289610.40625,682975.125,220380.609375,210196.625,217271.75,-0.225830078125
207840.296875,333965.3125,371180.15625,289321.8125,682039.625,220289.5,209946.375,216945.234375,-0.224609375
207888.578125,333720.59375,371251.75,289462.15625,681984.5,220321.15625,209989.109375,217061.46875,-0.22509765625
208234.578125,334402.125,372256.15625,289852.875,682858.25,220440.78125,210277.171875,217474.171875,-0.22509765625
208389.25,335052.84375,372801.71875,289947.5625,683493.0625,220475.65625,210406.546875,217607.390625,-0.224609375
208138.203125,334769.34375,372106.84375,289614.0625,682987.0,220377.125,210196.703125,217272.90625,-0.224609375
207841.640625,333966.8125,371163.78125,289324.21875,682048.6875,220285.65625,209946.90625,216947.296875,-0.224609375
207892.609375,333726.65625,371237.8125,289462.15625,681990.9375,220317.40625,209987.765625,217065.484375,-0.22607421875
208241.015625,334402.21875,372242.75,289852.6875,682858.6875,220444.359375,210277.53125,217479.625,-0.226806640625
208401.6875,335058.65625,372798.25,289955.59375,683494.0,220484.59375,210411.828125,217620.265625,-0.22802734375
208144.90625,334767.90625,372105.4375,289617.65625,682989.25,220383.65625,210197.0625,217286.5,-0.2265625
207844.765625,333964.75,371150.71875,289318.84375,682036.6875,220285.65625,209939.484375,216952.21875,-0.227783203125
207893.859375,333718.90625,371207.40625,289455.65625,681955.25,220318.03125,209979.09375,217064.328125,-0.22802734375
208231.546875,334379.25,372202.53125,289844.75,682810.625,220434.078125,210265.46875,217475.421875,-0.22900390625
208395.609375,335042.75,372766.59375,289952.46875,683461.3125,220478.0625,210403.953125,217619.640625,-0.228271484375
208145.796875,334770.84375,372085.21875,289617.65625,682961.5,220379.1875,210193.046875,217287.84375,-0.22900390625
207842.171875,333960.03125,371128.84375,289318.40625,682011.75,220282.890625,209936.4375,216953.015625,-0.228759765625
207893.234375,333706.5625,371181.40625,289453.84375,681938.1875,220317.40625,209976.140625,217064.78125,-0.228271484375
208236.28125,334372.28125,372173.28125,289838.84375,682783.5,220435.59375,210261.625,217474.171875,-0.228271484375
208397.484375,335033.34375,372739.5,289942.71875,683446.75,220479.046875,210398.765625,217619.28125,-0.22998046875
208153.671875,334765.75,372063.03125,289613.96875,682961.9375,220386.78125,210195.453125,217292.140625,-0.228515625
207855.5,333961.71875,371099.78125,289312.59375,682008.875,220287.53125,209937.96875,216953.546875,-0.230224609375
207898.59375,333701.375,371137.9375,289442.6875,681921.0,220317.21875,209971.140625,217059.234375,-0.229248046875
208240.75,334359.40625,372133.125,289837.21875,682765.875,220442.5625,210260.1875,217475.234375,-0.228759765625
208412.140625,335029.78125,372717.21875,289955.5,683439.5,220492.1875,210406.640625,217630.28125,-0.2275390625
208174.59375,334774.6875,372051.0625,289628.1875,682957.0625,220400.8125,210204.390625,217306.171875,-0.22705078125
207869.265625,333965.03125,371081.34375,289320.46875,681992.875,220302.921875,209939.75,216961.59375,-0.225341796875
207908.25,333692.53125,371113.28125,289449.21875,681896.9375,220332.6875,209971.9375,217063.078125,-0.226806640625
208250.5,334347.59375,372105.875,289844.375,682726.5625,220455.359375,210258.046875,217477.203125,-0.223876953125
208423.671875,335025.3125,372698.625,289966.15625,683420.5625,220502.296875,210407.078125,217639.296875,-0.222900390625
208178.703125,334765.3125,372034.25,289633.75,682943.5625,220402.875,210201.453125,217311.09375,-0.222412109375
207873.5625,333952.6875,371061.6875,289326.34375,681981.8125,220301.390625,209940.734375,216965.796875,-0.221923828125
207901.09375,333663.5625,371076.34375,289444.65625,681874.75,220326.703125,209968.546875,217059.40625,-0.220947265625
208233.953125,334302.28125,372062.0625,289834.46875,682694.1875,220447.046875,210258.484375,217472.109375,-0.22119140625
208407.9375,334986.59375,372664.65625,289958.28125,683407.8125,220490.046875,210409.859375,217638.765625,-0.221435546875
208164.40625,334740.90625,372013.78125,289631.3125,682950.3125,220393.484375,210206.28125,217317.96875,-0.2197265625
207852.375,333930.34375,371041.75,289323.59375,681992.4375,220294.0625,209944.484375,216971.703125,-0.220458984375
207885.625,333642.625,371055.25,289447.3125,681892.1875,220320.0,209975.34375,217065.40625,-0.22265625
208227.15625,334289.21875,372043.375,289840.09375,682726.0,220439.984375,210266.71875,217478.375,-0.224609375
208406.25,334982.3125,372651.6875,289965.53125,683437.0625,220487.453125,210420.046875,217642.171875,-0.2236328125
208162.515625,334738.3125,372000.1875,289635.53125,682979.5625,220385.625,210213.875,217311.359375,-0.22314453125
207853.890625,333931.40625,371025.65625,289325.09375,682025.0,220286.203125,209952.71875,216961.0625,-0.22412109375
207872.21875,333623.21875,371017.53125,289435.625,681900.4375,220304.96875,209968.984375,217041.96875,-0.2255859375
208213.578125,334262.40625,372003.21875,289829.4375,682725.8125,220423.609375,210255.625,217454.671875,-0.2265625
208394.359375,334950.75,372621.46875,289959.0,683440.0,220470.28125,210407.078125,217622.859375,-0.224609375
208164.3125,334724.28125,371993.40625,289642.21875,683000.4375,220381.859375,210215.390625,217309.921875,-0.228759765625
207858.453125,333916.75,371014.21875,289329.3125,682038.375,220285.21875,209951.640625,216959.8125,-0.22802734375
207885.625,333609.28125,371003.3125,289439.5625,681906.6875,220308.734375,209968.453125,217044.75,-0.2275390625
208221.078125,334243.4375,371985.09375,289828.28125,682723.625,220423.4375,210250.4375,217456.46875,-0.227294921875
208403.921875,334941.25,372613.6875,289962.84375,683441.875,220475.296875,210407.53125,217629.734375,-0.229248046875
208173.15625,334719.09375,371994.90625,289647.0625,683012.375,220388.65625,210219.234375,217322.890625,-0.2294921875
207862.5625,333903.4375,371009.75,289328.875,682047.75,220291.46875,209952.09375,216970.984375,-0.2294921875
207883.578125,333590.5,370987.5625,289433.75,681903.3125,220313.90625,209965.40625,217047.875,-0.229248046875
208216.96875,334214.375,371961.03125,289820.34375,682716.4375,220434.96875,210245.96875,217455.03125,-0.2314453125
208403.734375,334917.125,372593.5,289954.625,683440.9375,220485.75,210403.953125,217629.640625,-0.229736328125
208175.9375,334707.65625,371977.03125,289637.3125,683016.6875,220398.140625,210215.390625,217316.453125,-0.230712890625
207861.671875,333899.5,370986.75,289315.8125,682052.3125,220295.765625,209948.96875,216956.5,-0.2294921875
207877.3125,333585.3125,370959.65625,289421.40625,681911.25,220312.484375,209966.75,217034.203125,-0.228759765625
208214.203125,334214.75,371936.25,289813.90625,682739.0625,220433.453125,210255.71875,217446.1875,-0.232177734375
208398.5625,334910.25,372571.9375,289946.65625,683459.5,220485.390625,210416.46875,217622.5,-0.23193359375
208173.515625,334695.5625,371955.9375,289627.65625,683035.875,220396.078125,210225.671875,217309.921875,-0.231201171875
207863.09375,333894.75,370965.03125,289306.34375,682071.3125,220290.84375,209955.671875,216952.484375,-0.2314453125
207874.1875,333569.21875,370921.0625,289406.03125,681908.375,220308.734375,209965.859375,217024.359375,-0.2294921875
208204.984375,334177.625,371879.40625,289790.28125,682714.75,220428.171875,210243.640625,217430.0,-0.2294921875
208400.609375,334888.6875,372526.4375,289935.5,683449.75,220486.46875,210407.0,217616.328125,-0.228271484375
208182.28125,334702.71875,371931.96875,289631.0625,683046.0,220399.75,210224.6875,217318.25,-0.228515625
207870.421875,333902.34375,370943.125,289312.15625,682086.5,220296.484375,209959.6875,216963.65625,-0.22802734375
207882.671875,333575.21875,370891.53125,289411.65625,681917.6875,220319.1875,209972.296875,217037.328125,-0.228515625
208218.484375,334191.3125,371852.21875,289803.4375,682715.5625,220441.9375,210256.96875,217447.703125,-0.228759765625
208405.96875,334897.375,372496.03125,289943.1875,683450.0625,220493.0,210416.296875,217628.9375,-0.228271484375
208182.453125,334701.75,371896.3125,289634.625,683042.875,220405.734375,210230.140625,217326.296875,-0.2255859375
207859.078125,333879.90625,370881.96875,289301.59375,682062.6875,220297.109375,209953.796875,216958.921875,-0.228759765625
207868.375,333539.53125,370818.0625,289396.71875,681886.3125,220317.484375,209963.890625,217028.46875,-0.227294921875
208198.28125,334141.875,371770.25,289784.375,682680.5,220437.296875,210245.96875,217435.359375,-0.225830078125
208395.96875,334858.75,372428.0,289933.25,683428.6875,220494.15625,210417.0,217624.734375,-0.226318359375
208180.84375,334677.78125,371839.4375,289626.6875,683034.75,220407.34375,210234.171875,217323.78125,-0.22509765625
207857.828125,333863.03125,370826.46875,289295.59375,682059.375,220298.171875,209956.828125,216953.90625,-0.226806640625
207859.515625,333506.0,370743.84375,289382.0625,681868.0,220311.59375,209955.578125,217007.828125,-0.228271484375
208193.546875,334106.03125,371697.8125,289774.90625,682659.0625,220428.359375,210235.875,217414.625,-0.2275390625
208396.328125,334834.0625,372375.6875,289933.53125,683432.4375,220483.78125,210409.40625,217612.65625,-0.22509765625
208182.453125,334664.8125,371807.78125,289633.125,683063.4375,220399.75,210232.5625,217318.25,-0.226318359375
207872.65625,333868.46875,370812.25,289308.125,682105.1875,220301.3125,209967.46875,216958.921875,-0.225830078125
207878.390625,333519.15625,370733.84375,289396.28125,681912.5,220319.90625,209968.8125,217017.828125,-0.22607421875
208209.8125,334112.0,371687.71875,289787.0625,682709.9375,220437.296875,210247.578125,217423.46875,-0.226318359375
208412.328125,334835.5,372373.03125,289944.96875,683465.6875,220492.453125,210422.375,217622.9375,-0.2265625
208201.40625,334678.9375,371815.75,289643.125,683089.125,220406.8125,210245.25,217330.765625,-0.22509765625
207873.296875,333866.40625,370806.59375,289304.09375,682116.25,220294.421875,209965.234375,216955.703125,-0.22509765625
207863.71875,333501.1875,370710.21875,289378.9375,681902.375,220301.21875,209954.328125,216997.8125,-0.224609375
208201.140625,334101.46875,371669.125,289778.40625,682695.625,220432.375,210239.984375,217411.046875,-0.224853515625
208418.046875,334838.28125,372370.4375,289952.46875,683467.625,220509.890625,210428.359375,217627.234375,-0.224609375
208203.734375,334674.90625,371813.59375,289650.71875,683089.5625,220426.75,210253.390625,217337.015625,-0.22509765625
207864.890625,333869.71875,370802.75,289301.9375,682108.6875,220300.5,209963.265625,216951.234375,-0.223388671875
207862.65625,333514.875,370711.3125,289381.0,681900.0,220318.921875,209959.875,217000.21875,-0.2236328125
208193.359375,334101.71875,371657.75,289769.90625,682680.9375,220440.328125,210239.890625,217408.8125,-0.22216796875
208396.765625,334819.125,372349.40625,289932.625,683441.375,220500.78125,210414.953125,217612.21875,-0.22119140625
208191.84375,334666.15625,371800.71875,289638.03125,683074.8125,220418.96875,210242.125,217326.5625,-0.22021484375
207871.234375,333853.4375,370788.71875,289306.15625,682102.3125,220316.234375,209969.890625,216959.71875,-0.218994140625
207866.859375,333477.84375,370682.0625,289385.71875,681882.8125,220331.703125,209966.390625,217010.59375,-0.21923828125
208193.015625,334061.15625,371624.5,289776.4375,682654.75,220448.734375,210245.078125,217416.6875,-0.22119140625
208404.71875,334802.15625,372337.25,289949.53125,683441.125,220509.0,210427.921875,217626.078125,-0.221435546875
208196.234375,334663.65625,371810.8125,289655.65625,683097.6875,220420.75,210255.8125,217342.03125,-0.22216796875
207876.59375,333874.09375,370813.5,289323.21875,682137.125,220314.265625,209981.328125,216975.015625,-0.225341796875
207863.1875,333499.5,370696.53125,289391.0,681901.125,220314.984375,209958.96875,217012.46875,-0.224365234375
208189.34375,334082.59375,371637.1875,289776.96875,682669.0625,220426.03125,210222.09375,217411.3125,-0.224365234375
208408.65625,334832.0,372359.25,289954.09375,683461.1875,220494.6875,210400.640625,217629.015625,-0.223876953125
208207.40625,334700.65625,371837.03125,289662.0,683125.5625,220413.15625,210224.6875,217348.640625,-0.2265625
207879.015625,333901.71875,370823.78125,289316.78125,682151.375,220297.375,209935.46875,216968.03125,-0.227783203125
207859.96875,333511.1875,370696.09375,289380.71875,681895.0625,220304.078125,209913.375,217000.9375,-0.22900390625
208189.34375,334080.09375,371633.96875,289767.84375,682656.8125,220421.828125,210185.984375,217401.84375,-0.232421875
208412.6875,334839.15625,372366.5,289945.59375,683449.4375,220486.828125,210374.546875,217615.15625,-0.232666015625
208211.609375,334722.40625,371859.03125,289657.25,683117.4375,220402.34375,210210.65625,217334.15625,-0.236328125
207881.0625,333924.71875,370844.59375,289310.8125,682143.875,220291.921875,209933.765625,216952.84375,-0.236572265625
207857.28125,333522.71875,370700.65625,289370.96875,681887.5625,220304.890625,209920.359375,216978.5,-0.236328125
208180.671875,334084.125,371627.0,289754.96875,682637.875,220426.203125,210197.25,217375.015625,-0.236572265625
208401.234375,334838.09375,372358.53125,289932.28125,683438.4375,220491.5625,210390.546875,217593.53125,-0.234130859375
208205.078125,334725.78125,371848.09375,289643.84375,683116.0,220413.609375,210230.59375,217318.875,-0.23388671875
207876.421875,333928.0,370828.34375,289301.25,682144.4375,220309.078125,209956.5625,216949.53125,-0.230224609375
207856.84375,333533.90625,370679.375,289360.59375,681876.1875,220319.453125,209940.828125,216988.421875,-0.229248046875
208184.609375,334102.90625,371606.34375,289752.65625,682636.0,220444.453125,210223.4375,217404.515625,-0.227783203125
208409.546875,334863.75,372344.75,289937.28125,683434.5,220517.046875,210421.921875,217638.3125,-0.227783203125
208212.5,334747.96875,371841.65625,289649.21875,683106.0625,220437.921875,210265.640625,217371.703125,-0.2265625
207886.609375,333948.3125,370824.5,289305.0,682131.5625,220326.15625,209992.765625,217002.015625,-0.228759765625
207864.171875,333542.21875,370670.09375,289363.8125,681862.4375,220327.0625,209974.0,217034.375,-0.22900390625
208182.28125,334089.5625,371583.375,289743.25,682584.125,220435.59375,210241.59375,217432.234375,-0.232177734375
208411.34375,334850.6875,372328.5,289930.40625,683387.625,220497.5625,210435.34375,217663.625,-0.23046875
208230.65625,334766.21875,371850.6875,289657.0,683073.25,220419.328125,210282.1875,217403.359375,-0.232421875
207904.671875,333975.21875,370833.96875,289309.8125,682087.1875,220311.140625,209999.921875,217026.15625,-0.229736328125
207875.171875,333555.1875,370665.4375,289361.59375,681808.375,220313.734375,209967.921875,217047.78125,-0.229248046875
208188.71875,334087.96875,371569.78125,289741.125,682508.6875,220425.140625,210222.015625,217440.90625,-0.2294921875
208424.390625,334853.75,372321.0625,289934.40625,683326.8125,220493.796875,210409.765625,217675.875,-0.227783203125
208245.21875,334772.71875,371842.5625,289661.90625,683017.9375,220416.46875,210247.671875,217415.78125,-0.225830078125
207909.140625,333973.15625,370813.40625,289311.96875,682025.3125,220299.15625,209957.1875,217033.125,-0.224365234375
207875.609375,333550.09375,370631.625,289361.0625,681765.0625,220299.078125,209924.28125,217052.078125,-0.224853515625
208197.125,334092.875,371536.4375,289744.15625,682469.0,220414.40625,210189.734375,217447.703125,-0.224853515625
208430.390625,334862.9375,372290.0625,289940.0625,683309.375,220483.25,210386.609375,217678.90625,-0.225830078125
208249.6875,334787.40625,371819.84375,289671.75,683042.9375,220409.125,210238.109375,217417.75,-0.224609375
207911.109375,333985.9375,370783.625,289317.34375,682060.9375,220300.234375,209957.359375,217025.078125,-0.226806640625
207876.515625,333554.5625,370589.96875,289364.90625,681789.125,220311.046875,209936.53125,217036.796875,-0.226318359375
208199.796875,334087.34375,371486.8125,289750.5,682510.0,220436.84375,210214.234375,217432.5,-0.22314453125
208432.265625,334847.84375,372242.75,289946.75,683354.125,220506.40625,210417.1875,217665.140625,-0.22314453125
208252.375,334780.78125,371781.15625,289678.25,683095.0625,220437.75,210273.234375,217408.640625,-0.222900390625
207921.75,333997.75,370752.6875,289330.125,682134.5,220332.6875,209997.421875,217025.53125,-0.22412109375
207878.296875,333554.46875,370545.71875,289370.4375,681842.125,220334.390625,209964.078125,217034.640625,-0.22509765625
208192.734375,334074.03125,371437.8125,289753.09375,682567.5625,220452.3125,210230.0625,217431.703125,-0.22509765625
208432.171875,334850.78125,372211.90625,289955.15625,683417.125,220521.96875,210431.21875,217676.046875,-0.224365234375
208258.28125,334792.125,371767.28125,289689.875,683163.5,220448.296875,210285.765625,217424.734375,-0.223876953125
207925.6875,334005.625,370742.875,289336.8125,682201.125,220333.9375,210004.75,217041.0,-0.2255859375
207875.53125,333556.96875,370534.1875,289370.53125,681877.0,220325.890625,209965.953125,217044.03125,-0.22607421875
208181.46875,334061.15625,371423.78125,289745.5,682591.3125,220433.0,210224.96875,217432.421875,-0.22705078125
208428.78125,334840.9375,372216.8125,289956.5,683438.875,220505.515625,210433.640625,217682.046875,-0.228515625
208248.890625,334779.53125,371774.34375,289682.1875,683170.75,220421.109375,210282.09375,217420.703125,-0.228515625
207912.265625,333982.8125,370739.09375,289319.75,682194.25,220305.859375,209993.9375,217023.921875,-0.22802734375
207872.03125,333530.96875,370525.0625,289358.375,681875.875,220305.59375,209955.40625,217026.15625,-0.22705078125
208180.21875,334024.40625,371407.25,289731.8125,682583.125,220411.28125,210210.390625,217408.8125,-0.226318359375
208425.640625,334798.75,372196.25,289937.09375,683423.375,220477.078125,210409.9375,217649.578125,-0.2275390625
208260.875,334758.59375,371772.90625,289678.71875,683175.5625,220402.875,210266.890625,217399.15625,-0.228515625
207923.09375,333970.9375,370737.75,289318.125,682209.875,220289.0625,209979.265625,217002.90625,-0.22900390625
207868.640625,333504.5,370502.71875,289344.40625,681872.5625,220285.578125,209932.875,216994.140625,-0.228271484375
208178.171875,334002.40625,371381.6875,289722.96875,682578.25,220396.4375,210189.5625,217377.875,-0.228515625
208431.375,334793.75,372182.3125,289938.09375,683429.375,220475.921875,210400.015625,217630.359375,-0.228271484375
208262.828125,334756.5625,371761.65625,289680.6875,683186.8125,220410.109375,210261.078125,217386.375,-0.229248046875
207923.453125,333966.0,370721.03125,289321.09375,682219.0,220299.15625,209972.828125,216992.625,-0.2294921875
207875.609375,333511.90625,370482.59375,289350.59375,681879.625,220301.03125,209933.3125,216990.296875,-0.2294921875
208185.671875,334017.59375,371355.3125,289728.5,682576.1875,220421.109375,210197.78125,217382.34375,-0.230224609375
208427.609375,334792.59375,372149.0625,289941.75,683425.75,220499.875,210410.03125,217639.75,-0.229736328125
208262.390625,334763.78125,371735.1875,289688.1875,683187.375,220434.171875,210279.859375,217405.0625,-0.2314453125
207927.203125,333993.1875,370698.15625,289331.53125,682214.25,220327.140625,210002.15625,217022.9375,-0.230224609375
207872.21875,333528.8125,370446.75,289356.75,681853.0625,220325.890625,209958.96875,217020.15625,-0.22998046875
208176.015625,334011.78125,371306.65625,289731.09375,682523.3125,220440.609375,210218.796875,217409.53125,-0.229736328125
208423.671875,334790.78125,372102.125,289944.53125,683365.4375,220511.5,210428.265625,217666.9375,-0.2294921875
208259.4375,334769.4375,371692.0,289690.96875,683118.1875,220437.203125,210291.84375,217429.734375,-0.22802734375
207924.34375,333992.375,370652.375,289331.90625,682133.1875,220326.15625,210010.109375,217043.046875,-0.228271484375
207860.59375,333516.125,370384.96875,289347.1875,681774.1875,220309.53125,209954.6875,217028.203125,-0.224609375
208164.84375,334008.03125,371244.875,289721.90625,682427.9375,220418.875,210212.09375,217416.234375,-0.221435546875
208414.65625,334796.6875,372055.875,289940.59375,683288.5,220493.359375,210424.609375,217677.484375,-0.22216796875
208253.265625,334781.6875,371660.8125,289689.625,683061.625,220422.09375,210290.9375,217442.96875,-0.225830078125
207914.421875,334004.0,370618.9375,289322.0625,682073.875,220305.421875,210001.4375,217044.484375,-0.229736328125
207853.984375,333532.03125,370353.84375,289336.71875,681738.875,220295.578125,209947.796875,217025.96875,-0.231689453125
208160.546875,334016.875,371215.375,289710.71875,682389.0625,220409.9375,210203.328125,217410.0625,-0.232421875
208414.65625,334806.53125,372033.53125,289932.8125,683271.0625,220487.09375,210415.84375,217670.234375,-0.230224609375
208262.75,334803.03125,371647.5625,289687.84375,683089.4375,220419.140625,210283.96875,217436.703125,-0.22802734375
207921.390625,334020.28125,370602.75,289319.75,682110.1875,220299.15625,209990.890625,217033.921875,-0.22607421875
207854.78125,333527.90625,370321.3125,289327.78125,681763.625,220287.53125,209931.53125,217004.875,-0.224609375
208163.421875,334001.59375,371173.53125,289700.625,682423.9375,220400.90625,210183.484375,217381.984375,-0.22265625
208429.140625,334805.53125,372005.5625,289931.90625,683311.25,220480.296875,210403.59375,217649.40625,-0.222900390625
208276.609375,334811.8125,371634.25,289690.15625,683121.75,220416.375,210275.65625,217419.90625,-0.22265625
207933.375,334038.0,370592.3125,289321.8125,682150.4375,220304.96875,209985.34375,217018.640625,-0.2236328125
207861.40625,333544.90625,370304.3125,289326.71875,681783.125,220297.828125,209927.0625,216990.125,-0.22509765625
208158.3125,334011.4375,371153.15625,289699.0,682446.625,220416.015625,210185.796875,217372.609375,-0.22509765625
208413.84375,334805.8125,371987.40625,289930.84375,683339.6875,220501.40625,210411.28125,217644.578125,-0.225341796875
208266.40625,334818.6875,371631.5625,289694.96875,683171.1875,220440.25,210295.59375,217425.171875,-0.22607421875
207919.421875,334040.3125,370588.90625,289321.875,682206.3125,220320.0,210007.53125,217021.046875,-0.226806640625
207845.03125,333542.21875,370296.625,289326.34375,681832.1875,220312.125,209946.8125,216993.0625,-0.2255859375
208141.78125,333995.6875,371135.34375,289692.125,682491.4375,220421.375,210195.015625,217369.03125,-0.226806640625
208401.5,334785.59375,371966.46875,289919.46875,683385.1875,220496.921875,210410.75,217634.46875,-0.227294921875
208258.453125,334807.59375,371616.8125,289683.71875,683226.9375,220431.9375,210288.703125,217412.75,-0.22900390625
207916.03125,334040.65625,370577.46875,289312.6875,682275.5625,220309.625,209998.5,217009.875,-0.229736328125
207843.15625,333540.78125,370275.0,289314.125,681875.875,220296.484375,209932.6875,216974.390625,-0.228271484375
208142.3125,333994.4375,371110.78125,289684.34375,682540.875,220405.734375,210183.125,217350.34375,-0.227294921875
208403.828125,334793.21875,371957.09375,289919.84375,683425.5625,220480.75,210407.359375,217625.453125,-0.22607421875
208260.6875,334818.34375,371616.90625,289687.03125,683255.375,220417.265625,210291.84375,217407.921875,-0.2265625
207920.859375,334047.375,370576.21875,289317.96875,682309.3125,220305.15625,210009.21875,217007.640625,-0.226806640625
207845.125,333529.78125,370257.28125,289312.59375,681886.3125,220291.5625,209940.296875,216965.71875,-0.2275390625
208144.46875,333974.5,371085.8125,289682.1875,682538.625,220404.84375,210186.703125,217341.484375,-0.2275390625
208411.609375,334779.25,371936.875,289922.96875,683430.625,220488.796875,210411.640625,217620.890625,-0.2265625
208277.40625,334815.8125,371611.4375,289700.53125,683275.9375,220434.796875,210300.953125,217412.484375,-0.227294921875
207941.78125,334045.84375,370568.875,289331.1875,682325.0,220323.65625,210013.0625,217009.875,-0.227783203125
207867.125,333534.90625,370243.34375,289322.4375,681892.1875,220307.65625,209939.3125,216965.984375,-0.227294921875
208161.453125,333972.90625,371061.40625,289687.125,682527.5625,220415.75,210180.890625,217339.171875,-0.227783203125
208426.546875,334777.65625,371912.3125,289927.0,683407.0625,220495.140625,210402.875,217618.375,-0.22802734375
208292.15625,334829.59375,371594.1875,289706.4375,683245.75,220439.53125,210298.1875,217418.015625,-0.229248046875
207942.21875,334056.65625,370544.90625,289329.9375,682277.1875,220321.6875,210006.71875,217016.578125,-0.229248046875
207858.453125,333530.5,370206.5,289316.6875,681838.5625,220308.546875,209934.65625,216975.28125,-0.22998046875
208145.796875,333958.59375,371016.1875,289678.53125,682446.875,220415.296875,210177.578125,217348.546875,-0.228515625
208408.84375,334755.03125,371867.6875,289919.21875,683330.875,220495.953125,210401.71875,217632.0625,-0.2265625
208273.828125,334806.15625,371555.375,289697.5625,683185.8125,220439.890625,210296.84375,217434.109375,-0.2275390625
207927.5625,334043.625,370510.5,289321.25,682215.875,220323.484375,210010.75,217034.5625,-0.22900390625
207842.265625,333522.28125,370166.90625,289304.8125,681793.75,220305.59375,209937.34375,216988.875,-0.228271484375
208129.078125,333945.71875,370972.71875,289667.8125,682398.875,220409.3125,210180.078125,217359.640625,-0.226318359375
208393.1875,334744.3125,371831.65625,289912.96875,683295.875,220486.375,210405.203125,217645.109375,-0.226806640625
208265.703125,334805.625,371526.5,289695.6875,683168.375,220428.09375,210298.546875,217445.921875,-0.227783203125
207926.21875,334057.9375,370479.65625,289318.3125,682198.875,220309.890625,210006.984375,217040.640625,-0.225830078125
207832.15625,333521.46875,370119.34375,289294.625,681767.875,220288.4375,209924.375,216982.875,-0.22802734375
208123.546875,333945.1875,370925.78125,289660.84375,682379.5,220401.984375,210171.140625,217356.515625,-0.228759765625
208395.96875,334751.09375,371796.15625,289910.71875,683286.3125,220489.0625,210404.578125,217648.515625,-0.230712890625
208276.421875,334829.3125,371506.84375,289696.9375,683172.0,220434.171875,210304.71875,217452.890625,-0.229736328125
207934.53125,334075.09375,370458.46875,289317.5,682204.0625,220316.234375,210012.625,217042.78125,-0.229248046875
207841.546875,333532.21875,370094.9375,289295.15625,681763.625,220294.875,209931.890625,216984.671875,-0.228515625
208127.03125,333941.4375,370892.34375,289656.4375,682360.4375,220399.921875,210171.40625,217352.75,-0.22802734375
208405.796875,334752.625,371770.5,289911.78125,683271.5,220484.234375,210403.78125,217642.875,-0.22802734375
208281.515625,334822.4375,371488.59375,289700.09375,683169.8125,220427.453125,210303.015625,217444.578125,-0.229248046875
207940.171875,334072.6875,370445.65625,289324.03125,682210.9375,220310.0625,210012.359375,217034.828125,-0.230712890625
207847.453125,333534.90625,370077.65625,289299.09375,681780.375,220290.671875,209928.75,216971.515625,-0.228515625
208129.0,333939.09375,370870.0,289658.875,682386.125,220399.03125,210164.796875,217333.703125,-0.22900390625
208407.671875,334747.4375,371753.78125,289916.28125,683304.75,220491.296875,210400.203125,217629.203125,-0.22802734375
208288.140625,334822.96875,371481.4375,289704.5625,683205.3125,220439.078125,210303.453125,217438.140625,-0.227783203125
207947.859375,334075.09375,370438.6875,289324.9375,682258.25,220325.453125,210014.859375,217032.234375,-0.22900390625
207844.765625,333515.75,370053.25,289290.5,681801.9375,220304.34375,209930.71875,216963.296875,-0.228271484375
208127.03125,333911.46875,370835.9375,289646.78125,682400.9375,220409.3125,210170.25,217325.9375,-0.228515625
208407.046875,334725.875,371727.6875,289906.6875,683329.1875,220497.109375,210410.03125,217626.078125,-0.22900390625
208288.859375,334812.59375,371470.71875,289701.0625,683252.25,220444.359375,210317.046875,217439.84375,-0.227783203125
207939.71875,334064.4375,370426.4375,289317.78125,682311.25,220320.890625,210026.75,217029.375,-0.225830078125
207835.109375,333512.375,370039.5,289282.5625,681849.375,220296.84375,209940.921875,216961.421875,-0.226806640625
208109.5,333891.34375,370815.46875,289636.0625,682452.625,220401.171875,210174.265625,217319.9375,-0.22607421875
208391.5,334701.90625,371708.0,289897.75,683375.375,220488.703125,210411.109375,217618.65625,-0.22607421875
208283.21875,334810.375,371462.125,289697.84375,683296.1875,220439.0,210321.609375,217437.6875,-0.2265625
207940.4375,334072.21875,370421.625,289314.65625,682367.0625,220315.609375,210028.359375,217028.296875,-0.22607421875
207833.328125,333504.84375,370020.09375,289277.1875,681872.25,220291.828125,209936.359375,216951.765625,-0.225341796875
208104.5,333871.34375,370782.375,289627.40625,682453.0625,220399.296875,210165.5,217302.859375,-0.22509765625
208382.375,334675.71875,371672.6875,289884.96875,683369.125,220483.515625,210398.671875,217598.09375,-0.225341796875
208275.359375,334791.0625,371438.4375,289690.875,683299.625,220431.9375,210309.625,217422.046875,-0.224365234375
207937.390625,334061.21875,370400.15625,289309.90625,682370.25,220317.046875,210019.59375,217015.15625,-0.2265625
207833.859375,333490.8125,369992.8125,289271.28125,681871.9375,220296.65625,209930.359375,216942.28125,-0.2236328125
208108.875,333857.84375,370752.34375,289623.90625,682448.125,220399.203125,210159.25,217297.140625,-0.22314453125
208402.125,334685.1875,371661.59375,289897.65625,683375.1875,220492.375,210402.875,217604.96875,-0.222900390625
208295.203125,334800.8125,371427.1875,289700.53125,683299.1875,220439.796875,210309.0,217424.640625,-0.2255859375
207950.0,334060.875,370384.15625,289319.28125,682362.375,220324.28125,210016.28125,217014.96875,-0.225341796875
207838.78125,333485.71875,369965.09375,289276.1875,681846.625,220300.59375,209919.375,216935.765625,-0.226806640625
208112.09375,333850.84375,370718.09375,289623.46875,682403.1875,220402.6875,210145.921875,217289.546875,-0.226318359375
208403.828125,334674.5625,371637.09375,289901.96875,683331.8125,220498.890625,210397.96875,217612.03125,-0.225341796875
208296.90625,334798.5625,371421.71875,289712.25,683272.5625,220449.359375,210315.703125,217446.984375,-0.22705078125
207950.0,334066.40625,370378.25,289323.3125,682325.3125,220326.15625,210021.109375,217035.890625,-0.228515625
207830.90625,333486.53125,369947.75,289272.96875,681808.8125,220296.921875,209920.359375,216952.390625,-0.22802734375
208094.84375,333840.21875,370689.03125,289618.09375,682352.8125,220394.921875,210141.984375,217303.140625,-0.226806640625
208385.5,334663.65625,371608.125,289895.6875,683280.1875,220485.484375,210390.90625,217622.859375,-0.22705078125
208284.203125,334798.125,371404.65625,289711.0,683233.125,220436.140625,210315.359375,217463.078125,-0.2255859375
207943.75,334074.46875,370367.25,289327.96875,682285.5,220317.3125,210026.65625,217056.640625,-0.226806640625
207834.3125,333500.65625,369938.8125,289278.4375,681778.8125,220290.484375,209927.953125,216973.84375,-0.226806640625
208101.359375,333848.875,370678.9375,289622.375,682315.5625,220390.71875,210149.59375,217324.0625,-0.226318359375
208385.40625,334661.78125,371590.625,289890.59375,683235.4375,220476.984375,210389.65625,217634.296875,-0.22705078125
208291.171875,334810.90625,371398.9375,289708.5625,683213.375,220431.578125,210317.5,217477.75,-0.22998046875
207948.65625,334087.15625,370364.75,289323.0625,682265.8125,220316.234375,210030.765625,217070.140625,-0.2275390625
207824.03125,333492.4375,369921.03125,289262.78125,681758.0,220287.625,209924.90625,216976.265625,-0.22802734375
208090.640625,333846.21875,370664.4375,289610.40625,682295.8125,220387.234375,210150.578125,217327.453125,-0.229736328125
208380.3125,334671.4375,371589.625,289885.40625,683224.625,220475.65625,210394.03125,217642.34375,-0.23046875
208292.609375,334829.5,371414.125,289712.0625,683218.5625,220436.765625,210327.78125,217491.875,-0.2314453125
207951.34375,334112.90625,370382.625,289328.0625,682279.0625,220317.484375,210039.53125,217081.140625,-0.231201171875
207830.828125,333526.125,369934.4375,289267.875,681760.25,220286.46875,209932.953125,216983.6875,-0.230712890625
208095.109375,333861.0625,370666.25,289611.46875,682293.125,220386.421875,210155.84375,217330.3125,-0.230712890625
208390.78125,334688.6875,371600.71875,289892.9375,683232.6875,220479.046875,210404.40625,217649.9375,-0.232666015625
208306.734375,334856.25,371431.03125,289718.6875,683230.125,220438.09375,210332.703125,217495.09375,-0.2333984375
207965.640625,334139.5625,370396.9375,289332.34375,682291.9375,220322.59375,210041.953125,217081.578125,-0.23193359375
207833.859375,333532.125,369933.28125,289264.40625,681764.0,220290.671875,209930.1875,216977.25,-0.23095703125
208097.96875,333867.3125,370658.90625,289608.875,682298.625,220395.28125,210155.40625,217324.40625,-0.23193359375
208390.328125,334689.0625,371596.96875,289891.40625,683247.5,220489.15625,210407.984375,217651.375,-0.23193359375
208301.109375,334862.0625,371435.59375,289714.5625,683251.0,220443.90625,210339.21875,217501.703125,-0.230712890625
207951.78125,334147.5,370396.6875,289322.875,682321.375,220321.6875,210044.0,217083.734375,-0.231689453125
207820.984375,333541.5,369926.65625,289257.59375,681790.375,220290.484375,209930.359375,216976.4375,-0.23291015625
208074.546875,333858.90625,370635.40625,289594.9375,682315.75,220387.40625,210142.96875,217313.140625,-0.232666015625
208373.078125,334686.90625,371575.96875,289881.03125,683270.125,220482.453125,210396.171875,217638.3125,-0.228759765625
208291.53125,334868.40625,371423.59375,289711.53125,683294.125,220439.890625,210330.46875,217491.0625,-0.22802734375
207943.296875,334162.34375,370386.9375,289318.5,682377.25,220316.953125,210036.765625,217073.796875,-0.2275390625
207810.34375,333553.40625,369906.71875,289245.09375,681821.125,220285.125,209922.59375,216965.0,-0.228759765625
208065.609375,333862.03125,370608.3125,289577.875,682339.8125,220380.703125,210136.890625,217299.015625,-0.229248046875
208359.75,334673.65625,371547.0625,289862.0,683288.9375,220471.890625,210388.671875,217620.265625,-0.228271484375
208282.859375,334864.09375,371405.46875,289696.25,683312.0,220429.0625,210324.46875,217476.9375,-0.227294921875
207940.875,334162.34375,370371.90625,289308.375,682402.375,220310.875,210035.0625,217061.828125,-0.226806640625
207805.96875,333544.46875,369883.03125,289238.125,681846.25,220281.28125,209922.046875,216950.609375,-0.2265625
208062.03125,333850.6875,370580.21875,289573.84375,682366.875,220382.9375,210137.15625,217284.984375,-0.226318359375
208364.671875,334671.0,371527.5,289863.78125,683317.5625,220479.671875,210390.625,217611.9375,-0.2275390625
208292.875,334856.6875,371391.5,289699.09375,683332.75,220437.921875,210325.90625,217465.765625,-0.225341796875
207953.75,334153.78125,370357.4375,289307.40625,682423.5625,220317.671875,210032.015625,217046.53125,-0.225830078125
207816.421875,333530.25,369859.59375,289232.3125,681849.0,220285.21875,209913.5625,216932.453125,-0.2255859375
208072.484375,333829.5,370548.21875,289566.25,682356.3125,220382.21875,210124.640625,217267.375,-0.2255859375
208379.515625,334658.28125,371498.78125,289860.46875,683309.375,220478.875,210379.546875,217599.515625,-0.227783203125
208309.859375,334851.15625,371372.5625,289703.375,683341.4375,220445.78125,210320.625,217464.953125,-0.22607421875
207973.875,334157.78125,370341.4375,289316.15625,682434.0,220331.703125,210031.3125,217052.34375,-0.22607421875
207825.015625,333526.125,369831.90625,289234.34375,681843.1875,220289.78125,209905.15625,216930.75,-0.227783203125
208069.71875,333807.6875,370509.0625,289564.53125,682333.8125,220385.625,210114.09375,217261.296875,-0.22607421875
208375.484375,334635.65625,371465.71875,289863.34375,683284.0,220484.140625,210374.984375,217602.109375,-0.225341796875
208308.796875,334853.5625,371358.59375,289710.0,683323.25,220447.671875,210323.578125,217476.3125,-0.2265625
207963.140625,334160.90625,370330.15625,289314.90625,682416.75,220327.40625,210034.34375,217063.078125,-0.2265625
207809.8125,333513.15625,369806.6875,289223.8125,681813.5625,220285.03125,209907.296875,216935.9375,-0.226806640625
208050.5,333783.34375,370475.875,289550.59375,682292.5625,220376.234375,210114.546875,217263.96875,-0.22900390625
208362.4375,334621.375,371443.625,289855.28125,683249.875,220476.984375,210380.53125,217609.984375,-0.229736328125
208298.0625,334841.9375,371342.25,289700.78125,683298.5,220438.8125,210328.3125,217482.84375,-0.22900390625
207965.015625,334167.8125,370324.625,289318.21875,682396.4375,220326.15625,210048.109375,217075.0625,-0.22998046875
207816.609375,333534.0,369798.28125,289229.0,681805.1875,220286.5625,209920.703125,216945.859375,-0.226318359375
208058.453125,333799.1875,370459.625,289556.59375,682273.5625,220383.65625,210128.140625,217275.6875,-0.226806640625
208362.34375,334618.5,371418.40625,289854.84375,683216.9375,220478.328125,210384.734375,217614.265625,-0.22802734375
208296.8125,334844.71875,371322.21875,289702.03125,683285.4375,220440.609375,210329.828125,217487.21875,-0.22802734375
207955.546875,334163.25,370293.21875,289307.9375,682372.75,220319.640625,210039.984375,217072.90625,-0.227294921875
207806.953125,333518.09375,369756.625,289214.0625,681773.1875,220276.546875,209910.703125,216941.296875,-0.226806640625
208042.09375,333770.03125,370402.65625,289532.25,682229.5625,220365.046875,210107.21875,217257.796875,-0.2265625
208343.21875,334582.125,371356.375,289825.96875,683170.375,220456.34375,210358.359375,217589.421875,-0.22705078125
208289.921875,334811.96875,371270.09375,289680.9375,683257.5625,220424.15625,210308.5625,217467.640625,-0.227294921875
207953.75,334131.40625,370241.09375,289290.25,682345.5,220305.328125,210017.09375,217048.765625,-0.22607421875
207804.796875,333489.84375,369701.8125,289199.40625,681759.0,220267.328125,209890.125,216916.453125,-0.22705078125
208046.828125,333745.71875,370350.09375,289523.59375,682218.5625,220360.859375,210091.75,217236.53125,-0.227294921875
208359.484375,334567.71875,371318.625,289832.9375,683174.0625,220465.734375,210358.09375,217582.34375,-0.229248046875
