EEG 1,EEG 2,EEG 3,EEG 4,EEG 5,EEG 6,EEG 7,EEG 8,Accelerometer X,Accelerometer Y,Accelerometer Z,Gyroscope X,Gyroscope Y,Gyroscope Z,Battery Level,Counter,Validation Indicator
-5.170,-5.626,-4.332,-5.704,-1.108,-1.527,-3.387,-1.503,-0.143,0.948,-0.350,0.000,0.092,0.092,80.000,8193.000,1.000
-2.792,-2.978,-2.011,-4.782,0.769,0.896,-3.020,-0.259,-0.144,0.949,-0.351,-0.122,-0.061,0.092,80.000,8194.000,1.000
-0.896,-0.860,0.120,-3.829,1.918,2.715,-3.342,0.240,-0.147,0.948,-0.350,-0.122,-0.092,0.092,80.000,8195.000,1.000
0.124,0.198,1.665,-3.163,2.129,3.362,-4.226,-0.148,-0.146,0.947,-0.353,-0.183,-0.214,0.153,80.000,8196.000,1.000
0.307,0.104,2.382,-2.802,1.615,2.826,-5.353,-1.039,-0.146,0.945,-0.348,-0.275,-0.183,0.122,80.000,8197.000,1.000
0.077,-0.805,2.324,-2.383,0.931,1.652,-6.192,-1.688,-0.147,0.946,-0.348,-0.305,-0.305,0.244,80.000,8198.000,1.000
-0.143,-2.110,1.766,-1.462,0.605,0.479,-6.321,-1.560,-0.146,0.944,-0.347,-0.305,-0.397,0.214,80.000,8199.000,1.000
-0.291,-3.657,0.947,-0.006,0.721,-0.450,-5.835,-0.834,-0.147,0.944,-0.351,-0.244,-0.458,0.214,80.000,8200.000,1.000
-0.526,-5.390,0.034,1.625,1.001,-1.209,-5.150,-0.171,-0.146,0.945,-0.350,-0.183,-0.580,0.214,80.000,8201.000,1.000
-0.825,-6.992,-0.722,3.147,1.213,-1.746,-4.438,0.025,-0.144,0.945,-0.349,-0.244,-0.610,0.183,80.000,8202.000,1.000
-0.917,-8.010,-1.064,4.463,1.256,-1.866,-3.570,-0.145,-0.143,0.947,-0.347,-0.305,-0.702,0.244,80.000,8203.000,1.000
-0.507,-8.229,-0.984,5.461,0.995,-1.565,-2.481,-0.419,-0.143,0.946,-0.351,-0.305,-0.793,0.244,80.000,8204.000,1.000
0.620,-7.706,-0.719,5.977,0.291,-1.140,-1.352,-0.663,-0.145,0.944,-0.353,-0.305,-0.885,0.244,80.000,8205.000,1.000
2.447,-6.700,-0.538,5.820,-0.859,-0.972,-0.513,-0.907,-0.142,0.942,-0.351,-0.366,-0.854,0.275,80.000,8206.000,1.000
4.548,-5.681,-0.593,4.757,-2.329,-1.297,-0.277,-1.293,-0.142,0.946,-0.351,-0.427,-1.007,0.366,80.000,8207.000,1.000
6.271,-5.047,-0.807,2.780,-3.864,-2.030,-0.674,-1.889,-0.142,0.944,-0.352,-0.427,-0.977,0.366,80.000,8208.000,1.000
7.237,-4.708,-0.861,0.429,-5.018,-2.742,-1.269,-2.482,-0.142,0.946,-0.350,-0.427,-0.946,0.336,80.000,8209.000,1.000
7.596,-4.093,-0.411,-1.409,-5.277,-2.844,-1.387,-2.687,-0.143,0.944,-0.350,-0.427,-0.977,0.397,80.000,8210.000,1.000
7.831,-2.641,0.598,-2.118,-4.451,-2.006,-0.668,-2.375,-0.143,0.947,-0.349,-0.488,-1.038,0.305,80.000,8211.000,1.000
8.354,-0.320,1.831,-1.724,-2.919,-0.476,0.655,-1.836,-0.143,0.948,-0.348,-0.580,-1.007,0.214,80.000,8212.000,1.000
9.211,2.327,2.826,-0.706,-1.377,1.113,2.018,-1.405,-0.144,0.946,-0.348,-0.580,-0.977,0.244,80.000,8213.000,1.000
9.979,4.483,3.282,0.407,-0.437,2.184,2.867,-1.159,-0.142,0.942,-0.354,-0.610,-1.007,0.244,80.000,8214.000,1.000
10.004,5.443,3.088,1.177,-0.446,2.391,2.807,-1.032,-0.141,0.940,-0.355,-0.519,-1.099,0.153,80.000,8215.000,1.000
8.913,5.004,2.296,1.328,-1.381,1.681,1.830,-0.929,-0.141,0.941,-0.356,-0.427,-1.038,0.183,80.000,8216.000,1.000
6.945,3.650,1.157,0.928,-2.771,0.441,0.498,-0.645,-0.140,0.943,-0.353,-0.336,-1.068,0.183,80.000,8217.000,1.000
4.814,2.324,0.074,0.443,-3.862,-0.599,-0.294,0.083,-0.138,0.945,-0.353,-0.336,-0.977,0.183,80.000,8218.000,1.000
3.224,1.807,-0.675,0.442,-4.126,-0.846,0.095,1.326,-0.136,0.943,-0.354,-0.305,-0.916,0.183,80.000,8219.000,1.000
2.362,2.126,-1.206,1.141,-3.663,-0.289,1.603,2.804,-0.135,0.943,-0.352,-0.305,-0.885,0.214,80.000,8220.000,1.000
1.845,2.593,-1.844,2.300,-3.004,0.630,3.616,4.069,-0.136,0.943,-0.352,-0.397,-0.824,0.275,80.000,8221.000,1.000
1.281,2.523,-2.665,3.576,-2.512,1.577,5.521,4.845,-0.137,0.944,-0.356,-0.336,-0.793,0.305,80.000,8222.000,1.000
0.746,1.871,-3.350,4.851,-2.093,2.642,7.029,5.137,-0.140,0.943,-0.356,-0.397,-0.763,0.183,80.000,8223.000,1.000
0.585,1.126,-3.492,6.125,-1.484,4.072,8.058,5.083,-0.144,0.943,-0.354,-0.366,-0.732,0.183,80.000,8224.000,1.000
0.954,0.728,-2.968,7.235,-0.642,5.805,8.555,4.837,-0.144,0.942,-0.355,-0.427,-0.671,0.183,80.000,8225.000,1.000
1.776,0.776,-1.924,7.890,0.234,7.415,8.554,4.602,-0.145,0.943,-0.356,-0.366,-0.671,0.031,80.000,8226.000,1.000
2.939,1.211,-0.551,8.000,0.951,8.489,8.240,4.569,-0.145,0.942,-0.354,-0.275,-0.732,-0.153,80.000,8227.000,1.000
4.354,2.055,1.070,7.824,1.500,8.962,7.862,4.801,-0.145,0.942,-0.351,-0.275,-0.793,-0.244,80.000,8228.000,1.000
5.869,3.303,2.907,7.721,2.001,9.099,7.637,5.236,-0.144,0.942,-0.353,-0.305,-0.732,-0.305,80.000,8229.000,1.000
7.163,4.772,4.767,7.729,2.483,9.239,7.687,5.738,-0.143,0.943,-0.353,-0.366,-0.854,-0.458,80.000,8230.000,1.000
7.784,6.181,6.234,7.476,2.757,9.517,8.026,6.107,-0.142,0.941,-0.355,-0.275,-0.916,-0.549,80.000,8231.000,1.000
7.433,7.321,6.923,6.556,2.545,9.762,8.600,6.157,-0.143,0.942,-0.352,-0.214,-0.885,-0.580,80.000,8232.000,1.000
6.227,8.060,6.726,4.929,1.663,9.574,9.208,5.843,-0.141,0.942,-0.354,-0.214,-0.854,-0.519,80.000,8233.000,1.000
4.717,8.404,5.936,3.068,0.231,8.659,9.524,5.368,-0.141,0.945,-0.355,-0.153,-0.763,-0.488,80.000,8234.000,1.000
3.717,8.672,5.238,1.838,-1.122,7.295,9.483,5.227,-0.142,0.946,-0.357,-0.275,-0.702,-0.488,80.000,8235.000,1.000
3.811,9.286,5.333,1.957,-1.547,6.239,9.419,5.911,-0.142,0.946,-0.357,-0.397,-0.702,-0.519,80.000,8236.000,1.000
4.815,10.227,6.297,3.286,-0.747,5.977,9.567,7.369,-0.143,0.948,-0.355,-0.366,-0.732,-0.519,80.000,8237.000,1.000
5.923,10.926,7.467,4.816,0.726,6.273,9.708,8.926,-0.143,0.948,-0.355,-0.336,-0.671,-0.397,80.000,8238.000,1.000
6.456,10.760,8.045,5.471,2.050,6.523,9.487,9.826,-0.145,0.950,-0.355,-0.519,-0.610,-0.305,80.000,8239.000,1.000
6.327,9.577,7.723,4.934,2.798,6.339,8.834,9.751,-0.143,0.948,-0.354,-0.610,-0.641,-0.153,80.000,8240.000,1.000
5.826,7.784,6.788,3.793,3.046,5.778,7.944,8.918,-0.145,0.950,-0.356,-0.610,-0.702,-0.153,80.000,8241.000,1.000
5.175,6.000,5.796,2.997,3.109,5.174,7.024,7.805,-0.146,0.950,-0.353,-0.671,-0.671,-0.031,80.000,8242.000,1.000
4.400,4.662,5.176,3.099,3.227,4.826,6.216,6.777,-0.146,0.949,-0.353,-0.702,-0.641,0.061,80.000,8243.000,1.000
3.461,3.786,5.001,3.856,3.350,4.728,5.618,5.862,-0.145,0.949,-0.356,-0.732,-0.519,0.000,80.000,8244.000,1.000
2.325,3.082,5.028,4.418,3.177,4.578,5.234,4.814,-0.145,0.947,-0.355,-0.824,-0.458,0.122,80.000,8245.000,1.000
1.052,2.363,4.991,4.036,2.537,4.127,4.955,3.421,-0.145,0.947,-0.355,-0.824,-0.397,0.214,80.000,8246.000,1.000
-0.166,1.681,4.784,2.646,1.672,3.478,4.673,1.751,-0.144,0.947,-0.355,-0.977,-0.397,0.305,80.000,8247.000,1.000
-1.162,1.042,4.398,0.788,1.038,2.951,4.355,0.102,-0.144,0.947,-0.355,-1.007,-0.427,0.397,80.000,8248.000,1.000
-1.950,0.252,3.803,-0.902,0.858,2.654,3.915,-1.252,-0.142,0.945,-0.354,-1.068,-0.427,0.488,80.000,8249.000,1.000
-2.641,-0.821,2.966,-2.037,0.908,2.286,3.115,-2.226,-0.144,0.945,-0.356,-1.068,-0.336,0.458,80.000,8250.000,1.000
-3.190,-1.992,1.948,-2.514,0.701,1.388,1.706,-2.885,-0.143,0.944,-0.356,-1.160,-0.397,0.549,80.000,8251.000,1.000
-3.316,-2.906,0.920,-2.468,-0.164,-0.223,-0.324,-3.326,-0.142,0.944,-0.353,-1.129,-0.244,0.519,80.000,8252.000,1.000
-2.704,-3.282,0.100,-2.172,-1.676,-2.271,-2.627,-3.575,-0.144,0.942,-0.356,-1.007,-0.092,0.671,80.000,8253.000,1.000
-1.303,-3.049,-0.383,-1.901,-3.415,-4.251,-4.599,-3.616,-0.143,0.943,-0.357,-1.068,-0.153,0.610,80.000,8254.000,1.000
0.554,-2.407,-0.566,-1.819,-4.883,-5.802,-5.688,-3.441,-0.144,0.941,-0.357,-0.977,-0.153,0.580,80.000,8255.000,1.000
2.325,-1.750,-0.592,-1.907,-5.831,-6.896,-5.741,-3.082,-0.143,0.940,-0.357,-0.977,-0.153,0.549,80.000,8256.000,1.000
3.492,-1.561,-0.721,-2.127,-6.384,-7.902,-5.188,-2.752,-0.141,0.941,-0.356,-1.099,-0.061,0.610,80.000,8257.000,1.000
3.698,-2.166,-1.263,-2.603,-6.859,-9.359,-4.798,-2.857,-0.141,0.941,-0.353,-1.099,0.031,0.549,80.000,8258.000,1.000
2.953,-3.315,-2.148,-3.401,-7.238,-11.263,-4.920,-3.503,-0.143,0.940,-0.353,-1.068,0.031,0.519,80.000,8259.000,1.000
1.684,-4.189,-2.721,-4.200,-6.981,-12.744,-5.112,-4.153,-0.144,0.941,-0.355,-1.099,0.031,0.427,80.000,8260.000,1.000
0.306,-4.258,-2.458,-4.565,-5.768,-12.976,-4.877,-4.255,-0.144,0.939,-0.354,-1.129,-0.061,0.244,80.000,8261.000,1.000
-1.182,-3.989,-1.819,-4.523,-4.313,-12.271,-4.560,-4.097,-0.146,0.940,-0.354,-1.099,0.000,0.275,80.000,8262.000,1.000
-2.988,-4.371,-1.969,-4.562,-3.974,-11.811,-5.096,-4.602,-0.147,0.941,-0.354,-1.160,-0.061,0.122,80.000,8263.000,1.000
-5.138,-5.996,-3.748,-5.092,-5.600,-12.520,-7.071,-6.410,-0.146,0.939,-0.353,-1.099,-0.061,0.031,80.000,8264.000,1.000
-7.440,-8.722,-7.108,-6.108,-8.908,-14.403,-10.211,-9.339,-0.147,0.939,-0.354,-1.038,-0.183,0.122,80.000,8265.000,1.000
-9.584,-11.762,-11.163,-7.209,-12.630,-16.579,-13.456,-12.442,-0.148,0.939,-0.355,-1.007,-0.183,0.153,80.000,8266.000,1.000
-11.233,-13.992,-14.530,-7.829,-15.138,-17.772,-15.478,-14.479,-0.146,0.941,-0.354,-0.946,-0.275,0.031,80.000,8267.000,1.000
-12.212,-14.604,-16.025,-7.649,-15.396,-17.231,-15.573,-14.704,-0.146,0.942,-0.352,-0.977,-0.397,-0.031,80.000,8268.000,1.000
-12.597,-13.734,-15.456,-6.864,-13.697,-15.328,-14.259,-13.420,-0.145,0.944,-0.352,-1.038,-0.488,-0.061,80.000,8269.000,1.000
-12.589,-12.321,-13.721,-6.002,-11.366,-13.195,-12.803,-11.696,-0.146,0.946,-0.351,-1.129,-0.610,0.092,80.000,8270.000,1.000
-12.403,-11.339,-12.077,-5.515,-9.683,-11.819,-12.075,-10.499,-0.148,0.946,-0.352,-1.160,-0.610,0.000,80.000,8271.000,1.000
-12.182,-11.090,-11.190,-5.484,-9.013,-11.372,-11.874,-9.959,-0.148,0.946,-0.348,-1.221,-0.702,0.092,80.000,8272.000,1.000
-11.931,-11.126,-10.830,-5.594,-8.800,-11.242,-11.342,-9.382,-0.148,0.946,-0.347,-1.282,-0.793,0.061,80.000,8273.000,1.000
-11.680,-10.912,-10.476,-5.501,-8.341,-10.760,-9.983,-8.060,-0.148,0.947,-0.351,-1.282,-0.732,0.153,80.000,8274.000,1.000
-11.699,-10.468,-10.012,-5.221,-7.483,-9.860,-8.126,-6.024,-0.147,0.946,-0.352,-1.373,-0.885,0.183,80.000,8275.000,1.000
-12.301,-10.216,-9.683,-4.998,-6.555,-8.962,-6.466,-3.918,-0.148,0.948,-0.352,-1.434,-0.946,0.214,80.000,8276.000,1.000
-13.386,-10.403,-9.561,-4.845,-5.817,-8.395,-5.446,-2.312,-0.148,0.945,-0.351,-1.465,-1.068,0.275,80.000,8277.000,1.000
-14.280,-10.772,-9.252,-4.458,-5.120,-8.057,-5.000,-1.260,-0.145,0.945,-0.352,-1.495,-1.190,0.275,80.000,8278.000,1.000
-13.959,-10.573,-8.050,-3.508,-3.928,-7.427,-4.575,-0.301,-0.146,0.944,-0.350,-1.465,-1.343,0.366,80.000,8279.000,1.000
-11.602,-8.954,-5.431,-1.917,-1.647,-5.857,-3.423,1.195,-0.147,0.945,-0.350,-1.465,-1.312,0.397,80.000,8280.000,1.000
-7.264,-5.617,-1.537,0.057,1.866,-3.099,-1.161,3.497,-0.146,0.944,-0.354,-1.343,-1.373,0.366,80.000,8281.000,1.000
-1.983,-1.102,2.904,2.047,6.132,0.512,1.986,6.326,-0.146,0.943,-0.353,-1.465,-1.343,0.397,80.000,8282.000,1.000
2.942,3.687,7.180,3.927,10.472,4.499,5.567,9.216,-0.148,0.945,-0.353,-1.434,-1.373,0.488,80.000,8283.000,1.000
6.776,8.114,11.007,5.868,14.424,8.651,9.256,11.847,-0.149,0.947,-0.353,-1.373,-1.434,0.488,80.000,8284.000,1.000
9.576,11.985,14.425,8.019,17.775,12.875,12.779,13.999,-0.146,0.945,-0.353,-1.373,-1.495,0.549,80.000,8285.000,1.000
11.775,15.347,17.492,10.196,20.391,16.902,15.750,15.435,-0.145,0.945,-0.355,-1.343,-1.556,0.366,80.000,8286.000,1.000
13.598,18.158,20.070,11.904,22.092,20.223,17.705,15.971,-0.145,0.946,-0.353,-1.373,-1.495,0.336,80.000,8287.000,1.000
14.804,20.064,21.769,12.569,22.608,22.190,18.209,15.486,-0.143,0.947,-0.353,-1.312,-1.465,0.488,80.000,8288.000,1.000
14.855,20.493,22.064,11.729,21.655,22.223,16.993,13.842,-0.140,0.945,-0.349,-1.343,-1.343,0.549,80.000,8289.000,1.000
13.476,19.211,20.748,9.333,19.281,20.221,14.229,11.082,-0.140,0.947,-0.354,-1.282,-1.373,0.641,80.000,8290.000,1.000
11.273,16.908,18.427,6.103,16.269,17.024,10.832,7.827,-0.142,0.947,-0.353,-1.373,-1.221,0.549,80.000,8291.000,1.000
9.497,14.939,16.259,3.300,13.865,14.161,8.177,5.159,-0.141,0.947,-0.352,-1.373,-0.946,0.549,80.000,8292.000,1.000
8.893,14.239,14.951,1.756,12.843,12.775,7.183,3.864,-0.139,0.947,-0.351,-1.434,-0.854,0.549,80.000,8293.000,1.000
9.028,14.646,14.193,1.235,12.944,12.907,7.719,3.859,-0.137,0.946,-0.352,-1.495,-0.854,0.671,80.000,8294.000,1.000
8.815,15.219,13.056,0.815,13.245,13.789,8.894,4.370,-0.138,0.946,-0.351,-1.404,-0.763,0.458,80.000,8295.000,1.000
7.527,15.023,10.847,-0.224,12.972,14.593,9.811,4.605,-0.141,0.943,-0.353,-1.343,-0.610,0.397,80.000,8296.000,1.000
5.374,13.837,7.723,-1.837,12.079,14.955,10.194,4.384,-0.140,0.942,-0.354,-1.404,-0.458,0.580,80.000,8297.000,1.000
3.236,12.229,4.578,-3.385,11.140,14.990,10.413,4.148,-0.139,0.940,-0.354,-1.343,-0.336,0.488,80.000,8298.000,1.000
1.871,10.925,2.321,-4.253,10.724,14.943,10.959,4.364,-0.137,0.941,-0.352,-1.282,-0.092,0.427,80.000,8299.000,1.000
1.425,10.247,1.283,-4.275,10.926,14.922,11.934,5.053,-0.139,0.941,-0.350,-1.160,0.000,0.427,80.000,8300.000,1.000
1.566,10.159,1.257,-3.695,11.428,14.915,12.993,5.907,-0.142,0.942,-0.349,-1.068,0.000,0.519,80.000,8301.000,1.000
1.971,10.574,1.928,-2.805,11.880,14.931,13.666,6.671,-0.140,0.940,-0.349,-0.946,0.092,0.427,80.000,8302.000,1.000
2.613,11.509,3.105,-1.717,12.103,15.017,13.676,7.246,-0.140,0.941,-0.353,-1.007,0.092,0.397,80.000,8303.000,1.000
3.497,12.838,4.517,-0.551,11.892,15.003,12.895,7.477,-0.139,0.940,-0.352,-0.977,0.214,0.397,80.000,8304.000,1.000
4.371,14.079,5.698,0.386,10.910,14.381,11.200,7.070,-0.142,0.941,-0.349,-0.854,0.305,0.336,80.000,8305.000,1.000
4.985,14.658,6.299,0.802,8.985,12.662,8.618,5.856,-0.142,0.942,-0.349,-0.671,0.519,0.366,80.000,8306.000,1.000
5.449,14.355,6.398,0.687,6.415,9.899,5.525,4.011,-0.144,0.941,-0.352,-0.671,0.549,0.214,80.000,8307.000,1.000
6.151,13.506,6.447,0.361,3.930,6.811,2.561,1.976,-0.143,0.942,-0.351,-0.702,0.580,0.244,80.000,8308.000,1.000
7.360,12.774,6.945,0.269,2.261,4.363,0.242,0.203,-0.143,0.942,-0.352,-0.610,0.641,0.244,80.000,8309.000,1.000
9.028,12.668,8.077,0.655,1.638,3.126,-1.386,-1.092,-0.144,0.942,-0.350,-0.610,0.671,0.153,80.000,8310.000,1.000
10.888,13.143,9.570,1.368,1.716,2.942,-2.679,-2.011,-0.146,0.944,-0.351,-0.580,0.702,0.153,80.000,8311.000,1.000
12.533,13.574,10.817,1.901,1.878,3.144,-4.072,-2.934,-0.148,0.943,-0.353,-0.610,0.641,0.214,80.000,8312.000,1.000
13.553,13.208,11.242,1.822,1.660,3.126,-5.764,-4.223,-0.146,0.944,-0.351,-0.610,0.610,0.244,80.000,8313.000,1.000
13.755,11.731,10.684,1.237,1.027,2.694,-7.616,-5.811,-0.146,0.946,-0.350,-0.549,0.671,0.244,80.000,8314.000,1.000
13.198,9.389,9.389,0.686,0.257,1.943,-9.306,-7.178,-0.147,0.945,-0.352,-0.458,0.580,0.305,80.000,8315.000,1.000
12.087,6.694,7.780,0.654,-0.319,1.034,-10.512,-7.720,-0.145,0.947,-0.351,-0.580,0.549,0.336,80.000,8316.000,1.000
10.732,4.160,6.230,1.265,-0.484,0.120,-11.000,-7.144,-0.145,0.948,-0.351,-0.702,0.610,0.336,80.000,8317.000,1.000
9.473,2.121,4.928,2.306,-0.214,-0.732,-10.749,-5.678,-0.145,0.946,-0.348,-0.702,0.519,0.397,80.000,8318.000,1.000
8.602,0.764,4.004,3.572,0.448,-1.439,-9.879,-3.813,-0.145,0.948,-0.349,-0.793,0.397,0.488,80.000,8319.000,1.000
8.352,0.349,3.759,5.132,1.637,-1.679,-8.363,-1.795,-0.146,0.950,-0.348,-0.885,0.488,0.549,80.000,8320.000,1.000
8.734,1.068,4.426,7.019,3.423,-1.176,-6.170,0.317,-0.146,0.949,-0.350,-0.916,0.458,0.641,80.000,8321.000,1.000
9.303,2.540,5.659,8.761,5.315,-0.228,-3.696,2.188,-0.145,0.948,-0.350,-0.977,0.336,0.641,80.000,8322.000,1.000
9.328,3.820,6.584,9.595,6.419,0.430,-1.663,3.289,-0.145,0.946,-0.353,-1.099,0.336,0.580,80.000,8323.000,1.000
8.320,4.056,6.485,9.165,6.178,0.268,-0.531,3.457,-0.145,0.945,-0.352,-1.190,0.336,0.671,80.000,8324.000,1.000
6.373,3.114,5.281,7.784,4.713,-0.652,-0.235,3.042,-0.144,0.945,-0.355,-1.099,0.244,0.732,80.000,8325.000,1.000
3.991,1.557,3.361,6.045,2.520,-1.853,-0.469,2.466,-0.145,0.945,-0.356,-1.099,0.244,0.824,80.000,8326.000,1.000
1.687,0.074,1.144,4.342,0.028,-2.904,-1.015,1.896,-0.146,0.946,-0.351,-1.099,0.153,0.824,80.000,8327.000,1.000
-0.232,-1.020,-1.156,2.758,-2.510,-3.717,-1.773,1.327,-0.146,0.945,-0.352,-1.068,0.153,0.854,80.000,8328.000,1.000
-1.675,-1.863,-3.453,1.225,-4.918,-4.462,-2.634,0.749,-0.145,0.947,-0.350,-1.129,0.092,0.732,80.000,8329.000,1.000
-2.729,-2.854,-5.616,-0.263,-6.957,-5.265,-3.429,0.209,-0.148,0.947,-0.352,-1.190,0.000,0.671,80.000,8330.000,1.000
-3.633,-4.419,-7.490,-1.613,-8.378,-6.085,-4.017,-0.261,-0.146,0.946,-0.352,-1.251,-0.061,0.641,80.000,8331.000,1.000
-4.705,-6.749,-9.089,-2.785,-9.135,-6.827,-4.363,-0.757,-0.147,0.947,-0.353,-1.221,-0.183,0.580,80.000,8332.000,1.000
-6.160,-9.608,-10.640,-3.851,-9.488,-7.482,-4.523,-1.494,-0.147,0.947,-0.351,-1.221,-0.214,0.519,80.000,8333.000,1.000
-7.978,-12.450,-12.367,-4.909,-9.854,-8.139,-4.567,-2.620,-0.147,0.947,-0.352,-1.282,-0.275,0.427,80.000,8334.000,1.000
-9.918,-14.762,-14.287,-5.975,-10.525,-8.842,-4.523,-4.007,-0.147,0.948,-0.351,-1.343,-0.397,0.366,80.000,8335.000,1.000
-11.685,-16.352,-16.248,-6.988,-11.560,-9.546,-4.441,-5.303,-0.145,0.948,-0.351,-1.404,-0.458,0.366,80.000,8336.000,1.000
-13.112,-17.451,-18.150,-7.932,-12.909,-10.287,-4.549,-6.205,-0.144,0.946,-0.353,-1.556,-0.549,0.336,80.000,8337.000,1.000
-14.170,-18.500,-19.957,-8.872,-14.455,-11.201,-5.138,-6.637,-0.143,0.945,-0.354,-1.495,-0.671,0.305,80.000,8338.000,1.000
-14.809,-19.728,-21.504,-9.749,-15.890,-12.275,-6.221,-6.703,-0.140,0.946,-0.351,-1.526,-0.641,0.366,80.000,8339.000,1.000
-14.951,-21.062,-22.540,-10.317,-16.808,-13.294,-7.472,-6.646,-0.143,0.944,-0.354,-1.556,-0.610,0.458,80.000,8340.000,1.000
-14.713,-22.429,-23.004,-10.398,-17.024,-14.144,-8.550,-6.821,-0.144,0.942,-0.354,-1.495,-0.702,0.610,80.000,8341.000,1.000
-14.439,-23.820,-22.979,-9.991,-16.618,-14.902,-9.250,-7.389,-0.146,0.943,-0.349,-1.556,-0.793,0.580,80.000,8342.000,1.000
-14.344,-24.875,-22.310,-9.046,-15.576,-15.434,-9.271,-7.938,-0.146,0.942,-0.351,-1.526,-0.763,0.763,80.000,8343.000,1.000
-14.280,-24.770,-20.588,-7.430,-13.637,-15.138,-8.099,-7.625,-0.147,0.942,-0.350,-1.465,-0.885,0.671,80.000,8344.000,1.000
-13.965,-22.859,-17.738,-5.242,-10.696,-13.435,-5.435,-5.924,-0.146,0.944,-0.351,-1.495,-0.916,0.885,80.000,8345.000,1.000
-13.356,-19.439,-14.437,-2.987,-7.266,-10.486,-1.745,-3.221,-0.145,0.943,-0.349,-1.465,-0.854,0.946,80.000,8346.000,1.000
-12.614,-15.621,-11.621,-1.268,-4.258,-7.132,1.878,-0.581,-0.142,0.942,-0.350,-1.434,-0.885,0.946,80.000,8347.000,1.000
-11.820,-12.446,-9.674,-0.422,-2.313,-4.218,4.445,1.010,-0.142,0.942,-0.349,-1.373,-0.977,0.916,80.000,8348.000,1.000
-10.851,-10.246,-8.327,-0.479,-1.544,-2.218,5.510,1.112,-0.141,0.943,-0.349,-1.404,-1.068,0.977,80.000,8349.000,1.000
-9.438,-8.600,-7.067,-1.155,-1.667,-1.188,5.196,-0.034,-0.143,0.942,-0.351,-1.434,-0.977,1.007,80.000,8350.000,1.000
-7.275,-6.641,-5.348,-1.799,-2.020,-0.707,4.203,-1.501,-0.141,0.941,-0.351,-1.373,-1.129,1.068,80.000,8351.000,1.000
-4.250,-3.599,-2.751,-1.674,-1.721,-0.026,3.568,-2.081,-0.140,0.942,-0.350,-1.282,-1.129,1.007,80.000,8352.000,1.000
-0.710,0.582,0.633,-0.572,-0.319,1.285,3.918,-1.108,-0.140,0.942,-0.350,-1.251,-0.977,1.007,80.000,8353.000,1.000
2.557,5.011,3.961,0.893,1.644,2.782,4.905,0.966,-0.139,0.942,-0.354,-1.373,-1.007,0.824,80.000,8354.000,1.000
4.729,8.294,6.107,1.751,3.004,3.510,5.568,2.915,-0.136,0.941,-0.349,-1.343,-0.885,0.885,80.000,8355.000,1.000
5.393,9.339,6.461,1.460,2.939,2.884,5.163,3.681,-0.137,0.941,-0.350,-1.312,-0.885,0.916,80.000,8356.000,1.000
4.605,7.893,5.153,0.185,1.437,1.020,3.551,2.936,-0.135,0.942,-0.351,-1.160,-0.793,0.885,80.000,8357.000,1.000
2.707,4.540,2.687,-1.497,-0.975,-1.563,1.101,1.001,-0.135,0.943,-0.352,-1.129,-0.702,0.702,80.000,8358.000,1.000
0.142,0.277,-0.377,-2.993,-3.669,-4.273,-1.578,-1.492,-0.136,0.944,-0.350,-1.099,-0.580,0.702,80.000,8359.000,1.000
-2.634,-3.928,-3.460,-3.920,-6.086,-6.565,-3.914,-3.877,-0.136,0.945,-0.350,-1.129,-0.519,0.641,80.000,8360.000,1.000
-5.194,-7.240,-5.955,-4.197,-7.808,-8.020,-5.563,-5.678,-0.135,0.946,-0.349,-1.099,-0.519,0.427,80.000,8361.000,1.000
-7.225,-9.081,-7.429,-4.016,-8.729,-8.538,-6.519,-6.764,-0.135,0.945,-0.352,-1.129,-0.488,0.397,80.000,8362.000,1.000
-8.601,-9.499,-7.922,-3.715,-9.096,-8.437,-7.090,-7.312,-0.136,0.944,-0.354,-1.129,-0.427,0.305,80.000,8363.000,1.000
-9.398,-9.333,-7.953,-3.599,-9.265,-8.249,-7.712,-7.596,-0.135,0.944,-0.354,-1.068,-0.244,0.305,80.000,8364.000,1.000
-9.811,-9.696,-8.108,-3.798,-9.391,-8.340,-8.650,-7.765,-0.136,0.944,-0.353,-1.068,-0.061,0.153,80.000,8365.000,1.000
-9.960,-11.100,-8.566,-4.170,-9.306,-8.659,-9.747,-7.759,-0.136,0.944,-0.350,-1.190,0.000,0.122,80.000,8366.000,1.000
-9.769,-13.081,-9.018,-4.398,-8.729,-8.809,-10.459,-7.389,-0.135,0.944,-0.352,-1.160,0.061,0.092,80.000,8367.000,1.000
-9.111,-14.554,-8.962,-4.162,-7.542,-8.359,-10.186,-6.492,-0.137,0.945,-0.353,-1.160,0.031,-0.031,80.000,8368.000,1.000
-7.977,-14.475,-7.995,-3.242,-5.781,-7.079,-8.622,-5.019,-0.140,0.945,-0.355,-1.160,0.122,0.000,80.000,8369.000,1.000
-6.498,-12.404,-6.008,-1.609,-3.528,-5.051,-5.968,-3.118,-0.137,0.946,-0.353,-1.251,0.183,0.031,80.000,8370.000,1.000
-4.865,-8.774,-3.215,0.521,-0.940,-2.669,-2.882,-1.138,-0.141,0.946,-0.351,-1.251,0.183,0.061,80.000,8371.000,1.000
-3.193,-4.619,-0.011,2.799,1.686,-0.438,-0.121,0.547,-0.140,0.947,-0.350,-1.282,0.275,0.031,80.000,8372.000,1.000
-1.514,-0.969,3.147,4.859,3.936,1.270,1.814,1.692,-0.143,0.947,-0.346,-1.373,0.275,0.061,80.000,8373.000,1.000
0.125,1.583,5.824,6.398,5.457,2.294,2.781,2.239,-0.144,0.946,-0.350,-1.282,0.183,0.061,80.000,8374.000,1.000
1.625,3.038,7.753,7.282,6.207,2.698,2.962,2.364,-0.145,0.943,-0.350,-1.343,0.092,0.122,80.000,8375.000,1.000
2.812,3.920,8.941,7.624,6.494,2.770,2.790,2.468,-0.145,0.944,-0.352,-1.282,-0.061,0.092,80.000,8376.000,1.000
3.425,4.873,9.538,7.666,6.688,2.877,2.756,2.988,-0.145,0.942,-0.350,-1.343,-0.092,0.153,80.000,8377.000,1.000
3.298,6.189,9.657,7.581,6.942,3.267,3.136,4.128,-0.148,0.942,-0.350,-1.221,-0.183,0.092,80.000,8378.000,1.000
2.590,7.686,9.360,7.415,7.197,4.022,3.879,5.719,-0.148,0.941,-0.351,-1.099,-0.214,0.153,80.000,8379.000,1.000
1.661,8.931,8.722,7.114,7.235,5.000,4.699,7.260,-0.146,0.941,-0.353,-1.038,-0.336,0.153,80.000,8380.000,1.000
0.636,9.409,7.707,6.478,6.650,5.671,5.101,8.019,-0.147,0.939,-0.353,-1.007,-0.397,0.244,80.000,8381.000,1.000
-0.681,8.676,6.126,5.249,5.053,5.336,4.560,7.373,-0.146,0.941,-0.354,-0.885,-0.488,0.214,80.000,8382.000,1.000
-2.337,6.726,3.970,3.413,2.556,3.786,2.962,5.330,-0.146,0.942,-0.349,-0.732,-0.519,0.305,80.000,8383.000,1.000
-3.949,4.091,1.628,1.320,-0.174,1.508,0.727,2.620,-0.145,0.944,-0.350,-0.702,-0.610,0.366,80.000,8384.000,1.000
-4.957,1.525,-0.324,-0.503,-2.400,-0.758,-1.486,0.243,-0.146,0.942,-0.351,-0.671,-0.671,0.519,80.000,8385.000,1.000
-4.926,-0.287,-1.397,-1.542,-3.673,-2.405,-3.052,-1.020,-0.145,0.945,-0.350,-0.610,-0.671,0.549,80.000,8386.000,1.000
-3.750,-1.014,-1.417,-1.541,-3.892,-3.121,-3.670,-0.983,-0.146,0.944,-0.354,-0.488,-0.854,0.488,80.000,8387.000,1.000
-1.789,-0.857,-0.658,-0.734,-3.290,-2.975,-3.580,-0.171,-0.147,0.945,-0.349,-0.549,-0.885,0.519,80.000,8388.000,1.000
0.261,-0.372,0.328,0.297,-2.312,-2.333,-3.346,0.593,-0.147,0.947,-0.348,-0.519,-0.854,0.519,80.000,8389.000,1.000
1.739,-0.093,1.039,0.963,-1.435,-1.629,-3.398,0.778,-0.144,0.948,-0.354,-0.458,-0.946,0.580,80.000,8390.000,1.000
2.447,-0.220,1.294,0.994,-0.938,-1.082,-3.768,0.382,-0.143,0.948,-0.355,-0.671,-1.007,0.702,80.000,8391.000,1.000
2.750,-0.539,1.315,0.606,-0.759,-0.553,-4.155,-0.277,-0.142,0.947,-0.350,-0.549,-1.068,0.671,80.000,8392.000,1.000
3.165,-0.654,1.526,0.347,-0.593,0.265,-4.229,-0.910,-0.140,0.948,-0.351,-0.702,-1.038,0.732,80.000,8393.000,1.000
3.900,-0.311,2.220,0.660,-0.187,1.520,-3.900,-1.427,-0.140,0.948,-0.353,-0.824,-1.099,0.763,80.000,8394.000,1.000
4.760,0.485,3.327,1.492,0.461,3.036,-3.382,-1.911,-0.141,0.947,-0.352,-0.977,-1.160,0.671,80.000,8395.000,1.000
5.354,1.564,4.434,2.299,1.134,4.406,-3.051,-2.501,-0.140,0.949,-0.349,-1.038,-1.160,0.732,80.000,8396.000,1.000
5.395,2.754,5.086,2.536,1.626,5.248,-3.144,-3.208,-0.142,0.947,-0.347,-1.099,-1.099,0.702,80.000,8397.000,1.000
4.940,3.952,5.109,2.130,1.895,5.413,-3.523,-3.837,-0.144,0.948,-0.344,-1.068,-1.068,0.641,80.000,8398.000,1.000
4.350,5.011,4.663,1.437,1.994,4.962,-3.820,-4.166,-0.143,0.945,-0.350,-1.129,-1.221,0.641,80.000,8399.000,1.000
3.957,5.667,4.003,0.814,1.926,4.030,-3.771,-4.123,-0.145,0.944,-0.349,-1.251,-1.221,0.519,80.000,8400.000,1.000
3.858,5.720,3.343,0.457,1.729,2.912,-3.284,-3.697,-0.145,0.946,-0.351,-1.251,-1.343,0.427,80.000,8401.000,1.000
4.061,5.322,2.936,0.559,1.623,2.172,-2.271,-2.778,-0.144,0.946,-0.348,-1.251,-1.343,0.336,80.000,8402.000,1.000
4.626,4.984,3.014,1.276,1.931,2.409,-0.634,-1.250,-0.142,0.946,-0.350,-1.373,-1.343,0.244,80.000,8403.000,1.000
5.510,5.204,3.556,2.474,2.803,3.842,1.644,0.826,-0.142,0.944,-0.353,-1.221,-1.373,0.214,80.000,8404.000,1.000
6.359,5.975,4.175,3.658,3.997,6.039,4.358,3.158,-0.143,0.944,-0.350,-1.251,-1.312,0.244,80.000,8405.000,1.000
6.578,6.629,4.241,4.161,4.862,7.983,6.992,5.272,-0.142,0.945,-0.353,-1.282,-1.343,0.214,80.000,8406.000,1.000
5.657,6.210,3.172,3.448,4.675,8.589,8.882,6.627,-0.143,0.947,-0.353,-1.312,-1.434,0.183,80.000,8407.000,1.000
3.538,4.168,0.872,1.480,3.250,7.412,9.660,6.942,-0.142,0.946,-0.352,-1.190,-1.343,0.275,80.000,8408.000,1.000
0.725,0.830,-2.067,-1.123,1.216,4.992,9.557,6.425,-0.143,0.945,-0.353,-1.251,-1.343,0.336,80.000,8409.000,1.000
-2.074,-2.870,-4.844,-3.555,-0.589,2.376,9.011,5.428,-0.144,0.947,-0.349,-1.282,-1.312,0.366,80.000,8410.000,1.000
-4.437,-6.178,-7.132,-5.528,-1.984,0.204,7.947,3.926,-0.142,0.947,-0.347,-1.221,-1.282,0.458,80.000,8411.000,1.000
-6.356,-8.980,-9.112,-7.318,-3.416,-1.697,5.751,1.632,-0.141,0.945,-0.352,-1.312,-1.343,0.427,80.000,8412.000,1.000
-8.025,-11.574,-10.998,-9.261,-5.279,-3.936,1.932,-1.469,-0.142,0.943,-0.352,-1.404,-1.251,0.519,80.000,8413.000,1.000
-9.586,-14.176,-12.747,-11.340,-7.513,-6.889,-3.251,-4.889,-0.142,0.943,-0.350,-1.404,-1.221,0.580,80.000,8414.000,1.000
-10.868,-16.578,-14.027,-13.103,-9.598,-10.191,-8.625,-7.830,-0.142,0.942,-0.350,-1.404,-1.190,0.671,80.000,8415.000,1.000
-11.260,-18.044,-14.256,-13.812,-10.731,-12.716,-12.491,-9.456,-0.141,0.942,-0.350,-1.251,-1.190,0.671,80.000,8416.000,1.000
-9.965,-17.503,-12.818,-12.827,-10.180,-13.193,-13.409,-9.144,-0.141,0.944,-0.348,-1.282,-1.221,0.732,80.000,8417.000,1.000
-6.644,-14.202,-9.551,-10.095,-7.780,-11.126,-11.020,-6.811,-0.142,0.945,-0.351,-1.129,-1.129,0.702,80.000,8418.000,1.000
-1.890,-8.467,-5.075,-6.324,-4.137,-7.248,-6.331,-3.115,-0.141,0.943,-0.349,-1.038,-1.068,0.702,80.000,8419.000,1.000
3.051,-1.720,-0.457,-2.535,-0.203,-2.992,-1.052,0.891,-0.140,0.942,-0.349,-0.977,-1.221,0.854,80.000,8420.000,1.000
7.031,4.408,3.482,0.575,3.349,0.517,3.548,4.390,-0.138,0.943,-0.348,-0.946,-1.129,0.916,80.000,8421.000,1.000
9.495,8.979,6.441,2.828,6.270,2.962,7.192,7.041,-0.139,0.945,-0.351,-0.977,-1.068,0.885,80.000,8422.000,1.000
10.442,11.853,8.381,4.266,8.427,4.521,10.113,8.772,-0.137,0.946,-0.350,-0.946,-1.068,0.885,80.000,8423.000,1.000
10.093,13.204,9.259,4.861,9.548,5.273,12.272,9.530,-0.136,0.946,-0.349,-1.038,-0.946,0.916,80.000,8424.000,1.000
8.727,13.316,9.112,4.594,9.398,5.121,13.285,9.293,-0.135,0.948,-0.350,-1.160,-0.793,0.916,80.000,8425.000,1.000
6.783,12.717,8.286,3.772,8.226,4.264,13.047,8.300,-0.135,0.945,-0.349,-1.221,-0.702,0.916,80.000,8426.000,1.000
4.867,12.038,7.353,2.989,6.782,3.352,12.036,7.107,-0.132,0.944,-0.349,-1.129,-0.580,1.007,80.000,8427.000,1.000
3.469,11.547,6.687,2.665,5.751,2.983,10.870,6.197,-0.136,0.943,-0.353,-1.190,-0.519,1.068,80.000,8428.000,1.000
2.684,10.977,6.220,2.754,5.282,3.176,9.816,5.623,-0.133,0.941,-0.350,-1.099,-0.458,1.007,80.000,8429.000,1.000
2.361,9.958,5.732,3.022,5.140,3.490,8.900,5.198,-0.136,0.941,-0.349,-0.977,-0.366,0.977,80.000,8430.000,1.000
2.503,8.608,5.327,3.468,5.216,3.611,8.310,4.935,-0.134,0.940,-0.354,-0.916,-0.244,1.007,80.000,8431.000,1.000
3.232,7.388,5.315,4.155,5.571,3.558,8.333,5.015,-0.136,0.940,-0.351,-0.824,-0.153,0.916,80.000,8432.000,1.000
4.391,6.475,5.719,4.820,6.081,3.399,8.936,5.398,-0.137,0.942,-0.349,-0.824,-0.031,0.885,80.000,8433.000,1.000
5.603,5.744,6.307,5.101,6.490,3.234,9.787,5.812,-0.135,0.943,-0.350,-0.671,-0.031,0.824,80.000,8434.000,1.000
6.647,5.223,6.986,4.964,6.719,3.314,10.601,6.066,-0.134,0.944,-0.352,-0.580,0.031,0.793,80.000,8435.000,1.000
7.431,5.092,7.745,4.567,6.832,3.803,11.181,6.120,-0.134,0.944,-0.353,-0.580,0.061,0.702,80.000,8436.000,1.000
7.700,5.317,8.307,3.924,6.795,4.514,11.265,5.972,-0.135,0.945,-0.354,-0.549,0.214,0.580,80.000,8437.000,1.000
7.107,5.562,8.163,2.987,6.503,5.099,10.653,5.622,-0.137,0.945,-0.353,-0.732,0.275,0.488,80.000,8438.000,1.000
5.684,5.488,7.016,1.929,5.934,5.473,9.489,5.135,-0.140,0.943,-0.351,-0.732,0.214,0.427,80.000,8439.000,1.000
4.075,5.061,5.060,1.158,5.194,5.872,8.208,4.641,-0.143,0.944,-0.352,-0.732,0.153,0.153,80.000,8440.000,1.000
3.216,4.553,2.907,1.107,4.441,6.533,7.162,4.265,-0.147,0.946,-0.349,-0.732,0.031,0.000,80.000,8441.000,1.000
3.802,4.325,1.367,2.012,3.817,7.450,6.361,4.083,-0.147,0.945,-0.348,-0.793,0.000,-0.092,80.000,8442.000,1.000
5.982,4.661,1.150,3.760,3.412,8.430,5.557,4.093,-0.150,0.943,-0.348,-0.824,-0.061,-0.305,80.000,8443.000,1.000
9.427,5.790,2.588,5.965,3.321,9.356,4.565,4.273,-0.148,0.945,-0.348,-0.732,-0.214,-0.488,80.000,8444.000,1.000
13.489,7.798,5.382,8.147,3.622,10.243,3.430,4.554,-0.146,0.946,-0.348,-0.763,-0.519,-0.641,80.000,8445.000,1.000
17.328,10.360,8.569,9.792,4.179,10.977,2.269,4.704,-0.146,0.947,-0.348,-0.793,-0.702,-0.732,80.000,8446.000,1.000
20.275,12.860,11.071,10.597,4.672,11.314,1.247,4.483,-0.148,0.949,-0.344,-0.916,-0.824,-0.732,80.000,8447.000,1.000
22.248,14.883,12.441,10.780,4.869,11.198,0.718,3.923,-0.149,0.949,-0.344,-0.885,-1.038,-0.793,80.000,8448.000,1.000
23.724,16.415,13.044,10.937,4.701,10.802,1.043,3.268,-0.150,0.950,-0.348,-0.946,-1.221,-0.793,80.000,8449.000,1.000
25.399,17.634,13.682,11.585,4.278,10.358,2.307,2.768,-0.149,0.950,-0.350,-1.099,-1.221,-0.824,80.000,8450.000,1.000
27.697,18.566,14.960,12.783,3.846,9.969,4.172,2.509,-0.148,0.951,-0.346,-1.160,-1.373,-0.732,80.000,8451.000,1.000
30.299,18.886,16.710,14.012,3.552,9.435,5.874,2.267,-0.149,0.950,-0.347,-1.190,-1.526,-0.732,80.000,8452.000,1.000
32.176,18.131,18.037,14.484,3.280,8.393,6.564,1.647,-0.148,0.948,-0.344,-1.190,-1.709,-0.580,80.000,8453.000,1.000
32.191,16.048,17.966,13.621,2.778,6.646,5.836,0.453,-0.149,0.945,-0.346,-1.251,-1.801,-0.458,80.000,8454.000,1.000
29.719,12.668,16.056,11.274,1.870,4.242,3.901,-1.155,-0.150,0.946,-0.345,-1.312,-1.801,-0.275,80.000,8455.000,1.000
24.840,8.204,12.555,7.654,0.547,1.344,1.305,-2.829,-0.151,0.946,-0.345,-1.312,-1.923,-0.122,80.000,8456.000,1.000
18.145,3.048,8.132,3.215,-1.089,-1.801,-1.452,-4.302,-0.150,0.944,-0.345,-1.373,-2.075,0.031,80.000,8457.000,1.000
10.541,-2.179,3.560,-1.387,-2.872,-4.829,-4.010,-5.463,-0.151,0.943,-0.347,-1.343,-2.228,0.061,80.000,8458.000,1.000
3.079,-6.726,-0.485,-5.397,-4.529,-7.294,-6.012,-6.224,-0.149,0.942,-0.344,-1.343,-2.258,0.214,80.000,8459.000,1.000
-3.382,-10.032,-3.626,-8.285,-5.760,-8.853,-7.129,-6.479,-0.150,0.944,-0.344,-1.251,-2.380,0.244,80.000,8460.000,1.000
-8.430,-11.882,-5.813,-9.936,-6.359,-9.366,-7.193,-6.151,-0.149,0.944,-0.350,-1.251,-2.533,0.427,80.000,8461.000,1.000
-12.081,-12.339,-7.114,-10.537,-6.246,-8.875,-6.234,-5.223,-0.148,0.941,-0.347,-1.251,-2.472,0.610,80.000,8462.000,1.000
-14.688,-11.693,-7.676,-10.469,-5.506,-7.624,-4.545,-3.843,-0.148,0.943,-0.347,-1.129,-2.502,0.702,80.000,8463.000,1.000
-16.789,-10.395,-7.818,-10.199,-4.370,-5.996,-2.675,-2.351,-0.143,0.942,-0.350,-1.007,-2.502,0.732,80.000,8464.000,1.000
-18.940,-8.934,-8.023,-10.141,-3.181,-4.384,-1.290,-1.184,-0.142,0.942,-0.348,-1.007,-2.472,0.702,80.000,8465.000,1.000
-21.588,-7.822,-8.834,-10.626,-2.415,-3.214,-0.986,-0.802,-0.141,0.940,-0.349,-0.946,-2.411,0.732,80.000,8466.000,1.000
-24.833,-7.473,-10.519,-11.776,-2.499,-2.827,-2.009,-1.463,-0.136,0.942,-0.348,-0.824,-2.380,0.885,80.000,8467.000,1.000
-28.285,-7.939,-12.748,-13.355,-3.452,-3.215,-4.029,-2.964,-0.134,0.938,-0.350,-0.824,-2.197,0.854,80.000,8468.000,1.000
-31.304,-8.833,-14.769,-14.895,-4.829,-3.995,-6.297,-4.733,-0.135,0.939,-0.348,-0.793,-2.136,0.793,80.000,8469.000,1.000
-33.382,-9.604,-16.020,-16.004,-6.018,-4.621,-8.064,-6.196,-0.133,0.939,-0.350,-0.732,-1.953,0.793,80.000,8470.000,1.000
-34.370,-9.893,-16.491,-16.521,-6.653,-4.714,-8.988,-7.102,-0.134,0.942,-0.351,-0.610,-1.770,0.702,80.000,8471.000,1.000
-34.437,-9.699,-16.562,-16.496,-6.784,-4.330,-9.260,-7.558,-0.133,0.943,-0.350,-0.610,-1.617,0.580,80.000,8472.000,1.000
-33.911,-9.304,-16.649,-16.138,-6.699,-3.882,-9.409,-7.816,-0.131,0.941,-0.347,-0.580,-1.343,0.519,80.000,8473.000,1.000
-33.088,-9.035,-16.968,-15.718,-6.583,-3.743,-9.997,-8.041,-0.133,0.945,-0.346,-0.519,-1.190,0.397,80.000,8474.000,1.000
-32.100,-9.027,-17.438,-15.349,-6.367,-3.953,-11.329,-8.224,-0.133,0.943,-0.352,-0.488,-1.007,0.275,80.000,8475.000,1.000
-30.955,-9.143,-17.738,-14.830,-5.850,-4.254,-13.261,-8.226,-0.135,0.943,-0.353,-0.519,-0.763,0.061,80.000,8476.000,1.000
-29.638,-9.164,-17.505,-13.758,-4.861,-4.296,-15.184,-7.841,-0.135,0.944,-0.352,-0.488,-0.549,0.031,80.000,8477.000,1.000
-28.129,-8.946,-16.486,-11.822,-3.317,-3.814,-16.258,-6.856,-0.133,0.947,-0.352,-0.519,-0.397,-0.244,80.000,8478.000,1.000
-26.381,-8.446,-14.658,-9.081,-1.315,-2.827,-15.883,-5.205,-0.136,0.947,-0.349,-0.580,-0.305,-0.305,80.000,8479.000,1.000
-24.410,-7.799,-12.351,-6.044,0.719,-1.770,-14.163,-3.243,-0.136,0.946,-0.352,-0.671,-0.183,-0.427,80.000,8480.000,1.000
-22.339,-7.325,-10.161,-3.409,2.170,-1.270,-11.837,-1.681,-0.138,0.948,-0.353,-0.702,0.000,-0.519,80.000,8481.000,1.000
-20.349,-7.317,-8.593,-1.716,2.648,-1.665,-9.703,-1.114,-0.138,0.946,-0.350,-0.732,0.092,-0.580,80.000,8482.000,1.000
-18.582,-7.728,-7.766,-1.157,2.252,-2.741,-8.189,-1.682,-0.138,0.945,-0.351,-0.763,0.214,-0.580,80.000,8483.000,1.000
-17.067,-8.094,-7.390,-1.555,1.451,-3.928,-7.401,-3.094,-0.139,0.945,-0.352,-0.793,0.366,-0.549,80.000,8484.000,1.000
-15.818,-7.942,-7.044,-2.508,0.709,-4.758,-7.362,-4.844,-0.140,0.945,-0.352,-0.763,0.427,-0.549,80.000,8485.000,1.000
-14.952,-7.240,-6.547,-3.641,0.209,-5.193,-8.073,-6.403,-0.141,0.947,-0.352,-0.763,0.610,-0.519,80.000,8486.000,1.000
-14.501,-6.354,-6.025,-4.683,-0.132,-5.521,-9.338,-7.337,-0.143,0.946,-0.350,-0.671,0.458,-0.580,80.000,8487.000,1.000
-14.189,-5.650,-5.640,-5.390,-0.458,-6.002,-10.648,-7.405,-0.145,0.944,-0.352,-0.610,0.549,-0.549,80.000,8488.000,1.000
-13.491,-5.183,-5.295,-5.509,-0.789,-6.615,-11.294,-6.591,-0.147,0.942,-0.355,-0.610,0.580,-0.519,80.000,8489.000,1.000
-11.941,-4.712,-4.679,-4.882,-1.029,-7.133,-10.735,-5.128,-0.148,0.942,-0.351,-0.580,0.641,-0.488,80.000,8490.000,1.000
-9.451,-3.971,-3.542,-3.573,-1.105,-7.326,-8.966,-3.516,-0.148,0.943,-0.350,-0.580,0.549,-0.397,80.000,8491.000,1.000
-6.273,-2.797,-1.816,-1.757,-0.951,-6.965,-6.450,-2.323,-0.149,0.944,-0.351,-0.549,0.458,-0.336,80.000,8492.000,1.000
-2.758,-1.168,0.331,0.394,-0.536,-5.882,-3.779,-1.873,-0.149,0.945,-0.353,-0.519,0.366,-0.275,80.000,8493.000,1.000
0.629,0.580,2.321,2.537,-0.105,-4.265,-1.514,-2.183,-0.149,0.945,-0.348,-0.580,0.305,-0.153,80.000,8494.000,1.000
3.269,1.716,3.319,4.116,-0.168,-2.751,-0.103,-3.017,-0.150,0.946,-0.352,-0.641,0.183,-0.122,80.000,8495.000,1.000
4.662,1.589,2.815,4.676,-1.075,-2.066,0.237,-3.979,-0.149,0.945,-0.348,-0.549,0.092,-0.092,80.000,8496.000,1.000
4.807,0.144,1.054,4.181,-2.619,-2.547,-0.464,-4.703,-0.150,0.946,-0.348,-0.580,0.061,-0.061,80.000,8497.000,1.000
4.285,-2.040,-1.141,3.059,-4.100,-3.870,-1.888,-4.980,-0.151,0.945,-0.349,-0.641,-0.092,0.000,80.000,8498.000,1.000
3.868,-4.187,-2.960,1.929,-4.810,-5.250,-3.487,-4.789,-0.152,0.946,-0.349,-0.610,-0.183,0.031,80.000,8499.000,1.000
4.053,-5.747,-4.045,1.214,-4.520,-5.956,-4.712,-4.289,-0.151,0.945,-0.349,-0.671,-0.305,0.183,80.000,8500.000,1.000
4.894,-6.511,-4.499,0.959,-3.586,-5.744,-5.265,-3.758,-0.151,0.945,-0.348,-0.610,-0.397,0.183,80.000,8501.000,1.000
6.062,-6.613,-4.698,0.902,-2.711,-4.998,-5.204,-3.472,-0.152,0.947,-0.349,-0.641,-0.519,0.214,80.000,8502.000,1.000
6.977,-6.522,-5.027,0.704,-2.512,-4.420,-4.817,-3.574,-0.151,0.949,-0.350,-0.793,-0.671,0.214,80.000,8503.000,1.000
7.193,-6.721,-5.535,0.285,-3.042,-4.392,-4.331,-3.889,-0.152,0.949,-0.348,-0.824,-0.763,0.305,80.000,8504.000,1.000
6.809,-7.215,-5.788,-0.008,-3.701,-4.626,-3.771,-3.960,-0.151,0.948,-0.350,-0.916,-0.824,0.275,80.000,8505.000,1.000
6.440,-7.465,-5.119,0.351,-3.683,-4.413,-3.029,-3.353,-0.150,0.947,-0.348,-0.946,-0.946,0.397,80.000,8506.000,1.000
6.764,-6.855,-3.104,1.628,-2.556,-3.162,-2.004,-1.989,-0.148,0.946,-0.349,-1.007,-0.977,0.397,80.000,8507.000,1.000
7.998,-5.236,0.031,3.555,-0.603,-0.907,-0.787,-0.303,-0.146,0.945,-0.348,-1.038,-1.160,0.458,80.000,8508.000,1.000
9.737,-3.037,3.401,5.515,1.333,1.546,0.245,0.949,-0.147,0.947,-0.353,-1.129,-1.160,0.488,80.000,8509.000,1.000
11.387,-0.870,6.088,7.073,2.531,3.169,0.694,1.286,-0.147,0.946,-0.353,-1.099,-1.190,0.580,80.000,8510.000,1.000
12.708,0.954,7.782,8.268,2.975,3.525,0.525,0.928,-0.147,0.946,-0.351,-1.221,-1.160,0.580,80.000,8511.000,1.000
13.844,2.501,8.754,9.367,3.191,2.997,0.055,0.548,-0.146,0.945,-0.348,-1.221,-1.160,0.671,80.000,8512.000,1.000
14.981,3.898,9.411,10.503,3.685,2.283,-0.332,0.669,-0.146,0.944,-0.349,-1.190,-1.251,0.793,80.000,8513.000,1.000
16.066,5.028,9.958,11.567,4.538,1.799,-0.394,1.351,-0.144,0.943,-0.348,-1.251,-1.221,0.916,80.000,8514.000,1.000
16.807,5.575,10.328,12.257,5.375,1.498,-0.095,2.270,-0.143,0.941,-0.353,-1.373,-1.282,0.824,80.000,8515.000,1.000
16.860,5.284,10.260,12.189,5.646,1.095,0.366,2.963,-0.145,0.941,-0.352,-1.312,-1.282,0.916,80.000,8516.000,1.000
16.003,4.129,9.493,11.124,4.999,0.359,0.638,3.065,-0.145,0.938,-0.353,-1.282,-1.282,0.885,80.000,8517.000,1.000
14.353,2.438,8.032,9.256,3.518,-0.686,0.477,2.514,-0.142,0.940,-0.353,-1.160,-1.251,0.854,80.000,8518.000,1.000
12.467,0.891,6.310,7.250,1.697,-1.720,-0.017,1.621,-0.141,0.939,-0.356,-0.946,-1.221,0.732,80.000,8519.000,1.000
11.059,0.120,4.951,5.873,0.121,-2.355,-0.458,0.827,-0.137,0.939,-0.348,-0.977,-1.160,0.763,80.000,8520.000,1.000
10.555,0.261,4.352,5.555,-0.848,-2.413,-0.456,0.384,-0.135,0.938,-0.348,-0.946,-1.190,0.854,80.000,8521.000,1.000
11.022,1.039,4.565,6.258,-1.095,-1.931,0.163,0.377,-0.134,0.939,-0.347,-0.854,-0.916,0.793,80.000,8522.000,1.000
12.458,2.313,5.570,7.701,-0.511,-0.898,1.420,0.990,-0.135,0.938,-0.350,-0.732,-0.793,0.854,80.000,8523.000,1.000
14.884,4.281,7.398,9.586,1.059,0.845,3.311,2.474,-0.139,0.939,-0.351,-0.641,-0.580,0.763,80.000,8524.000,1.000
18.032,7.031,9.890,11.569,3.533,3.361,5.701,4.768,-0.141,0.940,-0.350,-0.610,-0.458,0.641,80.000,8525.000,1.000
21.247,10.181,12.575,13.289,6.428,6.403,8.251,7.412,-0.142,0.940,-0.346,-0.549,-0.427,0.549,80.000,8526.000,1.000
23.786,13.013,14.839,14.516,9.062,9.404,10.562,9.841,-0.142,0.943,-0.350,-0.519,-0.519,0.397,80.000,8527.000,1.000
25.117,14.801,16.145,15.159,10.814,11.617,12.301,11.564,-0.141,0.944,-0.354,-0.519,-0.549,0.153,80.000,8528.000,1.000
25.080,15.130,16.297,15.183,11.367,12.494,13.276,12.274,-0.142,0.946,-0.351,-0.519,-0.549,0.000,80.000,8529.000,1.000
24.016,14.164,15.626,14.654,10.896,12.094,13.566,12.040,-0.141,0.946,-0.351,-0.519,-0.366,-0.153,80.000,8530.000,1.000
22.638,12.708,14.808,13.792,9.946,11.059,13.512,11.284,-0.140,0.945,-0.349,-0.458,-0.458,-0.244,80.000,8531.000,1.000
21.544,11.734,14.372,12.841,8.955,10.068,13.413,10.405,-0.140,0.945,-0.349,-0.549,-0.397,-0.305,80.000,8532.000,1.000
20.695,11.654,14.293,11.791,7.807,9.257,13.171,9.418,-0.140,0.947,-0.346,-0.549,-0.275,-0.427,80.000,8533.000,1.000
19.477,12.094,14.055,10.346,5.963,8.259,12.388,8.072,-0.141,0.947,-0.349,-0.641,-0.305,-0.366,80.000,8534.000,1.000
17.346,12.427,13.187,8.359,3.167,6.824,10.958,6.335,-0.141,0.948,-0.351,-0.641,-0.214,-0.397,80.000,8535.000,1.000
14.373,12.384,11.737,6.163,-0.048,5.279,9.477,4.647,-0.143,0.946,-0.349,-0.671,-0.122,-0.336,80.000,8536.000,1.000
11.204,12.114,10.191,4.319,-2.639,4.321,8.863,3.583,-0.142,0.945,-0.351,-0.732,-0.031,-0.305,80.000,8537.000,1.000
8.653,11.886,9.037,3.151,-3.758,4.431,9.602,3.399,-0.145,0.945,-0.350,-0.702,-0.122,-0.214,80.000,8538.000,1.000
7.237,11.767,8.419,2.561,-3.242,5.448,11.338,3.848,-0.144,0.946,-0.349,-0.732,-0.092,-0.122,80.000,8539.000,1.000
6.782,11.415,8.016,2.102,-1.752,6.540,13.060,4.284,-0.143,0.946,-0.349,-0.793,0.000,-0.153,80.000,8540.000,1.000
6.505,10.361,7.274,1.301,-0.373,6.739,13.809,4.097,-0.144,0.945,-0.354,-0.824,0.031,0.000,80.000,8541.000,1.000
5.590,8.542,5.884,0.074,0.191,5.718,13.400,3.309,-0.144,0.947,-0.354,-0.763,-0.031,0.092,80.000,8542.000,1.000
3.659,6.306,3.908,-1.256,-0.012,3.943,12.407,2.544,-0.146,0.945,-0.353,-0.793,0.061,0.183,80.000,8543.000,1.000
0.779,3.897,1.432,-2.380,-0.623,2.057,11.414,2.286,-0.145,0.946,-0.352,-0.763,0.000,0.183,80.000,8544.000,1.000
-2.696,1.263,-1.586,-3.278,-1.494,0.395,10.453,2.380,-0.146,0.948,-0.351,-0.641,0.061,0.275,80.000,8545.000,1.000
-6.209,-1.652,-5.076,-4.074,-2.689,-0.972,9.177,2.324,-0.142,0.947,-0.352,-0.702,0.000,0.305,80.000,8546.000,1.000
-9.122,-4.683,-8.679,-4.809,-4.258,-2.052,7.333,1.811,-0.143,0.947,-0.350,-0.610,0.000,0.397,80.000,8547.000,1.000
-11.029,-7.528,-11.927,-5.452,-6.154,-2.920,4.941,0.834,-0.147,0.948,-0.353,-0.732,0.092,0.458,80.000,8548.000,1.000
-11.989,-9.853,-14.429,-6.038,-8.181,-3.645,2.250,-0.456,-0.145,0.946,-0.354,-0.793,0.153,0.549,80.000,8549.000,1.000
-12.341,-11.337,-15.884,-6.712,-9.937,-4.171,-0.307,-1.833,-0.145,0.944,-0.353,-0.824,0.092,0.641,80.000,8550.000,1.000
-12.388,-11.826,-16.106,-7.628,-10.979,-4.381,-2.248,-3.058,-0.144,0.946,-0.351,-0.885,0.122,0.610,80.000,8551.000,1.000
-12.236,-11.421,-15.044,-8.738,-11.028,-4.183,-3.182,-3.897,-0.144,0.945,-0.350,-0.916,0.122,0.702,80.000,8552.000,1.000
-11.863,-10.337,-12.847,-9.716,-10.024,-3.518,-2.895,-4.111,-0.143,0.943,-0.348,-0.824,0.061,0.671,80.000,8553.000,1.000
-11.327,-8.862,-10.002,-10.193,-8.262,-2.495,-1.543,-3.614,-0.141,0.944,-0.353,-0.824,0.092,0.671,80.000,8554.000,1.000
-10.895,-7.440,-7.324,-10.071,-6.423,-1.489,0.286,-2.634,-0.142,0.945,-0.351,-0.916,0.153,0.702,80.000,8555.000,1.000
-10.840,-6.447,-5.589,-9.556,-5.212,-0.872,1.895,-1.560,-0.143,0.945,-0.348,-0.977,0.122,0.702,80.000,8556.000,1.000
-11.122,-5.839,-5.106,-8.942,-4.932,-0.721,2.838,-0.690,-0.144,0.946,-0.351,-0.854,0.061,0.671,80.000,8557.000,1.000
-11.325,-5.206,-5.565,-8.354,-5.377,-0.821,3.037,-0.120,-0.142,0.944,-0.349,-0.916,0.122,0.732,80.000,8558.000,1.000
-10.876,-4.142,-6.140,-7.620,-5.907,-0.761,2.828,0.315,-0.143,0.944,-0.350,-0.916,0.061,0.793,80.000,8559.000,1.000
-9.404,-2.592,-5.946,-6.431,-5.785,-0.162,2.740,0.940,-0.142,0.943,-0.347,-0.977,0.061,0.732,80.000,8560.000,1.000
-7.083,-0.929,-4.669,-4.734,-4.698,0.923,2.968,1.882,-0.142,0.943,-0.349,-1.038,0.153,0.671,80.000,8561.000,1.000
-4.573,0.358,-2.680,-2.867,-2.898,1.991,3.251,2.934,-0.144,0.943,-0.346,-1.038,0.000,0.671,80.000,8562.000,1.000
-2.607,1.061,-0.595,-1.319,-0.883,2.572,3.312,3.801,-0.144,0.942,-0.348,-1.068,-0.061,0.580,80.000,8563.000,1.000
-1.688,1.237,1.077,-0.466,0.853,2.468,3.096,4.271,-0.147,0.940,-0.349,-1.099,-0.092,0.610,80.000,8564.000,1.000
-2.017,0.986,1.987,-0.431,1.889,1.625,2.640,4.192,-0.147,0.938,-0.347,-0.916,-0.153,0.458,80.000,8565.000,1.000
-3.583,0.290,1.852,-1.161,1.941,0.045,1.939,3.465,-0.146,0.938,-0.349,-0.885,-0.214,0.427,80.000,8566.000,1.000
-6.211,-0.988,0.494,-2.530,0.920,-2.121,0.907,2.098,-0.146,0.938,-0.351,-0.763,-0.305,0.305,80.000,8567.000,1.000
-9.389,-2.774,-1.840,-4.239,-0.890,-4.409,-0.459,0.363,-0.146,0.940,-0.348,-0.610,-0.397,0.275,80.000,8568.000,1.000
-12.228,-4.505,-4.338,-5.786,-2.762,-6.094,-1.891,-1.197,-0.146,0.942,-0.347,-0.641,-0.549,0.305,80.000,8569.000,1.000
-13.806,-5.399,-6.027,-6.669,-3.807,-6.562,-2.914,-2.011,-0.147,0.942,-0.348,-0.458,-0.671,0.244,80.000,8570.000,1.000
-13.539,-4.966,-6.249,-6.554,-3.382,-5.583,-3.051,-1.692,-0.145,0.944,-0.348,-0.580,-0.793,0.183,80.000,8571.000,1.000
-11.510,-3.400,-4.999,-5.485,-1.453,-3.421,-2.155,-0.262,-0.145,0.946,-0.348,-0.610,-0.854,0.214,80.000,8572.000,1.000
-8.614,-1.622,-3.028,-4.046,1.208,-0.845,-0.698,1.649,-0.146,0.947,-0.347,-0.610,-0.885,0.183,80.000,8573.000,1.000
-6.086,-0.689,-1.403,-3.036,3.393,1.212,0.473,3.115,-0.144,0.947,-0.347,-0.671,-0.763,0.153,80.000,8574.000,1.000
-4.742,-1.062,-0.804,-2.884,4.221,2.174,0.797,3.511,-0.145,0.946,-0.347,-0.732,-0.854,0.061,80.000,8575.000,1.000
-4.655,-2.452,-1.194,-3.459,3.575,2.014,0.290,2.762,-0.143,0.946,-0.350,-0.793,-0.885,0.092,80.000,8576.000,1.000
-5.376,-4.257,-2.056,-4.324,1.922,1.026,-0.774,1.147,-0.144,0.946,-0.347,-0.732,-0.916,0.153,80.000,8577.000,1.000
-6.225,-5.922,-2.808,-5.049,-0.082,-0.376,-2.196,-0.856,-0.144,0.947,-0.350,-0.702,-0.977,0.275,80.000,8578.000,1.000
-6.505,-6.966,-3.039,-5.366,-1.804,-1.681,-3.781,-2.642,-0.143,0.945,-0.351,-0.763,-1.007,0.214,80.000,8579.000,1.000
-5.744,-6.982,-2.579,-5.195,-2.743,-2.315,-5.235,-3.666,-0.145,0.944,-0.350,-0.763,-0.977,0.214,80.000,8580.000,1.000
-3.859,-5.774,-1.478,-4.586,-2.607,-1.821,-6.203,-3.693,-0.145,0.945,-0.350,-0.702,-1.007,0.153,80.000,8581.000,1.000
-1.188,-3.561,0.050,-3.708,-1.431,-0.166,-6.447,-2.922,-0.143,0.945,-0.352,-0.702,-1.038,0.122,80.000,8582.000,1.000
1.573,-1.045,1.581,-2.941,0.301,2.029,-6.078,-1.934,-0.143,0.943,-0.351,-0.641,-1.099,0.153,80.000,8583.000,1.000
3.610,0.913,2.562,-2.772,1.848,3.814,-5.560,-1.326,-0.143,0.943,-0.353,-0.580,-1.007,0.214,80.000,8584.000,1.000
4.428,1.891,2.643,-3.391,2.751,4.698,-5.290,-1.244,-0.143,0.944,-0.354,-0.580,-1.068,0.122,80.000,8585.000,1.000
4.102,2.182,1.920,-4.423,3.120,4.964,-5.234,-1.322,-0.144,0.945,-0.353,-0.488,-0.977,0.183,80.000,8586.000,1.000
3.112,2.443,0.823,-5.135,3.337,5.207,-5.031,-1.089,-0.144,0.945,-0.350,-0.488,-0.885,0.153,80.000,8587.000,1.000
1.956,3.083,-0.195,-4.974,3.640,5.725,-4.413,-0.403,-0.143,0.944,-0.350,-0.549,-0.732,0.153,80.000,8588.000,1.000
0.899,3.953,-0.869,-3.937,4.016,6.327,-3.453,0.477,-0.143,0.944,-0.355,-0.519,-0.763,0.214,80.000,8589.000,1.000
-0.172,4.398,-1.278,-2.580,4.212,6.404,-2.614,0.984,-0.141,0.945,-0.356,-0.488,-0.702,0.183,80.000,8590.000,1.000
-1.692,3.673,-1.868,-1.721,3.755,5.225,-2.594,0.454,-0.142,0.947,-0.354,-0.366,-0.702,0.275,80.000,8591.000,1.000
-3.932,1.607,-3.009,-1.846,2.330,2.544,-3.840,-1.390,-0.143,0.949,-0.351,-0.366,-0.671,0.366,80.000,8592.000,1.000
-6.515,-1.105,-4.485,-2.673,0.237,-0.963,-6.105,-4.085,-0.142,0.949,-0.350,-0.366,-0.580,0.366,80.000,8593.000,1.000
-8.501,-3.291,-5.508,-3.322,-1.609,-3.942,-8.494,-6.604,-0.142,0.948,-0.350,-0.397,-0.427,0.366,80.000,8594.000,1.000
-8.995,-3.987,-5.281,-3.007,-2.267,-5.157,-10.011,-7.976,-0.142,0.947,-0.349,-0.458,-0.244,0.427,80.000,8595.000,1.000
-7.882,-3.067,-3.696,-1.759,-1.558,-4.359,-10.333,-7.961,-0.142,0.946,-0.352,-0.458,-0.275,0.427,80.000,8596.000,1.000
-6.088,-1.416,-1.594,-0.493,-0.319,-2.576,-10.084,-7.250,-0.141,0.946,-0.351,-0.580,-0.214,0.488,80.000,8597.000,1.000
-4.973,-0.324,-0.270,-0.271,0.278,-1.366,-10.188,-6.885,-0.142,0.945,-0.351,-0.580,-0.092,0.366,80.000,8598.000,1.000
-5.388,-0.534,-0.555,-1.483,-0.332,-1.660,-10.982,-7.386,-0.143,0.943,-0.352,-0.641,-0.092,0.427,80.000,8599.000,1.000
-7.184,-1.820,-2.257,-3.609,-1.821,-3.249,-11.993,-8.406,-0.141,0.942,-0.351,-0.610,0.031,0.427,80.000,8600.000,1.000
-9.322,-3.227,-4.346,-5.592,-3.341,-5.157,-12.403,-9.106,-0.141,0.940,-0.352,-0.610,0.031,0.488,80.000,8601.000,1.000
-10.479,-3.702,-5.621,-6.434,-4.092,-6.352,-11.611,-8.780,-0.142,0.940,-0.353,-0.610,0.122,0.549,80.000,8602.000,1.000
-9.968,-2.883,-5.455,-5.795,-3.830,-6.372,-9.655,-7.358,-0.142,0.941,-0.351,-0.610,0.092,0.488,80.000,8603.000,1.000
-8.248,-1.479,-4.209,-4.252,-3.095,-5.624,-7.358,-5.504,-0.142,0.940,-0.349,-0.519,0.153,0.549,80.000,8604.000,1.000
-6.373,-0.679,-2.867,-2.777,-2.716,-4.952,-5.841,-4.107,-0.143,0.940,-0.354,-0.458,0.214,0.641,80.000,8605.000,1.000
-4.953,-1.019,-2.067,-1.883,-2.913,-4.752,-5.547,-3.476,-0.144,0.939,-0.352,-0.427,0.214,0.671,80.000,8606.000,1.000
-3.833,-1.930,-1.628,-1.363,-3.059,-4.640,-5.829,-3.108,-0.143,0.940,-0.349,-0.336,0.305,0.641,80.000,8607.000,1.000
-2.584,-2.369,-1.076,-0.740,-2.398,-4.054,-5.579,-2.316,-0.144,0.941,-0.351,-0.366,0.305,0.549,80.000,8608.000,1.000
-0.977,-1.706,-0.284,0.295,-0.781,-2.932,-4.162,-0.913,-0.143,0.944,-0.352,-0.366,0.336,0.610,80.000,8609.000,1.000
0.890,-0.092,0.511,1.749,1.262,-1.751,-1.812,0.704,-0.143,0.944,-0.351,-0.366,0.427,0.671,80.000,8610.000,1.000
2.640,1.721,1.018,3.315,2.936,-1.051,0.595,1.899,-0.142,0.946,-0.353,-0.336,0.519,0.610,80.000,8611.000,1.000
3.804,2.881,1.081,4.499,3.695,-0.990,2.169,2.248,-0.139,0.944,-0.352,-0.458,0.549,0.702,80.000,8612.000,1.000
4.155,3.057,0.745,4.999,3.568,-1.281,2.586,1.850,-0.141,0.944,-0.350,-0.427,0.427,0.610,80.000,8613.000,1.000
3.901,2.705,0.327,4.968,3.100,-1.443,2.213,1.271,-0.142,0.945,-0.351,-0.427,0.427,0.580,80.000,8614.000,1.000
3.644,2.667,0.411,4.962,2.987,-1.096,1.772,1.185,-0.144,0.946,-0.351,-0.488,0.488,0.702,80.000,8615.000,1.000
4.102,3.487,1.549,5.626,3.646,-0.196,1.827,1.958,-0.142,0.945,-0.353,-0.458,0.488,0.763,80.000,8616.000,1.000
5.606,5.027,3.769,7.201,4.928,0.848,2.383,3.372,-0.144,0.945,-0.351,-0.580,0.488,0.641,80.000,8617.000,1.000
7.723,6.623,6.421,9.187,6.205,1.416,2.967,4.722,-0.142,0.945,-0.353,-0.549,0.397,0.610,80.000,8618.000,1.000
9.554,7.624,8.589,10.681,6.865,1.204,3.175,5.328,-0.140,0.945,-0.356,-0.610,0.397,0.610,80.000,8619.000,1.000
10.449,7.901,9.708,11.094,6.759,0.469,3.085,5.012,-0.142,0.945,-0.352,-0.702,0.336,0.702,80.000,8620.000,1.000
10.360,7.873,9.795,10.420,6.181,-0.258,3.128,4.101,-0.142,0.944,-0.349,-0.702,0.366,0.671,80.000,8621.000,1.000
9.608,7.964,9.251,8.969,5.496,-0.607,3.666,3.111,-0.142,0.947,-0.348,-0.702,0.336,0.702,80.000,8622.000,1.000
8.597,8.160,8.526,7.121,4.890,-0.530,4.663,2.448,-0.142,0.947,-0.351,-0.671,0.305,0.671,80.000,8623.000,1.000
7.802,8.235,8.013,5.349,4.475,-0.100,5.782,2.346,-0.140,0.945,-0.350,-0.732,0.275,0.580,80.000,8624.000,1.000
7.754,8.180,8.032,4.219,4.417,0.642,6.724,2.893,-0.143,0.943,-0.348,-0.671,0.244,0.610,80.000,8625.000,1.000
8.744,8.169,8.671,4.122,4.802,1.557,7.336,3.935,-0.143,0.943,-0.353,-0.641,0.153,0.519,80.000,8626.000,1.000
10.562,8.247,9.684,5.036,5.523,2.363,7.526,5.061,-0.143,0.941,-0.357,-0.610,0.122,0.549,80.000,8627.000,1.000
12.600,8.221,10.614,6.560,6.344,2.852,7.273,5.872,-0.143,0.942,-0.356,-0.580,0.153,0.458,80.000,8628.000,1.000
14.080,7.808,10.977,8.078,6.960,2.991,6.678,6.187,-0.144,0.941,-0.357,-0.580,0.153,0.458,80.000,8629.000,1.000
14.271,6.731,10.351,8.902,7.000,2.752,5.860,5.970,-0.144,0.942,-0.353,-0.671,0.183,0.336,80.000,8630.000,1.000
12.791,4.755,8.486,8.508,6.102,1.974,4.735,5.141,-0.142,0.944,-0.352,-0.641,0.061,0.397,80.000,8631.000,1.000
9.943,1.899,5.552,6.880,4.149,0.510,3.039,3.603,-0.142,0.945,-0.352,-0.641,0.122,0.336,80.000,8632.000,1.000
6.678,-1.355,2.216,4.595,1.500,-1.432,0.683,1.499,-0.143,0.946,-0.350,-0.641,-0.061,0.183,80.000,8633.000,1.000
4.149,-4.201,-0.595,2.480,-1.083,-3.208,-1.935,-0.653,-0.142,0.946,-0.350,-0.702,-0.092,0.214,80.000,8634.000,1.000
3.110,-5.956,-2.131,1.101,-2.804,-4.098,-4.097,-2.154,-0.140,0.946,-0.352,-0.671,-0.061,0.336,80.000,8635.000,1.000
3.489,-6.479,-2.295,0.431,-3.302,-3.811,-5.266,-2.532,-0.142,0.946,-0.354,-0.763,-0.061,0.244,80.000,8636.000,1.000
4.391,-6.293,-1.789,-0.066,-2.910,-2.728,-5.434,-1.892,-0.144,0.947,-0.354,-0.824,-0.092,0.214,80.000,8637.000,1.000
4.609,-6.252,-1.689,-1.026,-2.455,-1.675,-5.034,-0.919,-0.143,0.946,-0.355,-0.885,-0.122,0.366,80.000,8638.000,1.000
3.369,-6.868,-2.716,-2.682,-2.679,-1.415,-4.520,-0.417,-0.144,0.946,-0.355,-0.946,-0.244,0.305,80.000,8639.000,1.000
0.746,-7.917,-4.865,-4.647,-3.753,-2.232,-4.052,-0.766,-0.144,0.946,-0.353,-0.885,-0.183,0.275,80.000,8640.000,1.000
-2.520,-8.771,-7.603,-6.262,-5.297,-3.862,-3.547,-1.781,-0.144,0.946,-0.355,-0.885,-0.275,0.244,80.000,8641.000,1.000
-5.451,-8.951,-10.169,-7.108,-6.704,-5.701,-2.843,-2.928,-0.146,0.947,-0.353,-0.946,-0.366,0.244,80.000,8642.000,1.000
-7.123,-8.243,-11.680,-7.052,-7.357,-7.013,-1.728,-3.593,-0.145,0.947,-0.353,-0.946,-0.366,0.336,80.000,8643.000,1.000
-6.990,-6.582,-11.417,-6.093,-6.810,-7.122,0.022,-3.349,-0.144,0.946,-0.352,-1.038,-0.397,0.397,80.000,8644.000,1.000
-5.357,-4.252,-9.403,-4.496,-5.116,-5.759,2.383,-2.212,-0.144,0.946,-0.351,-1.068,-0.427,0.275,80.000,8645.000,1.000
-3.341,-2.014,-6.572,-2.828,-2.910,-3.285,4.986,-0.610,-0.144,0.944,-0.350,-1.129,-0.366,0.458,80.000,8646.000,1.000
-2.083,-0.596,-4.118,-1.519,-0.945,-0.397,7.407,0.956,-0.142,0.943,-0.349,-1.099,-0.549,0.397,80.000,8647.000,1.000
-2.116,-0.217,-2.833,-0.655,0.296,2.208,9.262,2.090,-0.143,0.943,-0.350,-1.160,-0.549,0.427,80.000,8648.000,1.000
-3.403,-0.795,-2.978,-0.245,0.552,3.877,9.992,2.408,-0.143,0.941,-0.350,-1.312,-0.641,0.397,80.000,8649.000,1.000
-5.533,-2.221,-4.347,-0.397,-0.218,4.192,9.130,1.682,-0.138,0.939,-0.352,-1.221,-0.580,0.488,80.000,8650.000,1.000
-7.831,-4.186,-6.307,-1.185,-1.674,3.323,6.938,0.164,-0.137,0.938,-0.353,-1.068,-0.488,0.610,80.000,8651.000,1.000
-9.506,-5.984,-7.961,-2.402,-3.120,2.052,4.505,-1.416,-0.135,0.940,-0.357,-0.977,-0.427,0.671,80.000,8652.000,1.000
-9.885,-6.795,-8.502,-3.486,-3.817,1.354,3.102,-2.259,-0.137,0.939,-0.355,-0.916,-0.397,0.641,80.000,8653.000,1.000
-8.823,-6.263,-7.705,-3.872,-3.435,1.767,3.296,-2.040,-0.138,0.938,-0.355,-0.732,-0.214,0.702,80.000,8654.000,1.000
-6.978,-4.800,-6.154,-3.542,-2.349,2.961,4.532,-1.203,-0.140,0.938,-0.355,-0.610,-0.244,0.519,80.000,8655.000,1.000
-5.361,-3.224,-4.752,-3.018,-1.288,4.079,5.661,-0.576,-0.137,0.938,-0.354,-0.549,-0.305,0.458,80.000,8656.000,1.000
-4.527,-2.128,-3.918,-2.747,-0.650,4.569,5.904,-0.658,-0.137,0.940,-0.354,-0.427,-0.183,0.336,80.000,8657.000,1.000
-4.301,-1.669,-3.403,-2.727,-0.315,4.497,5.257,-1.359,-0.137,0.938,-0.356,-0.305,-0.153,0.153,80.000,8658.000,1.000
-4.102,-1.676,-2.703,-2.669,0.030,4.193,4.246,-2.219,-0.136,0.938,-0.358,-0.214,-0.092,0.092,80.000,8659.000,1.000
-3.383,-1.789,-1.513,-2.280,0.558,3.890,3.450,-2.696,-0.135,0.938,-0.356,-0.061,0.031,0.000,80.000,8660.000,1.000
-1.963,-1.633,0.109,-1.411,1.227,3.696,3.129,-2.419,-0.135,0.940,-0.354,-0.061,0.061,-0.031,80.000,8661.000,1.000
-0.053,-0.900,1.913,-0.092,1.938,3.718,3.231,-1.258,-0.135,0.942,-0.354,-0.031,0.214,-0.275,80.000,8662.000,1.000
1.978,0.558,3.672,1.475,2.653,4.033,3.586,0.675,-0.134,0.942,-0.354,0.092,0.366,-0.366,80.000,8663.000,1.000
3.761,2.540,5.153,2.928,3.247,4.516,3.906,2.927,-0.134,0.941,-0.356,0.061,0.427,-0.275,80.000,8664.000,1.000
4.923,4.343,6.002,3.823,3.364,4.746,3.731,4.666,-0.136,0.944,-0.359,0.000,0.519,-0.458,80.000,8665.000,1.000
5.113,5.033,5.798,3.852,2.635,4.227,2.651,5.060,-0.138,0.946,-0.354,-0.031,0.702,-0.488,80.000,8666.000,1.000
4.205,4.068,4.366,3.100,1.085,2.812,0.677,3.904,-0.140,0.948,-0.357,-0.092,0.763,-0.580,80.000,8667.000,1.000
2.470,1.750,2.109,2.071,-0.664,0.974,-1.597,1.868,-0.139,0.948,-0.354,-0.183,0.763,-0.519,80.000,8668.000,1.000
0.480,-0.957,-0.074,1.369,-1.668,-0.388,-3.250,0.065,-0.141,0.950,-0.357,-0.305,0.885,-0.671,80.000,8669.000,1.000
-1.239,-3.076,-1.407,1.219,-1.373,-0.602,-3.684,-0.747,-0.142,0.953,-0.355,-0.519,0.977,-0.671,80.000,8670.000,1.000
-2.515,-4.203,-1.829,1.292,-0.214,0.140,-3.170,-0.669,-0.143,0.954,-0.353,-0.610,0.946,-0.519,80.000,8671.000,1.000
-3.473,-4.493,-1.838,1.112,0.692,0.941,-2.579,-0.335,-0.146,0.953,-0.351,-0.885,0.916,-0.549,80.000,8672.000,1.000
-4.251,-4.221,-1.857,0.559,0.514,1.054,-2.540,-0.185,-0.146,0.953,-0.350,-1.099,0.885,-0.458,80.000,8673.000,1.000
-4.821,-3.536,-1.913,-0.132,-0.734,0.443,-3.018,-0.198,-0.145,0.952,-0.354,-1.221,0.824,-0.336,80.000,8674.000,1.000
-4.916,-2.438,-1.699,-0.568,-2.278,-0.285,-3.520,-0.068,-0.147,0.948,-0.351,-1.312,0.793,-0.336,80.000,8675.000,1.000
-4.100,-0.698,-0.690,-0.305,-2.992,-0.226,-3.415,0.618,-0.149,0.945,-0.353,-1.373,0.702,-0.397,80.000,8676.000,1.000
-2.206,1.928,1.515,0.863,-2.059,1.267,-2.261,2.124,-0.148,0.941,-0.354,-1.495,0.732,-0.153,80.000,8677.000,1.000
0.282,5.237,4.760,2.604,0.422,4.079,-0.084,4.278,-0.148,0.939,-0.356,-1.495,0.549,0.000,80.000,8678.000,1.000
2.554,8.572,8.349,4.307,3.551,7.417,2.683,6.567,-0.147,0.940,-0.352,-1.404,0.488,0.092,80.000,8679.000,1.000
4.137,11.307,11.533,5.638,6.361,10.421,5.572,8.539,-0.149,0.938,-0.355,-1.160,0.336,0.092,80.000,8680.000,1.000
5.005,13.137,13.778,6.583,8.286,12.525,8.215,9.947,-0.149,0.938,-0.357,-1.160,0.244,0.153,80.000,8681.000,1.000
5.113,13.822,14.583,6.986,8.997,13.224,10.002,10.481,-0.149,0.937,-0.359,-0.946,0.214,0.122,80.000,8682.000,1.000
4.228,13.009,13.471,6.391,8.205,11.945,10.011,9.636,-0.149,0.935,-0.356,-0.854,0.153,0.153,80.000,8683.000,1.000
2.309,10.614,10.405,4.466,5.850,8.453,7.623,7.066,-0.149,0.934,-0.356,-0.732,0.092,0.122,80.000,8684.000,1.000
-0.233,7.127,6.047,1.401,2.320,3.286,3.088,3.004,-0.147,0.936,-0.355,-0.702,0.000,0.031,80.000,8685.000,1.000
-2.717,3.417,1.536,-2.108,-1.625,-2.314,-2.526,-1.698,-0.147,0.936,-0.359,-0.519,-0.092,0.092,80.000,8686.000,1.000
-4.464,0.352,-1.999,-5.178,-5.146,-6.950,-7.812,-5.921,-0.146,0.939,-0.359,-0.336,-0.153,0.153,80.000,8687.000,1.000
-4.945,-1.406,-3.825,-7.062,-7.513,-9.606,-11.459,-8.682,-0.144,0.940,-0.354,-0.214,-0.183,0.153,80.000,8688.000,1.000
-3.905,-1.516,-3.748,-7.306,-8.157,-9.856,-12.548,-9.355,-0.143,0.944,-0.354,-0.305,-0.244,0.061,80.000,8689.000,1.000
-1.560,-0.167,-2.141,-5.892,-6.910,-7.931,-10.909,-7.864,-0.144,0.947,-0.354,-0.275,-0.336,0.122,80.000,8690.000,1.000
1.447,1.851,0.230,-3.298,-4.224,-4.638,-7.253,-4.792,-0.143,0.948,-0.355,-0.366,-0.305,0.214,80.000,8691.000,1.000
4.444,3.539,2.582,-0.295,-0.992,-1.081,-2.831,-1.178,-0.145,0.950,-0.352,-0.488,-0.244,0.214,80.000,8692.000,1.000
6.971,4.170,4.295,2.289,1.786,1.624,0.999,1.860,-0.146,0.953,-0.352,-0.488,-0.305,0.275,80.000,8693.000,1.000
8.675,3.438,4.896,3.720,3.250,2.582,3.075,3.463,-0.144,0.953,-0.352,-0.671,-0.427,0.397,80.000,8694.000,1.000
9.236,1.364,4.198,3.628,2.949,1.466,2.789,3.270,-0.146,0.955,-0.353,-0.854,-0.488,0.366,80.000,8695.000,1.000
8.533,-1.696,2.485,2.217,1.114,-1.226,0.422,1.535,-0.144,0.957,-0.352,-1.068,-0.488,0.397,80.000,8696.000,1.000
6.841,-4.984,0.392,0.155,-1.369,-4.365,-2.944,-0.976,-0.144,0.956,-0.353,-1.282,-0.488,0.488,80.000,8697.000,1.000
4.839,-7.513,-1.421,-1.750,-3.395,-6.745,-5.928,-3.265,-0.143,0.953,-0.355,-1.648,-0.427,0.366,80.000,8698.000,1.000
3.325,-8.493,-2.475,-2.822,-4.191,-7.593,-7.431,-4.476,-0.141,0.951,-0.355,-1.831,-0.366,0.549,80.000,8699.000,1.000
2.761,-7.684,-2.593,-2.777,-3.631,-6.813,-7.037,-4.272,-0.142,0.951,-0.353,-1.831,-0.336,0.641,80.000,8700.000,1.000
2.983,-5.415,-1.981,-1.876,-2.200,-4.963,-5.107,-3.011,-0.141,0.946,-0.354,-1.892,-0.366,0.641,80.000,8701.000,1.000
3.330,-2.386,-1.146,-0.764,-0.675,-2.974,-2.567,-1.530,-0.141,0.944,-0.352,-2.014,-0.366,0.763,80.000,8702.000,1.000
3.197,0.615,-0.592,-0.013,0.328,-1.625,-0.424,-0.569,-0.141,0.942,-0.355,-2.075,-0.366,0.885,80.000,8703.000,1.000
2.522,3.094,-0.485,0.251,0.688,-1.079,0.767,-0.303,-0.140,0.939,-0.357,-2.014,-0.397,0.916,80.000,8704.000,1.000
1.677,4.920,-0.623,0.243,0.723,-0.967,1.039,-0.413,-0.139,0.938,-0.358,-1.862,-0.366,0.885,80.000,8705.000,1.000
1.008,6.075,-0.673,0.214,0.881,-0.774,0.801,-0.489,-0.137,0.937,-0.357,-1.740,-0.214,0.977,80.000,8706.000,1.000
0.627,6.513,-0.397,0.306,1.496,-0.088,0.510,-0.279,-0.136,0.940,-0.355,-1.709,-0.183,0.824,80.000,8707.000,1.000
0.460,6.260,0.198,0.499,2.599,1.234,0.369,0.216,-0.135,0.940,-0.355,-1.617,-0.061,0.702,80.000,8708.000,1.000
0.365,5.558,0.911,0.631,3.924,2.983,0.299,0.764,-0.135,0.945,-0.355,-1.648,-0.092,0.610,80.000,8709.000,1.000
0.265,4.824,1.549,0.564,5.100,4.704,0.205,1.088,-0.139,0.946,-0.356,-1.648,-0.061,0.610,80.000,8710.000,1.000
0.254,4.439,2.053,0.308,5.863,5.965,0.165,1.103,-0.141,0.945,-0.353,-1.740,0.031,0.458,80.000,8711.000,1.000
0.486,4.540,2.432,0.014,6.144,6.626,0.336,1.014,-0.141,0.945,-0.350,-1.801,0.061,0.336,80.000,8712.000,1.000
0.892,4.860,2.582,-0.225,5.909,6.812,0.652,1.044,-0.142,0.944,-0.353,-1.770,0.122,0.153,80.000,8713.000,1.000
1.089,4.802,2.276,-0.575,4.984,6.569,0.679,1.066,-0.144,0.945,-0.352,-1.831,0.092,0.000,80.000,8714.000,1.000
0.668,3.807,1.344,-1.342,3.175,5.749,-0.094,0.640,-0.144,0.945,-0.352,-1.801,0.031,-0.183,80.000,8715.000,1.000
-0.376,1.820,-0.105,-2.536,0.605,4.265,-1.804,-0.553,-0.143,0.947,-0.351,-1.831,-0.061,-0.366,80.000,8716.000,1.000
-1.504,-0.604,-1.658,-3.696,-2.206,2.262,-4.100,-2.415,-0.145,0.946,-0.349,-1.801,-0.183,-0.549,80.000,8717.000,1.000
-2.035,-2.724,-2.862,-4.236,-4.660,0.043,-6.407,-4.511,-0.147,0.945,-0.351,-1.801,-0.214,-0.732,80.000,8718.000,1.000
-1.632,-4.067,-3.461,-3.854,-6.362,-2.002,-8.154,-6.279,-0.146,0.946,-0.350,-1.923,-0.305,-0.824,80.000,8719.000,1.000
-0.345,-4.493,-3.404,-2.627,-7.132,-3.416,-8.899,-7.170,-0.148,0.946,-0.350,-1.984,-0.366,-0.854,80.000,8720.000,1.000
1.592,-4.104,-2.786,-0.926,-6.976,-3.849,-8.469,-6.879,-0.148,0.944,-0.345,-2.045,-0.458,-0.854,80.000,8721.000,1.000
3.862,-3.149,-1.805,0.776,-6.075,-3.248,-6.983,-5.547,-0.147,0.947,-0.349,-1.923,-0.641,-0.732,80.000,8722.000,1.000
6.074,-1.926,-0.718,2.144,-4.709,-1.870,-4.705,-3.709,-0.146,0.945,-0.350,-1.923,-0.488,-0.671,80.000,8723.000,1.000
7.751,-0.829,0.175,3.008,-3.235,-0.242,-2.026,-2.027,-0.142,0.945,-0.351,-2.014,-0.458,-0.397,80.000,8724.000,1.000
8.463,-0.346,0.612,3.209,-2.056,0.949,0.530,-0.969,-0.144,0.941,-0.349,-1.831,-0.458,-0.244,80.000,8725.000,1.000
8.143,-0.721,0.591,2.695,-1.423,1.196,2.548,-0.541,-0.143,0.941,-0.349,-1.770,-0.519,0.031,80.000,8726.000,1.000
7.149,-1.737,0.364,1.700,-1.293,0.490,3.930,-0.377,-0.144,0.942,-0.348,-1.801,-0.427,0.122,80.000,8727.000,1.000
5.895,-3.028,0.104,0.594,-1.513,-0.816,4.760,-0.176,-0.146,0.945,-0.347,-1.709,-0.519,0.366,80.000,8728.000,1.000
4.515,-4.419,-0.305,-0.413,-1.994,-2.331,5.120,0.053,-0.148,0.946,-0.347,-1.770,-0.580,0.488,80.000,8729.000,1.000
2.883,-5.870,-1.052,-1.260,-2.594,-3.714,5.121,0.181,-0.146,0.945,-0.347,-1.678,-0.580,0.671,80.000,8730.000,1.000
0.832,-7.271,-2.103,-1.887,-3.030,-4.673,4.901,0.193,-0.145,0.944,-0.349,-1.617,-0.641,0.824,80.000,8731.000,1.000
-1.707,-8.429,-3.206,-2.287,-3.129,-5.127,4.536,0.151,-0.142,0.942,-0.348,-1.648,-0.580,0.977,80.000,8732.000,1.000
-4.547,-9.109,-4.055,-2.576,-3.002,-5.225,4.100,0.132,-0.141,0.939,-0.349,-1.617,-0.549,1.129,80.000,8733.000,1.000
-7.129,-9.002,-4.373,-2.856,-2.853,-5.104,3.809,0.282,-0.140,0.936,-0.351,-1.434,-0.488,1.282,80.000,8734.000,1.000
-8.727,-7.871,-4.010,-3.079,-2.796,-4.757,3.983,0.782,-0.138,0.936,-0.350,-1.282,-0.366,1.312,80.000,8735.000,1.000
-8.932,-5.732,-3.109,-3.134,-2.863,-4.168,4.820,1.649,-0.136,0.936,-0.353,-1.221,-0.366,1.312,80.000,8736.000,1.000
-7.929,-2.821,-2.056,-3.005,-3.037,-3.458,6.206,2.618,-0.135,0.938,-0.353,-1.129,-0.244,1.343,80.000,8737.000,1.000
-6.410,0.463,-1.246,-2.834,-3.290,-2.903,7.616,3.260,-0.136,0.939,-0.352,-0.916,-0.183,1.282,80.000,8738.000,1.000
-5.192,3.592,-0.876,-2.805,-3.573,-2.785,8.329,3.235,-0.135,0.940,-0.350,-0.946,-0.061,1.190,80.000,8739.000,1.000
-4.769,6.036,-0.867,-2.932,-3.739,-3.176,7.866,2.504,-0.134,0.940,-0.353,-0.793,0.061,1.038,80.000,8740.000,1.000
-5.092,7.469,-0.970,-3.038,-3.570,-3.883,6.249,1.327,-0.135,0.940,-0.354,-0.671,0.214,0.824,80.000,8741.000,1.000
-5.715,7.843,-0.991,-2.973,-2.958,-4.617,3.863,0.090,-0.133,0.943,-0.350,-0.702,0.305,0.702,80.000,8742.000,1.000
-6.174,7.336,-0.927,-2.748,-1.990,-5.146,1.243,-0.861,-0.133,0.944,-0.354,-0.763,0.366,0.702,80.000,8743.000,1.000
-6.268,6.254,-0.917,-2.439,-0.877,-5.325,-1.089,-1.297,-0.133,0.948,-0.354,-0.854,0.519,0.519,80.000,8744.000,1.000
-6.071,4.876,-1.127,-2.144,0.119,-5.143,-2.805,-1.142,-0.134,0.949,-0.353,-0.824,0.671,0.336,80.000,8745.000,1.000
-5.685,3.435,-1.582,-1.968,0.868,-4.631,-3.765,-0.394,-0.133,0.952,-0.353,-0.885,0.732,0.214,80.000,8746.000,1.000
-5.069,2.191,-1.984,-1.900,1.618,-3.627,-3.777,1.033,-0.134,0.952,-0.354,-0.977,0.824,0.153,80.000,8747.000,1.000
-4.283,1.143,-2.018,-1.878,2.709,-1.975,-2.777,3.116,-0.135,0.954,-0.349,-1.190,0.854,0.122,80.000,8748.000,1.000
-3.762,-0.241,-1.938,-2.016,3.883,-0.104,-1.375,5.290,-0.139,0.953,-0.348,-1.343,1.007,0.031,80.000,8749.000,1.000
-4.076,-2.607,-2.565,-2.588,4.239,0.978,-0.830,6.512,-0.140,0.953,-0.350,-1.617,1.068,0.000,80.000,8750.000,1.000
-5.438,-6.030,-4.547,-3.731,3.106,0.500,-2.170,5.976,-0.139,0.953,-0.346,-1.617,1.038,-0.031,80.000,8751.000,1.000
-7.519,-9.915,-7.654,-5.172,0.793,-1.375,-5.277,3.806,-0.143,0.952,-0.348,-1.801,0.946,-0.122,80.000,8752.000,1.000
-9.604,-13.410,-10.795,-6.267,-1.551,-3.658,-8.859,1.046,-0.144,0.948,-0.348,-1.923,0.977,-0.031,80.000,8753.000,1.000
-11.049,-15.858,-12.750,-6.460,-2.753,-5.240,-11.346,-1.085,-0.147,0.947,-0.349,-1.862,0.946,0.000,80.000,8754.000,1.000
-11.717,-17.122,-13.043,-5.756,-2.380,-5.570,-11.922,-2.042,-0.147,0.947,-0.349,-1.892,0.854,0.092,80.000,8755.000,1.000
-11.887,-17.519,-12.132,-4.596,-0.921,-4.817,-10.852,-2.145,-0.148,0.944,-0.346,-1.892,0.702,0.214,80.000,8756.000,1.000
-11.830,-17.397,-10.833,-3.360,0.671,-3.566,-9.040,-2.058,-0.149,0.946,-0.346,-1.892,0.580,0.183,80.000,8757.000,1.000
-11.640,-16.914,-9.719,-2.201,1.622,-2.441,-7.357,-2.184,-0.150,0.945,-0.345,-1.892,0.336,0.153,80.000,8758.000,1.000
-11.307,-16.084,-8.897,-1.129,1.790,-1.820,-6.185,-2.477,-0.149,0.947,-0.344,-1.923,0.214,0.244,80.000,8759.000,1.000
-10.758,-14.807,-8.084,-0.042,1.651,-1.672,-5.343,-2.613,-0.152,0.947,-0.346,-1.892,0.092,0.305,80.000,8760.000,1.000
-9.929,-12.934,-6.943,1.177,1.808,-1.658,-4.401,-2.291,-0.151,0.947,-0.342,-1.953,-0.122,0.336,80.000,8761.000,1.000
-8.843,-10.405,-5.420,2.450,2.426,-1.459,-3.168,-1.533,-0.150,0.947,-0.344,-1.984,-0.305,0.519,80.000,8762.000,1.000
-7.555,-7.306,-3.737,3.475,3.186,-0.968,-1.850,-0.740,-0.148,0.948,-0.344,-1.923,-0.427,0.580,80.000,8763.000,1.000
-5.969,-3.707,-2.006,4.089,3.824,-0.117,-0.675,-0.292,-0.148,0.946,-0.343,-1.801,-0.580,0.732,80.000,8764.000,1.000
-3.828,0.343,-0.030,4.532,4.470,1.219,0.437,-0.141,-0.146,0.945,-0.344,-1.953,-0.732,0.916,80.000,8765.000,1.000
-1.049,4.502,2.320,5.163,5.302,2.921,1.647,-0.035,-0.146,0.944,-0.346,-1.923,-0.763,0.916,80.000,8766.000,1.000
1.939,8.000,4.726,5.980,6.103,4.419,2.810,0.017,-0.146,0.946,-0.346,-1.923,-0.854,0.946,80.000,8767.000,1.000
4.300,10.027,6.569,6.581,6.353,4.996,3.538,-0.275,-0.144,0.941,-0.347,-1.892,-0.916,1.068,80.000,8768.000,1.000
5.302,10.241,7.398,6.554,5.674,4.255,3.538,-1.113,-0.143,0.938,-0.347,-1.801,-1.129,1.007,80.000,8769.000,1.000
4.821,8.906,7.278,5.871,4.153,2.381,2.867,-2.291,-0.142,0.937,-0.350,-1.587,-1.099,1.038,80.000,8770.000,1.000
3.468,6.738,6.737,4.918,2.366,0.099,1.900,-3.192,-0.138,0.938,-0.348,-1.465,-1.160,0.977,80.000,8771.000,1.000
2.149,4.524,6.312,4.169,1.050,-1.751,1.012,-3.220,-0.139,0.938,-0.346,-1.312,-1.099,0.885,80.000,8772.000,1.000
1.501,2.719,6.094,3.808,0.643,-2.744,0.281,-2.306,-0.139,0.939,-0.347,-1.129,-1.190,0.793,80.000,8773.000,1.000
1.744,1.438,5.844,3.697,1.143,-2.941,-0.371,-0.915,-0.137,0.938,-0.347,-0.946,-1.221,0.671,80.000,8774.000,1.000
2.856,0.756,5.442,3.641,2.314,-2.535,-0.817,0.372,-0.137,0.937,-0.347,-0.824,-1.190,0.580,80.000,8775.000,1.000
4.671,0.800,5.074,3.640,3.858,-1.597,-0.721,1.219,-0.137,0.939,-0.349,-0.793,-1.312,0.641,80.000,8776.000,1.000
6.861,1.572,5.038,3.883,5.424,-0.171,0.124,1.595,-0.135,0.942,-0.348,-0.671,-1.129,0.458,80.000,8777.000,1.000
8.943,2.771,5.414,4.468,6.614,1.517,1.521,1.631,-0.136,0.945,-0.348,-0.519,-1.068,0.397,80.000,8778.000,1.000
10.441,3.910,5.935,5.192,7.111,3.105,2.981,1.515,-0.135,0.945,-0.346,-0.488,-1.038,0.366,80.000,8779.000,1.000
10.975,4.581,6.143,5.596,6.799,4.276,4.015,1.412,-0.134,0.946,-0.346,-0.458,-1.068,0.214,80.000,8780.000,1.000
10.257,4.585,5.700,5.156,5.760,4.844,4.332,1.359,-0.136,0.946,-0.350,-0.519,-1.068,0.000,80.000,8781.000,1.000
8.413,4.109,4.743,3.717,4.317,4.839,4.006,1.363,-0.136,0.948,-0.348,-0.488,-0.916,0.031,80.000,8782.000,1.000
6.333,3.818,3.974,1.896,3.100,4.643,3.553,1.600,-0.136,0.946,-0.344,-0.488,-0.916,0.000,80.000,8783.000,1.000
5.279,4.540,4.213,0.783,2.814,4.883,3.659,2.347,-0.137,0.946,-0.345,-0.488,-0.916,0.000,80.000,8784.000,1.000
5.911,6.650,5.705,1.042,3.699,5.983,4.615,3.631,-0.139,0.944,-0.345,-0.519,-0.885,-0.092,80.000,8785.000,1.000
7.719,9.677,7.838,2.321,5.193,7.715,6.011,5.004,-0.139,0.944,-0.345,-0.488,-0.854,-0.122,80.000,8786.000,1.000
9.404,12.481,9.554,3.530,6.247,9.223,7.006,5.745,-0.141,0.941,-0.344,-0.488,-0.854,-0.061,80.000,8787.000,1.000
9.846,13.990,10.083,3.733,6.031,9.599,6.948,5.348,-0.141,0.940,-0.345,-0.458,-0.824,-0.061,80.000,8788.000,1.000
8.796,13.923,9.322,2.788,4.409,8.481,5.755,3.819,-0.141,0.939,-0.347,-0.336,-0.793,-0.122,80.000,8789.000,1.000
6.782,12.785,7.634,1.238,1.880,6.154,3.779,1.588,-0.141,0.939,-0.347,-0.244,-0.763,-0.153,80.000,8790.000,1.000
4.577,11.263,5.459,-0.185,-0.806,3.207,1.435,-0.789,-0.140,0.941,-0.348,-0.092,-0.702,-0.183,80.000,8791.000,1.000
2.863,9.826,3.222,-0.912,-2.962,0.264,-0.958,-2.854,-0.140,0.943,-0.350,0.153,-0.763,-0.183,80.000,8792.000,1.000
2.169,8.711,1.404,-0.668,-4.099,-2.026,-3.134,-4.301,-0.138,0.942,-0.351,0.092,-0.854,-0.214,80.000,8793.000,1.000
2.743,7.917,0.435,0.460,-4.065,-3.166,-4.953,-5.053,-0.139,0.942,-0.350,0.122,-0.702,-0.214,80.000,8794.000,1.000
4.369,7.219,0.456,2.062,-3.173,-3.153,-6.464,-5.312,-0.139,0.943,-0.351,0.244,-0.671,-0.092,80.000,8795.000,1.000
6.501,6.489,1.333,3.677,-2.005,-2.480,-7.697,-5.375,-0.141,0.944,-0.354,0.214,-0.641,-0.183,80.000,8796.000,1.000
8.547,5.865,2.807,5.041,-1.018,-1.695,-8.473,-5.399,-0.142,0.944,-0.353,0.214,-0.671,-0.183,80.000,8797.000,1.000
9.965,5.451,4.451,6.011,-0.389,-1.075,-8.602,-5.381,-0.145,0.945,-0.351,0.244,-0.671,-0.183,80.000,8798.000,1.000
10.373,5.107,5.692,6.407,-0.083,-0.636,-8.106,-5.277,-0.144,0.946,-0.352,0.183,-0.732,-0.336,80.000,8799.000,1.000
9.763,4.598,6.088,6.127,0.015,-0.336,-7.186,-5.084,-0.144,0.947,-0.350,0.122,-0.824,-0.427,80.000,8800.000,1.000
8.471,3.726,5.503,5.245,-0.090,-0.237,-6.152,-4.912,-0.142,0.946,-0.352,0.153,-0.793,-0.427,80.000,8801.000,1.000
6.893,2.408,4.094,3.911,-0.531,-0.407,-5.314,-4.934,-0.141,0.946,-0.352,0.183,-0.854,-0.519,80.000,8802.000,1.000
5.327,0.921,2.320,2.335,-1.310,-0.630,-4.671,-5.094,-0.143,0.945,-0.354,0.061,-0.793,-0.427,80.000,8803.000,1.000
3.970,-0.093,0.806,0.792,-2.216,-0.509,-3.903,-5.055,-0.142,0.944,-0.355,0.061,-0.793,-0.671,80.000,8804.000,1.000
2.902,-0.173,-0.039,-0.526,-3.106,0.083,-2.754,-4.551,-0.144,0.944,-0.353,0.183,-0.854,-0.549,80.000,8805.000,1.000
2.204,0.607,-0.218,-1.539,-4.017,0.932,-1.206,-3.627,-0.145,0.943,-0.350,0.092,-0.763,-0.519,80.000,8806.000,1.000
1.978,1.734,-0.050,-2.214,-5.046,1.644,0.522,-2.583,-0.145,0.945,-0.353,0.153,-0.732,-0.427,80.000,8807.000,1.000
2.096,2.501,-0.006,-2.646,-6.298,1.732,1.904,-1.846,-0.144,0.945,-0.352,0.153,-0.702,-0.427,80.000,8808.000,1.000
2.169,2.382,-0.390,-3.008,-7.681,0.989,2.405,-1.648,-0.145,0.944,-0.350,0.122,-0.671,-0.336,80.000,8809.000,1.000
1.894,1.381,-1.061,-3.268,-8.681,-0.128,2.019,-1.726,-0.146,0.946,-0.351,0.214,-0.763,-0.366,80.000,8810.000,1.000
1.281,-0.053,-1.609,-3.190,-8.632,-0.728,1.357,-1.517,-0.147,0.945,-0.354,0.092,-0.763,-0.244,80.000,8811.000,1.000
0.558,-1.384,-1.793,-2.653,-7.303,-0.164,1.176,-0.717,-0.148,0.946,-0.351,0.153,-0.793,-0.214,80.000,8812.000,1.000
-0.106,-2.327,-1.777,-1.864,-5.201,1.465,1.880,0.469,-0.147,0.947,-0.353,0.122,-0.793,-0.183,80.000,8813.000,1.000
-0.872,-3.014,-2.081,-1.335,-3.376,3.285,3.281,1.499,-0.146,0.944,-0.354,0.214,-0.885,-0.061,80.000,8814.000,1.000
-2.146,-3.882,-3.306,-1.667,-2.924,4.094,4.671,1.769,-0.145,0.944,-0.354,0.305,-0.977,0.061,80.000,8815.000,1.000
-4.157,-5.306,-5.707,-3.173,-4.386,3.087,5.174,0.939,-0.147,0.946,-0.353,0.153,-0.977,0.031,80.000,8816.000,1.000
-6.628,-7.249,-8.876,-5.533,-7.331,0.438,4.302,-0.776,-0.145,0.946,-0.356,0.183,-1.007,0.153,80.000,8817.000,1.000
-8.806,-9.172,-11.803,-7.820,-10.489,-2.707,2.363,-2.618,-0.144,0.945,-0.354,0.244,-0.977,0.122,80.000,8818.000,1.000
-9.816,-10.254,-13.327,-8.973,-12.427,-4.889,0.326,-3.703,-0.147,0.945,-0.354,0.183,-0.977,0.336,80.000,8819.000,1.000
-9.174,-9.879,-12.743,-8.421,-12.297,-5.176,-0.804,-3.527,-0.147,0.945,-0.355,0.153,-0.977,0.427,80.000,8820.000,1.000
-7.134,-8.089,-10.218,-6.476,-10.145,-3.599,-0.599,-2.157,-0.146,0.947,-0.355,0.153,-0.946,0.458,80.000,8821.000,1.000
-4.632,-5.623,-6.732,-4.222,-6.809,-1.058,0.610,-0.169,-0.145,0.946,-0.354,0.153,-0.946,0.549,80.000,8822.000,1.000
-2.758,-3.454,-3.545,-2.837,-3.501,1.204,2.090,1.640,-0.145,0.948,-0.353,0.000,-1.038,0.519,80.000,8823.000,1.000
-2.095,-2.168,-1.514,-2.789,-1.193,2.343,3.310,2.710,-0.144,0.945,-0.354,0.031,-0.916,0.610,80.000,8824.000,1.000
-2.551,-1.808,-0.826,-3.691,-0.236,2.277,4.158,2.978,-0.142,0.946,-0.356,-0.061,-0.916,0.519,80.000,8825.000,1.000
-3.661,-2.049,-1.164,-4.826,-0.420,1.446,4.708,2.757,-0.143,0.948,-0.353,-0.153,-0.916,0.580,80.000,8826.000,1.000
-4.911,-2.411,-1.978,-5.669,-1.236,0.358,4.947,2.449,-0.141,0.948,-0.354,-0.244,-0.824,0.671,80.000,8827.000,1.000
-5.906,-2.578,-2.784,-6.039,-2.206,-0.748,4.685,2.274,-0.142,0.948,-0.355,-0.305,-0.885,0.671,80.000,8828.000,1.000
-6.408,-2.590,-3.326,-5.941,-3.058,-1.861,3.709,2.221,-0.142,0.949,-0.354,-0.488,-0.885,0.610,80.000,8829.000,1.000
-6.300,-2.626,-3.455,-5.318,-3.565,-2.824,2.199,2.264,-0.140,0.946,-0.356,-0.549,-0.763,0.610,80.000,8830.000,1.000
-5.556,-2.700,-2.980,-4.001,-3.389,-3.201,0.837,2.512,-0.139,0.948,-0.356,-0.641,-0.763,0.671,80.000,8831.000,1.000
-4.313,-2.699,-1.801,-1.973,-2.337,-2.736,0.241,3.017,-0.140,0.946,-0.355,-0.824,-0.702,0.671,80.000,8832.000,1.000
-2.974,-2.675,-0.222,0.323,-0.719,-1.771,0.365,3.501,-0.143,0.945,-0.354,-0.977,-0.610,0.549,80.000,8833.000,1.000
-2.006,-2.801,1.166,2.096,0.790,-0.951,0.645,3.513,-0.141,0.942,-0.355,-1.007,-0.580,0.580,80.000,8834.000,1.000
-1.615,-3.108,1.958,2.708,1.668,-0.625,0.651,2.855,-0.137,0.943,-0.354,-1.099,-0.519,0.641,80.000,8835.000,1.000
-1.673,-3.440,2.191,2.117,1.884,-0.625,0.532,1.846,-0.139,0.941,-0.356,-1.129,-0.519,0.519,80.000,8836.000,1.000
-1.814,-3.492,2.290,0.982,1.918,-0.395,0.982,1.237,-0.143,0.942,-0.355,-1.251,-0.488,0.519,80.000,8837.000,1.000
-1.608,-2.878,2.792,0.249,2.457,0.716,2.714,1.760,-0.143,0.943,-0.355,-1.312,-0.397,0.488,80.000,8838.000,1.000
-0.757,-1.404,3.938,0.453,3.799,2.924,5.717,3.487,-0.143,0.944,-0.354,-1.312,-0.397,0.458,80.000,8839.000,1.000
0.784,0.717,5.459,1.418,5.574,5.714,9.043,5.658,-0.144,0.943,-0.356,-1.312,-0.458,0.427,80.000,8840.000,1.000
2.784,3.014,6.790,2.546,7.128,8.188,11.430,7.250,-0.144,0.944,-0.354,-1.312,-0.519,0.397,80.000,8841.000,1.000
4.735,5.017,7.411,3.231,8.017,9.696,12.123,7.685,-0.143,0.943,-0.354,-1.373,-0.458,0.366,80.000,8842.000,1.000
5.980,6.356,7.061,3.063,8.115,10.112,11.185,7.043,-0.143,0.943,-0.354,-1.312,-0.366,0.366,80.000,8843.000,1.000
6.016,6.777,5.813,1.975,7.507,9.675,9.217,5.814,-0.143,0.943,-0.354,-1.373,-0.397,0.397,80.000,8844.000,1.000
4.757,6.205,4.005,0.286,6.365,8.698,6.840,4.532,-0.144,0.944,-0.356,-1.373,-0.488,0.336,80.000,8845.000,1.000
2.602,4.855,2.037,-1.486,4.865,7.448,4.441,3.505,-0.143,0.943,-0.354,-1.282,-0.519,0.366,80.000,8846.000,1.000
0.261,3.266,0.190,-2.842,3.189,6.163,2.294,2.783,-0.144,0.945,-0.356,-1.221,-0.488,0.458,80.000,8847.000,1.000
-1.519,2.109,-1.363,-3.355,1.601,5.073,0.734,2.371,-0.145,0.944,-0.353,-1.251,-0.488,0.397,80.000,8848.000,1.000
-2.208,1.832,-2.428,-2.750,0.475,4.409,0.071,2.437,-0.145,0.945,-0.354,-1.312,-0.580,0.336,80.000,8849.000,1.000
-1.815,2.281,-2.916,-1.231,0.063,4.286,0.283,3.111,-0.145,0.946,-0.353,-1.343,-0.671,0.458,80.000,8850.000,1.000
-1.096,2.655,-3.113,0.353,0.132,4.409,0.792,4.079,-0.145,0.946,-0.352,-1.343,-0.702,0.488,80.000,8851.000,1.000
-1.139,2.067,-3.554,0.998,0.052,4.084,0.771,4.615,-0.146,0.946,-0.354,-1.373,-0.732,0.427,80.000,8852.000,1.000
-2.588,0.191,-4.611,0.246,-0.687,2.707,-0.224,4.079,-0.146,0.946,-0.354,-1.373,-0.763,0.427,80.000,8853.000,1.000
-5.216,-2.560,-6.230,-1.553,-2.098,0.230,-1.961,2.346,-0.146,0.945,-0.354,-1.343,-0.824,0.397,80.000,8854.000,1.000
-8.064,-5.333,-7.954,-3.484,-3.719,-2.804,-3.764,-0.129,-0.146,0.944,-0.354,-1.312,-0.824,0.458,80.000,8855.000,1.000
-9.914,-7.340,-9.193,-4.601,-4.942,-5.632,-5.008,-2.595,-0.145,0.944,-0.356,-1.343,-0.854,0.427,80.000,8856.000,1.000
-9.896,-8.234,-9.563,-4.454,-5.373,-7.661,-5.462,-4.376,-0.144,0.943,-0.352,-1.373,-0.916,0.397,80.000,8857.000,1.000
-8.021,-8.190,-9.079,-3.287,-4.992,-8.656,-5.299,-5.111,-0.145,0.943,-0.353,-1.404,-0.916,0.397,80.000,8858.000,1.000
-5.297,-7.745,-8.162,-1.860,-4.107,-8.785,-4.947,-4.860,-0.143,0.941,-0.352,-1.282,-0.946,0.549,80.000,8859.000,1.000
-3.181,-7.493,-7.421,-0.951,-3.168,-8.420,-4.820,-4.014,-0.144,0.940,-0.354,-1.160,-1.038,0.458,80.000,8860.000,1.000
-2.727,-7.783,-7.293,-0.880,-2.532,-7.827,-5.056,-3.053,-0.144,0.941,-0.354,-1.160,-0.977,0.397,80.000,8861.000,1.000
-4.079,-8.611,-7.802,-1.432,-2.335,-7.151,-5.542,-2.372,-0.141,0.941,-0.354,-1.068,-0.977,0.488,80.000,8862.000,1.000
-6.456,-9.681,-8.479,-2.029,-2.404,-6.567,-6.008,-2.100,-0.138,0.941,-0.354,-0.977,-0.977,0.549,80.000,8863.000,1.000
-8.472,-10.425,-8.449,-1.928,-2.207,-6.190,-6.000,-1.905,-0.141,0.941,-0.353,-0.977,-0.793,0.580,80.000,8864.000,1.000
-8.854,-10.255,-6.964,-0.629,-1.228,-6.037,-5.163,-1.304,-0.140,0.941,-0.354,-0.977,-0.732,0.671,80.000,8865.000,1.000
-7.199,-9.059,-4.045,1.619,0.473,-6.167,-3.700,-0.280,-0.137,0.943,-0.355,-0.946,-0.671,0.580,80.000,8866.000,1.000
-4.079,-7.332,-0.463,3.866,2.279,-6.585,-2.237,0.679,-0.138,0.941,-0.357,-0.824,-0.641,0.641,80.000,8867.000,1.000
-0.576,-5.781,2.794,5.144,3.554,-7.070,-1.253,1.101,-0.139,0.941,-0.354,-0.854,-0.519,0.580,80.000,8868.000,1.000
2.255,-4.749,5.042,5.146,4.111,-7.187,-0.723,0.951,-0.138,0.941,-0.353,-0.824,-0.458,0.519,80.000,8869.000,1.000
3.870,-3.930,6.241,4.466,4.331,-6.440,-0.192,0.702,-0.139,0.941,-0.352,-0.793,-0.366,0.519,80.000,8870.000,1.000
4.430,-2.684,6.965,4.165,4.868,-4.571,0.845,1.033,-0.140,0.942,-0.353,-0.793,-0.244,0.549,80.000,8871.000,1.000
4.523,-0.654,7.914,4.958,6.080,-1.835,2.535,2.335,-0.141,0.941,-0.353,-0.702,-0.153,0.427,80.000,8872.000,1.000
4.642,1.882,9.314,6.704,7.679,1.030,4.535,4.393,-0.141,0.943,-0.352,-0.793,-0.092,0.427,80.000,8873.000,1.000
4.948,4.292,10.788,8.670,8.973,3.172,6.264,6.541,-0.141,0.944,-0.353,-0.702,-0.122,0.397,80.000,8874.000,1.000
5.419,6.164,11.834,10.216,9.503,4.161,7.366,8.216,-0.143,0.944,-0.351,-0.702,-0.153,0.458,80.000,8875.000,1.000
5.919,7.429,12.199,11.126,9.274,4.173,7.810,9.263,-0.142,0.945,-0.351,-0.854,0.000,0.244,80.000,8876.000,1.000
6.133,8.027,11.749,11.402,8.390,3.611,7.519,9.653,-0.142,0.944,-0.351,-0.885,0.000,0.366,80.000,8877.000,1.000
5.756,7.842,10.412,11.056,6.851,2.722,6.241,9.203,-0.142,0.945,-0.354,-0.885,0.000,0.244,80.000,8878.000,1.000
4.794,6.951,8.412,10.155,4.793,1.653,3.922,7.773,-0.141,0.945,-0.352,-0.885,0.092,0.122,80.000,8879.000,1.000
3.584,5.685,6.359,8.872,2.661,0.620,0.988,5.532,-0.140,0.948,-0.352,-0.885,0.031,0.214,80.000,8880.000,1.000
2.602,4.484,4.956,7.464,1.023,-0.120,-1.832,2.949,-0.141,0.947,-0.351,-0.916,0.092,0.214,80.000,8881.000,1.000
2.258,3.747,4.627,6.259,0.296,-0.396,-3.922,0.561,-0.140,0.948,-0.353,-1.190,0.061,0.183,80.000,8882.000,1.000
2.756,3.691,5.320,5.519,0.591,-0.116,-5.064,-1.312,-0.140,0.944,-0.353,-1.160,0.092,0.244,80.000,8883.000,1.000
4.047,4.286,6.594,5.211,1.684,0.689,-5.468,-2.745,-0.140,0.945,-0.357,-1.160,0.153,0.183,80.000,8884.000,1.000
5.814,5.200,7.798,4.962,3.043,1.648,-5.668,-4.112,-0.140,0.946,-0.358,-1.282,0.153,0.214,80.000,8885.000,1.000
7.592,5.944,8.390,4.396,4.053,2.155,-6.234,-5.713,-0.143,0.946,-0.356,-1.251,0.092,0.244,80.000,8886.000,1.000
9.124,6.314,8.371,3.581,4.463,2.025,-7.298,-7.434,-0.143,0.944,-0.354,-1.221,0.092,0.244,80.000,8887.000,1.000
10.460,6.561,8.300,2.986,4.494,1.726,-8.489,-8.889,-0.145,0.945,-0.353,-1.312,0.061,0.275,80.000,8888.000,1.000
11.617,6.955,8.645,2.873,4.369,1.644,-9.451,-9.922,-0.144,0.943,-0.354,-1.312,0.061,0.214,80.000,8889.000,1.000
12.281,7.250,9.166,2.851,3.916,1.480,-10.227,-10.811,-0.144,0.944,-0.355,-1.312,0.031,0.336,80.000,8890.000,1.000
12.022,6.860,9.113,2.263,2.815,0.677,-10.911,-11.846,-0.142,0.943,-0.353,-1.160,-0.031,0.275,80.000,8891.000,1.000
10.803,5.585,8.041,0.962,1.180,-0.761,-11.123,-12.753,-0.145,0.941,-0.354,-1.129,0.061,0.305,80.000,8892.000,1.000
9.018,3.882,6.176,-0.582,-0.444,-2.269,-10.280,-12.846,-0.144,0.943,-0.353,-1.221,-0.031,0.458,80.000,8893.000,1.000
6.965,2.310,3.946,-1.947,-1.722,-3.426,-8.399,-11.803,-0.144,0.945,-0.351,-1.251,-0.092,0.458,80.000,8894.000,1.000
4.592,1.005,1.535,-3.186,-2.817,-4.257,-6.196,-9.985,-0.145,0.944,-0.351,-1.282,-0.092,0.458,80.000,8895.000,1.000
1.750,-0.231,-1.038,-4.565,-4.010,-4.931,-4.432,-8.037,-0.145,0.944,-0.352,-1.251,-0.183,0.549,80.000,8896.000,1.000
-1.548,-1.561,-3.701,-6.135,-5.326,-5.528,-3.410,-6.379,-0.144,0.943,-0.355,-1.251,-0.214,0.488,80.000,8897.000,1.000
-5.015,-2.981,-6.236,-7.632,-6.534,-6.026,-2.952,-5.025,-0.143,0.944,-0.353,-1.251,-0.275,0.580,80.000,8898.000,1.000
-8.129,-4.396,-8.347,-8.671,-7.338,-6.284,-2.656,-3.772,-0.142,0.943,-0.350,-1.190,-0.366,0.641,80.000,8899.000,1.000
-10.282,-5.587,-9.797,-8.997,-7.546,-6.077,-2.128,-2.525,-0.144,0.944,-0.353,-1.160,-0.427,0.610,80.000,8900.000,1.000
-11.050,-6.193,-10.485,-8.585,-7.126,-5.281,-1.073,-1.371,-0.145,0.944,-0.353,-1.099,-0.397,0.671,80.000,8901.000,1.000
-10.496,-5.979,-10.470,-7.653,-6.239,-4.072,0.581,-0.420,-0.143,0.944,-0.352,-1.160,-0.336,0.732,80.000,8902.000,1.000
-9.199,-5.102,-9.967,-6.585,-5.183,-2.910,2.511,0.316,-0.141,0.944,-0.350,-1.129,-0.366,0.702,80.000,8903.000,1.000
-7.817,-3.938,-9.200,-5.684,-4.159,-2.179,4.151,0.939,-0.142,0.943,-0.352,-1.160,-0.488,0.763,80.000,8904.000,1.000
-6.701,-2.783,-8.275,-4.978,-3.165,-1.864,5.076,1.550,-0.143,0.944,-0.353,-1.160,-0.580,0.702,80.000,8905.000,1.000
-5.898,-1.798,-7.263,-4.333,-2.163,-1.609,5.220,2.104,-0.143,0.944,-0.351,-1.190,-0.549,0.610,80.000,8906.000,1.000
-5.289,-1.000,-6.263,-3.610,-1.139,-0.949,4.842,2.517,-0.144,0.943,-0.352,-1.129,-0.610,0.610,80.000,8907.000,1.000
-4.764,-0.316,-5.415,-2.801,-0.066,0.403,4.341,2.838,-0.143,0.944,-0.352,-1.099,-0.763,0.519,80.000,8908.000,1.000
-4.314,0.293,-4.910,-2.092,1.006,2.371,4.050,3.186,-0.142,0.943,-0.354,-1.068,-0.763,0.549,80.000,8909.000,1.000
-3.857,0.877,-4.808,-1.669,1.932,4.595,4.136,3.650,-0.140,0.944,-0.350,-1.007,-0.793,0.488,80.000,8910.000,1.000
-3.191,1.479,-4.971,-1.562,2.501,6.517,4.512,4.210,-0.140,0.945,-0.351,-1.099,-0.732,0.427,80.000,8911.000,1.000
-2.346,1.936,-5.315,-1.820,2.416,7.453,4.789,4.625,-0.142,0.942,-0.352,-1.068,-0.732,0.397,80.000,8912.000,1.000
-1.728,1.873,-5.969,-2.587,1.444,6.933,4.532,4.521,-0.140,0.944,-0.353,-1.129,-0.702,0.366,80.000,8913.000,1.000
-1.830,0.939,-7.084,-3.890,-0.346,5.014,3.610,3.670,-0.138,0.944,-0.354,-1.190,-0.824,0.275,80.000,8914.000,1.000
-2.875,-0.950,-8.609,-5.476,-2.551,2.234,2.269,2.203,-0.139,0.944,-0.351,-1.160,-0.763,0.183,80.000,8915.000,1.000
-4.559,-3.392,-10.163,-6.859,-4.515,-0.589,1.007,0.624,-0.140,0.944,-0.348,-1.160,-0.793,0.122,80.000,8916.000,1.000
-6.041,-5.557,-11.101,-7.497,-5.518,-2.594,0.334,-0.437,-0.140,0.945,-0.351,-1.221,-0.763,0.244,80.000,8917.000,1.000
-6.454,-6.710,-10.912,-7.087,-5.195,-3.237,0.458,-0.632,-0.139,0.945,-0.354,-1.221,-0.763,0.244,80.000,8918.000,1.000
-5.604,-6.677,-9.612,-5.837,-3.842,-2.577,1.167,-0.104,-0.137,0.945,-0.352,-1.282,-0.610,0.275,80.000,8919.000,1.000
-4.119,-5.893,-7.769,-4.415,-2.267,-1.217,1.993,0.643,-0.138,0.944,-0.353,-1.343,-0.610,0.214,80.000,8920.000,1.000
-2.965,-5.127,-6.228,-3.601,-1.356,-0.002,2.421,0.964,-0.139,0.945,-0.352,-1.434,-0.671,0.214,80.000,8921.000,1.000
-2.809,-5.022,-5.678,-3.853,-1.653,0.364,2.089,0.349,-0.141,0.945,-0.349,-1.312,-0.610,0.244,80.000,8922.000,1.000
-3.701,-5.700,-6.267,-5.022,-3.121,-0.367,0.984,-1.206,-0.140,0.945,-0.346,-1.282,-0.702,0.214,80.000,8923.000,1.000
-5.163,-6.710,-7.523,-6.383,-5.145,-1.843,-0.478,-3.055,-0.141,0.945,-0.353,-1.251,-0.610,0.183,80.000,8924.000,1.000
-6.534,-7.340,-8.587,-7.067,-6.814,-3.272,-1.667,-4.276,-0.140,0.947,-0.353,-1.312,-0.610,0.214,80.000,8925.000,1.000
-7.352,-7.045,-8.695,-6.658,-7.416,-3.882,-2.148,-4.302,-0.139,0.945,-0.352,-1.373,-0.458,0.275,80.000,8926.000,1.000
-7.408,-5.610,-7.535,-5.400,-6.730,-3.316,-1.867,-3.196,-0.141,0.945,-0.350,-1.373,-0.610,0.214,80.000,8927.000,1.000
-6.499,-3.056,-5.256,-3.829,-4.952,-1.696,-0.984,-1.447,-0.139,0.947,-0.350,-1.373,-0.580,0.244,80.000,8928.000,1.000
-4.507,0.313,-2.362,-2.420,-2.595,0.441,0.181,0.323,-0.141,0.945,-0.350,-1.312,-0.458,0.244,80.000,8929.000,1.000
-1.795,3.839,0.407,-1.502,-0.359,2.359,1.126,1.588,-0.141,0.943,-0.349,-1.373,-0.427,0.183,80.000,8930.000,1.000
0.779,6.764,2.392,-1.145,1.215,3.492,1.429,2.145,-0.141,0.942,-0.351,-1.343,-0.458,0.275,80.000,8931.000,1.000
2.348,8.524,3.298,-1.076,1.999,3.652,1.031,2.156,-0.141,0.942,-0.350,-1.373,-0.519,0.183,80.000,8932.000,1.000
2.486,8.784,3.226,-0.920,2.166,2.990,0.218,1.956,-0.139,0.943,-0.347,-1.282,-0.458,0.183,80.000,8933.000,1.000
1.374,7.526,2.566,-0.548,2.021,1.948,-0.530,1.852,-0.142,0.942,-0.348,-1.251,-0.397,0.305,80.000,8934.000,1.000
-0.317,5.216,1.865,-0.062,1.884,1.101,-0.735,2.025,-0.142,0.943,-0.347,-1.129,-0.427,0.244,80.000,8935.000,1.000
-1.683,2.709,1.665,0.519,2.004,0.857,-0.179,2.514,-0.142,0.942,-0.348,-1.160,-0.397,0.336,80.000,8936.000,1.000
-1.930,0.895,2.351,1.360,2.533,1.278,0.965,3.200,-0.142,0.943,-0.351,-1.160,-0.397,0.336,80.000,8937.000,1.000
-0.736,0.234,3.967,2.513,3.449,2.107,2.247,3.801,-0.142,0.942,-0.352,-1.068,-0.488,0.275,80.000,8938.000,1.000
1.591,0.486,6.073,3.709,4.452,2.914,3.156,3.961,-0.143,0.941,-0.351,-1.038,-0.519,0.336,80.000,8939.000,1.000
4.322,1.000,7.929,4.521,5.079,3.309,3.284,3.470,-0.143,0.943,-0.353,-1.038,-0.549,0.305,80.000,8940.000,1.000
6.697,1.339,8.940,4.638,5.027,3.127,2.476,2.404,-0.144,0.942,-0.351,-1.007,-0.549,0.244,80.000,8941.000,1.000
8.211,1.561,8.961,4.050,4.338,2.456,0.899,1.103,-0.144,0.944,-0.349,-1.007,-0.488,0.244,80.000,8942.000,1.000
8.785,1.995,8.309,3.155,3.351,1.538,-0.972,0.043,-0.142,0.944,-0.347,-0.854,-0.549,0.183,80.000,8943.000,1.000
8.754,2.931,7.572,2.587,2.553,0.670,-2.465,-0.348,-0.141,0.945,-0.348,-0.916,-0.641,0.275,80.000,8944.000,1.000
8.602,4.383,7.281,2.767,2.358,0.124,-2.939,0.124,-0.141,0.947,-0.348,-0.824,-0.580,0.214,80.000,8945.000,1.000
8.622,6.025,7.652,3.611,2.906,0.121,-2.065,1.307,-0.142,0.946,-0.348,-0.824,-0.488,0.153,80.000,8946.000,1.000
8.773,7.377,8.535,4.629,4.010,0.793,-0.020,2.708,-0.142,0.946,-0.347,-0.885,-0.580,0.183,80.000,8947.000,1.000
8.776,8.094,9.503,5.234,5.222,2.030,2.456,3.606,-0.143,0.945,-0.348,-0.885,-0.549,0.183,80.000,8948.000,1.000
8.369,8.117,10.093,5.072,6.023,3.339,4.330,3.388,-0.143,0.945,-0.348,-0.854,-0.610,0.183,80.000,8949.000,1.000
7.599,7.656,10.111,4.256,6.120,4.094,4.872,2.046,-0.143,0.946,-0.350,-0.916,-0.763,0.244,80.000,8950.000,1.000
6.890,7.149,9.790,3.381,5.684,4.150,4.167,0.355,-0.144,0.946,-0.352,-0.946,-0.702,0.153,80.000,8951.000,1.000
6.834,7.199,9.665,3.254,5.286,4.172,3.121,-0.536,-0.144,0.944,-0.351,-0.946,-0.732,0.183,80.000,8952.000,1.000
7.798,8.333,10.241,4.422,5.542,5.176,2.899,0.199,-0.143,0.946,-0.350,-0.885,-0.702,0.214,80.000,8953.000,1.000
9.510,10.524,11.518,6.724,6.595,7.549,4.049,2.512,-0.143,0.945,-0.349,-0.946,-0.763,0.214,80.000,8954.000,1.000
11.024,12.855,12.744,9.190,7.853,10.475,6.015,5.422,-0.144,0.944,-0.349,-0.946,-0.671,0.153,80.000,8955.000,1.000
11.337,13.932,12.901,10.586,8.366,12.455,7.565,7.637,-0.145,0.944,-0.350,-1.007,-0.763,0.122,80.000,8956.000,1.000
10.057,12.817,11.474,10.186,7.508,12.382,7.722,8.355,-0.144,0.943,-0.349,-0.946,-0.732,0.244,80.000,8957.000,1.000
7.508,9.531,8.639,8.053,5.241,10.094,6.238,7.479,-0.143,0.945,-0.350,-0.885,-0.763,0.153,80.000,8958.000,1.000
4.444,4.882,4.961,4.830,1.968,6.273,3.496,5.307,-0.145,0.943,-0.351,-0.916,-0.671,0.092,80.000,8959.000,1.000
1.751,0.051,1.147,1.437,-1.653,2.048,0.225,2.281,-0.145,0.943,-0.352,-0.946,-0.732,0.031,80.000,8960.000,1.000
0.037,-4.014,-2.254,-1.364,-5.051,-1.679,-2.966,-1.211,-0.143,0.942,-0.350,-0.854,-0.732,0.061,80.000,8961.000,1.000
-0.734,-7.161,-5.154,-3.437,-8.072,-4.776,-5.984,-4.963,-0.144,0.942,-0.354,-0.885,-0.763,0.061,80.000,8962.000,1.000
-1.013,-9.772,-7.660,-5.072,-10.714,-7.534,-8.914,-8.689,-0.145,0.939,-0.351,-0.824,-0.793,0.061,80.000,8963.000,1.000
-1.005,-11.804,-9.466,-6.273,-12.513,-9.778,-11.283,-11.627,-0.145,0.939,-0.348,-0.763,-0.824,0.061,80.000,8964.000,1.000
-0.360,-12.382,-9.806,-6.458,-12.553,-10.629,-12.026,-12.715,-0.142,0.939,-0.350,-0.671,-0.732,0.092,80.000,8965.000,1.000
1.487,-10.522,-8.079,-4.931,-10.186,-9.239,-10.321,-11.301,-0.141,0.940,-0.353,-0.458,-0.824,0.031,80.000,8966.000,1.000
4.731,-6.162,-4.447,-1.564,-5.697,-5.627,-6.377,-7.640,-0.140,0.939,-0.351,-0.275,-0.763,0.000,80.000,8967.000,1.000
8.936,-0.365,0.199,2.977,-0.225,-0.721,-1.366,-2.774,-0.140,0.940,-0.354,-0.153,-0.732,0.092,80.000,8968.000,1.000
13.339,5.363,4.762,7.584,4.882,4.269,3.281,1.990,-0.138,0.941,-0.353,-0.031,-0.671,0.061,80.000,8969.000,1.000
17.266,9.735,8.387,11.182,8.657,8.366,6.492,5.610,-0.139,0.942,-0.355,0.092,-0.519,0.214,80.000,8970.000,1.000
20.136,11.939,10.544,13.023,10.699,10.980,7.797,7.558,-0.139,0.945,-0.355,0.092,-0.427,0.122,80.000,8971.000,1.000
21.383,11.792,11.028,12.875,11.149,11.975,7.417,7.843,-0.139,0.947,-0.354,0.000,-0.305,0.031,80.000,8972.000,1.000
20.772,9.870,10.085,11.148,10.577,11.700,6.184,6.949,-0.137,0.950,-0.352,-0.061,-0.244,0.061,80.000,8973.000,1.000
18.732,7.285,8.405,8.721,9.699,10.741,5.046,5.651,-0.136,0.951,-0.353,-0.214,-0.153,0.183,80.000,8974.000,1.000
16.178,5.147,6.819,6.503,8.985,9.544,4.494,4.672,-0.138,0.951,-0.351,-0.366,-0.031,0.153,80.000,8975.000,1.000
13.947,4.064,5.892,5.072,8.497,8.265,4.442,4.394,-0.140,0.949,-0.352,-0.366,0.000,0.183,80.000,8976.000,1.000
12.312,3.923,5.652,4.519,7.976,6.824,4.456,4.733,-0.139,0.952,-0.348,-0.580,0.122,0.183,80.000,8977.000,1.000
10.922,4.043,5.685,4.493,7.052,5.034,4.064,5.264,-0.142,0.950,-0.350,-0.671,0.275,0.305,80.000,8978.000,1.000
9.162,3.717,5.542,4.494,5.550,2.888,3.099,5.550,-0.142,0.948,-0.353,-0.824,0.336,0.397,80.000,8979.000,1.000
6.614,2.709,5.055,4.240,3.704,0.729,1.820,5.417,-0.142,0.948,-0.353,-0.824,0.183,0.397,80.000,8980.000,1.000
3.288,1.318,4.360,3.715,1.994,-1.015,0.640,4.884,-0.144,0.948,-0.355,-0.977,0.275,0.366,80.000,8981.000,1.000
-0.411,0.101,3.769,3.010,0.764,-2.198,-0.212,4.006,-0.143,0.947,-0.353,-1.007,0.244,0.397,80.000,8982.000,1.000
-3.910,-0.448,3.619,2.232,0.094,-2.909,-0.692,2.962,-0.143,0.948,-0.355,-1.190,0.214,0.366,80.000,8983.000,1.000
-6.799,-0.103,4.028,1.517,-0.081,-3.196,-0.756,2.119,-0.142,0.947,-0.354,-1.251,0.031,0.366,80.000,8984.000,1.000
-9.110,0.979,4.673,0.956,0.071,-3.048,-0.356,1.805,-0.143,0.943,-0.353,-1.251,0.031,0.397,80.000,8985.000,1.000
-11.291,2.259,4.881,0.409,0.266,-2.600,0.427,2.010,-0.144,0.942,-0.351,-1.251,0.000,0.275,80.000,8986.000,1.000
-13.805,3.049,4.022,-0.481,0.162,-2.191,1.297,2.353,-0.146,0.942,-0.354,-1.251,0.000,0.153,80.000,8987.000,1.000
-16.763,2.805,1.831,-2.019,-0.549,-2.230,1.793,2.308,-0.146,0.943,-0.351,-1.221,-0.092,0.000,80.000,8988.000,1.000
-19.902,1.281,-1.497,-4.170,-2.041,-3.020,1.507,1.476,-0.147,0.943,-0.355,-1.343,-0.183,-0.092,80.000,8989.000,1.000
-22.772,-1.380,-5.371,-6.506,-4.222,-4.565,0.376,-0.201,-0.148,0.942,-0.357,-1.343,-0.244,-0.214,80.000,8990.000,1.000
-25.027,-4.744,-9.072,-8.525,-6.736,-6.552,-1.269,-2.411,-0.149,0.942,-0.356,-1.312,-0.336,-0.336,80.000,8991.000,1.000
-26.627,-8.325,-12.121,-10.016,-9.137,-8.485,-2.941,-4.637,-0.148,0.943,-0.354,-1.282,-0.458,-0.458,80.000,8992.000,1.000
-27.754,-11.762,-14.406,-11.065,-11.039,-9.881,-4.254,-6.348,-0.148,0.943,-0.355,-1.221,-0.671,-0.610,80.000,8993.000,1.000
-28.677,-14.864,-16.151,-11.893,-12.251,-10.524,-5.151,-7.249,-0.149,0.944,-0.351,-1.282,-0.824,-0.732,80.000,8994.000,1.000
-29.637,-17.579,-17.735,-12.759,-12.861,-10.535,-5.870,-7.474,-0.147,0.943,-0.351,-1.221,-0.854,-0.824,80.000,8995.000,1.000
-30.566,-19.850,-19.296,-13.760,-13.075,-10.119,-6.538,-7.425,-0.146,0.945,-0.353,-1.160,-1.007,-0.763,80.000,8996.000,1.000
-30.987,-21.433,-20.484,-14.642,-13.001,-9.405,-6.944,-7.414,-0.147,0.946,-0.351,-1.160,-1.007,-0.732,80.000,8997.000,1.000
-30.415,-22.025,-20.740,-14.981,-12.670,-8.563,-6.797,-7.526,-0.148,0.948,-0.351,-1.190,-1.038,-0.641,80.000,8998.000,1.000
-28.882,-21.658,-19.815,-14.648,-12.216,-7.916,-6.104,-7.750,-0.148,0.948,-0.351,-1.282,-1.099,-0.549,80.000,8999.000,1.000
-26.932,-20.797,-17.961,-13.971,-11.858,-7.806,-5.219,-8.073,-0.148,0.951,-0.350,-1.465,-1.251,-0.427,80.000,9000.000,1.000
-25.079,-19.882,-15.638,-13.333,-11.606,-8.210,-4.484,-8.313,-0.147,0.951,-0.350,-1.465,-1.312,-0.336,80.000,9001.000,1.000
-23.443,-18.916,-13.230,-12.766,-11.155,-8.565,-3.858,-8.058,-0.148,0.951,-0.348,-1.617,-1.312,-0.244,80.000,9002.000,1.000
-21.895,-17.589,-11.008,-12.048,-10.184,-8.148,-2.990,-6.974,-0.150,0.951,-0.347,-1.678,-1.465,-0.061,80.000,9003.000,1.000
-20.288,-15.678,-9.087,-10.975,-8.672,-6.661,-1.611,-5.153,-0.150,0.950,-0.351,-1.801,-1.495,0.153,80.000,9004.000,1.000
-18.541,-13.332,-7.440,-9.524,-6.911,-4.482,0.173,-3.112,-0.151,0.949,-0.347,-1.923,-1.465,0.397,80.000,9005.000,1.000
-16.666,-10.974,-6.052,-7.895,-5.345,-2.470,1.903,-1.507,-0.150,0.945,-0.351,-2.075,-1.617,0.366,80.000,9006.000,1.000
-14.753,-8.913,-4.977,-6.412,-4.345,-1.425,3.083,-0.757,-0.151,0.945,-0.350,-2.075,-1.770,0.458,80.000,9007.000,1.000
-12.877,-7.108,-4.171,-5.313,-3.959,-1.526,3.542,-0.792,-0.150,0.944,-0.350,-2.106,-1.801,0.488,80.000,9008.000,1.000
-11.000,-5.274,-3.383,-4.611,-3.836,-2.211,3.540,-1.099,-0.150,0.942,-0.349,-2.106,-1.801,0.488,80.000,9009.000,1.000
-9.048,-3.127,-2.311,-4.153,-3.501,-2.654,3.560,-1.055,-0.149,0.940,-0.347,-2.136,-1.862,0.580,80.000,9010.000,1.000
-7.067,-0.658,-0.899,-3.778,-2.738,-2.348,3.950,-0.357,-0.146,0.940,-0.353,-2.106,-1.923,0.580,80.000,9011.000,1.000
-5.283,1.717,0.413,-3.475,-1.756,-1.403,4.626,0.723,-0.146,0.942,-0.350,-2.075,-1.984,0.763,80.000,9012.000,1.000
-3.983,3.350,0.822,-3.411,-1.081,-0.426,5.086,1.459,-0.143,0.940,-0.350,-1.923,-2.045,0.732,80.000,9013.000,1.000
-3.293,3.853,-0.224,-3.720,-1.154,0.021,4.864,1.232,-0.141,0.943,-0.350,-1.892,-1.953,0.824,80.000,9014.000,1.000
-3.062,3.377,-2.532,-4.337,-1.978,-0.115,3.904,0.025,-0.138,0.943,-0.352,-1.709,-1.740,0.854,80.000,9015.000,1.000
-2.989,2.412,-5.333,-5.118,-3.141,-0.528,2.461,-1.672,-0.139,0.943,-0.352,-1.801,-1.648,0.854,80.000,9016.000,1.000
-2.840,1.379,-7.796,-5.972,-4.070,-0.988,0.846,-3.273,-0.138,0.946,-0.350,-1.770,-1.495,0.885,80.000,9017.000,1.000
-2.572,0.358,-9.429,-6.797,-4.312,-1.553,-0.692,-4.359,-0.135,0.946,-0.348,-1.678,-1.404,0.885,80.000,9018.000,1.000
-2.257,-0.829,-10.197,-7.430,-3.728,-2.383,-2.035,-4.756,-0.134,0.948,-0.347,-1.770,-1.129,0.977,80.000,9019.000,1.000
-1.894,-2.210,-10.346,-7.686,-2.524,-3.431,-3.219,-4.554,-0.132,0.947,-0.349,-1.892,-1.007,0.946,80.000,9020.000,1.000
-1.336,-3.404,-10.070,-7.393,-1.069,-4.338,-4.331,-4.000,-0.130,0.948,-0.350,-1.923,-0.824,0.854,80.000,9021.000,1.000
-0.372,-3.744,-9.280,-6.407,0.400,-4.541,-5.311,-3.242,-0.132,0.949,-0.351,-1.953,-0.641,0.854,80.000,9022.000,1.000
1.163,-2.675,-7.688,-4.695,1.873,-3.584,-5.929,-2.251,-0.134,0.950,-0.350,-1.984,-0.519,0.763,80.000,9023.000,1.000
3.272,-0.154,-5.163,-2.461,3.370,-1.543,-6.064,-1.083,-0.136,0.951,-0.350,-2.106,-0.183,0.671,80.000,9024.000,1.000
5.840,3.338,-1.865,-0.040,4.850,0.916,-5.816,0.055,-0.137,0.950,-0.350,-2.075,-0.092,0.549,80.000,9025.000,1.000
8.827,7.208,1.937,2.396,6.406,3.106,-5.221,1.099,-0.142,0.949,-0.348,-2.258,0.031,0.488,80.000,9026.000,1.000
12.213,11.040,5.940,4.876,8.287,4.768,-4.130,2.235,-0.143,0.945,-0.348,-2.228,0.092,0.336,80.000,9027.000,1.000
15.679,14.497,9.635,7.352,10.501,5.891,-2.561,3.578,-0.143,0.943,-0.348,-2.380,0.214,0.183,80.000,9028.000,1.000
18.590,17.184,12.295,9.512,12.565,6.422,-0.966,4.880,-0.143,0.944,-0.349,-2.197,0.305,0.061,80.000,9029.000,1.000
20.399,18.736,13.347,10.963,13.768,6.358,0.025,5.643,-0.143,0.942,-0.348,-2.045,0.244,0.122,80.000,9030.000,1.000
20.982,18.992,12.732,11.481,13.616,5.885,0.068,5.470,-0.143,0.940,-0.348,-1.984,0.153,0.092,80.000,9031.000,1.000
20.673,18.132,10.950,11.121,12.084,5.333,-0.705,4.352,-0.144,0.940,-0.348,-1.892,0.153,0.122,80.000,9032.000,1.000
20.108,16.636,8.847,10.236,9.667,5.075,-1.763,2.722,-0.146,0.938,-0.348,-1.831,0.183,0.122,80.000,9033.000,1.000
19.897,15.007,7.217,9.334,7.169,5.357,-2.526,1.202,-0.146,0.938,-0.347,-1.740,0.122,0.183,80.000,9034.000,1.000
20.197,13.426,6.391,8.754,5.250,5.999,-2.835,0.184,-0.143,0.941,-0.349,-1.678,0.214,0.214,80.000,9035.000,1.000
20.512,11.675,6.106,8.487,4.074,6.342,-3.135,-0.365,-0.144,0.938,-0.349,-1.587,0.122,0.214,80.000,9036.000,1.000
20.056,9.388,5.780,8.320,3.357,5.687,-4.140,-0.759,-0.144,0.940,-0.346,-1.404,-0.061,0.488,80.000,9037.000,1.000
18.389,6.372,4.996,8.044,2.749,3.808,-6.249,-1.324,-0.145,0.940,-0.346,-1.282,-0.122,0.610,80.000,9038.000,1.000
15.749,2.872,3.791,7.524,2.200,1.167,-9.139,-2.199,-0.145,0.940,-0.346,-1.129,-0.092,0.641,80.000,9039.000,1.000
12.933,-0.349,2.591,6.773,2.011,-1.258,-11.836,-3.241,-0.145,0.942,-0.348,-1.099,-0.031,0.793,80.000,9040.000,1.000
10.896,-2.379,1.941,6.008,2.515,-2.556,-13.298,-4.120,-0.147,0.945,-0.344,-0.946,-0.092,0.885,80.000,9041.000,1.000
10.297,-2.801,2.191,5.558,3.717,-2.503,-13.116,-4.596,-0.148,0.946,-0.345,-0.854,-0.305,1.038,80.000,9042.000,1.000
11.121,-2.060,3.254,5.593,5.131,-1.739,-11.810,-4.738,-0.147,0.949,-0.347,-0.793,-0.427,1.099,80.000,9043.000,1.000
12.544,-1.200,4.517,5.887,5.922,-1.372,-10.500,-4.870,-0.147,0.952,-0.343,-0.885,-0.549,1.160,80.000,9044.000,1.000
13.299,-1.283,5.062,5.941,5.325,-2.342,-10.189,-5.347,-0.145,0.952,-0.344,-1.038,-0.671,1.251,80.000,9045.000,1.000
12.410,-2.920,4.183,5.336,3.088,-4.918,-11.185,-6.336,-0.146,0.953,-0.344,-1.099,-0.885,1.221,80.000,9046.000,1.000
9.853,-5.889,1.878,4.010,-0.314,-8.539,-12.947,-7.681,-0.145,0.952,-0.341,-1.190,-1.068,1.251,80.000,9047.000,1.000
6.616,-9.042,-1.034,2.317,-3.818,-12.057,-14.397,-8.880,-0.145,0.951,-0.341,-1.312,-1.160,1.221,80.000,9048.000,1.000
4.094,-10.901,-3.339,0.867,-6.246,-14.281,-14.556,-9.293,-0.144,0.949,-0.347,-1.434,-1.221,1.251,80.000,9049.000,1.000
3.314,-10.538,-4.103,0.224,-6.901,-14.526,-13.068,-8.463,-0.144,0.947,-0.347,-1.404,-1.312,1.221,80.000,9050.000,1.000
4.514,-7.988,-3.062,0.695,-5.848,-12.817,-10.214,-6.345,-0.145,0.946,-0.347,-1.434,-1.373,1.160,80.000,9051.000,1.000
7.169,-4.131,-0.623,2.253,-3.730,-9.744,-6.604,-3.390,-0.143,0.944,-0.347,-1.373,-1.434,1.038,80.000,9052.000,1.000
10.278,-0.332,2.368,4.471,-1.378,-6.222,-2.895,-0.396,-0.141,0.941,-0.346,-1.282,-1.526,0.916,80.000,9053.000,1.000
12.846,2.205,5.022,6.706,0.565,-3.161,0.411,1.931,-0.138,0.941,-0.344,-1.282,-1.678,0.793,80.000,9054.000,1.000
14.411,3.142,6.875,8.514,1.930,-1.014,3.106,3.374,-0.136,0.940,-0.346,-1.099,-1.709,0.732,80.000,9055.000,1.000
15.025,2.993,7.943,9.721,2.872,0.261,5.135,4.104,-0.134,0.939,-0.345,-1.068,-1.587,0.641,80.000,9056.000,1.000
14.766,2.422,8.338,10.078,3.401,0.735,6.284,4.235,-0.134,0.939,-0.349,-0.946,-1.526,0.580,80.000,9057.000,1.000
13.605,1.819,8.144,9.330,3.361,0.387,6.275,3.765,-0.133,0.940,-0.348,-0.763,-1.434,0.427,80.000,9058.000,1.000
11.816,1.519,7.741,7.821,2.979,-0.419,5.354,2.988,-0.133,0.939,-0.349,-0.702,-1.312,0.366,80.000,9059.000,1.000
10.178,1.980,7.901,6.648,3.058,-0.774,4.539,2.642,-0.133,0.940,-0.350,-0.641,-1.343,0.244,80.000,9060.000,1.000
9.514,3.495,9.306,6.885,4.411,0.189,5.034,3.449,-0.133,0.940,-0.349,-0.549,-1.160,0.244,80.000,9061.000,1.000
10.082,5.887,11.940,8.702,7.176,2.619,7.320,5.546,-0.134,0.940,-0.349,-0.427,-1.129,0.092,80.000,9062.000,1.000
11.470,8.566,14.965,11.272,10.687,5.872,10.841,8.373,-0.134,0.938,-0.351,-0.397,-1.099,-0.031,80.000,9063.000,1.000
12.813,10.630,17.113,13.307,13.767,8.880,14.373,10.943,-0.134,0.937,-0.352,-0.244,-0.824,-0.122,80.000,9064.000,1.000
13.074,11.033,17.268,13.728,15.224,10.593,16.593,12.270,-0.133,0.935,-0.351,-0.092,-0.793,-0.061,80.000,9065.000,1.000
11.519,9.113,15.022,12.182,14.406,10.440,16.646,11.829,-0.133,0.934,-0.352,0.092,-0.732,-0.092,80.000,9066.000,1.000
8.216,5.164,10.896,9.166,11.528,8.621,14.561,9.810,-0.131,0.936,-0.351,0.336,-0.549,-0.153,80.000,9067.000,1.000
4.069,0.356,6.072,5.680,7.488,5.931,11.206,6.939,-0.131,0.938,-0.352,0.549,-0.427,-0.305,80.000,9068.000,1.000
0.372,-3.896,1.828,2.712,3.360,3.299,7.783,4.029,-0.129,0.938,-0.348,0.580,-0.366,-0.305,80.000,9069.000,1.000
-1.820,-6.599,-0.974,0.863,0.002,1.422,5.266,1.644,-0.128,0.939,-0.353,0.519,-0.275,-0.214,80.000,9070.000,1.000
-2.151,-7.458,-2.161,0.250,-2.095,0.682,4.094,0.080,-0.129,0.939,-0.352,0.641,-0.153,-0.336,80.000,9071.000,1.000
-0.982,-6.669,-2.116,0.639,-2.757,1.270,4.253,-0.434,-0.131,0.938,-0.354,0.793,0.153,-0.153,80.000,9072.000,1.000
0.896,-4.612,-1.430,1.666,-2.085,3.187,5.510,0.274,-0.133,0.937,-0.354,0.793,0.275,-0.214,80.000,9073.000,1.000
2.531,-1.799,-0.665,2.953,-0.548,5.983,7.449,2.044,-0.137,0.939,-0.355,0.854,0.275,-0.275,80.000,9074.000,1.000
3.077,1.070,-0.281,4.098,1.033,8.639,9.442,4.233,-0.136,0.941,-0.357,0.916,0.397,-0.397,80.000,9075.000,1.000
2.038,3.110,-0.638,4.608,1.702,9.900,10.714,5.872,-0.137,0.941,-0.356,1.038,0.336,-0.519,80.000,9076.000,1.000
-0.478,3.577,-1.903,4.091,0.817,8.971,10.611,6.144,-0.136,0.942,-0.355,0.946,0.275,-0.671,80.000,9077.000,1.000
-3.661,2.487,-3.775,2.703,-1.470,6.120,9.071,4.983,-0.135,0.943,-0.359,1.038,0.366,-0.671,80.000,9078.000,1.000
-6.362,0.781,-5.480,1.129,-4.249,2.585,6.803,3.188,-0.135,0.943,-0.359,0.977,0.427,-0.763,80.000,9079.000,1.000
-7.699,-0.319,-6.175,0.035,-6.429,-0.135,4.847,1.823,-0.135,0.944,-0.357,0.916,0.366,-0.885,80.000,9080.000,1.000
-7.327,0.038,-5.318,-0.247,-7.230,-0.926,4.049,1.632,-0.136,0.948,-0.356,0.885,0.519,-0.885,80.000,9081.000,1.000
-5.435,2.123,-2.864,0.376,-6.384,0.567,4.818,2.850,-0.137,0.949,-0.358,0.824,0.610,-0.854,80.000,9082.000,1.000
-2.762,5.541,0.625,1.735,-4.250,3.769,6.945,5.086,-0.137,0.951,-0.359,0.671,0.549,-0.885,80.000,9083.000,1.000
-0.412,9.278,4.129,3.271,-1.723,7.403,9.599,7.376,-0.138,0.953,-0.356,0.580,0.519,-0.824,80.000,9084.000,1.000
0.685,12.150,6.620,4.203,0.230,10.107,11.768,8.682,-0.140,0.953,-0.356,0.305,0.488,-0.824,80.000,9085.000,1.000
0.211,13.356,7.480,3.951,1.074,11.045,12.831,8.484,-0.141,0.956,-0.357,0.122,0.610,-0.885,80.000,9086.000,1.000
-1.611,12.661,6.646,2.410,0.795,10.135,12.713,6.910,-0.144,0.956,-0.354,-0.061,0.488,-0.854,80.000,9087.000,1.000
-4.186,10.444,4.607,-0.030,-0.252,7.972,11.749,4.568,-0.145,0.958,-0.355,-0.275,0.336,-0.824,80.000,9088.000,1.000
-6.572,7.709,2.302,-2.584,-1.449,5.583,10.536,2.390,-0.148,0.957,-0.354,-0.610,0.244,-0.793,80.000,9089.000,1.000
-7.867,5.597,0.674,-4.462,-2.172,3.841,9.538,1.225,-0.148,0.958,-0.355,-0.854,0.092,-0.824,80.000,9090.000,1.000
-7.876,4.569,0.066,-5.403,-2.242,2.881,8.648,1.215,-0.149,0.957,-0.354,-1.160,-0.031,-0.824,80.000,9091.000,1.000
-7.225,4.177,0.100,-5.790,-2.040,2.196,7.317,1.690,-0.150,0.957,-0.354,-1.282,-0.183,-0.793,80.000,9092.000,1.000
-6.701,3.660,0.188,-6.120,-2.074,1.287,5.182,1.774,-0.149,0.955,-0.356,-1.556,-0.336,-0.763,80.000,9093.000,1.000
-6.635,2.608,-0.007,-6.506,-2.550,0.078,2.444,1.047,-0.149,0.955,-0.355,-1.740,-0.580,-0.824,80.000,9094.000,1.000
-6.873,1.137,-0.545,-6.664,-3.382,-1.169,-0.272,-0.298,-0.153,0.953,-0.357,-2.014,-0.732,-0.824,80.000,9095.000,1.000
-7.062,-0.351,-1.307,-6.174,-4.311,-2.082,-2.250,-1.672,-0.153,0.952,-0.357,-2.228,-0.793,-0.854,80.000,9096.000,1.000
-6.884,-1.484,-2.014,-4.756,-4.938,-2.332,-3.040,-2.459,-0.153,0.950,-0.353,-2.472,-1.068,-0.824,80.000,9097.000,1.000
-6.288,-2.158,-2.376,-2.622,-4.947,-1.845,-2.775,-2.424,-0.154,0.950,-0.351,-2.625,-1.190,-0.763,80.000,9098.000,1.000
-5.737,-2.647,-2.440,-0.657,-4.474,-0.960,-2.135,-1.882,-0.152,0.948,-0.353,-2.747,-1.434,-0.916,80.000,9099.000,1.000
-6.012,-3.434,-2.707,0.006,-4.108,-0.268,-1.865,-1.415,-0.152,0.950,-0.354,-2.838,-1.648,-0.854,80.000,9100.000,1.000
-7.500,-4.765,-3.695,-1.232,-4.357,-0.169,-2.271,-1.398,-0.152,0.949,-0.354,-2.899,-1.801,-0.854,80.000,9101.000,1.000
-9.717,-6.348,-5.402,-3.993,-5.164,-0.583,-3.042,-1.760,-0.152,0.949,-0.351,-2.991,-1.923,-0.854,80.000,9102.000,1.000
-11.680,-7.588,-7.298,-7.185,-6.053,-1.122,-3.552,-2.149,-0.155,0.947,-0.350,-3.143,-2.136,-0.824,80.000,9103.000,1.000
-12.599,-8.051,-8.725,-9.632,-6.607,-1.383,-3.369,-2.231,-0.154,0.949,-0.350,-3.265,-2.350,-0.763,80.000,9104.000,1.000
-12.224,-7.666,-9.230,-10.615,-6.671,-1.129,-2.548,-1.903,-0.151,0.949,-0.350,-3.296,-2.380,-0.793,80.000,9105.000,1.000
-10.914,-6.806,-8.806,-10.206,-6.397,-0.468,-1.614,-1.379,-0.149,0.948,-0.352,-3.357,-2.502,-0.793,80.000,9106.000,1.000
-9.400,-6.156,-7.893,-9.076,-6.128,0.177,-1.195,-0.988,-0.151,0.945,-0.351,-3.540,-2.563,-0.702,80.000,9107.000,1.000
-8.232,-6.200,-6.929,-7.826,-6.006,0.434,-1.474,-0.810,-0.150,0.945,-0.347,-3.662,-2.563,-0.610,80.000,9108.000,1.000
-7.529,-6.889,-6.055,-6.638,-5.781,0.240,-2.092,-0.675,-0.149,0.945,-0.344,-3.662,-2.716,-0.641,80.000,9109.000,1.000
-7.183,-7.835,-5.222,-5.514,-5.109,-0.240,-2.522,-0.453,-0.151,0.944,-0.344,-3.662,-2.808,-0.641,80.000,9110.000,1.000
-7.094,-8.650,-4.401,-4.533,-3.909,-0.783,-2.438,-0.205,-0.148,0.942,-0.345,-3.540,-2.838,-0.641,80.000,9111.000,1.000
-7.204,-9.114,-3.650,-3.876,-2.476,-1.242,-1.877,-0.118,-0.146,0.942,-0.345,-3.601,-2.899,-0.549,80.000,9112.000,1.000
-7.469,-9.184,-3.064,-3.772,-1.308,-1.631,-1.228,-0.409,-0.148,0.941,-0.346,-3.510,-2.869,-0.427,80.000,9113.000,1.000
-7.847,-8.905,-2.674,-4.381,-0.756,-2.020,-0.960,-1.178,-0.147,0.940,-0.347,-3.418,-2.838,-0.366,80.000,9114.000,1.000
-8.273,-8.238,-2.368,-5.558,-0.715,-2.287,-1.159,-2.164,-0.147,0.943,-0.344,-3.418,-2.777,-0.305,80.000,9115.000,1.000
-8.640,-7.032,-1.955,-6.845,-0.764,-2.133,-1.456,-2.837,-0.147,0.941,-0.346,-3.387,-2.777,-0.397,80.000,9116.000,1.000
-8.872,-5.281,-1.450,-7.818,-0.666,-1.502,-1.537,-2.933,-0.146,0.939,-0.345,-3.387,-2.655,-0.305,80.000,9117.000,1.000
-9.007,-3.389,-1.215,-8.401,-0.641,-0.861,-1.641,-2.771,-0.145,0.942,-0.344,-3.296,-2.563,-0.275,80.000,9118.000,1.000
-9.195,-2.052,-1.692,-8.804,-1.054,-0.797,-2.341,-2.898,-0.146,0.942,-0.344,-3.204,-2.563,-0.214,80.000,9119.000,1.000
-9.460,-1.612,-2.873,-9.131,-1.857,-1.287,-3.756,-3.425,-0.145,0.943,-0.346,-3.113,-2.563,-0.214,80.000,9120.000,1.000
-9.470,-1.610,-4.075,-9.089,-2.457,-1.562,-5.168,-3.815,-0.144,0.943,-0.347,-3.052,-2.380,-0.214,80.000,9121.000,1.000
-8.789,-1.210,-4.402,-8.214,-2.216,-0.763,-5.571,-3.390,-0.145,0.945,-0.344,-3.113,-2.319,-0.214,80.000,9122.000,1.000
-7.323,-0.008,-3.449,-6.419,-1.002,1.321,-4.515,-1.973,-0.146,0.943,-0.345,-3.113,-2.319,-0.244,80.000,9123.000,1.000
-5.348,1.722,-1.572,-4.200,0.775,4.049,-2.384,-0.008,-0.143,0.941,-0.343,-2.960,-2.106,-0.244,80.000,9124.000,1.000
-3.301,3.324,0.375,-2.328,2.426,6.206,-0.112,1.742,-0.144,0.940,-0.343,-2.960,-2.106,-0.305,80.000,9125.000,1.000
-1.690,4.019,1.493,-1.481,3.210,6.548,1.251,2.551,-0.143,0.940,-0.345,-2.991,-1.953,-0.275,80.000,9126.000,1.000
-0.934,3.287,1.321,-1.938,2.663,4.538,1.104,2.095,-0.144,0.943,-0.344,-2.808,-1.831,-0.427,80.000,9127.000,1.000
-1.049,1.322,0.127,-3.312,0.974,0.846,-0.228,0.732,-0.144,0.944,-0.345,-2.686,-1.648,-0.366,80.000,9128.000,1.000
-1.665,-1.108,-1.436,-4.756,-1.147,-3.050,-1.825,-0.775,-0.144,0.946,-0.344,-2.533,-1.587,-0.366,80.000,9129.000,1.000
-2.469,-3.335,-2.995,-5.685,-3.081,-5.920,-3.084,-1.975,-0.147,0.947,-0.346,-2.563,-1.495,-0.366,80.000,9130.000,1.000
-3.411,-5.053,-4.552,-6.048,-4.546,-7.331,-4.038,-2.946,-0.148,0.946,-0.346,-2.533,-1.404,-0.397,80.000,9131.000,1.000
-4.428,-6.050,-6.038,-5.903,-5.299,-7.350,-4.824,-3.789,-0.150,0.945,-0.342,-2.594,-1.282,-0.458,80.000,9132.000,1.000
-5.338,-6.175,-7.184,-5.218,-5.075,-6.268,-5.314,-4.325,-0.147,0.946,-0.341,-2.472,-1.373,-0.549,80.000,9133.000,1.000
-6.037,-5.601,-7.811,-4.089,-3.918,-4.661,-5.370,-4.369,-0.149,0.948,-0.341,-2.441,-1.282,-0.580,80.000,9134.000,1.000
-6.498,-4.777,-7.992,-2.805,-2.352,-3.315,-5.158,-4.041,-0.148,0.947,-0.339,-2.472,-1.190,-0.580,80.000,9135.000,1.000
-6.601,-4.125,-7.908,-1.659,-1.126,-2.896,-5.074,-3.710,-0.149,0.949,-0.342,-2.533,-1.099,-0.488,80.000,9136.000,1.000
-6.198,-3.841,-7.706,-0.821,-0.765,-3.589,-5.376,-3.710,-0.150,0.950,-0.340,-2.594,-1.099,-0.549,80.000,9137.000,1.000
-5.363,-3.875,-7.500,-0.357,-1.282,-4.997,-5.948,-4.152,-0.149,0.950,-0.338,-2.594,-1.068,-0.610,80.000,9138.000,1.000
-4.487,-4.076,-7.424,-0.342,-2.287,-6.423,-6.475,-4.992,-0.151,0.950,-0.338,-2.563,-0.946,-0.549,80.000,9139.000,1.000
-4.059,-4.350,-7.565,-0.916,-3.265,-7.281,-6.724,-6.101,-0.151,0.949,-0.339,-2.563,-0.885,-0.397,80.000,9140.000,1.000
-4.271,-4.635,-7.782,-2.101,-3.723,-7.291,-6.629,-7.154,-0.150,0.951,-0.340,-2.686,-0.854,-0.427,80.000,9141.000,1.000
-4.759,-4.712,-7.659,-3.536,-3.278,-6.389,-6.209,-7.632,-0.151,0.948,-0.340,-2.686,-0.885,-0.366,80.000,9142.000,1.000
-4.819,-4.250,-6.768,-4.538,-1.879,-4.702,-5.483,-7.129,-0.151,0.944,-0.343,-2.594,-0.763,-0.305,80.000,9143.000,1.000
-3.993,-3.226,-5.128,-4.614,-0.024,-2.693,-4.553,-5.751,-0.151,0.942,-0.341,-2.594,-0.793,-0.244,80.000,9144.000,1.000
-2.403,-2.115,-3.296,-3.861,1.408,-1.164,-3.704,-4.130,-0.152,0.943,-0.339,-2.563,-0.824,-0.153,80.000,9145.000,1.000
-0.583,-1.535,-1.945,-2.800,1.666,-0.816,-3.324,-3.052,-0.152,0.941,-0.340,-2.441,-0.793,-0.122,80.000,9146.000,1.000
0.897,-1.747,-1.429,-1.959,0.568,-1.797,-3.651,-3.003,-0.152,0.941,-0.340,-2.167,-0.732,-0.061,80.000,9147.000,1.000
1.763,-2.491,-1.649,-1.582,-1.428,-3.645,-4.532,-3.885,-0.152,0.940,-0.339,-2.136,-0.610,-0.122,80.000,9148.000,1.000
2.146,-3.245,-2.200,-1.571,-3.487,-5.585,-5.491,-5.075,-0.151,0.942,-0.337,-1.892,-0.641,-0.122,80.000,9149.000,1.000
2.368,-3.598,-2.655,-1.637,-4.838,-6.942,-6.106,-5.851,-0.151,0.943,-0.333,-1.770,-0.793,0.000,80.000,9150.000,1.000
2.695,-3.377,-2.774,-1.510,-5.077,-7.347,-6.288,-5.856,-0.153,0.943,-0.336,-1.648,-0.671,-0.031,80.000,9151.000,1.000
3.278,-2.542,-2.499,-1.047,-4.190,-6.710,-6.226,-5.179,-0.154,0.945,-0.333,-1.495,-0.549,-0.031,80.000,9152.000,1.000
4.164,-1.122,-1.842,-0.260,-2.436,-5.129,-6.168,-4.115,-0.151,0.949,-0.332,-1.556,-0.549,0.153,80.000,9153.000,1.000
5.286,0.733,-0.823,0.759,-0.220,-2.881,-6.233,-2.923,-0.152,0.950,-0.333,-1.495,-0.519,0.214,80.000,9154.000,1.000
6.488,2.689,0.508,1.953,1.962,-0.473,-6.341,-1.804,-0.153,0.948,-0.333,-1.495,-0.671,0.275,80.000,9155.000,1.000
7.489,4.215,1.924,3.162,3.516,1.329,-6.376,-1.016,-0.153,0.949,-0.336,-1.526,-0.580,0.366,80.000,9156.000,1.000
7.899,4.817,2.988,3.977,3.928,1.714,-6.396,-0.863,-0.153,0.949,-0.334,-1.587,-0.580,0.458,80.000,9157.000,1.000
7.520,4.489,3.475,4.063,3.211,0.389,-6.513,-1.420,-0.153,0.952,-0.336,-1.648,-0.641,0.458,80.000,9158.000,1.000
6.706,3.864,3.846,3.663,2.155,-1.922,-6.547,-2.257,-0.154,0.953,-0.333,-1.709,-0.641,0.610,80.000,9159.000,1.000
6.249,3.834,4.999,3.501,1.869,-3.728,-6.024,-2.606,-0.155,0.949,-0.335,-1.770,-0.702,0.610,80.000,9160.000,1.000
6.800,5.009,7.410,4.143,2.967,-3.732,-4.579,-1.925,-0.155,0.947,-0.334,-1.709,-0.702,0.641,80.000,9161.000,1.000
8.363,7.400,10.683,5.637,5.227,-1.628,-2.256,-0.250,-0.153,0.946,-0.334,-1.617,-0.793,0.824,80.000,9162.000,1.000
10.321,10.444,13.871,7.604,7.861,1.809,0.541,1.879,-0.156,0.943,-0.336,-1.648,-0.824,0.854,80.000,9163.000,1.000
11.884,13.300,16.046,9.456,10.006,5.244,3.219,3.743,-0.155,0.943,-0.336,-1.434,-0.946,0.885,80.000,9164.000,1.000
12.602,15.273,16.754,10.708,11.175,7.585,5.257,4.848,-0.152,0.940,-0.339,-1.465,-0.885,0.854,80.000,9165.000,1.000
12.520,16.044,16.144,11.189,11.406,8.544,6.407,5.144,-0.153,0.941,-0.339,-1.282,-0.946,0.885,80.000,9166.000,1.000
11.923,15.585,14.703,10.928,10.930,8.442,6.641,4.862,-0.151,0.942,-0.338,-1.129,-0.885,0.824,80.000,9167.000,1.000
11.060,14.033,12.871,10.048,9.840,7.676,6.084,4.289,-0.150,0.939,-0.339,-1.038,-0.977,0.854,80.000,9168.000,1.000
10.124,11.677,10.925,8.857,8.181,6.512,5.086,3.720,-0.148,0.938,-0.337,-0.824,-0.916,0.824,80.000,9169.000,1.000
9.288,8.938,9.042,7.812,6.195,5.180,4.156,3.406,-0.147,0.940,-0.340,-0.641,-0.824,0.824,80.000,9170.000,1.000
8.639,6.241,7.343,7.237,4.320,3.970,3.696,3.439,-0.144,0.941,-0.340,-0.336,-0.702,0.732,80.000,9171.000,1.000
8.127,3.895,5.876,7.108,3.021,3.250,3.806,3.767,-0.143,0.943,-0.339,-0.305,-0.610,0.671,80.000,9172.000,1.000
7.647,2.001,4.599,7.038,2.539,3.254,4.276,4.217,-0.143,0.948,-0.339,-0.214,-0.458,0.763,80.000,9173.000,1.000
7.104,0.360,3.349,6.495,2.680,3.751,4.683,4.486,-0.145,0.949,-0.341,-0.061,-0.336,0.732,80.000,9174.000,1.000
6.431,-1.343,1.936,5.262,2.953,4.156,4.657,4.299,-0.146,0.950,-0.336,-0.092,-0.305,0.671,80.000,9175.000,1.000
5.609,-3.201,0.329,3.720,2.981,4.031,4.154,3.652,-0.145,0.954,-0.334,-0.305,-0.244,0.641,80.000,9176.000,1.000
4.549,-5.115,-1.338,2.469,2.640,3.284,3.336,2.758,-0.147,0.956,-0.336,-0.427,-0.183,0.641,80.000,9177.000,1.000
3.119,-6.966,-2.819,1.789,1.967,2.040,2.360,1.849,-0.146,0.956,-0.341,-0.519,-0.061,0.671,80.000,9178.000,1.000
1.452,-8.447,-3.733,1.647,1.193,0.641,1.494,1.148,-0.146,0.958,-0.340,-0.671,-0.061,0.671,80.000,9179.000,1.000
-0.015,-8.946,-3.702,1.897,0.725,-0.418,1.153,0.878,-0.148,0.956,-0.341,-0.946,0.000,0.763,80.000,9180.000,1.000
-0.867,-7.916,-2.581,2.348,0.937,-0.699,1.707,1.177,-0.146,0.954,-0.340,-1.068,-0.061,0.732,80.000,9181.000,1.000
-0.860,-5.236,-0.430,2.944,2.023,0.063,3.288,2.064,-0.146,0.949,-0.341,-1.129,0.153,0.732,80.000,9182.000,1.000
0.062,-1.314,2.536,3.832,3.854,1.783,5.606,3.352,-0.147,0.946,-0.340,-1.099,0.183,0.763,80.000,9183.000,1.000
1.631,2.965,5.770,5.001,5.821,3.835,7.873,4.563,-0.145,0.941,-0.340,-1.160,0.092,0.763,80.000,9184.000,1.000
3.329,6.615,8.531,6.123,7.100,5.355,9.237,5.228,-0.146,0.939,-0.341,-0.977,0.214,0.763,80.000,9185.000,1.000
4.804,9.082,10.353,6.898,7.259,5.847,9.427,5.328,-0.147,0.938,-0.341,-0.702,0.244,0.854,80.000,9186.000,1.000
6.078,10.377,11.232,7.297,6.504,5.391,8.837,5.243,-0.148,0.935,-0.341,-0.427,0.336,0.885,80.000,9187.000,1.000
7.288,10.777,11.378,7.405,5.356,4.386,8.048,5.294,-0.147,0.937,-0.346,-0.275,0.366,0.854,80.000,9188.000,1.000
8.456,10.577,10.988,7.314,4.297,3.302,7.415,5.492,-0.148,0.935,-0.342,-0.092,0.397,0.885,80.000,9189.000,1.000
9.511,10.072,10.233,7.145,3.671,2.545,7.050,5.664,-0.147,0.938,-0.344,0.092,0.488,0.916,80.000,9190.000,1.000
10.259,9.381,9.140,6.891,3.538,2.220,6.848,5.552,-0.146,0.940,-0.338,0.336,0.427,0.977,80.000,9191.000,1.000
10.350,8.305,7.492,6.298,3.583,2.001,6.493,4.861,-0.146,0.944,-0.340,0.488,0.397,0.916,80.000,9192.000,1.000
9.445,6.483,5.012,5.070,3.340,1.435,5.678,3.491,-0.145,0.944,-0.342,0.610,0.458,0.916,80.000,9193.000,1.000
7.431,3.712,1.643,3.100,2.500,0.382,4.364,1.731,-0.146,0.948,-0.341,0.641,0.488,0.885,80.000,9194.000,1.000
4.542,0.266,-2.267,0.578,1.138,-0.803,2.863,0.196,-0.145,0.950,-0.340,0.610,0.427,0.916,80.000,9195.000,1.000
1.327,-3.110,-5.984,-1.990,-0.269,-1.558,1.705,-0.451,-0.146,0.954,-0.338,0.549,0.519,0.977,80.000,9196.000,1.000
-1.720,-5.838,-8.843,-4.094,-1.302,-1.756,1.133,0.014,-0.147,0.955,-0.338,0.336,0.488,1.007,80.000,9197.000,1.000
-4.535,-8.089,-10.786,-5.638,-2.153,-2.056,0.634,1.021,-0.147,0.956,-0.338,0.092,0.427,1.068,80.000,9198.000,1.000
-7.258,-10.396,-12.188,-6.843,-3.396,-3.232,-0.632,1.587,-0.149,0.955,-0.341,-0.183,0.366,1.099,80.000,9199.000,1.000
-9.677,-12.746,-13.111,-7.752,-5.143,-5.104,-2.784,1.208,-0.148,0.952,-0.340,-0.336,0.214,1.068,80.000,9200.000,1.000
-11.117,-14.339,-13.097,-8.093,-6.766,-6.534,-4.918,0.223,-0.147,0.952,-0.343,-0.427,0.153,1.129,80.000,9201.000,1.000
-10.948,-14.153,-11.710,-7.608,-7.483,-6.500,-5.900,-0.640,-0.147,0.949,-0.344,-0.519,0.092,1.099,80.000,9202.000,1.000
-9.150,-11.698,-9.038,-6.338,-7.033,-4.998,-5.296,-0.882,-0.148,0.946,-0.342,-0.519,0.061,1.160,80.000,9203.000,1.000
-6.487,-7.456,-5.752,-4.697,-5.859,-3.010,-3.630,-0.543,-0.149,0.944,-0.345,-0.580,0.000,1.160,80.000,9204.000,1.000
-4.146,-2.700,-2.808,-3.290,-4.782,-1.753,-1.904,-0.054,-0.146,0.943,-0.345,-0.549,-0.031,1.221,80.000,9205.000,1.000
-3.110,1.202,-0.964,-2.547,-4.424,-1.845,-0.898,0.172,-0.147,0.942,-0.345,-0.305,0.000,1.221,80.000,9206.000,1.000
-3.668,3.492,-0.423,-2.508,-4.778,-2.941,-0.739,0.055,-0.147,0.940,-0.347,-0.275,0.000,1.343,80.000,9207.000,1.000
-5.260,4.367,-0.746,-2.836,-5.139,-4.037,-0.897,-0.095,-0.144,0.939,-0.346,-0.275,-0.153,1.312,80.000,9208.000,1.000
-6.784,4.716,-1.110,-2.997,-4.550,-4.236,-0.618,0.265,-0.145,0.936,-0.346,-0.122,-0.153,1.343,80.000,9209.000,1.000
-7.227,5.384,-0.858,-2.586,-2.559,-3.357,0.515,1.539,-0.144,0.936,-0.347,-0.031,-0.183,1.343,80.000,9210.000,1.000
-6.211,6.507,0.063,-1.614,0.356,-1.886,2.379,3.610,-0.144,0.936,-0.347,0.153,-0.153,1.282,80.000,9211.000,1.000
-4.167,7.400,1.071,-0.580,3.039,-0.495,4.439,5.727,-0.144,0.938,-0.348,0.427,-0.122,1.282,80.000,9212.000,1.000
-2.096,7.050,1.339,-0.227,4.329,0.328,5.961,6.865,-0.143,0.938,-0.351,0.671,-0.061,1.221,80.000,9213.000,1.000
-0.995,4.866,0.339,-1.048,3.666,0.435,6.294,6.375,-0.143,0.940,-0.348,0.793,-0.153,1.251,80.000,9214.000,1.000
-1.357,1.098,-1.861,-2.975,1.286,-0.042,5.156,4.320,-0.143,0.941,-0.344,0.793,-0.153,1.221,80.000,9215.000,1.000
-3.040,-3.387,-4.749,-5.540,-2.027,-0.860,2.736,1.352,-0.143,0.942,-0.344,0.824,-0.122,1.129,80.000,9216.000,1.000
-5.453,-7.606,-7.686,-8.144,-5.289,-1.742,-0.318,-1.587,-0.144,0.942,-0.344,0.854,-0.092,1.129,80.000,9217.000,1.000
-7.835,-10.803,-10.084,-10.162,-7.638,-2.353,-3.034,-3.597,-0.143,0.942,-0.345,0.854,-0.244,1.038,80.000,9218.000,1.000
-9.559,-12.562,-11.512,-11.110,-8.619,-2.428,-4.543,-4.213,-0.142,0.944,-0.347,0.854,-0.153,0.916,80.000,9219.000,1.000
-10.306,-12.862,-11.752,-10.856,-8.311,-1.987,-4.622,-3.657,-0.140,0.944,-0.349,0.916,-0.183,0.885,80.000,9220.000,1.000
-10.018,-12.037,-10.790,-9.600,-7.205,-1.376,-3.835,-2.646,-0.139,0.946,-0.344,0.916,-0.092,0.885,80.000,9221.000,1.000
-8.815,-10.577,-8.829,-7.725,-5.935,-1.058,-3.085,-1.844,-0.140,0.948,-0.349,0.885,-0.061,0.824,80.000,9222.000,1.000
-7.044,-8.877,-6.324,-5.722,-5.015,-1.259,-2.882,-1.477,-0.140,0.949,-0.348,0.824,-0.092,0.763,80.000,9223.000,1.000
-5.248,-7.103,-3.879,-4.074,-4.622,-1.716,-2.967,-1.387,-0.141,0.951,-0.342,0.732,-0.122,0.824,80.000,9224.000,1.000
-3.781,-5.137,-1.863,-2.980,-4.488,-1.878,-2.648,-1.277,-0.141,0.954,-0.346,0.641,-0.122,0.854,80.000,9225.000,1.000
