EEG 1,EEG 2,EEG 3,EEG 4,EEG 5,EEG 6,EEG 7,EEG 8,Accelerometer X,Accelerometer Y,Accelerometer Z,Gyroscope X,Gyroscope Y,Gyroscope Z,Battery Level,Counter,Validation Indicator
-8.915,-10.059,-7.009,-14.081,-9.280,-11.682,-11.592,-7.524,-0.107,0.941,-0.374,-1.190,-0.519,0.366,86.667,9257.000,1.000
-5.324,-8.059,-4.722,-11.473,-7.158,-10.473,-11.065,-6.499,-0.105,0.940,-0.377,-1.129,-0.488,0.427,86.667,9258.000,1.000
-0.852,-3.834,-1.164,-7.041,-3.071,-6.358,-7.496,-3.079,-0.104,0.940,-0.375,-1.129,-0.458,0.336,86.667,9259.000,1.000
2.978,0.699,2.066,-2.508,1.126,-1.363,-2.966,0.973,-0.104,0.939,-0.374,-1.099,-0.397,0.336,86.667,9260.000,1.000
5.052,3.670,3.729,0.674,3.850,2.389,0.530,3.997,-0.105,0.940,-0.376,-0.946,-0.427,0.305,86.667,9261.000,1.000
5.074,4.196,3.484,1.972,4.543,3.682,2.102,5.206,-0.104,0.939,-0.375,-0.977,-0.458,0.397,86.667,9262.000,1.000
3.566,2.633,1.905,1.792,3.705,2.602,2.088,4.791,-0.105,0.938,-0.377,-0.885,-0.366,0.336,86.667,9263.000,1.000
1.734,0.285,0.147,1.121,2.455,0.328,1.563,3.662,-0.104,0.941,-0.377,-0.854,-0.397,0.458,86.667,9264.000,1.000
0.733,-1.502,-0.848,0.870,1.719,-1.777,1.439,2.796,-0.105,0.941,-0.377,-0.763,-0.305,0.397,86.667,9265.000,1.000
0.760,-2.290,-1.029,1.324,1.603,-3.064,1.765,2.517,-0.105,0.944,-0.374,-0.732,-0.336,0.488,86.667,9266.000,1.000
1.122,-2.528,-0.985,2.205,1.616,-3.655,1.929,2.488,-0.106,0.944,-0.375,-0.702,-0.214,0.427,86.667,9267.000,1.000
1.136,-2.752,-1.175,3.136,1.364,-3.803,1.471,2.284,-0.105,0.943,-0.371,-0.732,-0.244,0.427,86.667,9268.000,1.000
0.690,-2.970,-1.620,3.913,0.902,-3.469,0.532,1.781,-0.104,0.945,-0.370,-0.916,-0.244,0.519,86.667,9269.000,1.000
0.025,-2.820,-2.194,4.412,0.509,-2.600,-0.490,1.036,-0.106,0.944,-0.374,-0.916,-0.183,0.488,86.667,9270.000,1.000
-0.698,-2.212,-2.888,4.395,0.256,-1.569,-1.508,0.026,-0.105,0.945,-0.375,-1.007,-0.031,0.549,86.667,9271.000,1.000
-1.357,-1.475,-3.676,3.658,-0.047,-0.978,-2.692,-1.260,-0.104,0.943,-0.377,-0.977,-0.061,0.549,86.667,9272.000,1.000
-1.436,-0.731,-4.076,2.586,-0.307,-0.866,-3.758,-2.347,-0.104,0.941,-0.373,-0.946,0.000,0.671,86.667,9273.000,1.000
-0.084,0.463,-3.169,2.224,0.131,-0.419,-3.732,-2.260,-0.104,0.939,-0.372,-0.885,0.061,0.549,86.667,9274.000,1.000
2.893,2.431,-0.515,3.230,1.676,1.081,-1.979,-0.527,-0.104,0.940,-0.376,-0.824,0.031,0.580,86.667,9275.000,1.000
6.272,4.646,3.051,4.928,3.599,3.167,0.736,1.961,-0.103,0.940,-0.378,-0.763,0.000,0.763,86.667,9276.000,1.000
8.181,6.152,5.888,5.856,4.542,4.557,2.714,3.558,-0.105,0.942,-0.375,-0.671,0.031,0.763,86.667,9277.000,1.000
7.616,6.557,6.821,5.095,3.872,4.504,2.835,3.277,-0.105,0.940,-0.376,-0.793,0.061,0.549,86.667,9278.000,1.000
5.108,6.334,5.907,2.921,2.224,3.471,1.402,1.512,-0.104,0.940,-0.377,-0.793,-0.031,0.610,86.667,9279.000,1.000
2.132,6.231,4.163,0.484,0.881,2.611,-0.283,-0.402,-0.105,0.941,-0.376,-0.793,-0.061,0.519,86.667,9280.000,1.000
0.076,6.646,2.823,-0.949,0.866,2.916,-0.887,-1.118,-0.110,0.940,-0.375,-0.641,-0.061,0.336,86.667,9281.000,1.000
-0.380,7.574,2.681,-0.689,2.441,4.653,0.184,-0.021,-0.109,0.942,-0.373,-0.641,-0.153,0.183,86.667,9282.000,1.000
0.543,8.699,3.695,0.962,4.988,7.167,2.474,2.419,-0.111,0.941,-0.371,-0.702,-0.275,0.031,86.667,9283.000,1.000
1.775,9.422,5.021,2.795,7.267,9.174,4.762,4.869,-0.111,0.942,-0.374,-0.702,-0.427,-0.061,86.667,9284.000,1.000
1.968,9.155,5.579,3.435,8.118,9.553,5.882,5.999,-0.112,0.939,-0.375,-0.763,-0.580,-0.214,86.667,9285.000,1.000
0.497,7.799,4.851,2.360,7.174,8.096,5.486,5.417,-0.114,0.941,-0.376,-0.671,-0.702,-0.336,86.667,9286.000,1.000
-2.008,5.845,3.256,0.346,4.976,5.568,4.105,3.846,-0.112,0.940,-0.377,-0.671,-0.824,-0.397,86.667,9287.000,1.000
-4.265,3.952,1.743,-1.177,2.417,3.030,2.519,2.368,-0.113,0.941,-0.375,-0.641,-0.977,-0.488,86.667,9288.000,1.000
-5.422,2.556,1.029,-1.259,0.150,1.117,1.176,1.562,-0.110,0.941,-0.377,-0.549,-1.038,-0.549,86.667,9289.000,1.000
-5.325,1.976,1.418,0.180,-1.369,0.074,0.399,1.517,-0.110,0.940,-0.377,-0.519,-1.038,-0.580,86.667,9290.000,1.000
-3.989,2.666,3.150,2.893,-1.458,0.328,0.886,2.431,-0.108,0.943,-0.377,-0.519,-1.160,-0.549,86.667,9291.000,1.000
-1.344,4.978,6.374,6.655,0.592,2.443,3.400,4.633,-0.108,0.945,-0.377,-0.427,-1.221,-0.549,86.667,9292.000,1.000
2.308,8.521,10.580,10.935,4.633,6.264,7.772,7.902,-0.109,0.942,-0.377,-0.427,-1.129,-0.519,86.667,9293.000,1.000
5.953,11.987,14.429,14.644,9.243,10.473,12.560,11.149,-0.110,0.945,-0.372,-0.427,-1.160,-0.366,86.667,9294.000,1.000
8.354,13.884,16.476,16.569,12.561,13.333,15.960,13.032,-0.110,0.947,-0.373,-0.458,-1.160,-0.092,86.667,9295.000,1.000
8.854,13.492,16.054,16.075,13.499,13.838,17.006,12.846,-0.109,0.947,-0.374,-0.580,-1.221,0.061,86.667,9296.000,1.000
7.630,11.106,13.475,13.331,12.149,12.144,15.861,10.766,-0.110,0.949,-0.375,-0.549,-1.312,0.061,86.667,9297.000,1.000
5.296,7.543,9.645,8.996,9.316,9.084,13.271,7.483,-0.112,0.948,-0.373,-0.702,-1.373,0.336,86.667,9298.000,1.000
2.457,3.545,5.567,3.844,5.854,5.432,9.948,3.778,-0.112,0.948,-0.372,-0.916,-1.465,0.366,86.667,9299.000,1.000
-0.438,-0.469,1.910,-1.410,2.284,1.538,6.319,0.233,-0.112,0.945,-0.375,-0.916,-1.495,0.488,86.667,9300.000,1.000
-3.049,-4.349,-1.183,-6.186,-1.270,-2.571,2.510,-2.931,-0.113,0.945,-0.373,-0.977,-1.526,0.580,86.667,9301.000,1.000
-5.085,-7.991,-3.888,-10.059,-4.866,-6.792,-1.427,-5.723,-0.111,0.943,-0.371,-1.068,-1.526,0.671,86.667,9302.000,1.000
-6.241,-11.068,-6.236,-12.650,-8.356,-10.563,-5.090,-7.993,-0.110,0.942,-0.371,-1.160,-1.465,0.702,86.667,9303.000,1.000
-6.130,-12.894,-7.826,-13.566,-11.144,-12.833,-7.518,-9.197,-0.109,0.942,-0.370,-1.099,-1.343,0.885,86.667,9304.000,1.000
-4.417,-12.633,-8.047,-12.639,-12.437,-12.553,-7.638,-8.720,-0.107,0.942,-0.371,-1.068,-1.404,0.885,86.667,9305.000,1.000
-1.381,-10.072,-6.785,-10.411,-12.019,-9.593,-5.229,-6.671,-0.106,0.941,-0.371,-1.160,-1.343,0.824,86.667,9306.000,1.000
1.632,-6.360,-5.013,-8.286,-10.834,-5.367,-1.573,-4.333,-0.105,0.941,-0.373,-1.190,-1.312,0.885,86.667,9307.000,1.000
2.858,-3.533,-4.298,-7.775,-10.396,-2.137,1.165,-3.434,-0.104,0.940,-0.375,-1.190,-1.312,0.824,86.667,9308.000,1.000
1.620,-2.924,-5.370,-9.221,-11.381,-1.296,1.485,-4.670,-0.103,0.938,-0.375,-1.129,-1.129,0.885,86.667,9309.000,1.000
-0.994,-4.129,-7.377,-11.339,-12.977,-2.444,-0.478,-7.044,-0.099,0.940,-0.377,-1.007,-1.038,0.793,86.667,9310.000,1.000
-3.123,-5.602,-8.766,-12.228,-13.747,-4.084,-3.395,-8.775,-0.097,0.939,-0.376,-1.007,-0.946,0.732,86.667,9311.000,1.000
-3.630,-5.979,-8.624,-10.858,-12.822,-4.867,-5.800,-8.697,-0.098,0.939,-0.377,-0.885,-0.732,0.793,86.667,9312.000,1.000
-2.681,-4.911,-7.175,-7.699,-10.382,-4.364,-6.888,-6.926,-0.095,0.941,-0.374,-0.916,-0.580,0.763,86.667,9313.000,1.000
-1.464,-3.178,-5.513,-4.362,-7.526,-3.308,-6.983,-4.716,-0.096,0.940,-0.375,-0.946,-0.427,0.702,86.667,9314.000,1.000
-1.350,-2.076,-4.870,-2.572,-5.644,-3.020,-7.264,-3.616,-0.094,0.941,-0.375,-0.885,-0.244,0.580,86.667,9315.000,1.000
-2.726,-2.227,-5.599,-2.888,-5.291,-4.085,-8.551,-4.210,-0.096,0.940,-0.377,-0.824,-0.061,0.610,86.667,9316.000,1.000
-4.481,-2.871,-6.705,-4.205,-5.548,-5.629,-10.359,-5.542,-0.097,0.939,-0.375,-0.763,0.153,0.519,86.667,9317.000,1.000
-4.960,-2.589,-6.672,-4.714,-4.764,-6.113,-11.364,-5.977,-0.100,0.940,-0.374,-0.793,0.214,0.519,86.667,9318.000,1.000
-3.535,-0.785,-4.900,-3.395,-2.016,-4.740,-10.734,-4.654,-0.100,0.941,-0.376,-0.763,0.305,0.397,86.667,9319.000,1.000
-1.135,1.666,-2.280,-0.692,2.114,-2.123,-8.892,-2.171,-0.100,0.941,-0.379,-0.732,0.397,0.275,86.667,9320.000,1.000
0.682,3.247,-0.339,2.016,6.014,0.175,-7.152,-0.043,-0.102,0.941,-0.376,-0.763,0.519,0.122,86.667,9321.000,1.000
1.045,3.153,0.104,3.488,8.245,0.807,-6.645,0.516,-0.104,0.942,-0.374,-0.732,0.580,0.031,86.667,9322.000,1.000
0.289,1.866,-0.529,3.403,8.474,-0.376,-7.443,-0.501,-0.104,0.943,-0.373,-0.732,0.641,0.000,86.667,9323.000,1.000
-0.629,0.530,-1.238,2.273,7.438,-2.359,-8.648,-2.062,-0.106,0.942,-0.378,-0.732,0.641,0.000,86.667,9324.000,1.000
-1.034,-0.027,-1.403,0.819,6.140,-3.878,-9.219,-3.042,-0.107,0.944,-0.378,-0.763,0.702,-0.061,86.667,9325.000,1.000
-0.869,0.292,-1.049,-0.429,5.217,-4.180,-8.569,-2.850,-0.105,0.944,-0.374,-0.732,0.641,-0.061,86.667,9326.000,1.000
-0.433,1.077,-0.467,-1.139,4.838,-3.131,-6.673,-1.454,-0.106,0.944,-0.377,-0.763,0.702,-0.122,86.667,9327.000,1.000
-0.080,1.769,0.057,-1.226,4.776,-1.133,-4.038,0.697,-0.106,0.942,-0.374,-0.793,0.641,-0.092,86.667,9328.000,1.000
-0.106,1.839,0.154,-1.015,4.469,0.913,-1.667,2.664,-0.108,0.942,-0.379,-0.732,0.549,0.000,86.667,9329.000,1.000
-0.713,0.897,-0.612,-1.119,3.313,1.836,-0.703,3.378,-0.109,0.942,-0.375,-0.702,0.549,-0.031,86.667,9330.000,1.000
-1.766,-1.010,-2.255,-1.894,1.290,0.960,-1.595,2.419,-0.110,0.946,-0.373,-0.824,0.458,0.031,86.667,9331.000,1.000
-2.613,-3.131,-4.024,-2.963,-0.741,-1.210,-3.548,0.404,-0.111,0.943,-0.374,-0.793,0.397,0.061,86.667,9332.000,1.000
-2.515,-4.393,-4.866,-3.455,-1.691,-3.366,-5.128,-1.534,-0.111,0.944,-0.377,-0.885,0.336,0.305,86.667,9333.000,1.000
-1.242,-4.173,-4.128,-2.611,-1.042,-4.372,-5.312,-2.494,-0.110,0.942,-0.380,-0.793,0.214,0.336,86.667,9334.000,1.000
0.859,-2.579,-1.779,-0.202,1.000,-3.805,-3.971,-2.175,-0.110,0.943,-0.377,-0.763,0.122,0.336,86.667,9335.000,1.000
2.981,-0.390,1.498,3.195,3.585,-2.195,-1.994,-1.049,-0.110,0.943,-0.379,-0.763,-0.031,0.397,86.667,9336.000,1.000
4.065,1.129,4.345,6.288,5.436,-0.907,-0.934,-0.147,-0.109,0.943,-0.376,-0.793,0.000,0.488,86.667,9337.000,1.000
3.376,0.892,5.432,7.801,5.555,-1.249,-1.961,-0.327,-0.109,0.942,-0.377,-0.732,-0.183,0.549,86.667,9338.000,1.000
0.992,-1.246,4.294,7.272,3.860,-3.530,-5.041,-1.715,-0.111,0.943,-0.378,-0.732,-0.305,0.610,86.667,9339.000,1.000
-2.270,-4.369,1.513,5.229,1.154,-6.925,-9.059,-3.725,-0.110,0.944,-0.377,-0.854,-0.244,0.610,86.667,9340.000,1.000
-5.136,-6.952,-1.554,2.892,-1.242,-9.905,-12.399,-5.323,-0.110,0.942,-0.375,-0.824,-0.366,0.671,86.667,9341.000,1.000
-6.235,-7.558,-3.323,1.661,-1.956,-10.890,-13.575,-5.450,-0.107,0.941,-0.376,-0.824,-0.488,0.641,86.667,9342.000,1.000
-4.829,-5.670,-2.842,2.349,-0.310,-9.154,-12.003,-3.703,-0.108,0.940,-0.374,-0.854,-0.610,0.702,86.667,9343.000,1.000
-1.382,-2.095,-0.392,4.641,3.163,-5.374,-8.404,-0.731,-0.109,0.940,-0.376,-0.824,-0.641,0.732,86.667,9344.000,1.000
2.745,1.604,2.796,7.384,7.018,-1.230,-4.334,2.163,-0.108,0.940,-0.377,-0.702,-0.641,0.641,86.667,9345.000,1.000
5.966,3.914,5.151,9.190,9.530,1.394,-1.457,3.598,-0.107,0.941,-0.373,-0.671,-0.763,0.549,86.667,9346.000,1.000
6.902,3.806,5.219,8.868,9.238,1.084,-1.054,2.521,-0.106,0.941,-0.376,-0.610,-0.793,0.580,86.667,9347.000,1.000
4.958,1.160,2.361,6.013,5.711,-2.301,-3.410,-1.181,-0.105,0.943,-0.375,-0.641,-0.824,0.488,86.667,9348.000,1.000
1.039,-2.796,-2.515,1.622,0.218,-7.080,-7.240,-6.126,-0.104,0.944,-0.376,-0.763,-0.885,0.519,86.667,9349.000,1.000
-2.707,-5.876,-7.176,-2.236,-4.698,-10.428,-10.126,-9.845,-0.104,0.942,-0.372,-0.702,-0.916,0.488,86.667,9350.000,1.000
-4.530,-6.523,-9.653,-3.988,-6.969,-10.332,-10.243,-10.461,-0.105,0.940,-0.377,-0.732,-0.854,0.305,86.667,9351.000,1.000
-4.507,-5.098,-9.765,-3.855,-6.542,-7.158,-7.816,-8.221,-0.104,0.941,-0.377,-0.702,-0.977,0.366,86.667,9352.000,1.000
-4.055,-3.270,-8.884,-3.358,-5.031,-3.111,-4.614,-5.181,-0.107,0.942,-0.377,-0.641,-0.916,0.305,86.667,9353.000,1.000
-4.379,-2.385,-8.444,-3.791,-4.106,-0.338,-2.225,-3.436,-0.105,0.941,-0.376,-0.702,-0.916,0.214,86.667,9354.000,1.000
-5.510,-2.514,-8.776,-5.215,-4.254,0.535,-0.922,-3.656,-0.104,0.940,-0.375,-0.763,-0.885,0.153,86.667,9355.000,1.000
-6.336,-2.580,-8.910,-6.443,-4.578,0.557,0.242,-4.830,-0.105,0.941,-0.374,-0.793,-0.854,0.122,86.667,9356.000,1.000
-5.472,-1.262,-7.403,-5.889,-3.634,1.291,2.429,-5.219,-0.105,0.940,-0.374,-0.702,-0.885,0.183,86.667,9357.000,1.000
-2.392,1.887,-3.615,-2.756,-0.754,3.334,5.899,-3.737,-0.107,0.938,-0.375,-0.854,-0.824,0.214,86.667,9358.000,1.000
2.177,6.058,1.770,2.364,3.365,5.967,9.753,-0.653,-0.109,0.940,-0.375,-0.824,-0.793,0.092,86.667,9359.000,1.000
6.775,9.748,7.251,7.865,7.202,7.980,12.641,2.821,-0.108,0.939,-0.379,-0.732,-0.824,0.153,86.667,9360.000,1.000
9.951,11.596,11.268,12.000,9.353,8.557,13.676,5.402,-0.108,0.940,-0.379,-0.580,-0.854,0.031,86.667,9361.000,1.000
10.825,10.996,12.783,13.701,9.181,7.614,12.907,6.406,-0.103,0.941,-0.378,-0.610,-0.885,0.031,86.667,9362.000,1.000
9.366,8.315,11.618,12.905,6.948,5.623,11.100,5.928,-0.103,0.940,-0.373,-0.610,-0.977,0.153,86.667,9363.000,1.000
6.239,4.555,8.351,10.248,3.448,3.157,9.064,4.497,-0.102,0.939,-0.377,-0.549,-0.946,0.122,86.667,9364.000,1.000
2.394,0.733,3.956,6.590,-0.433,0.651,7.148,2.591,-0.103,0.938,-0.380,-0.641,-0.793,0.183,86.667,9365.000,1.000
-1.276,-2.469,-0.440,2.732,-3.918,-1.476,5.317,0.498,-0.104,0.938,-0.374,-0.580,-0.763,0.183,86.667,9366.000,1.000
-4.174,-4.711,-3.815,-0.718,-6.462,-2.744,3.558,-1.524,-0.106,0.939,-0.377,-0.610,-0.763,0.153,86.667,9367.000,1.000
-6.090,-5.935,-5.558,-3.391,-7.809,-2.777,2.128,-3.104,-0.110,0.939,-0.377,-0.580,-0.702,0.214,86.667,9368.000,1.000
-7.068,-6.283,-5.599,-5.061,-7.939,-1.512,1.443,-3.820,-0.111,0.940,-0.379,-0.488,-0.671,0.061,86.667,9369.000,1.000
-7.244,-5.996,-4.389,-5.625,-7.088,0.630,1.670,-3.481,-0.110,0.939,-0.377,-0.427,-0.885,-0.092,86.667,9370.000,1.000
-6.821,-5.331,-2.743,-5.247,-5.777,2.826,2.484,-2.350,-0.109,0.942,-0.374,-0.549,-0.946,-0.214,86.667,9371.000,1.000
-6.036,-4.541,-1.459,-4.418,-4.624,4.299,3.288,-1.023,-0.111,0.940,-0.376,-0.549,-0.946,-0.275,86.667,9372.000,1.000
-5.058,-3.867,-0.891,-3.660,-4.016,4.730,3.701,-0.011,-0.109,0.942,-0.376,-0.427,-1.007,-0.275,86.667,9373.000,1.000
-3.853,-3.349,-0.775,-3.104,-3.870,4.403,3.916,0.616,-0.107,0.943,-0.375,-0.549,-0.946,-0.305,86.667,9374.000,1.000
-2.295,-2.688,-0.501,-2.404,-3.763,4.017,4.608,1.251,-0.107,0.944,-0.378,-0.580,-0.946,-0.275,86.667,9375.000,1.000
-0.532,-1.524,0.334,-1.199,-3.383,4.218,6.369,2.385,-0.109,0.945,-0.377,-0.519,-0.824,-0.275,86.667,9376.000,1.000
0.951,0.213,1.678,0.464,-2.728,5.225,9.234,4.209,-0.107,0.945,-0.378,-0.610,-0.793,-0.397,86.667,9377.000,1.000
1.726,2.279,3.222,2.159,-1.904,6.835,12.569,6.445,-0.106,0.946,-0.376,-0.641,-0.763,-0.305,86.667,9378.000,1.000
1.672,4.138,4.525,3.310,-1.067,8.470,15.225,8.403,-0.105,0.947,-0.378,-0.732,-0.793,-0.214,86.667,9379.000,1.000
0.934,5.087,5.108,3.473,-0.448,9.309,16.061,9.310,-0.106,0.948,-0.379,-0.702,-0.793,-0.153,86.667,9380.000,1.000
-0.040,4.736,4.880,2.772,-0.063,8.859,14.750,8.892,-0.107,0.948,-0.376,-0.793,-0.854,-0.061,86.667,9381.000,1.000
-0.455,3.400,4.413,1.999,0.487,7.488,12.037,7.636,-0.108,0.946,-0.379,-0.916,-0.732,0.000,86.667,9382.000,1.000
0.426,1.824,4.488,1.978,1.586,6.051,9.053,6.354,-0.108,0.945,-0.381,-0.854,-0.671,0.000,86.667,9383.000,1.000
2.626,0.518,5.321,2.790,2.988,5.013,6.441,5.490,-0.110,0.945,-0.379,-0.916,-0.549,0.092,86.667,9384.000,1.000
5.304,-0.570,6.322,3.696,3.818,4.161,4.174,4.853,-0.108,0.944,-0.378,-1.007,-0.488,0.183,86.667,9385.000,1.000
7.223,-1.855,6.524,3.741,3.186,3.071,2.025,3.910,-0.110,0.942,-0.378,-1.038,-0.488,0.153,86.667,9386.000,1.000
7.501,-3.674,5.323,2.461,0.838,1.662,0.071,2.313,-0.111,0.942,-0.380,-1.038,-0.458,0.275,86.667,9387.000,1.000
6.133,-5.872,2.932,0.190,-2.654,0.300,-1.324,0.215,-0.111,0.943,-0.378,-1.007,-0.458,0.244,86.667,9388.000,1.000
3.881,-7.830,0.213,-2.221,-6.254,-0.612,-1.938,-1.877,-0.108,0.945,-0.378,-0.946,-0.336,0.366,86.667,9389.000,1.000
1.676,-8.925,-1.928,-4.016,-9.040,-1.052,-1.967,-3.514,-0.107,0.945,-0.380,-1.007,-0.397,0.366,86.667,9390.000,1.000
0.092,-8.994,-3.104,-5.028,-10.599,-1.371,-1.914,-4.582,-0.105,0.946,-0.378,-1.129,-0.214,0.366,86.667,9391.000,1.000
-0.845,-8.498,-3.663,-5.722,-11.144,-2.042,-2.339,-5.285,-0.106,0.943,-0.375,-1.160,-0.183,0.397,86.667,9392.000,1.000
-1.533,-8.265,-4.362,-6.744,-11.307,-3.373,-3.583,-5.907,-0.106,0.944,-0.378,-1.129,-0.153,0.519,86.667,9393.000,1.000
-2.304,-8.710,-5.606,-8.296,-11.559,-5.133,-5.465,-6.470,-0.105,0.944,-0.378,-1.221,-0.031,0.458,86.667,9394.000,1.000
-2.997,-9.281,-6.944,-9.832,-11.727,-6.439,-7.219,-6.571,-0.106,0.946,-0.376,-1.221,-0.031,0.549,86.667,9395.000,1.000
-3.064,-8.882,-7.377,-10.346,-11.130,-6.280,-7.895,-5.619,-0.106,0.944,-0.376,-1.190,0.061,0.580,86.667,9396.000,1.000
-2.041,-6.655,-6.090,-8.984,-9.112,-4.177,-6.855,-3.256,-0.106,0.943,-0.378,-1.251,0.031,0.488,86.667,9397.000,1.000
-0.045,-2.465,-3.063,-5.676,-5.593,-0.467,-4.121,0.321,-0.105,0.942,-0.380,-1.221,0.122,0.580,86.667,9398.000,1.000
2.107,2.882,0.790,-1.353,-1.311,3.779,-0.485,4.257,-0.105,0.942,-0.375,-1.190,0.153,0.488,86.667,9399.000,1.000
3.496,8.007,4.185,2.550,2.575,7.261,2.889,7.426,-0.106,0.940,-0.378,-1.221,0.275,0.610,86.667,9400.000,1.000
3.839,11.815,6.292,4.929,5.244,9.116,5.135,9.102,-0.105,0.939,-0.375,-1.251,0.305,0.610,86.667,9401.000,1.000
3.533,13.961,7.047,5.525,6.592,9.250,6.020,9.265,-0.106,0.939,-0.379,-1.129,0.244,0.580,86.667,9402.000,1.000
3.155,14.629,6.878,4.898,7.031,8.220,5.814,8.406,-0.107,0.938,-0.375,-1.190,0.153,0.549,86.667,9403.000,1.000
3.103,14.178,6.330,4.008,7.088,6.859,5.058,7.217,-0.107,0.940,-0.375,-1.251,0.153,0.549,86.667,9404.000,1.000
3.464,12.957,5.758,3.612,7.059,5.810,4.281,6.288,-0.107,0.940,-0.375,-1.312,0.153,0.427,86.667,9405.000,1.000
4.032,11.185,5.173,3.836,6.858,5.170,3.671,5.804,-0.109,0.938,-0.374,-1.312,0.244,0.519,86.667,9406.000,1.000
4.513,9.054,4.398,4.265,6.206,4.526,3.027,5.508,-0.107,0.938,-0.375,-1.312,0.153,0.427,86.667,9407.000,1.000
4.693,6.813,3.330,4.353,4.968,3.363,2.086,4.973,-0.109,0.937,-0.377,-1.129,-0.031,0.427,86.667,9408.000,1.000
4.385,4.596,2.005,3.731,3.299,1.500,0.831,3.884,-0.109,0.938,-0.375,-1.160,-0.031,0.366,86.667,9409.000,1.000
3.565,2.424,0.652,2.433,1.638,-0.680,-0.404,2.247,-0.108,0.938,-0.373,-1.099,-0.031,0.336,86.667,9410.000,1.000
2.598,0.479,-0.299,0.993,0.569,-2.392,-1.062,0.486,-0.110,0.937,-0.377,-0.946,-0.153,0.244,86.667,9411.000,1.000
1.946,-0.942,-0.570,0.043,0.389,-3.035,-0.793,-0.872,-0.113,0.938,-0.377,-1.007,-0.153,0.244,86.667,9412.000,1.000
1.656,-1.777,-0.395,-0.276,0.762,-2.656,0.208,-1.682,-0.114,0.941,-0.375,-0.946,-0.244,0.183,86.667,9413.000,1.000
1.310,-2.321,-0.409,-0.442,0.951,-1.858,1.338,-2.256,-0.111,0.942,-0.376,-1.007,-0.458,0.183,86.667,9414.000,1.000
0.327,-3.075,-1.286,-1.205,0.317,-1.417,1.863,-3.088,-0.111,0.944,-0.373,-1.068,-0.610,0.122,86.667,9415.000,1.000
-1.679,-4.522,-3.402,-3.090,-1.396,-1.952,1.101,-4.549,-0.112,0.943,-0.375,-0.977,-0.671,0.122,86.667,9416.000,1.000
-4.474,-6.655,-6.420,-5.901,-3.881,-3.529,-1.110,-6.520,-0.110,0.943,-0.370,-1.068,-0.824,0.153,86.667,9417.000,1.000
-6.906,-8.448,-9.026,-8.472,-6.069,-5.270,-3.809,-8.065,-0.113,0.943,-0.374,-1.068,-0.946,0.153,86.667,9418.000,1.000
-7.440,-8.298,-9.529,-9.192,-6.512,-5.709,-5.261,-7.838,-0.113,0.943,-0.373,-1.099,-1.007,0.183,86.667,9419.000,1.000
-5.397,-5.444,-7.167,-7.187,-4.469,-3.967,-4.365,-5.201,-0.113,0.943,-0.374,-1.068,-1.068,0.214,86.667,9420.000,1.000
-1.675,-0.813,-2.825,-3.106,-0.645,-0.619,-1.648,-0.956,-0.112,0.943,-0.374,-1.068,-1.251,0.275,86.667,9421.000,1.000
1.817,3.559,1.516,1.217,3.227,2.582,1.083,3.042,-0.111,0.941,-0.375,-1.038,-1.312,0.336,86.667,9422.000,1.000
3.465,5.895,4.104,3.974,5.609,3.920,2.061,5.084,-0.110,0.941,-0.373,-1.007,-1.373,0.366,86.667,9423.000,1.000
3.021,5.767,4.537,4.538,6.140,2.925,0.827,4.693,-0.109,0.942,-0.373,-1.099,-1.434,0.366,86.667,9424.000,1.000
1.616,4.169,3.807,3.636,5.637,0.592,-1.563,2.744,-0.111,0.943,-0.374,-1.099,-1.495,0.427,86.667,9425.000,1.000
0.766,2.608,3.318,2.521,5.240,-1.496,-3.472,0.654,-0.111,0.944,-0.369,-1.190,-1.526,0.427,86.667,9426.000,1.000
1.272,2.060,3.827,2.009,5.543,-2.257,-3.871,-0.531,-0.110,0.942,-0.372,-1.129,-1.556,0.366,86.667,9427.000,1.000
2.841,2.544,5.069,2.099,6.333,-1.590,-2.870,-0.540,-0.111,0.940,-0.375,-1.099,-1.617,0.458,86.667,9428.000,1.000
4.460,3.393,6.158,2.288,6.944,-0.153,-1.368,0.256,-0.111,0.939,-0.377,-1.007,-1.587,0.458,86.667,9429.000,1.000
5.181,3.876,6.342,2.237,6.927,1.256,-0.213,1.302,-0.109,0.939,-0.377,-0.854,-1.678,0.488,86.667,9430.000,1.000
4.721,3.637,5.550,2.099,6.410,2.169,0.322,2.238,-0.108,0.941,-0.373,-0.824,-1.770,0.519,86.667,9431.000,1.000
3.441,2.796,4.291,2.198,5.867,2.504,0.418,2.940,-0.108,0.942,-0.373,-0.702,-1.709,0.458,86.667,9432.000,1.000
1.930,1.811,3.122,2.562,5.661,2.383,0.320,3.376,-0.108,0.943,-0.371,-0.763,-1.648,0.488,86.667,9433.000,1.000
0.631,1.108,2.201,2.817,5.771,1.946,0.091,3.490,-0.107,0.944,-0.374,-0.824,-1.770,0.580,86.667,9434.000,1.000
-0.335,0.696,1.289,2.421,5.768,1.246,-0.410,3.160,-0.107,0.942,-0.375,-0.702,-1.801,0.549,86.667,9435.000,1.000
-1.094,0.208,0.137,1.110,5.080,0.299,-1.298,2.309,-0.109,0.942,-0.376,-0.732,-1.831,0.671,86.667,9436.000,1.000
-1.766,-0.661,-1.191,-0.789,3.460,-0.813,-2.389,1.101,-0.111,0.942,-0.376,-0.641,-1.831,0.732,86.667,9437.000,1.000
-2.323,-1.872,-2.342,-2.595,1.231,-1.928,-3.260,-0.089,-0.107,0.943,-0.376,-0.671,-1.770,0.824,86.667,9438.000,1.000
-2.806,-3.183,-3.034,-3.913,-0.987,-2.967,-3.672,-1.042,-0.105,0.944,-0.376,-0.671,-1.862,0.763,86.667,9439.000,1.000
-3.557,-4.360,-3.426,-4.933,-2.776,-4.037,-3.813,-1.939,-0.105,0.943,-0.370,-0.671,-1.740,0.763,86.667,9440.000,1.000
-4.971,-5.176,-3.979,-6.028,-4.056,-5.248,-4.054,-3.052,-0.103,0.944,-0.372,-0.732,-1.740,0.854,86.667,9441.000,1.000
-6.932,-5.446,-4.892,-7.165,-4.838,-6.554,-4.590,-4.281,-0.101,0.940,-0.372,-0.793,-1.617,0.793,86.667,9442.000,1.000
-8.493,-5.030,-5.664,-7.642,-4.909,-7.647,-5.163,-4.987,-0.096,0.937,-0.375,-0.763,-1.373,0.610,86.667,9443.000,1.000
-8.294,-3.774,-5.342,-6.505,-3.873,-7.940,-5.078,-4.329,-0.097,0.935,-0.378,-0.641,-1.129,0.641,86.667,9444.000,1.000
-5.746,-1.874,-3.556,-3.563,-1.804,-7.169,-3.943,-2.182,-0.099,0.932,-0.377,-0.519,-1.038,0.610,86.667,9445.000,1.000
-1.725,-0.173,-1.126,0.156,0.402,-5.898,-2.272,0.417,-0.097,0.930,-0.379,-0.336,-0.854,0.549,86.667,9446.000,1.000
2.330,0.627,0.856,3.394,1.924,-4.782,-0.759,2.247,-0.096,0.932,-0.375,-0.122,-0.641,0.397,86.667,9447.000,1.000
5.880,1.049,2.383,5.923,3.078,-3.586,0.743,3.197,-0.096,0.936,-0.377,0.000,-0.458,0.275,86.667,9448.000,1.000
9.446,2.507,4.442,8.465,4.939,-1.530,2.956,4.180,-0.098,0.938,-0.379,0.122,-0.183,0.153,86.667,9449.000,1.000
13.467,5.868,7.735,11.529,8.081,1.636,6.130,5.999,-0.100,0.942,-0.376,0.153,-0.031,0.000,86.667,9450.000,1.000
17.436,10.618,11.848,14.685,11.994,5.292,9.679,8.597,-0.100,0.942,-0.375,0.122,0.153,-0.153,86.667,9451.000,1.000
20.102,15.122,15.446,16.784,15.417,8.355,12.495,11.063,-0.101,0.946,-0.373,0.061,0.427,-0.244,86.667,9452.000,1.000
20.220,17.471,17.008,16.654,16.985,9.755,13.383,12.101,-0.102,0.945,-0.375,-0.061,0.488,-0.397,86.667,9453.000,1.000
17.315,16.528,15.677,13.818,15.912,8.909,11.676,10.819,-0.103,0.944,-0.375,-0.061,0.610,-0.336,86.667,9454.000,1.000
12.145,12.733,11.853,8.935,12.492,6.193,7.856,7.465,-0.104,0.945,-0.375,-0.092,0.610,-0.244,86.667,9455.000,1.000
6.533,7.929,7.116,3.597,8.044,2.919,3.467,3.425,-0.105,0.946,-0.374,-0.214,0.641,-0.244,86.667,9456.000,1.000
2.405,4.176,3.304,-0.553,4.115,0.598,0.167,0.342,-0.107,0.944,-0.374,-0.397,0.732,-0.183,86.667,9457.000,1.000
0.587,2.502,1.346,-2.764,1.518,0.018,-1.284,-0.937,-0.108,0.944,-0.379,-0.397,0.824,-0.183,86.667,9458.000,1.000
0.390,2.463,0.852,-3.424,0.001,0.822,-1.280,-0.755,-0.107,0.942,-0.378,-0.427,0.763,-0.244,86.667,9459.000,1.000
0.331,2.738,0.739,-3.528,-1.231,1.917,-0.834,-0.176,-0.108,0.944,-0.379,-0.397,0.763,-0.183,86.667,9460.000,1.000
-0.701,2.243,0.168,-3.904,-2.749,2.330,-0.803,-0.127,-0.107,0.945,-0.380,-0.397,0.732,-0.092,86.667,9461.000,1.000
-2.885,0.775,-1.102,-4.785,-4.608,1.703,-1.503,-0.893,-0.107,0.943,-0.376,-0.397,0.702,-0.122,86.667,9462.000,1.000
-5.827,-1.254,-3.031,-5.984,-6.637,0.166,-2.831,-2.243,-0.109,0.943,-0.376,-0.366,0.641,-0.092,86.667,9463.000,1.000
-9.141,-3.436,-5.610,-7.290,-8.728,-1.983,-4.501,-3.797,-0.110,0.943,-0.374,-0.458,0.671,-0.153,86.667,9464.000,1.000
-12.499,-5.541,-8.695,-8.512,-10.731,-4.322,-6.105,-5.199,-0.110,0.942,-0.377,-0.458,0.580,-0.031,86.667,9465.000,1.000
-15.347,-7.351,-11.737,-9.346,-12.258,-6.224,-7.151,-6.166,-0.109,0.944,-0.376,-0.427,0.458,-0.031,86.667,9466.000,1.000
-17.017,-8.647,-13.985,-9.525,-12.876,-7.130,-7.305,-6.586,-0.112,0.944,-0.379,-0.519,0.427,0.061,86.667,9467.000,1.000
-17.204,-9.357,-14.986,-9.099,-12.548,-7.054,-6.712,-6.633,-0.112,0.945,-0.377,-0.519,0.397,0.000,86.667,9468.000,1.000
-16.213,-9.665,-14.848,-8.421,-11.732,-6.612,-5.933,-6.658,-0.112,0.943,-0.377,-0.580,0.305,0.214,86.667,9469.000,1.000
-14.701,-9.889,-14.048,-7.839,-10.979,-6.462,-5.450,-6.864,-0.113,0.942,-0.380,-0.580,0.275,0.183,86.667,9470.000,1.000
-13.274,-10.202,-13.106,-7.520,-10.529,-6.827,-5.314,-7.178,-0.112,0.942,-0.379,-0.641,0.244,0.214,86.667,9471.000,1.000
-12.143,-10.360,-12.246,-7.356,-10.141,-7.350,-5.153,-7.352,-0.113,0.945,-0.377,-0.641,0.031,0.366,86.667,9472.000,1.000
-10.837,-9.674,-11.094,-6.845,-9.106,-7.150,-4.321,-6.968,-0.111,0.946,-0.376,-0.702,-0.092,0.366,86.667,9473.000,1.000
-8.585,-7.599,-8.995,-5.412,-6.790,-5.457,-2.389,-5.684,-0.110,0.947,-0.377,-0.732,-0.183,0.366,86.667,9474.000,1.000
-5.209,-4.402,-5.846,-3.086,-3.408,-2.496,0.258,-3.706,-0.111,0.947,-0.375,-0.824,-0.153,0.366,86.667,9475.000,1.000
-1.414,-1.057,-2.344,-0.538,0.018,0.559,2.582,-1.759,-0.112,0.946,-0.379,-0.824,-0.244,0.549,86.667,9476.000,1.000
1.672,1.379,0.494,1.403,2.397,2.518,3.646,-0.599,-0.112,0.943,-0.374,-0.824,-0.397,0.519,86.667,9477.000,1.000
3.016,2.172,1.844,2.066,3.130,2.844,3.096,-0.716,-0.112,0.945,-0.376,-0.916,-0.488,0.580,86.667,9478.000,1.000
2.131,1.153,1.437,1.152,2.232,1.693,1.196,-2.206,-0.111,0.945,-0.375,-1.007,-0.580,0.549,86.667,9479.000,1.000
-0.458,-1.059,-0.169,-1.011,0.318,-0.225,-1.311,-4.612,-0.110,0.944,-0.377,-1.068,-0.641,0.580,86.667,9480.000,1.000
-3.301,-3.253,-1.769,-3.467,-1.624,-1.924,-3.445,-6.953,-0.111,0.944,-0.375,-1.160,-0.702,0.610,86.667,9481.000,1.000
-5.074,-4.498,-2.412,-5.225,-2.840,-2.774,-4.508,-8.296,-0.108,0.945,-0.375,-1.099,-0.732,0.519,86.667,9482.000,1.000
-5.632,-4.970,-2.245,-5.992,-3.437,-3.062,-4.642,-8.517,-0.108,0.945,-0.377,-1.251,-0.916,0.488,86.667,9483.000,1.000
-5.632,-5.510,-2.129,-6.079,-4.051,-3.562,-4.581,-8.170,-0.107,0.946,-0.378,-1.221,-0.854,0.549,86.667,9484.000,1.000
-5.210,-6.185,-2.274,-5.509,-4.671,-4.366,-4.542,-7.442,-0.109,0.944,-0.378,-1.221,-0.854,0.610,86.667,9485.000,1.000
-3.639,-5.812,-1.757,-3.716,-4.272,-4.519,-3.789,-5.725,-0.107,0.945,-0.380,-1.343,-0.916,0.519,86.667,9486.000,1.000
-0.549,-3.383,0.232,-0.514,-2.102,-3.200,-1.742,-2.684,-0.105,0.942,-0.379,-1.434,-1.007,0.549,86.667,9487.000,1.000
3.051,0.441,3.095,3.041,1.058,-0.897,0.873,0.732,-0.107,0.940,-0.379,-1.343,-0.977,0.580,86.667,9488.000,1.000
5.374,3.740,5.245,5.279,3.384,1.014,2.519,2.882,-0.106,0.937,-0.378,-1.312,-1.007,0.580,86.667,9489.000,1.000
5.242,4.943,5.481,5.267,3.523,1.520,2.208,2.795,-0.106,0.938,-0.380,-1.343,-0.977,0.458,86.667,9490.000,1.000
2.877,3.869,3.836,3.479,1.547,0.658,0.289,0.917,-0.107,0.938,-0.379,-1.373,-0.946,0.336,86.667,9491.000,1.000
-0.181,1.740,1.570,1.520,-1.043,-0.485,-1.656,-1.110,-0.107,0.939,-0.378,-1.282,-1.038,0.336,86.667,9492.000,1.000
-1.851,0.429,0.459,1.238,-2.151,-0.365,-1.729,-1.376,-0.106,0.938,-0.377,-1.190,-1.068,0.366,86.667,9493.000,1.000
-0.811,1.249,1.617,3.548,-0.478,1.935,0.861,1.021,-0.108,0.940,-0.377,-1.160,-1.038,0.427,86.667,9494.000,1.000
2.499,4.005,4.605,7.656,3.499,5.907,5.053,5.248,-0.105,0.940,-0.377,-1.160,-1.190,0.305,86.667,9495.000,1.000
6.155,7.116,7.766,11.474,7.848,9.898,8.646,9.239,-0.107,0.940,-0.376,-1.068,-1.190,0.366,86.667,9496.000,1.000
8.093,8.700,9.440,12.994,10.441,12.130,9.758,11.038,-0.108,0.940,-0.377,-1.099,-1.190,0.275,86.667,9497.000,1.000
7.352,7.790,8.903,11.467,10.157,11.662,7.845,9.930,-0.107,0.942,-0.376,-1.068,-1.129,0.275,86.667,9498.000,1.000
4.477,4.938,6.590,7.708,7.417,8.912,3.890,6.741,-0.104,0.944,-0.378,-1.038,-1.129,0.305,86.667,9499.000,1.000
0.947,1.756,3.690,3.443,3.772,5.352,-0.269,3.179,-0.106,0.945,-0.375,-1.129,-1.190,0.275,86.667,9500.000,1.000
-1.911,-0.367,1.285,0.157,0.755,2.449,-3.084,0.636,-0.105,0.945,-0.374,-1.221,-1.099,0.214,86.667,9501.000,1.000
-3.536,-1.088,-0.240,-1.624,-0.925,0.892,-3.953,-0.495,-0.105,0.947,-0.375,-1.251,-1.007,0.214,86.667,9502.000,1.000
-3.936,-0.831,-1.004,-2.179,-1.305,0.678,-3.094,-0.527,-0.105,0.944,-0.377,-1.190,-1.068,0.214,86.667,9503.000,1.000
-3.365,-0.145,-1.240,-2.106,-0.785,1.445,-1.218,0.044,-0.104,0.943,-0.376,-1.160,-1.129,0.275,86.667,9504.000,1.000
-2.295,0.564,-1.275,-1.970,0.045,2.535,0.677,0.691,-0.105,0.944,-0.373,-1.251,-1.068,0.244,86.667,9505.000,1.000
-1.352,0.999,-1.583,-2.145,0.528,3.121,1.600,0.919,-0.106,0.943,-0.376,-1.251,-1.099,0.244,86.667,9506.000,1.000
-0.932,1.010,-2.472,-2.695,0.258,2.707,1.121,0.543,-0.107,0.942,-0.377,-1.343,-0.946,0.305,86.667,9507.000,1.000
-0.860,0.756,-3.659,-3.257,-0.564,1.619,-0.225,-0.067,-0.108,0.944,-0.375,-1.282,-1.038,0.275,86.667,9508.000,1.000
-0.571,0.659,-4.327,-3.178,-1.182,0.838,-1.238,-0.155,-0.107,0.944,-0.377,-1.404,-0.946,0.305,86.667,9509.000,1.000
0.365,1.037,-3.730,-1.996,-0.835,1.217,-0.928,0.816,-0.106,0.944,-0.378,-1.404,-0.793,0.336,86.667,9510.000,1.000
1.834,1.758,-1.885,0.006,0.557,2.738,0.689,2.625,-0.104,0.941,-0.379,-1.404,-0.793,0.244,86.667,9511.000,1.000
3.138,2.244,0.237,1.750,2.161,4.400,2.483,4.272,-0.104,0.941,-0.378,-1.373,-0.793,0.183,86.667,9512.000,1.000
3.384,1.806,1.295,2.032,2.733,4.905,3.003,4.580,-0.107,0.940,-0.377,-1.282,-0.824,0.275,86.667,9513.000,1.000
2.154,0.057,0.498,0.351,1.490,3.555,1.532,2.939,-0.107,0.941,-0.375,-1.282,-0.732,0.214,86.667,9514.000,1.000
0.096,-2.662,-1.702,-2.596,-1.161,0.815,-1.308,-0.167,-0.109,0.940,-0.371,-1.312,-0.702,0.244,86.667,9515.000,1.000
-1.066,-4.999,-3.574,-4.992,-3.486,-1.662,-3.681,-3.044,-0.108,0.941,-0.372,-1.312,-0.610,0.214,86.667,9516.000,1.000
0.452,-5.163,-3.101,-4.881,-3.393,-1.926,-3.597,-3.647,-0.108,0.942,-0.375,-1.312,-0.732,0.183,86.667,9517.000,1.000
4.969,-2.398,0.434,-1.638,-0.103,0.702,-0.468,-1.145,-0.108,0.943,-0.375,-1.282,-0.671,0.244,86.667,9518.000,1.000
10.838,2.145,5.729,3.456,5.068,4.891,4.325,3.356,-0.109,0.945,-0.375,-1.312,-0.732,0.244,86.667,9519.000,1.000
15.550,6.230,10.363,8.129,9.638,8.319,8.436,7.657,-0.109,0.943,-0.374,-1.312,-0.671,0.275,86.667,9520.000,1.000
17.242,8.037,12.335,10.507,11.495,9.226,9.971,9.801,-0.109,0.941,-0.374,-1.251,-0.671,0.336,86.667,9521.000,1.000
15.364,6.903,10.948,9.903,9.799,7.105,8.210,8.885,-0.109,0.942,-0.375,-1.251,-0.641,0.336,86.667,9522.000,1.000
10.648,3.379,6.860,6.896,5.179,2.625,3.742,5.279,-0.109,0.943,-0.375,-1.282,-0.580,0.275,86.667,9523.000,1.000
4.773,-1.071,1.668,2.883,-0.640,-2.740,-1.843,0.381,-0.108,0.942,-0.375,-1.251,-0.549,0.275,86.667,9524.000,1.000
-0.324,-4.791,-2.841,-0.680,-5.681,-7.340,-6.654,-4.034,-0.106,0.942,-0.373,-1.190,-0.549,0.305,86.667,9525.000,1.000
-3.389,-6.817,-5.604,-2.950,-8.681,-10.076,-9.359,-6.660,-0.105,0.941,-0.374,-1.099,-0.580,0.305,86.667,9526.000,1.000
-4.426,-7.252,-6.762,-3.929,-9.559,-10.816,-9.732,-7.229,-0.106,0.943,-0.375,-1.160,-0.549,0.366,86.667,9527.000,1.000
-4.399,-6.874,-7.232,-4.196,-9.092,-10.178,-8.488,-6.388,-0.108,0.942,-0.375,-1.190,-0.580,0.397,86.667,9528.000,1.000
-4.373,-6.428,-7.817,-4.422,-8.197,-8.957,-6.615,-5.075,-0.108,0.942,-0.377,-1.068,-0.580,0.397,86.667,9529.000,1.000
-4.862,-6.233,-8.705,-4.971,-7.451,-7.762,-4.827,-3.980,-0.108,0.940,-0.374,-1.038,-0.519,0.519,86.667,9530.000,1.000
-5.769,-6.243,-9.579,-5.744,-7.011,-6.954,-3.490,-3.361,-0.109,0.942,-0.374,-1.038,-0.580,0.549,86.667,9531.000,1.000
-6.709,-6.296,-10.008,-6.340,-6.775,-6.656,-2.745,-3.112,-0.109,0.943,-0.375,-1.068,-0.580,0.519,86.667,9532.000,1.000
-7.346,-6.235,-9.726,-6.359,-6.514,-6.736,-2.488,-2.892,-0.109,0.944,-0.374,-1.038,-0.580,0.549,86.667,9533.000,1.000
-7.593,-5.966,-8.770,-5.658,-6.031,-6.902,-2.380,-2.363,-0.109,0.943,-0.372,-1.068,-0.580,0.641,86.667,9534.000,1.000
-7.652,-5.511,-7.523,-4.430,-5.334,-6.916,-2.146,-1.514,-0.108,0.942,-0.371,-0.977,-0.519,0.580,86.667,9535.000,1.000
-7.720,-4.911,-6.428,-3.013,-4.562,-6.618,-1.766,-0.633,-0.109,0.944,-0.374,-1.068,-0.641,0.549,86.667,9536.000,1.000
-7.594,-4.057,-5.490,-1.564,-3.690,-5.777,-1.247,0.106,-0.109,0.944,-0.377,-0.977,-0.671,0.519,86.667,9537.000,1.000
-6.693,-2.729,-4.213,0.041,-2.438,-4.079,-0.349,0.876,-0.110,0.945,-0.375,-0.977,-0.610,0.580,86.667,9538.000,1.000
-4.635,-0.852,-2.177,1.942,-0.604,-1.398,1.237,1.935,-0.110,0.942,-0.373,-1.068,-0.671,0.641,86.667,9539.000,1.000
-1.889,1.173,0.336,3.871,1.458,1.795,3.328,3.084,-0.109,0.942,-0.370,-0.977,-0.732,0.641,86.667,9540.000,1.000
0.301,2.509,2.390,5.100,2.829,4.418,5.020,3.526,-0.108,0.941,-0.371,-0.916,-0.824,0.671,86.667,9541.000,1.000
0.924,2.555,3.189,5.010,2.811,5.492,5.329,2.532,-0.108,0.942,-0.373,-1.099,-0.702,0.641,86.667,9542.000,1.000
0.218,1.678,2.889,3.812,1.738,5.038,4.174,0.372,-0.108,0.943,-0.374,-1.129,-0.763,0.671,86.667,9543.000,1.000
-0.343,1.189,2.713,2.653,0.914,4.241,2.695,-1.574,-0.107,0.942,-0.373,-1.068,-0.763,0.549,86.667,9544.000,1.000
0.904,2.508,4.157,2.869,1.657,4.636,2.536,-1.732,-0.107,0.942,-0.372,-1.068,-0.702,0.580,86.667,9545.000,1.000
4.488,6.050,7.758,4.927,4.230,6.900,4.580,0.440,-0.107,0.941,-0.374,-1.251,-0.671,0.549,86.667,9546.000,1.000
9.193,10.639,12.442,7.879,7.527,10.271,8.233,3.933,-0.106,0.942,-0.373,-1.160,-0.641,0.427,86.667,9547.000,1.000
12.809,14.135,16.142,9.972,9.843,13.119,11.913,6.904,-0.107,0.937,-0.372,-1.251,-0.641,0.458,86.667,9548.000,1.000
13.542,14.784,17.099,9.877,10.018,13.980,14.082,7.943,-0.108,0.936,-0.376,-1.129,-0.671,0.458,86.667,9549.000,1.000
10.949,12.206,14.751,7.420,7.996,12.244,13.917,6.763,-0.107,0.936,-0.375,-0.946,-0.702,0.397,86.667,9550.000,1.000
6.109,7.536,10.013,3.538,4.728,8.381,11.562,4.108,-0.106,0.936,-0.375,-0.793,-0.702,0.366,86.667,9551.000,1.000
1.034,2.714,4.820,-0.302,1.582,3.627,7.935,1.190,-0.107,0.934,-0.372,-0.885,-0.702,0.305,86.667,9552.000,1.000
-2.512,-0.695,0.935,-2.978,-0.511,-0.788,4.033,-1.057,-0.105,0.935,-0.374,-0.671,-0.641,0.336,86.667,9553.000,1.000
-3.824,-2.186,-1.016,-4.197,-1.438,-4.175,0.429,-2.363,-0.107,0.934,-0.372,-0.549,-0.580,0.244,86.667,9554.000,1.000
-3.293,-2.252,-1.538,-4.358,-1.656,-6.439,-2.693,-2.993,-0.105,0.934,-0.370,-0.366,-0.488,0.275,86.667,9555.000,1.000
-2.022,-1.947,-1.670,-4.202,-1.826,-7.877,-5.330,-3.458,-0.106,0.936,-0.375,-0.183,-0.488,0.214,86.667,9556.000,1.000
-1.173,-2.194,-2.248,-4.380,-2.467,-8.837,-7.486,-4.180,-0.104,0.939,-0.377,-0.092,-0.488,0.183,86.667,9557.000,1.000
-1.149,-3.003,-3.274,-4.934,-3.521,-9.306,-8.957,-5.113,-0.104,0.941,-0.377,-0.061,-0.519,0.092,86.667,9558.000,1.000
-1.320,-3.340,-3.856,-5.146,-4.216,-8.832,-9.264,-5.665,-0.105,0.943,-0.375,-0.061,-0.397,0.031,86.667,9559.000,1.000
-0.675,-2.072,-3.001,-4.184,-3.592,-6.980,-8.026,-5.126,-0.104,0.942,-0.372,0.000,-0.366,0.092,86.667,9560.000,1.000
1.215,0.964,-0.508,-1.955,-1.291,-3.836,-5.420,-3.255,-0.105,0.942,-0.377,0.031,-0.397,0.092,86.667,9561.000,1.000
3.769,4.791,2.770,0.697,2.004,-0.152,-2.302,-0.603,-0.103,0.943,-0.376,0.061,-0.275,0.000,86.667,9562.000,1.000
5.715,7.838,5.344,2.532,4.787,2.879,0.067,1.633,-0.104,0.943,-0.375,0.031,-0.153,0.031,86.667,9563.000,1.000
5.919,8.708,5.940,2.675,5.610,4.209,0.606,2.301,-0.105,0.944,-0.372,0.031,-0.214,0.061,86.667,9564.000,1.000
4.233,6.952,4.303,1.147,4.079,3.618,-0.886,1.132,-0.106,0.947,-0.370,0.031,-0.183,0.153,86.667,9565.000,1.000
1.679,3.369,1.369,-1.105,1.145,1.926,-3.456,-1.038,-0.105,0.948,-0.375,-0.122,-0.061,0.183,86.667,9566.000,1.000
-0.321,-0.552,-1.412,-2.816,-1.582,0.381,-5.618,-2.921,-0.106,0.949,-0.374,-0.214,-0.061,0.183,86.667,9567.000,1.000
-1.084,-3.684,-3.083,-3.296,-3.005,-0.370,-6.479,-3.813,-0.107,0.947,-0.372,-0.336,-0.122,0.183,86.667,9568.000,1.000
-1.095,-5.874,-3.714,-2.852,-3.199,-0.701,-6.348,-4.021,-0.106,0.944,-0.377,-0.427,-0.031,0.183,86.667,9569.000,1.000
-1.381,-7.618,-3.989,-2.339,-3.010,-1.393,-6.185,-4.236,-0.106,0.940,-0.375,-0.427,-0.092,0.153,86.667,9570.000,1.000
-2.485,-9.182,-4.355,-2.282,-3.055,-2.682,-6.494,-4.577,-0.105,0.941,-0.375,-0.488,-0.061,0.153,86.667,9571.000,1.000
-3.964,-10.072,-4.595,-2.430,-3.137,-3.896,-6.764,-4.343,-0.107,0.940,-0.372,-0.580,-0.031,0.275,86.667,9572.000,1.000
-4.837,-9.445,-4.195,-2.212,-2.627,-4.051,-6.020,-2.766,-0.107,0.941,-0.376,-0.458,-0.031,0.275,86.667,9573.000,1.000
-4.558,-7.127,-3.040,-1.510,-1.327,-2.815,-3.918,-0.016,-0.106,0.941,-0.375,-0.458,-0.122,0.458,86.667,9574.000,1.000
-3.490,-4.134,-1.669,-0.769,0.172,-0.879,-1.235,2.697,-0.106,0.942,-0.375,-0.458,-0.092,0.488,86.667,9575.000,1.000
-2.439,-1.916,-0.797,-0.389,1.062,0.648,0.786,4.116,-0.107,0.943,-0.376,-0.427,-0.122,0.458,86.667,9576.000,1.000
-1.864,-1.100,-0.674,-0.273,1.070,1.104,1.437,3.917,-0.106,0.945,-0.377,-0.549,-0.092,0.488,86.667,9577.000,1.000
-1.675,-1.203,-0.990,-0.072,0.549,0.520,0.810,2.691,-0.105,0.945,-0.375,-0.488,-0.153,0.519,86.667,9578.000,1.000
-1.533,-1.358,-1.220,0.421,0.027,-0.621,-0.518,1.253,-0.107,0.945,-0.375,-0.549,-0.183,0.488,86.667,9579.000,1.000
-1.056,-0.864,-0.868,1.300,-0.003,-1.517,-1.697,0.231,-0.110,0.944,-0.377,-0.641,-0.244,0.427,86.667,9580.000,1.000
0.078,0.682,0.401,2.726,0.896,-1.250,-1.879,0.049,-0.111,0.943,-0.378,-0.763,-0.305,0.305,86.667,9581.000,1.000
1.852,3.205,2.545,4.775,2.828,0.632,-0.760,0.828,-0.110,0.944,-0.373,-0.732,-0.488,0.305,86.667,9582.000,1.000
3.801,6.111,5.133,7.188,5.332,3.703,1.176,2.305,-0.112,0.944,-0.374,-0.763,-0.580,0.153,86.667,9583.000,1.000
5.284,8.619,7.599,9.412,7.596,6.911,3.019,3.955,-0.111,0.941,-0.374,-0.763,-0.641,0.122,86.667,9584.000,1.000
5.827,10.138,9.416,10.841,8.844,9.159,3.979,5.165,-0.111,0.941,-0.374,-0.824,-0.824,-0.031,86.667,9585.000,1.000
5.366,10.448,10.197,11.075,8.657,9.827,3.805,5.491,-0.110,0.942,-0.374,-0.824,-0.916,-0.153,86.667,9586.000,1.000
4.435,9.812,9.955,10.248,7.319,9.168,3.025,5.038,-0.110,0.939,-0.376,-0.793,-1.068,-0.183,86.667,9587.000,1.000
3.973,8.924,9.185,9.057,5.796,8.226,2.677,4.477,-0.108,0.940,-0.377,-0.732,-1.099,-0.275,86.667,9588.000,1.000
4.578,8.412,8.431,8.173,4.994,8.025,3.460,4.437,-0.109,0.942,-0.376,-0.641,-1.190,-0.305,86.667,9589.000,1.000
5.909,8.269,7.775,7.626,4.980,8.664,5.099,4.884,-0.110,0.944,-0.378,-0.641,-1.251,-0.336,86.667,9590.000,1.000
6.973,7.853,6.917,6.901,5.064,9.266,6.620,5.214,-0.109,0.941,-0.375,-0.641,-1.282,-0.305,86.667,9591.000,1.000
6.924,6.445,5.607,5.511,4.504,8.770,7.145,4.838,-0.110,0.943,-0.374,-0.671,-1.312,-0.336,86.667,9592.000,1.000
5.548,3.773,3.862,3.324,2.980,6.738,6.360,3.577,-0.109,0.944,-0.375,-0.671,-1.373,-0.183,86.667,9593.000,1.000
3.328,0.236,1.962,0.607,0.682,3.609,4.539,1.700,-0.109,0.942,-0.375,-0.671,-1.343,-0.092,86.667,9594.000,1.000
1.196,-3.230,0.344,-2.097,-1.759,0.439,2.438,-0.186,-0.109,0.945,-0.375,-0.671,-1.404,0.031,86.667,9595.000,1.000
-0.147,-5.768,-0.756,-4.372,-3.647,-1.781,0.928,-1.484,-0.110,0.944,-0.375,-0.732,-1.343,0.183,86.667,9596.000,1.000
-0.890,-7.253,-1.641,-6.350,-4.750,-2.869,0.382,-2.106,-0.110,0.943,-0.372,-0.702,-1.343,0.214,86.667,9597.000,1.000
-1.803,-8.103,-2.817,-8.462,-5.238,-3.383,0.579,-2.428,-0.109,0.945,-0.373,-0.824,-1.373,0.366,86.667,9598.000,1.000
-3.161,-8.428,-4.156,-10.577,-5.024,-3.660,1.392,-2.547,-0.111,0.945,-0.374,-0.977,-1.343,0.427,86.667,9599.000,1.000
-4.349,-7.820,-4.784,-11.808,-3.699,-3.305,3.110,-1.977,-0.110,0.945,-0.374,-0.977,-1.404,0.519,86.667,9600.000,1.000
-4.819,-6.261,-4.208,-11.534,-1.466,-2.016,5.675,-0.483,-0.111,0.943,-0.374,-1.068,-1.434,0.702,86.667,9601.000,1.000
-4.986,-4.787,-3.191,-10.281,0.354,-0.464,8.035,1.171,-0.111,0.942,-0.373,-1.038,-1.343,0.702,86.667,9602.000,1.000
-5.703,-4.676,-3.050,-9.139,0.342,0.243,8.913,1.822,-0.110,0.941,-0.373,-1.038,-1.404,0.763,86.667,9603.000,1.000
-7.185,-6.214,-4.336,-8.622,-1.722,-0.299,7.973,1.027,-0.109,0.941,-0.374,-1.007,-1.312,0.763,86.667,9604.000,1.000
-8.858,-8.549,-6.544,-8.500,-4.897,-1.611,5.904,-0.744,-0.107,0.940,-0.374,-1.068,-1.282,0.824,86.667,9605.000,1.000
-9.966,-10.472,-8.776,-8.411,-8.025,-3.043,3.664,-2.697,-0.106,0.939,-0.376,-1.099,-1.282,0.885,86.667,9606.000,1.000
-9.993,-11.031,-10.344,-8.160,-10.333,-4.220,1.939,-4.112,-0.103,0.939,-0.376,-1.038,-1.190,0.763,86.667,9607.000,1.000
-8.770,-9.723,-10.940,-7.582,-11.421,-4.916,1.129,-4.388,-0.102,0.940,-0.378,-0.977,-1.099,0.854,86.667,9608.000,1.000
-6.607,-6.703,-10.643,-6.628,-11.202,-4.994,1.366,-3.270,-0.102,0.940,-0.378,-0.977,-1.007,0.793,86.667,9609.000,1.000
-4.198,-2.750,-9.740,-5.539,-9.882,-4.447,2.405,-1.113,-0.099,0.940,-0.378,-0.946,-0.946,0.854,86.667,9610.000,1.000
-2.074,1.280,-8.382,-4.601,-7.765,-3.297,3.721,1.299,-0.099,0.942,-0.380,-0.977,-0.793,0.885,86.667,9611.000,1.000
-0.334,4.836,-6.583,-3.894,-5.207,-1.686,4.733,3.153,-0.097,0.942,-0.380,-0.946,-0.519,0.732,86.667,9612.000,1.000
1.060,7.538,-4.570,-3.420,-2.771,-0.179,4.956,3.839,-0.100,0.940,-0.375,-0.854,-0.366,0.671,86.667,9613.000,1.000
2.084,9.181,-2.772,-3.197,-1.041,0.375,4.140,3.114,-0.102,0.939,-0.373,-0.824,-0.275,0.671,86.667,9614.000,1.000
2.827,10.065,-1.380,-3.088,-0.108,-0.447,2.475,1.333,-0.101,0.940,-0.376,-0.854,-0.061,0.641,86.667,9615.000,1.000
3.600,11.015,-0.093,-2.690,0.643,-2.142,0.733,-0.552,-0.100,0.940,-0.377,-0.854,0.092,0.580,86.667,9616.000,1.000
4.785,12.904,1.670,-1.524,2.092,-3.583,-0.052,-1.450,-0.101,0.942,-0.379,-0.854,0.183,0.519,86.667,9617.000,1.000
6.642,16.196,4.393,0.700,4.810,-3.704,0.822,-0.697,-0.102,0.941,-0.379,-0.824,0.397,0.427,86.667,9618.000,1.000
9.055,20.725,8.128,3.829,8.743,-2.085,3.282,1.628,-0.102,0.942,-0.378,-0.824,0.427,0.366,86.667,9619.000,1.000
11.216,25.483,12.105,6.984,12.999,0.617,6.273,4.570,-0.102,0.941,-0.377,-0.793,0.488,0.336,86.667,9620.000,1.000
11.862,28.888,14.910,8.853,16.119,2.938,8.160,6.659,-0.102,0.941,-0.378,-0.824,0.488,0.122,86.667,9621.000,1.000
10.246,29.807,15.586,8.725,17.127,3.784,7.869,6.904,-0.103,0.941,-0.378,-0.885,0.519,0.092,86.667,9622.000,1.000
6.879,28.375,14.451,7.184,16.368,3.317,5.780,5.614,-0.103,0.940,-0.376,-0.824,0.671,0.031,86.667,9623.000,1.000
3.146,25.632,12.543,5.519,15.070,2.513,3.284,4.030,-0.105,0.940,-0.375,-0.763,0.763,0.092,86.667,9624.000,1.000
0.147,22.357,10.432,4.502,14.032,1.896,1.440,3.058,-0.105,0.942,-0.377,-0.702,0.732,-0.061,86.667,9625.000,1.000
-1.878,18.509,7.955,3.982,13.025,1.043,0.255,2.606,-0.106,0.943,-0.376,-0.671,0.671,-0.061,86.667,9626.000,1.000
-3.090,13.810,4.953,3.530,11.430,-0.624,-0.856,2.079,-0.107,0.942,-0.376,-0.702,0.763,0.061,86.667,9627.000,1.000
-3.587,8.362,1.723,3.003,9.009,-3.018,-2.331,1.062,-0.107,0.943,-0.377,-0.702,0.671,-0.031,86.667,9628.000,1.000
-3.554,2.498,-1.334,2.426,5.975,-5.478,-4.218,-0.489,-0.109,0.942,-0.376,-0.641,0.580,-0.092,86.667,9629.000,1.000
-3.374,-3.455,-4.109,1.778,2.767,-7.297,-6.273,-2.283,-0.109,0.941,-0.380,-0.671,0.580,0.031,86.667,9630.000,1.000
-3.403,-9.100,-6.723,1.012,-0.123,-8.104,-8.194,-3.842,-0.110,0.941,-0.381,-0.702,0.488,0.092,86.667,9631.000,1.000
-3.839,-14.057,-9.323,0.056,-2.445,-8.082,-9.924,-4.874,-0.111,0.941,-0.380,-0.671,0.488,0.031,86.667,9632.000,1.000
-4.776,-18.298,-11.988,-1.237,-4.369,-7.873,-11.699,-5.526,-0.112,0.942,-0.376,-0.641,0.397,0.214,86.667,9633.000,1.000
-6.182,-22.168,-14.663,-2.984,-6.241,-8.139,-13.758,-6.148,-0.111,0.943,-0.377,-0.732,0.305,0.183,86.667,9634.000,1.000
-7.776,-25.934,-17.053,-4.986,-8.141,-9.074,-15.991,-6.862,-0.110,0.943,-0.377,-0.824,0.183,0.244,86.667,9635.000,1.000
-9.039,-29.421,-18.692,-6.655,-9.802,-10.309,-17.903,-7.481,-0.111,0.942,-0.378,-0.824,0.153,0.305,86.667,9636.000,1.000
-9.527,-32.278,-19.292,-7.470,-10.966,-11.306,-18.985,-7.851,-0.110,0.941,-0.376,-0.763,0.000,0.366,86.667,9637.000,1.000
-9.225,-34.480,-19.069,-7.504,-11.746,-11.828,-19.178,-8.122,-0.110,0.942,-0.377,-0.763,-0.061,0.397,86.667,9638.000,1.000
-8.597,-36.381,-18.690,-7.447,-12.591,-12.113,-18.988,-8.670,-0.111,0.941,-0.376,-0.732,-0.214,0.366,86.667,9639.000,1.000
-8.269,-38.277,-18.860,-8.051,-13.906,-12.629,-19.101,-9.835,-0.110,0.942,-0.375,-0.610,-0.427,0.397,86.667,9640.000,1.000
-8.533,-39.910,-19.792,-9.490,-15.619,-13.506,-19.759,-11.605,-0.110,0.942,-0.376,-0.732,-0.488,0.336,86.667,9641.000,1.000
-9.136,-40.519,-20.953,-11.177,-17.090,-14.240,-20.510,-13.505,-0.110,0.942,-0.375,-0.732,-0.519,0.397,86.667,9642.000,1.000
-9.565,-39.476,-21.424,-12.232,-17.548,-14.109,-20.629,-14.854,-0.111,0.943,-0.376,-0.702,-0.671,0.336,86.667,9643.000,1.000
-9.488,-36.819,-20.536,-12.049,-16.637,-12.827,-19.700,-15.160,-0.110,0.939,-0.377,-0.824,-0.793,0.397,86.667,9644.000,1.000
-8.868,-33.075,-18.141,-10.483,-14.490,-10.639,-17.735,-14.211,-0.109,0.940,-0.379,-0.824,-0.946,0.275,86.667,9645.000,1.000
-7.877,-28.778,-14.529,-7.774,-11.443,-7.919,-14.937,-11.971,-0.110,0.940,-0.377,-0.824,-0.977,0.305,86.667,9646.000,1.000
-6.855,-24.333,-10.323,-4.520,-7.914,-4.959,-11.658,-8.726,-0.108,0.940,-0.380,-0.793,-0.977,0.244,86.667,9647.000,1.000
-6.189,-20.062,-6.325,-1.537,-4.503,-2.076,-8.463,-5.231,-0.107,0.941,-0.376,-0.824,-1.038,0.214,86.667,9648.000,1.000
-6.082,-16.203,-3.267,0.440,-1.940,0.224,-6.018,-2.500,-0.106,0.940,-0.378,-0.854,-1.007,0.183,86.667,9649.000,1.000
-6.396,-12.886,-1.523,1.078,-0.745,1.366,-4.801,-1.282,-0.107,0.940,-0.378,-0.854,-1.068,0.153,86.667,9650.000,1.000
-6.446,-9.912,-0.706,0.796,-0.689,1.319,-4.623,-1.394,-0.106,0.936,-0.378,-0.854,-1.038,0.092,86.667,9651.000,1.000
-5.206,-6.772,0.238,0.660,-0.758,0.886,-4.542,-1.666,-0.103,0.936,-0.381,-0.763,-0.977,0.153,86.667,9652.000,1.000
-2.255,-3.363,2.019,1.467,-0.083,0.970,-3.670,-1.017,-0.104,0.937,-0.379,-0.793,-1.007,0.061,86.667,9653.000,1.000
1.631,-0.476,4.265,3.083,1.241,1.743,-1.999,0.513,-0.105,0.937,-0.379,-0.671,-0.885,0.031,86.667,9654.000,1.000
5.073,0.786,5.974,4.776,2.376,2.641,-0.325,1.974,-0.105,0.937,-0.377,-0.549,-0.946,0.061,86.667,9655.000,1.000
7.143,-0.034,6.470,5.895,2.563,2.961,0.466,2.504,-0.106,0.938,-0.378,-0.549,-0.885,0.061,86.667,9656.000,1.000
7.860,-2.330,5.897,6.260,1.749,2.484,0.118,2.023,-0.103,0.933,-0.376,-0.549,-0.671,0.031,86.667,9657.000,1.000
7.852,-4.854,4.935,6.130,0.488,1.621,-0.821,1.157,-0.105,0.933,-0.377,-0.427,-0.610,0.122,86.667,9658.000,1.000
7.575,-6.640,4.060,5.773,-0.718,0.897,-1.591,0.595,-0.105,0.933,-0.381,-0.275,-0.641,0.122,86.667,9659.000,1.000
6.961,-7.568,3.195,5.142,-1.865,0.449,-1.882,0.549,-0.105,0.933,-0.381,-0.061,-0.549,0.153,86.667,9660.000,1.000
5.716,-8.074,2.048,4.036,-3.199,0.114,-1.810,0.752,-0.104,0.933,-0.378,0.031,-0.366,0.092,86.667,9661.000,1.000
3.723,-8.542,0.480,2.412,-4.808,-0.338,-1.609,0.791,-0.103,0.937,-0.378,0.244,-0.427,0.061,86.667,9662.000,1.000
1.237,-8.951,-1.351,0.509,-6.478,-1.077,-1.453,0.455,-0.103,0.939,-0.375,0.244,-0.366,0.153,86.667,9663.000,1.000
-1.062,-8.790,-2.900,-1.132,-7.694,-1.964,-1.288,-0.040,-0.105,0.940,-0.377,0.275,-0.275,0.214,86.667,9664.000,1.000
-2.492,-7.497,-3.530,-1.939,-7.937,-2.555,-0.919,-0.305,-0.106,0.941,-0.378,0.336,-0.122,0.183,86.667,9665.000,1.000
-3.156,-5.226,-3.212,-1.881,-7.294,-2.685,-0.483,-0.407,-0.109,0.941,-0.376,0.214,-0.122,0.244,86.667,9666.000,1.000
-3.999,-2.887,-2.695,-1.637,-6.637,-2.857,-0.655,-1.021,-0.112,0.940,-0.380,0.214,-0.061,0.214,86.667,9667.000,1.000
-5.698,-1.104,-2.681,-1.891,-6.800,-3.623,-1.972,-2.641,-0.115,0.941,-0.381,0.214,-0.153,0.092,86.667,9668.000,1.000
-7.613,0.699,-2.817,-2.439,-7.496,-4.563,-3.857,-4.668,-0.116,0.940,-0.377,0.183,-0.183,-0.061,86.667,9669.000,1.000
-7.975,4.012,-1.629,-2.042,-7.188,-4.159,-4.498,-5.477,-0.115,0.941,-0.378,0.092,-0.183,-0.092,86.667,9670.000,1.000
-5.211,9.926,2.355,0.737,-4.241,-0.965,-2.053,-3.575,-0.113,0.942,-0.375,0.061,-0.397,-0.092,86.667,9671.000,1.000
0.573,17.889,9.091,6.196,1.525,4.914,3.653,1.040,-0.113,0.942,-0.379,-0.031,-0.397,-0.122,86.667,9672.000,1.000
7.399,25.898,16.711,12.990,8.386,11.600,10.698,6.692,-0.111,0.942,-0.379,-0.031,-0.580,-0.092,86.667,9673.000,1.000
12.850,32.010,22.868,19.047,13.888,16.762,16.498,11.266,-0.111,0.943,-0.381,0.031,-0.580,-0.153,86.667,9674.000,1.000
15.579,35.510,26.197,22.794,16.410,19.085,19.577,13.502,-0.112,0.945,-0.380,-0.214,-0.671,-0.153,86.667,9675.000,1.000
15.650,36.777,26.655,23.645,15.825,18.737,20.093,13.344,-0.111,0.947,-0.381,-0.244,-0.549,0.000,86.667,9676.000,1.000
14.050,36.594,25.114,21.958,13.261,16.882,19.255,11.597,-0.113,0.949,-0.379,-0.397,-0.671,0.000,86.667,9677.000,1.000
12.087,35.734,22.809,18.844,10.474,14.930,18.473,9.467,-0.112,0.948,-0.380,-0.580,-0.641,0.244,86.667,9678.000,1.000
10.823,34.760,20.814,15.715,9.016,13.885,18.640,8.022,-0.113,0.948,-0.380,-0.671,-0.824,0.305,86.667,9679.000,1.000
10.595,33.785,19.580,13.485,9.397,13.907,19.640,7.595,-0.113,0.950,-0.380,-0.824,-0.854,0.336,86.667,9680.000,1.000
10.898,32.442,18.798,12.014,10.875,14.328,20.443,7.634,-0.112,0.950,-0.380,-0.916,-0.702,0.366,86.667,9681.000,1.000
10.858,30.268,17.828,10.448,12.168,14.246,19.967,7.320,-0.111,0.948,-0.376,-1.068,-0.763,0.519,86.667,9682.000,1.000
10.005,27.257,16.405,8.247,12.512,13.299,18.094,6.416,-0.111,0.948,-0.376,-1.251,-0.763,0.397,86.667,9683.000,1.000
8.672,24.130,14.995,5.867,12.105,11.975,15.855,5.482,-0.112,0.947,-0.381,-1.312,-0.824,0.488,86.667,9684.000,1.000
7.723,22.027,14.392,4.380,11.693,11.213,14.619,5.346,-0.110,0.947,-0.380,-1.312,-0.854,0.488,86.667,9685.000,1.000
7.856,21.720,14.933,4.496,11.766,11.589,15.014,6.361,-0.109,0.946,-0.377,-1.526,-0.763,0.641,86.667,9686.000,1.000
9.058,22.887,16.061,5.888,12.091,12.737,16.430,8.046,-0.109,0.946,-0.377,-1.526,-0.916,0.702,86.667,9687.000,1.000
10.622,24.176,16.652,7.384,11.986,13.634,17.502,9.413,-0.109,0.946,-0.376,-1.556,-0.946,0.702,86.667,9688.000,1.000
11.634,24.115,15.797,7.782,10.962,13.456,17.144,9.642,-0.108,0.944,-0.378,-1.617,-0.885,0.732,86.667,9689.000,1.000
11.337,21.940,13.221,6.469,8.994,12.042,15.119,8.457,-0.108,0.943,-0.377,-1.648,-0.854,0.763,86.667,9690.000,1.000
9.313,17.798,9.200,3.559,6.380,9.769,11.947,6.163,-0.104,0.942,-0.375,-1.709,-0.854,0.732,86.667,9691.000,1.000
5.794,12.569,4.450,-0.176,3.624,7.328,8.572,3.509,-0.104,0.942,-0.376,-1.801,-0.702,0.732,86.667,9692.000,1.000
1.687,7.358,-0.073,-3.697,1.215,5.413,5.849,1.264,-0.104,0.942,-0.375,-1.770,-0.671,0.793,86.667,9693.000,1.000
-2.044,2.865,-3.700,-6.367,-0.774,4.186,3.952,-0.291,-0.103,0.942,-0.377,-1.892,-0.519,0.793,86.667,9694.000,1.000
-5.025,-0.901,-6.450,-8.287,-2.791,3.069,2.272,-1.477,-0.102,0.940,-0.377,-1.801,-0.488,0.885,86.667,9695.000,1.000
-7.541,-4.351,-8.903,-9.946,-5.402,1.192,-0.034,-2.884,-0.103,0.940,-0.379,-1.770,-0.427,0.977,86.667,9696.000,1.000
-9.940,-7.640,-11.495,-11.476,-8.630,-1.693,-3.168,-4.739,-0.103,0.939,-0.380,-1.678,-0.305,0.946,86.667,9697.000,1.000
-11.873,-10.084,-13.787,-12.194,-11.510,-4.624,-6.141,-6.383,-0.103,0.940,-0.377,-1.709,-0.275,0.732,86.667,9698.000,1.000
-12.411,-10.593,-14.656,-11.127,-12.624,-6.089,-7.445,-6.684,-0.101,0.940,-0.377,-1.770,-0.214,0.763,86.667,9699.000,1.000
-11.032,-8.890,-13.369,-8.125,-11.311,-5.465,-6.528,-5.212,-0.102,0.940,-0.376,-1.770,-0.092,0.732,86.667,9700.000,1.000
-8.132,-5.915,-10.218,-4.145,-8.167,-3.495,-4.280,-2.649,-0.104,0.939,-0.378,-1.740,0.000,0.671,86.667,9701.000,1.000
-4.719,-3.113,-6.298,-0.592,-4.511,-1.523,-2.182,-0.173,-0.105,0.938,-0.375,-1.740,-0.061,0.549,86.667,9702.000,1.000
-2.069,-1.729,-3.108,1.267,-1.783,-0.769,-1.454,1.144,-0.103,0.939,-0.374,-1.617,0.153,0.549,86.667,9703.000,1.000
-1.364,-2.529,-2.046,0.659,-1.126,-2.022,-2.677,0.604,-0.105,0.939,-0.378,-1.648,0.061,0.519,86.667,9704.000,1.000
-2.931,-5.406,-3.570,-2.178,-2.751,-5.169,-5.470,-1.646,-0.105,0.938,-0.381,-1.556,0.153,0.519,86.667,9705.000,1.000
-5.709,-9.031,-6.596,-5.788,-5.524,-8.868,-8.353,-4.300,-0.106,0.938,-0.377,-1.617,0.000,0.427,86.667,9706.000,1.000
-7.989,-11.499,-9.171,-8.405,-7.674,-11.351,-9.594,-5.732,-0.106,0.938,-0.375,-1.648,0.000,0.214,86.667,9707.000,1.000
-8.817,-11.660,-9.967,-9.274,-8.162,-11.837,-8.560,-5.378,-0.106,0.937,-0.377,-1.617,0.092,0.122,86.667,9708.000,1.000
-8.235,-9.396,-8.765,-8.728,-7.007,-10.669,-5.852,-3.822,-0.108,0.938,-0.375,-1.678,0.061,0.122,86.667,9709.000,1.000
-6.363,-4.689,-5.701,-7.096,-4.349,-8.148,-2.136,-1.602,-0.109,0.937,-0.375,-1.648,0.061,0.061,86.667,9710.000,1.000
-2.998,2.710,-0.803,-4.169,0.048,-4.001,2.533,1.430,-0.109,0.938,-0.375,-1.556,0.031,0.061,86.667,9711.000,1.000
1.842,12.505,5.613,0.198,6.191,1.876,8.154,5.510,-0.109,0.938,-0.373,-1.495,0.000,0.031,86.667,9712.000,1.000
7.404,23.343,12.587,5.420,13.219,8.696,14.097,10.247,-0.110,0.942,-0.374,-1.495,-0.092,0.031,86.667,9713.000,1.000
12.288,33.193,18.720,10.198,19.602,14.958,19.213,14.647,-0.112,0.942,-0.378,-1.465,-0.153,0.061,86.667,9714.000,1.000
15.026,40.076,22.702,13.103,23.842,19.109,22.430,17.652,-0.114,0.941,-0.376,-1.495,-0.336,-0.031,86.667,9715.000,1.000
14.896,42.821,23.880,13.324,25.102,20.256,23.279,18.681,-0.112,0.942,-0.375,-1.404,-0.488,-0.031,86.667,9716.000,1.000
12.476,41.635,22.640,11.195,23.533,18.649,22.114,17.897,-0.112,0.942,-0.374,-1.373,-0.580,-0.092,86.667,9717.000,1.000
9.346,37.955,20.200,8.053,20.127,15.459,19.827,16.028,-0.112,0.943,-0.375,-1.312,-0.610,-0.092,86.667,9718.000,1.000
6.998,33.474,17.764,5.369,16.029,11.841,17.146,13.781,-0.110,0.944,-0.375,-1.251,-0.732,0.031,86.667,9719.000,1.000
5.838,29.038,15.658,3.799,11.838,8.170,14.107,11.339,-0.111,0.943,-0.376,-1.373,-0.824,0.061,86.667,9720.000,1.000
5.218,24.414,13.366,3.018,7.583,4.158,10.261,8.453,-0.112,0.944,-0.376,-1.465,-0.946,0.092,86.667,9721.000,1.000
4.437,19.106,10.453,2.445,3.378,-0.295,5.545,5.093,-0.110,0.943,-0.377,-1.373,-0.977,0.214,86.667,9722.000,1.000
3.697,13.318,7.343,2.079,-0.025,-4.415,0.895,1.935,-0.110,0.943,-0.378,-1.251,-1.099,0.275,86.667,9723.000,1.000
3.764,7.825,4.877,2.359,-1.710,-7.028,-2.374,-0.091,-0.111,0.942,-0.377,-1.282,-1.038,0.275,86.667,9724.000,1.000
4.719,2.923,3.186,3.202,-1.632,-7.801,-3.905,-0.819,-0.111,0.943,-0.373,-1.343,-1.129,0.366,86.667,9725.000,1.000
5.591,-1.928,1.466,3.670,-0.832,-7.619,-4.644,-1.085,-0.110,0.942,-0.373,-1.465,-1.282,0.427,86.667,9726.000,1.000
5.345,-7.320,-1.157,2.732,-0.614,-7.715,-5.887,-1.934,-0.109,0.943,-0.376,-1.526,-1.343,0.458,86.667,9727.000,1.000
3.783,-13.186,-4.820,0.111,-1.697,-8.703,-8.278,-3.801,-0.108,0.944,-0.374,-1.343,-1.343,0.488,86.667,9728.000,1.000
1.456,-18.884,-8.897,-3.643,-3.977,-10.314,-11.543,-6.364,-0.109,0.942,-0.375,-1.312,-1.373,0.549,86.667,9729.000,1.000
-0.886,-23.659,-12.512,-7.630,-6.809,-11.779,-14.801,-8.964,-0.111,0.942,-0.376,-1.343,-1.343,0.610,86.667,9730.000,1.000
-2.715,-26.989,-15.074,-11.098,-9.471,-12.485,-17.105,-11.066,-0.110,0.941,-0.373,-1.312,-1.343,0.519,86.667,9731.000,1.000
-3.985,-28.784,-16.554,-13.703,-11.567,-12.456,-18.025,-12.491,-0.107,0.942,-0.374,-1.312,-1.404,0.641,86.667,9732.000,1.000
-5.078,-29.324,-17.381,-15.510,-13.077,-12.226,-17.848,-13.350,-0.105,0.941,-0.373,-1.251,-1.465,0.580,86.667,9733.000,1.000
-6.315,-28.934,-18.033,-16.736,-14.111,-12.225,-17.170,-13.808,-0.106,0.942,-0.374,-1.251,-1.251,0.549,86.667,9734.000,1.000
-7.655,-27.853,-18.755,-17.577,-14.740,-12.402,-16.444,-13.959,-0.104,0.941,-0.375,-1.251,-1.312,0.549,86.667,9735.000,1.000
-8.929,-26.430,-19.593,-18.220,-15.080,-12.444,-15.912,-13.933,-0.102,0.940,-0.379,-1.190,-1.190,0.641,86.667,9736.000,1.000
-10.231,-25.322,-20.653,-18.917,-15.386,-12.213,-15.741,-14.044,-0.102,0.941,-0.381,-1.160,-1.099,0.580,86.667,9737.000,1.000
-11.855,-25.281,-22.178,-19.880,-15.917,-11.851,-16.048,-14.639,-0.102,0.941,-0.378,-1.038,-1.099,0.580,86.667,9738.000,1.000
-13.798,-26.539,-24.142,-20.971,-16.600,-11.489,-16.731,-15.679,-0.102,0.941,-0.375,-0.977,-0.916,0.641,86.667,9739.000,1.000
-15.483,-28.493,-25.891,-21.579,-16.891,-11.016,-17.328,-16.523,-0.104,0.940,-0.373,-0.977,-0.885,0.580,86.667,9740.000,1.000
-16.102,-30.131,-26.440,-20.879,-16.101,-10.169,-17.149,-16.242,-0.104,0.940,-0.375,-1.038,-0.824,0.549,86.667,9741.000,1.000
-15.328,-30.882,-25.245,-18.387,-13.995,-8.844,-15.780,-14.239,-0.105,0.941,-0.376,-1.038,-0.610,0.519,86.667,9742.000,1.000
-13.750,-31.121,-22.681,-14.386,-11.137,-7.300,-13.512,-10.738,-0.105,0.941,-0.375,-0.946,-0.580,0.488,86.667,9743.000,1.000
-12.334,-31.673,-19.606,-9.677,-8.447,-5.909,-11.032,-6.572,-0.105,0.939,-0.374,-1.038,-0.488,0.488,86.667,9744.000,1.000
-11.316,-32.689,-16.484,-4.844,-6.340,-4.598,-8.683,-2.436,-0.106,0.938,-0.374,-1.007,-0.397,0.366,86.667,9745.000,1.000
-9.848,-33.211,-13.088,0.072,-4.446,-2.818,-6.294,1.460,-0.104,0.937,-0.376,-1.068,-0.397,0.275,86.667,9746.000,1.000
-6.933,-31.915,-9.039,5.099,-2.197,-0.194,-3.726,5.040,-0.105,0.937,-0.377,-0.824,-0.336,0.305,86.667,9747.000,1.000
-2.649,-28.287,-4.575,9.656,0.395,2.875,-1.341,7.903,-0.103,0.938,-0.376,-0.793,-0.244,0.275,86.667,9748.000,1.000
1.654,-23.118,-0.705,12.579,2.573,5.314,0.133,9.334,-0.104,0.939,-0.375,-0.732,-0.061,0.305,86.667,9749.000,1.000
4.423,-17.904,1.515,13.014,3.460,6.177,0.248,8.835,-0.106,0.939,-0.376,-0.732,0.031,0.366,86.667,9750.000,1.000
5.101,-13.725,1.863,11.204,2.842,5.409,-0.652,6.672,-0.105,0.940,-0.373,-0.671,0.061,0.244,86.667,9751.000,1.000
4.275,-10.759,1.016,8.283,1.287,3.818,-1.650,3.778,-0.105,0.940,-0.374,-0.732,0.061,0.336,86.667,9752.000,1.000
2.893,-8.700,-0.144,5.427,-0.395,2.360,-1.978,1.126,-0.108,0.941,-0.375,-0.732,0.122,0.336,86.667,9753.000,1.000
1.488,-7.374,-1.169,3.227,-1.727,1.456,-1.597,-0.835,-0.108,0.941,-0.376,-0.763,0.275,0.366,86.667,9754.000,1.000
-0.017,-6.890,-2.142,1.609,-2.740,0.855,-1.128,-2.256,-0.107,0.940,-0.378,-0.702,0.183,0.336,86.667,9755.000,1.000
-1.857,-7.276,-3.283,0.249,-3.659,0.110,-1.170,-3.433,-0.109,0.941,-0.375,-0.763,0.214,0.397,86.667,9756.000,1.000
-3.746,-8.100,-4.450,-0.876,-4.405,-0.783,-1.649,-4.315,-0.110,0.944,-0.376,-0.763,0.244,0.397,86.667,9757.000,1.000
-4.842,-8.634,-5.131,-1.410,-4.492,-1.289,-1.928,-4.522,-0.108,0.942,-0.377,-0.671,0.183,0.488,86.667,9758.000,1.000
-4.514,-8.517,-4.994,-1.107,-3.534,-0.897,-1.482,-3.820,-0.108,0.943,-0.378,-0.641,0.183,0.549,86.667,9759.000,1.000
-3.014,-8.089,-4.317,-0.250,-1.761,0.378,-0.369,-2.432,-0.108,0.942,-0.376,-0.702,0.214,0.488,86.667,9760.000,1.000
-1.249,-7.863,-3.686,0.574,0.088,2.059,0.923,-0.845,-0.107,0.941,-0.375,-0.763,0.244,0.458,86.667,9761.000,1.000
-0.100,-7.882,-3.424,0.911,1.307,3.585,1.879,0.537,-0.108,0.943,-0.376,-0.824,0.305,0.610,86.667,9762.000,1.000
-0.075,-7.802,-3.504,0.528,1.552,4.477,2.154,1.430,-0.109,0.944,-0.378,-0.854,0.305,0.641,86.667,9763.000,1.000
-1.343,-7.362,-3.781,-0.667,0.884,4.395,1.599,1.631,-0.108,0.944,-0.377,-0.854,0.214,0.580,86.667,9764.000,1.000
-3.753,-6.596,-4.149,-2.580,-0.354,3.221,0.272,1.064,-0.108,0.943,-0.379,-0.793,0.183,0.610,86.667,9765.000,1.000
-6.770,-5.687,-4.512,-4.779,-1.712,1.141,-1.529,-0.134,-0.107,0.944,-0.376,-0.854,0.153,0.702,86.667,9766.000,1.000
-9.307,-4.613,-4.492,-6.299,-2.549,-1.129,-3.043,-1.337,-0.108,0.942,-0.376,-0.824,0.122,0.702,86.667,9767.000,1.000
-9.881,-3.029,-3.318,-5.813,-2.005,-2.442,-3.158,-1.446,-0.107,0.943,-0.374,-0.824,0.092,0.702,86.667,9768.000,1.000
-7.526,-0.710,-0.446,-2.542,0.355,-2.036,-1.264,0.289,-0.106,0.944,-0.377,-0.854,0.061,0.824,86.667,9769.000,1.000
-2.679,1.982,3.726,2.891,3.878,-0.243,2.021,3.443,-0.106,0.943,-0.378,-0.854,-0.061,0.854,86.667,9770.000,1.000
2.978,4.145,7.931,8.641,7.070,1.750,5.084,6.587,-0.106,0.944,-0.376,-0.854,-0.031,0.763,86.667,9771.000,1.000
7.419,4.735,10.692,12.606,8.454,2.629,6.221,8.180,-0.107,0.942,-0.377,-0.977,-0.031,0.763,86.667,9772.000,1.000
9.181,3.123,11.015,13.396,7.285,1.579,4.591,7.441,-0.109,0.942,-0.376,-0.946,-0.122,0.793,86.667,9773.000,1.000
7.994,-0.378,8.886,10.935,3.887,-1.313,0.718,4.680,-0.110,0.941,-0.375,-0.946,-0.244,0.732,86.667,9774.000,1.000
4.862,-4.554,5.269,6.397,-0.546,-5.089,-3.892,0.926,-0.108,0.941,-0.374,-0.916,-0.305,0.641,86.667,9775.000,1.000
1.421,-7.939,1.591,1.512,-4.571,-8.464,-7.674,-2.734,-0.108,0.941,-0.375,-0.885,-0.366,0.610,86.667,9776.000,1.000
-0.947,-9.477,-0.904,-2.261,-7.107,-10.501,-9.663,-5.522,-0.106,0.940,-0.374,-0.885,-0.488,0.610,86.667,9777.000,1.000
-1.590,-8.784,-1.583,-4.230,-7.768,-10.945,-9.680,-7.073,-0.107,0.942,-0.375,-0.977,-0.458,0.671,86.667,9778.000,1.000
-0.607,-6.117,-0.507,-4.506,-6.887,-10.180,-8.249,-7.425,-0.107,0.941,-0.377,-0.916,-0.427,0.580,86.667,9779.000,1.000
1.311,-2.341,1.656,-3.812,-5.328,-9.037,-6.411,-7.034,-0.105,0.941,-0.379,-1.007,-0.580,0.549,86.667,9780.000,1.000
3.264,1.374,3.938,-3.048,-4.025,-8.366,-5.215,-6.602,-0.106,0.943,-0.379,-0.916,-0.610,0.580,86.667,9781.000,1.000
4.860,4.402,5.791,-2.551,-3.238,-8.266,-4.855,-6.409,-0.105,0.941,-0.377,-0.977,-0.671,0.549,86.667,9782.000,1.000
6.500,7.162,7.458,-1.817,-2.314,-7.856,-4.411,-5.918,-0.106,0.940,-0.377,-0.916,-0.641,0.519,86.667,9783.000,1.000
8.835,10.554,9.490,-0.121,-0.410,-6.032,-2.680,-4.342,-0.105,0.938,-0.378,-0.946,-0.702,0.397,86.667,9784.000,1.000
12.200,15.150,12.209,2.909,2.858,-2.200,1.003,-1.265,-0.106,0.939,-0.376,-1.007,-0.702,0.366,86.667,9785.000,1.000
16.362,20.803,15.553,7.089,7.345,3.450,6.490,3.224,-0.104,0.938,-0.374,-0.916,-0.702,0.305,86.667,9786.000,1.000
20.287,26.432,18.787,11.412,12.195,9.699,12.592,8.291,-0.106,0.940,-0.375,-0.885,-0.702,0.275,86.667,9787.000,1.000
22.368,30.306,20.547,14.222,15.877,14.592,17.325,12.394,-0.107,0.940,-0.375,-0.763,-0.824,0.214,86.667,9788.000,1.000
21.485,31.070,19.767,14.310,17.057,16.569,19.070,14.200,-0.105,0.939,-0.375,-0.702,-0.763,0.305,86.667,9789.000,1.000
17.842,28.612,16.493,11.786,15.482,15.323,17.480,13.449,-0.106,0.940,-0.378,-0.732,-0.824,0.244,86.667,9790.000,1.000
12.674,23.945,11.720,7.791,11.942,11.609,13.283,10.829,-0.108,0.942,-0.376,-0.702,-0.824,0.153,86.667,9791.000,1.000
7.362,18.483,6.730,3.718,7.664,6.601,7.650,7.373,-0.105,0.941,-0.373,-0.671,-0.793,0.183,86.667,9792.000,1.000
2.960,13.573,2.688,0.805,3.900,1.576,1.958,4.141,-0.105,0.939,-0.376,-0.793,-0.946,0.214,86.667,9793.000,1.000
0.221,10.390,0.518,-0.029,1.773,-2.079,-2.249,2.134,-0.108,0.940,-0.377,-0.702,-0.946,0.214,86.667,9794.000,1.000
-0.517,9.655,0.625,1.442,1.908,-3.204,-3.711,2.008,-0.107,0.942,-0.377,-0.793,-1.038,0.153,86.667,9795.000,1.000
0.340,11.241,2.592,4.475,3.981,-1.585,-2.148,3.707,-0.107,0.942,-0.375,-0.732,-0.977,0.214,86.667,9796.000,1.000
1.734,14.209,5.345,7.674,6.831,1.852,1.555,6.423,-0.108,0.944,-0.374,-0.732,-0.977,0.183,86.667,9797.000,1.000
2.555,17.318,7.727,9.720,9.138,5.627,5.900,8.962,-0.107,0.947,-0.379,-0.671,-0.946,0.153,86.667,9798.000,1.000
2.261,19.571,9.027,10.013,10.107,8.420,9.560,10.315,-0.106,0.945,-0.375,-0.671,-1.068,0.214,86.667,9799.000,1.000
1.042,20.537,9.213,8.863,9.719,9.491,11.857,10.146,-0.106,0.944,-0.376,-0.824,-0.977,0.153,86.667,9800.000,1.000
-0.573,20.291,8.686,7.016,8.439,8.762,12.652,8.753,-0.104,0.944,-0.375,-0.946,-1.007,0.153,86.667,9801.000,1.000
-2.249,19.106,7.787,4.983,6.733,6.627,12.017,6.583,-0.106,0.945,-0.377,-0.946,-1.038,0.122,86.667,9802.000,1.000
-3.885,17.332,6.671,2.901,4.948,3.805,10.213,4.021,-0.107,0.946,-0.378,-1.068,-1.038,0.183,86.667,9803.000,1.000
-5.353,15.406,5.517,0.839,3.442,1.204,7.814,1.546,-0.107,0.944,-0.378,-1.129,-0.916,0.275,86.667,9804.000,1.000
-6.465,13.703,4.517,-1.108,2.491,-0.407,5.527,-0.305,-0.107,0.946,-0.375,-1.221,-0.885,0.305,86.667,9805.000,1.000
-7.166,12.329,3.654,-2.972,2.035,-0.793,3.813,-1.309,-0.104,0.943,-0.376,-1.282,-0.916,0.336,86.667,9806.000,1.000
-7.696,10.983,2.606,-4.928,1.605,-0.399,2.626,-1.836,-0.105,0.943,-0.376,-1.160,-0.824,0.244,86.667,9807.000,1.000
-8.398,9.186,0.981,-7.062,0.629,-0.053,1.549,-2.584,-0.105,0.943,-0.375,-1.099,-0.793,0.214,86.667,9808.000,1.000
-9.142,7.091,-1.041,-8.963,-0.816,-0.148,0.491,-3.704,-0.106,0.945,-0.376,-1.038,-0.793,0.275,86.667,9809.000,1.000
-9.056,5.945,-2.357,-9.653,-1.590,-0.029,0.270,-4.257,-0.105,0.942,-0.375,-1.129,-0.824,0.244,86.667,9810.000,1.000
-7.369,7.089,-1.801,-8.388,-0.373,1.365,1.943,-3.058,-0.107,0.943,-0.375,-1.190,-0.732,0.275,86.667,9811.000,1.000
-4.500,10.429,0.568,-5.635,2.849,4.158,5.413,-0.101,-0.105,0.941,-0.376,-1.160,-0.671,0.244,86.667,9812.000,1.000
-1.879,14.328,3.408,-2.889,6.568,7.200,9.131,3.186,-0.105,0.943,-0.378,-1.129,-0.641,0.275,86.667,9813.000,1.000
-0.768,16.834,5.220,-1.539,8.897,8.903,11.149,5.026,-0.105,0.944,-0.377,-1.129,-0.671,0.214,86.667,9814.000,1.000
-1.481,16.710,5.218,-2.033,8.716,8.196,10.322,4.443,-0.106,0.942,-0.377,-1.099,-0.641,0.244,86.667,9815.000,1.000
-3.499,13.802,3.425,-3.816,6.086,4.980,6.803,1.665,-0.104,0.940,-0.376,-1.160,-0.519,0.214,86.667,9816.000,1.000
-5.883,9.050,0.563,-5.720,2.108,0.199,1.891,-2.083,-0.104,0.943,-0.377,-1.129,-0.488,0.244,86.667,9817.000,1.000
-7.418,4.339,-1.918,-6.347,-1.390,-4.259,-2.312,-4.919,-0.103,0.943,-0.377,-1.160,-0.336,0.305,86.667,9818.000,1.000
-6.809,1.879,-2.247,-4.541,-2.505,-6.127,-3.696,-5.007,-0.104,0.942,-0.379,-1.129,-0.336,0.336,86.667,9819.000,1.000
-3.557,2.839,0.365,-0.225,-0.518,-4.197,-1.580,-1.884,-0.105,0.941,-0.376,-1.099,-0.305,0.305,86.667,9820.000,1.000
1.341,6.392,4.854,5.210,3.369,0.587,2.595,2.874,-0.107,0.942,-0.376,-1.038,-0.244,0.305,86.667,9821.000,1.000
6.009,10.360,9.058,9.667,6.859,5.764,6.364,6.730,-0.106,0.941,-0.379,-1.068,-0.214,0.397,86.667,9822.000,1.000
8.801,12.583,11.070,11.458,8.013,8.883,7.752,7.805,-0.108,0.940,-0.378,-1.129,-0.153,0.336,86.667,9823.000,1.000
8.973,11.874,10.102,10.055,6.199,8.638,6.054,5.720,-0.109,0.942,-0.377,-1.160,-0.092,0.397,86.667,9824.000,1.000
6.965,8.504,6.822,6.402,2.375,5.464,2.088,1.629,-0.106,0.941,-0.376,-1.068,-0.122,0.336,86.667,9825.000,1.000
4.180,4.052,2.978,2.459,-1.505,1.324,-2.204,-2.459,-0.106,0.941,-0.375,-1.007,-0.153,0.366,86.667,9826.000,1.000
2.178,0.447,0.245,-0.015,-3.777,-1.520,-4.952,-4.852,-0.106,0.942,-0.375,-1.068,-0.153,0.397,86.667,9827.000,1.000
1.774,-1.205,-0.817,-0.497,-4.013,-1.955,-5.500,-5.089,-0.108,0.943,-0.373,-1.068,-0.153,0.336,86.667,9828.000,1.000
2.587,-1.260,-0.931,0.155,-3.086,-0.656,-4.618,-4.059,-0.108,0.942,-0.373,-1.129,-0.183,0.397,86.667,9829.000,1.000
3.424,-1.139,-1.368,0.509,-2.419,0.627,-3.733,-3.237,-0.107,0.943,-0.371,-1.068,-0.183,0.366,86.667,9830.000,1.000
3.386,-2.063,-2.805,-0.236,-2.862,0.624,-3.808,-3.518,-0.111,0.939,-0.372,-1.007,-0.183,0.397,86.667,9831.000,1.000
2.597,-4.169,-4.811,-1.746,-4.177,-0.570,-4.781,-4.649,-0.110,0.939,-0.375,-0.977,-0.336,0.488,86.667,9832.000,1.000
1.774,-6.774,-6.461,-3.140,-5.563,-2.002,-5.957,-5.751,-0.112,0.939,-0.378,-0.916,-0.427,0.427,86.667,9833.000,1.000
1.320,-9.184,-7.270,-3.906,-6.476,-2.836,-6.711,-6.248,-0.111,0.939,-0.378,-0.977,-0.397,0.458,86.667,9834.000,1.000
1.074,-11.042,-7.392,-4.162,-6.800,-2.754,-6.752,-6.147,-0.112,0.940,-0.375,-0.885,-0.397,0.458,86.667,9835.000,1.000
0.880,-12.071,-7.068,-4.136,-6.421,-1.735,-5.891,-5.554,-0.110,0.941,-0.374,-0.885,-0.519,0.519,86.667,9836.000,1.000
0.887,-11.992,-6.332,-3.782,-5.146,0.062,-4.054,-4.427,-0.109,0.940,-0.375,-0.824,-0.580,0.427,86.667,9837.000,1.000
1.091,-10.998,-5.387,-3.056,-3.270,2.063,-1.763,-2.988,-0.108,0.938,-0.371,-0.763,-0.580,0.397,86.667,9838.000,1.000
0.962,-9.984,-4.845,-2.277,-1.852,3.284,-0.260,-1.986,-0.110,0.940,-0.375,-0.793,-0.549,0.427,86.667,9839.000,1.000
-0.195,-10.034,-5.399,-2.061,-2.095,2.850,-0.809,-2.300,-0.108,0.940,-0.376,-0.793,-0.702,0.549,86.667,9840.000,1.000
-2.548,-11.644,-7.227,-2.859,-4.411,0.581,-3.757,-4.253,-0.110,0.941,-0.377,-0.793,-0.763,0.427,86.667,9841.000,1.000
-5.349,-14.316,-9.665,-4.438,-7.995,-2.821,-8.133,-7.188,-0.108,0.943,-0.377,-0.763,-0.824,0.488,86.667,9842.000,1.000
-7.351,-16.885,-11.587,-5.884,-11.281,-6.083,-12.176,-9.776,-0.109,0.944,-0.377,-0.793,-0.793,0.549,86.667,9843.000,1.000
-7.745,-18.312,-12.221,-6.281,-12.927,-8.039,-14.401,-10.935,-0.110,0.944,-0.379,-0.793,-0.732,0.519,86.667,9844.000,1.000
-6.709,-18.278,-11.640,-5.384,-12.533,-8.236,-14.368,-10.456,-0.107,0.945,-0.379,-0.885,-0.885,0.519,86.667,9845.000,1.000
-5.161,-17.227,-10.523,-3.668,-10.658,-7.100,-12.659,-8.886,-0.104,0.946,-0.379,-0.946,-0.885,0.519,86.667,9846.000,1.000
-4.100,-15.934,-9.551,-1.919,-8.306,-5.531,-10.300,-7.042,-0.105,0.945,-0.375,-0.977,-0.854,0.488,86.667,9847.000,1.000
-4.004,-14.881,-8.954,-0.799,-6.258,-4.214,-8.110,-5.541,-0.105,0.944,-0.373,-1.160,-0.916,0.610,86.667,9848.000,1.000
-4.565,-13.878,-8.414,-0.500,-4.700,-3.236,-6.352,-4.483,-0.104,0.944,-0.375,-1.251,-0.916,0.671,86.667,9849.000,1.000
-4.977,-12.308,-7.341,-0.663,-3.326,-2.250,-4.791,-3.460,-0.104,0.945,-0.381,-1.221,-0.763,0.732,86.667,9850.000,1.000
-4.535,-9.715,-5.321,-0.649,-1.720,-0.892,-2.978,-1.898,-0.102,0.947,-0.376,-1.251,-0.732,0.671,86.667,9851.000,1.000
-3.072,-6.167,-2.386,0.044,0.347,0.964,-0.545,0.528,-0.104,0.945,-0.376,-1.434,-0.732,0.641,86.667,9852.000,1.000
-1.103,-2.322,0.898,1.398,2.675,3.040,2.428,3.500,-0.104,0.945,-0.378,-1.404,-0.671,0.641,86.667,9853.000,1.000
0.345,0.639,3.466,2.654,4.452,4.491,5.105,5.892,-0.104,0.944,-0.375,-1.373,-0.671,0.580,86.667,9854.000,1.000
0.345,1.482,4.158,2.623,4.577,4.168,6.198,6.323,-0.103,0.942,-0.375,-1.465,-0.610,0.549,86.667,9855.000,1.000
-1.158,-0.147,2.581,0.635,2.623,1.616,5.046,4.355,-0.104,0.941,-0.375,-1.495,-0.671,0.519,86.667,9856.000,1.000
-3.085,-3.135,-0.264,-2.650,-0.412,-2.080,2.549,1.238,-0.103,0.941,-0.373,-1.526,-0.641,0.549,86.667,9857.000,1.000
-3.722,-5.299,-2.314,-5.354,-2.424,-4.629,0.948,-0.632,-0.103,0.941,-0.376,-1.556,-0.519,0.549,86.667,9858.000,1.000
-1.694,-4.570,-1.607,-5.396,-1.438,-3.882,2.463,0.808,-0.102,0.939,-0.375,-1.495,-0.397,0.488,86.667,9859.000,1.000
2.985,-0.360,2.333,-1.925,2.953,0.658,7.605,5.819,-0.103,0.940,-0.378,-1.404,-0.458,0.458,86.667,9860.000,1.000
8.511,5.778,7.891,3.790,8.952,7.138,14.382,12.350,-0.103,0.941,-0.376,-1.343,-0.275,0.458,86.667,9861.000,1.000
12.184,10.932,12.207,8.948,13.447,12.221,19.278,17.092,-0.105,0.940,-0.374,-1.343,-0.214,0.397,86.667,9862.000,1.000
12.000,12.498,12.846,10.878,13.851,12.993,19.339,17.437,-0.103,0.939,-0.372,-1.312,-0.214,0.336,86.667,9863.000,1.000
7.724,9.481,9.079,8.505,9.513,8.502,13.782,12.910,-0.102,0.938,-0.376,-1.343,-0.183,0.336,86.667,9864.000,1.000
0.881,2.878,2.165,2.783,1.959,0.158,4.346,5.266,-0.103,0.939,-0.375,-1.312,-0.183,0.275,86.667,9865.000,1.000
-6.060,-4.822,-5.371,-3.898,-5.961,-8.987,-5.574,-2.567,-0.104,0.938,-0.376,-1.221,-0.214,0.275,86.667,9866.000,1.000
-10.871,-10.924,-11.051,-9.018,-11.581,-15.833,-12.678,-8.039,-0.106,0.938,-0.375,-1.068,-0.153,0.305,86.667,9867.000,1.000
-12.564,-13.980,-13.651,-11.249,-13.741,-18.804,-15.470,-10.183,-0.108,0.937,-0.376,-1.007,-0.214,0.275,86.667,9868.000,1.000
-11.591,-14.240,-13.453,-10.841,-13.032,-18.228,-14.608,-9.652,-0.105,0.938,-0.376,-0.977,-0.244,0.305,86.667,9869.000,1.000
-9.163,-12.803,-11.548,-8.908,-10.913,-15.454,-11.756,-7.749,-0.104,0.935,-0.379,-0.885,-0.092,0.275,86.667,9870.000,1.000
-6.349,-10.534,-8.941,-6.454,-8.545,-11.687,-8.228,-5.462,-0.104,0.936,-0.374,-0.671,-0.092,0.214,86.667,9871.000,1.000
-3.679,-7.774,-6.174,-4.002,-6.298,-7.504,-4.562,-3.187,-0.104,0.937,-0.376,-0.580,-0.122,0.275,86.667,9872.000,1.000
-1.338,-4.747,-3.579,-1.854,-4.121,-3.214,-0.978,-1.057,-0.106,0.937,-0.375,-0.519,-0.122,0.336,86.667,9873.000,1.000
0.441,-1.918,-1.612,-0.386,-2.153,0.619,2.079,0.662,-0.107,0.942,-0.380,-0.488,-0.183,0.244,86.667,9874.000,1.000
1.183,0.033,-0.868,-0.035,-0.894,3.152,3.871,1.516,-0.108,0.945,-0.377,-0.549,-0.183,0.275,86.667,9875.000,1.000
0.359,0.504,-1.764,-1.028,-0.877,3.771,3.749,1.106,-0.105,0.944,-0.376,-0.671,-0.244,0.122,86.667,9876.000,1.000
-2.187,-0.691,-4.205,-3.114,-2.198,2.547,1.606,-0.611,-0.107,0.944,-0.376,-0.763,-0.275,0.153,86.667,9877.000,1.000
-5.882,-3.031,-7.412,-5.474,-4.220,0.320,-1.850,-3.068,-0.107,0.945,-0.377,-0.854,-0.305,0.122,86.667,9878.000,1.000
-9.505,-5.376,-10.121,-6.972,-5.745,-1.629,-5.175,-5.107,-0.108,0.944,-0.374,-0.854,-0.275,0.122,86.667,9879.000,1.000
-11.719,-6.599,-11.182,-6.773,-5.687,-2.184,-6.845,-5.547,-0.107,0.944,-0.374,-0.977,-0.397,0.183,86.667,9880.000,1.000
-11.637,-6.100,-10.055,-4.755,-3.659,-0.847,-6.021,-3.862,-0.105,0.944,-0.373,-1.007,-0.366,0.153,86.667,9881.000,1.000
-9.228,-3.926,-6.994,-1.535,-0.158,2.098,-2.917,-0.484,-0.105,0.943,-0.373,-1.160,-0.336,0.214,86.667,9882.000,1.000
-5.493,-0.787,-3.060,1.722,3.578,5.621,1.280,3.286,-0.105,0.944,-0.377,-1.190,-0.366,0.336,86.667,9883.000,1.000
-2.002,2.199,0.385,3.820,6.172,8.407,4.988,5.892,-0.106,0.944,-0.378,-1.160,-0.397,0.366,86.667,9884.000,1.000
-0.013,4.007,2.373,4.142,6.845,9.507,6.963,6.341,-0.104,0.946,-0.378,-1.099,-0.305,0.397,86.667,9885.000,1.000
0.034,4.029,2.590,2.836,5.658,8.592,6.665,4.585,-0.106,0.947,-0.376,-1.190,-0.244,0.427,86.667,9886.000,1.000
-1.440,2.242,1.315,0.643,3.351,5.943,4.398,1.426,-0.105,0.946,-0.376,-1.312,-0.305,0.366,86.667,9887.000,1.000
-3.384,-0.651,-0.668,-1.349,1.090,2.500,1.283,-1.808,-0.106,0.946,-0.374,-1.343,-0.336,0.397,86.667,9888.000,1.000
-4.710,-3.545,-2.410,-2.202,-0.093,-0.461,-1.292,-3.858,-0.106,0.944,-0.376,-1.465,-0.305,0.244,86.667,9889.000,1.000
-5.033,-5.751,-3.393,-1.737,-0.027,-2.163,-2.617,-4.233,-0.106,0.944,-0.376,-1.373,-0.275,0.305,86.667,9890.000,1.000
-4.773,-7.356,-3.749,-0.614,0.485,-2.804,-3.044,-3.418,-0.108,0.944,-0.375,-1.343,-0.397,0.244,86.667,9891.000,1.000
-4.511,-8.714,-3.869,0.290,0.386,-3.121,-3.425,-2.330,-0.107,0.943,-0.376,-1.404,-0.458,0.183,86.667,9892.000,1.000
-4.372,-9.837,-3.920,0.570,-0.815,-3.634,-4.228,-1.580,-0.110,0.945,-0.373,-1.404,-0.427,0.122,86.667,9893.000,1.000
-4.013,-10.354,-3.735,0.477,-2.808,-4.298,-5.160,-1.226,-0.110,0.945,-0.373,-1.434,-0.519,-0.031,86.667,9894.000,1.000
-2.961,-9.833,-3.002,0.552,-4.787,-4.654,-5.475,-1.025,-0.110,0.944,-0.374,-1.465,-0.549,-0.061,86.667,9895.000,1.000
-0.824,-7.980,-1.393,1.291,-5.819,-4.104,-4.524,-0.653,-0.110,0.943,-0.374,-1.556,-0.549,-0.153,86.667,9896.000,1.000
2.558,-4.828,1.312,3.013,-5.220,-2.231,-2.132,0.251,-0.111,0.943,-0.376,-1.495,-0.732,-0.122,86.667,9897.000,1.000
6.945,-0.914,4.992,5.745,-2.876,0.901,1.306,1.971,-0.112,0.943,-0.375,-1.526,-0.916,-0.153,86.667,9898.000,1.000
11.680,2.809,9.033,9.114,0.663,4.654,5.005,4.460,-0.112,0.941,-0.377,-1.465,-0.916,-0.244,86.667,9899.000,1.000
15.852,5.339,12.449,12.365,4.342,7.994,8.084,7.154,-0.110,0.942,-0.374,-1.404,-0.916,-0.305,86.667,9900.000,1.000
18.525,5.993,14.250,14.557,6.922,9.882,9.813,9.074,-0.109,0.942,-0.372,-1.373,-0.977,-0.244,86.667,9901.000,1.000
18.935,4.470,13.780,14.825,7.344,9.637,9.718,9.218,-0.107,0.943,-0.375,-1.282,-0.977,-0.153,86.667,9902.000,1.000
16.899,0.988,11.069,12.780,5.247,7.312,7.807,7.182,-0.108,0.946,-0.372,-1.312,-1.068,-0.061,86.667,9903.000,1.000
13.449,-3.222,7.326,9.129,1.607,4.079,5.086,3.853,-0.108,0.945,-0.373,-1.312,-1.099,0.031,86.667,9904.000,1.000
10.726,-6.041,4.715,5.741,-1.404,1.893,3.450,1.271,-0.109,0.945,-0.373,-1.404,-1.099,0.122,86.667,9905.000,1.000
10.505,-5.887,4.866,4.436,-1.911,2.093,4.352,1.166,-0.109,0.946,-0.374,-1.526,-1.160,0.183,86.667,9906.000,1.000
12.790,-3.033,7.572,5.598,0.268,4.299,7.540,3.571,-0.109,0.944,-0.370,-1.495,-1.160,0.427,86.667,9907.000,1.000
16.093,0.797,11.231,8.159,3.858,6.926,11.357,7.074,-0.111,0.944,-0.372,-1.495,-1.190,0.610,86.667,9908.000,1.000
18.801,3.953,14.275,10.631,7.320,8.504,14.020,10.039,-0.110,0.944,-0.372,-1.465,-1.160,0.732,86.667,9909.000,1.000
20.072,5.820,15.952,11.897,9.626,8.385,14.506,11.408,-0.112,0.941,-0.373,-1.526,-1.129,0.793,86.667,9910.000,1.000
19.881,6.739,16.271,11.519,10.447,6.738,12.798,10.934,-0.109,0.941,-0.372,-1.556,-1.160,0.763,86.667,9911.000,1.000
18.673,7.510,15.702,9.771,10.044,4.291,9.749,9.134,-0.109,0.942,-0.371,-1.495,-1.129,0.916,86.667,9912.000,1.000
16.935,8.931,14.831,7.321,8.879,1.847,6.562,6.834,-0.108,0.941,-0.369,-1.648,-1.190,0.885,86.667,9913.000,1.000
14.952,11.453,14.085,4.809,7.278,-0.141,4.131,4.619,-0.106,0.941,-0.374,-1.617,-1.221,0.916,86.667,9914.000,1.000
12.941,15.125,13.706,2.701,5.546,-1.478,2.843,2.818,-0.105,0.940,-0.373,-1.648,-1.099,0.977,86.667,9915.000,1.000
11.325,19.888,13.915,1.397,4.261,-1.858,2.832,1.769,-0.103,0.940,-0.373,-1.526,-1.099,0.885,86.667,9916.000,1.000
10.617,25.804,14.926,1.186,4.165,-0.926,4.054,1.764,-0.104,0.939,-0.374,-1.556,-1.068,0.824,86.667,9917.000,1.000
10.927,32.887,16.712,1.980,5.641,1.172,6.077,2.711,-0.104,0.941,-0.371,-1.495,-0.977,0.854,86.667,9918.000,1.000
11.674,40.805,18.874,3.204,8.340,3.528,8.118,4.063,-0.103,0.940,-0.371,-1.373,-0.916,0.885,86.667,9919.000,1.000
11.866,48.838,20.788,4.103,11.380,4.996,9.455,5.133,-0.098,0.941,-0.375,-1.373,-0.763,0.916,86.667,9920.000,1.000
10.778,56.118,21.923,4.219,13.921,5.044,9.861,5.509,-0.099,0.940,-0.372,-1.404,-0.641,0.854,86.667,9921.000,1.000
8.415,61.794,22.022,3.603,15.536,4.079,9.656,5.249,-0.099,0.941,-0.372,-1.312,-0.458,0.732,86.667,9922.000,1.000
5.230,64.863,20.915,2.477,16.039,2.857,9.172,4.591,-0.099,0.941,-0.372,-1.343,-0.336,0.732,86.667,9923.000,1.000
1.482,64.079,18.268,0.775,15.150,1.670,8.168,3.497,-0.100,0.940,-0.373,-1.343,-0.153,0.671,86.667,9924.000,1.000
-2.738,58.743,13.984,-1.585,12.820,0.463,6.223,1.907,-0.098,0.942,-0.374,-1.373,-0.031,0.580,86.667,9925.000,1.000
-6.818,49.846,8.912,-3.985,9.924,-0.391,3.678,0.395,-0.100,0.941,-0.371,-1.373,0.122,0.580,86.667,9926.000,1.000
-9.674,39.664,4.489,-5.341,7.885,-0.210,1.525,-0.145,-0.101,0.942,-0.375,-1.373,0.214,0.519,86.667,9927.000,1.000
-10.685,30.049,1.513,-5.136,7.445,1.083,0.325,0.462,-0.101,0.942,-0.375,-1.312,0.336,0.427,86.667,9928.000,1.000
-10.187,21.396,-0.396,-3.859,8.132,2.664,-0.266,1.424,-0.102,0.942,-0.370,-1.251,0.397,0.397,86.667,9929.000,1.000
-9.173,12.833,-2.343,-2.626,8.665,3.326,-1.128,1.630,-0.103,0.942,-0.372,-1.282,0.458,0.427,86.667,9930.000,1.000
-8.698,3.089,-5.364,-2.520,7.708,2.205,-3.120,0.344,-0.104,0.942,-0.371,-1.312,0.519,0.336,86.667,9931.000,1.000
-9.358,-8.554,-9.841,-4.043,4.519,-0.796,-6.658,-2.477,-0.105,0.942,-0.371,-1.129,0.580,0.244,86.667,9932.000,1.000
-11.178,-21.796,-15.524,-6.997,-0.813,-5.079,-11.546,-6.337,-0.104,0.945,-0.370,-1.129,0.580,0.122,86.667,9933.000,1.000
-13.732,-35.450,-21.848,-10.687,-7.472,-9.649,-17.082,-10.518,-0.104,0.944,-0.371,-1.099,0.488,0.153,86.667,9934.000,1.000
-16.256,-47.898,-28.039,-14.132,-14.191,-13.460,-22.297,-14.266,-0.107,0.943,-0.372,-1.068,0.519,0.061,86.667,9935.000,1.000
-17.924,-57.750,-33.165,-16.389,-19.704,-15.806,-26.228,-16.900,-0.108,0.942,-0.374,-1.129,0.519,0.092,86.667,9936.000,1.000
-18.358,-64.490,-36.510,-17.077,-23.278,-16.607,-28.292,-18.030,-0.106,0.941,-0.372,-1.099,0.488,0.092,86.667,9937.000,1.000
-17.856,-68.599,-38.034,-16.644,-24.974,-16.324,-28.565,-17.758,-0.106,0.941,-0.369,-1.068,0.488,0.092,86.667,9938.000,1.000
-17.090,-71.066,-38.368,-16.020,-25.425,-15.528,-27.701,-16.622,-0.106,0.942,-0.370,-1.068,0.397,0.061,86.667,9939.000,1.000
-16.719,-72.879,-38.420,-16.047,-25.489,-14.663,-26.632,-15.449,-0.107,0.943,-0.371,-1.007,0.336,0.183,86.667,9940.000,1.000
-17.198,-74.778,-38.946,-17.134,-25.995,-14.174,-26.243,-15.128,-0.107,0.946,-0.371,-1.007,0.244,0.153,86.667,9941.000,1.000
-18.542,-76.977,-40.150,-19.086,-27.366,-14.435,-26.936,-16.116,-0.107,0.946,-0.374,-0.946,0.244,0.214,86.667,9942.000,1.000
-20.109,-78.920,-41.491,-21.087,-29.232,-15.359,-28.265,-17.966,-0.108,0.947,-0.370,-0.977,0.122,0.183,86.667,9943.000,1.000
-20.980,-79.704,-42.066,-22.161,-30.687,-16.410,-29.287,-19.605,-0.108,0.947,-0.372,-0.946,0.031,0.214,86.667,9944.000,1.000
-20.915,-79.106,-41.546,-22.049,-31.278,-17.283,-29.569,-20.395,-0.108,0.946,-0.371,-1.007,-0.031,0.366,86.667,9945.000,1.000
-20.782,-78.054,-40.634,-21.564,-31.542,-18.316,-29.682,-20.764,-0.110,0.946,-0.369,-1.068,-0.122,0.427,86.667,9946.000,1.000
-21.631,-77.692,-40.243,-21.727,-32.207,-19.870,-30.360,-21.488,-0.111,0.947,-0.369,-1.129,-0.183,0.580,86.667,9947.000,1.000
-23.307,-77.916,-40.204,-22.477,-32.963,-21.400,-31.252,-22.483,-0.112,0.943,-0.368,-1.068,-0.427,0.580,86.667,9948.000,1.000
-24.369,-77.197,-39.197,-22.532,-32.481,-21.572,-30.905,-22.675,-0.111,0.941,-0.369,-0.946,-0.427,0.580,86.667,9949.000,1.000
-23.435,-73.905,-36.074,-20.641,-29.707,-19.458,-28.104,-21.048,-0.109,0.941,-0.373,-0.946,-0.458,0.549,86.667,9950.000,1.000
-20.239,-67.441,-30.889,-16.711,-24.815,-15.441,-22.965,-17.537,-0.107,0.941,-0.371,-0.885,-0.610,0.549,86.667,9951.000,1.000
-15.551,-58.274,-24.609,-11.706,-18.920,-10.902,-16.693,-12.937,-0.107,0.942,-0.370,-0.854,-0.671,0.427,86.667,9952.000,1.000
-10.445,-47.362,-18.153,-6.744,-13.144,-7.107,-10.590,-8.214,-0.106,0.941,-0.369,-0.824,-0.702,0.458,86.667,9953.000,1.000
-5.637,-35.685,-11.795,-2.374,-7.996,-4.376,-5.364,-3.984,-0.106,0.944,-0.370,-0.732,-0.824,0.336,86.667,9954.000,1.000
-1.382,-24.250,-5.407,1.418,-3.521,-2.272,-1.261,-0.506,-0.108,0.943,-0.375,-0.793,-0.916,0.336,86.667,9955.000,1.000
2.246,-14.206,0.875,4.783,0.231,-0.343,1.549,2.088,-0.106,0.943,-0.374,-0.793,-0.854,0.336,86.667,9956.000,1.000
5.134,-6.602,6.376,7.700,3.027,1.491,2.950,3.728,-0.107,0.942,-0.373,-0.793,-0.916,0.305,86.667,9957.000,1.000
7.077,-1.980,10.152,9.912,4.576,2.936,2.995,4.438,-0.106,0.940,-0.372,-0.702,-0.946,0.366,86.667,9958.000,1.000
7.848,-0.139,11.515,11.072,4.739,3.518,2.013,4.346,-0.107,0.939,-0.370,-0.702,-0.946,0.336,86.667,9959.000,1.000
7.420,-0.182,10.516,10.996,3.759,2.971,0.681,3.712,-0.106,0.941,-0.372,-0.671,-1.068,0.366,86.667,9960.000,1.000
6.161,-0.836,8.022,9.816,2.260,1.500,-0.199,2.864,-0.105,0.944,-0.373,-0.549,-1.007,0.122,86.667,9961.000,1.000
4.612,-1.127,5.230,7.886,0.833,-0.411,-0.304,1.966,-0.105,0.944,-0.370,-0.580,-0.977,0.122,86.667,9962.000,1.000
3.054,-1.037,2.956,5.558,-0.426,-2.415,-0.121,0.898,-0.106,0.945,-0.371,-0.519,-0.977,0.031,86.667,9963.000,1.000
1.522,-1.312,1.425,3.203,-1.772,-4.357,-0.418,-0.421,-0.106,0.941,-0.374,-0.610,-0.946,0.092,86.667,9964.000,1.000
0.196,-2.545,0.561,1.325,-3.224,-5.987,-1.417,-1.649,-0.104,0.942,-0.375,-0.580,-0.946,0.153,86.667,9965.000,1.000
-0.692,-4.763,0.123,0.317,-4.496,-7.032,-2.773,-2.275,-0.107,0.942,-0.373,-0.580,-0.916,0.092,86.667,9966.000,1.000
-1.305,-7.775,-0.379,0.064,-5.494,-7.523,-4.163,-2.192,-0.109,0.940,-0.373,-0.580,-0.977,0.122,86.667,9967.000,1.000
-2.104,-11.426,-1.487,0.045,-6.471,-7.711,-5.498,-1.743,-0.109,0.936,-0.372,-0.610,-0.977,0.153,86.667,9968.000,1.000
-3.392,-15.708,-3.548,-0.271,-7.801,-7.838,-6.798,-1.410,-0.109,0.937,-0.372,-0.427,-0.946,0.092,86.667,9969.000,1.000
-5.068,-20.924,-6.677,-1.109,-9.709,-8.027,-8.037,-1.494,-0.108,0.938,-0.375,-0.305,-0.916,0.061,86.667,9970.000,1.000
-6.628,-27.366,-10.592,-2.177,-11.965,-8.122,-8.881,-1.840,-0.107,0.939,-0.373,-0.214,-0.916,-0.061,86.667,9971.000,1.000
-7.424,-34.262,-14.376,-2.816,-13.801,-7.702,-8.688,-1.896,-0.106,0.939,-0.375,-0.153,-0.885,0.031,86.667,9972.000,1.000
-6.931,-38.557,-16.360,-2.326,-14.048,-6.240,-6.731,-1.017,-0.105,0.941,-0.374,-0.214,-0.854,0.092,86.667,9973.000,1.000
-4.801,-35.134,-14.435,-0.133,-11.349,-3.149,-2.382,1.313,-0.104,0.941,-0.373,-0.153,-0.824,0.122,86.667,9974.000,1.000
-0.958,-19.389,-6.998,4.083,-4.669,2.044,4.658,5.321,-0.106,0.941,-0.375,-0.214,-0.824,0.214,86.667,9975.000,1.000
4.392,9.762,6.143,10.286,6.146,9.457,14.153,10.901,-0.108,0.941,-0.375,-0.153,-0.793,0.183,86.667,9976.000,1.000
10.962,48.839,23.545,18.116,20.169,18.689,25.314,17.692,-0.110,0.943,-0.373,-0.122,-0.885,0.031,86.667,9977.000,1.000
18.249,90.765,42.397,26.713,35.383,28.603,36.736,24.873,-0.111,0.943,-0.376,-0.122,-0.885,0.122,86.667,9978.000,1.000
25.155,127.142,59.171,34.549,48.969,37.309,46.483,31.011,-0.112,0.944,-0.377,-0.122,-1.038,0.000,86.667,9979.000,1.000
30.240,151.395,70.788,39.894,58.276,42.893,52.749,34.629,-0.111,0.943,-0.375,-0.122,-1.129,-0.061,86.667,9980.000,1.000
32.529,161.270,75.790,41.681,61.989,44.398,54.735,35.049,-0.107,0.942,-0.377,-0.275,-1.129,-0.153,86.667,9981.000,1.000
31.961,158.798,74.652,39.956,60.494,42.063,52.883,32.612,-0.106,0.944,-0.377,-0.214,-1.190,-0.061,86.667,9982.000,1.000
29.257,148.198,69.152,35.703,55.334,36.975,48.447,28.347,-0.105,0.942,-0.377,-0.275,-1.007,-0.092,86.667,9983.000,1.000
25.513,133.782,61.477,30.329,48.423,30.680,42.891,23.531,-0.106,0.943,-0.376,-0.366,-1.099,-0.153,86.667,9984.000,1.000
21.730,118.956,53.553,25.053,41.403,24.722,37.388,19.194,-0.106,0.941,-0.376,-0.336,-0.977,-0.092,86.667,9985.000,1.000
18.508,106.020,46.733,20.572,35.305,20.158,32.609,15.827,-0.108,0.942,-0.379,-0.275,-0.916,-0.061,86.667,9986.000,1.000
16.039,96.020,41.649,17.095,30.535,17.312,28.835,13.442,-0.108,0.944,-0.383,-0.183,-0.732,-0.122,86.667,9987.000,1.000
14.180,88.574,38.110,14.464,26.967,15.802,26.034,11.704,-0.105,0.946,-0.381,-0.275,-0.824,0.000,86.667,9988.000,1.000
12.556,82.266,35.252,12.224,24.094,14.781,23.849,10.068,-0.105,0.948,-0.380,-0.397,-0.702,0.122,86.667,9989.000,1.000
10.713,75.666,32.050,9.811,21.323,13.361,21.712,8.015,-0.106,0.949,-0.379,-0.397,-0.671,0.153,86.667,9990.000,1.000
8.384,68.308,27.998,6.946,18.429,11.158,19.267,5.422,-0.105,0.949,-0.376,-0.580,-0.519,0.275,86.667,9991.000,1.000
5.885,61.039,23.633,4.064,15.958,8.782,16.959,2.949,-0.105,0.948,-0.377,-0.732,-0.488,0.275,86.667,9992.000,1.000
4.145,55.339,20.287,2.225,15.012,7.601,15.987,1.897,-0.107,0.947,-0.377,-0.824,-0.549,0.305,86.667,9993.000,1.000
3.945,51.998,18.964,2.266,16.230,8.588,17.226,3.201,-0.107,0.947,-0.379,-0.946,-0.458,0.336,86.667,9994.000,1.000
5.175,50.520,19.464,4.024,19.008,11.426,20.264,6.517,-0.105,0.946,-0.376,-0.977,-0.427,0.458,86.667,9995.000,1.000
6.926,49.735,20.606,6.417,21.837,14.744,23.605,10.362,-0.106,0.944,-0.375,-0.916,-0.397,0.397,86.667,9996.000,1.000
8.081,48.559,20.975,8.014,23.171,16.945,25.548,12.973,-0.107,0.942,-0.377,-0.977,-0.397,0.519,86.667,9997.000,1.000
7.945,46.323,19.627,7.780,22.183,17.032,25.038,13.251,-0.106,0.943,-0.378,-0.977,-0.305,0.488,86.667,9998.000,1.000
6.708,42.954,16.631,5.766,19.216,15.142,22.204,11.373,-0.105,0.943,-0.378,-0.916,-0.275,0.488,86.667,9999.000,1.000
5.414,39.001,13.138,3.214,15.681,12.439,18.350,8.692,-0.107,0.941,-0.378,-0.977,-0.244,0.549,86.667,10000.000,1.000
5.324,35.283,10.737,1.819,13.259,10.402,15.256,6.901,-0.107,0.942,-0.376,-0.916,-0.214,0.488,86.667,10001.000,1.000
7.060,32.242,10.357,2.576,12.793,9.910,14.099,6.934,-0.106,0.943,-0.374,-0.946,-0.183,0.458,86.667,10002.000,1.000
10.047,29.498,11.522,5.046,13.700,10.647,14.623,8.358,-0.104,0.943,-0.374,-0.977,-0.092,0.610,86.667,10003.000,1.000
12.709,26.015,12.625,7.627,14.361,11.300,15.302,9.760,-0.104,0.943,-0.377,-1.007,0.031,0.671,86.667,10004.000,1.000
13.464,20.799,12.063,8.684,13.235,10.520,14.493,9.850,-0.103,0.939,-0.371,-1.007,0.183,0.732,86.667,10005.000,1.000
11.757,13.593,9.231,7.571,9.783,7.807,11.558,8.272,-0.102,0.940,-0.374,-0.946,0.214,0.641,86.667,10006.000,1.000
8.226,5.058,4.658,4.758,4.615,3.640,7.079,5.584,-0.103,0.940,-0.376,-0.824,0.214,0.671,86.667,10007.000,1.000
4.157,-3.536,-0.521,1.297,-0.970,-0.913,2.284,2.730,-0.102,0.941,-0.374,-0.885,0.305,0.763,86.667,10008.000,1.000
0.842,-10.818,-5.130,-1.718,-5.577,-4.651,-1.661,0.519,-0.102,0.942,-0.375,-1.007,0.214,0.702,86.667,10009.000,1.000
-0.866,-15.863,-8.342,-3.519,-8.246,-6.690,-4.094,-0.665,-0.106,0.941,-0.376,-1.007,0.275,0.671,86.667,10010.000,1.000
-0.841,-18.662,-9.947,-3.997,-8.869,-6.888,-5.113,-0.967,-0.106,0.942,-0.376,-1.068,0.275,0.580,86.667,10011.000,1.000
0.239,-20.197,-10.430,-3.810,-8.249,-5.963,-5.532,-1.020,-0.106,0.941,-0.376,-1.099,0.336,0.458,86.667,10012.000,1.000
1.179,-21.895,-10.723,-4.012,-7.643,-5.045,-6.388,-1.654,-0.107,0.939,-0.374,-1.129,0.305,0.549,86.667,10013.000,1.000
0.807,-24.855,-11.715,-5.414,-8.125,-5.050,-8.278,-3.460,-0.109,0.939,-0.375,-1.160,0.244,0.519,86.667,10014.000,1.000
-1.523,-29.468,-13.891,-8.199,-10.177,-6.335,-11.107,-6.471,-0.107,0.940,-0.372,-1.038,0.275,0.397,86.667,10015.000,1.000
-5.530,-35.328,-17.123,-11.848,-13.523,-8.617,-14.218,-10.026,-0.107,0.939,-0.374,-1.007,0.336,0.305,86.667,10016.000,1.000
-9.888,-41.228,-20.570,-15.210,-17.147,-10.962,-16.653,-12.925,-0.107,0.942,-0.370,-1.038,0.183,0.305,86.667,10017.000,1.000
-12.707,-45.490,-22.935,-16.884,-19.597,-12.015,-17.477,-13.920,-0.107,0.939,-0.371,-1.038,0.031,0.336,86.667,10018.000,1.000
-12.599,-46.763,-23.164,-15.998,-19.678,-10.710,-16.211,-12.354,-0.107,0.941,-0.376,-1.068,0.000,0.336,86.667,10019.000,1.000
-9.609,-44.802,-21.166,-12.874,-17.240,-7.102,-13.224,-8.642,-0.111,0.938,-0.375,-1.099,-0.122,0.275,86.667,10020.000,1.000
-5.231,-40.621,-17.921,-8.968,-13.384,-2.504,-9.716,-4.191,-0.109,0.938,-0.373,-1.007,-0.153,0.153,86.667,10021.000,1.000
-1.436,-35.940,-14.851,-6.026,-9.798,1.234,-7.119,-0.680,-0.108,0.940,-0.375,-1.068,-0.214,0.214,86.667,10022.000,1.000
0.436,-32.360,-13.007,-5.123,-7.860,2.683,-6.362,0.776,-0.109,0.941,-0.373,-1.038,-0.275,0.122,86.667,10023.000,1.000
0.093,-30.889,-12.737,-6.275,-8.193,1.355,-7.610,-0.049,-0.109,0.943,-0.373,-1.099,-0.366,0.122,86.667,10024.000,1.000
-1.939,-31.882,-13.837,-8.707,-10.626,-2.267,-10.405,-2.626,-0.108,0.943,-0.373,-1.099,-0.427,0.183,86.667,10025.000,1.000
-4.677,-35.002,-15.751,-11.328,-14.335,-6.965,-13.900,-5.976,-0.107,0.945,-0.374,-1.038,-0.549,0.183,86.667,10026.000,1.000
-7.145,-39.303,-17.830,-13.186,-18.213,-11.301,-17.193,-9.080,-0.106,0.944,-0.374,-1.129,-0.641,0.183,86.667,10027.000,1.000
-8.756,-43.570,-19.598,-13.810,-21.319,-14.242,-19.648,-11.272,-0.109,0.944,-0.374,-1.160,-0.732,0.183,86.667,10028.000,1.000
-9.292,-46.726,-20.739,-13.249,-23.044,-15.429,-20.940,-12.371,-0.108,0.946,-0.374,-1.160,-0.854,0.214,86.667,10029.000,1.000
-8.850,-48.275,-21.095,-11.963,-23.236,-15.201,-21.132,-12.610,-0.107,0.945,-0.375,-1.160,-0.824,0.183,86.667,10030.000,1.000
-8.037,-48.634,-20.921,-10.761,-22.484,-14.598,-20.921,-12.544,-0.109,0.946,-0.371,-1.099,-0.946,0.153,86.667,10031.000,1.000
-7.807,-48.827,-20.869,-10.504,-21.940,-14.932,-21.405,-12.841,-0.107,0.946,-0.374,-1.251,-1.160,0.183,86.667,10032.000,1.000
-8.754,-49.638,-21.478,-11.568,-22.481,-16.865,-23.210,-13.871,-0.109,0.948,-0.373,-1.251,-1.221,0.183,86.667,10033.000,1.000
-10.548,-51.025,-22.694,-13.572,-24.015,-19.834,-25.854,-15.383,-0.107,0.947,-0.370,-1.312,-1.282,0.275,86.667,10034.000,1.000
-12.087,-52.218,-23.856,-15.600,-25.548,-22.422,-28.014,-16.613,-0.108,0.945,-0.370,-1.404,-1.434,0.122,86.667,10035.000,1.000
-12.183,-52.184,-24.036,-16.575,-25.807,-23.190,-28.312,-16.695,-0.110,0.943,-0.371,-1.465,-1.373,0.214,86.667,10036.000,1.000
-10.245,-50.177,-22.508,-15.592,-23.866,-21.321,-25.947,-15.008,-0.109,0.945,-0.373,-1.465,-1.434,0.153,86.667,10037.000,1.000
-6.737,-46.306,-19.305,-12.469,-19.743,-17.084,-21.123,-11.539,-0.108,0.943,-0.372,-1.465,-1.404,0.092,86.667,10038.000,1.000
-3.061,-41.595,-15.436,-8.127,-14.588,-11.858,-15.128,-7.121,-0.107,0.941,-0.372,-1.251,-1.434,0.031,86.667,10039.000,1.000
-0.687,-37.238,-12.278,-4.121,-10.005,-7.320,-9.681,-3.027,-0.107,0.939,-0.370,-1.312,-1.373,0.092,86.667,10040.000,1.000
-0.330,-33.952,-10.767,-1.744,-7.108,-4.501,-6.059,-0.309,-0.104,0.940,-0.370,-1.221,-1.373,0.092,86.667,10041.000,1.000
-1.859,-31.934,-11.083,-1.515,-6.161,-3.517,-4.738,0.522,-0.105,0.940,-0.373,-1.160,-1.404,0.031,86.667,10042.000,1.000
-4.472,-30.804,-12.559,-2.976,-6.562,-3.677,-5.302,-0.297,-0.104,0.941,-0.373,-1.099,-1.434,0.122,86.667,10043.000,1.000
-6.784,-29.491,-13.721,-4.735,-7.014,-3.745,-6.483,-1.657,-0.104,0.941,-0.375,-1.007,-1.282,0.092,86.667,10044.000,1.000
-7.290,-26.809,-12.994,-5.107,-6.174,-2.603,-6.766,-2.096,-0.104,0.939,-0.372,-1.007,-1.251,0.122,86.667,10045.000,1.000
-5.379,-22.499,-9.876,-3.244,-3.635,-0.066,-5.415,-0.884,-0.103,0.941,-0.369,-0.977,-1.160,0.122,86.667,10046.000,1.000
-1.999,-17.676,-5.492,0.138,-0.429,2.853,-3.072,1.309,-0.103,0.941,-0.369,-0.916,-1.099,0.122,86.667,10047.000,1.000
0.834,-14.170,-1.980,3.134,1.494,4.502,-1.385,2.820,-0.103,0.942,-0.372,-0.793,-1.129,0.153,86.667,10048.000,1.000
1.328,-13.348,-1.187,3.876,0.480,3.600,-1.905,2.127,-0.103,0.942,-0.375,-0.702,-0.916,0.214,86.667,10049.000,1.000
-0.973,-15.236,-3.506,1.739,-3.699,0.108,-5.021,-1.063,-0.102,0.941,-0.375,-0.671,-0.854,0.183,86.667,10050.000,1.000
-4.921,-18.405,-7.586,-2.267,-9.489,-4.555,-9.606,-5.500,-0.101,0.942,-0.374,-0.702,-0.793,0.092,86.667,10051.000,1.000
-8.564,-20.786,-11.244,-6.210,-14.389,-8.289,-13.703,-9.185,-0.104,0.941,-0.373,-0.702,-0.763,0.092,86.667,10052.000,1.000
-10.499,-21.042,-12.960,-8.532,-16.524,-9.690,-15.800,-10.728,-0.107,0.939,-0.368,-0.671,-0.641,0.031,86.667,10053.000,1.000
-10.641,-19.363,-12.651,-8.916,-15.688,-8.843,-15.701,-10.133,-0.105,0.939,-0.371,-0.641,-0.519,0.031,86.667,10054.000,1.000
-9.886,-17.074,-11.315,-8.162,-13.146,-6.966,-14.349,-8.541,-0.104,0.939,-0.369,-0.671,-0.549,0.031,86.667,10055.000,1.000
-9.291,-15.587,-10.186,-7.397,-10.626,-5.480,-12.957,-7.358,-0.105,0.940,-0.373,-0.580,-0.519,0.061,86.667,10056.000,1.000
-9.421,-15.539,-9.952,-7.268,-9.309,-5.211,-12.181,-7.348,-0.106,0.943,-0.375,-0.641,-0.366,0.061,86.667,10057.000,1.000
-10.037,-16.446,-10.361,-7.597,-9.315,-6.050,-11.817,-8.154,-0.106,0.943,-0.371,-0.641,-0.305,0.092,86.667,10058.000,1.000
-10.387,-17.133,-10.574,-7.709,-9.928,-7.247,-11.150,-8.691,-0.106,0.941,-0.370,-0.610,-0.244,0.122,86.667,10059.000,1.000
-9.955,-16.741,-10.067,-7.209,-10.362,-8.084,-9.675,-8.163,-0.104,0.941,-0.370,-0.519,-0.214,0.092,86.667,10060.000,1.000
-8.963,-15.449,-9.172,-6.404,-10.390,-8.393,-7.572,-6.725,-0.106,0.943,-0.374,-0.488,-0.183,0.122,86.667,10061.000,1.000
-8.265,-14.377,-8.828,-6.083,-10.440,-8.690,-5.690,-5.362,-0.104,0.942,-0.376,-0.488,-0.122,0.214,86.667,10062.000,1.000
-8.713,-14.674,-9.811,-6.863,-11.057,-9.707,-4.939,-5.090,-0.107,0.941,-0.373,-0.519,-0.061,0.275,86.667,10063.000,1.000
-10.358,-16.367,-11.926,-8.546,-12.108,-11.504,-5.405,-6.046,-0.106,0.941,-0.373,-0.427,0.000,0.336,86.667,10064.000,1.000
-12.303,-18.110,-14.000,-10.154,-12.656,-13.128,-6.125,-7.360,-0.105,0.941,-0.374,-0.458,-0.031,0.305,86.667,10065.000,1.000
-13.355,-18.148,-14.664,-10.644,-11.634,-13.175,-5.774,-7.866,-0.106,0.941,-0.371,-0.458,0.092,0.366,86.667,10066.000,1.000
-12.802,-15.503,-13.149,-9.545,-8.617,-10.737,-3.613,-6.892,-0.108,0.942,-0.376,-0.397,0.122,0.366,86.667,10067.000,1.000
-10.632,-10.448,-9.559,-7.085,-4.110,-6.067,-0.016,-4.574,-0.110,0.941,-0.374,-0.397,0.061,0.458,86.667,10068.000,1.000
-7.257,-4.114,-4.619,-3.826,0.822,-0.467,3.837,-1.582,-0.107,0.941,-0.376,-0.336,0.031,0.458,86.667,10069.000,1.000
-3.214,2.242,0.736,-0.203,5.210,4.548,6.827,1.418,-0.108,0.941,-0.374,-0.397,0.031,0.488,86.667,10070.000,1.000
0.952,7.751,5.657,3.587,8.540,7.993,8.514,4.034,-0.108,0.943,-0.372,-0.397,0.061,0.458,86.667,10071.000,1.000
4.737,12.017,9.500,7.311,10.654,9.589,9.108,6.040,-0.107,0.944,-0.374,-0.397,0.092,0.427,86.667,10072.000,1.000
7.593,14.824,11.791,10.442,11.497,9.540,8.998,7.198,-0.107,0.944,-0.377,-0.488,0.031,0.458,86.667,10073.000,1.000
8.873,15.936,12.234,12.315,11.017,8.253,8.381,7.259,-0.106,0.945,-0.376,-0.427,0.000,0.519,86.667,10074.000,1.000
8.181,15.378,10.926,12.581,9.353,6.208,7.347,6.211,-0.107,0.946,-0.375,-0.366,0.061,0.519,86.667,10075.000,1.000
5.873,13.885,8.583,11.520,7.108,4.041,6.176,4.531,-0.107,0.947,-0.375,-0.397,0.092,0.488,86.667,10076.000,1.000
3.060,12.747,6.387,9.951,5.298,2.562,5.379,3.080,-0.108,0.946,-0.376,-0.488,0.092,0.519,86.667,10077.000,1.000
0.926,12.995,5.356,8.705,4.779,2.331,5.313,2.544,-0.108,0.946,-0.374,-0.549,0.092,0.519,86.667,10078.000,1.000
-0.050,14.688,5.748,8.046,5.596,3.155,5.797,2.893,-0.108,0.944,-0.377,-0.549,0.061,0.488,86.667,10079.000,1.000
-0.156,17.080,7.109,7.689,7.061,4.273,6.301,3.525,-0.108,0.943,-0.377,-0.519,-0.031,0.458,86.667,10080.000,1.000
0.287,19.681,8.970,7.466,8.590,5.210,6.658,4.047,-0.107,0.942,-0.376,-0.610,-0.153,0.519,86.667,10081.000,1.000
1.393,22.912,11.277,7.672,10.294,6.249,7.392,4.714,-0.110,0.941,-0.375,-0.732,-0.122,0.458,86.667,10082.000,1.000
3.306,27.487,14.026,8.591,12.578,7.936,9.117,5.979,-0.108,0.943,-0.376,-0.610,-0.153,0.458,86.667,10083.000,1.000
5.750,33.499,16.916,10.050,15.513,10.314,11.850,7.882,-0.108,0.944,-0.378,-0.732,-0.275,0.427,86.667,10084.000,1.000
8.265,40.409,19.625,11.681,18.832,12.910,15.111,10.084,-0.107,0.945,-0.375,-0.763,-0.275,0.427,86.667,10085.000,1.000
10.593,47.586,22.158,13.318,22.297,15.281,18.466,12.303,-0.109,0.945,-0.374,-0.824,-0.244,0.458,86.667,10086.000,1.000
12.541,54.540,24.671,14.918,25.706,17.219,21.653,14.396,-0.108,0.945,-0.376,-0.793,-0.275,0.427,86.667,10087.000,1.000
13.740,60.799,27.131,16.265,28.682,18.564,24.401,16.159,-0.110,0.942,-0.374,-0.916,-0.275,0.427,86.667,10088.000,1.000
13.829,65.827,29.255,16.988,30.756,19.224,26.439,17.338,-0.108,0.942,-0.374,-0.916,-0.549,0.458,86.667,10089.000,1.000
12.663,69.016,30.584,16.723,31.582,19.258,27.547,17.733,-0.108,0.944,-0.375,-1.068,-0.549,0.458,86.667,10090.000,1.000
10.294,69.763,30.615,15.161,30.956,18.644,27.423,17.133,-0.106,0.943,-0.374,-1.129,-0.458,0.549,86.667,10091.000,1.000
7.051,67.731,29.085,12.273,28.853,17.166,25.783,15.361,-0.107,0.943,-0.375,-1.068,-0.397,0.549,86.667,10092.000,1.000
3.789,63.239,26.304,8.717,25.692,14.844,22.823,12.646,-0.107,0.943,-0.375,-1.007,-0.519,0.427,86.667,10093.000,1.000
1.745,57.233,23.136,5.798,22.419,12.341,19.414,9.849,-0.106,0.942,-0.376,-1.068,-0.580,0.336,86.667,10094.000,1.000
1.734,50.570,20.395,4.639,19.893,10.515,16.478,7.944,-0.105,0.943,-0.376,-1.038,-0.580,0.366,86.667,10095.000,1.000
3.562,43.438,18.273,5.399,18.157,9.597,14.237,7.252,-0.106,0.941,-0.376,-1.068,-0.641,0.427,86.667,10096.000,1.000
6.351,35.647,16.448,7.337,16.524,9.067,12.220,7.302,-0.106,0.942,-0.379,-1.007,-0.671,0.458,86.667,10097.000,1.000
9.200,27.210,14.563,9.375,14.294,8.235,9.840,7.339,-0.106,0.941,-0.377,-1.068,-0.793,0.305,86.667,10098.000,1.000
11.442,18.523,12.460,10.567,11.236,6.692,6.825,6.783,-0.106,0.940,-0.378,-1.099,-0.732,0.397,86.667,10099.000,1.000
12.564,10.132,10.036,10.336,7.516,4.270,3.193,5.368,-0.107,0.939,-0.375,-0.977,-0.702,0.336,86.667,10100.000,1.000
12.159,2.385,7.071,8.522,3.452,0.918,-0.923,3.165,-0.107,0.940,-0.376,-1.007,-0.824,0.336,86.667,10101.000,1.000
10.095,-4.808,3.323,5.313,-0.627,-3.183,-5.282,0.514,-0.104,0.941,-0.374,-1.007,-0.732,0.336,86.667,10102.000,1.000
6.752,-11.788,-1.174,1.189,-4.461,-7.505,-9.529,-2.219,-0.106,0.940,-0.374,-1.129,-0.732,0.275,86.667,10103.000,1.000
3.164,-18.542,-5.799,-2.998,-7.757,-11.142,-13.121,-4.691,-0.104,0.941,-0.377,-1.099,-0.793,0.244,86.667,10104.000,1.000
0.826,-24.327,-9.378,-6.059,-10.030,-12.956,-15.282,-6.430,-0.105,0.942,-0.375,-1.038,-0.763,0.275,86.667,10105.000,1.000
0.810,-28.312,-11.007,-7.185,-10.998,-12.321,-15.542,-7.154,-0.105,0.942,-0.374,-1.068,-0.732,0.122,86.667,10106.000,1.000
2.802,-30.686,-10.987,-6.754,-11.177,-9.862,-14.376,-7.270,-0.105,0.938,-0.371,-1.068,-0.671,0.214,86.667,10107.000,1.000
5.414,-32.517,-10.544,-5.943,-11.490,-6.948,-12.759,-7.419,-0.107,0.937,-0.372,-0.946,-0.702,0.183,86.667,10108.000,1.000
7.334,-34.698,-10.707,-5.688,-12.389,-4.608,-11.259,-7.713,-0.106,0.938,-0.373,-0.854,-0.732,0.153,86.667,10109.000,1.000
7.800,-37.583,-11.855,-6.376,-13.738,-3.288,-10.059,-7.905,-0.105,0.940,-0.372,-0.732,-0.793,0.122,86.667,10110.000,1.000
6.524,-41.173,-13.916,-8.036,-15.205,-3.112,-9.383,-7.915,-0.106,0.941,-0.373,-0.641,-0.824,0.153,86.667,10111.000,1.000
3.849,-44.978,-16.381,-10.219,-16.347,-3.803,-9.296,-7.763,-0.106,0.940,-0.375,-0.702,-0.763,0.092,86.667,10112.000,1.000
0.783,-47.993,-18.353,-12.025,-16.644,-4.638,-9.450,-7.392,-0.106,0.942,-0.376,-0.702,-0.732,0.061,86.667,10113.000,1.000
-1.634,-49.362,-19.164,-12.757,-15.957,-5.007,-9.553,-6.903,-0.104,0.944,-0.375,-0.702,-0.702,0.122,86.667,10114.000,1.000
-3.000,-49.084,-18.969,-12.499,-14.876,-4.998,-9.825,-6.709,-0.107,0.945,-0.374,-0.763,-0.671,0.092,86.667,10115.000,1.000
-3.604,-47.923,-18.549,-11.913,-14.352,-5.278,-10.732,-7.211,-0.106,0.943,-0.376,-0.793,-0.641,0.092,86.667,10116.000,1.000
-4.002,-46.757,-18.604,-11.592,-14.974,-6.384,-12.414,-8.408,-0.105,0.942,-0.377,-0.824,-0.671,0.183,86.667,10117.000,1.000
-4.503,-45.947,-19.188,-11.566,-16.492,-8.086,-14.370,-9.773,-0.106,0.942,-0.374,-0.854,-0.610,0.244,86.667,10118.000,1.000
-4.996,-45.136,-19.719,-11.314,-18.016,-9.512,-15.691,-10.535,-0.107,0.941,-0.373,-0.885,-0.549,0.153,86.667,10119.000,1.000
-5.301,-43.706,-19.580,-10.353,-18.751,-9.973,-15.741,-10.235,-0.105,0.943,-0.373,-0.885,-0.580,0.122,86.667,10120.000,1.000
-5.525,-41.341,-18.604,-8.699,-18.471,-9.513,-14.615,-9.011,-0.107,0.944,-0.374,-0.916,-0.641,0.061,86.667,10121.000,1.000
-5.957,-38.106,-17.023,-6.757,-17.400,-8.670,-12.893,-7.375,-0.106,0.945,-0.377,-0.885,-0.549,0.061,86.667,10122.000,1.000
-6.774,-34.164,-15.212,-4.976,-15.869,-7.967,-11.089,-5.802,-0.105,0.944,-0.378,-0.916,-0.641,0.122,86.667,10123.000,1.000
-7.909,-29.567,-13.451,-3.633,-14.106,-7.565,-9.318,-4.493,-0.105,0.944,-0.378,-0.916,-0.641,0.122,86.667,10124.000,1.000
-9.074,-24.246,-11.758,-2.745,-12.162,-7.197,-7.354,-3.393,-0.105,0.945,-0.376,-1.007,-0.610,0.031,86.667,10125.000,1.000
-9.903,-18.135,-9.908,-2.146,-10.012,-6.461,-4.945,-2.399,-0.108,0.943,-0.376,-0.946,-0.488,0.214,86.667,10126.000,1.000
-10.111,-11.291,-7.643,-1.601,-7.679,-5.168,-2.064,-1.438,-0.106,0.942,-0.376,-1.038,-0.549,0.092,86.667,10127.000,1.000
-9.523,-3.849,-4.844,-0.812,-5.117,-3.293,1.193,-0.337,-0.108,0.942,-0.374,-1.007,-0.488,0.031,86.667,10128.000,1.000
-8.167,3.936,-1.630,0.386,-2.236,-0.894,4.622,1.081,-0.108,0.942,-0.378,-0.977,-0.397,0.031,86.667,10129.000,1.000
-6.395,11.476,1.555,1.751,0.750,1.658,7.704,2.651,-0.106,0.942,-0.374,-1.007,-0.427,0.122,86.667,10130.000,1.000
-4.653,17.919,4.174,2.799,3.294,3.703,9.747,3.877,-0.106,0.944,-0.375,-1.038,-0.488,0.153,86.667,10131.000,1.000
-3.169,22.610,5.933,3.190,4.966,4.634,10.360,4.413,-0.107,0.945,-0.374,-1.068,-0.427,0.122,86.667,10132.000,1.000
-2.060,25.452,6.821,2.817,5.733,4.111,9.630,4.314,-0.108,0.944,-0.376,-0.946,-0.427,0.183,86.667,10133.000,1.000
-1.492,26.990,7.056,1.839,5.936,2.256,8.004,3.871,-0.108,0.942,-0.376,-1.038,-0.519,0.275,86.667,10134.000,1.000
-1.329,28.337,7.275,0.888,6.309,-0.016,6.350,3.575,-0.109,0.941,-0.375,-1.038,-0.580,0.244,86.667,10135.000,1.000
-0.848,30.781,8.493,0.936,7.800,-1.126,5.898,4.188,-0.107,0.941,-0.376,-1.068,-0.427,0.153,86.667,10136.000,1.000
0.722,34.967,11.397,2.512,10.888,0.179,7.507,6.284,-0.109,0.941,-0.374,-1.068,-0.519,0.275,86.667,10137.000,1.000
3.408,40.294,15.645,5.109,15.036,3.793,10.819,9.519,-0.108,0.940,-0.377,-0.946,-0.519,0.214,86.667,10138.000,1.000
6.392,45.161,19.973,7.483,18.898,8.186,14.327,12.577,-0.107,0.940,-0.379,-0.916,-0.488,0.153,86.667,10139.000,1.000
8.635,47.918,23.017,8.598,21.106,11.386,16.375,14.016,-0.107,0.941,-0.378,-0.885,-0.427,0.275,86.667,10140.000,1.000
9.752,48.047,24.267,8.469,21.226,12.414,16.350,13.382,-0.104,0.941,-0.376,-0.916,-0.488,0.305,86.667,10141.000,1.000
10.422,46.678,24.462,8.247,20.189,12.052,15.138,11.667,-0.106,0.940,-0.373,-1.007,-0.519,0.336,86.667,10142.000,1.000
11.650,45.583,24.774,9.205,19.471,11.962,14.279,10.467,-0.108,0.940,-0.372,-0.977,-0.519,0.305,86.667,10143.000,1.000
13.517,45.507,25.516,11.499,19.711,12.972,14.512,10.564,-0.109,0.940,-0.376,-0.946,-0.427,0.366,86.667,10144.000,1.000
14.982,45.731,25.887,14.029,20.322,14.491,15.319,11.416,-0.110,0.940,-0.372,-0.946,-0.397,0.458,86.667,10145.000,1.000
14.739,44.954,24.779,15.308,20.181,15.311,15.579,11.772,-0.107,0.941,-0.371,-0.946,-0.458,0.427,86.667,10146.000,1.000
12.092,42.233,21.629,14.377,18.421,14.508,14.324,10.567,-0.108,0.944,-0.375,-0.946,-0.519,0.366,86.667,10147.000,1.000
7.494,37.575,16.906,11.434,15.036,11.973,11.326,7.676,-0.107,0.941,-0.377,-1.007,-0.549,0.427,86.667,10148.000,1.000
2.512,32.053,12.000,7.790,11.036,8.490,7.391,4.107,-0.109,0.942,-0.374,-1.007,-0.641,0.366,86.667,10149.000,1.000
-1.147,27.037,8.259,4.844,7.705,5.140,3.833,1.274,-0.108,0.943,-0.378,-1.007,-0.549,0.458,86.667,10150.000,1.000
-2.760,23.163,6.053,3.062,5.628,2.599,1.533,-0.049,-0.107,0.943,-0.377,-0.977,-0.580,0.458,86.667,10151.000,1.000
-2.717,20.110,4.840,2.040,4.537,1.059,0.578,-0.134,-0.109,0.944,-0.377,-1.099,-0.549,0.458,86.667,10152.000,1.000
-1.795,17.277,3.904,1.209,3.863,0.570,0.588,0.149,-0.108,0.946,-0.377,-1.129,-0.549,0.519,86.667,10153.000,1.000
-0.628,14.397,2.839,0.242,3.201,1.178,1.082,0.079,-0.106,0.945,-0.376,-1.160,-0.671,0.549,86.667,10154.000,1.000
0.282,11.553,1.523,-0.979,2.409,2.709,1.635,-0.553,-0.107,0.945,-0.377,-1.129,-0.641,0.488,86.667,10155.000,1.000
0.540,9.016,0.024,-2.370,1.580,4.641,2.006,-1.513,-0.108,0.944,-0.376,-1.129,-0.671,0.488,86.667,10156.000,1.000
-0.019,7.065,-1.430,-3.691,0.928,6.251,2.178,-2.371,-0.108,0.945,-0.376,-1.190,-0.702,0.397,86.667,10157.000,1.000
-1.354,5.649,-2.640,-4.764,0.532,6.850,2.219,-2.773,-0.107,0.948,-0.373,-1.190,-0.793,0.458,86.667,10158.000,1.000
-3.344,4.246,-3.642,-5.634,0.194,6.044,2.190,-2.640,-0.107,0.946,-0.368,-1.251,-0.763,0.458,86.667,10159.000,1.000
-5.743,2.261,-4.628,-6.450,-0.364,3.986,2.163,-2.155,-0.106,0.943,-0.371,-1.343,-0.763,0.488,86.667,10160.000,1.000
-8.068,-0.451,-5.724,-7.285,-1.245,1.325,2.142,-1.649,-0.107,0.944,-0.375,-1.343,-0.732,0.519,86.667,10161.000,1.000
-9.754,-3.596,-6.910,-8.133,-2.431,-1.340,1.874,-1.498,-0.107,0.943,-0.372,-1.282,-0.610,0.458,86.667,10162.000,1.000
-10.460,-6.808,-8.083,-8.915,-3.911,-3.904,0.861,-2.005,-0.107,0.943,-0.372,-1.282,-0.702,0.488,86.667,10163.000,1.000
-10.145,-9.805,-9.021,-9.389,-5.596,-6.546,-1.293,-3.242,-0.107,0.944,-0.369,-1.373,-0.641,0.336,86.667,10164.000,1.000
-8.947,-12.338,-9.418,-9.179,-7.221,-9.297,-4.524,-4.991,-0.108,0.940,-0.372,-1.434,-0.641,0.366,86.667,10165.000,1.000
-7.181,-14.242,-9.164,-8.109,-8.478,-11.962,-8.286,-6.859,-0.108,0.941,-0.375,-1.434,-0.580,0.336,86.667,10166.000,1.000
-5.299,-15.552,-8.502,-6.409,-9.215,-14.265,-11.763,-8.455,-0.105,0.940,-0.374,-1.282,-0.671,0.366,86.667,10167.000,1.000
-3.602,-16.370,-7.736,-4.478,-9.393,-15.804,-14.102,-9.438,-0.106,0.941,-0.372,-1.160,-0.793,0.305,86.667,10168.000,1.000
-2.020,-16.681,-6.884,-2.578,-8.971,-16.046,-14.688,-9.514,-0.107,0.941,-0.374,-1.099,-0.732,0.305,86.667,10169.000,1.000
-0.370,-16.458,-5.780,-0.864,-7.987,-14.656,-13.508,-8.655,-0.107,0.939,-0.373,-1.099,-0.580,0.366,86.667,10170.000,1.000
1.378,-15.721,-4.298,0.602,-6.575,-11.729,-11.157,-7.170,-0.104,0.939,-0.370,-1.007,-0.641,0.397,86.667,10171.000,1.000
3.115,-14.395,-2.338,2.003,-4.713,-7.610,-8.333,-5.347,-0.105,0.939,-0.372,-1.007,-0.549,0.427,86.667,10172.000,1.000
4.628,-12.464,0.078,3.616,-2.280,-2.846,-5.442,-3.251,-0.106,0.941,-0.375,-0.854,-0.488,0.519,86.667,10173.000,1.000
5.592,-10.329,2.500,5.362,0.451,1.615,-2.750,-1.052,-0.104,0.942,-0.379,-0.793,-0.580,0.366,86.667,10174.000,1.000
5.721,-8.779,4.048,6.666,2.625,4.623,-0.706,0.697,-0.105,0.942,-0.376,-0.702,-0.549,0.366,86.667,10175.000,1.000
4.987,-8.551,3.908,6.866,3.357,5.473,0.150,1.370,-0.105,0.943,-0.375,-0.671,-0.458,0.397,86.667,10176.000,1.000
3.670,-9.885,1.911,5.766,2.372,4.352,-0.395,0.766,-0.107,0.943,-0.373,-0.793,-0.458,0.366,86.667,10177.000,1.000
2.062,-12.443,-1.480,3.641,0.004,2.041,-2.168,-0.918,-0.106,0.946,-0.370,-0.824,-0.427,0.458,86.667,10178.000,1.000
0.208,-15.544,-5.551,0.843,-3.188,-0.702,-4.836,-3.337,-0.106,0.942,-0.373,-0.824,-0.427,0.458,86.667,10179.000,1.000
-1.871,-18.334,-9.477,-2.269,-6.473,-3.305,-7.832,-5.908,-0.104,0.942,-0.373,-0.824,-0.366,0.427,86.667,10180.000,1.000
-3.907,-19.965,-12.376,-5.206,-8.951,-5.239,-10.258,-7.794,-0.103,0.942,-0.375,-0.854,-0.305,0.458,86.667,10181.000,1.000
-5.545,-19.983,-13.721,-7.528,-9.987,-6.153,-11.328,-8.411,-0.103,0.941,-0.374,-0.916,-0.305,0.488,86.667,10182.000,1.000
-6.599,-18.561,-13.685,-9.045,-9.615,-6.095,-10.846,-7.800,-0.104,0.941,-0.372,-1.038,-0.305,0.458,86.667,10183.000,1.000
-7.006,-16.284,-12.885,-9.702,-8.351,-5.364,-9.175,-6.359,-0.103,0.938,-0.376,-1.038,-0.305,0.458,86.667,10184.000,1.000
-6.698,-13.762,-11.840,-9.434,-6.713,-4.242,-6.897,-4.448,-0.103,0.938,-0.377,-0.885,-0.244,0.549,86.667,10185.000,1.000
-5.732,-11.497,-10.786,-8.282,-5.052,-3.034,-4.562,-2.350,-0.103,0.941,-0.375,-0.854,-0.214,0.519,86.667,10186.000,1.000
-4.521,-9.987,-9.875,-6.562,-3.714,-2.163,-2.641,-0.438,-0.103,0.942,-0.375,-0.824,-0.153,0.580,86.667,10187.000,1.000
-3.713,-9.733,-9.385,-4.846,-3.169,-2.054,-1.584,0.745,-0.103,0.941,-0.377,-0.793,-0.153,0.549,86.667,10188.000,1.000
-3.762,-10.935,-9.584,-3.715,-3.840,-2.888,-1.760,0.665,-0.104,0.942,-0.373,-0.763,-0.122,0.397,86.667,10189.000,1.000
-4.407,-13.008,-10.257,-3.211,-5.522,-4.213,-2.978,-0.662,-0.104,0.943,-0.376,-0.732,-0.275,0.397,86.667,10190.000,1.000
-4.583,-14.539,-10.475,-2.553,-7.076,-4.838,-4.200,-2.308,-0.106,0.944,-0.375,-0.885,-0.336,0.275,86.667,10191.000,1.000
-3.145,-14.155,-9.243,-0.808,-7.192,-3.618,-4.227,-3.059,-0.107,0.945,-0.375,-0.854,-0.366,0.336,86.667,10192.000,1.000
0.157,-11.577,-6.413,2.112,-5.509,-0.489,-2.710,-2.438,-0.108,0.943,-0.375,-0.977,-0.458,0.092,86.667,10193.000,1.000
4.386,-7.907,-2.852,5.286,-2.903,3.374,-0.379,-0.980,-0.109,0.942,-0.372,-1.160,-0.458,0.000,86.667,10194.000,1.000
7.992,-4.982,0.153,7.481,-0.818,6.319,1.583,0.305,-0.108,0.941,-0.370,-1.038,-0.580,-0.183,86.667,10195.000,1.000
9.794,-4.150,1.708,7.995,-0.284,7.272,2.406,0.677,-0.111,0.940,-0.373,-0.946,-0.671,-0.305,86.667,10196.000,1.000
9.615,-5.390,1.781,7.009,-1.344,6.353,2.173,0.098,-0.112,0.940,-0.375,-0.946,-0.732,-0.336,86.667,10197.000,1.000
8.272,-7.492,1.111,5.427,-3.142,4.705,1.666,-0.804,-0.109,0.939,-0.376,-0.946,-0.732,-0.397,86.667,10198.000,1.000
6.940,-9.129,0.637,4.326,-4.604,3.568,1.719,-1.205,-0.111,0.939,-0.375,-0.854,-0.916,-0.458,86.667,10199.000,1.000
6.161,-9.996,0.681,4.143,-5.369,3.131,2.397,-0.839,-0.111,0.941,-0.375,-0.946,-1.160,-0.519,86.667,10200.000,1.000
5.542,-10.792,0.777,4.398,-5.966,2.440,2.897,-0.244,-0.109,0.943,-0.374,-0.854,-1.221,-0.610,86.667,10201.000,1.000
4.467,-12.150,0.406,4.303,-7.020,0.514,2.382,-0.144,-0.109,0.943,-0.376,-0.854,-1.251,-0.458,86.667,10202.000,1.000
2.869,-13.874,-0.363,3.444,-8.490,-2.643,0.787,-0.758,-0.109,0.944,-0.376,-0.885,-1.312,-0.366,86.667,10203.000,1.000
1.419,-14.950,-0.780,2.080,-9.520,-5.853,-0.979,-1.547,-0.109,0.945,-0.377,-0.824,-1.343,-0.366,86.667,10204.000,1.000
1.164,-14.050,0.191,1.069,-8.899,-7.312,-1.479,-1.469,-0.110,0.946,-0.373,-0.885,-1.434,-0.305,86.667,10205.000,1.000
2.670,-10.571,2.997,1.162,-6.058,-5.872,0.159,0.155,-0.110,0.946,-0.373,-1.038,-1.404,-0.061,86.667,10206.000,1.000
5.344,-5.480,6.817,2.165,-1.861,-2.134,3.365,2.814,-0.110,0.948,-0.372,-1.068,-1.373,0.061,86.667,10207.000,1.000
7.715,-0.788,10.004,3.045,1.884,1.910,6.506,5.070,-0.109,0.947,-0.371,-0.977,-1.495,0.183,86.667,10208.000,1.000
8.413,1.899,11.225,2.825,3.727,4.334,8.099,5.677,-0.109,0.944,-0.373,-1.190,-1.434,0.244,86.667,10209.000,1.000
7.005,2.306,10.235,1.338,3.485,4.424,7.707,4.439,-0.112,0.945,-0.369,-1.312,-1.434,0.336,86.667,10210.000,1.000
4.194,1.339,7.955,-0.632,2.224,2.834,6.038,2.286,-0.111,0.943,-0.368,-1.282,-1.495,0.427,86.667,10211.000,1.000
1.319,0.318,5.906,-1.814,1.466,0.895,4.386,0.661,-0.110,0.942,-0.372,-1.343,-1.556,0.519,86.667,10212.000,1.000
-0.293,0.429,5.478,-1.076,2.392,-0.079,4.057,0.856,-0.108,0.941,-0.376,-1.312,-1.495,0.580,86.667,10213.000,1.000
0.306,2.593,7.488,2.164,5.498,0.928,6.072,3.638,-0.107,0.941,-0.373,-1.343,-1.434,0.549,86.667,10214.000,1.000
3.118,6.869,11.654,7.377,10.174,4.095,10.495,8.646,-0.106,0.941,-0.374,-1.312,-1.526,0.702,86.667,10215.000,1.000
6.759,11.826,16.248,12.627,14.501,8.119,15.762,14.017,-0.104,0.941,-0.371,-1.221,-1.373,0.763,86.667,10216.000,1.000
9.151,15.268,18.907,15.517,16.242,10.833,19.419,17.310,-0.104,0.941,-0.369,-1.160,-1.251,0.763,86.667,10217.000,1.000
8.950,15.889,18.178,14.770,14.414,10.867,19.817,17.132,-0.103,0.939,-0.372,-1.129,-1.221,0.702,86.667,10218.000,1.000
6.240,14.001,14.325,10.870,9.832,8.456,17.004,13.848,-0.102,0.939,-0.372,-1.160,-1.282,0.702,86.667,10219.000,1.000
2.126,10.875,8.897,5.433,4.346,4.868,12.303,9.060,-0.102,0.939,-0.374,-1.099,-1.221,0.763,86.667,10220.000,1.000
-2.043,7.853,3.757,0.235,-0.217,1.526,7.405,4.650,-0.098,0.939,-0.376,-1.007,-1.007,0.793,86.667,10221.000,1.000
-5.333,5.712,0.102,-3.567,-2.887,-0.662,3.487,1.803,-0.098,0.940,-0.377,-1.007,-0.793,0.732,86.667,10222.000,1.000
-7.737,4.176,-2.190,-5.950,-4.018,-1.790,0.582,0.347,-0.099,0.941,-0.375,-0.916,-0.702,0.702,86.667,10223.000,1.000
-9.969,2.241,-4.206,-7.778,-4.805,-2.699,-2.107,-0.821,-0.096,0.940,-0.374,-0.916,-0.458,0.763,86.667,10224.000,1.000
-12.353,-0.476,-6.655,-9.675,-5.929,-3.844,-4.975,-2.360,-0.095,0.940,-0.374,-0.824,-0.305,0.702,86.667,10225.000,1.000
-14.072,-2.898,-8.950,-11.186,-6.752,-4.608,-7.274,-3.679,-0.097,0.941,-0.377,-0.854,-0.092,0.641,86.667,10226.000,1.000
-13.954,-3.438,-9.882,-11.399,-6.142,-4.109,-7.884,-3.753,-0.097,0.940,-0.376,-0.824,0.031,0.488,86.667,10227.000,1.000
-11.875,-1.597,-9.047,-10.242,-3.858,-2.442,-6.668,-2.472,-0.098,0.940,-0.374,-0.854,0.092,0.427,86.667,10228.000,1.000
-8.951,1.719,-7.220,-8.737,-0.759,-0.687,-4.707,-0.844,-0.100,0.940,-0.377,-0.702,0.244,0.336,86.667,10229.000,1.000
-6.504,5.089,-5.552,-8.076,2.041,0.091,-3.383,-0.079,-0.101,0.941,-0.377,-0.702,0.366,0.305,86.667,10230.000,1.000
-5.214,7.393,-4.808,-8.750,3.818,-0.455,-3.511,-0.739,-0.104,0.943,-0.375,-0.702,0.427,0.214,86.667,10231.000,1.000
-4.940,8.216,-5.011,-10.274,4.483,-1.895,-4.983,-2.449,-0.104,0.942,-0.375,-0.671,0.427,0.092,86.667,10232.000,1.000
-4.817,8.094,-5.321,-11.321,4.714,-3.222,-6.778,-4.025,-0.105,0.943,-0.371,-0.763,0.610,0.061,86.667,10233.000,1.000
-3.829,8.078,-4.585,-10.510,5.547,-3.420,-7.565,-4.166,-0.105,0.944,-0.373,-0.793,0.732,0.061,86.667,10234.000,1.000
-1.737,8.690,-2.397,-7.523,7.445,-2.250,-6.732,-2.459,-0.104,0.944,-0.374,-0.793,0.671,-0.061,86.667,10235.000,1.000
0.706,9.555,0.495,-3.364,9.853,-0.383,-4.739,0.354,-0.105,0.941,-0.376,-0.793,0.702,-0.031,86.667,10236.000,1.000
2.402,9.848,2.725,0.354,11.538,1.115,-2.679,2.970,-0.105,0.942,-0.378,-0.671,0.732,-0.061,86.667,10237.000,1.000
2.623,8.819,3.159,2.351,11.354,1.363,-1.656,4.279,-0.108,0.943,-0.377,-0.641,0.671,-0.092,86.667,10238.000,1.000
1.520,6.381,1.678,2.455,9.131,0.238,-2.072,3.974,-0.109,0.941,-0.370,-0.702,0.641,-0.031,86.667,10239.000,1.000
0.028,3.391,-0.744,1.607,5.855,-1.521,-3.383,2.612,-0.109,0.942,-0.372,-0.732,0.549,-0.061,86.667,10240.000,1.000
-0.999,0.976,-2.967,0.817,2.718,-3.054,-4.829,0.894,-0.109,0.942,-0.373,-0.702,0.519,-0.031,86.667,10241.000,1.000
-1.485,-0.444,-4.556,0.294,0.239,-4.134,-6.203,-0.918,-0.113,0.942,-0.373,-0.580,0.427,0.000,86.667,10242.000,1.000
-1.976,-1.329,-5.786,-0.377,-1.694,-5.169,-7.817,-2.886,-0.113,0.942,-0.375,-0.549,0.397,0.031,86.667,10243.000,1.000
-3.023,-2.381,-7.105,-1.557,-3.364,-6.625,-9.994,-5.021,-0.112,0.942,-0.375,-0.641,0.244,0.153,86.667,10244.000,1.000
-4.769,-3.905,-8.714,-3.195,-4.936,-8.535,-12.633,-7.094,-0.112,0.943,-0.372,-0.610,0.122,0.214,86.667,10245.000,1.000
-6.943,-5.795,-10.532,-5.015,-6.465,-10.562,-15.200,-8.748,-0.110,0.945,-0.377,-0.641,0.031,0.275,86.667,10246.000,1.000
-9.020,-7.827,-12.355,-6.832,-7.942,-12.362,-17.031,-9.725,-0.110,0.946,-0.379,-0.732,-0.031,0.305,86.667,10247.000,1.000
-10.360,-9.674,-13.836,-8.512,-9.197,-13.613,-17.622,-9.918,-0.110,0.947,-0.374,-0.671,-0.092,0.336,86.667,10248.000,1.000
-10.453,-10.806,-14.492,-9.830,-9.906,-13.954,-16.861,-9.405,-0.111,0.945,-0.374,-0.671,-0.366,0.427,86.667,10249.000,1.000
-9.235,-10.758,-14.013,-10.587,-9.852,-13.226,-15.205,-8.512,-0.109,0.945,-0.375,-0.763,-0.397,0.397,86.667,10250.000,1.000
-7.165,-9.531,-12.521,-10.774,-9.100,-11.705,-13.487,-7.739,-0.110,0.945,-0.375,-0.732,-0.397,0.488,86.667,10251.000,1.000
-4.974,-7.620,-10.502,-10.613,-7.918,-9.938,-12.452,-7.508,-0.109,0.945,-0.373,-0.824,-0.488,0.519,86.667,10252.000,1.000
-3.291,-5.639,-8.584,-10.463,-6.639,-8.385,-12.379,-7.950,-0.108,0.943,-0.375,-0.763,-0.610,0.458,86.667,10253.000,1.000
-2.550,-4.092,-7.404,-10.683,-5.635,-7.349,-13.058,-8.952,-0.109,0.942,-0.374,-0.702,-0.671,0.549,86.667,10254.000,1.000
-3.025,-3.344,-7.447,-11.439,-5.275,-7.064,-14.048,-10.383,-0.110,0.943,-0.374,-0.732,-0.763,0.519,86.667,10255.000,1.000
-4.592,-3.379,-8.615,-12.444,-5.638,-7.490,-14.803,-12.020,-0.108,0.942,-0.374,-0.793,-0.763,0.397,86.667,10256.000,1.000
-6.463,-3.611,-9.945,-12.845,-6.218,-8.072,-14.640,-13.246,-0.108,0.944,-0.376,-0.824,-0.793,0.427,86.667,10257.000,1.000
-7.384,-3.122,-9.994,-11.527,-6.041,-7.898,-12.823,-13.058,-0.107,0.942,-0.374,-0.885,-0.885,0.336,86.667,10258.000,1.000
-6.378,-1.288,-7.802,-7.850,-4.309,-6.269,-8.977,-10.674,-0.106,0.941,-0.375,-0.916,-0.916,0.366,86.667,10259.000,1.000
-3.539,1.617,-3.672,-2.329,-1.122,-3.304,-3.601,-6.290,-0.109,0.938,-0.373,-0.763,-0.977,0.366,86.667,10260.000,1.000
0.009,4.585,1.076,3.586,2.578,0.125,2.048,-1.084,-0.107,0.939,-0.374,-0.824,-0.977,0.458,86.667,10261.000,1.000
2.922,6.667,5.011,8.401,5.721,3.094,6.633,3.441,-0.107,0.940,-0.376,-0.824,-1.007,0.397,86.667,10262.000,1.000
4.345,7.505,7.244,11.227,7.619,5.133,9.276,6.098,-0.105,0.940,-0.372,-0.763,-1.068,0.275,86.667,10263.000,1.000
4.138,7.217,7.628,11.928,8.096,6.170,9.715,6.400,-0.107,0.942,-0.372,-0.702,-1.099,0.122,86.667,10264.000,1.000
2.745,6.055,6.621,10.953,7.398,6.250,8.249,4.675,-0.108,0.944,-0.376,-0.702,-1.038,0.122,86.667,10265.000,1.000
0.974,4.436,5.020,9.104,6.066,5.563,5.710,1.936,-0.106,0.945,-0.377,-0.763,-1.068,0.214,86.667,10266.000,1.000
-0.345,3.006,3.677,7.253,4.714,4.587,3.240,-0.559,-0.108,0.942,-0.375,-0.854,-0.977,0.275,86.667,10267.000,1.000
-0.842,2.222,3.108,5.910,3.641,3.795,1.677,-2.013,-0.107,0.939,-0.375,-0.793,-0.977,0.336,86.667,10268.000,1.000
-0.711,2.036,3.279,5.064,2.712,3.327,1.188,-2.425,-0.109,0.936,-0.376,-0.763,-1.007,0.214,86.667,10269.000,1.000
-0.290,2.165,3.809,4.550,1.734,3.183,1.536,-2.259,-0.110,0.935,-0.378,-0.732,-1.007,0.244,86.667,10270.000,1.000
0.349,2.538,4.438,4.490,0.911,3.549,2.511,-1.860,-0.108,0.940,-0.376,-0.641,-1.007,0.244,86.667,10271.000,1.000
1.356,3.424,5.206,5.191,0.797,4.672,4.016,-1.217,-0.107,0.940,-0.375,-0.641,-0.977,0.275,86.667,10272.000,1.000
2.673,4.995,6.059,6.506,1.648,6.389,5.753,-0.305,-0.106,0.940,-0.375,-0.488,-1.007,0.275,86.667,10273.000,1.000
3.695,6.720,6.453,7.459,2.871,7.899,6.980,0.465,-0.103,0.940,-0.373,-0.519,-1.038,0.305,86.667,10274.000,1.000
3.510,7.360,5.555,6.723,3.293,8.101,6.771,0.308,-0.103,0.942,-0.374,-0.549,-0.977,0.244,86.667,10275.000,1.000
1.687,5.882,2.970,3.703,2.104,6.405,4.711,-1.310,-0.104,0.943,-0.373,-0.702,-0.916,0.214,86.667,10276.000,1.000
-1.058,2.488,-0.615,-0.667,-0.376,3.435,1.489,-3.987,-0.106,0.939,-0.376,-0.641,-0.885,0.336,86.667,10277.000,1.000
