EEG 1,EEG 2,EEG 3,EEG 4,EEG 5,EEG 6,EEG 7,EEG 8,Accelerometer X,Accelerometer Y,Accelerometer Z,Gyroscope X,Gyroscope Y,Gyroscope Z,Battery Level,Counter,Validation Indicator
-3.023,2.280,-0.499,-3.922,3.763,2.527,3.022,1.718,-0.120,0.930,-0.401,-1.038,-0.092,0.031,80.000,9969.000,1.000
-2.564,4.152,-1.530,-3.897,3.614,2.759,3.199,0.519,-0.120,0.928,-0.402,-0.977,-0.122,-0.061,80.000,9970.000,1.000
-2.624,4.730,-2.925,-4.553,3.015,2.327,2.993,-0.688,-0.120,0.929,-0.401,-0.916,-0.153,-0.061,80.000,9971.000,1.000
-2.959,4.176,-4.197,-5.454,2.160,1.374,2.472,-1.622,-0.120,0.930,-0.401,-0.946,-0.214,-0.183,80.000,9972.000,1.000
-3.600,2.683,-5.299,-6.358,1.060,-0.043,1.601,-2.186,-0.122,0.930,-0.404,-0.946,-0.275,-0.336,80.000,9973.000,1.000
-4.701,0.454,-6.403,-7.217,-0.329,-1.786,0.333,-2.415,-0.122,0.931,-0.402,-0.946,-0.458,-0.275,80.000,9974.000,1.000
-6.138,-2.166,-7.480,-7.991,-1.878,-3.487,-1.284,-2.458,-0.122,0.930,-0.400,-0.885,-0.549,-0.305,80.000,9975.000,1.000
-7.460,-4.727,-8.241,-8.517,-3.322,-4.828,-3.136,-2.564,-0.123,0.931,-0.399,-0.885,-0.702,-0.244,80.000,9976.000,1.000
-8.114,-6.660,-8.313,-8.491,-4.373,-5.719,-4.927,-2.869,-0.123,0.932,-0.400,-0.916,-0.671,-0.153,80.000,9977.000,1.000
-7.705,-7.426,-7.436,-7.609,-4.796,-6.166,-6.120,-3.266,-0.123,0.932,-0.398,-0.916,-0.824,-0.183,80.000,9978.000,1.000
-6.118,-6.868,-5.606,-5.769,-4.495,-6.168,-6.245,-3.464,-0.121,0.932,-0.397,-0.916,-0.824,-0.153,80.000,9979.000,1.000
-3.405,-5.259,-2.958,-3.125,-3.463,-5.642,-5.188,-3.059,-0.122,0.930,-0.401,-0.916,-0.824,-0.122,80.000,9980.000,1.000
0.274,-3.059,0.340,-0.085,-1.774,-4.442,-3.215,-1.778,-0.124,0.929,-0.404,-0.824,-1.007,-0.031,80.000,9981.000,1.000
4.514,-0.749,3.943,2.695,0.273,-2.671,-0.935,0.142,-0.124,0.934,-0.402,-0.854,-1.007,0.122,80.000,9982.000,1.000
8.692,1.346,7.327,4.625,2.229,-0.853,0.883,2.039,-0.123,0.933,-0.400,-0.824,-1.099,0.183,80.000,9983.000,1.000
12.145,3.140,10.019,5.577,3.777,0.369,1.697,3.338,-0.123,0.932,-0.400,-0.824,-1.099,0.183,80.000,9984.000,1.000
14.319,4.575,11.719,5.848,4.824,0.606,1.435,3.830,-0.123,0.932,-0.396,-0.854,-1.160,0.275,80.000,9985.000,1.000
14.957,5.572,12.342,5.824,5.400,-0.104,0.423,3.605,-0.121,0.935,-0.403,-0.916,-1.343,0.305,80.000,9986.000,1.000
14.243,6.225,12.065,5.726,5.579,-1.310,-0.812,2.930,-0.120,0.934,-0.400,-0.732,-1.312,0.427,80.000,9987.000,1.000
12.667,6.755,11.251,5.496,5.442,-2.374,-1.775,2.124,-0.120,0.933,-0.399,-0.885,-1.373,0.458,80.000,9988.000,1.000
10.787,7.350,10.298,4.952,5.148,-2.730,-2.111,1.473,-0.120,0.933,-0.400,-0.854,-1.465,0.488,80.000,9989.000,1.000
9.111,8.236,9.613,4.149,4.997,-2.023,-1.632,1.176,-0.120,0.932,-0.403,-0.916,-1.465,0.488,80.000,9990.000,1.000
8.014,9.663,9.511,3.446,5.234,-0.284,-0.506,1.253,-0.122,0.932,-0.402,-0.824,-1.434,0.580,80.000,9991.000,1.000
7.570,11.574,9.981,3.144,5.719,1.861,0.529,1.447,-0.121,0.930,-0.403,-0.885,-1.404,0.671,80.000,9992.000,1.000
7.546,13.404,10.624,3.194,5.980,3.395,0.516,1.306,-0.122,0.930,-0.400,-0.885,-1.404,0.702,80.000,9993.000,1.000
7.656,14.341,10.927,3.298,5.604,3.511,-1.005,0.440,-0.120,0.930,-0.400,-0.946,-1.312,0.702,80.000,9994.000,1.000
7.699,13.738,10.539,3.156,4.469,1.989,-3.708,-1.287,-0.118,0.929,-0.399,-0.854,-1.434,0.702,80.000,9995.000,1.000
7.484,11.508,9.387,2.639,2.731,-0.794,-6.794,-3.677,-0.118,0.927,-0.398,-0.763,-1.373,0.641,80.000,9996.000,1.000
6.938,8.385,7.814,1.995,0.889,-3.904,-9.312,-6.061,-0.117,0.929,-0.400,-0.732,-1.312,0.549,80.000,9997.000,1.000
6.228,5.625,6.408,1.820,-0.358,-6.166,-10.443,-7.439,-0.117,0.930,-0.400,-0.702,-1.282,0.610,80.000,9998.000,1.000
5.507,4.117,5.375,2.501,-0.711,-6.931,-9.994,-7.195,-0.116,0.928,-0.402,-0.702,-1.160,0.610,80.000,9999.000,1.000
4.635,3.739,4.264,3.675,-0.624,-6.535,-8.627,-5.706,-0.115,0.925,-0.398,-0.610,-1.129,0.580,80.000,10000.000,1.000
3.377,3.603,2.503,4.446,-0.920,-5.925,-7.423,-4.107,-0.115,0.927,-0.403,-0.549,-1.038,0.519,80.000,10001.000,1.000
1.755,2.821,0.009,4.092,-2.123,-5.904,-7.176,-3.439,-0.114,0.926,-0.401,-0.458,-0.977,0.397,80.000,10002.000,1.000
0.019,0.994,-2.842,2.461,-4.146,-6.727,-8.067,-4.030,-0.114,0.926,-0.399,-0.458,-0.854,0.366,80.000,10003.000,1.000
-1.611,-1.753,-5.602,-0.121,-6.445,-8.136,-9.757,-5.506,-0.115,0.927,-0.400,-0.458,-0.671,0.336,80.000,10004.000,1.000
-3.005,-4.810,-7.898,-3.005,-8.297,-9.515,-11.547,-7.123,-0.115,0.928,-0.400,-0.366,-0.641,0.397,80.000,10005.000,1.000
-3.996,-7.241,-9.381,-5.364,-9.044,-10.087,-12.587,-8.113,-0.115,0.930,-0.401,-0.305,-0.549,0.336,80.000,10006.000,1.000
-4.352,-8.199,-9.779,-6.526,-8.336,-9.291,-12.265,-8.022,-0.115,0.929,-0.400,-0.305,-0.336,0.244,80.000,10007.000,1.000
-3.998,-7.460,-9.145,-6.374,-6.404,-7.267,-10.700,-6.994,-0.115,0.929,-0.402,-0.153,-0.153,0.214,80.000,10008.000,1.000
-3.235,-5.573,-7.959,-5.394,-4.089,-4.907,-8.787,-5.691,-0.116,0.929,-0.402,-0.336,-0.092,0.214,80.000,10009.000,1.000
-2.514,-3.352,-6.772,-4.243,-2.315,-3.211,-7.532,-4.791,-0.114,0.930,-0.404,-0.336,-0.061,0.092,80.000,10010.000,1.000
-1.954,-1.273,-5.746,-3.256,-1.391,-2.518,-7.274,-4.507,-0.115,0.928,-0.405,-0.336,0.000,0.092,80.000,10011.000,1.000
-1.220,0.752,-4.595,-2.303,-0.849,-2.321,-7.490,-4.484,-0.115,0.925,-0.402,-0.275,0.031,0.153,80.000,10012.000,1.000
0.134,3.143,-2.944,-1.094,0.063,-1.688,-7.254,-4.101,-0.115,0.926,-0.404,-0.183,0.061,0.214,80.000,10013.000,1.000
2.151,6.147,-0.788,0.344,1.673,0.030,-5.923,-2.989,-0.118,0.927,-0.403,-0.031,0.122,0.214,80.000,10014.000,1.000
4.240,9.388,1.355,1.503,3.524,2.657,-3.611,-1.407,-0.118,0.929,-0.401,-0.031,0.275,0.153,80.000,10015.000,1.000
5.458,11.891,2.732,1.787,4.680,5.257,-1.085,-0.060,-0.118,0.931,-0.403,-0.092,0.244,0.183,80.000,10016.000,1.000
5.174,12.666,2.880,1.058,4.504,6.807,0.846,0.548,-0.117,0.929,-0.404,0.000,0.275,0.244,80.000,10017.000,1.000
3.467,11.378,1.930,-0.216,3.159,6.861,1.875,0.512,-0.119,0.929,-0.402,-0.092,0.214,0.244,80.000,10018.000,1.000
0.922,8.497,0.450,-1.328,1.426,5.690,2.217,0.336,-0.119,0.932,-0.402,-0.153,0.183,0.244,80.000,10019.000,1.000
-1.799,4.898,-0.998,-1.775,0.066,3.923,2.230,0.455,-0.117,0.933,-0.401,-0.061,0.214,0.336,80.000,10020.000,1.000
-4.212,1.359,-2.228,-1.495,-0.716,2.100,2.036,0.855,-0.118,0.935,-0.402,-0.092,0.183,0.305,80.000,10021.000,1.000
-6.128,-1.722,-3.423,-0.847,-1.294,0.492,1.516,1.084,-0.118,0.934,-0.406,-0.214,0.244,0.275,80.000,10022.000,1.000
-7.554,-4.283,-4.703,-0.331,-2.149,-0.760,0.622,0.639,-0.120,0.933,-0.404,-0.275,0.214,0.366,80.000,10023.000,1.000
-8.346,-6.269,-5.763,-0.150,-3.346,-1.491,-0.388,-0.579,-0.120,0.931,-0.402,-0.244,0.092,0.366,80.000,10024.000,1.000
-8.124,-7.428,-6.045,-0.054,-4.456,-1.592,-1.083,-2.135,-0.122,0.932,-0.400,-0.214,-0.031,0.336,80.000,10025.000,1.000
-6.746,-7.606,-5.329,0.321,-4.979,-1.207,-1.240,-3.369,-0.122,0.933,-0.403,-0.244,-0.031,0.458,80.000,10026.000,1.000
-4.723,-7.120,-4.038,1.018,-4.773,-0.715,-1.052,-3.831,-0.121,0.933,-0.404,-0.336,-0.092,0.397,80.000,10027.000,1.000
-2.985,-6.704,-2.952,1.685,-4.096,-0.499,-0.953,-3.474,-0.123,0.932,-0.405,-0.366,-0.153,0.427,80.000,10028.000,1.000
-2.282,-7.035,-2.733,1.845,-3.381,-0.773,-1.290,-2.581,-0.122,0.931,-0.404,-0.488,-0.214,0.427,80.000,10029.000,1.000
-2.853,-8.334,-3.656,1.174,-3.006,-1.606,-2.143,-1.610,-0.120,0.931,-0.404,-0.610,-0.214,0.427,80.000,10030.000,1.000
-4.544,-10.366,-5.592,-0.410,-3.228,-2.985,-3.360,-1.076,-0.120,0.933,-0.401,-0.549,-0.244,0.488,80.000,10031.000,1.000
-6.966,-12.600,-8.050,-2.738,-4.152,-4.760,-4.631,-1.388,-0.121,0.931,-0.402,-0.580,-0.397,0.458,80.000,10032.000,1.000
-9.442,-14.277,-10.262,-5.317,-5.611,-6.471,-5.529,-2.564,-0.120,0.932,-0.403,-0.580,-0.488,0.488,80.000,10033.000,1.000
-11.098,-14.561,-11.494,-7.452,-7.102,-7.372,-5.682,-4.130,-0.121,0.931,-0.403,-0.610,-0.519,0.458,80.000,10034.000,1.000
-11.259,-12.960,-11.410,-8.604,-7.950,-6.835,-4.972,-5.371,-0.121,0.931,-0.402,-0.641,-0.610,0.427,80.000,10035.000,1.000
-9.829,-9.735,-10.180,-8.718,-7.652,-4.849,-3.572,-5.744,-0.120,0.931,-0.404,-0.580,-0.763,0.458,80.000,10036.000,1.000
-7.305,-5.857,-8.317,-8.171,-6.194,-2.108,-1.832,-5.147,-0.120,0.930,-0.405,-0.641,-0.763,0.427,80.000,10037.000,1.000
-4.456,-2.473,-6.398,-7.337,-4.053,0.455,-0.100,-3.862,-0.121,0.930,-0.403,-0.610,-0.763,0.488,80.000,10038.000,1.000
-1.938,-0.289,-4.797,-6.283,-1.873,2.180,1.448,-2.242,-0.118,0.930,-0.406,-0.610,-0.824,0.427,80.000,10039.000,1.000
-0.091,0.667,-3.544,-4.861,-0.064,2.927,2.927,-0.422,-0.119,0.929,-0.404,-0.610,-0.793,0.366,80.000,10040.000,1.000
1.062,0.862,-2.424,-2.992,1.344,3.040,4.614,1.663,-0.119,0.929,-0.400,-0.641,-0.824,0.427,80.000,10041.000,1.000
1.629,0.844,-1.310,-0.863,2.450,3.005,6.532,3.922,-0.119,0.931,-0.406,-0.671,-0.793,0.458,80.000,10042.000,1.000
1.707,0.930,-0.268,1.170,3.286,3.079,8.344,5.979,-0.118,0.931,-0.406,-0.732,-0.916,0.488,80.000,10043.000,1.000
1.516,1.185,0.726,2.928,3.958,3.303,9.767,7.510,-0.121,0.930,-0.402,-0.732,-0.977,0.458,80.000,10044.000,1.000
1.459,1.532,1.879,4.535,4.658,3.640,10.775,8.413,-0.121,0.928,-0.404,-0.793,-1.068,0.458,80.000,10045.000,1.000
1.829,1.722,3.250,6.124,5.340,3.913,11.295,8.613,-0.119,0.927,-0.405,-0.702,-1.099,0.458,80.000,10046.000,1.000
2.492,1.309,4.492,7.541,5.604,3.751,11.002,7.980,-0.120,0.927,-0.405,-0.763,-1.099,0.305,80.000,10047.000,1.000
2.923,-0.119,5.027,8.367,4.935,2.766,9.491,6.421,-0.120,0.928,-0.406,-0.641,-1.221,0.397,80.000,10048.000,1.000
2.592,-2.549,4.460,8.205,3.056,0.853,6.620,3.989,-0.119,0.931,-0.407,-0.580,-1.099,0.336,80.000,10049.000,1.000
1.357,-5.413,2.859,6.995,0.214,-1.646,2.772,1.022,-0.118,0.932,-0.405,-0.610,-1.129,0.244,80.000,10050.000,1.000
-0.460,-7.905,0.710,5.138,-2.837,-4.055,-1.177,-1.795,-0.118,0.932,-0.405,-0.763,-1.129,0.305,80.000,10051.000,1.000
-2.256,-9.342,-1.299,3.354,-5.174,-5.649,-4.130,-3.643,-0.118,0.932,-0.406,-0.641,-1.068,0.275,80.000,10052.000,1.000
-3.466,-9.381,-2.581,2.274,-6.167,-5.978,-5.203,-3.989,-0.116,0.931,-0.402,-0.793,-1.129,0.275,80.000,10053.000,1.000
-3.872,-8.162,-2.909,2.035,-5.775,-5.127,-4.196,-2.881,-0.116,0.932,-0.405,-0.793,-1.099,0.305,80.000,10054.000,1.000
-3.677,-6.245,-2.414,2.313,-4.495,-3.695,-1.733,-0.869,-0.118,0.929,-0.405,-0.824,-1.007,0.214,80.000,10055.000,1.000
-3.253,-4.259,-1.373,2.662,-2.975,-2.388,1.138,1.313,-0.116,0.930,-0.401,-0.854,-1.068,0.214,80.000,10056.000,1.000
-2.789,-2.520,-0.009,2.795,-1.578,-1.555,3.584,3.061,-0.115,0.928,-0.402,-0.793,-1.007,0.214,80.000,10057.000,1.000
-2.230,-1.002,1.525,2.635,-0.324,-1.096,5.282,4.054,-0.116,0.926,-0.407,-0.824,-0.916,0.214,80.000,10058.000,1.000
-1.522,0.404,3.052,2.246,0.846,-0.690,6.251,4.276,-0.118,0.926,-0.405,-0.854,-0.946,0.275,80.000,10059.000,1.000
-0.719,1.684,4.422,1.804,1.938,-0.033,6.670,4.012,-0.118,0.927,-0.407,-0.732,-0.854,0.122,80.000,10060.000,1.000
0.171,2.702,5.601,1.580,2.966,1.014,6.818,3.734,-0.116,0.926,-0.405,-0.641,-0.854,0.122,80.000,10061.000,1.000
1.295,3.389,6.686,1.874,3.999,2.389,6.950,3.871,-0.118,0.927,-0.403,-0.641,-0.824,0.092,80.000,10062.000,1.000
2.755,3.806,7.759,2.824,5.052,3.831,7.095,4.518,-0.117,0.928,-0.403,-0.610,-0.824,0.122,80.000,10063.000,1.000
4.253,3.889,8.619,4.138,5.894,4.822,6.954,5.258,-0.117,0.929,-0.403,-0.610,-0.702,0.092,80.000,10064.000,1.000
5.132,3.310,8.792,5.162,6.064,4.735,6.054,5.380,-0.117,0.928,-0.405,-0.580,-0.763,0.183,80.000,10065.000,1.000
4.930,1.853,8.008,5.456,5.281,3.302,4.148,4.460,-0.117,0.929,-0.402,-0.519,-0.702,0.214,80.000,10066.000,1.000
3.863,-0.158,6.621,5.255,3.816,0.983,1.511,2.781,-0.118,0.928,-0.401,-0.580,-0.488,0.183,80.000,10067.000,1.000
2.689,-2.010,5.415,5.208,2.301,-1.313,-1.212,1.108,-0.118,0.930,-0.400,-0.580,-0.549,0.061,80.000,10068.000,1.000
2.206,-3.077,5.034,5.768,1.288,-2.835,-3.393,0.148,-0.117,0.929,-0.404,-0.671,-0.519,0.153,80.000,10069.000,1.000
2.857,-3.055,5.650,6.905,1.031,-3.283,-4.638,0.222,-0.119,0.931,-0.401,-0.610,-0.519,0.244,80.000,10070.000,1.000
4.487,-2.067,6.879,8.112,1.382,-2.853,-4.912,1.159,-0.120,0.930,-0.405,-0.641,-0.427,0.214,80.000,10071.000,1.000
6.277,-0.734,7.855,8.593,1.800,-2.118,-4.608,2.346,-0.119,0.929,-0.405,-0.702,-0.397,0.214,80.000,10072.000,1.000
7.169,0.060,7.650,7.730,1.730,-1.669,-4.279,3.051,-0.119,0.929,-0.405,-0.732,-0.366,0.244,80.000,10073.000,1.000
6.604,-0.199,5.911,5.559,1.092,-1.702,-4.199,2.913,-0.120,0.930,-0.404,-0.763,-0.397,0.183,80.000,10074.000,1.000
4.817,-1.216,3.138,2.738,0.304,-1.966,-4.227,2.161,-0.119,0.930,-0.406,-0.702,-0.397,0.122,80.000,10075.000,1.000
2.439,-2.199,0.286,0.031,-0.184,-2.077,-4.053,1.362,-0.121,0.931,-0.405,-0.702,-0.519,0.183,80.000,10076.000,1.000
0.105,-2.398,-1.796,-2.080,-0.181,-1.706,-3.377,1.029,-0.121,0.931,-0.406,-0.793,-0.610,0.183,80.000,10077.000,1.000
-1.494,-1.253,-2.562,-3.339,0.442,-0.435,-1.847,1.502,-0.120,0.934,-0.402,-1.007,-0.549,0.122,80.000,10078.000,1.000
-1.591,1.582,-1.741,-3.537,1.967,2.310,0.929,2.962,-0.119,0.936,-0.404,-1.068,-0.458,0.092,80.000,10079.000,1.000
0.354,6.000,0.669,-2.515,4.675,6.943,5.148,5.345,-0.122,0.932,-0.403,-1.068,-0.488,0.122,80.000,10080.000,1.000
4.236,11.290,4.286,-0.388,8.446,13.183,10.481,8.223,-0.122,0.930,-0.404,-1.068,-0.458,0.153,80.000,10081.000,1.000
9.025,16.261,8.197,2.186,12.471,19.750,15.899,10.792,-0.121,0.929,-0.403,-1.099,-0.397,0.183,80.000,10082.000,1.000
12.911,19.524,11.043,4.015,15.371,24.683,19.910,12.114,-0.121,0.929,-0.403,-1.068,-0.397,0.122,80.000,10083.000,1.000
14.132,19.961,11.576,3.915,15.793,26.219,21.166,11.515,-0.122,0.930,-0.402,-1.160,-0.488,0.122,80.000,10084.000,1.000
12.109,17.349,9.439,1.545,13.214,23.742,19.156,8.937,-0.124,0.928,-0.401,-1.160,-0.610,0.183,80.000,10085.000,1.000
7.831,12.556,5.390,-2.277,8.303,18.111,14.564,4.987,-0.122,0.929,-0.402,-1.068,-0.519,0.183,80.000,10086.000,1.000
3.023,6.999,0.712,-6.200,2.486,11.038,8.841,0.566,-0.122,0.930,-0.403,-1.007,-0.519,0.183,80.000,10087.000,1.000
-0.922,1.925,-3.459,-9.196,-2.831,4.174,3.380,-3.614,-0.120,0.931,-0.404,-0.946,-0.458,0.214,80.000,10088.000,1.000
-3.368,-1.929,-6.393,-10.914,-6.779,-1.423,-0.995,-7.148,-0.120,0.930,-0.402,-1.007,-0.488,0.214,80.000,10089.000,1.000
-4.356,-4.384,-7.868,-11.573,-9.143,-5.367,-4.040,-9.804,-0.120,0.927,-0.400,-1.007,-0.427,0.244,80.000,10090.000,1.000
-4.291,-5.590,-8.094,-11.549,-10.084,-7.685,-5.774,-11.400,-0.121,0.926,-0.403,-1.007,-0.397,0.275,80.000,10091.000,1.000
-3.540,-5.674,-7.375,-10.985,-9.793,-8.532,-6.189,-11.746,-0.120,0.924,-0.403,-0.854,-0.366,0.305,80.000,10092.000,1.000
-2.309,-4.770,-5.937,-9.796,-8.491,-8.197,-5.383,-10.748,-0.121,0.923,-0.402,-0.732,-0.427,0.397,80.000,10093.000,1.000
-0.807,-3.207,-4.049,-7.970,-6.568,-7.095,-3.810,-8.602,-0.120,0.925,-0.404,-0.641,-0.458,0.488,80.000,10094.000,1.000
0.626,-1.375,-2.077,-5.724,-4.499,-5.544,-2.153,-5.854,-0.121,0.925,-0.406,-0.641,-0.336,0.610,80.000,10095.000,1.000
1.616,0.510,-0.409,-3.405,-2.612,-3.684,-0.925,-3.139,-0.120,0.924,-0.403,-0.580,-0.458,0.702,80.000,10096.000,1.000
1.899,2.326,0.584,-1.383,-1.015,-1.679,-0.282,-0.895,-0.122,0.924,-0.406,-0.427,-0.427,0.610,80.000,10097.000,1.000
1.287,3.738,0.511,-0.079,0.200,0.014,-0.212,0.592,-0.122,0.925,-0.403,-0.397,-0.427,0.702,80.000,10098.000,1.000
-0.330,4.187,-0.901,0.093,0.794,0.746,-0.734,1.053,-0.123,0.927,-0.404,-0.275,-0.427,0.763,80.000,10099.000,1.000
-2.776,3.402,-3.437,-0.995,0.564,0.149,-1.786,0.419,-0.124,0.929,-0.401,-0.183,-0.458,0.732,80.000,10100.000,1.000
-5.446,1.837,-6.281,-2.993,-0.355,-1.482,-3.068,-0.947,-0.122,0.931,-0.402,-0.214,-0.488,0.671,80.000,10101.000,1.000
-7.382,0.546,-8.262,-5.048,-1.356,-3.205,-4.045,-2.229,-0.121,0.932,-0.400,-0.244,-0.580,0.671,80.000,10102.000,1.000
-7.610,0.558,-8.332,-6.054,-1.595,-3.849,-4.108,-2.455,-0.120,0.933,-0.403,-0.305,-0.488,0.763,80.000,10103.000,1.000
-5.748,2.154,-6.232,-5.302,-0.624,-2.757,-2.955,-1.092,-0.117,0.931,-0.404,-0.397,-0.549,0.763,80.000,10104.000,1.000
-2.517,4.567,-2.872,-3.087,1.123,-0.331,-0.957,1.447,-0.117,0.931,-0.405,-0.427,-0.488,0.793,80.000,10105.000,1.000
0.476,6.402,0.108,-0.643,2.551,2.117,0.893,3.922,-0.115,0.928,-0.404,-0.458,-0.397,0.824,80.000,10106.000,1.000
1.755,6.539,1.432,0.684,2.690,3.210,1.560,5.031,-0.115,0.928,-0.405,-0.488,-0.336,0.824,80.000,10107.000,1.000
0.934,4.833,0.940,0.360,1.390,2.463,0.687,4.232,-0.115,0.929,-0.403,-0.366,-0.397,0.885,80.000,10108.000,1.000
-1.225,2.071,-0.588,-1.096,-0.646,0.496,-1.225,1.964,-0.115,0.930,-0.404,-0.305,-0.305,0.885,80.000,10109.000,1.000
-3.469,-0.649,-2.147,-2.642,-2.437,-1.589,-3.346,-0.799,-0.114,0.931,-0.404,-0.427,-0.153,1.038,80.000,10110.000,1.000
-4.768,-2.599,-3.079,-3.469,-3.392,-2.995,-5.177,-3.196,-0.115,0.929,-0.406,-0.366,-0.122,0.916,80.000,10111.000,1.000
-4.707,-3.707,-3.257,-3.400,-3.556,-3.589,-6.745,-4.795,-0.116,0.931,-0.408,-0.336,-0.092,0.854,80.000,10112.000,1.000
-3.503,-4.332,-2.937,-2.759,-3.329,-3.765,-8.316,-5.531,-0.117,0.930,-0.404,-0.397,-0.092,0.793,80.000,10113.000,1.000
-1.749,-4.841,-2.414,-1.961,-3.016,-4.010,-9.965,-5.513,-0.118,0.932,-0.405,-0.397,-0.092,0.763,80.000,10114.000,1.000
-0.032,-5.280,-1.731,-1.225,-2.590,-4.407,-11.337,-4.906,-0.121,0.931,-0.406,-0.427,-0.183,0.519,80.000,10115.000,1.000
1.431,-5.267,-0.632,-0.440,-1.777,-4.477,-11.732,-3.792,-0.123,0.929,-0.410,-0.458,-0.153,0.427,80.000,10116.000,1.000
2.932,-4.133,1.272,0.833,-0.241,-3.430,-10.405,-2.047,-0.123,0.929,-0.406,-0.397,-0.275,0.336,80.000,10117.000,1.000
4.925,-1.394,4.146,3.014,2.166,-0.717,-7.057,0.472,-0.125,0.929,-0.403,-0.427,-0.427,0.092,80.000,10118.000,1.000
7.353,2.646,7.485,5.876,5.022,3.329,-2.316,3.453,-0.125,0.930,-0.403,-0.458,-0.671,-0.031,80.000,10119.000,1.000
9.386,6.810,10.131,8.385,7.320,7.391,2.360,5.994,-0.126,0.929,-0.404,-0.519,-0.671,-0.153,80.000,10120.000,1.000
9.977,9.708,10.997,9.330,8.088,9.944,5.501,7.145,-0.125,0.929,-0.405,-0.519,-0.977,-0.244,80.000,10121.000,1.000
8.696,10.556,9.843,8.197,7.059,10.267,6.481,6.615,-0.124,0.930,-0.406,-0.458,-0.977,-0.397,80.000,10122.000,1.000
5.965,9.390,7.291,5.421,4.692,8.663,5.655,4.912,-0.123,0.931,-0.403,-0.458,-0.977,-0.488,80.000,10123.000,1.000
2.607,6.752,4.227,1.925,1.704,5.945,3.888,2.882,-0.122,0.930,-0.401,-0.519,-1.038,-0.549,80.000,10124.000,1.000
-0.540,3.463,1.404,-1.292,-1.182,2.983,2.078,1.282,-0.121,0.932,-0.400,-0.549,-1.038,-0.488,80.000,10125.000,1.000
-2.740,0.446,-0.628,-3.337,-3.292,0.469,0.880,0.582,-0.120,0.933,-0.399,-0.488,-1.038,-0.458,80.000,10126.000,1.000
-3.613,-1.641,-1.624,-3.757,-4.259,-1.338,0.500,0.773,-0.120,0.933,-0.401,-0.641,-1.129,-0.336,80.000,10127.000,1.000
-3.325,-2.626,-1.630,-2.772,-4.222,-2.613,0.725,1.357,-0.121,0.933,-0.404,-0.702,-1.160,-0.153,80.000,10128.000,1.000
-2.347,-2.682,-0.786,-1.011,-3.571,-3.612,1.231,1.710,-0.119,0.932,-0.404,-0.732,-1.099,-0.061,80.000,10129.000,1.000
-1.123,-2.178,0.696,0.878,-2.605,-4.438,1.824,1.486,-0.120,0.933,-0.404,-0.763,-1.190,0.061,80.000,10130.000,1.000
-0.084,-1.681,2.266,2.294,-1.573,-5.123,2.336,0.705,-0.124,0.932,-0.403,-0.824,-1.160,0.153,80.000,10131.000,1.000
0.264,-1.744,3.063,2.728,-0.831,-5.660,2.504,-0.463,-0.124,0.932,-0.403,-0.824,-1.129,0.336,80.000,10132.000,1.000
-0.397,-2.550,2.488,2.098,-0.664,-5.896,2.201,-1.786,-0.124,0.932,-0.402,-0.854,-1.190,0.458,80.000,10133.000,1.000
-1.880,-3.824,0.674,0.914,-1.055,-5.592,1.671,-2.899,-0.124,0.931,-0.401,-0.793,-1.282,0.671,80.000,10134.000,1.000
-3.672,-5.131,-1.752,-0.180,-1.827,-4.761,1.299,-3.487,-0.125,0.930,-0.403,-0.824,-1.343,0.641,80.000,10135.000,1.000
-5.389,-6.261,-4.272,-0.962,-2.930,-3.862,1.191,-3.609,-0.125,0.929,-0.404,-0.854,-1.465,0.763,80.000,10136.000,1.000
-6.839,-7.241,-6.667,-1.578,-4.366,-3.532,1.117,-3.646,-0.124,0.929,-0.401,-0.977,-1.434,0.793,80.000,10137.000,1.000
-7.701,-7.918,-8.675,-2.069,-5.870,-4.035,0.865,-3.841,-0.123,0.930,-0.402,-0.946,-1.495,0.854,80.000,10138.000,1.000
-7.487,-7.749,-9.785,-2.173,-6.813,-4.965,0.509,-3.983,-0.123,0.930,-0.402,-0.946,-1.556,0.793,80.000,10139.000,1.000
-6.006,-6.230,-9.574,-1.591,-6.595,-5.550,0.284,-3.626,-0.123,0.928,-0.403,-0.946,-1.495,0.977,80.000,10140.000,1.000
-3.719,-3.483,-8.141,-0.340,-5.140,-5.244,0.337,-2.541,-0.119,0.929,-0.401,-0.916,-1.495,0.946,80.000,10141.000,1.000
-1.548,-0.309,-6.119,1.115,-3.009,-4.083,0.655,-0.993,-0.116,0.930,-0.403,-0.946,-1.526,0.916,80.000,10142.000,1.000
-0.385,2.231,-4.409,1.977,-1.106,-2.677,1.005,0.289,-0.114,0.931,-0.402,-0.916,-1.434,0.854,80.000,10143.000,1.000
-0.654,3.358,-3.833,1.556,-0.179,-1.858,0.980,0.547,-0.112,0.931,-0.403,-0.824,-1.282,1.007,80.000,10144.000,1.000
-2.046,3.022,-4.620,-0.128,-0.327,-2.049,0.380,-0.351,-0.111,0.930,-0.401,-0.824,-1.282,1.038,80.000,10145.000,1.000
-3.658,1.934,-6.116,-2.276,-0.918,-2.905,-0.511,-1.731,-0.109,0.931,-0.402,-0.793,-1.068,1.007,80.000,10146.000,1.000
-4.568,1.036,-7.197,-3.889,-1.081,-3.659,-1.227,-2.678,-0.109,0.929,-0.404,-0.977,-0.824,1.038,80.000,10147.000,1.000
-4.266,0.952,-6.941,-4.294,-0.237,-3.659,-1.531,-2.679,-0.108,0.925,-0.404,-0.916,-0.702,0.946,80.000,10148.000,1.000
-2.634,1.940,-4.924,-3.266,1.796,-2.580,-1.371,-1.732,-0.110,0.924,-0.407,-0.916,-0.610,0.885,80.000,10149.000,1.000
0.106,3.948,-1.268,-1.057,4.781,-0.539,-0.734,-0.165,-0.111,0.924,-0.405,-0.854,-0.488,0.793,80.000,10150.000,1.000
3.396,6.475,3.342,1.687,8.065,1.888,0.313,1.545,-0.112,0.924,-0.404,-0.732,-0.458,0.702,80.000,10151.000,1.000
6.528,8.670,7.850,4.240,10.840,3.970,1.506,2.961,-0.113,0.923,-0.401,-0.641,-0.366,0.610,80.000,10152.000,1.000
8.880,9.731,11.165,6.073,12.487,5.206,2.360,3.830,-0.114,0.924,-0.403,-0.671,-0.275,0.519,80.000,10153.000,1.000
10.048,9.254,12.514,6.969,12.749,5.455,2.328,4.082,-0.114,0.924,-0.405,-0.641,-0.183,0.305,80.000,10154.000,1.000
9.981,7.352,11.774,7.098,11.795,4.888,1.184,3.790,-0.114,0.928,-0.406,-0.580,-0.122,0.122,80.000,10155.000,1.000
9.038,4.606,9.607,6.907,10.161,3.869,-0.685,3.126,-0.115,0.930,-0.409,-0.580,-0.061,0.000,80.000,10156.000,1.000
7.729,1.821,7.106,6.763,8.466,2.812,-2.440,2.315,-0.113,0.931,-0.406,-0.549,-0.092,-0.214,80.000,10157.000,1.000
6.352,-0.345,5.134,6.662,7.081,2.022,-3.324,1.570,-0.115,0.931,-0.403,-0.610,-0.061,-0.336,80.000,10158.000,1.000
4.932,-1.635,3.947,6.356,5.991,1.604,-3.125,1.006,-0.116,0.931,-0.403,-0.671,-0.153,-0.427,80.000,10159.000,1.000
3.414,-2.158,3.316,5.642,4.904,1.465,-2.282,0.575,-0.116,0.933,-0.400,-0.732,-0.092,-0.427,80.000,10160.000,1.000
1.805,-2.190,2.863,4.507,3.543,1.449,-1.597,0.121,-0.118,0.932,-0.405,-0.885,-0.214,-0.519,80.000,10161.000,1.000
0.178,-2.031,2.286,3.119,1.864,1.391,-1.740,-0.486,-0.118,0.933,-0.409,-0.885,-0.183,-0.580,80.000,10162.000,1.000
-1.426,-2.089,1.403,1.699,-0.004,0.993,-2.917,-1.327,-0.118,0.932,-0.408,-0.977,-0.183,-0.580,80.000,10163.000,1.000
-2.971,-2.822,0.230,0.382,-1.900,-0.114,-4.879,-2.428,-0.121,0.933,-0.406,-0.977,-0.244,-0.549,80.000,10164.000,1.000
-4.286,-4.413,-0.973,-0.795,-3.661,-2.017,-7.126,-3.682,-0.121,0.930,-0.405,-1.007,-0.336,-0.610,80.000,10165.000,1.000
-5.127,-6.571,-1.896,-1.790,-5.131,-4.387,-9.105,-4.799,-0.122,0.929,-0.406,-0.977,-0.366,-0.488,80.000,10166.000,1.000
-5.372,-8.650,-2.390,-2.447,-6.094,-6.642,-10.295,-5.401,-0.120,0.932,-0.405,-1.007,-0.427,-0.336,80.000,10167.000,1.000
-5.067,-9.970,-2.468,-2.547,-6.236,-8.171,-10.292,-5.217,-0.120,0.931,-0.405,-1.007,-0.488,-0.275,80.000,10168.000,1.000
-4.352,-10.138,-2.237,-2.031,-5.368,-8.541,-8.971,-4.252,-0.122,0.931,-0.406,-1.068,-0.519,-0.244,80.000,10169.000,1.000
-3.460,-9.222,-1.896,-1.158,-3.714,-7.699,-6.696,-2.845,-0.124,0.931,-0.407,-0.977,-0.610,-0.122,80.000,10170.000,1.000
-2.799,-7.802,-1.728,-0.454,-1.956,-6.143,-4.382,-1.610,-0.125,0.930,-0.404,-0.977,-0.732,-0.092,80.000,10171.000,1.000
-2.842,-6.727,-1.983,-0.412,-0.912,-4.720,-3.071,-1.155,-0.124,0.930,-0.405,-0.916,-0.763,-0.061,80.000,10172.000,1.000
-3.776,-6.575,-2.690,-1.168,-1.026,-4.060,-3.254,-1.687,-0.124,0.931,-0.404,-0.946,-0.885,0.000,80.000,10173.000,1.000
-5.318,-7.281,-3.626,-2.429,-2.078,-4.173,-4.638,-2.929,-0.125,0.929,-0.403,-0.946,-0.946,0.031,80.000,10174.000,1.000
-6.881,-8.267,-4.439,-3.615,-3.343,-4.562,-6.401,-4.269,-0.123,0.931,-0.403,-0.854,-1.068,0.153,80.000,10175.000,1.000
-7.898,-8.903,-4.878,-4.157,-4.059,-4.649,-7.615,-5.042,-0.125,0.930,-0.405,-0.824,-1.099,0.214,80.000,10176.000,1.000
-8.024,-8.842,-4.932,-3.806,-3.885,-4.180,-7.742,-4.859,-0.125,0.929,-0.406,-0.854,-1.251,0.153,80.000,10177.000,1.000
-7.230,-8.087,-4.774,-2.733,-3.071,-3.395,-6.912,-3.837,-0.124,0.931,-0.408,-0.793,-1.251,0.275,80.000,10178.000,1.000
-5.860,-6.960,-4.685,-1.403,-2.258,-2.824,-5.706,-2.545,-0.121,0.931,-0.404,-0.885,-1.343,0.305,80.000,10179.000,1.000
-4.546,-5.970,-4.944,-0.343,-2.015,-2.809,-4.643,-1.657,-0.120,0.932,-0.404,-0.824,-1.373,0.488,80.000,10180.000,1.000
-3.862,-5.488,-5.638,0.114,-2.464,-3.156,-3.826,-1.483,-0.119,0.930,-0.404,-0.763,-1.495,0.549,80.000,10181.000,1.000
-4.031,-5.454,-6.559,-0.086,-3.254,-3.276,-2.982,-1.734,-0.119,0.933,-0.403,-0.916,-1.495,0.488,80.000,10182.000,1.000
-4.913,-5.520,-7.340,-0.796,-3.898,-2.773,-1.785,-1.798,-0.117,0.931,-0.405,-0.885,-1.556,0.488,80.000,10183.000,1.000
-6.107,-5.396,-7.627,-1.745,-4.103,-1.843,-0.194,-1.255,-0.119,0.930,-0.404,-1.038,-1.556,0.427,80.000,10184.000,1.000
-7.127,-5.020,-7.200,-2.609,-3.915,-1.102,1.397,-0.166,-0.119,0.931,-0.404,-1.068,-1.587,0.458,80.000,10185.000,1.000
-7.629,-4.513,-6.121,-3.162,-3.673,-1.103,2.328,0.932,-0.119,0.930,-0.402,-1.099,-1.526,0.397,80.000,10186.000,1.000
-7.527,-4.004,-4.791,-3.391,-3.765,-1.996,2.116,1.316,-0.118,0.930,-0.404,-1.068,-1.465,0.397,80.000,10187.000,1.000
-6.975,-3.527,-3.780,-3.436,-4.373,-3.451,0.872,0.546,-0.118,0.928,-0.404,-1.221,-1.556,0.427,80.000,10188.000,1.000
-6.253,-3.054,-3.471,-3.397,-5.360,-4.806,-0.699,-1.182,-0.117,0.929,-0.406,-1.099,-1.556,0.397,80.000,10189.000,1.000
-5.589,-2.609,-3.830,-3.220,-6.413,-5.441,-1.808,-3.134,-0.117,0.929,-0.402,-1.038,-1.343,0.397,80.000,10190.000,1.000
-5.080,-2.384,-4.562,-2.821,-7.276,-5.168,-2.121,-4.539,-0.117,0.929,-0.404,-1.038,-1.312,0.427,80.000,10191.000,1.000
-4.636,-2.582,-5.315,-2.207,-7.801,-4.215,-1.783,-4.994,-0.115,0.927,-0.406,-1.068,-1.251,0.397,80.000,10192.000,1.000
-4.000,-3.093,-5.713,-1.445,-7.821,-2.855,-1.035,-4.515,-0.112,0.925,-0.403,-0.916,-1.312,0.397,80.000,10193.000,1.000
-2.971,-3.501,-5.443,-0.610,-7.138,-1.270,-0.012,-3.364,-0.113,0.925,-0.402,-0.885,-1.068,0.427,80.000,10194.000,1.000
-1.585,-3.356,-4.409,0.272,-5.674,0.349,1.235,-1.865,-0.114,0.924,-0.406,-0.824,-0.946,0.458,80.000,10195.000,1.000
0.022,-2.329,-2.692,1.316,-3.567,1.887,2.745,-0.277,-0.118,0.923,-0.406,-0.732,-0.854,0.427,80.000,10196.000,1.000
1.827,-0.319,-0.379,2.745,-1.104,3.450,4.563,1.267,-0.119,0.923,-0.408,-0.610,-0.885,0.336,80.000,10197.000,1.000
3.788,2.345,2.348,4.550,1.332,5.171,6.476,2.638,-0.122,0.927,-0.407,-0.580,-0.885,0.275,80.000,10198.000,1.000
5.589,4.895,5.016,6.189,3.281,6.861,8.002,3.589,-0.122,0.929,-0.407,-0.488,-0.885,0.153,80.000,10199.000,1.000
6.780,6.563,6.998,6.858,4.384,8.001,8.804,3.921,-0.121,0.931,-0.405,-0.458,-0.977,-0.031,80.000,10200.000,1.000
7.153,7.056,7.929,6.131,4.631,8.191,8.994,3.757,-0.120,0.928,-0.404,-0.580,-0.916,-0.183,80.000,10201.000,1.000
6.814,6.555,7.867,4.245,4.294,7.497,8.914,3.470,-0.118,0.928,-0.405,-0.580,-0.824,-0.214,80.000,10202.000,1.000
5.940,5.368,7.094,1.824,3.560,6.294,8.691,3.293,-0.118,0.928,-0.405,-0.610,-0.793,-0.214,80.000,10203.000,1.000
4.681,3.787,5.908,-0.450,2.401,4.929,8.178,3.114,-0.121,0.927,-0.404,-0.641,-0.824,-0.214,80.000,10204.000,1.000
3.229,2.180,4.599,-2.054,0.773,3.639,7.245,2.648,-0.119,0.931,-0.406,-0.610,-0.732,-0.275,80.000,10205.000,1.000
1.773,1.004,3.447,-2.815,-1.195,2.613,6.010,1.763,-0.120,0.930,-0.406,-0.549,-0.702,-0.244,80.000,10206.000,1.000
0.506,0.650,2.742,-2.878,-3.127,2.032,4.853,0.715,-0.122,0.930,-0.406,-0.610,-0.519,-0.275,80.000,10207.000,1.000
-0.332,1.171,2.654,-2.501,-4.551,1.905,4.144,-0.013,-0.122,0.933,-0.406,-0.702,-0.519,-0.366,80.000,10208.000,1.000
-0.475,2.213,3.127,-1.889,-5.136,2.024,3.955,-0.050,-0.122,0.931,-0.406,-0.793,-0.458,-0.244,80.000,10209.000,1.000
0.331,3.401,4.068,-1.022,-4.670,2.306,4.174,0.721,-0.121,0.932,-0.404,-0.824,-0.427,-0.305,80.000,10210.000,1.000
2.114,4.571,5.418,0.254,-3.116,2.880,4.668,2.106,-0.123,0.934,-0.406,-0.885,-0.366,-0.305,80.000,10211.000,1.000
4.445,5.576,6.916,1.876,-0.868,3.741,5.221,3.615,-0.123,0.934,-0.405,-0.916,-0.305,-0.214,80.000,10212.000,1.000
6.531,6.133,8.029,3.417,1.287,4.547,5.555,4.719,-0.125,0.936,-0.406,-0.946,-0.244,-0.183,80.000,10213.000,1.000
7.543,5.931,8.163,4.300,2.544,4.801,5.448,5.108,-0.122,0.935,-0.406,-1.099,-0.214,-0.092,80.000,10214.000,1.000
7.022,4.830,6.988,4.126,2.505,4.161,4.800,4.732,-0.123,0.935,-0.406,-1.129,-0.275,-0.031,80.000,10215.000,1.000
5.111,3.021,4.679,2.879,1.336,2.640,3.664,3.720,-0.123,0.934,-0.408,-1.190,-0.092,-0.061,80.000,10216.000,1.000
2.486,1.034,1.882,0.938,-0.362,0.632,2.326,2.327,-0.123,0.933,-0.409,-1.251,-0.061,0.092,80.000,10217.000,1.000
0.179,-0.324,-0.442,-0.926,-1.712,-1.065,1.381,1.027,-0.125,0.933,-0.409,-1.251,-0.031,0.122,80.000,10218.000,1.000
-0.740,-0.241,-1.296,-1.765,-1.827,-1.464,1.543,0.484,-0.125,0.932,-0.405,-1.312,0.000,0.214,80.000,10219.000,1.000
0.318,1.568,-0.174,-1.026,-0.300,-0.054,3.121,1.118,-0.124,0.932,-0.402,-1.465,0.000,0.336,80.000,10220.000,1.000
3.064,4.488,2.501,0.999,2.479,2.651,5.593,2.611,-0.125,0.932,-0.401,-1.526,0.031,0.397,80.000,10221.000,1.000
6.455,7.365,5.624,3.383,5.603,5.420,7.801,4.075,-0.121,0.932,-0.403,-1.434,0.031,0.397,80.000,10222.000,1.000
9.212,9.251,8.088,5.198,8.171,7.167,8.644,4.739,-0.119,0.931,-0.405,-1.373,0.092,0.519,80.000,10223.000,1.000
10.346,9.778,9.183,5.932,9.579,7.522,7.626,4.350,-0.119,0.928,-0.404,-1.373,0.214,0.610,80.000,10224.000,1.000
9.544,9.018,8.690,5.520,9.608,6.760,4.998,3.114,-0.119,0.928,-0.405,-1.312,0.305,0.610,80.000,10225.000,1.000
7.317,7.384,6.945,4.254,8.476,5.462,1.647,1.562,-0.119,0.929,-0.405,-1.282,0.214,0.702,80.000,10226.000,1.000
4.733,5.638,4.749,2.667,6.791,4.261,-1.234,0.377,-0.119,0.931,-0.405,-1.434,0.275,0.732,80.000,10227.000,1.000
2.771,4.581,2.895,1.264,5.221,3.622,-2.723,-0.002,-0.120,0.930,-0.405,-1.434,0.336,0.916,80.000,10228.000,1.000
1.795,4.532,1.696,0.295,4.147,3.669,-2.625,0.353,-0.119,0.930,-0.405,-1.373,0.336,0.854,80.000,10229.000,1.000
1.571,5.225,1.025,-0.179,3.652,4.246,-1.383,1.119,-0.121,0.928,-0.401,-1.434,0.427,0.671,80.000,10230.000,1.000
1.642,6.138,0.659,-0.185,3.708,5.132,0.353,2.056,-0.124,0.927,-0.401,-1.404,0.427,0.732,80.000,10231.000,1.000
1.679,6.844,0.481,0.197,4.258,6.141,2.068,3.047,-0.120,0.926,-0.399,-1.434,0.427,0.702,80.000,10232.000,1.000
1.632,7.112,0.436,0.849,5.141,7.084,3.478,3.967,-0.121,0.926,-0.401,-1.465,0.397,0.580,80.000,10233.000,1.000
1.587,6.870,0.405,1.542,5.998,7.728,4.411,4.584,-0.121,0.926,-0.401,-1.556,0.427,0.671,80.000,10234.000,1.000
1.658,6.262,0.256,1.973,6.364,7.871,4.738,4.629,-0.122,0.925,-0.399,-1.434,0.366,0.641,80.000,10235.000,1.000
2.062,5.697,0.054,2.089,6.014,7.528,4.491,4.093,-0.122,0.923,-0.399,-1.434,0.427,0.549,80.000,10236.000,1.000
3.003,5.627,0.034,2.167,5.130,6.926,3.866,3.309,-0.120,0.925,-0.397,-1.404,0.427,0.580,80.000,10237.000,1.000
4.247,6.020,0.184,2.326,3.919,6.148,2.914,2.507,-0.121,0.924,-0.401,-1.251,0.366,0.488,80.000,10238.000,1.000
4.995,6.160,0.030,2.169,2.269,4.921,1.360,1.469,-0.121,0.924,-0.402,-1.190,0.305,0.458,80.000,10239.000,1.000
4.550,5.288,-0.854,1.250,0.116,3.029,-0.984,-0.056,-0.121,0.924,-0.401,-1.160,0.214,0.366,80.000,10240.000,1.000
3.073,3.340,-2.197,-0.213,-2.049,0.784,-3.720,-1.787,-0.120,0.924,-0.401,-1.099,0.214,0.397,80.000,10241.000,1.000
1.483,0.846,-3.170,-1.379,-3.395,-1.146,-6.030,-3.011,-0.122,0.925,-0.403,-1.099,0.153,0.458,80.000,10242.000,1.000
0.713,-1.584,-3.049,-1.457,-3.398,-2.228,-7.150,-3.144,-0.124,0.928,-0.398,-1.038,0.153,0.336,80.000,10243.000,1.000
1.175,-3.406,-1.657,-0.213,-2.106,-2.264,-6.658,-2.087,-0.124,0.928,-0.403,-1.038,0.061,0.427,80.000,10244.000,1.000
2.634,-4.151,0.570,1.918,-0.036,-1.376,-4.664,-0.281,-0.123,0.929,-0.406,-1.038,-0.031,0.427,80.000,10245.000,1.000
4.267,-3.800,2.690,3.939,1.938,-0.071,-2.007,1.367,-0.123,0.929,-0.400,-1.007,-0.031,0.397,80.000,10246.000,1.000
5.107,-2.986,3.681,4.726,2.832,0.845,0.012,1.834,-0.125,0.930,-0.401,-1.007,-0.153,0.427,80.000,10247.000,1.000
4.761,-2.427,3.166,3.791,2.141,0.697,0.415,0.686,-0.124,0.930,-0.400,-1.007,-0.214,0.519,80.000,10248.000,1.000
3.650,-2.301,1.641,1.582,0.185,-0.653,-0.908,-1.586,-0.123,0.930,-0.400,-0.977,-0.214,0.397,80.000,10249.000,1.000
2.494,-2.319,-0.038,-0.987,-2.222,-2.804,-3.282,-4.040,-0.125,0.929,-0.400,-0.946,-0.305,0.519,80.000,10250.000,1.000
1.722,-2.203,-1.278,-3.161,-4.342,-5.112,-5.693,-5.965,-0.123,0.926,-0.400,-0.916,-0.427,0.427,80.000,10251.000,1.000
1.299,-1.922,-1.936,-4.634,-5.819,-7.025,-7.334,-7.155,-0.125,0.930,-0.398,-0.885,-0.427,0.397,80.000,10252.000,1.000
0.989,-1.597,-2.072,-5.447,-6.600,-8.217,-7.913,-7.716,-0.125,0.932,-0.399,-0.824,-0.458,0.519,80.000,10253.000,1.000
0.727,-1.289,-1.733,-5.738,-6.685,-8.520,-7.501,-7.723,-0.124,0.931,-0.402,-0.824,-0.488,0.549,80.000,10254.000,1.000
0.703,-0.905,-0.999,-5.577,-6.047,-7.837,-6.251,-7.092,-0.123,0.929,-0.401,-0.854,-0.580,0.519,80.000,10255.000,1.000
1.190,-0.254,0.005,-4.834,-4.649,-6.112,-4.259,-5.655,-0.123,0.931,-0.400,-0.824,-0.610,0.610,80.000,10256.000,1.000
2.282,0.811,1.176,-3.256,-2.477,-3.403,-1.660,-3.359,-0.123,0.933,-0.400,-0.793,-0.671,0.488,80.000,10257.000,1.000
3.635,2.142,2.335,-0.905,0.256,-0.117,1.130,-0.521,-0.124,0.931,-0.400,-0.793,-0.702,0.549,80.000,10258.000,1.000
4.560,3.220,3.171,1.559,2.917,2.894,3.374,2.181,-0.122,0.931,-0.401,-0.824,-0.763,0.519,80.000,10259.000,1.000
4.412,3.397,3.322,3.136,4.584,4.611,4.322,4.014,-0.119,0.929,-0.402,-0.702,-0.854,0.610,80.000,10260.000,1.000
2.909,2.289,2.524,3.061,4.543,4.365,3.598,4.542,-0.122,0.929,-0.402,-0.641,-0.885,0.519,80.000,10261.000,1.000
0.303,0.068,0.801,1.304,2.807,2.319,1.476,3.844,-0.121,0.928,-0.402,-0.641,-0.946,0.549,80.000,10262.000,1.000
-2.625,-2.505,-1.371,-1.339,0.185,-0.505,-1.133,2.471,-0.120,0.929,-0.401,-0.610,-0.854,0.610,80.000,10263.000,1.000
-4.849,-4.415,-3.158,-3.625,-2.187,-2.795,-3.097,1.161,-0.119,0.927,-0.401,-0.549,-0.824,0.641,80.000,10264.000,1.000
-5.686,-5.030,-3.816,-4.595,-3.505,-3.735,-3.747,0.440,-0.119,0.929,-0.402,-0.610,-0.763,0.671,80.000,10265.000,1.000
-5.309,-4.538,-3.254,-4.198,-3.713,-3.455,-3.278,0.316,-0.117,0.930,-0.401,-0.580,-0.793,0.671,80.000,10266.000,1.000
-4.588,-3.733,-2.117,-3.210,-3.327,-2.814,-2.517,0.396,-0.118,0.932,-0.401,-0.549,-0.824,0.824,80.000,10267.000,1.000
-4.411,-3.399,-1.308,-2.559,-2.920,-2.705,-2.290,0.281,-0.117,0.933,-0.403,-0.519,-0.641,0.763,80.000,10268.000,1.000
-5.192,-3.881,-1.464,-2.723,-2.747,-3.436,-2.867,-0.188,-0.117,0.929,-0.406,-0.519,-0.549,0.732,80.000,10269.000,1.000
-6.840,-4.999,-2.711,-3.596,-2.735,-4.626,-3.859,-0.956,-0.116,0.930,-0.404,-0.580,-0.549,0.732,80.000,10270.000,1.000
-8.940,-6.237,-4.644,-4.722,-2.670,-5.599,-4.562,-1.866,-0.116,0.930,-0.405,-0.519,-0.549,0.641,80.000,10271.000,1.000
-10.880,-6.953,-6.477,-5.605,-2.334,-5.808,-4.433,-2.657,-0.115,0.929,-0.405,-0.580,-0.366,0.671,80.000,10272.000,1.000
-11.905,-6.548,-7.287,-5.807,-1.494,-4.981,-3.295,-2.907,-0.115,0.927,-0.403,-0.580,-0.336,0.702,80.000,10273.000,1.000
-11.393,-4.766,-6.429,-5.002,0.043,-3.163,-1.300,-2.182,-0.115,0.929,-0.403,-0.641,-0.214,0.732,80.000,10274.000,1.000
-9.352,-2.074,-4.049,-3.223,2.112,-0.855,1.108,-0.399,-0.116,0.929,-0.403,-0.641,-0.153,0.610,80.000,10275.000,1.000
-6.542,0.448,-1.174,-1.021,4.060,1.030,3.223,1.909,-0.118,0.927,-0.405,-0.519,-0.092,0.580,80.000,10276.000,1.000
-3.989,1.840,0.887,0.766,5.085,1.673,4.343,3.762,-0.117,0.927,-0.404,-0.458,0.000,0.549,80.000,10277.000,1.000
-2.360,1.867,1.359,1.507,4.753,1.002,4.194,4.323,-0.116,0.926,-0.404,-0.458,0.122,0.580,80.000,10278.000,1.000
-1.598,1.093,0.500,1.261,3.347,-0.141,3.181,3.545,-0.116,0.928,-0.403,-0.458,0.214,0.519,80.000,10279.000,1.000
-0.988,0.528,-0.558,0.802,1.741,-0.572,2.133,2.225,-0.116,0.927,-0.407,-0.458,0.244,0.549,80.000,10280.000,1.000
0.207,0.998,-0.674,0.957,0.770,0.362,1.630,1.259,-0.116,0.926,-0.407,-0.458,0.305,0.580,80.000,10281.000,1.000
1.974,2.510,0.372,1.781,0.581,2.289,1.541,0.856,-0.117,0.928,-0.406,-0.366,0.275,0.549,80.000,10282.000,1.000
3.365,4.120,1.659,2.388,0.581,3.988,1.178,0.517,-0.115,0.925,-0.402,-0.336,0.397,0.549,80.000,10283.000,1.000
3.235,4.680,1.977,1.744,0.065,4.220,-0.041,-0.329,-0.116,0.927,-0.402,-0.366,0.397,0.641,80.000,10284.000,1.000
1.271,3.857,0.980,-0.293,-1.007,2.675,-1.956,-1.701,-0.116,0.927,-0.404,-0.214,0.427,0.641,80.000,10285.000,1.000
-1.707,2.270,-0.571,-2.856,-1.991,0.148,-3.749,-3.033,-0.116,0.931,-0.405,-0.214,0.397,0.671,80.000,10286.000,1.000
-4.324,0.860,-1.535,-4.775,-2.182,-2.108,-4.591,-3.612,-0.116,0.931,-0.405,-0.122,0.519,0.641,80.000,10287.000,1.000
-5.404,0.334,-1.126,-5.231,-1.303,-3.155,-4.146,-3.026,-0.117,0.933,-0.405,-0.214,0.580,0.549,80.000,10288.000,1.000
-4.544,0.855,0.685,-4.121,0.396,-2.819,-2.712,-1.452,-0.118,0.931,-0.405,-0.244,0.519,0.610,80.000,10289.000,1.000
-2.293,1.965,3.096,-2.129,2.310,-1.685,-1.015,0.410,-0.119,0.932,-0.404,-0.244,0.519,0.610,80.000,10290.000,1.000
0.234,2.834,4.887,-0.309,3.776,-0.668,0.243,1.835,-0.119,0.932,-0.404,-0.183,0.427,0.488,80.000,10291.000,1.000
2.011,2.770,5.104,0.603,4.334,-0.442,0.774,2.511,-0.118,0.930,-0.403,-0.275,0.427,0.519,80.000,10292.000,1.000
2.512,1.665,3.516,0.496,3.841,-1.164,0.708,2.516,-0.119,0.929,-0.403,-0.244,0.488,0.580,80.000,10293.000,1.000
1.813,0.030,0.665,-0.256,2.532,-2.495,0.344,2.073,-0.119,0.931,-0.405,-0.214,0.427,0.549,80.000,10294.000,1.000
0.521,-1.354,-2.358,-0.998,1.008,-3.723,-0.021,1.481,-0.119,0.928,-0.408,-0.305,0.366,0.641,80.000,10295.000,1.000
-0.521,-1.985,-4.437,-1.093,-0.044,-4.113,-0.188,1.051,-0.119,0.929,-0.410,-0.458,0.366,0.702,80.000,10296.000,1.000
-0.681,-1.898,-5.013,-0.274,-0.288,-3.400,-0.101,0.914,-0.120,0.928,-0.409,-0.427,0.275,0.671,80.000,10297.000,1.000
0.092,-1.524,-4.321,1.180,0.065,-1.979,0.175,0.889,-0.120,0.930,-0.406,-0.549,0.244,0.641,80.000,10298.000,1.000
1.157,-1.453,-3.185,2.549,0.420,-0.681,0.445,0.578,-0.119,0.930,-0.407,-0.427,0.092,0.549,80.000,10299.000,1.000
1.567,-2.134,-2.507,3.085,0.235,-0.267,0.470,-0.251,-0.118,0.932,-0.405,-0.519,0.122,0.549,80.000,10300.000,1.000
0.685,-3.651,-2.786,2.430,-0.652,-1.038,0.147,-1.348,-0.119,0.934,-0.405,-0.610,0.061,0.488,80.000,10301.000,1.000
-1.531,-5.817,-4.031,0.689,-2.073,-2.844,-0.452,-2.192,-0.119,0.932,-0.406,-0.671,-0.061,0.458,80.000,10302.000,1.000
-4.505,-8.241,-5.823,-1.600,-3.634,-5.142,-1.064,-2.414,-0.120,0.934,-0.404,-0.763,-0.153,0.519,80.000,10303.000,1.000
-7.158,-10.262,-7.407,-3.560,-4.762,-7.096,-1.302,-1.928,-0.118,0.932,-0.407,-0.763,-0.214,0.549,80.000,10304.000,1.000
-8.457,-11.184,-8.068,-4.460,-5.073,-8.053,-0.989,-0.966,-0.118,0.929,-0.405,-0.793,-0.214,0.610,80.000,10305.000,1.000
-8.053,-10.666,-7.527,-4.185,-4.677,-7.915,-0.304,-0.038,-0.118,0.928,-0.405,-0.763,-0.336,0.580,80.000,10306.000,1.000
-6.335,-8.791,-5.937,-3.109,-3.930,-6.884,0.575,0.468,-0.120,0.931,-0.407,-0.854,-0.275,0.519,80.000,10307.000,1.000
-4.064,-6.058,-3.711,-1.695,-3.075,-5.150,1.685,0.605,-0.119,0.931,-0.404,-0.916,-0.427,0.427,80.000,10308.000,1.000
-2.007,-3.312,-1.373,-0.248,-2.201,-2.909,3.064,0.744,-0.118,0.933,-0.405,-0.977,-0.488,0.519,80.000,10309.000,1.000
-0.609,-1.318,0.648,1.168,-1.291,-0.446,4.621,1.279,-0.119,0.933,-0.403,-0.916,-0.641,0.549,80.000,10310.000,1.000
0.114,-0.357,2.184,2.609,-0.283,1.872,6.162,2.376,-0.120,0.930,-0.403,-1.007,-0.702,0.488,80.000,10311.000,1.000
0.376,-0.322,3.254,4.020,0.811,3.597,7.427,3.799,-0.119,0.929,-0.405,-1.007,-0.854,0.458,80.000,10312.000,1.000
0.387,-0.969,3.855,5.131,1.803,4.248,8.103,5.015,-0.118,0.928,-0.404,-0.977,-0.824,0.458,80.000,10313.000,1.000
0.264,-2.028,3.867,5.557,2.364,3.530,7.890,5.455,-0.118,0.928,-0.406,-0.946,-0.824,0.549,80.000,10314.000,1.000
0.029,-3.208,3.219,5.047,2.223,1.635,6.689,4.802,-0.120,0.928,-0.408,-1.007,-0.977,0.580,80.000,10315.000,1.000
-0.336,-4.161,2.139,3.779,1.423,-0.657,4.783,3.218,-0.120,0.929,-0.405,-1.038,-1.007,0.519,80.000,10316.000,1.000
-0.694,-4.466,1.189,2.427,0.466,-2.274,2.811,1.373,-0.119,0.931,-0.403,-1.038,-1.099,0.549,80.000,10317.000,1.000
-0.716,-3.847,0.917,1.794,0.044,-2.419,1.422,0.118,-0.117,0.931,-0.404,-1.068,-1.190,0.610,80.000,10318.000,1.000
-0.229,-2.555,1.297,2.178,0.393,-1.098,0.779,-0.150,-0.116,0.929,-0.408,-1.129,-1.312,0.702,80.000,10319.000,1.000
0.522,-1.309,1.636,3.119,1.015,0.864,0.475,0.237,-0.116,0.930,-0.405,-1.160,-1.282,0.671,80.000,10320.000,1.000
1.119,-0.746,1.188,3.805,1.184,2.434,0.014,0.616,-0.117,0.931,-0.406,-1.129,-1.282,0.641,80.000,10321.000,1.000
1.389,-0.974,-0.168,3.698,0.583,3.013,-0.724,0.513,-0.116,0.928,-0.406,-1.190,-1.343,0.702,80.000,10322.000,1.000
1.497,-1.591,-1.870,2.843,-0.547,2.624,-1.511,-0.161,-0.116,0.927,-0.406,-1.160,-1.343,0.580,80.000,10323.000,1.000
1.703,-1.982,-3.107,1.681,-1.652,1.792,-2.012,-1.152,-0.118,0.928,-0.404,-1.129,-1.343,0.641,80.000,10324.000,1.000
2.097,-1.716,-3.365,0.591,-2.277,1.213,-2.052,-2.111,-0.118,0.929,-0.402,-1.099,-1.312,0.549,80.000,10325.000,1.000
2.441,-0.898,-2.834,-0.449,-2.460,1.207,-1.889,-2.942,-0.117,0.930,-0.404,-1.068,-1.282,0.580,80.000,10326.000,1.000
2.275,-0.068,-2.249,-1.708,-2.699,1.509,-2.063,-3.853,-0.117,0.930,-0.404,-1.160,-1.343,0.671,80.000,10327.000,1.000
1.384,0.377,-2.171,-3.211,-3.368,1.703,-2.774,-4.982,-0.116,0.928,-0.405,-1.190,-1.282,0.610,80.000,10328.000,1.000
0.150,0.560,-2.523,-4.548,-4.300,1.666,-3.634,-6.141,-0.115,0.928,-0.403,-1.221,-1.221,0.610,80.000,10329.000,1.000
-0.702,0.920,-2.801,-5.178,-4.953,1.535,-4.163,-6.988,-0.115,0.927,-0.403,-1.160,-1.312,0.549,80.000,10330.000,1.000
-0.677,1.781,-2.558,-4.735,-4.796,1.557,-4.214,-7.230,-0.117,0.926,-0.402,-1.129,-1.221,0.610,80.000,10331.000,1.000
0.128,3.075,-1.763,-3.254,-3.640,1.947,-3.945,-6.702,-0.115,0.926,-0.406,-1.007,-1.099,0.580,80.000,10332.000,1.000
1.103,4.396,-0.865,-1.351,-1.842,2.675,-3.669,-5.458,-0.115,0.925,-0.406,-1.007,-1.038,0.519,80.000,10333.000,1.000
1.594,5.288,-0.419,0.041,-0.120,3.398,-3.636,-3.807,-0.116,0.926,-0.404,-0.824,-1.068,0.397,80.000,10334.000,1.000
1.358,5.515,-0.636,0.301,0.882,3.692,-3.792,-2.153,-0.116,0.926,-0.405,-0.824,-1.068,0.397,80.000,10335.000,1.000
0.679,5.182,-1.274,-0.481,0.949,3.411,-3.800,-0.820,-0.115,0.927,-0.404,-0.824,-1.038,0.336,80.000,10336.000,1.000
0.141,4.712,-1.813,-1.619,0.385,2.845,-3.328,0.019,-0.116,0.929,-0.406,-0.885,-0.916,0.275,80.000,10337.000,1.000
0.100,4.508,-1.823,-2.404,-0.317,2.388,-2.425,0.219,-0.116,0.929,-0.405,-0.793,-0.854,0.183,80.000,10338.000,1.000
0.354,4.573,-1.293,-2.640,-0.884,2.101,-1.592,-0.343,-0.114,0.931,-0.405,-0.732,-0.732,0.122,80.000,10339.000,1.000
0.517,4.703,-0.506,-2.505,-1.192,1.836,-1.260,-1.450,-0.115,0.930,-0.406,-0.671,-0.702,0.153,80.000,10340.000,1.000
0.529,4.888,0.303,-2.127,-1.046,1.618,-1.300,-2.443,-0.116,0.930,-0.405,-0.763,-0.641,0.092,80.000,10341.000,1.000
0.578,5.192,1.020,-1.626,-0.364,1.577,-1.305,-2.698,-0.115,0.930,-0.404,-0.732,-0.580,0.153,80.000,10342.000,1.000
0.740,5.404,1.523,-1.262,0.590,1.662,-1.110,-2.111,-0.116,0.928,-0.401,-0.763,-0.610,0.122,80.000,10343.000,1.000
0.974,5.184,1.729,-1.191,1.437,1.744,-0.733,-1.027,-0.116,0.929,-0.403,-0.702,-0.488,-0.031,80.000,10344.000,1.000
1.315,4.542,1.793,-1.172,2.103,1.929,-0.028,0.177,-0.116,0.928,-0.406,-0.763,-0.427,0.031,80.000,10345.000,1.000
1.776,3.809,1.995,-0.848,2.749,2.377,1.194,1.252,-0.115,0.930,-0.406,-0.763,-0.366,0.061,80.000,10346.000,1.000
2.163,3.225,2.411,-0.219,3.373,2.909,2.755,1.948,-0.115,0.929,-0.410,-0.671,-0.305,0.061,80.000,10347.000,1.000
2.288,2.877,2.939,0.423,3.827,3.203,4.190,2.082,-0.118,0.928,-0.404,-0.763,-0.214,0.031,80.000,10348.000,1.000
2.179,2.795,3.428,0.762,4.045,3.210,5.101,1.671,-0.117,0.930,-0.406,-0.824,-0.336,0.061,80.000,10349.000,1.000
1.942,2.845,3.648,0.543,4.019,3.061,5.320,0.894,-0.119,0.930,-0.406,-0.763,-0.244,-0.061,80.000,10350.000,1.000
1.693,2.815,3.454,-0.269,3.709,2.797,4.902,-0.001,-0.120,0.931,-0.404,-0.946,-0.275,-0.061,80.000,10351.000,1.000
1.642,2.737,3.040,-1.291,3.164,2.418,4.062,-0.734,-0.123,0.930,-0.406,-0.977,-0.244,-0.031,80.000,10352.000,1.000
2.071,2.928,2.909,-1.844,2.602,2.059,3.110,-1.018,-0.121,0.931,-0.406,-0.977,-0.214,-0.031,80.000,10353.000,1.000
3.114,3.587,3.481,-1.377,2.253,1.917,2.261,-0.676,-0.122,0.931,-0.408,-1.038,-0.244,0.000,80.000,10354.000,1.000
4.547,4.406,4.687,0.085,2.084,1.920,1.392,0.177,-0.122,0.930,-0.403,-0.946,-0.336,-0.214,80.000,10355.000,1.000
5.889,4.689,5.958,1.934,1.809,1.598,0.094,1.122,-0.123,0.930,-0.405,-0.977,-0.427,-0.061,80.000,10356.000,1.000
6.781,3.911,6.692,3.508,1.205,0.478,-1.861,1.741,-0.124,0.931,-0.405,-1.007,-0.580,0.061,80.000,10357.000,1.000
7.270,2.212,6.712,4.573,0.377,-1.362,-4.125,1.944,-0.123,0.931,-0.402,-1.038,-0.641,0.122,80.000,10358.000,1.000
7.657,0.307,6.318,5.286,-0.301,-3.232,-5.933,1.964,-0.125,0.933,-0.404,-1.007,-0.732,0.092,80.000,10359.000,1.000
8.124,-1.054,5.987,5.828,-0.459,-4.282,-6.628,2.082,-0.124,0.931,-0.403,-1.099,-0.854,0.000,80.000,10360.000,1.000
8.640,-1.400,6.068,6.238,0.102,-3.890,-5.958,2.457,-0.125,0.932,-0.399,-1.160,-0.916,0.092,80.000,10361.000,1.000
9.033,-0.633,6.575,6.428,1.330,-1.905,-4.025,3.169,-0.124,0.933,-0.399,-1.221,-0.946,0.061,80.000,10362.000,1.000
8.937,0.793,7.072,6.198,2.835,1.141,-1.189,4.218,-0.125,0.931,-0.400,-1.282,-0.977,0.183,80.000,10363.000,1.000
7.955,2.004,6.957,5.446,4.058,4.234,2.040,5.490,-0.123,0.929,-0.402,-1.282,-1.038,0.153,80.000,10364.000,1.000
6.085,2.336,5.990,4.409,4.665,6.496,5.163,6.789,-0.123,0.929,-0.403,-1.221,-1.099,0.244,80.000,10365.000,1.000
3.766,1.655,4.360,3.488,4.620,7.490,7.677,7.777,-0.123,0.929,-0.403,-1.251,-1.099,0.336,80.000,10366.000,1.000
1.408,0.021,2.204,2.798,3.867,6.980,8.926,7.916,-0.122,0.928,-0.403,-1.190,-1.190,0.275,80.000,10367.000,1.000
-1.040,-2.674,-0.679,1.994,2.138,4.717,8.151,6.579,-0.121,0.927,-0.405,-1.129,-1.251,0.366,80.000,10368.000,1.000
-3.985,-6.607,-4.544,0.494,-0.840,0.587,4.894,3.436,-0.120,0.928,-0.404,-1.068,-1.190,0.458,80.000,10369.000,1.000
-7.633,-11.549,-9.155,-2.016,-4.906,-5.015,-0.482,-1.112,-0.121,0.928,-0.405,-1.038,-1.251,0.427,80.000,10370.000,1.000
-11.513,-16.528,-13.625,-5.219,-9.251,-11.007,-6.663,-5.946,-0.121,0.927,-0.405,-1.099,-1.282,0.519,80.000,10371.000,1.000
-14.578,-20.089,-16.819,-8.275,-12.687,-15.937,-11.886,-9.762,-0.120,0.928,-0.406,-1.068,-1.221,0.519,80.000,10372.000,1.000
-15.798,-20.958,-17.870,-10.202,-14.156,-18.578,-14.696,-11.630,-0.119,0.928,-0.406,-1.038,-1.221,0.610,80.000,10373.000,1.000
-14.794,-18.637,-16.517,-10.336,-13.212,-18.417,-14.550,-11.281,-0.116,0.927,-0.408,-1.007,-1.160,0.641,80.000,10374.000,1.000
-12.073,-13.705,-13.254,-8.703,-10.287,-15.830,-12.023,-9.213,-0.116,0.926,-0.408,-0.977,-1.099,0.610,80.000,10375.000,1.000
-8.637,-7.592,-9.056,-5.939,-6.425,-11.781,-8.354,-6.375,-0.115,0.926,-0.405,-0.946,-1.007,0.671,80.000,10376.000,1.000
-5.370,-1.933,-4.881,-2.841,-2.669,-7.272,-4.648,-3.559,-0.116,0.926,-0.404,-0.824,-0.916,0.641,80.000,10377.000,1.000
-2.822,2.038,-1.475,-0.112,0.263,-3.097,-1.583,-1.179,-0.116,0.927,-0.404,-0.763,-0.946,0.641,80.000,10378.000,1.000
-1.312,3.788,0.578,1.646,1.924,0.086,0.392,0.495,-0.117,0.927,-0.404,-0.641,-0.793,0.824,80.000,10379.000,1.000
-1.005,3.474,0.911,1.974,2.055,1.742,0.932,1.125,-0.117,0.928,-0.403,-0.671,-0.671,0.824,80.000,10380.000,1.000
-1.884,1.783,-0.401,0.747,0.718,1.738,-0.012,0.486,-0.116,0.928,-0.404,-0.641,-0.580,0.824,80.000,10381.000,1.000
-3.630,-0.291,-2.661,-1.617,-1.482,0.644,-1.957,-1.104,-0.115,0.930,-0.404,-0.580,-0.580,0.793,80.000,10382.000,1.000
-5.554,-1.791,-4.740,-4.223,-3.495,-0.510,-3.979,-2.756,-0.116,0.931,-0.404,-0.732,-0.488,0.763,80.000,10383.000,1.000
-6.707,-2.069,-5.518,-5.998,-4.270,-0.805,-5.053,-3.430,-0.115,0.931,-0.404,-0.763,-0.458,0.763,80.000,10384.000,1.000
-6.300,-0.942,-4.388,-6.168,-3.280,0.129,-4.505,-2.555,-0.116,0.931,-0.405,-0.793,-0.366,0.793,80.000,10385.000,1.000
-4.260,1.143,-1.617,-4.710,-0.890,1.916,-2.487,-0.445,-0.115,0.931,-0.403,-0.793,-0.244,0.763,80.000,10386.000,1.000
-1.282,3.291,1.834,-2.285,1.849,3.701,0.107,1.961,-0.114,0.930,-0.403,-0.763,-0.244,0.702,80.000,10387.000,1.000
1.649,4.707,4.878,0.214,3.812,4.761,2.276,3.732,-0.114,0.929,-0.404,-0.763,-0.061,0.702,80.000,10388.000,1.000
3.707,5.023,6.688,1.978,4.241,4.781,3.374,4.267,-0.112,0.930,-0.406,-0.641,-0.031,0.763,80.000,10389.000,1.000
4.543,4.361,6.941,2.546,3.014,3.832,3.302,3.414,-0.110,0.929,-0.404,-0.641,0.031,0.732,80.000,10390.000,1.000
4.465,3.361,6.033,2.097,0.856,2.381,2.623,1.674,-0.111,0.930,-0.406,-0.610,0.183,0.702,80.000,10391.000,1.000
4.142,2.880,4.827,1.321,-1.003,1.062,2.200,-0.022,-0.110,0.931,-0.407,-0.732,0.244,0.671,80.000,10392.000,1.000
4.017,3.376,3.970,0.841,-1.666,0.168,2.414,-1.020,-0.111,0.928,-0.406,-0.732,0.305,0.549,80.000,10393.000,1.000
4.052,4.606,3.500,0.838,-1.068,-0.473,2.933,-1.320,-0.114,0.928,-0.405,-0.793,0.397,0.610,80.000,10394.000,1.000
3.899,5.821,3.040,1.134,0.181,-1.143,3.152,-1.312,-0.117,0.928,-0.403,-0.793,0.519,0.488,80.000,10395.000,1.000
3.277,6.275,2.274,1.488,1.324,-1.835,2.740,-1.337,-0.121,0.929,-0.405,-0.732,0.336,0.336,80.000,10396.000,1.000
2.390,5.853,1.360,1.902,2.019,-2.084,1.974,-1.402,-0.121,0.930,-0.403,-0.763,0.305,0.183,80.000,10397.000,1.000
1.880,5.097,0.840,2.579,2.466,-1.331,1.566,-1.252,-0.124,0.929,-0.401,-0.763,0.214,0.061,80.000,10398.000,1.000
2.229,4.543,1.102,3.548,3.022,0.511,2.030,-0.699,-0.125,0.928,-0.402,-0.793,0.061,-0.183,80.000,10399.000,1.000
3.378,4.345,2.122,4.603,3.896,3.014,3.371,0.258,-0.125,0.931,-0.404,-0.671,-0.061,-0.366,80.000,10400.000,1.000
4.850,4.368,3.578,5.513,5.000,5.506,5.172,1.464,-0.123,0.929,-0.401,-0.702,-0.183,-0.549,80.000,10401.000,1.000
5.961,4.325,4.971,6.017,5.868,7.248,6.718,2.554,-0.124,0.927,-0.402,-0.763,-0.275,-0.732,80.000,10402.000,1.000
6.177,4.012,5.920,5.898,6.066,7.863,7.431,3.203,-0.124,0.929,-0.405,-0.763,-0.427,-0.702,80.000,10403.000,1.000
5.501,3.633,6.430,5.237,5.695,7.699,7.389,3.495,-0.122,0.929,-0.405,-0.763,-0.488,-0.854,80.000,10404.000,1.000
4.383,3.680,6.714,4.320,5.187,7.428,7.149,3.793,-0.123,0.930,-0.406,-0.732,-0.610,-0.854,80.000,10405.000,1.000
3.365,4.411,6.881,3.363,4.786,7.390,7.132,4.306,-0.122,0.932,-0.404,-0.763,-0.580,-0.824,80.000,10406.000,1.000
2.797,5.465,6.879,2.417,4.394,7.429,7.306,4.876,-0.120,0.932,-0.408,-0.824,-0.671,-0.641,80.000,10407.000,1.000
2.715,6.055,6.634,1.433,3.754,7.159,7.363,5.080,-0.121,0.933,-0.405,-0.854,-0.763,-0.549,80.000,10408.000,1.000
2.951,5.666,6.238,0.477,2.781,6.384,7.198,4.669,-0.122,0.933,-0.405,-0.916,-0.793,-0.336,80.000,10409.000,1.000
3.250,4.432,5.862,-0.195,1.716,5.346,7.096,3.871,-0.123,0.936,-0.405,-0.977,-0.824,-0.214,80.000,10410.000,1.000
3.205,2.725,5.404,-0.483,0.826,4.433,7.294,3.072,-0.122,0.935,-0.402,-0.977,-0.885,-0.061,80.000,10411.000,1.000
2.276,0.649,4.382,-0.770,0.011,3.691,7.512,2.349,-0.122,0.933,-0.404,-0.977,-0.916,0.031,80.000,10412.000,1.000
0.107,-1.895,2.304,-1.673,-1.135,2.767,7.086,1.467,-0.125,0.931,-0.400,-1.129,-0.916,0.153,80.000,10413.000,1.000
-3.088,-4.730,-0.815,-3.391,-2.819,1.383,5.626,0.279,-0.125,0.929,-0.402,-1.190,-1.007,0.244,80.000,10414.000,1.000
-6.295,-6.976,-4.110,-5.246,-4.483,0.017,3.710,-0.790,-0.125,0.927,-0.403,-1.190,-1.038,0.427,80.000,10415.000,1.000
-8.063,-7.254,-6.131,-5.980,-4.839,-0.037,2.861,-0.745,-0.125,0.924,-0.404,-1.190,-1.099,0.366,80.000,10416.000,1.000
-7.492,-4.767,-5.884,-4.789,-2.919,2.181,4.314,1.141,-0.126,0.921,-0.403,-1.221,-1.099,0.397,80.000,10417.000,1.000
-4.875,-0.143,-3.562,-1.990,0.897,6.118,7.742,4.544,-0.122,0.920,-0.403,-1.160,-1.129,0.397,80.000,10418.000,1.000
-1.320,4.979,-0.243,1.384,5.094,9.988,11.454,8.276,-0.121,0.921,-0.403,-0.946,-1.190,0.366,80.000,10419.000,1.000
1.970,9.013,2.846,4.346,8.061,12.057,13.663,11.050,-0.120,0.922,-0.406,-0.732,-1.160,0.336,80.000,10420.000,1.000
4.090,11.063,4.753,6.269,8.864,11.549,13.407,12.030,-0.117,0.924,-0.400,-0.671,-1.190,0.427,80.000,10421.000,1.000
4.637,11.062,5.018,6.919,7.497,8.845,10.808,11.057,-0.115,0.924,-0.402,-0.519,-1.099,0.427,80.000,10422.000,1.000
3.893,9.745,3.855,6.526,4.839,5.210,6.941,8.734,-0.113,0.927,-0.404,-0.427,-1.068,0.397,80.000,10423.000,1.000
2.664,8.248,2.037,5.645,2.244,2.091,3.190,6.142,-0.110,0.927,-0.402,-0.427,-0.763,0.488,80.000,10424.000,1.000
1.671,7.336,0.357,4.757,0.746,0.238,0.348,4.172,-0.111,0.930,-0.402,-0.488,-0.671,0.458,80.000,10425.000,1.000
1.039,6.975,-0.842,3.988,0.490,-0.595,-1.714,3.066,-0.107,0.930,-0.402,-0.458,-0.458,0.549,80.000,10426.000,1.000
0.430,6.679,-1.625,3.226,0.930,-1.098,-3.514,2.582,-0.107,0.931,-0.406,-0.366,-0.305,0.702,80.000,10427.000,1.000
-0.390,6.103,-2.137,2.410,1.450,-1.719,-5.262,2.355,-0.109,0.931,-0.405,-0.397,-0.244,0.702,80.000,10428.000,1.000
-1.344,5.077,-2.564,1.502,1.589,-2.643,-6.865,1.920,-0.110,0.932,-0.403,-0.397,-0.061,0.763,80.000,10429.000,1.000
-2.337,3.335,-3.280,0.226,0.912,-4.113,-8.441,0.675,-0.110,0.933,-0.404,-0.366,0.092,0.854,80.000,10430.000,1.000
-3.333,0.721,-4.579,-1.738,-0.714,-6.232,-10.266,-1.680,-0.114,0.930,-0.404,-0.427,0.244,0.793,80.000,10431.000,1.000
-4.029,-2.219,-6.134,-4.122,-2.630,-8.398,-12.121,-4.564,-0.114,0.931,-0.405,-0.488,0.427,0.793,80.000,10432.000,1.000
-3.809,-4.242,-7.050,-5.972,-3.598,-9.408,-13.154,-6.724,-0.114,0.932,-0.409,-0.427,0.488,0.824,80.000,10433.000,1.000
-2.235,-4.274,-6.558,-6.378,-2.723,-8.373,-12.584,-7.162,-0.115,0.930,-0.404,-0.488,0.580,0.793,80.000,10434.000,1.000
0.520,-2.255,-4.575,-5.148,-0.122,-5.466,-10.366,-5.772,-0.115,0.931,-0.404,-0.549,0.671,0.732,80.000,10435.000,1.000
3.716,0.837,-1.715,-2.823,3.180,-1.878,-7.218,-3.246,-0.114,0.931,-0.402,-0.549,0.732,0.732,80.000,10436.000,1.000
6.456,3.659,1.079,-0.262,5.913,0.910,-4.157,-0.617,-0.115,0.930,-0.402,-0.549,0.732,0.732,80.000,10437.000,1.000
8.125,5.240,3.059,1.837,7.277,1.983,-1.894,1.275,-0.115,0.929,-0.403,-0.610,0.641,0.671,80.000,10438.000,1.000
8.616,5.262,3.983,3.181,7.231,1.349,-0.571,2.117,-0.117,0.929,-0.403,-0.519,0.641,0.641,80.000,10439.000,1.000
8.172,3.920,3.989,3.761,6.230,-0.365,0.014,2.035,-0.119,0.931,-0.404,-0.458,0.702,0.580,80.000,10440.000,1.000
7.060,1.653,3.294,3.601,4.778,-2.436,0.073,1.264,-0.118,0.931,-0.405,-0.549,0.671,0.702,80.000,10441.000,1.000
5.404,-1.080,2.023,2.694,3.138,-4.438,-0.357,-0.032,-0.118,0.931,-0.405,-0.519,0.610,0.610,80.000,10442.000,1.000
3.329,-3.807,0.306,1.182,1.382,-6.260,-1.330,-1.641,-0.118,0.929,-0.403,-0.458,0.610,0.641,80.000,10443.000,1.000
1.094,-6.031,-1.616,-0.553,-0.415,-7.814,-2.782,-3.262,-0.118,0.929,-0.406,-0.397,0.580,0.732,80.000,10444.000,1.000
-1.066,-7.543,-3.577,-2.154,-2.192,-8.966,-4.578,-4.765,-0.117,0.928,-0.405,-0.336,0.549,0.824,80.000,10445.000,1.000
-3.163,-8.705,-5.639,-3.572,-4.061,-9.817,-6.722,-6.350,-0.119,0.929,-0.403,-0.397,0.549,0.885,80.000,10446.000,1.000
-5.372,-10.080,-7.870,-5.043,-6.214,-10.703,-9.290,-8.299,-0.119,0.931,-0.404,-0.336,0.580,0.854,80.000,10447.000,1.000
-7.675,-11.749,-9.961,-6.688,-8.533,-11.713,-12.018,-10.513,-0.119,0.931,-0.406,-0.397,0.549,1.007,80.000,10448.000,1.000
-9.598,-13.111,-11.121,-8.122,-10.352,-12.354,-14.051,-12.283,-0.119,0.934,-0.407,-0.458,0.427,1.099,80.000,10449.000,1.000
-10.528,-13.435,-10.560,-8.667,-10.872,-12.022,-14.401,-12.736,-0.120,0.933,-0.406,-0.488,0.275,1.099,80.000,10450.000,1.000
-10.331,-12.559,-8.239,-8.021,-9.871,-10.757,-12.766,-11.635,-0.119,0.933,-0.404,-0.580,0.244,1.312,80.000,10451.000,1.000
-9.322,-10.918,-4.975,-6.472,-7.773,-9.155,-9.767,-9.565,-0.121,0.930,-0.402,-0.732,0.153,1.434,80.000,10452.000,1.000
-7.872,-9.151,-1.930,-4.569,-5.232,-7.718,-6.493,-7.442,-0.123,0.929,-0.403,-0.763,0.031,1.526,80.000,10453.000,1.000
-6.439,-7.954,-0.162,-2.905,-3.003,-6.680,-4.049,-6.069,-0.122,0.929,-0.406,-0.732,-0.061,1.434,80.000,10454.000,1.000
-5.481,-7.762,-0.158,-1.913,-1.783,-6.127,-3.128,-5.786,-0.125,0.928,-0.407,-0.671,-0.275,1.434,80.000,10455.000,1.000
-5.006,-8.307,-1.432,-1.566,-1.710,-5.966,-3.603,-6.239,-0.125,0.928,-0.403,-0.610,-0.336,1.343,80.000,10456.000,1.000
-4.594,-8.853,-2.857,-1.436,-2.249,-5.950,-4.626,-6.671,-0.125,0.927,-0.402,-0.580,-0.610,1.282,80.000,10457.000,1.000
-3.815,-8.775,-3.422,-1.039,-2.562,-5.719,-5.140,-6.420,-0.121,0.929,-0.405,-0.580,-0.824,1.099,80.000,10458.000,1.000
-2.427,-7.792,-2.694,-0.097,-1.962,-4.853,-4.410,-5.168,-0.121,0.929,-0.407,-0.641,-0.793,0.977,80.000,10459.000,1.000
-0.418,-5.941,-0.875,1.381,-0.247,-3.105,-2.382,-3.004,-0.119,0.929,-0.407,-0.610,-0.916,0.977,80.000,10460.000,1.000
1.883,-3.553,1.360,3.163,2.157,-0.687,0.300,-0.390,-0.118,0.930,-0.404,-0.732,-0.916,0.916,80.000,10461.000,1.000
3.761,-1.324,3.087,4.802,4.263,1.569,2.513,1.901,-0.116,0.930,-0.406,-0.671,-1.068,0.824,80.000,10462.000,1.000
4.382,-0.168,3.495,5.657,4.925,2.504,3.096,2.971,-0.116,0.930,-0.406,-0.702,-1.099,0.732,80.000,10463.000,1.000
3.313,-0.666,2.290,5.133,3.506,1.382,1.451,2.281,-0.115,0.930,-0.407,-0.732,-0.977,0.702,80.000,10464.000,1.000
0.852,-2.654,-0.159,3.098,0.309,-1.576,-2.073,0.007,-0.113,0.929,-0.408,-0.763,-1.129,0.580,80.000,10465.000,1.000
-2.117,-5.362,-3.014,0.073,-3.603,-5.309,-6.331,-3.095,-0.111,0.931,-0.406,-0.793,-1.007,0.458,80.000,10466.000,1.000
-4.585,-7.826,-5.319,-2.981,-6.990,-8.467,-9.960,-6.101,-0.111,0.930,-0.406,-0.916,-0.946,0.427,80.000,10467.000,1.000
-5.983,-9.291,-6.408,-5.147,-9.008,-10.038,-12.033,-8.257,-0.112,0.931,-0.406,-1.007,-0.885,0.397,80.000,10468.000,1.000
-6.460,-9.600,-6.211,-5.998,-9.492,-9.800,-12.382,-9.182,-0.112,0.928,-0.405,-1.007,-0.916,0.366,80.000,10469.000,1.000
-6.550,-9.173,-5.196,-5.683,-8.834,-8.303,-11.381,-8.891,-0.114,0.926,-0.407,-0.885,-0.854,0.244,80.000,10470.000,1.000
-6.625,-8.556,-4.031,-4.698,-7.653,-6.376,-9.529,-7.670,-0.115,0.926,-0.406,-0.854,-0.793,0.183,80.000,10471.000,1.000
-6.760,-8.080,-3.282,-3.589,-6.486,-4.621,-7.277,-5.965,-0.115,0.928,-0.406,-0.885,-0.763,0.122,80.000,10472.000,1.000
-6.936,-7.877,-3.242,-2.740,-5.622,-3.262,-4.988,-4.258,-0.114,0.928,-0.408,-0.916,-0.732,0.092,80.000,10473.000,1.000
-7.136,-7.988,-3.819,-2.257,-5.074,-2.293,-2.931,-2.882,-0.112,0.926,-0.406,-0.854,-0.671,0.183,80.000,10474.000,1.000
-7.210,-8.239,-4.473,-1.898,-4.625,-1.563,-1.230,-1.858,-0.111,0.926,-0.405,-0.946,-0.610,0.153,80.000,10475.000,1.000
-6.760,-8.097,-4.399,-1.168,-3.931,-0.767,0.225,-0.886,-0.110,0.926,-0.407,-0.977,-0.580,0.183,80.000,10476.000,1.000
-5.428,-7.005,-3.092,0.252,-2.806,0.401,1.696,0.355,-0.115,0.924,-0.403,-0.885,-0.458,0.305,80.000,10477.000,1.000
-3.354,-4.920,-0.854,2.120,-1.480,1.926,3.244,1.823,-0.116,0.925,-0.406,-0.763,-0.397,0.153,80.000,10478.000,1.000
-1.179,-2.336,1.376,3.776,-0.459,3.376,4.536,3.067,-0.120,0.925,-0.406,-0.793,-0.488,0.031,80.000,10479.000,1.000
0.448,0.131,2.690,4.635,-0.069,4.291,5.163,3.582,-0.122,0.926,-0.408,-0.763,-0.488,0.031,80.000,10480.000,1.000
1.270,2.053,2.774,4.574,-0.169,4.598,5.115,3.276,-0.122,0.927,-0.406,-0.702,-0.458,-0.092,80.000,10481.000,1.000
1.439,3.307,1.987,3.975,-0.281,4.606,4.846,2.608,-0.122,0.927,-0.403,-0.763,-0.610,-0.031,80.000,10482.000,1.000
1.338,4.084,1.078,3.475,0.035,4.708,4.920,2.249,-0.119,0.926,-0.404,-0.671,-0.641,-0.092,80.000,10483.000,1.000
1.348,4.714,0.751,3.538,0.891,5.129,5.585,2.575,-0.118,0.927,-0.407,-0.641,-0.610,-0.061,80.000,10484.000,1.000
1.728,5.417,1.365,4.194,2.059,5.806,6.606,3.444,-0.118,0.927,-0.408,-0.763,-0.641,-0.153,80.000,10485.000,1.000
2.583,6.209,2.863,5.154,3.118,6.420,7.443,4.381,-0.118,0.928,-0.406,-0.763,-0.641,-0.214,80.000,10486.000,1.000
3.782,6.940,4.839,6.018,3.560,6.523,7.579,4.902,-0.119,0.929,-0.410,-0.732,-0.732,-0.122,80.000,10487.000,1.000
4.984,7.430,6.746,6.461,3.019,5.834,6.876,4.832,-0.121,0.930,-0.411,-0.671,-0.671,-0.153,80.000,10488.000,1.000
5.905,7.632,8.168,6.435,1.609,4.549,5.672,4.439,-0.122,0.932,-0.411,-0.732,-0.641,-0.183,80.000,10489.000,1.000
6.473,7.593,8.906,6.146,-0.070,3.273,4.483,4.157,-0.121,0.932,-0.411,-0.854,-0.641,-0.122,80.000,10490.000,1.000
6.694,7.256,8.921,5.830,-1.280,2.632,3.662,4.187,-0.121,0.932,-0.406,-0.916,-0.610,-0.122,80.000,10491.000,1.000
6.563,6.490,8.301,5.612,-1.493,2.958,3.319,4.460,-0.120,0.934,-0.408,-0.885,-0.610,-0.092,80.000,10492.000,1.000
6.093,5.349,7.248,5.508,-0.573,4.166,3.436,4.821,-0.118,0.932,-0.409,-0.916,-0.641,0.000,80.000,10493.000,1.000
5.282,4.148,6.017,5.399,1.172,5.778,4.014,5.159,-0.119,0.932,-0.408,-1.068,-0.549,0.122,80.000,10494.000,1.000
4.124,3.325,4.890,5.105,3.173,7.183,5.093,5.447,-0.119,0.934,-0.406,-1.099,-0.519,0.122,80.000,10495.000,1.000
2.818,3.330,4.218,4.622,4.997,8.087,6.691,5.748,-0.120,0.931,-0.406,-1.160,-0.549,0.275,80.000,10496.000,1.000
1.880,4.455,4.331,4.201,6.539,8.702,8.675,6.126,-0.118,0.930,-0.408,-1.190,-0.458,0.275,80.000,10497.000,1.000
1.751,6.478,5.184,4.035,7.728,9.353,10.561,6.457,-0.116,0.930,-0.410,-1.129,-0.427,0.275,80.000,10498.000,1.000
2.306,8.610,6.143,3.979,8.259,10.068,11.627,6.404,-0.116,0.930,-0.409,-1.129,-0.397,0.305,80.000,10499.000,1.000
2.934,10.036,6.401,3.750,7.844,10.689,11.500,5.740,-0.119,0.929,-0.405,-1.068,-0.397,0.275,80.000,10500.000,1.000
3.101,10.456,5.653,3.293,6.618,11.161,10.507,4.648,-0.119,0.929,-0.406,-1.129,-0.397,0.397,80.000,10501.000,1.000
2.760,10.078,4.305,2.794,5.108,11.500,9.314,3.584,-0.119,0.932,-0.406,-1.160,-0.488,0.336,80.000,10502.000,1.000
2.260,9.311,3.143,2.384,3.846,11.636,8.373,2.911,-0.118,0.932,-0.404,-1.282,-0.366,0.427,80.000,10503.000,1.000
1.919,8.464,2.735,1.937,3.017,11.372,7.690,2.603,-0.115,0.933,-0.406,-1.373,-0.214,0.458,80.000,10504.000,1.000
1.737,7.595,3.032,1.193,2.452,10.571,6.981,2.338,-0.115,0.931,-0.405,-1.434,-0.214,0.549,80.000,10505.000,1.000
1.526,6.655,3.524,0.076,1.928,9.408,6.030,1.901,-0.114,0.930,-0.405,-1.343,-0.183,0.641,80.000,10506.000,1.000
1.156,5.705,3.663,-1.247,1.358,8.296,4.981,1.399,-0.116,0.929,-0.405,-1.343,-0.031,0.671,80.000,10507.000,1.000
0.554,4.830,3.104,-2.593,0.677,7.509,4.189,1.016,-0.116,0.929,-0.405,-1.373,0.000,0.641,80.000,10508.000,1.000
-0.421,3.844,1.700,-3.949,-0.299,6.886,3.709,0.673,-0.117,0.929,-0.404,-1.343,0.031,0.671,80.000,10509.000,1.000
-1.876,2.370,-0.459,-5.366,-1.746,5.948,3.130,0.130,-0.116,0.929,-0.407,-1.282,0.061,0.610,80.000,10510.000,1.000
-3.634,0.288,-2.968,-6.726,-3.548,4.317,2.001,-0.627,-0.117,0.928,-0.408,-1.312,0.061,0.580,80.000,10511.000,1.000
-5.137,-1.983,-5.135,-7.666,-5.226,2.037,0.284,-1.290,-0.115,0.928,-0.402,-1.312,0.122,0.488,80.000,10512.000,1.000
-5.563,-3.601,-6.121,-7.678,-6.098,-0.311,-1.555,-1.433,-0.117,0.929,-0.403,-1.434,0.183,0.519,80.000,10513.000,1.000
-4.222,-3.768,-5.274,-6.389,-5.612,-1.855,-2.834,-0.798,-0.118,0.928,-0.403,-1.465,0.183,0.336,80.000,10514.000,1.000
-1.143,-2.313,-2.614,-3.976,-3.791,-2.048,-3.202,0.498,-0.117,0.926,-0.402,-1.465,0.214,0.336,80.000,10515.000,1.000
2.772,0.197,1.007,-1.231,-1.353,-1.085,-2.908,2.012,-0.116,0.925,-0.407,-1.495,0.153,0.122,80.000,10516.000,1.000
6.269,2.889,4.312,0.913,0.757,0.314,-2.497,3.238,-0.116,0.927,-0.407,-1.465,0.092,0.244,80.000,10517.000,1.000
8.474,5.057,6.294,1.962,1.978,1.486,-2.302,3.865,-0.117,0.927,-0.405,-1.556,0.153,0.244,80.000,10518.000,1.000
9.213,6.350,6.666,2.003,2.322,2.137,-2.270,3.878,-0.117,0.928,-0.406,-1.434,0.061,0.214,80.000,10519.000,1.000
8.773,6.671,5.766,1.415,2.030,2.162,-2.249,3.405,-0.116,0.927,-0.408,-1.465,0.122,0.153,80.000,10520.000,1.000
7.514,5.967,4.160,0.542,1.215,1.407,-2.348,2.498,-0.116,0.927,-0.404,-1.312,0.122,0.031,80.000,10521.000,1.000
5.766,4.227,2.360,-0.403,-0.081,-0.267,-2.898,1.188,-0.119,0.926,-0.405,-1.373,0.031,-0.061,80.000,10522.000,1.000
3.925,1.703,0.716,-1.324,-1.688,-2.788,-4.133,-0.316,-0.121,0.927,-0.407,-1.373,0.122,-0.061,80.000,10523.000,1.000
2.274,-1.139,-0.705,-2.233,-3.359,-5.853,-5.932,-1.665,-0.120,0.926,-0.405,-1.373,0.061,-0.061,80.000,10524.000,1.000
0.877,-3.780,-1.961,-3.083,-4.800,-8.909,-7.745,-2.507,-0.119,0.925,-0.405,-1.373,-0.092,-0.183,80.000,10525.000,1.000
-0.095,-5.503,-2.737,-3.479,-5.445,-10.989,-8.618,-2.433,-0.119,0.924,-0.402,-1.434,-0.153,-0.031,80.000,10526.000,1.000
-0.240,-5.520,-2.378,-2.833,-4.589,-11.011,-7.624,-1.076,-0.120,0.926,-0.401,-1.373,-0.183,-0.092,80.000,10527.000,1.000
0.621,-3.679,-0.664,-1.027,-2.123,-8.693,-4.685,1.370,-0.121,0.927,-0.401,-1.221,-0.275,-0.183,80.000,10528.000,1.000
2.105,-0.794,1.734,1.274,1.102,-4.949,-0.822,3.956,-0.122,0.927,-0.402,-1.160,-0.458,-0.153,80.000,10529.000,1.000
3.494,1.897,3.659,3.036,3.805,-1.186,2.554,5.566,-0.122,0.928,-0.404,-1.099,-0.519,-0.153,80.000,10530.000,1.000
4.012,3.312,4.088,3.377,4.969,1.499,4.406,5.551,-0.122,0.928,-0.401,-1.038,-0.580,-0.153,80.000,10531.000,1.000
3.028,2.822,2.581,1.955,4.240,2.594,4.394,3.939,-0.124,0.927,-0.401,-1.007,-0.580,0.000,80.000,10532.000,1.000
0.544,0.586,-0.382,-0.693,2.113,2.226,2.935,1.423,-0.122,0.930,-0.402,-0.977,-0.671,-0.031,80.000,10533.000,1.000
-2.473,-2.382,-3.550,-3.353,-0.291,1.017,0.927,-0.930,-0.122,0.933,-0.404,-0.946,-0.732,-0.061,80.000,10534.000,1.000
-4.549,-4.744,-5.643,-4.920,-1.851,-0.251,-0.789,-2.298,-0.121,0.933,-0.402,-1.068,-0.732,0.061,80.000,10535.000,1.000
-4.707,-5.563,-6.091,-5.020,-2.043,-1.026,-1.774,-2.522,-0.122,0.933,-0.403,-1.007,-0.854,0.183,80.000,10536.000,1.000
-3.232,-4.894,-5.323,-4.134,-1.234,-1.346,-2.111,-2.097,-0.122,0.930,-0.403,-0.977,-1.007,0.366,80.000,10537.000,1.000
-1.417,-3.743,-4.379,-3.154,-0.341,-1.727,-2.193,-1.731,-0.121,0.929,-0.404,-0.916,-1.129,0.336,80.000,10538.000,1.000
-0.434,-3.180,-3.994,-2.641,-0.013,-2.505,-2.213,-1.741,-0.121,0.929,-0.404,-0.824,-1.251,0.275,80.000,10539.000,1.000
-0.537,-3.461,-4.123,-2.556,-0.218,-3.429,-2.020,-1.918,-0.122,0.931,-0.403,-0.793,-1.190,0.397,80.000,10540.000,1.000
-1.276,-4.083,-4.346,-2.590,-0.561,-4.003,-1.473,-1.963,-0.121,0.932,-0.404,-0.946,-1.312,0.366,80.000,10541.000,1.000
-2.138,-4.523,-4.452,-2.559,-0.765,-4.032,-0.758,-1.845,-0.119,0.931,-0.404,-0.824,-1.282,0.427,80.000,10542.000,1.000
-2.885,-4.728,-4.551,-2.523,-0.850,-3.776,-0.317,-1.744,-0.118,0.930,-0.405,-0.824,-1.312,0.458,80.000,10543.000,1.000
-3.498,-4.918,-4.796,-2.618,-0.964,-3.619,-0.487,-1.794,-0.117,0.930,-0.407,-0.763,-1.312,0.458,80.000,10544.000,1.000
-3.984,-5.211,-5.138,-2.817,-1.154,-3.702,-1.231,-1.976,-0.117,0.931,-0.404,-0.824,-1.251,0.458,80.000,10545.000,1.000
-4.226,-5.486,-5.299,-2.956,-1.336,-3.841,-2.151,-2.174,-0.116,0.931,-0.401,-0.824,-1.160,0.458,80.000,10546.000,1.000
-3.951,-5.343,-4.934,-2.909,-1.336,-3.642,-2.671,-2.210,-0.115,0.930,-0.402,-0.793,-1.099,0.549,80.000,10547.000,1.000
-2.920,-4.236,-3.837,-2.556,-0.904,-2.672,-2.262,-1.814,-0.116,0.930,-0.402,-0.824,-1.099,0.610,80.000,10548.000,1.000
-1.217,-1.923,-2.100,-1.712,0.175,-0.734,-0.723,-0.750,-0.115,0.930,-0.406,-0.702,-0.854,0.580,80.000,10549.000,1.000
0.677,1.102,-0.138,-0.354,1.818,1.780,1.617,0.884,-0.114,0.931,-0.406,-0.793,-0.916,0.610,80.000,10550.000,1.000
2.078,3.706,1.434,1.078,3.483,3.888,3.964,2.511,-0.112,0.932,-0.405,-0.793,-0.854,0.610,80.000,10551.000,1.000
2.492,4.795,2.070,1.833,4.382,4.576,5.391,3.309,-0.112,0.928,-0.404,-0.793,-0.702,0.610,80.000,10552.000,1.000
1.916,4.032,1.611,1.385,4.010,3.519,5.299,2.717,-0.112,0.928,-0.405,-0.854,-0.702,0.580,80.000,10553.000,1.000
0.760,1.960,0.372,-0.159,2.523,1.232,3.784,0.854,-0.115,0.928,-0.405,-0.854,-0.580,0.549,80.000,10554.000,1.000
-0.421,-0.421,-1.046,-2.120,0.627,-1.374,1.584,-1.487,-0.114,0.926,-0.404,-0.793,-0.549,0.427,80.000,10555.000,1.000
-1.114,-2.119,-2.000,-3.624,-0.844,-3.507,-0.396,-3.314,-0.113,0.927,-0.406,-0.732,-0.427,0.366,80.000,10556.000,1.000
-0.989,-2.475,-1.996,-4.000,-1.303,-4.685,-1.521,-3.944,-0.113,0.927,-0.405,-0.732,-0.336,0.366,80.000,10557.000,1.000
-0.072,-1.338,-0.894,-3.082,-0.571,-4.694,-1.552,-3.227,-0.115,0.927,-0.405,-0.641,-0.214,0.275,80.000,10558.000,1.000
1.297,0.992,0.992,-1.269,1.170,-3.546,-0.577,-1.494,-0.114,0.928,-0.405,-0.549,-0.183,0.153,80.000,10559.000,1.000
2.751,3.950,3.020,0.795,3.499,-1.483,1.114,0.686,-0.115,0.928,-0.405,-0.641,-0.122,0.183,80.000,10560.000,1.000
3.987,6.797,4.466,2.530,5.799,0.970,3.090,2.751,-0.115,0.928,-0.404,-0.671,-0.031,0.153,80.000,10561.000,1.000
4.603,8.674,4.721,3.448,7.311,3.020,4.762,4.197,-0.114,0.930,-0.404,-0.610,-0.031,0.000,80.000,10562.000,1.000
4.189,8.936,3.560,3.224,7.453,3.894,5.496,4.587,-0.115,0.929,-0.405,-0.549,0.000,0.000,80.000,10563.000,1.000
2.751,7.614,1.432,1.967,6.237,3.348,4.963,3.767,-0.115,0.928,-0.404,-0.580,0.122,0.092,80.000,10564.000,1.000
0.928,5.522,-0.593,0.331,4.342,1.916,3.420,2.113,-0.115,0.927,-0.404,-0.610,0.122,0.061,80.000,10565.000,1.000
-0.301,3.789,-1.356,-0.771,2.732,0.580,1.633,0.419,-0.115,0.928,-0.406,-0.610,0.122,0.061,80.000,10566.000,1.000
-0.132,3.215,-0.258,-0.629,2.169,0.188,0.475,-0.518,-0.114,0.929,-0.404,-0.580,0.397,0.000,80.000,10567.000,1.000
1.610,3.904,2.397,0.873,2.840,0.952,0.407,-0.335,-0.115,0.929,-0.405,-0.519,0.305,0.000,80.000,10568.000,1.000
4.255,5.228,5.501,3.108,4.206,2.267,1.168,0.675,-0.116,0.929,-0.406,-0.580,0.244,-0.061,80.000,10569.000,1.000
6.624,6.184,7.743,5.049,5.358,3.167,1.998,1.784,-0.117,0.930,-0.409,-0.641,0.397,0.031,80.000,10570.000,1.000
7.801,6.091,8.401,5.948,5.693,3.109,2.264,2.396,-0.118,0.929,-0.404,-0.702,0.366,0.092,80.000,10571.000,1.000
7.639,5.080,7.708,5.769,5.296,2.310,1.930,2.448,-0.119,0.928,-0.405,-0.702,0.275,0.122,80.000,10572.000,1.000
6.675,3.853,6.529,5.026,4.743,1.373,1.474,2.320,-0.119,0.928,-0.406,-0.671,0.214,0.153,80.000,10573.000,1.000
5.674,2.996,5.652,4.302,4.551,0.729,1.456,2.392,-0.120,0.928,-0.405,-0.702,0.183,0.183,80.000,10574.000,1.000
5.178,2.643,5.320,3.908,4.787,0.378,2.154,2.686,-0.118,0.929,-0.405,-0.580,0.153,0.183,80.000,10575.000,1.000
5.291,2.683,5.284,3.834,5.140,0.062,3.470,2.948,-0.119,0.929,-0.405,-0.671,0.061,0.031,80.000,10576.000,1.000
5.696,2.955,5.089,3.849,5.247,-0.397,5.011,2.953,-0.120,0.931,-0.403,-0.610,0.122,0.214,80.000,10577.000,1.000
5.813,3.239,4.325,3.653,4.844,-0.924,6.237,2.625,-0.120,0.933,-0.402,-0.671,0.061,0.183,80.000,10578.000,1.000
5.037,3.242,2.804,3.005,3.772,-1.244,6.634,1.903,-0.120,0.932,-0.404,-0.671,0.000,0.061,80.000,10579.000,1.000
2.963,2.661,0.586,1.788,2.005,-1.121,5.855,0.678,-0.121,0.933,-0.403,-0.732,0.000,0.122,80.000,10580.000,1.000
-0.457,1.290,-2.142,0.042,-0.324,-0.604,3.852,-1.064,-0.121,0.931,-0.404,-0.732,-0.031,0.153,80.000,10581.000,1.000
-4.840,-0.836,-5.164,-2.013,-2.951,-0.039,0.962,-3.110,-0.122,0.930,-0.407,-0.763,-0.122,0.275,80.000,10582.000,1.000
-9.462,-3.360,-8.252,-4.064,-5.546,0.229,-2.139,-5.056,-0.119,0.930,-0.403,-0.854,-0.153,0.305,80.000,10583.000,1.000
-13.546,-5.765,-11.227,-5.888,-7.833,0.023,-4.714,-6.528,-0.120,0.931,-0.406,-0.793,-0.153,0.366,80.000,10584.000,1.000
-16.561,-7.614,-13.958,-7.430,-9.636,-0.712,-6.294,-7.424,-0.121,0.930,-0.405,-0.916,-0.275,0.549,80.000,10585.000,1.000
-18.227,-8.594,-16.140,-8.589,-10.677,-1.793,-6.713,-7.846,-0.120,0.932,-0.407,-1.007,-0.366,0.366,80.000,10586.000,1.000
-18.418,-8.518,-17.219,-9.083,-10.559,-2.679,-6.038,-7.874,-0.122,0.928,-0.405,-0.885,-0.427,0.427,80.000,10587.000,1.000
-17.213,-7.489,-16.749,-8.694,-9.153,-2.826,-4.626,-7.535,-0.120,0.930,-0.405,-0.854,-0.458,0.488,80.000,10588.000,1.000
-14.928,-5.942,-14.714,-7.477,-6.817,-2.147,-3.064,-6.801,-0.119,0.929,-0.404,-0.977,-0.549,0.397,80.000,10589.000,1.000
-12.037,-4.435,-11.574,-5.713,-4.189,-1.099,-1.910,-5.623,-0.119,0.931,-0.405,-1.007,-0.641,0.488,80.000,10590.000,1.000
-9.131,-3.404,-8.145,-3.839,-1.949,-0.402,-1.516,-4.108,-0.118,0.930,-0.402,-1.007,-0.702,0.519,80.000,10591.000,1.000
-6.836,-3.025,-5.284,-2.298,-0.610,-0.612,-1.904,-2.577,-0.120,0.929,-0.404,-1.007,-0.763,0.549,80.000,10592.000,1.000
-5.534,-3.153,-3.452,-1.274,-0.254,-1.711,-2.719,-1.294,-0.119,0.928,-0.405,-0.946,-0.763,0.427,80.000,10593.000,1.000
-5.165,-3.451,-2.580,-0.649,-0.540,-3.149,-3.450,-0.278,-0.116,0.929,-0.406,-1.038,-0.824,0.458,80.000,10594.000,1.000
-5.386,-3.711,-2.369,-0.324,-1.129,-4.357,-3.865,0.511,-0.116,0.929,-0.406,-1.007,-0.793,0.488,80.000,10595.000,1.000
-5.841,-3.960,-2.534,-0.347,-1.923,-5.068,-4.067,1.013,-0.117,0.928,-0.405,-1.007,-0.854,0.458,80.000,10596.000,1.000
-6.183,-4.180,-2.751,-0.598,-2.747,-5.089,-4.037,1.255,-0.116,0.928,-0.403,-1.068,-0.946,0.397,80.000,10597.000,1.000
-6.064,-4.125,-2.678,-0.695,-3.167,-4.190,-3.458,1.419,-0.118,0.929,-0.403,-1.129,-0.916,0.397,80.000,10598.000,1.000
-5.294,-3.508,-2.138,-0.291,-2.825,-2.305,-2.104,1.626,-0.119,0.931,-0.403,-1.068,-0.977,0.366,80.000,10599.000,1.000
-3.962,-2.213,-1.163,0.730,-1.697,0.359,-0.092,1.909,-0.118,0.929,-0.403,-1.038,-0.946,0.275,80.000,10600.000,1.000
-2.426,-0.439,0.049,2.198,-0.107,3.283,2.114,2.236,-0.116,0.929,-0.405,-0.977,-0.946,0.305,80.000,10601.000,1.000
-1.143,1.311,1.162,3.626,1.359,5.644,3.741,2.390,-0.115,0.927,-0.406,-1.007,-1.007,0.275,80.000,10602.000,1.000
-0.325,2.562,1.923,4.493,2.190,6.733,4.093,2.096,-0.116,0.927,-0.408,-1.038,-0.946,0.366,80.000,10603.000,1.000
0.131,3.134,2.334,4.631,2.293,6.442,3.100,1.345,-0.117,0.927,-0.408,-1.038,-0.946,0.244,80.000,10604.000,1.000
0.330,2.986,2.456,4.201,1.886,5.209,1.329,0.407,-0.116,0.929,-0.408,-0.885,-0.824,0.305,80.000,10605.000,1.000
0.191,2.045,2.233,3.414,1.171,3.634,-0.498,-0.440,-0.116,0.929,-0.408,-1.038,-0.885,0.305,80.000,10606.000,1.000
-0.318,0.373,1.665,2.442,0.250,2.236,-1.841,-1.093,-0.116,0.931,-0.405,-0.977,-0.824,0.214,80.000,10607.000,1.000
-0.917,-1.600,1.010,1.521,-0.737,1.332,-2.420,-1.569,-0.114,0.929,-0.399,-1.038,-0.854,0.214,80.000,10608.000,1.000
-1.117,-3.229,0.669,0.934,-1.564,0.968,-2.241,-1.872,-0.115,0.932,-0.402,-1.038,-0.793,0.183,80.000,10609.000,1.000
-0.570,-4.088,0.879,0.837,-2.014,0.931,-1.629,-1.952,-0.116,0.931,-0.405,-1.099,-0.702,0.153,80.000,10610.000,1.000
0.724,-4.232,1.544,1.138,-2.020,0.834,-1.151,-1.813,-0.117,0.930,-0.406,-1.099,-0.763,0.275,80.000,10611.000,1.000
2.409,-4.135,2.223,1.519,-1.780,0.216,-1.435,-1.637,-0.117,0.930,-0.408,-1.068,-0.763,0.183,80.000,10612.000,1.000
3.896,-4.356,2.341,1.592,-1.726,-1.259,-2.836,-1.740,-0.117,0.929,-0.406,-0.854,-0.702,0.183,80.000,10613.000,1.000
4.722,-5.083,1.649,1.199,-2.240,-3.473,-5.074,-2.313,-0.117,0.927,-0.408,-1.007,-0.671,0.153,80.000,10614.000,1.000
4.921,-5.917,0.518,0.566,-3.300,-5.767,-7.241,-3.190,-0.117,0.928,-0.404,-1.038,-0.610,0.092,80.000,10615.000,1.000
4.843,-6.310,-0.447,-0.059,-4.567,-7.423,-8.503,-4.062,-0.115,0.930,-0.406,-0.977,-0.702,0.061,80.000,10616.000,1.000
4.599,-6.214,-1.036,-0.804,-5.768,-8.262,-8.833,-4.922,-0.115,0.930,-0.405,-1.068,-0.549,0.122,80.000,10617.000,1.000
4.052,-5.985,-1.411,-1.879,-6.735,-8.553,-8.793,-5.937,-0.115,0.928,-0.402,-1.038,-0.458,0.061,80.000,10618.000,1.000
3.256,-5.806,-1.638,-3.074,-7.157,-8.444,-8.742,-6.924,-0.118,0.927,-0.404,-1.129,-0.427,0.092,80.000,10619.000,1.000
2.552,-5.487,-1.574,-3.882,-6.717,-7.802,-8.582,-7.350,-0.116,0.927,-0.405,-1.099,-0.488,0.031,80.000,10620.000,1.000
2.250,-4.783,-1.100,-3.946,-5.478,-6.549,-8.075,-6.865,-0.116,0.926,-0.406,-1.099,-0.366,0.031,80.000,10621.000,1.000
2.349,-3.822,-0.297,-3.248,-3.956,-4.924,-7.114,-5.625,-0.115,0.925,-0.407,-0.977,-0.488,0.031,80.000,10622.000,1.000
2.534,-3.176,0.535,-2.106,-2.821,-3.425,-5.809,-4.155,-0.116,0.926,-0.407,-0.824,-0.519,0.092,80.000,10623.000,1.000
2.365,-3.400,1.016,-1.055,-2.541,-2.573,-4.513,-3.063,-0.115,0.926,-0.408,-0.824,-0.458,0.031,80.000,10624.000,1.000
1.567,-4.475,0.954,-0.542,-3.142,-2.569,-3.593,-2.725,-0.117,0.926,-0.408,-0.885,-0.366,0.000,80.000,10625.000,1.000
0.285,-5.746,0.565,-0.618,-4.141,-3.052,-3.004,-2.996,-0.116,0.926,-0.406,-0.854,-0.305,0.061,80.000,10626.000,1.000
-0.925,-6.423,0.369,-0.936,-4.769,-3.308,-2.225,-3.241,-0.118,0.927,-0.406,-0.763,-0.305,0.000,80.000,10627.000,1.000
-1.411,-6.034,0.853,-1.013,-4.407,-2.773,-0.777,-2.815,-0.117,0.927,-0.405,-0.854,-0.336,-0.061,80.000,10628.000,1.000
-0.859,-4.593,2.143,-0.518,-2.967,-1.430,1.199,-1.583,-0.116,0.927,-0.406,-0.885,-0.336,0.000,80.000,10629.000,1.000
0.441,-2.589,3.836,0.510,-0.986,0.130,2.902,-0.040,-0.117,0.927,-0.406,-0.824,-0.336,-0.031,80.000,10630.000,1.000
1.721,-0.787,5.149,1.621,0.663,1.047,3.425,1.038,-0.118,0.928,-0.405,-0.732,-0.427,-0.031,80.000,10631.000,1.000
2.225,0.211,5.377,2.179,1.260,0.698,2.388,1.113,-0.120,0.929,-0.407,-0.763,-0.427,-0.092,80.000,10632.000,1.000
1.794,0.435,4.412,1.866,0.677,-0.868,0.217,0.286,-0.119,0.930,-0.406,-0.732,-0.427,-0.153,80.000,10633.000,1.000
1.076,0.568,2.967,1.033,-0.494,-2.850,-2.044,-0.725,-0.119,0.928,-0.406,-0.793,-0.458,-0.244,80.000,10634.000,1.000
1.035,1.383,2.157,0.407,-1.333,-4.180,-3.328,-1.092,-0.120,0.928,-0.407,-0.732,-0.366,-0.061,80.000,10635.000,1.000
2.216,3.201,2.758,0.507,-1.199,-4.185,-3.149,-0.441,-0.119,0.930,-0.406,-0.763,-0.397,-0.092,80.000,10636.000,1.000
4.470,5.736,4.825,1.428,-0.031,-2.851,-1.760,1.036,-0.121,0.931,-0.405,-0.793,-0.458,-0.031,80.000,10637.000,1.000
7.197,8.282,7.803,2.906,1.754,-0.645,0.144,2.876,-0.121,0.930,-0.407,-0.854,-0.549,-0.031,80.000,10638.000,1.000
9.691,10.084,10.822,4.396,3.558,1.778,1.841,4.641,-0.118,0.930,-0.404,-0.824,-0.549,-0.061,80.000,10639.000,1.000
11.420,10.733,13.030,5.321,4.869,3.804,2.847,5.991,-0.118,0.932,-0.403,-1.007,-0.519,-0.092,80.000,10640.000,1.000
12.274,10.372,13.953,5.447,5.448,5.102,3.010,6.697,-0.119,0.931,-0.402,-0.977,-0.519,-0.061,80.000,10641.000,1.000
12.565,9.530,13.677,5.009,5.403,5.790,2.456,6.703,-0.118,0.931,-0.400,-1.068,-0.549,0.031,80.000,10642.000,1.000
12.652,8.717,12.654,4.422,5.060,6.248,1.467,6.114,-0.119,0.930,-0.405,-1.038,-0.427,0.031,80.000,10643.000,1.000
12.611,8.176,11.362,3.956,4.739,6.779,0.403,5.177,-0.121,0.931,-0.404,-1.160,-0.427,0.000,80.000,10644.000,1.000
12.429,8.071,10.222,3.762,4.739,7.535,-0.258,4.315,-0.122,0.930,-0.404,-1.190,-0.580,0.061,80.000,10645.000,1.000
12.372,8.705,9.697,4.057,5.417,8.683,0.060,4.109,-0.124,0.929,-0.401,-1.312,-0.580,0.092,80.000,10646.000,1.000
12.847,10.318,10.166,5.060,7.018,10.423,1.789,5.069,-0.123,0.929,-0.401,-1.282,-0.671,0.214,80.000,10647.000,1.000
13.902,12.714,11.545,6.707,9.353,12.707,4.895,7.240,-0.124,0.928,-0.402,-1.221,-0.824,0.153,80.000,10648.000,1.000
14.896,15.078,13.064,8.400,11.671,14.979,8.660,9.966,-0.125,0.928,-0.403,-1.190,-0.793,0.122,80.000,10649.000,1.000
14.737,16.240,13.549,9.155,12.996,16.312,11.889,12.179,-0.125,0.929,-0.406,-1.221,-0.854,0.153,80.000,10650.000,1.000
12.688,15.441,12.181,8.280,12.818,16.041,13.684,13.159,-0.121,0.929,-0.405,-1.282,-0.916,0.061,80.000,10651.000,1.000
9.024,12.983,9.109,5.972,11.454,14.290,14.048,12.976,-0.121,0.928,-0.407,-1.251,-1.038,0.031,80.000,10652.000,1.000
4.805,9.940,5.284,3.138,9.651,11.751,13.572,12.135,-0.121,0.929,-0.410,-1.160,-1.129,0.061,80.000,10653.000,1.000
1.002,7.167,1.658,0.632,7.878,8.965,12.616,10.882,-0.123,0.928,-0.411,-1.129,-1.068,0.061,80.000,10654.000,1.000
-2.109,4.660,-1.418,-1.268,6.061,5.972,10.956,8.996,-0.122,0.930,-0.404,-1.282,-1.007,0.183,80.000,10655.000,1.000
-4.867,1.806,-4.171,-2.777,3.864,2.566,8.163,6.160,-0.120,0.928,-0.404,-1.282,-1.068,0.336,80.000,10656.000,1.000
-7.732,-1.859,-6.977,-4.197,1.121,-1.288,4.201,2.428,-0.121,0.928,-0.405,-1.282,-1.068,0.427,80.000,10657.000,1.000
-10.766,-6.098,-9.911,-5.610,-1.932,-5.282,-0.294,-1.644,-0.120,0.927,-0.404,-1.221,-1.129,0.519,80.000,10658.000,1.000
-13.481,-10.037,-12.592,-6.814,-4.762,-8.830,-4.273,-5.240,-0.121,0.928,-0.403,-1.160,-1.190,0.580,80.000,10659.000,1.000
-14.966,-12.586,-14.259,-7.319,-6.650,-11.141,-6.693,-7.530,-0.119,0.928,-0.406,-1.099,-1.160,0.641,80.000,10660.000,1.000
-14.237,-12.827,-14.032,-6.465,-6.840,-11.398,-6.854,-7.798,-0.119,0.928,-0.403,-0.977,-1.221,0.610,80.000,10661.000,1.000
-10.920,-10.498,-11.506,-3.974,-5.040,-9.330,-4.823,-5.809,-0.119,0.930,-0.401,-1.007,-1.190,0.671,80.000,10662.000,1.000
-5.754,-6.349,-7.286,-0.435,-1.809,-5.633,-1.554,-2.199,-0.121,0.929,-0.403,-1.007,-1.038,0.610,80.000,10663.000,1.000
-0.370,-1.928,-2.845,2.886,1.643,-1.658,1.647,1.694,-0.120,0.926,-0.403,-0.916,-1.007,0.824,80.000,10664.000,1.000
3.479,1.125,0.140,4.711,3.988,1.329,3.749,4.494,-0.117,0.925,-0.405,-0.854,-1.038,0.702,80.000,10665.000,1.000
4.690,1.862,0.564,4.418,4.353,2.650,4.271,5.416,-0.117,0.925,-0.404,-0.793,-1.007,0.732,80.000,10666.000,1.000
3.230,0.430,-1.554,2.322,2.720,2.301,3.322,4.457,-0.117,0.927,-0.404,-0.763,-0.946,0.763,80.000,10667.000,1.000
0.086,-2.048,-5.067,-0.582,-0.058,0.853,1.520,2.258,-0.115,0.927,-0.404,-0.763,-0.916,0.671,80.000,10668.000,1.000
-3.252,-4.110,-8.324,-3.160,-2.708,-0.811,-0.279,-0.179,-0.114,0.930,-0.405,-0.732,-0.793,0.610,80.000,10669.000,1.000
-5.496,-4.772,-9.992,-4.606,-4.221,-1.933,-1.388,-1.886,-0.117,0.930,-0.405,-0.824,-0.793,0.519,80.000,10670.000,1.000
-6.049,-3.949,-9.577,-4.677,-4.297,-2.257,-1.618,-2.436,-0.115,0.929,-0.403,-0.824,-0.763,0.610,80.000,10671.000,1.000
-5.208,-2.383,-7.601,-3.736,-3.427,-2.140,-1.451,-2.234,-0.115,0.929,-0.404,-0.854,-0.641,0.580,80.000,10672.000,1.000
-3.958,-1.156,-5.331,-2.525,-2.555,-2.329,-1.754,-2.196,-0.114,0.927,-0.407,-0.946,-0.671,0.519,80.000,10673.000,1.000
-3.257,-0.959,-3.940,-1.685,-2.424,-3.403,-3.025,-2.965,-0.112,0.927,-0.406,-0.977,-0.458,0.458,80.000,10674.000,1.000
-3.408,-1.678,-3.764,-1.430,-3.089,-5.297,-4.896,-4.407,-0.115,0.927,-0.407,-0.946,-0.336,0.427,80.000,10675.000,1.000
-4.096,-2.572,-4.290,-1.594,-4.021,-7.283,-6.412,-5.815,-0.112,0.927,-0.406,-0.763,-0.336,0.305,80.000,10676.000,1.000
-4.829,-2.832,-4.728,-1.926,-4.599,-8.389,-6.728,-6.478,-0.111,0.929,-0.408,-0.641,-0.214,0.305,80.000,10677.000,1.000
-5.299,-2.137,-4.576,-2.342,-4.521,-8.043,-5.659,-6.147,-0.112,0.929,-0.406,-0.641,-0.153,0.244,80.000,10678.000,1.000
-5.464,-0.792,-3.817,-2.851,-3.860,-6.412,-3.706,-5.085,-0.110,0.930,-0.403,-0.580,-0.122,0.153,80.000,10679.000,1.000
-5.414,0.666,-2.748,-3.339,-2.857,-4.122,-1.632,-3.753,-0.112,0.929,-0.404,-0.610,-0.031,0.183,80.000,10680.000,1.000
-5.314,1.818,-1.770,-3.609,-1.809,-1.828,-0.056,-2.575,-0.116,0.930,-0.408,-0.732,-0.122,0.122,80.000,10681.000,1.000
-5.404,2.394,-1.269,-3.596,-1.026,-0.015,0.683,-1.837,-0.121,0.928,-0.403,-0.763,-0.061,0.031,80.000,10682.000,1.000
-5.857,2.302,-1.418,-3.340,-0.633,1.137,0.626,-1.520,-0.122,0.929,-0.403,-0.763,-0.153,-0.061,80.000,10683.000,1.000
-6.587,1.683,-2.034,-2.865,-0.460,1.787,0.251,-1.287,-0.127,0.930,-0.404,-0.732,-0.244,-0.244,80.000,10684.000,1.000
-7.235,0.911,-2.642,-2.127,-0.185,2.309,0.280,-0.727,-0.127,0.933,-0.403,-0.793,-0.366,-0.366,80.000,10685.000,1.000
-7.334,0.517,-2.729,-1.092,0.417,3.027,1.250,0.365,-0.127,0.933,-0.405,-0.793,-0.519,-0.488,80.000,10686.000,1.000
-6.552,0.845,-2.082,0.080,1.220,3.957,3.072,1.842,-0.126,0.932,-0.402,-0.824,-0.671,-0.671,80.000,10687.000,1.000
-4.949,1.651,-0.953,0.987,1.732,4.769,4.952,3.265,-0.127,0.933,-0.403,-0.793,-0.854,-0.763,80.000,10688.000,1.000
-3.002,2.198,0.140,1.304,1.491,5.133,5.903,4.159,-0.125,0.932,-0.405,-0.824,-0.946,-0.824,80.000,10689.000,1.000
-1.233,1.932,0.854,1.148,0.509,5.092,5.458,4.298,-0.124,0.930,-0.407,-0.824,-1.099,-0.854,80.000,10690.000,1.000
0.119,0.918,1.219,0.962,-0.764,4.962,3.955,3.730,-0.124,0.929,-0.403,-0.793,-1.221,-0.885,80.000,10691.000,1.000
0.977,-0.430,1.382,1.011,-1.913,4.923,2.237,2.625,-0.125,0.931,-0.403,-0.824,-1.312,-0.763,80.000,10692.000,1.000
1.279,-1.720,1.353,1.143,-2.832,4.912,1.160,1.226,-0.124,0.930,-0.400,-0.854,-1.404,-0.671,80.000,10693.000,1.000
1.005,-2.753,1.032,0.955,-3.659,4.770,1.088,-0.231,-0.122,0.931,-0.402,-0.977,-1.312,-0.610,80.000,10694.000,1.000
0.238,-3.551,0.415,0.143,-4.530,4.425,1.690,-1.578,-0.121,0.933,-0.404,-0.916,-1.465,-0.549,80.000,10695.000,1.000
-0.701,-4.116,-0.170,-1.089,-5.226,4.097,2.434,-2.497,-0.121,0.934,-0.401,-0.977,-1.404,-0.397,80.000,10696.000,1.000
-1.310,-4.260,-0.213,-2.051,-5.161,4.215,3.173,-2.448,-0.123,0.934,-0.402,-1.038,-1.434,-0.153,80.000,10697.000,1.000
-1.282,-3.859,0.514,-2.181,-3.914,4.977,4.133,-1.148,-0.124,0.933,-0.399,-1.068,-1.495,0.153,80.000,10698.000,1.000
-0.741,-3.136,1.721,-1.595,-1.703,6.036,5.484,0.986,-0.123,0.932,-0.405,-1.129,-1.648,0.366,80.000,10699.000,1.000
-0.150,-2.625,2.697,-1.063,0.629,6.604,7.031,2.954,-0.124,0.931,-0.403,-1.129,-1.556,0.519,80.000,10700.000,1.000
-0.036,-2.856,2.642,-1.458,2.032,5.893,8.210,3.751,-0.122,0.931,-0.403,-1.068,-1.526,0.488,80.000,10701.000,1.000
-0.627,-3.975,1.160,-3.075,1.828,3.696,8.388,2.987,-0.123,0.932,-0.404,-1.068,-1.556,0.641,80.000,10702.000,1.000
-1.649,-5.533,-1.412,-5.342,0.116,0.612,7.287,1.099,-0.122,0.931,-0.404,-1.099,-1.556,0.793,80.000,10703.000,1.000
-2.524,-6.643,-4.177,-7.198,-2.285,-2.289,5.291,-0.965,-0.123,0.928,-0.404,-1.099,-1.526,0.854,80.000,10704.000,1.000
-2.885,-6.553,-6.276,-7.848,-4.358,-4.155,3.239,-2.333,-0.122,0.927,-0.403,-1.038,-1.434,0.793,80.000,10705.000,1.000
-2.913,-5.257,-7.413,-7.269,-5.495,-4.804,1.852,-2.635,-0.122,0.928,-0.403,-1.068,-1.373,0.763,80.000,10706.000,1.000
-3.017,-3.423,-7.795,-6.005,-5.630,-4.534,1.427,-1.969,-0.119,0.926,-0.403,-1.099,-1.373,0.854,80.000,10707.000,1.000
-3.239,-1.660,-7.679,-4.610,-4.906,-3.633,1.934,-0.608,-0.116,0.927,-0.403,-0.977,-1.404,0.793,80.000,10708.000,1.000
-3.194,-0.077,-7.181,-3.371,-3.529,-2.296,3.034,1.059,-0.112,0.927,-0.401,-0.946,-1.282,0.854,80.000,10709.000,1.000
-2.508,1.408,-6.411,-2.400,-1.898,-0.861,4.023,2.456,-0.112,0.928,-0.401,-0.977,-1.160,0.916,80.000,10710.000,1.000
-1.186,2.586,-5.554,-1.707,-0.549,0.131,4.115,3.004,-0.110,0.928,-0.401,-1.038,-1.038,0.824,80.000,10711.000,1.000
0.366,2.980,-4.819,-1.256,0.154,0.230,2.956,2.508,-0.112,0.928,-0.406,-0.946,-0.885,0.793,80.000,10712.000,1.000
1.597,2.418,-4.333,-1.024,0.263,-0.582,0.887,1.296,-0.109,0.928,-0.405,-0.916,-0.702,0.793,80.000,10713.000,1.000
2.128,1.323,-4.081,-0.968,0.148,-1.874,-1.361,-0.030,-0.108,0.925,-0.404,-0.824,-0.549,0.763,80.000,10714.000,1.000
1.867,0.288,-3.966,-1.001,0.110,-3.133,-3.216,-0.991,-0.110,0.926,-0.404,-0.732,-0.275,0.641,80.000,10715.000,1.000
0.951,-0.369,-3.945,-1.059,0.149,-4.107,-4.533,-1.473,-0.110,0.928,-0.405,-0.732,-0.153,0.580,80.000,10716.000,1.000
-0.284,-0.593,-4.034,-1.102,0.146,-4.801,-5.436,-1.646,-0.109,0.929,-0.405,-0.732,0.061,0.610,80.000,10717.000,1.000
-1.333,-0.461,-4.158,-0.998,0.162,-5.220,-6.039,-1.698,-0.109,0.927,-0.403,-0.793,0.305,0.549,80.000,10718.000,1.000
-1.680,-0.110,-4.075,-0.571,0.434,-5.206,-6.300,-1.631,-0.112,0.926,-0.405,-0.641,0.366,0.458,80.000,10719.000,1.000
-1.075,0.370,-3.577,0.203,1.120,-4.553,-6.093,-1.347,-0.112,0.927,-0.406,-0.610,0.549,0.275,80.000,10720.000,1.000
0.314,1.046,-2.722,1.114,2.146,-3.254,-5.402,-0.839,-0.112,0.928,-0.405,-0.580,0.671,0.092,80.000,10721.000,1.000
2.007,2.035,-1.734,1.870,3.285,-1.621,-4.432,-0.254,-0.114,0.929,-0.405,-0.580,0.702,-0.031,80.000,10722.000,1.000
3.501,3.312,-0.690,2.298,4.333,-0.141,-3.487,0.213,-0.115,0.928,-0.404,-0.610,0.854,-0.061,80.000,10723.000,1.000
4.518,4.637,0.546,2.416,5.197,0.794,-2.762,0.453,-0.118,0.929,-0.406,-0.610,0.854,-0.183,80.000,10724.000,1.000
5.004,5.641,2.006,2.322,5.823,1.002,-2.355,0.391,-0.118,0.930,-0.409,-0.702,0.885,-0.214,80.000,10725.000,1.000
5.002,5.965,3.374,2.063,6.084,0.428,-2.449,-0.120,-0.119,0.931,-0.404,-0.793,0.916,-0.244,80.000,10726.000,1.000
4.547,5.458,4.125,1.601,5.796,-0.866,-3.272,-1.218,-0.121,0.929,-0.404,-0.763,0.916,-0.305,80.000,10727.000,1.000
3.656,4.332,3.908,0.894,4.859,-2.583,-4.808,-2.807,-0.120,0.933,-0.406,-0.793,0.885,-0.366,80.000,10728.000,1.000
2.392,3.077,2.788,0.035,3.445,-4.225,-6.633,-4.490,-0.121,0.931,-0.404,-0.793,0.854,-0.305,80.000,10729.000,1.000
0.955,2.109,1.209,-0.761,2.002,-5.391,-8.098,-5.797,-0.122,0.931,-0.404,-0.732,0.763,-0.305,80.000,10730.000,1.000
-0.284,1.554,-0.186,-1.286,1.022,-5.918,-8.645,-6.463,-0.123,0.932,-0.403,-0.824,0.702,-0.275,80.000,10731.000,1.000
-0.901,1.364,-0.769,-1.426,0.781,-5.770,-8.075,-6.490,-0.122,0.930,-0.403,-0.824,0.763,-0.122,80.000,10732.000,1.000
-0.756,1.447,-0.267,-1.192,1.154,-5.087,-6.761,-6.097,-0.122,0.931,-0.404,-0.916,0.610,-0.092,80.000,10733.000,1.000
-0.168,1.673,1.041,-0.716,1.693,-4.239,-5.486,-5.575,-0.123,0.932,-0.405,-0.885,0.580,0.092,80.000,10734.000,1.000
0.339,1.871,2.529,-0.156,2.004,-3.602,-4.852,-5.065,-0.125,0.931,-0.404,-0.885,0.519,0.214,80.000,10735.000,1.000
0.359,1.804,3.585,0.360,1.999,-3.360,-4.921,-4.562,-0.126,0.930,-0.405,-0.977,0.336,0.275,80.000,10736.000,1.000
-0.225,1.210,3.888,0.783,1.866,-3.478,-5.338,-4.025,-0.124,0.928,-0.402,-0.916,0.305,0.366,80.000,10737.000,1.000
-1.160,0.032,3.556,1.206,1.932,-3.709,-5.583,-3.384,-0.124,0.930,-0.405,-0.885,0.153,0.427,80.000,10738.000,1.000
-2.016,-1.513,2.991,1.750,2.353,-3.791,-5.318,-2.609,-0.124,0.930,-0.407,-0.916,0.153,0.427,80.000,10739.000,1.000
-2.525,-3.042,2.547,2.355,2.873,-3.681,-4.657,-1.874,-0.125,0.929,-0.405,-0.885,0.000,0.549,80.000,10740.000,1.000
-2.619,-4.045,2.430,2.788,3.070,-3.469,-3.982,-1.477,-0.125,0.926,-0.401,-0.916,-0.092,0.580,80.000,10741.000,1.000
-2.284,-4.146,2.696,2.811,2.754,-3.224,-3.587,-1.654,-0.123,0.924,-0.402,-0.885,-0.244,0.610,80.000,10742.000,1.000
-1.579,-3.580,3.135,2.261,1.920,-3.123,-3.611,-2.502,-0.124,0.924,-0.404,-0.854,-0.305,0.580,80.000,10743.000,1.000
-0.689,-3.161,3.339,1.148,0.590,-3.458,-4.057,-3.875,-0.123,0.927,-0.406,-0.763,-0.397,0.519,80.000,10744.000,1.000
0.169,-3.542,3.075,-0.220,-1.053,-4.261,-4.691,-5.296,-0.122,0.927,-0.406,-0.763,-0.336,0.458,80.000,10745.000,1.000
0.921,-4.592,2.617,-1.246,-2.480,-5.083,-5.049,-6.113,-0.121,0.926,-0.406,-0.763,-0.519,0.397,80.000,10746.000,1.000
1.782,-5.497,2.667,-1.214,-2.949,-5.227,-4.645,-5.789,-0.119,0.927,-0.407,-0.671,-0.549,0.427,80.000,10747.000,1.000
3.085,-5.429,3.821,0.308,-1.973,-4.255,-3.295,-4.201,-0.118,0.926,-0.404,-0.610,-0.641,0.336,80.000,10748.000,1.000
4.817,-4.252,5.949,3.034,0.207,-2.415,-1.403,-1.817,-0.117,0.927,-0.407,-0.580,-0.702,0.305,80.000,10749.000,1.000
6.498,-2.596,8.203,6.048,2.653,-0.533,0.201,0.511,-0.116,0.927,-0.406,-0.671,-0.671,0.214,80.000,10750.000,1.000
7.580,-1.246,9.673,8.393,4.312,0.590,0.839,2.062,-0.117,0.928,-0.405,-0.641,-0.732,0.092,80.000,10751.000,1.000
7.802,-0.623,9.940,9.546,4.605,0.634,0.386,2.606,-0.119,0.930,-0.401,-0.671,-0.793,0.122,80.000,10752.000,1.000
7.262,-0.681,9.156,9.519,3.642,-0.165,-0.765,2.408,-0.119,0.928,-0.404,-0.671,-0.824,0.000,80.000,10753.000,1.000
6.362,-1.069,7.884,8.748,2.064,-1.152,-1.980,2.000,-0.118,0.929,-0.407,-0.671,-0.885,0.031,80.000,10754.000,1.000
5.618,-1.398,6.834,7.848,0.709,-1.580,-2.735,1.933,-0.121,0.931,-0.406,-0.824,-0.854,-0.031,80.000,10755.000,1.000
5.421,-1.438,6.592,7.313,0.249,-1.090,-2.845,2.570,-0.121,0.929,-0.406,-0.916,-0.885,-0.122,80.000,10756.000,1.000
5.723,-1.273,7.234,7.211,0.770,-0.012,-2.569,3.795,-0.122,0.926,-0.403,-0.977,-0.916,-0.061,80.000,10757.000,1.000
5.931,-1.321,8.142,7.119,1.623,0.796,-2.517,4.888,-0.123,0.925,-0.405,-0.885,-1.007,-0.061,80.000,10758.000,1.000
5.429,-1.895,8.544,6.606,2.026,0.662,-3.105,5.088,-0.122,0.926,-0.407,-0.732,-1.007,-0.061,80.000,10759.000,1.000
4.215,-2.801,8.162,5.736,1.798,-0.334,-4.101,4.298,-0.121,0.927,-0.407,-0.793,-1.099,-0.122,80.000,10760.000,1.000
2.802,-3.567,7.182,4.899,1.291,-1.563,-4.944,3.020,-0.118,0.927,-0.405,-0.702,-1.068,-0.244,80.000,10761.000,1.000
1.675,-3.889,5.899,4.328,0.829,-2.472,-5.294,1.777,-0.118,0.927,-0.406,-0.641,-1.068,-0.183,80.000,10762.000,1.000
1.016,-3.767,4.591,3.975,0.457,-2.903,-5.161,0.796,-0.118,0.927,-0.403,-0.580,-1.007,-0.092,80.000,10763.000,1.000
0.745,-3.440,3.470,3.677,0.010,-3.021,-4.705,0.064,-0.120,0.926,-0.402,-0.580,-1.007,0.031,80.000,10764.000,1.000
0.658,-3.264,2.554,3.290,-0.732,-3.077,-4.073,-0.526,-0.122,0.924,-0.405,-0.519,-0.946,0.061,80.000,10765.000,1.000
0.604,-3.434,1.732,2.813,-1.854,-3.145,-3.271,-1.004,-0.123,0.925,-0.407,-0.458,-1.007,0.122,80.000,10766.000,1.000
0.564,-3.774,0.969,2.423,-3.149,-2.993,-2.138,-1.268,-0.127,0.928,-0.405,-0.458,-1.068,0.000,80.000,10767.000,1.000
0.513,-3.898,0.290,2.264,-4.213,-2.323,-0.605,-1.257,-0.126,0.931,-0.406,-0.397,-1.129,0.031,80.000,10768.000,1.000
0.397,-3.514,-0.269,2.335,-4.677,-1.076,1.057,-1.051,-0.126,0.930,-0.407,-0.336,-1.129,0.000,80.000,10769.000,1.000
0.224,-2.638,-0.588,2.583,-4.355,0.491,2.371,-0.723,-0.125,0.931,-0.406,-0.488,-1.129,-0.122,80.000,10770.000,1.000
-0.014,-1.684,-0.568,2.843,-3.434,1.863,2.944,-0.352,-0.122,0.931,-0.406,-0.519,-1.282,-0.092,80.000,10771.000,1.000
-0.356,-1.206,-0.319,2.793,-2.467,2.559,2.721,-0.115,-0.123,0.930,-0.409,-0.519,-1.251,-0.031,80.000,10772.000,1.000
-0.724,-1.437,-0.130,2.211,-2.028,2.513,2.065,-0.197,-0.121,0.929,-0.407,-0.549,-1.282,-0.061,80.000,10773.000,1.000
-0.981,-2.277,-0.330,1.159,-2.455,2.046,1.412,-0.707,-0.119,0.929,-0.407,-0.549,-1.251,-0.061,80.000,10774.000,1.000
-1.336,-4.364,-1.463,-0.340,-4.069,1.315,0.569,-1.817,-0.119,0.927,-0.404,-0.549,-1.129,0.000,80.000,10775.000,1.000
-2.969,-12.377,-5.492,-3.194,-8.161,-0.631,-2.339,-4.358,-0.120,0.930,-0.411,-0.458,-1.129,0.000,80.000,10776.000,1.000
-9.865,-45.962,-20.386,-11.661,-20.481,-8.260,-14.217,-12.178,-0.121,0.931,-0.408,-0.519,-1.068,0.000,80.000,10777.000,1.000
-30.538,-152.034,-65.079,-35.764,-55.228,-32.139,-51.033,-34.979,-0.119,0.932,-0.406,-0.610,-1.038,0.061,80.000,10778.000,1.000
-71.721,-376.044,-156.882,-84.353,-126.172,-82.329,-128.382,-82.366,-0.119,0.932,-0.405,-0.702,-0.977,0.153,80.000,10779.000,1.000
-125.317,-688.378,-281.634,-149.314,-224.002,-151.902,-236.608,-148.112,-0.119,0.933,-0.404,-0.854,-0.946,0.122,80.000,10780.000,1.000
-167.350,-962.267,-387.116,-202.671,-309.867,-212.192,-332.674,-205.351,-0.118,0.933,-0.406,-0.854,-0.977,0.031,80.000,10781.000,1.000
-174.070,-1052.068,-416.365,-214.837,-339.393,-230.599,-366.182,-223.201,-0.119,0.931,-0.409,-0.946,-0.977,0.122,80.000,10782.000,1.000
-137.316,-887.502,-344.450,-173.913,-291.083,-191.818,-311.817,-186.901,-0.117,0.931,-0.407,-0.885,-0.854,0.183,80.000,10783.000,1.000
-68.012,-508.760,-190.475,-91.328,-176.863,-105.558,-182.238,-105.363,-0.120,0.932,-0.405,-1.068,-0.793,0.275,80.000,10784.000,1.000
9.593,-44.372,-7.347,4.246,-35.508,-1.207,-21.130,-6.365,-0.122,0.931,-0.405,-1.099,-0.702,0.244,80.000,10785.000,1.000
69.584,350.691,143.706,80.762,86.065,86.407,117.881,76.960,-0.121,0.930,-0.407,-1.038,-0.610,0.244,80.000,10786.000,1.000
97.606,573.239,224.256,119.153,156.562,134.630,198.329,123.001,-0.121,0.931,-0.406,-1.160,-0.580,0.336,80.000,10787.000,1.000
97.151,619.318,236.147,121.844,174.646,143.308,217.727,131.562,-0.122,0.931,-0.406,-1.038,-0.580,0.366,80.000,10788.000,1.000
83.537,564.039,211.327,106.508,162.679,129.800,201.146,119.091,-0.120,0.934,-0.405,-1.190,-0.549,0.427,80.000,10789.000,1.000
71.117,493.444,183.681,90.918,146.139,113.557,178.093,103.972,-0.120,0.932,-0.406,-1.099,-0.427,0.397,80.000,10790.000,1.000
65.227,450.536,168.550,82.619,137.612,104.273,163.877,95.204,-0.120,0.929,-0.406,-1.099,-0.397,0.519,80.000,10791.000,1.000
64.011,434.414,164.152,80.269,136.732,101.736,158.766,92.429,-0.120,0.930,-0.406,-1.007,-0.366,0.580,80.000,10792.000,1.000
64.658,432.059,164.864,80.804,139.647,102.717,158.428,92.705,-0.119,0.931,-0.407,-1.099,-0.336,0.519,80.000,10793.000,1.000
66.246,437.591,168.309,83.007,144.590,105.372,160.725,94.598,-0.120,0.929,-0.406,-1.099,-0.214,0.641,80.000,10794.000,1.000
67.862,444.997,171.903,85.447,149.537,107.898,163.572,96.641,-0.119,0.929,-0.406,-1.221,-0.092,0.580,80.000,10795.000,1.000
66.941,439.396,169.540,84.632,149.593,106.643,161.813,95.435,-0.118,0.927,-0.407,-1.099,-0.031,0.671,80.000,10796.000,1.000
61.440,408.077,156.509,77.806,140.696,98.634,150.848,88.185,-0.119,0.927,-0.404,-1.068,0.000,0.732,80.000,10797.000,1.000
52.915,357.498,136.255,66.807,125.160,85.638,132.793,76.672,-0.118,0.927,-0.408,-1.038,0.031,0.763,80.000,10798.000,1.000
45.573,310.226,118.362,57.004,110.580,73.468,115.779,66.424,-0.120,0.928,-0.405,-0.885,-0.031,0.732,80.000,10799.000,1.000
42.022,282.911,109.100,52.004,102.518,66.551,106.179,61.354,-0.119,0.928,-0.404,-0.946,0.061,0.702,80.000,10800.000,1.000
40.912,271.542,105.883,50.552,99.629,64.108,102.895,60.290,-0.120,0.928,-0.404,-1.099,0.061,0.641,80.000,10801.000,1.000
39.066,259.969,101.577,48.865,96.479,62.103,99.937,59.147,-0.119,0.928,-0.403,-1.068,0.031,0.549,80.000,10802.000,1.000
35.018,238.722,92.481,44.898,89.777,57.860,93.251,55.445,-0.121,0.927,-0.403,-1.007,-0.031,0.549,80.000,10803.000,1.000
29.736,211.463,80.542,39.453,80.573,51.786,83.576,49.801,-0.120,0.928,-0.399,-1.038,0.031,0.519,80.000,10804.000,1.000
24.523,185.345,68.964,33.920,71.224,45.301,73.409,43.742,-0.121,0.927,-0.401,-1.129,0.061,0.366,80.000,10805.000,1.000
19.478,161.032,58.185,28.357,62.257,38.664,63.458,37.519,-0.121,0.926,-0.402,-1.129,-0.031,0.275,80.000,10806.000,1.000
14.195,134.407,46.807,22.136,52.773,31.227,52.881,30.487,-0.122,0.926,-0.402,-1.068,0.000,0.214,80.000,10807.000,1.000
9.004,104.642,34.756,15.526,42.657,23.015,41.661,22.742,-0.122,0.927,-0.405,-1.099,-0.031,0.244,80.000,10808.000,1.000
4.894,76.388,23.892,9.787,33.153,15.203,31.244,15.503,-0.123,0.926,-0.403,-1.068,-0.061,0.153,80.000,10809.000,1.000
2.472,53.897,15.704,5.805,25.357,8.990,22.812,9.919,-0.123,0.925,-0.402,-1.007,-0.092,0.153,80.000,10810.000,1.000
1.356,35.831,9.513,3.148,18.895,4.428,15.836,5.929,-0.124,0.926,-0.404,-0.977,-0.122,0.061,80.000,10811.000,1.000
0.556,17.343,3.364,0.581,12.396,0.548,8.648,2.423,-0.122,0.925,-0.404,-0.946,-0.214,0.092,80.000,10812.000,1.000
-0.733,-4.036,-3.844,-2.703,5.030,-3.518,0.209,-1.566,-0.121,0.926,-0.402,-0.946,-0.153,0.122,80.000,10813.000,1.000
-2.774,-26.288,-11.573,-6.538,-2.788,-7.849,-8.956,-6.008,-0.121,0.926,-0.407,-0.824,-0.214,0.092,80.000,10814.000,1.000
-5.548,-46.293,-18.817,-10.352,-10.157,-12.146,-17.547,-10.279,-0.122,0.927,-0.406,-0.763,-0.214,0.092,80.000,10815.000,1.000
-9.087,-63.571,-25.492,-13.986,-16.746,-16.437,-24.902,-14.107,-0.123,0.929,-0.404,-0.763,-0.275,0.214,80.000,10816.000,1.000
-13.412,-79.976,-32.397,-17.786,-22.909,-21.007,-31.333,-17.798,-0.123,0.929,-0.403,-0.824,-0.336,0.214,80.000,10817.000,1.000
-18.230,-96.800,-40.015,-21.988,-28.979,-25.700,-37.297,-21.617,-0.123,0.931,-0.406,-0.824,-0.427,0.214,80.000,10818.000,1.000
-22.895,-113.396,-47.832,-26.344,-34.827,-29.819,-42.820,-25.354,-0.124,0.931,-0.404,-0.824,-0.580,0.214,80.000,10819.000,1.000
-26.725,-128.315,-54.896,-30.372,-40.140,-32.870,-47.705,-28.603,-0.124,0.930,-0.401,-0.824,-0.549,0.214,80.000,10820.000,1.000
-29.311,-140.760,-60.591,-33.704,-44.755,-34.973,-51.795,-31.163,-0.124,0.933,-0.403,-0.946,-0.610,0.244,80.000,10821.000,1.000
-30.657,-150.816,-64.762,-36.119,-48.608,-36.454,-54.896,-33.019,-0.124,0.932,-0.406,-0.885,-0.641,0.305,80.000,10822.000,1.000
-31.092,-158.887,-67.509,-37.506,-51.585,-37.425,-56.777,-34.188,-0.125,0.932,-0.405,-0.946,-0.671,0.336,80.000,10823.000,1.000
-31.042,-165.226,-69.123,-37.946,-53.583,-37.853,-57.451,-34.714,-0.124,0.933,-0.402,-0.916,-0.793,0.366,80.000,10824.000,1.000
-30.820,-169.763,-69.966,-37.697,-54.630,-37.777,-57.339,-34.735,-0.123,0.931,-0.405,-0.885,-0.763,0.458,80.000,10825.000,1.000
-30.532,-172.287,-70.304,-37.061,-54.966,-37.398,-57.086,-34.517,-0.122,0.931,-0.405,-0.854,-0.854,0.366,80.000,10826.000,1.000
-30.233,-173.102,-70.450,-36.452,-55.166,-37.153,-57.355,-34.562,-0.123,0.931,-0.406,-0.946,-0.916,0.336,80.000,10827.000,1.000
-30.090,-173.533,-70.915,-36.399,-55.990,-37.590,-58.675,-35.466,-0.124,0.929,-0.408,-0.977,-1.068,0.488,80.000,10828.000,1.000
-30.202,-175.182,-72.044,-37.149,-57.836,-38.925,-61.119,-37.398,-0.122,0.928,-0.406,-0.916,-1.129,0.427,80.000,10829.000,1.000
-30.342,-178.275,-73.515,-38.298,-60.335,-40.827,-64.052,-39.791,-0.121,0.928,-0.406,-0.977,-1.190,0.458,80.000,10830.000,1.000
-30.075,-181.139,-74.470,-38.990,-62.491,-42.666,-66.358,-41.637,-0.122,0.929,-0.401,-0.885,-1.129,0.458,80.000,10831.000,1.000
-29.115,-181.846,-74.209,-38.522,-63.294,-43.892,-67.123,-42.104,-0.121,0.929,-0.403,-0.977,-1.099,0.458,80.000,10832.000,1.000
-27.506,-180.298,-72.784,-36.813,-62.414,-44.288,-66.281,-41.049,-0.118,0.928,-0.404,-0.885,-1.007,0.458,80.000,10833.000,1.000
-25.548,-178.130,-70.818,-34.381,-60.402,-44.019,-64.615,-39.026,-0.118,0.925,-0.406,-0.671,-1.038,0.458,80.000,10834.000,1.000
-23.572,-176.502,-68.725,-31.896,-58.095,-43.328,-62.971,-36.740,-0.119,0.925,-0.406,-0.641,-1.007,0.458,80.000,10835.000,1.000
-21.733,-174.619,-66.267,-29.736,-55.865,-42.167,-61.529,-34.537,-0.117,0.925,-0.406,-0.610,-1.099,0.519,80.000,10836.000,1.000
-20.008,-170.958,-63.061,-27.916,-53.628,-40.355,-59.983,-32.491,-0.119,0.925,-0.406,-0.702,-1.190,0.549,80.000,10837.000,1.000
-18.308,-165.460,-59.318,-26.344,-51.395,-38.074,-58.256,-30.758,-0.120,0.927,-0.407,-0.488,-1.007,0.549,80.000,10838.000,1.000
-16.552,-159.651,-55.797,-25.042,-49.506,-35.961,-56.647,-29.651,-0.118,0.927,-0.406,-0.580,-0.946,0.458,80.000,10839.000,1.000
-14.747,-154.585,-53.025,-24.054,-48.216,-34.577,-55.257,-29.240,-0.120,0.928,-0.406,-0.549,-0.977,0.427,80.000,10840.000,1.000
-13.050,-149.401,-50.746,-23.250,-47.240,-33.820,-53.609,-28.978,-0.119,0.927,-0.406,-0.549,-0.946,0.458,80.000,10841.000,1.000
-11.784,-142.700,-48.440,-22.480,-46.053,-33.077,-51.193,-28.099,-0.120,0.926,-0.405,-0.580,-0.763,0.427,80.000,10842.000,1.000
-11.422,-134.942,-46.267,-21.883,-44.624,-31.985,-48.296,-26.447,-0.118,0.927,-0.406,-0.427,-0.763,0.336,80.000,10843.000,1.000
-12.202,-128.238,-44.855,-21.665,-43.337,-30.611,-45.749,-24.514,-0.118,0.926,-0.406,-0.458,-0.702,0.397,80.000,10844.000,1.000
-13.637,-123.568,-44.130,-21.562,-42.177,-28.925,-43.828,-22.690,-0.118,0.927,-0.405,-0.488,-0.732,0.275,80.000,10845.000,1.000
-14.700,-119.403,-43.023,-20.905,-40.543,-26.637,-41.949,-20.920,-0.118,0.927,-0.405,-0.458,-0.610,0.244,80.000,10846.000,1.000
-14.634,-113.686,-40.596,-19.351,-38.069,-23.710,-39.552,-19.103,-0.118,0.928,-0.404,-0.397,-0.580,0.214,80.000,10847.000,1.000
-13.428,-106.401,-37.082,-17.319,-35.204,-20.634,-36.861,-17.463,-0.117,0.926,-0.405,-0.458,-0.580,0.214,80.000,10848.000,1.000
-11.574,-99.439,-33.556,-15.549,-32.776,-18.088,-34.587,-16.389,-0.116,0.927,-0.403,-0.519,-0.519,0.092,80.000,10849.000,1.000
-9.566,-94.077,-30.755,-14.379,-31.128,-16.459,-33.074,-16.024,-0.117,0.927,-0.405,-0.427,-0.366,0.061,80.000,10850.000,1.000
-7.625,-89.254,-28.442,-13.556,-29.807,-15.653,-31.908,-16.063,-0.117,0.929,-0.408,-0.336,-0.336,0.244,80.000,10851.000,1.000
-5.742,-82.928,-25.965,-12.631,-28.106,-15.254,-30.374,-15.948,-0.118,0.930,-0.406,-0.366,-0.305,0.244,80.000,10852.000,1.000
-4.008,-74.914,-23.307,-11.465,-25.911,-14.936,-28.267,-15.359,-0.117,0.928,-0.405,-0.458,-0.153,0.305,80.000,10853.000,1.000
-2.795,-67.206,-21.166,-10.291,-23.808,-14.681,-26.103,-14.438,-0.117,0.929,-0.407,-0.336,-0.061,0.244,80.000,10854.000,1.000
-2.281,-60.903,-19.742,-9.158,-22.118,-14.307,-24.226,-13.320,-0.120,0.928,-0.406,-0.305,-0.061,0.305,80.000,10855.000,1.000
-2.037,-54.101,-18.008,-7.571,-20.151,-13.029,-22.030,-11.668,-0.119,0.928,-0.406,-0.275,-0.031,0.275,80.000,10856.000,1.000
-1.397,-43.854,-14.657,-5.018,-16.854,-9.993,-18.490,-9.012,-0.120,0.928,-0.404,-0.366,-0.031,0.214,80.000,10857.000,1.000
-0.086,-29.548,-9.467,-1.694,-11.962,-5.227,-13.250,-5.391,-0.121,0.927,-0.405,-0.244,-0.061,0.244,80.000,10858.000,1.000
1.638,-13.672,-3.502,1.536,-6.307,0.144,-6.958,-1.462,-0.120,0.928,-0.407,-0.305,0.031,0.336,80.000,10859.000,1.000
3.350,0.520,1.913,3.907,-1.062,4.694,-0.663,2.003,-0.121,0.930,-0.407,-0.366,0.092,0.305,80.000,10860.000,1.000
4.918,11.622,6.350,5.413,3.210,7.647,4.932,4.671,-0.120,0.932,-0.409,-0.336,0.153,0.336,80.000,10861.000,1.000
6.509,20.205,10.283,6.625,6.659,9.030,9.571,6.646,-0.120,0.930,-0.405,-0.275,0.092,0.427,80.000,10862.000,1.000
8.107,27.004,14.029,7.901,9.429,9.100,12.948,7.959,-0.118,0.931,-0.405,-0.305,0.122,0.427,80.000,10863.000,1.000
9.270,31.936,17.100,9.020,11.240,8.028,14.535,8.294,-0.120,0.929,-0.406,-0.275,0.031,0.458,80.000,10864.000,1.000
9.597,35.045,18.830,9.629,11.911,6.257,14.238,7.463,-0.121,0.931,-0.407,-0.336,0.000,0.366,80.000,10865.000,1.000
9.228,37.523,19.271,9.782,11.918,4.739,12.972,5.946,-0.121,0.930,-0.409,-0.427,0.061,0.397,80.000,10866.000,1.000
8.591,40.856,19.047,9.766,12.016,4.294,12.071,4.610,-0.120,0.930,-0.407,-0.366,0.000,0.519,80.000,10867.000,1.000
7.852,45.183,18.598,9.599,12.489,4.902,12.201,3.995,-0.123,0.929,-0.407,-0.488,-0.031,0.519,80.000,10868.000,1.000
6.952,49.290,18.054,9.083,13.097,5.955,13.135,4.150,-0.122,0.930,-0.407,-0.458,-0.031,0.610,80.000,10869.000,1.000
6.012,52.302,17.693,8.246,13.607,6.965,14.366,4.926,-0.122,0.930,-0.406,-0.580,0.000,0.519,80.000,10870.000,1.000
5.388,54.731,18.036,7.511,14.090,7.772,15.562,6.120,-0.120,0.930,-0.410,-0.580,-0.092,0.549,80.000,10871.000,1.000
5.351,57.614,19.353,7.372,14.753,8.343,16.540,7.434,-0.121,0.929,-0.412,-0.580,-0.092,0.427,80.000,10872.000,1.000
5.750,61.006,21.184,7.912,15.555,8.533,17.048,8.495,-0.119,0.928,-0.411,-0.580,-0.153,0.397,80.000,10873.000,1.000
5.989,63.717,22.477,8.598,16.054,8.023,16.735,8.973,-0.120,0.929,-0.410,-0.671,-0.122,0.519,80.000,10874.000,1.000
5.500,64.743,22.502,8.784,15.881,6.787,15.675,8.823,-0.120,0.928,-0.409,-0.610,-0.214,0.519,80.000,10875.000,1.000
4.361,64.689,21.636,8.415,15.378,5.648,14.864,8.500,-0.122,0.931,-0.405,-0.671,-0.305,0.488,80.000,10876.000,1.000
3.210,65.178,20.917,7.950,15.324,5.715,15.528,8.661,-0.121,0.931,-0.406,-0.702,-0.305,0.488,80.000,10877.000,1.000
2.556,66.934,20.879,7.686,15.983,7.143,17.724,9.433,-0.121,0.928,-0.406,-0.824,-0.305,0.488,80.000,10878.000,1.000
2.480,69.122,21.224,7.574,16.902,9.034,20.143,10.258,-0.120,0.928,-0.406,-0.824,-0.336,0.519,80.000,10879.000,1.000
2.882,70.577,21.487,7.598,17.613,10.558,21.433,10.578,-0.120,0.928,-0.406,-0.854,-0.336,0.488,80.000,10880.000,1.000
3.613,71.015,21.537,7.931,18.104,11.599,21.310,10.379,-0.120,0.928,-0.410,-0.793,-0.427,0.488,80.000,10881.000,1.000
4.404,70.927,21.500,8.744,18.615,12.428,20.472,10.078,-0.120,0.928,-0.407,-0.854,-0.458,0.549,80.000,10882.000,1.000
5.041,70.845,21.586,10.091,19.379,13.317,19.902,10.171,-0.118,0.927,-0.405,-0.885,-0.519,0.610,80.000,10883.000,1.000
5.534,70.917,21.945,11.829,20.446,14.401,20.217,10.917,-0.119,0.927,-0.404,-1.038,-0.549,0.488,80.000,10884.000,1.000
5.926,70.973,22.480,13.476,21.522,15.538,21.332,12.127,-0.119,0.928,-0.404,-0.916,-0.458,0.488,80.000,10885.000,1.000
6.170,70.913,22.924,14.398,22.125,16.384,22.670,13.323,-0.120,0.928,-0.406,-0.946,-0.488,0.580,80.000,10886.000,1.000
6.222,70.828,23.079,14.262,21.967,16.695,23.659,14.130,-0.120,0.930,-0.409,-1.038,-0.519,0.488,80.000,10887.000,1.000
5.975,70.551,22.756,13.124,21.037,16.399,23.901,14.372,-0.121,0.931,-0.407,-1.038,-0.580,0.458,80.000,10888.000,1.000
5.231,69.486,21.741,11.232,19.487,15.476,23.204,13.943,-0.118,0.929,-0.406,-1.068,-0.641,0.427,80.000,10889.000,1.000
4.052,67.257,20.132,8.952,17.652,14.019,21.764,12.836,-0.118,0.928,-0.409,-1.099,-0.610,0.397,80.000,10890.000,1.000
2.944,64.254,18.483,6.782,16.010,12.333,20.199,11.270,-0.118,0.928,-0.409,-1.099,-0.610,0.397,80.000,10891.000,1.000
2.537,61.329,17.455,5.297,15.015,10.933,19.216,9.677,-0.121,0.930,-0.407,-1.129,-0.610,0.397,80.000,10892.000,1.000
3.186,59.147,17.436,5.020,14.941,10.392,19.227,8.599,-0.119,0.929,-0.408,-1.221,-0.641,0.397,80.000,10893.000,1.000
4.827,57.862,18.440,6.131,15.808,11.035,20.207,8.493,-0.119,0.929,-0.406,-1.190,-0.610,0.397,80.000,10894.000,1.000
6.972,57.199,20.141,8.231,17.361,12.657,21.761,9.462,-0.121,0.929,-0.407,-1.160,-0.641,0.305,80.000,10895.000,1.000
8.860,56.702,21.935,10.495,19.075,14.559,23.224,11.089,-0.120,0.927,-0.406,-1.160,-0.702,0.305,80.000,10896.000,1.000
9.792,55.921,23.103,12.056,20.286,15.925,23.866,12.570,-0.118,0.929,-0.407,-1.129,-0.702,0.336,80.000,10897.000,1.000
9.476,54.518,23.125,12.343,20.510,16.287,23.281,13.145,-0.118,0.928,-0.407,-1.099,-0.671,0.366,80.000,10898.000,1.000
8.135,52.339,21.950,11.254,19.661,15.645,21.597,12.547,-0.116,0.926,-0.411,-1.129,-0.641,0.366,80.000,10899.000,1.000
6.365,49.498,20.016,9.183,18.011,14.220,19.276,11.100,-0.119,0.926,-0.404,-1.099,-0.641,0.305,80.000,10900.000,1.000
4.909,46.412,18.012,6.880,16.044,12.244,16.813,9.436,-0.119,0.926,-0.407,-0.946,-0.732,0.305,80.000,10901.000,1.000
4.398,43.642,16.535,5.203,14.291,10.047,14.658,8.157,-0.118,0.926,-0.406,-1.007,-0.702,0.183,80.000,10902.000,1.000
5.087,41.532,15.856,4.763,13.156,8.134,13.192,7.580,-0.118,0.926,-0.408,-1.007,-0.641,0.244,80.000,10903.000,1.000
6.706,39.973,15.854,5.625,12.795,7.049,12.587,7.696,-0.119,0.926,-0.407,-0.977,-0.671,0.275,80.000,10904.000,1.000
8.594,38.599,16.153,7.327,13.082,7.117,12.695,8.322,-0.120,0.928,-0.405,-0.854,-0.702,0.336,80.000,10905.000,1.000
10.051,37.223,16.374,9.211,13.664,8.226,13.125,9.229,-0.119,0.929,-0.406,-0.854,-0.641,0.366,80.000,10906.000,1.000
10.680,35.957,16.308,10.711,14.137,9.798,13.500,10.165,-0.119,0.927,-0.407,-0.824,-0.641,0.244,80.000,10907.000,1.000
10.527,34.993,15.943,11.519,14.273,11.127,13.646,10.869,-0.119,0.928,-0.407,-0.916,-0.610,0.153,80.000,10908.000,1.000
9.990,34.368,15.401,11.680,14.145,11.828,13.596,11.102,-0.119,0.929,-0.407,-0.824,-0.641,0.122,80.000,10909.000,1.000
9.618,33.947,14.922,11.529,14.060,11.955,13.503,10.779,-0.120,0.928,-0.407,-0.793,-0.763,0.153,80.000,10910.000,1.000
9.911,33.576,14.889,11.430,14.309,11.773,13.523,10.077,-0.120,0.927,-0.406,-0.824,-0.671,0.183,80.000,10911.000,1.000
10.992,33.008,15.553,11.446,14.842,11.449,13.640,9.229,-0.120,0.928,-0.403,-0.763,-0.610,0.153,80.000,10912.000,1.000
12.363,31.754,16.654,11.241,15.224,10.926,13.590,8.259,-0.117,0.928,-0.402,-0.732,-0.641,0.214,80.000,10913.000,1.000
13.167,29.415,17.478,10.391,14.987,10.038,13.055,7.079,-0.117,0.928,-0.409,-0.671,-0.793,0.122,80.000,10914.000,1.000
12.785,26.100,17.326,8.744,13.949,8.676,11.899,5.713,-0.118,0.928,-0.403,-0.763,-0.702,0.183,80.000,10915.000,1.000
11.127,22.279,15.879,6.449,12.220,6.920,10.188,4.272,-0.119,0.932,-0.404,-0.824,-0.671,0.244,80.000,10916.000,1.000
8.599,18.405,13.340,3.848,10.096,5.105,8.117,2.885,-0.121,0.931,-0.404,-0.793,-0.641,0.183,80.000,10917.000,1.000
6.036,14.971,10.452,1.477,8.030,3.777,6.058,1.777,-0.119,0.930,-0.406,-0.824,-0.671,0.122,80.000,10918.000,1.000
4.493,12.693,8.306,0.054,6.561,3.481,4.595,1.351,-0.120,0.930,-0.407,-0.885,-0.641,0.092,80.000,10919.000,1.000
4.674,12.165,7.743,0.174,6.123,4.498,4.242,2.008,-0.120,0.929,-0.406,-0.885,-0.671,0.031,80.000,10920.000,1.000
6.305,13.140,8.633,1.792,6.708,6.568,5.006,3.753,-0.119,0.929,-0.406,-0.763,-0.702,0.092,80.000,10921.000,1.000
8.097,14.300,9.742,4.000,7.686,8.815,6.261,5.971,-0.120,0.929,-0.405,-0.854,-0.732,0.122,80.000,10922.000,1.000
8.575,13.996,9.540,5.489,8.121,10.110,7.138,7.743,-0.119,0.927,-0.405,-0.885,-0.641,0.092,80.000,10923.000,1.000
7.139,11.329,7.297,5.398,7.388,9.743,7.056,8.430,-0.118,0.927,-0.407,-0.824,-0.671,0.153,80.000,10924.000,1.000
4.333,6.600,3.441,3.804,5.470,7.778,5.951,7.964,-0.120,0.928,-0.406,-0.885,-0.732,0.031,80.000,10925.000,1.000
1.236,0.903,-0.959,1.485,2.754,4.746,4.105,6.703,-0.121,0.927,-0.406,-0.885,-0.824,0.061,80.000,10926.000,1.000
-1.347,-4.667,-4.959,-0.803,-0.336,1.089,1.765,5.017,-0.122,0.927,-0.408,-0.854,-0.732,0.031,80.000,10927.000,1.000
-3.336,-9.670,-8.280,-2.920,-3.645,-3.131,-1.206,2.833,-0.122,0.927,-0.405,-0.824,-0.702,-0.031,80.000,10928.000,1.000
-5.203,-14.338,-11.252,-5.196,-7.279,-7.965,-5.191,-0.297,-0.122,0.926,-0.407,-0.702,-0.763,-0.031,80.000,10929.000,1.000
-7.240,-18.852,-14.092,-7.693,-11.134,-13.009,-10.163,-4.454,-0.120,0.927,-0.406,-0.732,-0.671,0.092,80.000,10930.000,1.000
-8.965,-22.678,-16.259,-9.792,-14.453,-17.224,-15.213,-8.765,-0.121,0.927,-0.407,-0.702,-0.793,0.122,80.000,10931.000,1.000
-9.340,-24.736,-16.653,-10.496,-16.032,-19.363,-18.787,-11.691,-0.120,0.927,-0.409,-0.610,-0.763,0.183,80.000,10932.000,1.000
-7.598,-24.242,-14.468,-9.087,-14.989,-18.562,-19.495,-11.953,-0.119,0.928,-0.408,-0.580,-0.732,0.214,80.000,10933.000,1.000
-3.919,-21.399,-9.938,-5.684,-11.445,-14.819,-16.974,-9.424,-0.120,0.925,-0.408,-0.488,-0.824,0.275,80.000,10934.000,1.000
0.507,-17.426,-4.455,-1.381,-6.606,-9.223,-12.258,-5.369,-0.120,0.926,-0.407,-0.458,-0.702,0.336,80.000,10935.000,1.000
4.055,-13.972,0.105,2.228,-2.152,-3.597,-7.287,-1.752,-0.117,0.927,-0.407,-0.488,-0.732,0.366,80.000,10936.000,1.000
5.660,-12.184,2.513,3.975,0.713,0.498,-3.747,0.011,-0.121,0.927,-0.409,-0.427,-0.732,0.275,80.000,10937.000,1.000
5.372,-12.173,2.710,3.724,1.734,2.493,-2.281,-0.243,-0.122,0.927,-0.409,-0.336,-0.671,0.275,80.000,10938.000,1.000
3.998,-13.360,1.301,2.144,1.264,2.639,-2.649,-1.760,-0.121,0.931,-0.407,-0.366,-0.641,0.244,80.000,10939.000,1.000
2.478,-15.070,-1.011,0.180,-0.133,1.593,-4.125,-3.547,-0.123,0.931,-0.406,-0.488,-0.702,0.244,80.000,10940.000,1.000
1.448,-16.832,-3.544,-1.364,-1.797,0.213,-5.755,-4.840,-0.121,0.934,-0.407,-0.580,-0.671,0.336,80.000,10941.000,1.000
1.011,-18.418,-5.707,-2.075,-3.140,-0.710,-6.694,-5.282,-0.122,0.934,-0.405,-0.702,-0.671,0.336,80.000,10942.000,1.000
0.852,-19.705,-7.103,-1.966,-3.849,-0.770,-6.524,-4.895,-0.119,0.932,-0.408,-0.671,-0.610,0.366,80.000,10943.000,1.000
0.491,-20.688,-7.732,-1.479,-4.017,-0.202,-5.511,-4.126,-0.117,0.933,-0.408,-0.763,-0.549,0.366,80.000,10944.000,1.000
-0.579,-21.707,-8.083,-1.396,-4.197,0.126,-4.641,-3.821,-0.116,0.927,-0.408,-0.885,-0.458,0.549,80.000,10945.000,1.000
-2.535,-23.144,-8.696,-2.260,-4.988,-0.614,-4.940,-4.630,-0.115,0.926,-0.407,-0.916,-0.427,0.458,80.000,10946.000,1.000
-4.881,-24.793,-9.553,-3.783,-6.427,-2.372,-6.550,-6.321,-0.115,0.926,-0.407,-0.732,-0.427,0.519,80.000,10947.000,1.000
-6.759,-25.922,-10.177,-5.098,-7.978,-4.266,-8.621,-7.966,-0.117,0.928,-0.405,-0.641,-0.397,0.610,80.000,10948.000,1.000
-7.579,-25.973,-10.159,-5.489,-9.043,-5.382,-10.011,-8.693,-0.117,0.929,-0.407,-0.671,-0.275,0.641,80.000,10949.000,1.000
-7.279,-24.955,-9.420,-4.786,-9.278,-5.346,-10.018,-8.188,-0.119,0.930,-0.409,-0.732,-0.214,0.763,80.000,10950.000,1.000
-6.241,-23.353,-8.209,-3.361,-8.684,-4.358,-8.740,-6.752,-0.120,0.930,-0.408,-0.763,-0.122,0.732,80.000,10951.000,1.000
-5.103,-21.815,-7.014,-1.932,-7.604,-2.956,-6.915,-5.029,-0.120,0.930,-0.410,-0.793,-0.153,0.610,80.000,10952.000,1.000
-4.455,-20.829,-6.300,-1.159,-6.497,-1.698,-5.315,-3.551,-0.122,0.929,-0.410,-0.854,-0.122,0.610,80.000,10953.000,1.000
-4.560,-20.558,-6.238,-1.237,-5.577,-0.905,-4.211,-2.418,-0.122,0.928,-0.411,-0.824,-0.183,0.458,80.000,10954.000,1.000
-5.314,-20.845,-6.684,-1.880,-4.720,-0.558,-3.364,-1.378,-0.122,0.930,-0.407,-0.702,-0.275,0.336,80.000,10955.000,1.000
-6.382,-21.296,-7.410,-2.682,-3.790,-0.436,-2.420,-0.209,-0.124,0.931,-0.405,-0.793,-0.458,0.275,80.000,10956.000,1.000
-7.425,-21.563,-8.336,-3.451,-2.976,-0.426,-1.342,0.904,-0.125,0.930,-0.407,-0.885,-0.397,0.153,80.000,10957.000,1.000
-8.267,-21.556,-9.484,-4.149,-2.635,-0.632,-0.465,1.469,-0.125,0.929,-0.409,-0.854,-0.610,-0.061,80.000,10958.000,1.000
-8.783,-21.242,-10.584,-4.624,-2.826,-1.059,-0.056,1.277,-0.125,0.928,-0.408,-0.916,-0.763,-0.305,80.000,10959.000,1.000
-8.763,-20.458,-10.967,-4.597,-3.202,-1.403,-0.011,0.692,-0.122,0.930,-0.406,-0.916,-0.793,-0.397,80.000,10960.000,1.000
-8.108,-19.189,-10.162,-4.003,-3.409,-1.338,-0.081,0.229,-0.123,0.930,-0.409,-0.977,-0.946,-0.397,80.000,10961.000,1.000
-7.044,-17.824,-8.426,-3.165,-3.409,-0.877,-0.231,0.066,-0.121,0.930,-0.408,-0.977,-0.854,-0.519,80.000,10962.000,1.000
-5.979,-16.900,-6.527,-2.555,-3.389,-0.393,-0.645,0.068,-0.121,0.930,-0.410,-1.068,-0.946,-0.519,80.000,10963.000,1.000
-5.241,-16.768,-5.182,-2.442,-3.573,-0.352,-1.472,0.042,-0.120,0.929,-0.408,-1.099,-0.977,-0.519,80.000,10964.000,1.000
-5.039,-17.565,-4.767,-2.783,-4.130,-0.989,-2.618,-0.141,-0.120,0.929,-0.407,-1.068,-0.977,-0.458,80.000,10965.000,1.000
-5.467,-19.208,-5.288,-3.326,-5.147,-2.175,-3.783,-0.519,-0.118,0.930,-0.406,-1.038,-0.854,-0.275,80.000,10966.000,1.000
-6.391,-21.353,-6.472,-3.815,-6.649,-3.658,-4.729,-1.104,-0.118,0.931,-0.406,-1.129,-0.763,-0.153,80.000,10967.000,1.000
-7.439,-23.435,-7.842,-4.192,-8.573,-5.308,-5.417,-1.931,-0.118,0.933,-0.404,-1.221,-0.763,-0.061,80.000,10968.000,1.000
-8.175,-24.818,-8.833,-4.613,-10.626,-6.975,-5.833,-2.955,-0.120,0.932,-0.405,-1.221,-0.702,0.000,80.000,10969.000,1.000
-8.329,-25.063,-9.101,-5.293,-12.267,-8.286,-5.853,-3.991,-0.120,0.931,-0.406,-1.251,-0.763,0.336,80.000,10970.000,1.000
-7.955,-24.157,-8.838,-6.350,-12.970,-8.813,-5.391,-4.847,-0.121,0.932,-0.405,-1.434,-0.671,0.397,80.000,10971.000,1.000
-7.409,-22.566,-8.651,-7.688,-12.576,-8.441,-4.575,-5.431,-0.122,0.931,-0.406,-1.526,-0.610,0.519,80.000,10972.000,1.000
-7.102,-20.982,-9.045,-9.009,-11.409,-7.496,-3.696,-5.731,-0.123,0.931,-0.403,-1.709,-0.580,0.641,80.000,10973.000,1.000
-7.254,-19.898,-10.099,-9.987,-10.104,-6.555,-2.998,-5.815,-0.125,0.928,-0.404,-1.740,-0.488,0.610,80.000,10974.000,1.000
-7.868,-19.371,-11.546,-10.510,-9.290,-6.149,-2.597,-5.825,-0.125,0.925,-0.404,-1.709,-0.610,0.793,80.000,10975.000,1.000
-8.722,-19.121,-12.996,-10.698,-9.269,-6.446,-2.504,-5.904,-0.125,0.927,-0.404,-1.709,-0.641,0.854,80.000,10976.000,1.000
-9.243,-18.648,-13.982,-10.652,-9.793,-7.028,-2.519,-6.075,-0.123,0.926,-0.404,-1.648,-0.549,0.885,80.000,10977.000,1.000
-8.674,-17.323,-13.989,-10.284,-10.179,-7.077,-2.196,-6.159,-0.123,0.926,-0.408,-1.678,-0.641,1.007,80.000,10978.000,1.000
-6.724,-14.795,-12.789,-9.506,-9.836,-6.046,-1.227,-5.894,-0.123,0.927,-0.407,-1.740,-0.641,0.977,80.000,10979.000,1.000
-4.004,-11.374,-10.763,-8.464,-8.712,-4.170,0.153,-5.140,-0.121,0.926,-0.405,-1.587,-0.519,0.916,80.000,10980.000,1.000
-1.617,-7.863,-8.689,-7.463,-7.186,-2.275,1.313,-3.998,-0.119,0.926,-0.406,-1.556,-0.549,0.916,80.000,10981.000,1.000
-0.352,-4.987,-7.184,-6.747,-5.650,-1.131,1.710,-2.775,-0.116,0.926,-0.406,-1.526,-0.427,0.916,80.000,10982.000,1.000
-0.220,-2.928,-6.323,-6.313,-4.239,-0.886,1.251,-1.754,-0.115,0.925,-0.407,-1.495,-0.397,0.946,80.000,10983.000,1.000
-0.656,-1.392,-5.779,-5.940,-2.861,-1.082,0.309,-0.979,-0.115,0.925,-0.408,-1.587,-0.305,0.946,80.000,10984.000,1.000
-1.076,-0.107,-5.311,-5.499,-1.476,-1.202,-0.601,-0.375,-0.114,0.924,-0.406,-1.526,-0.214,0.946,80.000,10985.000,1.000
-1.201,0.892,-4.904,-5.093,-0.213,-1.015,-1.166,0.087,-0.111,0.926,-0.409,-1.495,-0.092,0.977,80.000,10986.000,1.000
-1.032,1.443,-4.514,-4.823,0.799,-0.511,-1.365,0.468,-0.112,0.925,-0.407,-1.343,0.092,0.885,80.000,10987.000,1.000
-0.817,1.422,-4.045,-4.643,1.535,0.115,-1.465,0.810,-0.112,0.925,-0.408,-1.282,0.214,0.885,80.000,10988.000,1.000
