EEG 1,EEG 2,EEG 3,EEG 4,EEG 5,EEG 6,EEG 7,EEG 8,Accelerometer X,Accelerometer Y,Accelerometer Z,Gyroscope X,Gyroscope Y,Gyroscope Z,Battery Level,Counter,Validation Indicator
-1.618,-1.612,-1.671,-1.723,-1.677,-1.613,-1.401,-1.564,-0.066,0.874,-0.539,-0.580,0.183,1.129,73.333,18545.000,1.000
-2.072,-2.220,-2.179,-2.249,-2.188,-2.112,-2.044,-2.122,-0.068,0.872,-0.538,-0.488,0.183,1.160,73.333,18546.000,1.000
-2.004,-2.258,-2.106,-2.266,-2.200,-2.107,-2.195,-2.193,-0.068,0.873,-0.537,-0.580,0.061,1.190,73.333,18547.000,1.000
-1.664,-1.922,-1.688,-1.983,-1.917,-1.840,-2.005,-1.954,-0.070,0.872,-0.539,-0.671,0.000,1.068,73.333,18548.000,1.000
-1.243,-1.419,-1.158,-1.576,-1.493,-1.490,-1.610,-1.544,-0.072,0.872,-0.539,-0.732,-0.031,0.977,73.333,18549.000,1.000
-0.769,-0.848,-0.600,-1.080,-0.964,-1.070,-1.060,-0.988,-0.072,0.873,-0.542,-0.641,-0.183,0.916,73.333,18550.000,1.000
-0.252,-0.283,-0.052,-0.520,-0.372,-0.577,-0.437,-0.340,-0.070,0.873,-0.542,-0.732,-0.275,0.916,73.333,18551.000,1.000
0.197,0.158,0.379,-0.020,0.148,-0.113,0.089,0.237,-0.068,0.872,-0.538,-0.793,-0.305,0.824,73.333,18552.000,1.000
0.359,0.297,0.506,0.206,0.375,0.107,0.292,0.500,-0.067,0.872,-0.540,-0.824,-0.458,0.763,73.333,18553.000,1.000
0.075,0.007,0.199,-0.010,0.140,-0.091,0.040,0.278,-0.067,0.873,-0.540,-0.854,-0.549,0.763,73.333,18554.000,1.000
-0.620,-0.672,-0.497,-0.661,-0.543,-0.701,-0.617,-0.406,-0.066,0.874,-0.541,-0.854,-0.488,0.671,73.333,18555.000,1.000
-1.541,-1.562,-1.406,-1.596,-1.496,-1.558,-1.507,-1.381,-0.067,0.873,-0.539,-0.793,-0.488,0.549,73.333,18556.000,1.000
-2.429,-2.414,-2.280,-2.556,-2.432,-2.404,-2.399,-2.387,-0.068,0.871,-0.539,-0.854,-0.580,0.519,73.333,18557.000,1.000
-3.034,-2.988,-2.864,-3.237,-3.054,-2.977,-3.038,-3.133,-0.068,0.868,-0.536,-0.732,-0.549,0.458,73.333,18558.000,1.000
-3.182,-3.123,-2.968,-3.393,-3.159,-3.105,-3.220,-3.379,-0.067,0.870,-0.538,-0.824,-0.610,0.427,73.333,18559.000,1.000
-2.817,-2.770,-2.537,-2.931,-2.697,-2.733,-2.861,-3.019,-0.066,0.873,-0.540,-0.824,-0.702,0.275,73.333,18560.000,1.000
-1.957,-1.963,-1.630,-1.914,-1.742,-1.881,-1.993,-2.095,-0.068,0.870,-0.539,-0.824,-0.824,0.305,73.333,18561.000,1.000
-0.658,-0.768,-0.360,-0.494,-0.418,-0.603,-0.716,-0.737,-0.068,0.870,-0.539,-0.916,-0.854,0.214,73.333,18562.000,1.000
0.911,0.668,1.080,1.086,1.076,0.948,0.780,0.837,-0.070,0.869,-0.540,-0.824,-0.916,0.214,73.333,18563.000,1.000
2.465,2.119,2.460,2.550,2.497,2.513,2.240,2.366,-0.068,0.871,-0.541,-0.702,-0.916,0.183,73.333,18564.000,1.000
3.720,3.361,3.592,3.695,3.645,3.812,3.443,3.618,-0.069,0.871,-0.541,-0.763,-0.977,0.092,73.333,18565.000,1.000
4.489,4.221,4.346,4.405,4.396,4.623,4.243,4.426,-0.070,0.872,-0.540,-0.763,-1.038,0.153,73.333,18566.000,1.000
4.795,4.687,4.739,4.713,4.761,4.928,4.652,4.780,-0.069,0.872,-0.537,-0.854,-1.068,0.061,73.333,18567.000,1.000
4.891,4.957,4.969,4.829,4.939,4.969,4.875,4.882,-0.068,0.872,-0.537,-0.916,-1.099,0.183,73.333,18568.000,1.000
5.085,5.306,5.293,5.028,5.184,5.083,5.175,5.019,-0.067,0.872,-0.538,-0.854,-1.221,0.183,73.333,18569.000,1.000
5.469,5.805,5.770,5.415,5.564,5.398,5.624,5.318,-0.069,0.872,-0.540,-0.793,-1.190,0.275,73.333,18570.000,1.000
5.844,6.239,6.177,5.816,5.892,5.732,6.026,5.643,-0.066,0.870,-0.539,-0.671,-1.160,0.336,73.333,18571.000,1.000
5.946,6.322,6.242,5.965,5.933,5.807,6.127,5.760,-0.068,0.869,-0.538,-0.702,-1.160,0.427,73.333,18572.000,1.000
5.608,5.887,5.811,5.660,5.552,5.441,5.762,5.482,-0.067,0.869,-0.539,-0.702,-1.160,0.458,73.333,18573.000,1.000
4.798,4.918,4.875,4.824,4.716,4.592,4.875,4.717,-0.068,0.870,-0.540,-0.549,-1.129,0.458,73.333,18574.000,1.000
3.582,3.527,3.530,3.521,3.460,3.348,3.525,3.485,-0.069,0.873,-0.539,-0.519,-1.221,0.580,73.333,18575.000,1.000
2.153,1.962,1.996,1.977,1.953,1.926,1.945,1.977,-0.068,0.875,-0.538,-0.702,-1.160,0.580,73.333,18576.000,1.000
0.886,0.627,0.653,0.615,0.579,0.699,0.583,0.613,-0.066,0.876,-0.539,-0.702,-1.251,0.519,73.333,18577.000,1.000
0.151,-0.108,-0.129,-0.149,-0.243,0.014,-0.131,-0.186,-0.067,0.877,-0.539,-0.824,-1.190,0.519,73.333,18578.000,1.000
0.054,-0.152,-0.231,-0.181,-0.347,-0.032,-0.082,-0.271,-0.065,0.876,-0.543,-0.885,-1.190,0.488,73.333,18579.000,1.000
0.365,0.245,0.131,0.272,0.065,0.330,0.444,0.132,-0.062,0.875,-0.543,-0.854,-1.190,0.519,73.333,18580.000,1.000
0.615,0.587,0.478,0.688,0.495,0.629,0.893,0.522,-0.061,0.872,-0.542,-1.007,-0.946,0.488,73.333,18581.000,1.000
0.343,0.391,0.325,0.562,0.420,0.402,0.742,0.397,-0.059,0.868,-0.543,-1.007,-0.885,0.488,73.333,18582.000,1.000
-0.657,-0.557,-0.565,-0.334,-0.439,-0.559,-0.231,-0.481,-0.057,0.865,-0.543,-1.038,-0.702,0.519,73.333,18583.000,1.000
-2.224,-2.097,-2.074,-1.858,-1.973,-2.099,-1.853,-1.986,-0.058,0.865,-0.543,-1.007,-0.549,0.641,73.333,18584.000,1.000
-3.939,-3.812,-3.822,-3.615,-3.773,-3.813,-3.678,-3.727,-0.058,0.865,-0.541,-0.885,-0.397,0.671,73.333,18585.000,1.000
-5.376,-5.280,-5.384,-5.182,-5.375,-5.282,-5.248,-5.271,-0.059,0.865,-0.541,-0.793,-0.336,0.610,73.333,18586.000,1.000
-6.292,-6.242,-6.460,-6.264,-6.467,-6.245,-6.277,-6.312,-0.058,0.867,-0.541,-0.671,-0.183,0.610,73.333,18587.000,1.000
-6.696,-6.677,-6.980,-6.783,-6.991,-6.683,-6.742,-6.779,-0.057,0.872,-0.543,-0.641,0.000,0.702,73.333,18588.000,1.000
-6.714,-6.681,-7.012,-6.809,-7.027,-6.701,-6.755,-6.759,-0.055,0.876,-0.542,-0.671,0.153,0.732,73.333,18589.000,1.000
-6.380,-6.278,-6.586,-6.389,-6.601,-6.343,-6.359,-6.317,-0.055,0.875,-0.542,-0.824,0.244,0.793,73.333,18590.000,1.000
-5.640,-5.437,-5.688,-5.525,-5.700,-5.583,-5.521,-5.463,-0.058,0.880,-0.541,-0.946,0.427,0.671,73.333,18591.000,1.000
-4.472,-4.175,-4.351,-4.238,-4.365,-4.412,-4.245,-4.205,-0.062,0.882,-0.540,-1.099,0.488,0.488,73.333,18592.000,1.000
-2.996,-2.641,-2.749,-2.671,-2.771,-2.937,-2.674,-2.647,-0.068,0.884,-0.541,-1.312,0.519,0.427,73.333,18593.000,1.000
-1.429,-1.044,-1.144,-1.054,-1.158,-1.358,-1.053,-0.993,-0.074,0.885,-0.542,-1.251,0.488,0.366,73.333,18594.000,1.000
0.034,0.442,0.258,0.424,0.301,0.145,0.410,0.555,-0.076,0.884,-0.540,-1.343,0.275,0.122,73.333,18595.000,1.000
1.229,1.666,1.335,1.618,1.482,1.408,1.562,1.805,-0.080,0.882,-0.537,-1.373,0.031,-0.122,73.333,18596.000,1.000
2.000,2.458,2.005,2.377,2.266,2.260,2.273,2.575,-0.082,0.879,-0.537,-1.495,-0.244,-0.305,73.333,18597.000,1.000
2.236,2.676,2.211,2.562,2.527,2.545,2.434,2.725,-0.081,0.876,-0.538,-1.526,-0.427,-0.488,73.333,18598.000,1.000
1.971,2.324,1.979,2.172,2.246,2.232,2.059,2.274,-0.078,0.871,-0.536,-1.556,-0.671,-0.671,73.333,18599.000,1.000
1.392,1.598,1.458,1.414,1.580,1.490,1.343,1.445,-0.077,0.870,-0.539,-1.587,-0.946,-0.763,73.333,18600.000,1.000
0.747,0.801,0.857,0.608,0.795,0.615,0.572,0.572,-0.078,0.869,-0.538,-1.617,-1.160,-0.641,73.333,18601.000,1.000
0.327,0.289,0.443,0.115,0.242,-0.012,0.077,0.041,-0.078,0.869,-0.536,-1.495,-1.404,-0.671,73.333,18602.000,1.000
0.447,0.392,0.521,0.264,0.272,-0.020,0.181,0.197,-0.077,0.868,-0.539,-1.434,-1.495,-0.732,73.333,18603.000,1.000
1.346,1.318,1.348,1.265,1.130,0.848,1.116,1.251,-0.074,0.870,-0.539,-1.373,-1.648,-0.610,73.333,18604.000,1.000
3.113,3.118,3.037,3.156,2.907,2.672,2.951,3.221,-0.073,0.872,-0.537,-1.312,-1.740,-0.397,73.333,18605.000,1.000
5.619,5.656,5.482,5.758,5.475,5.291,5.522,5.896,-0.071,0.871,-0.536,-1.129,-1.648,-0.305,73.333,18606.000,1.000
8.501,8.577,8.333,8.684,8.463,8.295,8.430,8.846,-0.068,0.871,-0.536,-1.129,-1.678,-0.122,73.333,18607.000,1.000
11.179,11.289,11.004,11.348,11.260,11.062,11.074,11.481,-0.069,0.874,-0.537,-1.221,-1.770,0.214,73.333,18608.000,1.000
12.973,13.088,12.810,13.088,13.154,12.909,12.790,13.177,-0.067,0.873,-0.534,-1.160,-1.617,0.305,73.333,18609.000,1.000
13.346,13.418,13.205,13.391,13.580,13.318,13.078,13.463,-0.066,0.872,-0.536,-1.160,-1.526,0.549,73.333,18610.000,1.000
12.081,12.070,11.953,12.061,12.307,12.077,11.750,12.147,-0.066,0.873,-0.536,-1.068,-1.617,0.641,73.333,18611.000,1.000
9.326,9.227,9.182,9.268,9.498,9.322,8.970,9.360,-0.068,0.872,-0.536,-1.099,-1.617,0.793,73.333,18612.000,1.000
5.421,5.276,5.239,5.370,5.533,5.393,5.091,5.424,-0.067,0.871,-0.533,-1.007,-1.526,0.885,73.333,18613.000,1.000
0.803,0.663,0.581,0.792,0.877,0.739,0.537,0.752,-0.066,0.870,-0.536,-1.038,-1.312,0.977,73.333,18614.000,1.000
-3.942,-4.063,-4.196,-3.929,-3.887,-4.030,-4.147,-4.087,-0.066,0.873,-0.534,-1.038,-1.251,1.038,73.333,18615.000,1.000
-8.112,-8.248,-8.390,-8.134,-8.077,-8.189,-8.305,-8.383,-0.065,0.873,-0.532,-1.038,-1.251,1.099,73.333,18616.000,1.000
-11.104,-11.305,-11.389,-11.220,-11.095,-11.129,-11.335,-11.488,-0.064,0.873,-0.532,-1.038,-1.160,1.099,73.333,18617.000,1.000
-12.683,-12.983,-12.946,-12.913,-12.687,-12.643,-12.968,-13.117,-0.064,0.871,-0.533,-1.099,-0.977,1.129,73.333,18618.000,1.000
-13.027,-13.442,-13.242,-13.347,-13.018,-12.951,-13.341,-13.434,-0.064,0.869,-0.539,-1.221,-0.793,1.038,73.333,18619.000,1.000
-12.536,-13.054,-12.683,-12.889,-12.493,-12.465,-12.829,-12.852,-0.063,0.870,-0.540,-1.221,-0.641,0.977,73.333,18620.000,1.000
-11.614,-12.201,-11.682,-11.947,-11.533,-11.566,-11.832,-11.804,-0.063,0.872,-0.540,-1.099,-0.458,0.946,73.333,18621.000,1.000
-10.516,-11.126,-10.511,-10.807,-10.420,-10.489,-10.632,-10.595,-0.064,0.870,-0.539,-0.977,-0.488,0.977,73.333,18622.000,1.000
-9.362,-9.943,-9.302,-9.607,-9.289,-9.364,-9.388,-9.386,-0.062,0.873,-0.539,-0.977,-0.397,0.854,73.333,18623.000,1.000
-8.217,-8.714,-8.117,-8.399,-8.190,-8.271,-8.181,-8.249,-0.060,0.872,-0.538,-1.038,-0.153,0.732,73.333,18624.000,1.000
-7.118,-7.503,-7.001,-7.230,-7.140,-7.251,-7.060,-7.207,-0.059,0.874,-0.535,-1.068,0.031,0.580,73.333,18625.000,1.000
-6.074,-6.363,-5.989,-6.140,-6.147,-6.284,-6.040,-6.245,-0.060,0.873,-0.536,-1.007,0.275,0.458,73.333,18626.000,1.000
-5.002,-5.230,-5.017,-5.069,-5.133,-5.240,-5.035,-5.254,-0.060,0.871,-0.540,-1.038,0.427,0.519,73.333,18627.000,1.000
-3.750,-3.931,-3.902,-3.863,-3.931,-3.925,-3.863,-4.063,-0.058,0.868,-0.540,-1.038,0.610,0.488,73.333,18628.000,1.000
-2.167,-2.290,-2.424,-2.346,-2.357,-2.186,-2.333,-2.512,-0.059,0.868,-0.543,-0.977,0.763,0.336,73.333,18629.000,1.000
-0.204,-0.256,-0.455,-0.418,-0.338,-0.024,-0.349,-0.533,-0.059,0.867,-0.546,-0.824,0.854,0.366,73.333,18630.000,1.000
1.956,1.972,1.849,1.785,1.932,2.292,1.917,1.705,-0.060,0.868,-0.543,-0.763,0.916,0.183,73.333,18631.000,1.000
3.932,3.992,4.059,3.873,4.029,4.318,4.040,3.806,-0.060,0.871,-0.541,-0.763,1.068,0.122,73.333,18632.000,1.000
5.350,5.422,5.694,5.407,5.520,5.678,5.579,5.357,-0.061,0.872,-0.539,-0.580,1.129,-0.092,73.333,18633.000,1.000
6.085,6.157,6.536,6.212,6.255,6.312,6.367,6.196,-0.064,0.872,-0.537,-0.580,1.160,-0.122,73.333,18634.000,1.000
6.290,6.375,6.695,6.420,6.405,6.440,6.558,6.452,-0.066,0.874,-0.537,-0.549,1.282,-0.153,73.333,18635.000,1.000
6.138,6.235,6.362,6.197,6.171,6.253,6.340,6.275,-0.067,0.875,-0.535,-0.549,1.221,-0.183,73.333,18636.000,1.000
5.668,5.741,5.652,5.601,5.619,5.775,5.784,5.705,-0.068,0.874,-0.538,-0.519,1.160,-0.183,73.333,18637.000,1.000
4.871,4.879,4.655,4.659,4.758,4.992,4.918,4.768,-0.068,0.875,-0.537,-0.580,1.129,-0.275,73.333,18638.000,1.000
3.839,3.780,3.534,3.517,3.695,3.988,3.853,3.615,-0.069,0.874,-0.539,-0.671,1.038,-0.305,73.333,18639.000,1.000
2.777,2.692,2.521,2.425,2.640,2.960,2.794,2.502,-0.071,0.875,-0.541,-0.641,1.007,-0.366,73.333,18640.000,1.000
1.860,1.817,1.774,1.587,1.765,2.078,1.914,1.638,-0.071,0.875,-0.542,-0.671,0.854,-0.244,73.333,18641.000,1.000
1.207,1.267,1.342,1.099,1.168,1.469,1.325,1.128,-0.072,0.875,-0.538,-0.580,0.702,-0.183,73.333,18642.000,1.000
0.941,1.129,1.254,1.018,0.949,1.251,1.126,1.046,-0.072,0.877,-0.540,-0.580,0.549,-0.153,73.333,18643.000,1.000
1.163,1.459,1.551,1.379,1.193,1.510,1.388,1.435,-0.072,0.876,-0.541,-0.488,0.397,-0.092,73.333,18644.000,1.000
1.825,2.178,2.183,2.102,1.847,2.185,2.038,2.199,-0.074,0.878,-0.541,-0.488,0.336,0.031,73.333,18645.000,1.000
2.677,3.039,2.940,2.951,2.676,3.027,2.835,3.074,-0.073,0.877,-0.543,-0.580,0.183,0.092,73.333,18646.000,1.000
3.459,3.792,3.606,3.691,3.439,3.785,3.552,3.814,-0.074,0.875,-0.542,-0.671,0.061,0.092,73.333,18647.000,1.000
4.020,4.295,4.062,4.206,4.003,4.316,4.076,4.307,-0.072,0.874,-0.538,-0.610,-0.122,0.092,73.333,18648.000,1.000
4.333,4.523,4.299,4.500,4.334,4.589,4.380,4.559,-0.072,0.873,-0.539,-0.580,-0.336,0.153,73.333,18649.000,1.000
4.480,4.582,4.406,4.665,4.507,4.681,4.522,4.671,-0.073,0.869,-0.538,-0.519,-0.488,0.214,73.333,18650.000,1.000
4.580,4.619,4.497,4.797,4.633,4.711,4.597,4.762,-0.072,0.867,-0.539,-0.610,-0.641,0.244,73.333,18651.000,1.000
4.693,4.700,4.631,4.926,4.767,4.753,4.684,4.879,-0.070,0.866,-0.538,-0.488,-0.732,0.397,73.333,18652.000,1.000
4.771,4.755,4.758,4.986,4.851,4.774,4.769,4.959,-0.069,0.866,-0.536,-0.488,-0.824,0.336,73.333,18653.000,1.000
4.680,4.632,4.732,4.843,4.758,4.652,4.738,4.864,-0.069,0.865,-0.541,-0.336,-1.007,0.397,73.333,18654.000,1.000
4.260,4.180,4.370,4.360,4.352,4.234,4.423,4.448,-0.066,0.868,-0.540,-0.397,-1.007,0.519,73.333,18655.000,1.000
3.370,3.283,3.524,3.431,3.510,3.381,3.658,3.581,-0.064,0.870,-0.542,-0.366,-1.129,0.549,73.333,18656.000,1.000
2.020,1.942,2.188,2.080,2.212,2.078,2.388,2.245,-0.064,0.871,-0.541,-0.244,-1.129,0.549,73.333,18657.000,1.000
0.376,0.285,0.496,0.454,0.551,0.446,0.697,0.553,-0.062,0.870,-0.539,-0.275,-1.160,0.641,73.333,18658.000,1.000
-1.330,-1.486,-1.344,-1.244,-1.280,-1.321,-1.212,-1.290,-0.060,0.870,-0.540,-0.305,-1.038,0.671,73.333,18659.000,1.000
-2.868,-3.119,-3.062,-2.792,-3.005,-2.983,-3.024,-3.015,-0.062,0.872,-0.539,-0.336,-0.885,0.793,73.333,18660.000,1.000
-4.080,-4.398,-4.413,-4.019,-4.362,-4.336,-4.443,-4.379,-0.065,0.871,-0.537,-0.244,-1.007,0.854,73.333,18661.000,1.000
-4.920,-5.205,-5.276,-4.847,-5.220,-5.268,-5.326,-5.262,-0.068,0.870,-0.540,-0.275,-0.977,0.793,73.333,18662.000,1.000
-5.465,-5.592,-5.728,-5.330,-5.647,-5.818,-5.753,-5.730,-0.071,0.871,-0.541,-0.275,-0.977,0.732,73.333,18663.000,1.000
-5.883,-5.780,-6.005,-5.647,-5.879,-6.166,-5.967,-6.013,-0.071,0.874,-0.543,-0.397,-1.068,0.549,73.333,18664.000,1.000
-6.335,-6.042,-6.346,-6.008,-6.175,-6.529,-6.215,-6.343,-0.071,0.876,-0.539,-0.427,-1.160,0.519,73.333,18665.000,1.000
-6.909,-6.560,-6.882,-6.545,-6.690,-7.043,-6.649,-6.848,-0.068,0.878,-0.542,-0.397,-1.251,0.458,73.333,18666.000,1.000
-7.569,-7.319,-7.574,-7.233,-7.390,-7.685,-7.265,-7.500,-0.066,0.874,-0.544,-0.519,-1.251,0.366,73.333,18667.000,1.000
-8.198,-8.143,-8.268,-7.938,-8.099,-8.314,-7.945,-8.167,-0.068,0.872,-0.544,-0.671,-1.373,0.244,73.333,18668.000,1.000
-8.656,-8.781,-8.770,-8.489,-8.602,-8.748,-8.504,-8.669,-0.066,0.871,-0.542,-0.763,-1.343,0.122,73.333,18669.000,1.000
-8.754,-8.966,-8.854,-8.676,-8.678,-8.782,-8.706,-8.782,-0.064,0.871,-0.541,-0.763,-1.343,0.000,73.333,18670.000,1.000
-8.280,-8.478,-8.309,-8.274,-8.139,-8.221,-8.311,-8.298,-0.064,0.872,-0.541,-0.793,-1.251,0.031,73.333,18671.000,1.000
-7.069,-7.186,-7.010,-7.120,-6.866,-6.949,-7.155,-7.083,-0.064,0.872,-0.542,-0.793,-1.251,0.000,73.333,18672.000,1.000
-5.134,-5.137,-5.017,-5.217,-4.897,-5.001,-5.256,-5.166,-0.065,0.871,-0.542,-0.793,-1.221,-0.061,73.333,18673.000,1.000
-2.695,-2.567,-2.571,-2.771,-2.449,-2.584,-2.819,-2.750,-0.068,0.870,-0.541,-0.885,-1.282,-0.061,73.333,18674.000,1.000
-0.068,0.186,0.007,-0.091,0.168,0.010,-0.144,-0.125,-0.069,0.871,-0.542,-0.946,-1.221,-0.061,73.333,18675.000,1.000
2.402,2.750,2.396,2.452,2.619,2.450,2.413,2.379,-0.069,0.871,-0.544,-0.977,-1.190,-0.153,73.333,18676.000,1.000
4.382,4.775,4.295,4.483,4.586,4.404,4.476,4.422,-0.068,0.873,-0.542,-0.946,-1.221,-0.122,73.333,18677.000,1.000
5.555,5.944,5.422,5.661,5.760,5.552,5.684,5.676,-0.070,0.875,-0.544,-0.885,-1.129,-0.122,73.333,18678.000,1.000
5.738,6.087,5.624,5.818,5.954,5.718,5.853,5.946,-0.064,0.877,-0.539,-0.977,-1.160,0.031,73.333,18679.000,1.000
5.029,5.309,4.996,5.083,5.239,4.991,5.106,5.305,-0.065,0.877,-0.540,-1.038,-1.129,0.092,73.333,18680.000,1.000
3.686,3.871,3.744,3.723,3.849,3.614,3.717,3.978,-0.063,0.874,-0.542,-1.129,-1.068,0.122,73.333,18681.000,1.000
1.963,2.031,2.069,1.980,2.044,1.842,1.956,2.214,-0.065,0.872,-0.541,-1.129,-1.007,0.153,73.333,18682.000,1.000
0.100,0.044,0.197,0.085,0.095,-0.056,0.088,0.270,-0.064,0.873,-0.539,-1.190,-0.854,0.244,73.333,18683.000,1.000
-1.626,-1.779,-1.562,-1.678,-1.684,-1.776,-1.587,-1.543,-0.065,0.872,-0.540,-1.221,-0.793,0.244,73.333,18684.000,1.000
-2.933,-3.124,-2.891,-3.012,-3.012,-3.033,-2.803,-2.913,-0.066,0.874,-0.542,-1.221,-0.854,0.305,73.333,18685.000,1.000
-3.687,-3.840,-3.631,-3.777,-3.777,-3.711,-3.459,-3.684,-0.065,0.875,-0.541,-1.251,-0.824,0.397,73.333,18686.000,1.000
-3.903,-3.974,-3.787,-4.005,-4.014,-3.858,-3.605,-3.877,-0.068,0.875,-0.544,-1.312,-0.641,0.397,73.333,18687.000,1.000
-3.690,-3.691,-3.482,-3.839,-3.835,-3.618,-3.372,-3.633,-0.068,0.878,-0.542,-1.221,-0.549,0.519,73.333,18688.000,1.000
-3.222,-3.210,-2.942,-3.487,-3.411,-3.187,-2.958,-3.176,-0.066,0.875,-0.542,-1.251,-0.488,0.549,73.333,18689.000,1.000
-2.750,-2.778,-2.472,-3.199,-2.991,-2.796,-2.616,-2.778,-0.067,0.870,-0.540,-1.282,-0.519,0.610,73.333,18690.000,1.000
-2.588,-2.667,-2.386,-3.229,-2.878,-2.708,-2.620,-2.716,-0.070,0.870,-0.541,-1.404,-0.458,0.641,73.333,18691.000,1.000
-2.912,-3.017,-2.820,-3.662,-3.234,-3.059,-3.086,-3.110,-0.068,0.870,-0.542,-1.373,-0.488,0.641,73.333,18692.000,1.000
-3.571,-3.676,-3.581,-4.286,-3.896,-3.705,-3.817,-3.782,-0.069,0.872,-0.542,-1.221,-0.488,0.580,73.333,18693.000,1.000
-4.148,-4.242,-4.229,-4.694,-4.446,-4.262,-4.389,-4.331,-0.067,0.874,-0.539,-1.160,-0.549,0.549,73.333,18694.000,1.000
-4.234,-4.309,-4.339,-4.544,-4.487,-4.342,-4.426,-4.377,-0.066,0.871,-0.542,-1.160,-0.549,0.580,73.333,18695.000,1.000
-3.674,-3.717,-3.757,-3.767,-3.881,-3.791,-3.819,-3.785,-0.065,0.869,-0.539,-1.099,-0.458,0.519,73.333,18696.000,1.000
-2.578,-2.582,-2.600,-2.532,-2.746,-2.704,-2.696,-2.671,-0.065,0.870,-0.539,-1.068,-0.519,0.519,73.333,18697.000,1.000
-1.192,-1.178,-1.135,-1.101,-1.338,-1.317,-1.298,-1.284,-0.067,0.872,-0.541,-0.946,-0.458,0.580,73.333,18698.000,1.000
0.267,0.249,0.396,0.342,0.122,0.157,0.170,0.165,-0.067,0.870,-0.539,-0.916,-0.397,0.488,73.333,18699.000,1.000
1.716,1.614,1.871,1.757,1.563,1.633,1.609,1.597,-0.066,0.868,-0.539,-0.916,-0.336,0.427,73.333,18700.000,1.000
3.120,2.929,3.241,3.155,2.994,3.086,2.988,2.997,-0.065,0.868,-0.540,-0.946,-0.366,0.397,73.333,18701.000,1.000
4.436,4.227,4.497,4.521,4.405,4.475,4.304,4.357,-0.066,0.868,-0.538,-0.793,-0.336,0.366,73.333,18702.000,1.000
5.530,5.418,5.575,5.723,5.660,5.659,5.484,5.575,-0.067,0.868,-0.540,-0.732,-0.305,0.427,73.333,18703.000,1.000
6.203,6.270,6.312,6.518,6.509,6.418,6.322,6.440,-0.067,0.868,-0.539,-0.702,-0.305,0.397,73.333,18704.000,1.000
6.353,6.596,6.588,6.754,6.787,6.632,6.644,6.783,-0.068,0.869,-0.539,-0.702,-0.244,0.336,73.333,18705.000,1.000
5.997,6.344,6.359,6.416,6.466,6.289,6.387,6.526,-0.068,0.869,-0.540,-0.702,-0.275,0.275,73.333,18706.000,1.000
5.189,5.553,5.619,5.558,5.594,5.408,5.567,5.661,-0.070,0.869,-0.542,-0.610,-0.305,0.275,73.333,18707.000,1.000
4.012,4.337,4.408,4.281,4.274,4.063,4.273,4.280,-0.073,0.869,-0.539,-0.519,-0.397,0.244,73.333,18708.000,1.000
2.650,2.905,2.902,2.793,2.713,2.461,2.721,2.634,-0.071,0.868,-0.538,-0.641,-0.397,0.183,73.333,18709.000,1.000
1.392,1.548,1.424,1.412,1.232,0.957,1.261,1.107,-0.070,0.869,-0.538,-0.580,-0.366,0.122,73.333,18710.000,1.000
0.499,0.519,0.300,0.416,0.133,-0.109,0.206,0.036,-0.068,0.871,-0.541,-0.671,-0.427,0.061,73.333,18711.000,1.000
0.072,-0.055,-0.311,-0.083,-0.444,-0.581,-0.317,-0.434,-0.069,0.871,-0.539,-0.610,-0.580,0.092,73.333,18712.000,1.000
-0.022,-0.264,-0.508,-0.216,-0.618,-0.596,-0.447,-0.451,-0.070,0.872,-0.536,-0.610,-0.519,0.153,73.333,18713.000,1.000
-0.057,-0.335,-0.557,-0.265,-0.661,-0.492,-0.470,-0.350,-0.069,0.873,-0.538,-0.671,-0.488,0.214,73.333,18714.000,1.000
-0.179,-0.390,-0.616,-0.370,-0.722,-0.494,-0.533,-0.345,-0.067,0.873,-0.539,-0.702,-0.427,0.183,73.333,18715.000,1.000
-0.349,-0.404,-0.676,-0.469,-0.774,-0.594,-0.603,-0.428,-0.067,0.876,-0.543,-0.671,-0.427,0.244,73.333,18716.000,1.000
-0.512,-0.374,-0.725,-0.501,-0.795,-0.719,-0.658,-0.542,-0.068,0.876,-0.541,-0.702,-0.549,0.214,73.333,18717.000,1.000
-0.719,-0.434,-0.853,-0.555,-0.868,-0.884,-0.783,-0.729,-0.070,0.877,-0.544,-0.824,-0.458,0.244,73.333,18718.000,1.000
-1.008,-0.686,-1.112,-0.749,-1.062,-1.110,-1.041,-1.022,-0.072,0.878,-0.540,-0.946,-0.580,0.275,73.333,18719.000,1.000
-1.262,-1.022,-1.367,-1.032,-1.280,-1.294,-1.316,-1.295,-0.071,0.876,-0.542,-0.946,-0.641,0.275,73.333,18720.000,1.000
-1.323,-1.233,-1.436,-1.244,-1.364,-1.306,-1.442,-1.378,-0.071,0.876,-0.541,-1.068,-0.610,0.275,73.333,18721.000,1.000
-1.158,-1.207,-1.284,-1.294,-1.263,-1.127,-1.359,-1.237,-0.070,0.877,-0.542,-1.038,-0.610,0.275,73.333,18722.000,1.000
-0.893,-1.019,-1.042,-1.225,-1.086,-0.867,-1.161,-1.007,-0.067,0.874,-0.543,-1.038,-0.702,0.366,73.333,18723.000,1.000
-0.701,-0.838,-0.863,-1.152,-0.983,-0.670,-0.993,-0.853,-0.068,0.875,-0.540,-1.007,-0.854,0.336,73.333,18724.000,1.000
-0.660,-0.772,-0.810,-1.147,-1.011,-0.610,-0.939,-0.836,-0.070,0.873,-0.540,-1.038,-0.732,0.336,73.333,18725.000,1.000
-0.769,-0.866,-0.898,-1.248,-1.152,-0.704,-1.033,-0.951,-0.072,0.870,-0.540,-0.946,-0.763,0.275,73.333,18726.000,1.000
-0.995,-1.129,-1.129,-1.467,-1.361,-0.938,-1.273,-1.180,-0.072,0.869,-0.539,-1.068,-0.763,0.336,73.333,18727.000,1.000
-1.301,-1.527,-1.474,-1.762,-1.600,-1.274,-1.609,-1.480,-0.073,0.871,-0.539,-1.007,-0.732,0.397,73.333,18728.000,1.000
-1.634,-1.961,-1.859,-2.036,-1.828,-1.637,-1.943,-1.782,-0.068,0.871,-0.540,-0.977,-0.763,0.458,73.333,18729.000,1.000
-1.928,-2.309,-2.180,-2.188,-1.997,-1.924,-2.171,-2.023,-0.066,0.870,-0.537,-0.977,-0.824,0.519,73.333,18730.000,1.000
-2.165,-2.533,-2.378,-2.213,-2.103,-2.089,-2.271,-2.203,-0.064,0.872,-0.538,-0.977,-0.763,0.549,73.333,18731.000,1.000
-2.343,-2.644,-2.444,-2.184,-2.166,-2.137,-2.290,-2.336,-0.064,0.871,-0.538,-0.916,-0.702,0.580,73.333,18732.000,1.000
-2.459,-2.672,-2.417,-2.186,-2.211,-2.121,-2.308,-2.422,-0.064,0.872,-0.539,-1.038,-0.610,0.641,73.333,18733.000,1.000
-2.547,-2.666,-2.388,-2.287,-2.284,-2.143,-2.399,-2.494,-0.063,0.873,-0.542,-1.038,-0.641,0.580,73.333,18734.000,1.000
-2.667,-2.683,-2.444,-2.505,-2.426,-2.286,-2.580,-2.607,-0.063,0.874,-0.542,-1.007,-0.549,0.641,73.333,18735.000,1.000
-2.881,-2.788,-2.654,-2.824,-2.679,-2.585,-2.822,-2.833,-0.064,0.875,-0.541,-1.007,-0.366,0.641,73.333,18736.000,1.000
-3.185,-3.005,-3.003,-3.171,-3.022,-2.988,-3.066,-3.169,-0.063,0.875,-0.542,-1.068,-0.244,0.580,73.333,18737.000,1.000
-3.476,-3.261,-3.356,-3.408,-3.336,-3.348,-3.234,-3.497,-0.065,0.873,-0.540,-0.977,-0.183,0.763,73.333,18738.000,1.000
-3.631,-3.423,-3.537,-3.419,-3.474,-3.506,-3.276,-3.662,-0.065,0.873,-0.540,-0.916,-0.153,0.732,73.333,18739.000,1.000
-3.606,-3.423,-3.483,-3.227,-3.391,-3.415,-3.227,-3.608,-0.065,0.873,-0.540,-1.068,-0.122,0.793,73.333,18740.000,1.000
-3.493,-3.337,-3.314,-3.013,-3.213,-3.212,-3.207,-3.447,-0.067,0.872,-0.540,-1.190,0.031,0.641,73.333,18741.000,1.000
-3.392,-3.266,-3.164,-2.923,-3.083,-3.053,-3.272,-3.304,-0.067,0.872,-0.541,-1.160,0.061,0.610,73.333,18742.000,1.000
-3.309,-3.209,-3.036,-2.929,-3.018,-2.953,-3.331,-3.189,-0.068,0.872,-0.538,-1.099,0.244,0.488,73.333,18743.000,1.000
-3.201,-3.114,-2.867,-2.911,-2.938,-2.831,-3.257,-3.030,-0.070,0.872,-0.536,-1.129,0.244,0.519,73.333,18744.000,1.000
-3.051,-2.959,-2.635,-2.788,-2.787,-2.636,-3.012,-2.773,-0.072,0.872,-0.541,-1.190,0.214,0.549,73.333,18745.000,1.000
-2.837,-2.745,-2.353,-2.536,-2.557,-2.375,-2.628,-2.404,-0.071,0.873,-0.537,-1.068,0.214,0.397,73.333,18746.000,1.000
-2.406,-2.326,-1.902,-2.034,-2.131,-1.941,-2.034,-1.819,-0.070,0.870,-0.538,-1.099,0.244,0.336,73.333,18747.000,1.000
-1.519,-1.457,-1.061,-1.091,-1.285,-1.112,-1.053,-0.845,-0.071,0.870,-0.539,-1.099,0.214,0.397,73.333,18748.000,1.000
-0.081,-0.030,0.261,0.337,0.090,0.220,0.381,0.566,-0.070,0.869,-0.540,-1.129,0.214,0.397,73.333,18749.000,1.000
1.790,1.841,1.971,2.102,1.905,1.954,2.151,2.294,-0.070,0.869,-0.538,-1.129,0.153,0.336,73.333,18750.000,1.000
3.831,3.885,3.856,3.965,3.919,3.841,4.027,4.115,-0.068,0.872,-0.540,-1.129,0.244,0.397,73.333,18751.000,1.000
5.745,5.795,5.661,5.684,5.827,5.603,5.756,5.791,-0.066,0.873,-0.538,-1.099,0.214,0.488,73.333,18752.000,1.000
7.248,7.283,7.097,7.023,7.321,6.982,7.090,7.085,-0.066,0.873,-0.538,-1.068,0.183,0.427,73.333,18753.000,1.000
8.138,8.149,7.927,7.803,8.185,7.809,7.852,7.822,-0.066,0.875,-0.539,-1.129,0.244,0.427,73.333,18754.000,1.000
8.423,8.410,8.144,8.046,8.434,8.106,8.072,8.025,-0.067,0.875,-0.539,-1.038,0.305,0.580,73.333,18755.000,1.000
8.297,8.271,7.974,7.961,8.280,8.051,7.957,7.904,-0.067,0.872,-0.538,-1.160,0.244,0.702,73.333,18756.000,1.000
7.998,7.983,7.698,7.780,7.982,7.855,7.736,7.698,-0.069,0.873,-0.541,-1.099,0.244,0.732,73.333,18757.000,1.000
7.683,7.696,7.475,7.609,7.695,7.637,7.534,7.531,-0.069,0.875,-0.539,-1.068,0.275,0.793,73.333,18758.000,1.000
7.374,7.412,7.293,7.407,7.426,7.397,7.354,7.375,-0.071,0.873,-0.540,-1.038,0.244,0.854,73.333,18759.000,1.000
7.042,7.073,7.071,7.103,7.122,7.095,7.145,7.141,-0.071,0.873,-0.542,-0.916,0.214,0.946,73.333,18760.000,1.000
6.659,6.646,6.748,6.681,6.745,6.714,6.849,6.759,-0.070,0.874,-0.540,-0.946,0.153,0.946,73.333,18761.000,1.000
6.241,6.176,6.335,6.212,6.327,6.292,6.459,6.260,-0.069,0.873,-0.540,-0.946,0.092,1.007,73.333,18762.000,1.000
5.825,5.726,5.885,5.785,5.915,5.866,6.020,5.734,-0.069,0.873,-0.538,-0.946,0.153,0.885,73.333,18763.000,1.000
5.453,5.346,5.457,5.459,5.551,5.465,5.609,5.274,-0.068,0.875,-0.540,-0.946,0.275,0.977,73.333,18764.000,1.000
5.198,5.102,5.134,5.291,5.300,5.170,5.338,4.981,-0.067,0.874,-0.540,-0.977,0.275,0.885,73.333,18765.000,1.000
5.091,5.007,4.958,5.281,5.190,5.043,5.255,4.890,-0.067,0.874,-0.542,-1.068,0.214,0.946,73.333,18766.000,1.000
5.132,5.043,4.947,5.384,5.226,5.099,5.337,4.978,-0.066,0.873,-0.541,-0.977,0.244,0.793,73.333,18767.000,1.000
5.369,5.254,5.174,5.611,5.480,5.371,5.602,5.258,-0.067,0.871,-0.541,-0.793,0.275,0.885,73.333,18768.000,1.000
5.912,5.753,5.754,6.070,6.080,5.948,6.141,5.815,-0.066,0.870,-0.539,-0.854,0.275,0.946,73.333,18769.000,1.000
6.876,6.660,6.768,6.901,7.120,6.932,7.059,6.765,-0.065,0.872,-0.537,-0.916,0.427,0.946,73.333,18770.000,1.000
8.245,7.966,8.144,8.119,8.521,8.292,8.339,8.103,-0.063,0.873,-0.538,-0.916,0.549,0.824,73.333,18771.000,1.000
9.832,9.506,9.670,9.569,10.048,9.834,9.820,9.667,-0.064,0.872,-0.536,-0.946,0.549,0.793,73.333,18772.000,1.000
11.326,11.000,11.065,10.969,11.402,11.256,11.239,11.166,-0.066,0.870,-0.539,-0.946,0.732,0.793,73.333,18773.000,1.000
12.345,12.089,12.021,11.978,12.271,12.213,12.254,12.233,-0.066,0.870,-0.543,-0.946,0.671,0.702,73.333,18774.000,1.000
12.589,12.457,12.294,12.320,12.429,12.437,12.567,12.561,-0.066,0.873,-0.543,-1.038,0.641,0.671,73.333,18775.000,1.000
11.927,11.940,11.760,11.842,11.784,11.806,12.023,12.002,-0.064,0.873,-0.540,-1.038,0.732,0.671,73.333,18776.000,1.000
10.449,10.575,10.439,10.549,10.398,10.379,10.642,10.597,-0.065,0.872,-0.540,-1.038,0.763,0.610,73.333,18777.000,1.000
8.435,8.604,8.524,8.634,8.476,8.396,8.633,8.580,-0.063,0.872,-0.539,-1.099,0.763,0.641,73.333,18778.000,1.000
6.293,6.441,6.392,6.487,6.370,6.245,6.387,6.364,-0.064,0.872,-0.538,-1.160,0.854,0.702,73.333,18779.000,1.000
4.447,4.559,4.505,4.570,4.498,4.366,4.385,4.432,-0.064,0.869,-0.540,-1.099,0.885,0.671,73.333,18780.000,1.000
3.107,3.227,3.142,3.145,3.109,3.006,2.928,3.061,-0.063,0.871,-0.541,-1.129,0.824,0.732,73.333,18781.000,1.000
2.212,2.399,2.277,2.179,2.171,2.131,2.008,2.206,-0.063,0.869,-0.542,-1.068,0.946,0.763,73.333,18782.000,1.000
1.553,1.829,1.689,1.479,1.482,1.527,1.421,1.628,-0.063,0.871,-0.542,-1.190,0.977,0.854,73.333,18783.000,1.000
0.906,1.247,1.122,0.839,0.821,0.940,0.917,1.067,-0.062,0.869,-0.540,-1.221,1.129,0.824,73.333,18784.000,1.000
0.178,0.523,0.452,0.168,0.096,0.242,0.364,0.401,-0.062,0.870,-0.537,-1.160,1.038,0.885,73.333,18785.000,1.000
-0.536,-0.257,-0.240,-0.464,-0.604,-0.489,-0.189,-0.301,-0.061,0.872,-0.536,-1.282,1.129,0.854,73.333,18786.000,1.000
-1.032,-0.871,-0.761,-0.892,-1.099,-1.038,-0.594,-0.844,-0.063,0.873,-0.540,-1.373,1.160,0.763,73.333,18787.000,1.000
-1.228,-1.196,-1.020,-1.060,-1.311,-1.276,-0.803,-1.122,-0.066,0.872,-0.541,-1.373,1.190,0.854,73.333,18788.000,1.000
-1.229,-1.299,-1.116,-1.087,-1.339,-1.284,-0.923,-1.207,-0.067,0.872,-0.543,-1.373,1.160,0.824,73.333,18789.000,1.000
-1.155,-1.281,-1.139,-1.087,-1.297,-1.194,-1.023,-1.195,-0.070,0.873,-0.542,-1.312,1.129,0.854,73.333,18790.000,1.000
-1.078,-1.212,-1.112,-1.087,-1.246,-1.094,-1.081,-1.130,-0.072,0.874,-0.536,-1.221,1.038,0.732,73.333,18791.000,1.000
-1.086,-1.193,-1.085,-1.115,-1.246,-1.065,-1.111,-1.072,-0.074,0.875,-0.536,-1.282,1.038,0.671,73.333,18792.000,1.000
-1.315,-1.373,-1.218,-1.286,-1.406,-1.234,-1.254,-1.167,-0.074,0.876,-0.537,-1.312,0.916,0.763,73.333,18793.000,1.000
-1.901,-1.900,-1.734,-1.788,-1.888,-1.769,-1.742,-1.621,-0.072,0.878,-0.540,-1.373,0.824,0.671,73.333,18794.000,1.000
-2.880,-2.818,-2.742,-2.724,-2.784,-2.749,-2.706,-2.542,-0.072,0.877,-0.538,-1.526,0.549,0.610,73.333,18795.000,1.000
-4.180,-4.067,-4.166,-4.059,-4.069,-4.109,-4.108,-3.875,-0.072,0.876,-0.541,-1.617,0.427,0.641,73.333,18796.000,1.000
-5.680,-5.529,-5.794,-5.657,-5.614,-5.686,-5.782,-5.453,-0.070,0.876,-0.541,-1.556,0.336,0.610,73.333,18797.000,1.000
-7.238,-7.071,-7.391,-7.334,-7.235,-7.288,-7.492,-7.075,-0.069,0.876,-0.543,-1.587,0.214,0.610,73.333,18798.000,1.000
-8.701,-8.554,-8.791,-8.892,-8.742,-8.749,-9.013,-8.567,-0.067,0.875,-0.542,-1.617,0.214,0.519,73.333,18799.000,1.000
-9.940,-9.845,-9.928,-10.165,-9.979,-9.955,-10.214,-9.810,-0.066,0.872,-0.541,-1.495,0.214,0.549,73.333,18800.000,1.000
-10.964,-10.919,-10.885,-11.137,-10.941,-10.936,-11.156,-10.831,-0.064,0.872,-0.538,-1.495,0.183,0.580,73.333,18801.000,1.000
-11.885,-11.847,-11.810,-11.931,-11.746,-11.825,-12.009,-11.754,-0.063,0.872,-0.539,-1.556,0.122,0.671,73.333,18802.000,1.000
-12.728,-12.653,-12.735,-12.644,-12.477,-12.680,-12.848,-12.631,-0.064,0.869,-0.535,-1.526,0.061,0.732,73.333,18803.000,1.000
-13.377,-13.262,-13.527,-13.257,-13.093,-13.392,-13.578,-13.376,-0.062,0.870,-0.540,-1.526,0.031,0.793,73.333,18804.000,1.000
-13.688,-13.565,-13.983,-13.650,-13.471,-13.765,-14.024,-13.830,-0.063,0.870,-0.539,-1.343,0.000,0.885,73.333,18805.000,1.000
-13.633,-13.553,-14.010,-13.734,-13.551,-13.723,-14.089,-13.918,-0.063,0.871,-0.542,-1.343,-0.031,0.977,73.333,18806.000,1.000
-13.321,-13.312,-13.681,-13.516,-13.380,-13.365,-13.812,-13.687,-0.066,0.869,-0.539,-1.343,-0.122,0.946,73.333,18807.000,1.000
-12.937,-12.989,-13.191,-13.112,-13.094,-12.912,-13.354,-13.279,-0.069,0.868,-0.540,-1.190,0.000,1.007,73.333,18808.000,1.000
-12.667,-12.747,-12.778,-12.718,-12.862,-12.605,-12.932,-12.881,-0.070,0.871,-0.538,-1.221,-0.153,1.068,73.333,18809.000,1.000
-12.524,-12.618,-12.530,-12.432,-12.719,-12.503,-12.629,-12.560,-0.070,0.868,-0.536,-1.251,-0.305,1.038,73.333,18810.000,1.000
-12.323,-12.454,-12.316,-12.170,-12.508,-12.432,-12.321,-12.217,-0.070,0.868,-0.533,-1.251,-0.488,0.885,73.333,18811.000,1.000
-11.845,-12.054,-11.906,-11.742,-12.014,-12.121,-11.792,-11.688,-0.069,0.868,-0.538,-1.160,-0.519,0.824,73.333,18812.000,1.000
-10.996,-11.306,-11.136,-11.001,-11.135,-11.406,-10.919,-10.878,-0.067,0.871,-0.537,-1.190,-0.549,0.793,73.333,18813.000,1.000
-9.838,-10.221,-10.007,-9.939,-9.931,-10.297,-9.748,-9.806,-0.064,0.872,-0.532,-1.251,-0.610,0.854,73.333,18814.000,1.000
-8.499,-8.885,-8.643,-8.644,-8.543,-8.906,-8.414,-8.555,-0.061,0.874,-0.536,-1.251,-0.580,0.702,73.333,18815.000,1.000
-7.180,-7.486,-7.274,-7.321,-7.176,-7.465,-7.119,-7.300,-0.057,0.877,-0.540,-1.282,-0.458,0.702,73.333,18816.000,1.000
-6.167,-6.328,-6.206,-6.277,-6.107,-6.320,-6.136,-6.310,-0.055,0.875,-0.542,-1.251,-0.427,0.702,73.333,18817.000,1.000
-5.756,-5.752,-5.745,-5.830,-5.637,-5.826,-5.745,-5.883,-0.052,0.874,-0.540,-1.282,-0.183,0.793,73.333,18818.000,1.000
-6.080,-5.938,-6.019,-6.119,-5.928,-6.125,-6.061,-6.157,-0.053,0.871,-0.542,-1.343,-0.122,0.854,73.333,18819.000,1.000
-6.909,-6.692,-6.787,-6.919,-6.779,-6.958,-6.847,-6.914,-0.055,0.870,-0.541,-1.343,-0.031,0.824,73.333,18820.000,1.000
-7.766,-7.539,-7.575,-7.766,-7.709,-7.816,-7.642,-7.701,-0.056,0.869,-0.538,-1.434,0.000,0.854,73.333,18821.000,1.000
-8.263,-8.070,-8.016,-8.290,-8.298,-8.300,-8.092,-8.164,-0.055,0.872,-0.538,-1.434,0.092,0.824,73.333,18822.000,1.000
-8.349,-8.200,-8.078,-8.437,-8.440,-8.369,-8.162,-8.264,-0.058,0.874,-0.537,-1.404,0.244,0.732,73.333,18823.000,1.000
-8.260,-8.155,-7.998,-8.428,-8.340,-8.275,-8.087,-8.222,-0.057,0.877,-0.541,-1.465,0.305,0.763,73.333,18824.000,1.000
-8.254,-8.197,-8.043,-8.500,-8.278,-8.296,-8.137,-8.274,-0.057,0.880,-0.539,-1.465,0.336,0.824,73.333,18825.000,1.000
-8.442,-8.433,-8.336,-8.748,-8.418,-8.537,-8.451,-8.518,-0.060,0.880,-0.540,-1.556,0.427,0.824,73.333,18826.000,1.000
-8.680,-8.702,-8.715,-9.011,-8.656,-8.820,-8.876,-8.794,-0.065,0.880,-0.535,-1.556,0.397,0.702,73.333,18827.000,1.000
-8.571,-8.613,-8.736,-8.875,-8.601,-8.710,-8.951,-8.690,-0.067,0.877,-0.538,-1.617,0.275,0.580,73.333,18828.000,1.000
-7.722,-7.789,-7.947,-7.944,-7.836,-7.818,-8.198,-7.808,-0.071,0.876,-0.540,-1.495,0.092,0.519,73.333,18829.000,1.000
-6.024,-6.130,-6.230,-6.136,-6.225,-6.078,-6.482,-6.067,-0.073,0.875,-0.538,-1.556,0.000,0.336,73.333,18830.000,1.000
-3.765,-3.923,-3.919,-3.789,-4.042,-3.822,-4.133,-3.793,-0.074,0.877,-0.539,-1.617,-0.427,0.244,73.333,18831.000,1.000
-1.429,-1.647,-1.574,-1.430,-1.770,-1.546,-1.699,-1.492,-0.075,0.877,-0.544,-1.617,-0.519,0.122,73.333,18832.000,1.000
0.596,0.328,0.369,0.532,0.209,0.386,0.393,0.458,-0.073,0.878,-0.542,-1.556,-0.763,0.031,73.333,18833.000,1.000
2.134,1.874,1.759,1.944,1.739,1.852,1.960,1.921,-0.072,0.878,-0.542,-1.556,-0.824,-0.183,73.333,18834.000,1.000
3.232,3.066,2.725,2.918,2.893,2.943,3.073,2.988,-0.069,0.878,-0.540,-1.526,-0.977,-0.275,73.333,18835.000,1.000
4.051,4.034,3.516,3.683,3.829,3.825,3.928,3.839,-0.069,0.878,-0.538,-1.434,-1.068,-0.244,73.333,18836.000,1.000
4.729,4.846,4.306,4.401,4.648,4.602,4.680,4.605,-0.065,0.878,-0.538,-1.404,-1.160,-0.275,73.333,18837.000,1.000
5.311,5.500,5.116,5.101,5.355,5.280,5.356,5.307,-0.062,0.875,-0.542,-1.434,-1.190,-0.183,73.333,18838.000,1.000
5.788,5.988,5.864,5.732,5.909,5.819,5.906,5.901,-0.063,0.876,-0.542,-1.465,-1.221,-0.153,73.333,18839.000,1.000
6.175,6.355,6.470,6.252,6.309,6.217,6.316,6.349,-0.063,0.876,-0.539,-1.587,-1.251,-0.092,73.333,18840.000,1.000
6.479,6.631,6.847,6.603,6.563,6.477,6.583,6.613,-0.063,0.877,-0.535,-1.495,-1.343,-0.092,73.333,18841.000,1.000
6.676,6.786,6.935,6.727,6.652,6.593,6.684,6.668,-0.063,0.877,-0.538,-1.556,-1.282,-0.092,73.333,18842.000,1.000
6.679,6.730,6.707,6.584,6.504,6.533,6.553,6.482,-0.061,0.876,-0.534,-1.526,-1.160,0.000,73.333,18843.000,1.000
6.277,6.263,6.065,6.066,5.951,6.133,6.021,5.935,-0.061,0.872,-0.532,-1.678,-1.160,0.122,73.333,18844.000,1.000
5.190,5.110,4.829,4.969,4.784,5.117,4.857,4.815,-0.060,0.869,-0.531,-1.709,-1.129,0.244,73.333,18845.000,1.000
3.236,3.081,2.846,3.093,2.858,3.252,2.910,2.948,-0.061,0.866,-0.529,-1.770,-1.190,0.305,73.333,18846.000,1.000
0.552,0.302,0.209,0.482,0.277,0.608,0.297,0.396,-0.057,0.866,-0.533,-1.648,-1.038,0.458,73.333,18847.000,1.000
-2.359,-2.715,-2.651,-2.427,-2.535,-2.341,-2.541,-2.442,-0.059,0.868,-0.537,-1.617,-0.916,0.458,73.333,18848.000,1.000
-4.814,-5.256,-5.098,-4.946,-4.954,-4.895,-4.974,-4.943,-0.060,0.872,-0.536,-1.556,-0.824,0.580,73.333,18849.000,1.000
-6.214,-6.687,-6.517,-6.416,-6.388,-6.408,-6.411,-6.481,-0.058,0.871,-0.541,-1.465,-0.793,0.732,73.333,18850.000,1.000
-6.367,-6.796,-6.652,-6.581,-6.604,-6.632,-6.622,-6.771,-0.059,0.873,-0.539,-1.434,-0.793,0.610,73.333,18851.000,1.000
-5.591,-5.913,-5.760,-5.716,-5.862,-5.848,-5.870,-6.037,-0.061,0.875,-0.538,-1.434,-0.732,0.641,73.333,18852.000,1.000
-4.443,-4.635,-4.397,-4.384,-4.677,-4.613,-4.668,-4.795,-0.061,0.877,-0.534,-1.404,-0.641,0.549,73.333,18853.000,1.000
-3.317,-3.391,-3.006,-3.029,-3.438,-3.340,-3.398,-3.465,-0.059,0.879,-0.532,-1.587,-0.519,0.549,73.333,18854.000,1.000
-2.183,-2.175,-1.649,-1.701,-2.157,-2.043,-2.063,-2.102,-0.059,0.878,-0.533,-1.648,-0.458,0.458,73.333,18855.000,1.000
-0.749,-0.700,-0.110,-0.159,-0.587,-0.474,-0.431,-0.507,-0.058,0.874,-0.537,-1.740,-0.427,0.397,73.333,18856.000,1.000
1.243,1.307,1.846,1.851,1.499,1.583,1.697,1.518,-0.060,0.874,-0.535,-1.801,-0.488,0.305,73.333,18857.000,1.000
3.824,3.886,4.285,4.378,4.110,4.137,4.319,4.005,-0.062,0.872,-0.537,-1.801,-0.366,0.214,73.333,18858.000,1.000
6.743,6.791,7.026,7.194,6.993,6.955,7.187,6.769,-0.060,0.874,-0.539,-1.740,-0.275,0.214,73.333,18859.000,1.000
9.633,9.680,9.791,9.977,9.807,9.742,9.978,9.548,-0.059,0.872,-0.541,-1.801,-0.183,0.092,73.333,18860.000,1.000
12.204,12.299,12.342,12.482,12.314,12.290,12.452,12.128,-0.059,0.874,-0.537,-1.709,-0.031,-0.061,73.333,18861.000,1.000
14.307,14.503,14.520,14.574,14.400,14.479,14.493,14.345,-0.059,0.872,-0.539,-1.709,0.000,-0.061,73.333,18862.000,1.000
15.887,16.193,16.213,16.179,16.008,16.209,16.055,16.055,-0.055,0.872,-0.539,-1.617,0.031,-0.275,73.333,18863.000,1.000
16.951,17.320,17.374,17.275,17.119,17.410,17.142,17.187,-0.056,0.873,-0.536,-1.648,0.214,-0.336,73.333,18864.000,1.000
17.608,17.979,18.104,17.954,17.830,18.144,17.842,17.841,-0.056,0.873,-0.534,-1.648,0.336,-0.397,73.333,18865.000,1.000
18.041,18.374,18.588,18.393,18.311,18.588,18.308,18.237,-0.056,0.874,-0.533,-1.617,0.397,-0.366,73.333,18866.000,1.000
18.454,18.739,19.019,18.782,18.748,18.958,18.720,18.619,-0.060,0.875,-0.537,-1.617,0.427,-0.397,73.333,18867.000,1.000
18.981,19.212,19.517,19.244,19.258,19.407,19.207,19.127,-0.060,0.875,-0.539,-1.770,0.580,-0.275,73.333,18868.000,1.000
19.528,19.699,20.016,19.699,19.751,19.869,19.696,19.647,-0.062,0.874,-0.539,-1.801,0.580,-0.397,73.333,18869.000,1.000
19.812,19.930,20.291,19.905,19.967,20.094,19.941,19.879,-0.066,0.876,-0.538,-1.953,0.580,-0.366,73.333,18870.000,1.000
19.577,19.671,20.107,19.636,19.690,19.847,19.711,19.584,-0.069,0.876,-0.539,-2.075,0.488,-0.305,73.333,18871.000,1.000
18.791,18.923,19.396,18.862,18.929,19.104,18.980,18.778,-0.067,0.879,-0.538,-1.953,0.275,-0.275,73.333,18872.000,1.000
17.656,17.897,18.280,17.749,17.899,18.049,17.910,17.694,-0.066,0.880,-0.538,-1.923,0.336,-0.244,73.333,18873.000,1.000
16.415,16.789,16.930,16.490,16.800,16.872,16.687,16.541,-0.065,0.882,-0.539,-2.014,0.092,-0.122,73.333,18874.000,1.000
15.171,15.634,15.446,15.168,15.668,15.637,15.388,15.360,-0.066,0.885,-0.537,-2.106,-0.031,0.031,73.333,18875.000,1.000
13.817,14.274,13.798,13.701,14.335,14.230,13.929,14.006,-0.066,0.888,-0.537,-2.197,-0.092,0.183,73.333,18876.000,1.000
12.180,12.537,11.911,11.967,12.603,12.491,12.181,12.311,-0.068,0.888,-0.536,-2.228,-0.305,0.214,73.333,18877.000,1.000
10.251,10.449,9.820,9.996,10.492,10.429,10.166,10.297,-0.069,0.885,-0.534,-2.380,-0.336,0.153,73.333,18878.000,1.000
8.250,8.286,7.749,8.016,8.291,8.282,8.121,8.223,-0.070,0.885,-0.535,-2.594,-0.458,0.397,73.333,18879.000,1.000
6.537,6.457,6.053,6.364,6.420,6.442,6.409,6.485,-0.069,0.885,-0.538,-2.838,-0.427,0.427,73.333,18880.000,1.000
5.366,5.241,4.985,5.272,5.170,5.205,5.275,5.352,-0.068,0.882,-0.534,-2.930,-0.610,0.366,73.333,18881.000,1.000
4.703,4.607,4.492,4.697,4.515,4.563,4.670,4.779,-0.070,0.877,-0.535,-2.991,-0.671,0.397,73.333,18882.000,1.000
4.208,4.194,4.185,4.298,4.097,4.166,4.234,4.402,-0.070,0.873,-0.534,-3.021,-0.824,0.488,73.333,18883.000,1.000
3.351,3.447,3.491,3.539,3.364,3.447,3.437,3.672,-0.070,0.867,-0.534,-2.991,-0.977,0.580,73.333,18884.000,1.000
1.786,1.993,2.022,2.052,1.936,2.006,1.934,2.216,-0.069,0.863,-0.535,-2.808,-1.190,0.549,73.333,18885.000,1.000
-0.388,-0.097,-0.147,-0.080,-0.122,-0.118,-0.184,0.090,-0.066,0.864,-0.535,-2.686,-1.282,0.549,73.333,18886.000,1.000
-2.721,-2.399,-2.558,-2.408,-2.390,-2.499,-2.498,-2.291,-0.063,0.865,-0.534,-2.533,-1.343,0.641,73.333,18887.000,1.000
-4.740,-4.446,-4.696,-4.449,-4.407,-4.626,-4.560,-4.449,-0.061,0.869,-0.538,-2.441,-1.373,0.610,73.333,18888.000,1.000
-6.176,-5.977,-6.254,-5.946,-5.909,-6.169,-6.104,-6.076,-0.060,0.870,-0.536,-2.380,-1.251,0.580,73.333,18889.000,1.000
-6.943,-6.910,-7.147,-6.838,-6.808,-7.007,-7.020,-7.047,-0.056,0.873,-0.536,-2.258,-1.251,0.610,73.333,18890.000,1.000
-7.082,-7.256,-7.419,-7.164,-7.121,-7.181,-7.305,-7.355,-0.058,0.873,-0.534,-2.258,-1.160,0.671,73.333,18891.000,1.000
-6.668,-7.027,-7.125,-6.956,-6.875,-6.783,-6.988,-7.031,-0.061,0.871,-0.535,-2.167,-1.099,0.458,73.333,18892.000,1.000
-5.731,-6.182,-6.244,-6.168,-6.046,-5.850,-6.074,-6.081,-0.064,0.869,-0.534,-2.014,-1.221,0.458,73.333,18893.000,1.000
-4.314,-4.739,-4.782,-4.777,-4.644,-4.427,-4.622,-4.572,-0.069,0.871,-0.536,-1.892,-1.160,0.244,73.333,18894.000,1.000
-2.591,-2.916,-2.935,-2.965,-2.870,-2.706,-2.860,-2.751,-0.071,0.869,-0.537,-1.801,-1.343,0.092,73.333,18895.000,1.000
-1.027,-1.269,-1.240,-1.280,-1.252,-1.186,-1.302,-1.153,-0.070,0.873,-0.535,-1.709,-1.465,0.031,73.333,18896.000,1.000
-0.329,-0.563,-0.468,-0.515,-0.545,-0.587,-0.660,-0.503,-0.067,0.872,-0.537,-1.617,-1.526,-0.092,73.333,18897.000,1.000
-1.078,-1.358,-1.224,-1.281,-1.331,-1.456,-1.472,-1.342,-0.062,0.875,-0.536,-1.587,-1.556,-0.183,73.333,18898.000,1.000
-3.345,-3.659,-3.551,-3.605,-3.642,-3.804,-3.750,-3.681,-0.058,0.873,-0.535,-1.526,-1.556,-0.153,73.333,18899.000,1.000
-6.542,-6.841,-6.820,-6.837,-6.849,-7.010,-6.872,-6.901,-0.061,0.873,-0.530,-1.465,-1.495,-0.183,73.333,18900.000,1.000
-9.734,-9.996,-10.068,-10.010,-10.009,-10.148,-9.928,-10.063,-0.061,0.875,-0.532,-1.495,-1.465,-0.336,73.333,18901.000,1.000
-12.201,-12.454,-12.558,-12.418,-12.419,-12.536,-12.243,-12.456,-0.058,0.874,-0.529,-1.556,-1.251,-0.366,73.333,18902.000,1.000
-13.798,-14.079,-14.126,-13.940,-13.955,-14.055,-13.699,-13.949,-0.056,0.876,-0.533,-1.465,-1.221,-0.305,73.333,18903.000,1.000
-14.838,-15.165,-15.094,-14.922,-14.948,-15.036,-14.635,-14.870,-0.055,0.876,-0.531,-1.343,-1.038,-0.305,73.333,18904.000,1.000
-15.674,-16.038,-15.856,-15.730,-15.762,-15.837,-15.446,-15.592,-0.057,0.877,-0.534,-1.373,-0.977,-0.244,73.333,18905.000,1.000
-16.466,-16.837,-16.613,-16.518,-16.557,-16.609,-16.323,-16.292,-0.060,0.876,-0.533,-1.343,-0.946,-0.244,73.333,18906.000,1.000
-17.139,-17.460,-17.285,-17.199,-17.231,-17.260,-17.158,-16.908,-0.060,0.875,-0.533,-1.312,-0.793,-0.183,73.333,18907.000,1.000
-17.388,-17.602,-17.533,-17.466,-17.460,-17.493,-17.567,-17.142,-0.063,0.875,-0.531,-1.099,-0.763,0.000,73.333,18908.000,1.000
-16.864,-16.962,-16.993,-16.982,-16.910,-16.989,-17.145,-16.648,-0.065,0.873,-0.530,-1.160,-0.580,-0.061,73.333,18909.000,1.000
-15.438,-15.485,-15.559,-15.623,-15.485,-15.636,-15.759,-15.306,-0.066,0.874,-0.530,-1.099,-0.641,-0.031,73.333,18910.000,1.000
-13.398,-13.484,-13.538,-13.652,-13.475,-13.699,-13.708,-13.385,-0.071,0.873,-0.534,-1.007,-0.610,-0.122,73.333,18911.000,1.000
-11.276,-11.452,-11.438,-11.549,-11.388,-11.649,-11.522,-11.364,-0.071,0.874,-0.536,-1.099,-0.580,-0.183,73.333,18912.000,1.000
-9.450,-9.694,-9.595,-9.664,-9.572,-9.802,-9.578,-9.558,-0.070,0.873,-0.535,-0.946,-0.641,-0.122,73.333,18913.000,1.000
-7.977,-8.217,-8.055,-8.075,-8.075,-8.200,-7.960,-8.007,-0.068,0.871,-0.534,-0.946,-0.702,-0.183,73.333,18914.000,1.000
-6.684,-6.824,-6.661,-6.650,-6.719,-6.712,-6.527,-6.567,-0.067,0.871,-0.534,-0.885,-0.793,-0.122,73.333,18915.000,1.000
-5.375,-5.329,-5.248,-5.225,-5.322,-5.222,-5.098,-5.111,-0.068,0.876,-0.534,-0.854,-0.854,-0.092,73.333,18916.000,1.000
-3.953,-3.688,-3.767,-3.725,-3.823,-3.707,-3.589,-3.619,-0.068,0.877,-0.535,-0.732,-0.824,-0.031,73.333,18917.000,1.000
-2.416,-1.981,-2.257,-2.173,-2.253,-2.205,-2.024,-2.137,-0.068,0.878,-0.533,-0.732,-0.885,0.061,73.333,18918.000,1.000
-0.887,-0.392,-0.842,-0.696,-0.734,-0.806,-0.537,-0.763,-0.071,0.879,-0.537,-0.732,-0.916,0.061,73.333,18919.000,1.000
0.414,0.852,0.306,0.509,0.528,0.342,0.670,0.358,-0.069,0.881,-0.538,-0.763,-0.854,0.031,73.333,18920.000,1.000
1.224,1.519,0.988,1.213,1.273,1.037,1.365,1.038,-0.071,0.880,-0.533,-0.732,-0.916,0.092,73.333,18921.000,1.000
1.339,1.466,1.055,1.260,1.315,1.114,1.387,1.135,-0.071,0.878,-0.534,-0.671,-0.824,0.153,73.333,18922.000,1.000
0.730,0.728,0.508,0.666,0.663,0.556,0.752,0.652,-0.069,0.875,-0.532,-0.854,-0.977,0.153,73.333,18923.000,1.000
-0.432,-0.472,-0.484,-0.385,-0.478,-0.473,-0.338,-0.277,-0.073,0.874,-0.530,-0.763,-1.007,0.061,73.333,18924.000,1.000
-1.762,-1.733,-1.579,-1.542,-1.715,-1.616,-1.500,-1.363,-0.073,0.872,-0.533,-0.671,-1.007,0.031,73.333,18925.000,1.000
-2.779,-2.611,-2.373,-2.403,-2.599,-2.447,-2.313,-2.232,-0.071,0.872,-0.531,-0.671,-1.099,0.031,73.333,18926.000,1.000
-3.125,-2.833,-2.580,-2.692,-2.838,-2.666,-2.520,-2.585,-0.072,0.871,-0.530,-0.641,-1.099,0.031,73.333,18927.000,1.000
-2.689,-2.373,-2.126,-2.345,-2.392,-2.200,-2.094,-2.300,-0.068,0.871,-0.532,-0.610,-1.251,0.183,73.333,18928.000,1.000
-1.625,-1.404,-1.154,-1.480,-1.435,-1.209,-1.194,-1.457,-0.066,0.872,-0.532,-0.580,-1.312,0.122,73.333,18929.000,1.000
-0.216,-0.146,0.104,-0.284,-0.202,0.046,-0.033,-0.243,-0.065,0.872,-0.536,-0.610,-1.312,0.092,73.333,18930.000,1.000
1.221,1.181,1.413,1.037,1.090,1.313,1.189,1.111,-0.067,0.872,-0.537,-0.549,-1.251,0.153,73.333,18931.000,1.000
2.470,2.421,2.605,2.305,2.292,2.446,2.347,2.407,-0.066,0.874,-0.536,-0.458,-1.221,0.183,73.333,18932.000,1.000
3.509,3.546,3.655,3.454,3.392,3.471,3.449,3.573,-0.065,0.877,-0.531,-0.336,-1.221,0.183,73.333,18933.000,1.000
4.450,4.613,4.634,4.513,4.465,4.490,4.560,4.635,-0.066,0.875,-0.534,-0.305,-1.099,0.122,73.333,18934.000,1.000
5.432,5.698,5.632,5.565,5.598,5.584,5.730,5.663,-0.066,0.875,-0.534,-0.244,-1.068,0.122,73.333,18935.000,1.000
6.508,6.817,6.686,6.663,6.789,6.753,6.941,6.707,-0.067,0.875,-0.536,-0.183,-1.038,0.000,73.333,18936.000,1.000
7.623,7.908,7.748,7.775,7.935,7.901,8.104,7.753,-0.068,0.876,-0.538,-0.275,-0.977,0.122,73.333,18937.000,1.000
8.668,8.876,8.727,8.806,8.904,8.891,9.102,8.725,-0.067,0.877,-0.537,-0.427,-0.977,0.031,73.333,18938.000,1.000
9.516,9.620,9.505,9.616,9.598,9.595,9.816,9.494,-0.066,0.875,-0.537,-0.275,-0.916,0.122,73.333,18939.000,1.000
10.083,10.092,10.006,10.113,10.012,9.966,10.202,9.980,-0.068,0.871,-0.536,-0.214,-0.854,0.244,73.333,18940.000,1.000
10.366,10.324,10.250,10.323,10.221,10.070,10.317,10.206,-0.070,0.871,-0.536,-0.244,-0.854,0.214,73.333,18941.000,1.000
10.436,10.399,10.336,10.367,10.326,10.043,10.283,10.278,-0.071,0.872,-0.533,-0.183,-0.854,0.244,73.333,18942.000,1.000
10.375,10.382,10.350,10.355,10.380,9.998,10.201,10.281,-0.068,0.871,-0.533,-0.244,-0.916,0.244,73.333,18943.000,1.000
10.197,10.241,10.271,10.278,10.328,9.928,10.073,10.200,-0.069,0.871,-0.537,-0.275,-0.854,0.214,73.333,18944.000,1.000
9.915,9.954,10.065,10.095,10.121,9.797,9.883,10.012,-0.069,0.870,-0.537,-0.092,-0.854,0.153,73.333,18945.000,1.000
9.562,9.552,9.731,9.793,9.768,9.584,9.621,9.717,-0.068,0.871,-0.537,0.000,-0.854,0.092,73.333,18946.000,1.000
9.093,9.022,9.218,9.310,9.238,9.202,9.190,9.240,-0.067,0.871,-0.535,0.092,-0.885,0.183,73.333,18947.000,1.000
8.377,8.264,8.406,8.530,8.438,8.503,8.415,8.445,-0.065,0.872,-0.537,0.153,-0.854,0.183,73.333,18948.000,1.000
7.298,7.181,7.227,7.384,7.299,7.394,7.203,7.261,-0.066,0.872,-0.537,0.092,-0.824,0.092,73.333,18949.000,1.000
5.889,5.805,5.773,5.948,5.876,5.933,5.661,5.786,-0.067,0.873,-0.535,0.031,-0.824,0.183,73.333,18950.000,1.000
4.261,4.223,4.182,4.335,4.275,4.250,3.958,4.153,-0.068,0.872,-0.539,0.031,-0.732,0.244,73.333,18951.000,1.000
2.491,2.469,2.493,2.576,2.545,2.426,2.168,2.388,-0.070,0.870,-0.536,0.031,-0.671,0.244,73.333,18952.000,1.000
0.619,0.562,0.683,0.681,0.694,0.514,0.309,0.477,-0.069,0.871,-0.537,0.183,-0.702,0.275,73.333,18953.000,1.000
-1.302,-1.423,-1.229,-1.287,-1.245,-1.412,-1.583,-1.521,-0.069,0.871,-0.538,0.183,-0.702,0.244,73.333,18954.000,1.000
-3.112,-3.271,-3.071,-3.136,-3.095,-3.169,-3.362,-3.402,-0.070,0.871,-0.539,0.183,-0.610,0.305,73.333,18955.000,1.000
-4.545,-4.680,-4.551,-4.588,-4.553,-4.501,-4.780,-4.873,-0.071,0.873,-0.540,0.031,-0.641,0.275,73.333,18956.000,1.000
-5.374,-5.427,-5.415,-5.420,-5.366,-5.220,-5.609,-5.702,-0.069,0.873,-0.541,0.214,-0.641,0.336,73.333,18957.000,1.000
-5.526,-5.474,-5.568,-5.559,-5.468,-5.297,-5.755,-5.820,-0.069,0.874,-0.541,0.244,-0.610,0.336,73.333,18958.000,1.000
-5.112,-4.970,-5.106,-5.110,-5.011,-4.862,-5.316,-5.344,-0.069,0.875,-0.542,0.153,-0.458,0.427,73.333,18959.000,1.000
-4.307,-4.116,-4.218,-4.269,-4.219,-4.080,-4.475,-4.468,-0.066,0.876,-0.542,0.092,-0.488,0.427,73.333,18960.000,1.000
-3.246,-3.056,-3.082,-3.209,-3.253,-3.067,-3.393,-3.353,-0.065,0.875,-0.539,0.031,-0.488,0.427,73.333,18961.000,1.000
-1.978,-1.833,-1.794,-2.003,-2.138,-1.859,-2.130,-2.070,-0.064,0.875,-0.540,0.031,-0.427,0.427,73.333,18962.000,1.000
-0.494,-0.424,-0.363,-0.621,-0.802,-0.460,-0.674,-0.615,-0.064,0.874,-0.543,0.000,-0.336,0.458,73.333,18963.000,1.000
1.135,1.110,1.149,0.900,0.746,1.044,0.909,0.947,-0.064,0.874,-0.542,-0.031,-0.336,0.458,73.333,18964.000,1.000
2.699,2.578,2.557,2.376,2.324,2.474,2.422,2.427,-0.066,0.875,-0.542,0.031,-0.275,0.427,73.333,18965.000,1.000
3.940,3.752,3.635,3.559,3.652,3.629,3.623,3.591,-0.066,0.875,-0.542,0.031,-0.275,0.397,73.333,18966.000,1.000
4.658,4.460,4.225,4.259,4.484,4.351,4.336,4.270,-0.066,0.873,-0.541,-0.031,-0.275,0.397,73.333,18967.000,1.000
4.753,4.615,4.269,4.378,4.681,4.543,4.469,4.385,-0.066,0.871,-0.541,-0.031,-0.183,0.427,73.333,18968.000,1.000
4.232,4.201,3.781,3.914,4.220,4.190,4.016,3.939,-0.066,0.872,-0.543,-0.092,-0.122,0.488,73.333,18969.000,1.000
3.290,3.363,2.928,3.037,3.285,3.438,3.143,3.098,-0.065,0.874,-0.540,0.000,-0.244,0.519,73.333,18970.000,1.000
2.241,2.367,1.977,2.026,2.199,2.540,2.128,2.139,-0.066,0.873,-0.540,-0.061,-0.275,0.427,73.333,18971.000,1.000
1.333,1.444,1.142,1.101,1.245,1.699,1.206,1.288,-0.067,0.873,-0.537,-0.031,-0.244,0.366,73.333,18972.000,1.000
0.671,0.711,0.523,0.380,0.561,1.016,0.505,0.653,-0.068,0.871,-0.539,-0.122,-0.244,0.366,73.333,18973.000,1.000
0.234,0.188,0.123,-0.091,0.161,0.512,0.061,0.245,-0.068,0.872,-0.538,-0.244,-0.275,0.275,73.333,18974.000,1.000
-0.009,-0.110,-0.063,-0.268,0.028,0.207,-0.122,0.058,-0.070,0.873,-0.541,-0.153,-0.397,0.214,73.333,18975.000,1.000
-0.056,-0.176,-0.053,-0.149,0.111,0.117,-0.076,0.067,-0.070,0.874,-0.542,-0.183,-0.427,0.061,73.333,18976.000,1.000
0.074,-0.050,0.100,0.174,0.312,0.201,0.125,0.207,-0.070,0.875,-0.540,-0.214,-0.458,0.061,73.333,18977.000,1.000
0.305,0.179,0.314,0.540,0.511,0.360,0.368,0.389,-0.071,0.876,-0.541,-0.183,-0.519,-0.092,73.333,18978.000,1.000
0.449,0.343,0.434,0.721,0.550,0.416,0.471,0.473,-0.072,0.874,-0.538,-0.214,-0.580,-0.183,73.333,18979.000,1.000
0.313,0.263,0.290,0.537,0.301,0.200,0.273,0.315,-0.073,0.872,-0.540,-0.336,-0.610,-0.092,73.333,18980.000,1.000
-0.159,-0.127,-0.177,-0.019,-0.238,-0.317,-0.252,-0.121,-0.075,0.872,-0.539,-0.366,-0.702,-0.214,73.333,18981.000,1.000
-0.878,-0.761,-0.883,-0.799,-0.949,-1.022,-1.001,-0.760,-0.073,0.870,-0.539,-0.275,-0.793,-0.305,73.333,18982.000,1.000
-1.694,-1.523,-1.693,-1.626,-1.697,-1.771,-1.826,-1.491,-0.074,0.870,-0.539,-0.305,-0.916,-0.183,73.333,18983.000,1.000
-2.459,-2.301,-2.467,-2.370,-2.387,-2.466,-2.584,-2.210,-0.073,0.869,-0.538,-0.275,-1.129,-0.336,73.333,18984.000,1.000
-2.973,-2.905,-3.000,-2.863,-2.872,-2.968,-3.077,-2.735,-0.073,0.871,-0.539,-0.244,-1.068,-0.305,73.333,18985.000,1.000
-3.099,-3.164,-3.120,-2.968,-3.013,-3.142,-3.154,-2.893,-0.070,0.872,-0.541,-0.275,-1.129,-0.336,73.333,18986.000,1.000
-2.943,-3.114,-2.903,-2.753,-2.866,-3.037,-2.902,-2.736,-0.068,0.873,-0.540,-0.458,-1.129,-0.305,73.333,18987.000,1.000
-2.781,-2.983,-2.638,-2.467,-2.661,-2.871,-2.598,-2.519,-0.066,0.873,-0.540,-0.488,-1.190,-0.153,73.333,18988.000,1.000
-2.853,-3.014,-2.613,-2.388,-2.648,-2.875,-2.527,-2.519,-0.065,0.875,-0.538,-0.336,-1.190,-0.061,73.333,18989.000,1.000
-3.189,-3.286,-2.900,-2.635,-2.922,-3.138,-2.781,-2.829,-0.062,0.875,-0.537,-0.366,-1.129,0.061,73.333,18990.000,1.000
-3.614,-3.673,-3.343,-3.102,-3.377,-3.560,-3.215,-3.314,-0.064,0.876,-0.538,-0.427,-1.007,0.275,73.333,18991.000,1.000
-3.855,-3.922,-3.664,-3.507,-3.748,-3.896,-3.541,-3.699,-0.065,0.877,-0.539,-0.366,-0.916,0.336,73.333,18992.000,1.000
-3.672,-3.783,-3.613,-3.549,-3.746,-3.871,-3.496,-3.723,-0.065,0.877,-0.541,-0.458,-0.854,0.427,73.333,18993.000,1.000
-3.031,-3.194,-3.134,-3.137,-3.256,-3.378,-3.027,-3.311,-0.065,0.876,-0.542,-0.549,-0.732,0.519,73.333,18994.000,1.000
-2.121,-2.317,-2.380,-2.425,-2.419,-2.559,-2.297,-2.590,-0.067,0.876,-0.540,-0.488,-0.763,0.641,73.333,18995.000,1.000
-1.300,-1.487,-1.645,-1.727,-1.585,-1.754,-1.608,-1.847,-0.067,0.876,-0.538,-0.397,-0.671,0.702,73.333,18996.000,1.000
-0.953,-1.084,-1.258,-1.377,-1.170,-1.364,-1.280,-1.430,-0.069,0.878,-0.542,-0.458,-0.580,0.641,73.333,18997.000,1.000
-1.279,-1.322,-1.425,-1.570,-1.413,-1.617,-1.494,-1.577,-0.069,0.877,-0.542,-0.549,-0.580,0.763,73.333,18998.000,1.000
-2.233,-2.187,-2.179,-2.322,-2.304,-2.505,-2.253,-2.331,-0.071,0.879,-0.540,-0.671,-0.610,0.702,73.333,18999.000,1.000
-3.542,-3.449,-3.343,-3.452,-3.592,-3.782,-3.377,-3.488,-0.071,0.879,-0.541,-0.732,-0.641,0.671,73.333,19000.000,1.000
-4.794,-4.719,-4.543,-4.597,-4.853,-5.029,-4.529,-4.645,-0.071,0.878,-0.543,-0.824,-0.580,0.641,73.333,19001.000,1.000
-5.599,-5.602,-5.368,-5.370,-5.661,-5.829,-5.335,-5.390,-0.068,0.877,-0.541,-0.916,-0.488,0.610,73.333,19002.000,1.000
-5.751,-5.865,-5.585,-5.556,-5.797,-5.970,-5.564,-5.507,-0.065,0.874,-0.539,-0.824,-0.519,0.671,73.333,19003.000,1.000
-5.309,-5.536,-5.250,-5.207,-5.344,-5.527,-5.243,-5.083,-0.064,0.874,-0.537,-0.946,-0.488,0.580,73.333,19004.000,1.000
-4.486,-4.798,-4.564,-4.506,-4.543,-4.723,-4.548,-4.352,-0.066,0.871,-0.539,-0.946,-0.366,0.610,73.333,19005.000,1.000
-3.477,-3.823,-3.679,-3.595,-3.578,-3.731,-3.625,-3.476,-0.067,0.870,-0.538,-0.916,-0.275,0.671,73.333,19006.000,1.000
-2.369,-2.694,-2.639,-2.530,-2.497,-2.620,-2.531,-2.477,-0.068,0.870,-0.537,-1.007,-0.244,0.580,73.333,19007.000,1.000
-1.202,-1.458,-1.460,-1.362,-1.311,-1.433,-1.315,-1.345,-0.067,0.868,-0.535,-0.946,-0.244,0.488,73.333,19008.000,1.000
-0.117,-0.278,-0.286,-0.254,-0.163,-0.325,-0.149,-0.216,-0.069,0.870,-0.538,-0.854,-0.214,0.488,73.333,19009.000,1.000
0.685,0.612,0.664,0.587,0.716,0.512,0.738,0.671,-0.067,0.870,-0.539,-0.763,-0.122,0.488,73.333,19010.000,1.000
1.102,1.076,1.249,1.065,1.186,1.000,1.226,1.162,-0.066,0.870,-0.538,-0.793,-0.153,0.488,73.333,19011.000,1.000
1.183,1.150,1.460,1.220,1.265,1.184,1.349,1.261,-0.065,0.869,-0.539,-0.763,-0.061,0.397,73.333,19012.000,1.000
1.068,0.980,1.389,1.151,1.079,1.158,1.235,1.097,-0.067,0.871,-0.542,-0.793,0.031,0.427,73.333,19013.000,1.000
0.890,0.724,1.163,0.964,0.781,1.023,1.025,0.838,-0.065,0.871,-0.537,-0.732,0.122,0.397,73.333,19014.000,1.000
0.783,0.559,0.966,0.813,0.565,0.932,0.887,0.689,-0.065,0.872,-0.534,-0.793,0.275,0.427,73.333,19015.000,1.000
0.865,0.657,0.982,0.864,0.612,1.040,0.972,0.817,-0.067,0.872,-0.538,-0.732,0.275,0.458,73.333,19016.000,1.000
1.212,1.110,1.311,1.209,1.013,1.429,1.347,1.273,-0.069,0.872,-0.536,-0.793,0.305,0.549,73.333,19017.000,1.000
1.892,1.940,1.993,1.898,1.789,2.144,2.022,2.050,-0.066,0.872,-0.537,-0.793,0.366,0.580,73.333,19018.000,1.000
2.913,3.076,2.989,2.912,2.889,3.179,2.963,3.098,-0.066,0.876,-0.539,-0.916,0.305,0.610,73.333,19019.000,1.000
4.158,4.359,4.150,4.117,4.160,4.418,4.076,4.279,-0.066,0.877,-0.539,-0.977,0.488,0.519,73.333,19020.000,1.000
5.350,5.514,5.199,5.232,5.317,5.579,5.140,5.324,-0.066,0.879,-0.538,-1.068,0.458,0.549,73.333,19021.000,1.000
6.066,6.157,5.764,5.859,5.962,6.254,5.781,5.862,-0.065,0.881,-0.537,-1.190,0.488,0.397,73.333,19022.000,1.000
5.919,5.948,5.541,5.664,5.758,6.082,5.633,5.586,-0.061,0.880,-0.534,-1.404,0.641,0.458,73.333,19023.000,1.000
4.802,4.811,4.472,4.572,4.636,4.969,4.573,4.450,-0.058,0.877,-0.530,-1.648,0.610,0.488,73.333,19024.000,1.000
3.009,3.041,2.814,2.852,2.892,3.186,2.855,2.750,-0.057,0.875,-0.531,-1.831,0.732,0.610,73.333,19025.000,1.000
0.990,1.072,0.930,0.902,0.950,1.160,0.898,0.884,-0.059,0.874,-0.535,-1.831,0.854,0.671,73.333,19026.000,1.000
-1.012,-0.881,-1.015,-1.079,-0.990,-0.871,-1.070,-0.973,-0.062,0.874,-0.538,-1.953,1.007,0.793,73.333,19027.000,1.000
-3.069,-2.908,-3.101,-3.166,-3.027,-2.959,-3.111,-2.938,-0.063,0.875,-0.537,-1.953,1.068,0.763,73.333,19028.000,1.000
-5.384,-5.206,-5.478,-5.524,-5.356,-5.286,-5.400,-5.224,-0.066,0.877,-0.536,-2.014,1.068,0.854,73.333,19029.000,1.000
-7.933,-7.733,-8.059,-8.088,-7.926,-7.823,-7.891,-7.788,-0.066,0.880,-0.538,-2.075,1.099,0.854,73.333,19030.000,1.000
-10.250,-10.035,-10.380,-10.407,-10.266,-10.136,-10.149,-10.159,-0.064,0.880,-0.538,-2.106,0.885,0.885,73.333,19031.000,1.000
-11.618,-11.414,-11.756,-11.816,-11.671,-11.542,-11.499,-11.610,-0.064,0.881,-0.537,-2.167,0.977,0.854,73.333,19032.000,1.000
-11.443,-11.276,-11.609,-11.749,-11.558,-11.452,-11.354,-11.529,-0.067,0.881,-0.537,-2.106,0.916,0.854,73.333,19033.000,1.000
-9.583,-9.453,-9.779,-10.031,-9.767,-9.695,-9.539,-9.741,-0.071,0.878,-0.538,-2.197,0.793,0.824,73.333,19034.000,1.000
-6.405,-6.285,-6.606,-6.951,-6.628,-6.586,-6.377,-6.577,-0.075,0.877,-0.537,-2.289,0.793,0.793,73.333,19035.000,1.000
-2.613,-2.478,-2.777,-3.140,-2.818,-2.785,-2.554,-2.723,-0.078,0.876,-0.533,-2.258,0.488,0.763,73.333,19036.000,1.000
1.069,1.215,0.982,0.695,0.935,0.990,1.199,1.079,-0.079,0.874,-0.533,-2.167,0.214,0.580,73.333,19037.000,1.000
4.185,4.319,4.213,4.055,4.146,4.248,4.406,4.328,-0.079,0.874,-0.535,-2.075,0.000,0.610,73.333,19038.000,1.000
6.575,6.685,6.750,6.702,6.619,6.756,6.885,6.824,-0.080,0.874,-0.540,-1.923,-0.305,0.488,73.333,19039.000,1.000
8.225,8.320,8.561,8.539,8.307,8.436,8.593,8.528,-0.077,0.876,-0.539,-1.984,-0.458,0.366,73.333,19040.000,1.000
9.015,9.100,9.485,9.382,9.078,9.148,9.378,9.322,-0.074,0.875,-0.537,-1.892,-0.702,0.214,73.333,19041.000,1.000
8.622,8.692,9.155,8.899,8.631,8.618,8.911,8.901,-0.072,0.875,-0.535,-1.953,-0.946,0.183,73.333,19042.000,1.000
6.765,6.822,7.278,6.872,6.742,6.649,6.955,7.024,-0.068,0.874,-0.536,-1.953,-1.038,0.092,73.333,19043.000,1.000
3.486,3.554,3.909,3.449,3.501,3.347,3.616,3.762,-0.067,0.873,-0.535,-1.862,-1.099,0.061,73.333,19044.000,1.000
-0.816,-0.704,-0.523,-0.896,-0.691,-0.890,-0.680,-0.496,-0.065,0.874,-0.537,-1.923,-1.068,0.061,73.333,19045.000,1.000
-5.565,-5.380,-5.397,-5.568,-5.305,-5.529,-5.375,-5.218,-0.063,0.875,-0.536,-1.953,-1.068,0.061,73.333,19046.000,1.000
-10.093,-9.811,-10.004,-9.924,-9.729,-9.955,-9.833,-9.763,-0.062,0.873,-0.535,-1.831,-1.038,0.061,73.333,19047.000,1.000
-13.636,-13.259,-13.570,-13.252,-13.229,-13.428,-13.314,-13.351,-0.062,0.875,-0.536,-1.892,-0.916,0.061,73.333,19048.000,1.000
-15.590,-15.176,-15.517,-15.019,-15.200,-15.357,-15.229,-15.355,-0.060,0.877,-0.531,-1.923,-0.854,0.092,73.333,19049.000,1.000
-15.848,-15.499,-15.781,-15.185,-15.511,-15.641,-15.480,-15.665,-0.058,0.878,-0.533,-1.953,-0.671,0.214,73.333,19050.000,1.000
-14.854,-14.658,-14.835,-14.230,-14.580,-14.724,-14.512,-14.735,-0.058,0.877,-0.531,-1.923,-0.610,0.305,73.333,19051.000,1.000
-13.329,-13.308,-13.401,-12.871,-13.109,-13.310,-13.049,-13.289,-0.059,0.878,-0.530,-1.923,-0.549,0.458,73.333,19052.000,1.000
-11.911,-12.021,-12.072,-11.684,-11.715,-12.003,-11.721,-11.937,-0.060,0.877,-0.530,-1.923,-0.366,0.519,73.333,19053.000,1.000
-10.935,-11.108,-11.122,-10.910,-10.739,-11.097,-10.837,-10.980,-0.061,0.877,-0.528,-1.953,-0.244,0.610,73.333,19054.000,1.000
-10.359,-10.523,-10.468,-10.422,-10.158,-10.520,-10.320,-10.364,-0.062,0.877,-0.529,-1.953,-0.153,0.702,73.333,19055.000,1.000
-9.919,-10.008,-9.844,-9.922,-9.716,-9.999,-9.883,-9.839,-0.063,0.875,-0.531,-1.862,-0.153,0.793,73.333,19056.000,1.000
-9.419,-9.372,-9.093,-9.236,-9.193,-9.347,-9.319,-9.218,-0.063,0.874,-0.534,-1.892,-0.153,0.732,73.333,19057.000,1.000
-8.801,-8.585,-8.242,-8.384,-8.509,-8.544,-8.599,-8.473,-0.065,0.874,-0.532,-1.801,-0.092,0.763,73.333,19058.000,1.000
-8.059,-7.687,-7.372,-7.466,-7.673,-7.636,-7.782,-7.652,-0.064,0.874,-0.531,-1.801,0.031,0.854,73.333,19059.000,1.000
-7.112,-6.647,-6.443,-6.475,-6.648,-6.589,-6.843,-6.718,-0.062,0.872,-0.534,-1.770,-0.061,0.916,73.333,19060.000,1.000
-5.864,-5.390,-5.333,-5.316,-5.373,-5.331,-5.689,-5.564,-0.062,0.870,-0.535,-1.770,0.031,0.824,73.333,19061.000,1.000
-4.363,-3.950,-4.027,-3.978,-3.918,-3.913,-4.326,-4.178,-0.060,0.872,-0.533,-1.678,0.061,0.854,73.333,19062.000,1.000
-2.763,-2.438,-2.610,-2.542,-2.428,-2.470,-2.853,-2.650,-0.060,0.870,-0.536,-1.465,0.061,0.946,73.333,19063.000,1.000
-1.151,-0.904,-1.135,-1.053,-0.962,-1.046,-1.329,-1.053,-0.059,0.870,-0.534,-1.282,0.183,0.946,73.333,19064.000,1.000
0.571,0.758,0.497,0.594,0.616,0.505,0.344,0.677,-0.059,0.870,-0.534,-1.099,0.214,0.854,73.333,19065.000,1.000
2.619,2.731,2.481,2.596,2.543,2.422,2.351,2.703,-0.058,0.871,-0.535,-1.068,0.305,0.793,73.333,19066.000,1.000
5.091,5.082,4.884,5.019,4.917,4.800,4.756,5.089,-0.059,0.874,-0.534,-0.946,0.305,0.793,73.333,19067.000,1.000
7.803,7.623,7.500,7.661,7.537,7.452,7.373,7.652,-0.059,0.875,-0.534,-0.763,0.336,0.854,73.333,19068.000,1.000
10.284,9.920,9.868,10.058,9.931,9.922,9.768,9.959,-0.059,0.875,-0.535,-0.824,0.427,0.854,73.333,19069.000,1.000
11.980,11.485,11.488,11.701,11.581,11.684,11.439,11.517,-0.062,0.876,-0.533,-0.824,0.458,0.854,73.333,19070.000,1.000
12.537,12.011,12.072,12.282,12.190,12.396,12.068,12.022,-0.062,0.874,-0.535,-0.793,0.458,0.885,73.333,19071.000,1.000
11.965,11.518,11.656,11.815,11.790,12.042,11.668,11.486,-0.063,0.874,-0.534,-0.641,0.488,0.732,73.333,19072.000,1.000
10.593,10.316,10.530,10.584,10.665,10.898,10.530,10.207,-0.062,0.873,-0.533,-0.671,0.549,0.671,73.333,19073.000,1.000
8.833,8.771,9.026,8.935,9.136,9.317,8.992,8.562,-0.061,0.875,-0.535,-0.519,0.519,0.641,73.333,19074.000,1.000
7.072,7.200,7.457,7.222,7.507,7.648,7.378,6.915,-0.061,0.876,-0.534,-0.458,0.519,0.580,73.333,19075.000,1.000
5.696,5.928,6.175,5.836,6.137,6.270,6.056,5.639,-0.061,0.875,-0.534,-0.427,0.488,0.458,73.333,19076.000,1.000
5.036,5.273,5.515,5.137,5.395,5.540,5.387,5.059,-0.060,0.875,-0.533,-0.366,0.549,0.458,73.333,19077.000,1.000
5.214,5.388,5.613,5.259,5.470,5.621,5.517,5.277,-0.059,0.877,-0.538,-0.305,0.519,0.397,73.333,19078.000,1.000
5.998,6.092,6.265,5.986,6.191,6.309,6.226,6.044,-0.060,0.876,-0.536,-0.275,0.488,0.397,73.333,19079.000,1.000
6.975,7.009,7.105,6.918,7.148,7.191,7.110,6.957,-0.061,0.875,-0.536,-0.214,0.549,0.214,73.333,19080.000,1.000
7.812,7.807,7.842,7.722,7.966,7.926,7.848,7.720,-0.062,0.875,-0.538,-0.244,0.763,0.275,73.333,19081.000,1.000
8.375,8.305,8.331,8.243,8.459,8.369,8.291,8.209,-0.063,0.874,-0.537,-0.275,0.702,0.214,73.333,19082.000,1.000
8.744,8.552,8.633,8.563,8.694,8.614,8.517,8.505,-0.063,0.875,-0.539,-0.122,0.549,0.244,73.333,19083.000,1.000
9.133,8.804,8.974,8.922,8.940,8.920,8.781,8.851,-0.067,0.876,-0.535,-0.092,0.488,0.214,73.333,19084.000,1.000
9.780,9.369,9.609,9.583,9.515,9.559,9.371,9.520,-0.067,0.876,-0.535,-0.092,0.458,0.214,73.333,19085.000,1.000
10.775,10.375,10.629,10.639,10.542,10.607,10.399,10.607,-0.066,0.879,-0.533,-0.092,0.366,0.153,73.333,19086.000,1.000
11.951,11.621,11.845,11.888,11.805,11.831,11.659,11.897,-0.065,0.877,-0.533,-0.092,0.366,0.183,73.333,19087.000,1.000
12.995,12.734,12.920,12.977,12.909,12.859,12.783,13.029,-0.067,0.876,-0.533,-0.092,0.244,0.153,73.333,19088.000,1.000
13.660,13.438,13.583,13.626,13.552,13.437,13.476,13.725,-0.068,0.875,-0.532,-0.153,0.092,0.214,73.333,19089.000,1.000
13.878,13.667,13.749,13.765,13.678,13.545,13.664,13.904,-0.069,0.874,-0.534,-0.122,0.000,0.244,73.333,19090.000,1.000
13.732,13.529,13.510,13.513,13.426,13.334,13.458,13.659,-0.067,0.872,-0.533,-0.153,-0.122,0.183,73.333,19091.000,1.000
13.391,13.210,13.081,13.098,13.016,13.016,13.068,13.184,-0.065,0.873,-0.538,-0.244,-0.092,0.153,73.333,19092.000,1.000
13.028,12.884,12.681,12.739,12.646,12.753,12.690,12.685,-0.063,0.871,-0.537,-0.122,-0.214,0.214,73.333,19093.000,1.000
12.624,12.517,12.297,12.416,12.283,12.463,12.311,12.163,-0.063,0.873,-0.538,0.031,-0.244,0.305,73.333,19094.000,1.000
11.917,11.836,11.628,11.813,11.628,11.818,11.665,11.376,-0.060,0.874,-0.541,0.092,-0.275,0.366,73.333,19095.000,1.000
10.585,10.519,10.298,10.528,10.319,10.468,10.409,10.021,-0.058,0.874,-0.542,0.031,-0.244,0.488,73.333,19096.000,1.000
8.448,8.389,8.111,8.348,8.162,8.257,8.334,7.936,-0.061,0.872,-0.537,0.092,-0.305,0.671,73.333,19097.000,1.000
5.622,5.570,5.216,5.438,5.297,5.362,5.550,5.235,-0.066,0.872,-0.534,0.092,-0.336,0.702,73.333,19098.000,1.000
2.524,2.491,2.083,2.290,2.185,2.246,2.491,2.299,-0.071,0.872,-0.536,0.183,-0.336,0.610,73.333,19099.000,1.000
-0.263,-0.257,-0.665,-0.469,-0.563,-0.498,-0.250,-0.332,-0.073,0.873,-0.534,0.183,-0.549,0.580,73.333,19100.000,1.000
-2.280,-2.212,-2.567,-2.383,-2.489,-2.428,-2.218,-2.223,-0.074,0.873,-0.537,0.153,-0.702,0.427,73.333,19101.000,1.000
-3.431,-3.292,-3.565,-3.395,-3.519,-3.473,-3.333,-3.287,-0.073,0.873,-0.540,0.153,-0.885,0.397,73.333,19102.000,1.000
-3.898,-3.710,-3.906,-3.755,-3.877,-3.854,-3.802,-3.726,-0.072,0.875,-0.540,0.244,-1.007,0.366,73.333,19103.000,1.000
-3.971,-3.784,-3.931,-3.813,-3.905,-3.905,-3.923,-3.850,-0.070,0.873,-0.538,0.305,-1.160,0.336,73.333,19104.000,1.000
-3.901,-3.778,-3.898,-3.833,-3.874,-3.896,-3.930,-3.890,-0.068,0.874,-0.538,0.336,-1.373,0.336,73.333,19105.000,1.000
-3.813,-3.795,-3.897,-3.898,-3.878,-3.933,-3.909,-3.918,-0.067,0.873,-0.536,0.275,-1.434,0.214,73.333,19106.000,1.000
-3.772,-3.850,-3.934,-3.999,-3.919,-4.027,-3.881,-3.941,-0.065,0.874,-0.537,0.244,-1.434,0.244,73.333,19107.000,1.000
-3.873,-3.994,-4.057,-4.171,-4.050,-4.219,-3.934,-4.034,-0.063,0.875,-0.536,0.305,-1.465,0.305,73.333,19108.000,1.000
-4.226,-4.335,-4.368,-4.510,-4.376,-4.586,-4.215,-4.318,-0.063,0.874,-0.537,0.214,-1.465,0.366,73.333,19109.000,1.000
-4.749,-4.819,-4.819,-4.954,-4.841,-5.056,-4.699,-4.743,-0.062,0.875,-0.539,0.275,-1.373,0.305,73.333,19110.000,1.000
-5.148,-5.177,-5.155,-5.250,-5.180,-5.384,-5.120,-5.039,-0.063,0.875,-0.540,0.275,-1.343,0.305,73.333,19111.000,1.000
-5.237,-5.228,-5.203,-5.250,-5.220,-5.426,-5.260,-5.039,-0.063,0.872,-0.542,0.305,-1.404,0.244,73.333,19112.000,1.000
-5.172,-5.111,-5.106,-5.124,-5.100,-5.329,-5.204,-4.900,-0.064,0.873,-0.541,0.183,-1.312,0.183,73.333,19113.000,1.000
-5.328,-5.208,-5.230,-5.256,-5.190,-5.452,-5.299,-5.008,-0.065,0.875,-0.537,0.061,-1.282,0.305,73.333,19114.000,1.000
-5.980,-5.829,-5.864,-5.931,-5.789,-6.068,-5.869,-5.664,-0.066,0.876,-0.541,0.031,-1.251,0.244,73.333,19115.000,1.000
-7.104,-6.986,-7.006,-7.113,-6.904,-7.154,-6.960,-6.857,-0.067,0.876,-0.541,0.000,-1.190,0.336,73.333,19116.000,1.000
-8.420,-8.396,-8.393,-8.496,-8.264,-8.423,-8.328,-8.298,-0.063,0.875,-0.540,0.061,-1.099,0.275,73.333,19117.000,1.000
-9.561,-9.658,-9.640,-9.680,-9.479,-9.516,-9.589,-9.574,-0.064,0.876,-0.538,-0.031,-1.129,0.336,73.333,19118.000,1.000
-10.303,-10.505,-10.469,-10.408,-10.298,-10.225,-10.463,-10.392,-0.063,0.876,-0.538,-0.122,-1.099,0.244,73.333,19119.000,1.000
-10.631,-10.896,-10.798,-10.647,-10.677,-10.528,-10.871,-10.690,-0.063,0.874,-0.537,-0.305,-1.129,0.275,73.333,19120.000,1.000
-10.619,-10.887,-10.686,-10.494,-10.674,-10.480,-10.854,-10.554,-0.063,0.874,-0.537,-0.427,-0.977,0.153,73.333,19121.000,1.000
-10.331,-10.544,-10.258,-10.078,-10.357,-10.145,-10.480,-10.110,-0.065,0.874,-0.538,-0.336,-0.946,0.275,73.333,19122.000,1.000
-9.768,-9.909,-9.607,-9.471,-9.759,-9.558,-9.804,-9.425,-0.065,0.875,-0.536,-0.427,-1.007,0.214,73.333,19123.000,1.000
-8.941,-9.045,-8.797,-8.713,-8.927,-8.761,-8.902,-8.549,-0.064,0.874,-0.537,-0.580,-0.946,0.244,73.333,19124.000,1.000
-7.959,-8.079,-7.923,-7.883,-7.972,-7.855,-7.912,-7.590,-0.065,0.875,-0.538,-0.519,-0.885,0.336,73.333,19125.000,1.000
-6.986,-7.141,-7.102,-7.080,-7.048,-6.975,-6.987,-6.684,-0.065,0.876,-0.538,-0.519,-0.793,0.275,73.333,19126.000,1.000
-6.119,-6.289,-6.372,-6.331,-6.237,-6.191,-6.194,-5.890,-0.063,0.875,-0.540,-0.549,-0.854,0.366,73.333,19127.000,1.000
-5.344,-5.506,-5.664,-5.573,-5.520,-5.463,-5.484,-5.156,-0.065,0.875,-0.539,-0.671,-0.854,0.305,73.333,19128.000,1.000
-4.628,-4.782,-4.926,-4.787,-4.856,-4.752,-4.789,-4.444,-0.066,0.877,-0.540,-0.702,-0.763,0.244,73.333,19129.000,1.000
-3.926,-4.084,-4.143,-3.997,-4.192,-4.039,-4.054,-3.743,-0.067,0.875,-0.537,-0.732,-0.793,0.244,73.333,19130.000,1.000
-3.121,-3.294,-3.247,-3.162,-3.399,-3.248,-3.188,-2.985,-0.067,0.875,-0.539,-0.732,-0.763,0.244,73.333,19131.000,1.000
-2.019,-2.204,-2.076,-2.110,-2.278,-2.199,-2.045,-1.991,-0.067,0.874,-0.537,-0.702,-0.793,0.214,73.333,19132.000,1.000
-0.391,-0.554,-0.400,-0.567,-0.593,-0.631,-0.418,-0.488,-0.066,0.875,-0.538,-0.824,-0.793,0.214,73.333,19133.000,1.000
1.883,1.804,1.915,1.663,1.776,1.623,1.840,1.723,-0.066,0.875,-0.541,-0.824,-0.732,0.214,73.333,19134.000,1.000
4.720,4.772,4.792,4.548,4.727,4.508,4.677,4.605,-0.064,0.873,-0.541,-0.732,-0.763,0.244,73.333,19135.000,1.000
7.828,7.995,7.933,7.769,7.921,7.717,7.805,7.826,-0.065,0.873,-0.542,-0.763,-0.702,0.214,73.333,19136.000,1.000
10.665,10.860,10.771,10.694,10.767,10.655,10.648,10.746,-0.066,0.875,-0.538,-0.824,-0.702,0.244,73.333,19137.000,1.000
12.477,12.581,12.536,12.493,12.502,12.514,12.421,12.528,-0.066,0.874,-0.537,-0.946,-0.793,0.214,73.333,19138.000,1.000
12.522,12.449,12.498,12.416,12.422,12.531,12.375,12.418,-0.065,0.873,-0.539,-0.946,-0.793,0.275,73.333,19139.000,1.000
10.443,10.191,10.334,10.164,10.236,10.389,10.189,10.124,-0.063,0.872,-0.543,-1.007,-0.671,0.336,73.333,19140.000,1.000
6.517,6.173,6.363,6.103,6.272,6.424,6.200,6.027,-0.065,0.874,-0.540,-0.885,-0.641,0.244,73.333,19141.000,1.000
1.559,1.257,1.413,1.119,1.357,1.479,1.259,1.008,-0.065,0.874,-0.540,-0.854,-0.549,0.305,73.333,19142.000,1.000
-3.401,-3.548,-3.514,-3.754,-3.509,-3.446,-3.619,-3.906,-0.066,0.876,-0.540,-0.854,-0.641,0.397,73.333,19143.000,1.000
-7.539,-7.497,-7.625,-7.742,-7.546,-7.561,-7.651,-7.931,-0.066,0.875,-0.539,-0.824,-0.519,0.488,73.333,19144.000,1.000
-10.446,-10.260,-10.500,-10.477,-10.365,-10.451,-10.437,-10.690,-0.066,0.873,-0.541,-0.854,-0.580,0.427,73.333,19145.000,1.000
-12.054,-11.808,-12.036,-11.903,-11.890,-12.012,-11.895,-12.137,-0.067,0.873,-0.541,-0.854,-0.488,0.366,73.333,19146.000,1.000
-12.490,-12.264,-12.352,-12.166,-12.258,-12.364,-12.167,-12.439,-0.064,0.874,-0.538,-1.007,-0.458,0.458,73.333,19147.000,1.000
-11.980,-11.830,-11.711,-11.544,-11.729,-11.772,-11.541,-11.863,-0.064,0.874,-0.539,-0.946,-0.519,0.366,73.333,19148.000,1.000
-10.898,-10.836,-10.533,-10.451,-10.695,-10.653,-10.445,-10.800,-0.066,0.873,-0.539,-0.885,-0.458,0.458,73.333,19149.000,1.000
-9.733,-9.719,-9.327,-9.372,-9.628,-9.501,-9.365,-9.710,-0.065,0.874,-0.539,-0.854,-0.458,0.427,73.333,19150.000,1.000
-8.885,-8.844,-8.474,-8.653,-8.874,-8.686,-8.639,-8.941,-0.064,0.876,-0.540,-0.793,-0.458,0.397,73.333,19151.000,1.000
-8.495,-8.359,-8.080,-8.366,-8.519,-8.315,-8.323,-8.582,-0.066,0.875,-0.539,-0.763,-0.397,0.397,73.333,19152.000,1.000
-8.428,-8.171,-7.993,-8.328,-8.411,-8.245,-8.236,-8.479,-0.066,0.872,-0.538,-0.763,-0.366,0.488,73.333,19153.000,1.000
-8.401,-8.063,-7.960,-8.262,-8.311,-8.223,-8.141,-8.390,-0.068,0.874,-0.539,-0.793,-0.214,0.397,73.333,19154.000,1.000
-8.118,-7.779,-7.728,-7.912,-7.991,-7.982,-7.828,-8.082,-0.068,0.873,-0.537,-0.763,-0.275,0.397,73.333,19155.000,1.000
-7.387,-7.125,-7.107,-7.128,-7.298,-7.319,-7.154,-7.388,-0.067,0.872,-0.534,-0.702,-0.305,0.336,73.333,19156.000,1.000
-6.184,-6.022,-6.021,-5.911,-6.182,-6.153,-6.066,-6.253,-0.068,0.873,-0.534,-0.671,-0.305,0.244,73.333,19157.000,1.000
-4.537,-4.417,-4.443,-4.281,-4.606,-4.468,-4.514,-4.640,-0.065,0.870,-0.539,-0.732,-0.244,0.214,73.333,19158.000,1.000
-2.451,-2.276,-2.359,-2.216,-2.522,-2.281,-2.452,-2.522,-0.065,0.871,-0.536,-0.641,-0.153,0.244,73.333,19159.000,1.000
0.021,0.303,0.154,0.246,0.006,0.273,0.046,0.018,-0.064,0.872,-0.538,-0.549,-0.092,0.366,73.333,19160.000,1.000
2.606,2.966,2.776,2.815,2.649,2.849,2.640,2.659,-0.062,0.873,-0.542,-0.580,-0.122,0.275,73.333,19161.000,1.000
4.765,5.132,4.930,4.922,4.809,4.898,4.747,4.832,-0.061,0.874,-0.541,-0.488,0.000,0.336,73.333,19162.000,1.000
5.965,6.291,6.087,6.029,5.946,5.951,5.858,6.010,-0.062,0.874,-0.538,-0.580,0.031,0.305,73.333,19163.000,1.000
6.027,6.317,6.098,5.997,5.928,5.918,5.869,6.045,-0.062,0.874,-0.534,-0.458,0.153,0.427,73.333,19164.000,1.000
5.242,5.543,5.278,5.172,5.118,5.154,5.135,5.270,-0.061,0.873,-0.533,-0.549,0.183,0.488,73.333,19165.000,1.000
4.157,4.499,4.161,4.117,4.086,4.188,4.192,4.235,-0.064,0.872,-0.538,-0.549,0.275,0.427,73.333,19166.000,1.000
3.129,3.491,3.088,3.170,3.157,3.299,3.333,3.279,-0.064,0.873,-0.541,-0.519,0.366,0.488,73.333,19167.000,1.000
2.169,2.490,2.075,2.307,2.287,2.422,2.495,2.382,-0.064,0.871,-0.538,-0.488,0.275,0.488,73.333,19168.000,1.000
1.155,1.398,1.035,1.380,1.325,1.423,1.533,1.411,-0.064,0.873,-0.537,-0.519,0.275,0.458,73.333,19169.000,1.000
0.111,0.298,0.009,0.397,0.304,0.355,0.483,0.386,-0.063,0.874,-0.535,-0.610,0.305,0.427,73.333,19170.000,1.000
-0.826,-0.639,-0.888,-0.515,-0.607,-0.615,-0.487,-0.551,-0.063,0.875,-0.534,-0.610,0.305,0.488,73.333,19171.000,1.000
-1.566,-1.350,-1.613,-1.279,-1.302,-1.384,-1.277,-1.317,-0.064,0.873,-0.533,-0.671,0.336,0.366,73.333,19172.000,1.000
-2.020,-1.801,-2.103,-1.810,-1.707,-1.867,-1.803,-1.825,-0.064,0.875,-0.532,-0.732,0.336,0.366,73.333,19173.000,1.000
-2.057,-1.897,-2.208,-1.946,-1.726,-1.935,-1.923,-1.936,-0.065,0.875,-0.539,-0.671,0.305,0.366,73.333,19174.000,1.000
-1.571,-1.533,-1.771,-1.528,-1.275,-1.477,-1.506,-1.518,-0.065,0.874,-0.540,-0.732,0.183,0.427,73.333,19175.000,1.000
-0.580,-0.693,-0.765,-0.533,-0.371,-0.506,-0.553,-0.558,-0.063,0.873,-0.541,-0.732,0.183,0.336,73.333,19176.000,1.000
0.707,0.458,0.606,0.820,0.804,0.771,0.725,0.753,-0.066,0.876,-0.539,-0.702,0.183,0.305,73.333,19177.000,1.000
1.981,1.656,1.998,2.175,1.979,2.053,2.010,2.102,-0.065,0.875,-0.542,-0.671,0.183,0.336,73.333,19178.000,1.000
3.009,2.678,3.120,3.239,2.943,3.110,3.041,3.223,-0.063,0.874,-0.539,-0.824,0.183,0.366,73.333,19179.000,1.000
3.775,3.480,3.911,3.954,3.675,3.914,3.766,4.049,-0.063,0.875,-0.539,-0.763,0.214,0.427,73.333,19180.000,1.000
4.473,4.220,4.561,4.524,4.362,4.647,4.375,4.738,-0.064,0.876,-0.541,-0.885,0.092,0.519,73.333,19181.000,1.000
5.318,5.103,5.329,5.227,5.230,5.519,5.135,5.518,-0.063,0.875,-0.544,-0.885,0.183,0.549,73.333,19182.000,1.000
6.382,6.204,6.345,6.204,6.362,6.597,6.186,6.500,-0.064,0.875,-0.538,-0.946,0.153,0.488,73.333,19183.000,1.000
7.498,7.347,7.466,7.305,7.578,7.705,7.376,7.545,-0.063,0.874,-0.538,-0.885,0.153,0.549,73.333,19184.000,1.000
8.362,8.232,8.377,8.205,8.556,8.551,8.376,8.370,-0.063,0.873,-0.541,-0.946,0.000,0.488,73.333,19185.000,1.000
8.776,8.679,8.871,8.699,9.089,8.958,8.949,8.806,-0.064,0.873,-0.539,-0.977,-0.031,0.580,73.333,19186.000,1.000
8.717,8.685,8.919,8.762,9.146,8.917,9.036,8.847,-0.064,0.874,-0.539,-0.916,-0.061,0.610,73.333,19187.000,1.000
8.288,8.335,8.579,8.455,8.812,8.520,8.682,8.552,-0.064,0.874,-0.538,-0.854,0.000,0.580,73.333,19188.000,1.000
7.627,7.708,7.912,7.827,8.179,7.858,7.962,7.961,-0.064,0.873,-0.540,-0.885,-0.092,0.702,73.333,19189.000,1.000
6.853,6.867,6.997,6.929,7.315,6.992,6.968,7.114,-0.064,0.873,-0.539,-0.916,-0.092,0.580,73.333,19190.000,1.000
6.059,5.897,5.959,5.856,6.296,5.996,5.840,6.092,-0.063,0.873,-0.539,-0.763,-0.183,0.580,73.333,19191.000,1.000
5.280,4.890,4.930,4.749,5.218,4.967,4.732,5.019,-0.064,0.875,-0.536,-0.885,-0.214,0.641,73.333,19192.000,1.000
4.517,3.936,4.024,3.767,4.195,4.020,3.788,4.041,-0.065,0.875,-0.538,-0.793,-0.122,0.610,73.333,19193.000,1.000
3.739,3.088,3.282,2.999,3.298,3.210,3.064,3.233,-0.064,0.876,-0.539,-0.732,-0.305,0.702,73.333,19194.000,1.000
2.932,2.361,2.664,2.422,2.541,2.525,2.519,2.565,-0.063,0.874,-0.537,-0.763,-0.366,0.671,73.333,19195.000,1.000
2.171,1.773,2.133,1.979,1.937,1.952,2.097,2.004,-0.065,0.871,-0.541,-0.793,-0.397,0.702,73.333,19196.000,1.000
1.591,1.355,1.708,1.640,1.521,1.510,1.786,1.574,-0.065,0.870,-0.539,-0.763,-0.519,0.671,73.333,19197.000,1.000
1.319,1.167,1.464,1.432,1.329,1.255,1.620,1.341,-0.063,0.871,-0.540,-0.793,-0.519,0.702,73.333,19198.000,1.000
1.364,1.223,1.430,1.363,1.339,1.202,1.609,1.315,-0.063,0.874,-0.539,-0.732,-0.488,0.671,73.333,19199.000,1.000
1.618,1.474,1.571,1.414,1.486,1.315,1.732,1.443,-0.063,0.872,-0.540,-0.732,-0.610,0.519,73.333,19200.000,1.000
1.975,1.865,1.852,1.606,1.746,1.584,1.984,1.700,-0.061,0.874,-0.541,-0.732,-0.732,0.580,73.333,19201.000,1.000
2.386,2.346,2.246,1.979,2.127,2.019,2.363,2.086,-0.062,0.871,-0.539,-0.610,-0.763,0.519,73.333,19202.000,1.000
2.864,2.899,2.757,2.568,2.662,2.627,2.877,2.622,-0.061,0.873,-0.538,-0.641,-0.671,0.549,73.333,19203.000,1.000
3.412,3.513,3.388,3.342,3.348,3.369,3.521,3.303,-0.063,0.870,-0.539,-0.610,-0.641,0.427,73.333,19204.000,1.000
3.932,4.100,4.034,4.120,4.044,4.075,4.180,3.998,-0.064,0.872,-0.539,-0.488,-0.641,0.366,73.333,19205.000,1.000
4.217,4.468,4.468,4.594,4.470,4.478,4.611,4.441,-0.063,0.871,-0.538,-0.458,-0.671,0.397,73.333,19206.000,1.000
4.038,4.376,4.436,4.477,4.346,4.329,4.531,4.343,-0.064,0.875,-0.540,-0.549,-0.610,0.275,73.333,19207.000,1.000
3.288,3.679,3.795,3.671,3.557,3.548,3.796,3.581,-0.062,0.873,-0.542,-0.488,-0.549,0.305,73.333,19208.000,1.000
2.029,2.396,2.562,2.293,2.190,2.229,2.470,2.252,-0.061,0.872,-0.539,-0.488,-0.549,0.244,73.333,19209.000,1.000
0.492,0.750,0.930,0.637,0.514,0.622,0.815,0.634,-0.062,0.873,-0.540,-0.519,-0.580,0.183,73.333,19210.000,1.000
-0.952,-0.837,-0.709,-0.873,-1.051,-0.889,-0.759,-0.874,-0.064,0.873,-0.539,-0.519,-0.641,0.122,73.333,19211.000,1.000
-1.921,-1.918,-1.886,-1.834,-2.092,-1.908,-1.831,-1.885,-0.064,0.873,-0.539,-0.488,-0.610,0.183,73.333,19212.000,1.000
-2.156,-2.202,-2.248,-2.009,-2.341,-2.168,-2.131,-2.150,-0.067,0.874,-0.539,-0.397,-0.580,0.183,73.333,19213.000,1.000
-1.662,-1.699,-1.775,-1.460,-1.805,-1.677,-1.677,-1.684,-0.068,0.872,-0.540,-0.458,-0.671,0.092,73.333,19214.000,1.000
-0.710,-0.695,-0.782,-0.519,-0.769,-0.716,-0.766,-0.759,-0.068,0.872,-0.536,-0.580,-0.702,0.092,73.333,19215.000,1.000
0.353,0.451,0.320,0.465,0.388,0.360,0.255,0.300,-0.068,0.875,-0.537,-0.519,-0.824,0.000,73.333,19216.000,1.000
1.249,1.442,1.220,1.256,1.354,1.269,1.125,1.232,-0.067,0.876,-0.538,-0.549,-0.916,-0.061,73.333,19217.000,1.000
1.799,2.069,1.748,1.716,1.931,1.831,1.683,1.845,-0.068,0.875,-0.535,-0.580,-0.854,-0.061,73.333,19218.000,1.000
1.935,2.218,1.848,1.779,2.035,1.968,1.843,2.014,-0.067,0.874,-0.537,-0.580,-0.977,-0.092,73.333,19219.000,1.000
1.744,1.952,1.606,1.522,1.762,1.749,1.640,1.779,-0.068,0.874,-0.540,-0.549,-0.977,-0.061,73.333,19220.000,1.000
1.475,1.542,1.259,1.188,1.398,1.410,1.288,1.385,-0.066,0.873,-0.537,-0.580,-1.129,-0.031,73.333,19221.000,1.000
1.381,1.307,1.067,1.030,1.232,1.211,1.060,1.135,-0.067,0.874,-0.535,-0.519,-1.099,-0.031,73.333,19222.000,1.000
1.583,1.434,1.182,1.190,1.408,1.304,1.153,1.223,-0.065,0.870,-0.537,-0.671,-1.160,0.061,73.333,19223.000,1.000
2.019,1.893,1.601,1.648,1.873,1.673,1.579,1.648,-0.066,0.873,-0.537,-0.610,-1.160,0.153,73.333,19224.000,1.000
2.505,2.476,2.186,2.245,2.436,2.160,2.173,2.245,-0.064,0.873,-0.540,-0.488,-1.068,0.183,73.333,19225.000,1.000
2.831,2.908,2.709,2.743,2.863,2.545,2.676,2.755,-0.064,0.872,-0.536,-0.488,-0.946,0.305,73.333,19226.000,1.000
2.806,2.937,2.891,2.882,2.927,2.602,2.802,2.889,-0.064,0.873,-0.535,-0.488,-0.946,0.366,73.333,19227.000,1.000
2.356,2.464,2.548,2.521,2.508,2.217,2.397,2.487,-0.063,0.874,-0.539,-0.427,-0.977,0.458,73.333,19228.000,1.000
1.528,1.552,1.676,1.679,1.616,1.403,1.489,1.569,-0.063,0.873,-0.541,-0.458,-0.885,0.580,73.333,19229.000,1.000
0.447,0.353,0.444,0.510,0.386,0.273,0.246,0.314,-0.063,0.875,-0.540,-0.427,-0.854,0.580,73.333,19230.000,1.000
-0.697,-0.902,-0.865,-0.726,-0.910,-0.953,-1.062,-0.985,-0.063,0.875,-0.538,-0.519,-0.854,0.519,73.333,19231.000,1.000
-1.741,-1.991,-2.011,-1.799,-2.006,-2.057,-2.196,-2.077,-0.062,0.875,-0.537,-0.488,-0.885,0.458,73.333,19232.000,1.000
-2.606,-2.801,-2.886,-2.604,-2.786,-2.921,-3.040,-2.859,-0.063,0.876,-0.538,-0.397,-0.793,0.427,73.333,19233.000,1.000
-3.275,-3.336,-3.484,-3.143,-3.280,-3.523,-3.591,-3.358,-0.060,0.875,-0.542,-0.427,-0.702,0.458,73.333,19234.000,1.000
-3.754,-3.663,-3.840,-3.479,-3.588,-3.885,-3.906,-3.655,-0.058,0.875,-0.540,-0.580,-0.580,0.458,73.333,19235.000,1.000
-4.041,-3.853,-3.995,-3.686,-3.807,-4.048,-4.044,-3.831,-0.059,0.870,-0.540,-0.580,-0.549,0.549,73.333,19236.000,1.000
-4.142,-3.951,-4.000,-3.816,-3.989,-4.070,-4.058,-3.937,-0.058,0.867,-0.544,-0.458,-0.427,0.580,73.333,19237.000,1.000
-4.088,-3.984,-3.911,-3.891,-4.134,-4.012,-4.003,-3.996,-0.059,0.866,-0.540,-0.427,-0.305,0.519,73.333,19238.000,1.000
-3.999,-4.019,-3.828,-3.963,-4.265,-3.979,-3.980,-4.056,-0.060,0.866,-0.543,-0.366,-0.092,0.610,73.333,19239.000,1.000
-4.036,-4.150,-3.873,-4.105,-4.435,-4.079,-4.099,-4.187,-0.060,0.868,-0.542,-0.305,-0.092,0.549,73.333,19240.000,1.000
-4.262,-4.407,-4.087,-4.349,-4.661,-4.334,-4.387,-4.410,-0.059,0.869,-0.540,-0.305,-0.031,0.519,73.333,19241.000,1.000
-4.617,-4.739,-4.421,-4.664,-4.912,-4.678,-4.783,-4.683,-0.056,0.870,-0.541,-0.366,0.122,0.610,73.333,19242.000,1.000
-4.906,-4.988,-4.709,-4.912,-5.054,-4.938,-5.118,-4.869,-0.053,0.872,-0.542,-0.336,0.214,0.641,73.333,19243.000,1.000
-4.841,-4.889,-4.682,-4.843,-4.848,-4.851,-5.109,-4.735,-0.053,0.875,-0.542,-0.397,0.305,0.763,73.333,19244.000,1.000
-4.123,-4.145,-4.044,-4.169,-4.041,-4.129,-4.436,-4.017,-0.054,0.876,-0.542,-0.519,0.519,0.824,73.333,19245.000,1.000
-2.600,-2.594,-2.613,-2.713,-2.510,-2.611,-2.907,-2.553,-0.058,0.877,-0.543,-0.549,0.610,0.793,73.333,19246.000,1.000
-0.474,-0.437,-0.550,-0.634,-0.459,-0.483,-0.701,-0.513,-0.064,0.875,-0.539,-0.580,0.671,0.793,73.333,19247.000,1.000
1.681,1.741,1.592,1.516,1.575,1.683,1.576,1.562,-0.071,0.879,-0.538,-0.641,0.610,0.702,73.333,19248.000,1.000
3.108,3.180,3.047,2.976,2.890,3.125,3.093,2.941,-0.075,0.881,-0.542,-0.671,0.458,0.549,73.333,19249.000,1.000
3.206,3.287,3.197,3.125,2.921,3.233,3.199,3.044,-0.078,0.880,-0.542,-0.793,0.244,0.336,73.333,19250.000,1.000
1.859,1.944,1.903,1.830,1.565,1.890,1.797,1.755,-0.080,0.879,-0.541,-0.885,0.092,0.244,73.333,19251.000,1.000
-0.529,-0.454,-0.449,-0.494,-0.771,-0.492,-0.627,-0.529,-0.080,0.878,-0.541,-1.007,-0.092,0.092,73.333,19252.000,1.000
-3.167,-3.129,-3.078,-3.046,-3.305,-3.126,-3.223,-3.040,-0.077,0.877,-0.538,-1.068,-0.458,-0.092,73.333,19253.000,1.000
-5.112,-5.132,-5.035,-4.889,-5.122,-5.072,-5.063,-4.876,-0.075,0.876,-0.539,-1.099,-0.671,-0.244,73.333,19254.000,1.000
-5.527,-5.612,-5.485,-5.237,-5.441,-5.499,-5.373,-5.256,-0.074,0.876,-0.537,-1.221,-0.793,-0.427,73.333,19255.000,1.000
-3.934,-4.082,-3.954,-3.668,-3.837,-3.929,-3.737,-3.731,-0.073,0.873,-0.539,-1.282,-0.946,-0.427,73.333,19256.000,1.000
-0.380,-0.581,-0.484,-0.231,-0.350,-0.394,-0.232,-0.316,-0.071,0.869,-0.540,-1.282,-1.007,-0.610,73.333,19257.000,1.000
4.633,4.399,4.439,4.623,4.580,4.625,4.654,4.547,-0.069,0.869,-0.542,-1.221,-1.190,-0.580,73.333,19258.000,1.000
10.300,10.063,10.028,10.150,10.213,10.327,10.171,10.108,-0.067,0.870,-0.539,-1.221,-1.221,-0.519,73.333,19259.000,1.000
15.644,15.449,15.336,15.424,15.609,15.738,15.429,15.440,-0.066,0.869,-0.541,-1.129,-1.282,-0.427,73.333,19260.000,1.000
19.719,19.603,19.449,19.521,19.815,19.899,19.539,19.604,-0.066,0.870,-0.542,-1.099,-1.312,-0.305,73.333,19261.000,1.000
21.774,21.741,21.618,21.661,22.036,22.036,21.733,21.807,-0.065,0.870,-0.538,-1.068,-1.282,-0.244,73.333,19262.000,1.000
21.385,21.396,21.376,21.359,21.776,21.683,21.524,21.548,-0.064,0.868,-0.536,-1.038,-1.251,-0.092,73.333,19263.000,1.000
18.502,18.505,18.623,18.520,18.943,18.770,18.804,18.738,-0.064,0.871,-0.538,-1.007,-1.190,-0.061,73.333,19264.000,1.000
13.526,13.489,13.722,13.542,13.937,13.717,13.936,13.777,-0.064,0.871,-0.538,-1.007,-1.251,0.092,73.333,19265.000,1.000
7.347,7.272,7.552,7.338,7.674,7.458,7.788,7.577,-0.065,0.872,-0.538,-0.946,-1.373,0.092,73.333,19266.000,1.000
1.135,1.045,1.299,1.108,1.342,1.194,1.511,1.310,-0.065,0.872,-0.536,-1.007,-1.282,0.275,73.333,19267.000,1.000
-4.018,-4.105,-3.915,-4.041,-3.948,-3.978,-3.795,-3.928,-0.066,0.871,-0.538,-1.007,-1.160,0.366,73.333,19268.000,1.000
-7.486,-7.573,-7.425,-7.477,-7.541,-7.446,-7.452,-7.489,-0.064,0.871,-0.537,-0.977,-1.099,0.519,73.333,19269.000,1.000
-9.267,-9.379,-9.216,-9.221,-9.393,-9.234,-9.390,-9.335,-0.063,0.872,-0.535,-0.946,-1.068,0.488,73.333,19270.000,1.000
-9.829,-9.986,-9.778,-9.776,-9.941,-9.819,-10.025,-9.905,-0.064,0.873,-0.533,-0.946,-0.946,0.610,73.333,19271.000,1.000
-9.898,-10.078,-9.859,-9.880,-9.923,-9.913,-10.056,-9.925,-0.065,0.872,-0.534,-1.038,-0.854,0.641,73.333,19272.000,1.000
-10.196,-10.331,-10.189,-10.239,-10.126,-10.210,-10.219,-10.145,-0.063,0.876,-0.534,-1.068,-0.793,0.519,73.333,19273.000,1.000
-11.143,-11.161,-11.182,-11.242,-11.037,-11.115,-10.987,-11.030,-0.060,0.875,-0.534,-1.190,-0.580,0.641,73.333,19274.000,1.000
-12.700,-12.573,-12.791,-12.826,-12.637,-12.605,-12.404,-12.574,-0.059,0.875,-0.535,-1.251,-0.519,0.580,73.333,19275.000,1.000
-14.489,-14.246,-14.621,-14.605,-14.513,-14.344,-14.152,-14.402,-0.061,0.873,-0.538,-1.251,-0.488,0.732,73.333,19276.000,1.000
-16.085,-15.795,-16.226,-16.169,-16.181,-15.938,-15.804,-16.057,-0.062,0.873,-0.538,-1.190,-0.336,0.793,73.333,19277.000,1.000
-17.141,-16.881,-17.256,-17.195,-17.256,-17.042,-16.958,-17.161,-0.062,0.873,-0.539,-1.251,-0.183,0.732,73.333,19278.000,1.000
-17.379,-17.215,-17.459,-17.416,-17.454,-17.356,-17.288,-17.420,-0.062,0.872,-0.539,-1.160,-0.092,0.732,73.333,19279.000,1.000
-16.611,-16.574,-16.667,-16.620,-16.602,-16.657,-16.573,-16.638,-0.060,0.871,-0.540,-1.221,0.031,0.702,73.333,19280.000,1.000
-14.785,-14.846,-14.829,-14.726,-14.682,-14.869,-14.752,-14.770,-0.060,0.870,-0.539,-1.160,0.153,0.763,73.333,19281.000,1.000
-12.073,-12.153,-12.120,-11.910,-11.913,-12.167,-12.013,-12.008,-0.057,0.872,-0.536,-1.190,0.305,0.702,73.333,19282.000,1.000
-8.835,-8.854,-8.899,-8.578,-8.692,-8.924,-8.743,-8.746,-0.057,0.873,-0.536,-1.221,0.397,0.610,73.333,19283.000,1.000
-5.512,-5.439,-5.609,-5.225,-5.467,-5.598,-5.415,-5.450,-0.056,0.872,-0.536,-1.190,0.458,0.519,73.333,19284.000,1.000
-2.556,-2.414,-2.697,-2.329,-2.643,-2.645,-2.497,-2.570,-0.059,0.873,-0.537,-1.190,0.397,0.488,73.333,19285.000,1.000
-0.336,-0.175,-0.526,-0.237,-0.520,-0.437,-0.351,-0.453,-0.059,0.872,-0.541,-1.160,0.549,0.427,73.333,19286.000,1.000
0.887,1.030,0.658,0.839,0.689,0.757,0.793,0.678,-0.061,0.872,-0.539,-1.038,0.671,0.397,73.333,19287.000,1.000
1.043,1.164,0.804,0.875,0.913,0.874,0.912,0.795,-0.063,0.872,-0.539,-1.099,0.732,0.427,73.333,19288.000,1.000
0.331,0.456,0.136,0.109,0.315,0.147,0.243,0.123,-0.064,0.872,-0.538,-1.068,0.793,0.366,73.333,19289.000,1.000
-0.823,-0.668,-0.911,-1.018,-0.723,-0.966,-0.786,-0.926,-0.063,0.872,-0.539,-1.068,0.793,0.275,73.333,19290.000,1.000
-1.921,-1.734,-1.870,-2.037,-1.745,-1.978,-1.732,-1.904,-0.063,0.872,-0.542,-0.977,0.763,0.244,73.333,19291.000,1.000
-2.613,-2.422,-2.440,-2.655,-2.430,-2.587,-2.324,-2.522,-0.062,0.872,-0.541,-1.038,0.793,0.183,73.333,19292.000,1.000
-2.786,-2.633,-2.550,-2.802,-2.674,-2.725,-2.497,-2.702,-0.062,0.872,-0.541,-1.007,0.824,0.153,73.333,19293.000,1.000
-2.574,-2.488,-2.335,-2.598,-2.574,-2.535,-2.361,-2.566,-0.063,0.873,-0.543,-0.916,0.824,0.000,73.333,19294.000,1.000
-2.269,-2.258,-2.070,-2.282,-2.369,-2.290,-2.149,-2.359,-0.064,0.873,-0.540,-0.793,0.946,0.092,73.333,19295.000,1.000
-2.107,-2.161,-1.974,-2.061,-2.247,-2.205,-2.055,-2.268,-0.066,0.872,-0.539,-0.885,0.793,-0.061,73.333,19296.000,1.000
-2.169,-2.257,-2.123,-2.035,-2.271,-2.328,-2.141,-2.347,-0.067,0.871,-0.540,-0.854,0.671,0.000,73.333,19297.000,1.000
-2.392,-2.477,-2.448,-2.198,-2.408,-2.559,-2.347,-2.540,-0.066,0.871,-0.537,-0.793,0.549,0.000,73.333,19298.000,1.000
-2.624,-2.672,-2.771,-2.437,-2.560,-2.724,-2.541,-2.719,-0.067,0.869,-0.539,-0.763,0.549,-0.092,73.333,19299.000,1.000
-2.657,-2.656,-2.849,-2.555,-2.564,-2.633,-2.549,-2.713,-0.065,0.870,-0.540,-0.702,0.366,-0.031,73.333,19300.000,1.000
-2.293,-2.249,-2.449,-2.314,-2.223,-2.133,-2.180,-2.335,-0.064,0.873,-0.538,-0.641,0.244,0.000,73.333,19301.000,1.000
-1.451,-1.378,-1.489,-1.568,-1.413,-1.184,-1.336,-1.487,-0.067,0.872,-0.538,-0.610,0.244,0.061,73.333,19302.000,1.000
-0.180,-0.097,-0.072,-0.306,-0.134,0.142,-0.056,-0.187,-0.067,0.875,-0.539,-0.519,0.031,0.031,73.333,19303.000,1.000
1.372,1.454,1.584,1.328,1.475,1.694,1.509,1.439,-0.068,0.875,-0.536,-0.488,0.000,0.061,73.333,19304.000,1.000
2.985,3.051,3.214,3.050,3.147,3.269,3.134,3.156,-0.067,0.874,-0.540,-0.641,-0.031,0.031,73.333,19305.000,1.000
4.427,4.455,4.603,4.549,4.586,4.657,4.588,4.682,-0.067,0.873,-0.540,-0.641,-0.244,0.122,73.333,19306.000,1.000
5.485,5.447,5.582,5.564,5.553,5.657,5.631,5.745,-0.067,0.871,-0.538,-0.641,-0.275,0.153,73.333,19307.000,1.000
6.000,5.898,6.044,5.962,5.937,6.123,6.082,6.170,-0.068,0.868,-0.539,-0.580,-0.458,0.244,73.333,19308.000,1.000
5.951,5.825,5.995,5.789,5.813,6.041,5.936,5.980,-0.067,0.867,-0.539,-0.549,-0.610,0.183,73.333,19309.000,1.000
5.495,5.396,5.575,5.258,5.394,5.571,5.395,5.394,-0.067,0.867,-0.543,-0.397,-0.610,0.305,73.333,19310.000,1.000
4.874,4.815,4.970,4.624,4.898,4.954,4.726,4.692,-0.066,0.866,-0.543,-0.397,-0.671,0.366,73.333,19311.000,1.000
4.156,4.102,4.208,3.941,4.319,4.252,3.996,3.957,-0.064,0.868,-0.546,-0.458,-0.763,0.458,73.333,19312.000,1.000
3.179,3.082,3.132,3.023,3.430,3.287,3.035,3.025,-0.059,0.868,-0.543,-0.397,-0.824,0.488,73.333,19313.000,1.000
1.757,1.607,1.593,1.660,2.021,1.863,1.644,1.685,-0.056,0.869,-0.544,-0.305,-0.854,0.519,73.333,19314.000,1.000
-0.077,-0.256,-0.348,-0.142,0.117,0.005,-0.167,-0.071,-0.055,0.868,-0.542,-0.275,-0.916,0.549,73.333,19315.000,1.000
-2.009,-2.185,-2.353,-2.068,-1.947,-1.959,-2.100,-1.945,-0.057,0.868,-0.541,-0.244,-0.854,0.641,73.333,19316.000,1.000
-3.601,-3.758,-3.966,-3.652,-3.687,-3.583,-3.711,-3.491,-0.061,0.868,-0.539,-0.092,-0.793,0.519,73.333,19317.000,1.000
-4.477,-4.609,-4.801,-4.486,-4.672,-4.482,-4.595,-4.308,-0.063,0.868,-0.542,-0.092,-0.641,0.549,73.333,19318.000,1.000
-4.466,-4.564,-4.712,-4.413,-4.701,-4.487,-4.564,-4.240,-0.068,0.870,-0.540,-0.122,-0.732,0.519,73.333,19319.000,1.000
-3.677,-3.717,-3.859,-3.588,-3.901,-3.716,-3.752,-3.452,-0.071,0.869,-0.540,-0.214,-0.946,0.397,73.333,19320.000,1.000
-2.395,-2.353,-2.574,-2.346,-2.605,-2.464,-2.494,-2.286,-0.070,0.870,-0.540,-0.214,-1.068,0.366,73.333,19321.000,1.000
-0.952,-0.832,-1.190,-1.019,-1.176,-1.057,-1.145,-1.058,-0.070,0.872,-0.543,-0.275,-1.251,0.244,73.333,19322.000,1.000
0.416,0.571,0.114,0.216,0.157,0.290,0.107,0.101,-0.071,0.873,-0.542,-0.366,-1.373,0.153,73.333,19323.000,1.000
1.660,1.788,1.351,1.393,1.374,1.547,1.283,1.257,-0.068,0.874,-0.542,-0.397,-1.404,0.061,73.333,19324.000,1.000
2.871,2.935,2.643,2.649,2.587,2.809,2.503,2.553,-0.069,0.876,-0.542,-0.427,-1.587,-0.031,73.333,19325.000,1.000
4.177,4.195,4.112,4.107,3.938,4.202,3.891,4.087,-0.068,0.875,-0.540,-0.519,-1.678,-0.183,73.333,19326.000,1.000
5.635,5.680,5.785,5.778,5.489,5.770,5.491,5.822,-0.068,0.874,-0.540,-0.702,-1.740,-0.366,73.333,19327.000,1.000
7.229,7.370,7.585,7.574,7.209,7.460,7.260,7.636,-0.067,0.875,-0.539,-0.824,-1.892,-0.458,73.333,19328.000,1.000
8.874,9.110,9.355,9.327,8.969,9.142,9.052,9.371,-0.064,0.877,-0.541,-1.038,-1.923,-0.427,73.333,19329.000,1.000
10.395,10.632,10.880,10.829,10.550,10.611,10.625,10.845,-0.063,0.876,-0.544,-1.129,-1.892,-0.458,73.333,19330.000,1.000
11.594,11.715,11.995,11.922,11.752,11.678,11.771,11.921,-0.061,0.874,-0.544,-1.160,-1.740,-0.397,73.333,19331.000,1.000
12.279,12.221,12.577,12.482,12.418,12.184,12.345,12.491,-0.062,0.874,-0.542,-1.160,-1.648,-0.244,73.333,19332.000,1.000
12.231,12.026,12.469,12.337,12.371,11.976,12.193,12.387,-0.062,0.872,-0.546,-1.251,-1.617,-0.153,73.333,19333.000,1.000
11.240,10.987,11.476,11.291,11.403,10.902,11.130,11.395,-0.062,0.873,-0.542,-1.251,-1.678,-0.183,73.333,19334.000,1.000
9.242,9.049,9.513,9.272,9.423,8.918,9.084,9.416,-0.064,0.876,-0.540,-1.312,-1.648,-0.122,73.333,19335.000,1.000
6.467,6.392,6.763,6.486,6.632,6.233,6.269,6.639,-0.065,0.877,-0.540,-1.434,-1.526,-0.031,73.333,19336.000,1.000
3.365,3.383,3.630,3.358,3.466,3.254,3.122,3.497,-0.065,0.875,-0.540,-1.617,-1.465,0.061,73.333,19337.000,1.000
0.427,0.446,0.580,0.367,0.425,0.418,0.119,0.480,-0.065,0.875,-0.544,-1.648,-1.434,0.153,73.333,19338.000,1.000
-2.001,-2.072,-2.028,-2.138,-2.121,-1.982,-2.394,-2.065,-0.064,0.875,-0.542,-1.617,-1.434,0.336,73.333,19339.000,1.000
-3.816,-4.007,-4.026,-4.023,-4.029,-3.852,-4.274,-4.010,-0.064,0.874,-0.541,-1.740,-1.373,0.275,73.333,19340.000,1.000
-5.039,-5.311,-5.363,-5.272,-5.298,-5.180,-5.499,-5.341,-0.063,0.875,-0.542,-1.740,-1.282,0.519,73.333,19341.000,1.000
-5.728,-6.007,-6.057,-5.925,-5.990,-5.963,-6.117,-6.087,-0.064,0.875,-0.542,-1.740,-1.282,0.641,73.333,19342.000,1.000
-5.916,-6.146,-6.155,-6.034,-6.168,-6.204,-6.193,-6.277,-0.065,0.875,-0.540,-1.770,-1.312,0.641,73.333,19343.000,1.000
-5.635,-5.809,-5.728,-5.661,-5.885,-5.936,-5.787,-5.948,-0.066,0.873,-0.541,-1.831,-1.251,0.641,73.333,19344.000,1.000
-4.939,-5.088,-4.852,-4.871,-5.170,-5.213,-4.947,-5.144,-0.065,0.873,-0.542,-1.831,-1.190,0.732,73.333,19345.000,1.000
-3.804,-3.955,-3.534,-3.647,-3.962,-4.001,-3.645,-3.859,-0.065,0.873,-0.542,-1.862,-1.221,0.732,73.333,19346.000,1.000
-2.195,-2.355,-1.805,-1.976,-2.236,-2.279,-1.888,-2.134,-0.069,0.871,-0.542,-1.770,-1.099,0.732,73.333,19347.000,1.000
-0.249,-0.413,0.141,-0.024,-0.184,-0.223,0.125,-0.180,-0.067,0.871,-0.540,-1.831,-1.099,0.793,73.333,19348.000,1.000
1.698,1.537,1.976,1.860,1.809,1.796,2.042,1.674,-0.067,0.870,-0.541,-1.709,-1.190,0.763,73.333,19349.000,1.000
3.247,3.123,3.380,3.304,3.343,3.379,3.516,3.118,-0.064,0.869,-0.539,-1.678,-1.221,0.824,73.333,19350.000,1.000
4.143,4.122,4.181,4.105,4.193,4.289,4.368,3.985,-0.065,0.868,-0.543,-1.587,-1.221,0.610,73.333,19351.000,1.000
4.346,4.489,4.381,4.272,4.365,4.511,4.603,4.262,-0.066,0.867,-0.538,-1.556,-1.160,0.610,73.333,19352.000,1.000
4.034,4.348,4.143,3.999,4.064,4.231,4.383,4.083,-0.067,0.867,-0.536,-1.526,-1.221,0.549,73.333,19353.000,1.000
3.504,3.931,3.708,3.547,3.587,3.734,3.943,3.670,-0.069,0.868,-0.541,-1.465,-1.221,0.458,73.333,19354.000,1.000
3.010,3.453,3.262,3.108,3.153,3.240,3.480,3.215,-0.068,0.865,-0.539,-1.404,-1.160,0.427,73.333,19355.000,1.000
2.669,3.039,2.889,2.760,2.846,2.842,3.104,2.825,-0.067,0.865,-0.540,-1.465,-1.160,0.397,73.333,19356.000,1.000
2.438,2.697,2.569,2.478,2.612,2.514,2.809,2.495,-0.066,0.867,-0.541,-1.373,-1.160,0.336,73.333,19357.000,1.000
2.244,2.405,2.278,2.222,2.377,2.233,2.553,2.195,-0.065,0.869,-0.539,-1.343,-1.221,0.305,73.333,19358.000,1.000
2.081,2.173,2.044,2.002,2.142,2.027,2.331,1.941,-0.065,0.869,-0.539,-1.312,-1.099,0.244,73.333,19359.000,1.000
1.950,1.980,1.870,1.826,1.921,1.896,2.130,1.734,-0.064,0.871,-0.539,-1.282,-1.038,0.183,73.333,19360.000,1.000
1.813,1.761,1.703,1.663,1.701,1.779,1.899,1.536,-0.062,0.871,-0.540,-1.221,-0.977,0.183,73.333,19361.000,1.000
1.563,1.431,1.446,1.431,1.408,1.562,1.552,1.271,-0.064,0.874,-0.542,-1.312,-0.977,0.183,73.333,19362.000,1.000
1.082,0.947,1.007,1.043,0.952,1.140,1.032,0.874,-0.065,0.873,-0.544,-1.343,-1.038,0.183,73.333,19363.000,1.000
0.355,0.341,0.379,0.489,0.322,0.505,0.372,0.353,-0.066,0.873,-0.541,-1.465,-1.068,0.122,73.333,19364.000,1.000
-0.449,-0.259,-0.296,-0.107,-0.335,-0.201,-0.288,-0.165,-0.066,0.874,-0.539,-1.465,-0.977,0.092,73.333,19365.000,1.000
-1.006,-0.624,-0.746,-0.509,-0.732,-0.703,-0.720,-0.449,-0.066,0.876,-0.540,-1.495,-0.916,0.092,73.333,19366.000,1.000
-1.110,-0.644,-0.823,-0.599,-0.720,-0.836,-0.824,-0.395,-0.066,0.877,-0.540,-1.648,-0.885,0.031,73.333,19367.000,1.000
-0.872,-0.476,-0.662,-0.504,-0.464,-0.712,-0.757,-0.179,-0.067,0.875,-0.540,-1.678,-0.854,0.183,73.333,19368.000,1.000
-0.610,-0.415,-0.550,-0.477,-0.298,-0.606,-0.773,-0.112,-0.067,0.877,-0.539,-1.678,-0.854,0.244,73.333,19369.000,1.000
-0.588,-0.638,-0.681,-0.667,-0.447,-0.722,-0.999,-0.372,-0.065,0.875,-0.542,-1.678,-0.916,0.183,73.333,19370.000,1.000
-0.804,-1.046,-0.999,-0.991,-0.831,-1.020,-1.326,-0.850,-0.066,0.874,-0.541,-1.709,-0.854,0.275,73.333,19371.000,1.000
-1.077,-1.410,-1.316,-1.280,-1.212,-1.332,-1.564,-1.294,-0.067,0.875,-0.541,-1.617,-0.946,0.366,73.333,19372.000,1.000
-1.277,-1.600,-1.518,-1.468,-1.432,-1.550,-1.639,-1.556,-0.067,0.876,-0.541,-1.648,-1.007,0.336,73.333,19373.000,1.000
-1.393,-1.640,-1.625,-1.600,-1.487,-1.668,-1.604,-1.659,-0.068,0.872,-0.537,-1.740,-1.007,0.336,73.333,19374.000,1.000
-1.509,-1.651,-1.735,-1.751,-1.489,-1.740,-1.571,-1.724,-0.067,0.870,-0.539,-1.709,-1.038,0.305,73.333,19375.000,1.000
-1.724,-1.773,-1.937,-1.983,-1.595,-1.846,-1.654,-1.876,-0.067,0.871,-0.539,-1.740,-1.007,0.366,73.333,19376.000,1.000
-2.125,-2.133,-2.306,-2.366,-1.956,-2.114,-1.967,-2.223,-0.068,0.871,-0.540,-1.770,-1.068,0.275,73.333,19377.000,1.000
-2.738,-2.755,-2.862,-2.929,-2.612,-2.633,-2.556,-2.793,-0.067,0.869,-0.539,-1.801,-1.068,0.275,73.333,19378.000,1.000
-3.484,-3.515,-3.541,-3.619,-3.445,-3.362,-3.348,-3.518,-0.066,0.868,-0.538,-1.678,-1.068,0.275,73.333,19379.000,1.000
-4.228,-4.244,-4.255,-4.342,-4.281,-4.164,-4.202,-4.281,-0.065,0.868,-0.536,-1.648,-1.129,0.366,73.333,19380.000,1.000
-4.832,-4.807,-4.899,-4.980,-4.967,-4.856,-4.951,-4.953,-0.063,0.870,-0.538,-1.465,-1.038,0.336,73.333,19381.000,1.000
-5.237,-5.156,-5.387,-5.437,-5.427,-5.295,-5.480,-5.435,-0.064,0.869,-0.537,-1.465,-1.038,0.214,73.333,19382.000,1.000
-5.461,-5.315,-5.669,-5.677,-5.661,-5.457,-5.753,-5.697,-0.064,0.871,-0.538,-1.404,-0.977,0.366,73.333,19383.000,1.000
-5.569,-5.356,-5.763,-5.734,-5.734,-5.444,-5.809,-5.789,-0.063,0.870,-0.536,-1.495,-0.946,0.336,73.333,19384.000,1.000
-5.675,-5.404,-5.785,-5.729,-5.776,-5.451,-5.782,-5.839,-0.062,0.872,-0.535,-1.312,-0.854,0.305,73.333,19385.000,1.000
-5.887,-5.574,-5.896,-5.800,-5.928,-5.637,-5.830,-5.971,-0.063,0.872,-0.538,-1.373,-0.854,0.244,73.333,19386.000,1.000
-6.249,-5.924,-6.205,-6.046,-6.283,-6.059,-6.066,-6.257,-0.065,0.875,-0.536,-1.495,-0.824,0.244,73.333,19387.000,1.000
-6.684,-6.408,-6.671,-6.458,-6.793,-6.644,-6.479,-6.659,-0.066,0.874,-0.536,-1.526,-0.763,0.214,73.333,19388.000,1.000
-7.023,-6.869,-7.101,-6.904,-7.269,-7.199,-6.928,-7.022,-0.067,0.872,-0.537,-1.434,-0.671,0.214,73.333,19389.000,1.000
-7.143,-7.152,-7.314,-7.219,-7.534,-7.545,-7.268,-7.204,-0.065,0.874,-0.536,-1.434,-0.610,0.183,73.333,19390.000,1.000
-7.006,-7.154,-7.213,-7.252,-7.491,-7.563,-7.372,-7.127,-0.066,0.873,-0.537,-1.465,-0.519,0.305,73.333,19391.000,1.000
-6.593,-6.813,-6.753,-6.895,-7.090,-7.186,-7.106,-6.741,-0.065,0.874,-0.536,-1.404,-0.519,0.366,73.333,19392.000,1.000
-5.888,-6.102,-5.930,-6.112,-6.315,-6.404,-6.379,-6.008,-0.064,0.876,-0.534,-1.526,-0.458,0.275,73.333,19393.000,1.000
-4.946,-5.079,-4.835,-5.001,-5.241,-5.311,-5.259,-4.974,-0.066,0.874,-0.533,-1.556,-0.458,0.244,73.333,19394.000,1.000
-3.878,-3.875,-3.638,-3.743,-4.012,-4.074,-3.952,-3.778,-0.070,0.874,-0.535,-1.587,-0.366,0.244,73.333,19395.000,1.000
-2.700,-2.566,-2.419,-2.435,-2.689,-2.773,-2.596,-2.510,-0.071,0.872,-0.537,-1.617,-0.366,0.153,73.333,19396.000,1.000
-1.368,-1.175,-1.164,-1.086,-1.260,-1.398,-1.218,-1.188,-0.069,0.874,-0.534,-1.617,-0.488,0.183,73.333,19397.000,1.000
0.121,0.265,0.156,0.320,0.268,0.070,0.186,0.186,-0.067,0.876,-0.536,-1.617,-0.488,0.244,73.333,19398.000,1.000
1.734,1.717,1.570,1.799,1.851,1.630,1.626,1.633,-0.064,0.876,-0.535,-1.709,-0.427,0.305,73.333,19399.000,1.000
3.393,3.135,3.070,3.323,3.415,3.222,3.078,3.140,-0.066,0.874,-0.536,-1.617,-0.488,0.305,73.333,19400.000,1.000
4.946,4.463,4.567,4.776,4.868,4.721,4.469,4.609,-0.066,0.875,-0.536,-1.648,-0.488,0.336,73.333,19401.000,1.000
6.176,5.587,5.856,5.952,6.064,5.935,5.649,5.835,-0.066,0.874,-0.535,-1.678,-0.458,0.336,73.333,19402.000,1.000
6.943,6.419,6.752,6.714,6.898,6.735,6.497,6.657,-0.067,0.873,-0.534,-1.648,-0.397,0.305,73.333,19403.000,1.000
7.308,6.986,7.238,7.113,7.400,7.177,7.051,7.101,-0.067,0.872,-0.531,-1.770,-0.336,0.305,73.333,19404.000,1.000
7.444,7.362,7.426,7.299,7.673,7.405,7.422,7.308,-0.067,0.871,-0.535,-1.617,-0.427,0.336,73.333,19405.000,1.000
7.517,7.607,7.460,7.401,7.817,7.544,7.697,7.434,-0.068,0.873,-0.536,-1.709,-0.488,0.427,73.333,19406.000,1.000
7.624,7.768,7.465,7.504,7.907,7.672,7.899,7.580,-0.070,0.873,-0.537,-1.617,-0.519,0.458,73.333,19407.000,1.000
7.791,7.898,7.524,7.650,7.997,7.839,8.035,7.782,-0.068,0.873,-0.538,-1.648,-0.488,0.366,73.333,19408.000,1.000
7.945,7.983,7.612,7.786,8.056,8.001,8.058,7.964,-0.068,0.872,-0.536,-1.556,-0.549,0.427,73.333,19409.000,1.000
7.911,7.885,7.577,7.748,7.947,7.994,7.859,7.941,-0.069,0.872,-0.535,-1.373,-0.641,0.488,73.333,19410.000,1.000
7.605,7.535,7.343,7.450,7.608,7.725,7.434,7.633,-0.068,0.871,-0.535,-1.404,-0.641,0.458,73.333,19411.000,1.000
7.113,7.037,6.996,6.986,7.143,7.277,6.938,7.157,-0.067,0.872,-0.537,-1.343,-0.671,0.427,73.333,19412.000,1.000
6.576,6.540,6.645,6.500,6.676,6.788,6.513,6.663,-0.066,0.873,-0.540,-1.282,-0.702,0.458,73.333,19413.000,1.000
6.014,6.069,6.259,6.016,6.195,6.285,6.121,6.158,-0.065,0.873,-0.538,-1.312,-0.702,0.458,73.333,19414.000,1.000
5.292,5.475,5.666,5.400,5.541,5.648,5.559,5.492,-0.065,0.874,-0.540,-1.190,-0.671,0.458,73.333,19415.000,1.000
4.303,4.625,4.761,4.534,4.605,4.773,4.691,4.559,-0.066,0.873,-0.536,-1.160,-0.671,0.397,73.333,19416.000,1.000
3.073,3.515,3.588,3.425,3.419,3.662,3.551,3.387,-0.066,0.875,-0.536,-1.160,-0.610,0.397,73.333,19417.000,1.000
1.724,2.239,2.269,2.164,2.098,2.395,2.269,2.081,-0.068,0.872,-0.534,-1.068,-0.702,0.397,73.333,19418.000,1.000
0.397,0.929,0.934,0.877,0.779,1.082,0.974,0.755,-0.069,0.871,-0.533,-1.038,-0.671,0.458,73.333,19419.000,1.000
-0.811,-0.313,-0.320,-0.337,-0.440,-0.181,-0.249,-0.497,-0.070,0.872,-0.534,-1.099,-0.854,0.366,73.333,19420.000,1.000
-1.810,-1.392,-1.381,-1.372,-1.478,-1.287,-1.309,-1.550,-0.068,0.872,-0.537,-0.916,-0.824,0.336,73.333,19421.000,1.000
-2.534,-2.238,-2.161,-2.147,-2.269,-2.139,-2.119,-2.295,-0.065,0.873,-0.537,-0.854,-0.793,0.336,73.333,19422.000,1.000
-2.980,-2.832,-2.640,-2.652,-2.789,-2.711,-2.645,-2.706,-0.063,0.877,-0.537,-0.824,-0.854,0.427,73.333,19423.000,1.000
-3.173,-3.176,-2.834,-2.905,-3.033,-3.013,-2.890,-2.828,-0.062,0.876,-0.540,-0.916,-0.854,0.397,73.333,19424.000,1.000
-3.135,-3.256,-2.771,-2.926,-3.001,-3.058,-2.881,-2.744,-0.061,0.875,-0.538,-0.885,-0.854,0.488,73.333,19425.000,1.000
-2.822,-3.008,-2.451,-2.681,-2.656,-2.803,-2.610,-2.481,-0.061,0.875,-0.536,-0.916,-0.671,0.488,73.333,19426.000,1.000
-2.186,-2.384,-1.861,-2.122,-1.968,-2.191,-2.047,-1.994,-0.059,0.874,-0.536,-0.885,-0.610,0.519,73.333,19427.000,1.000
-1.269,-1.451,-1.026,-1.270,-1.015,-1.267,-1.206,-1.251,-0.059,0.874,-0.538,-0.916,-0.549,0.519,73.333,19428.000,1.000
-0.222,-0.387,-0.049,-0.251,0.023,-0.193,-0.189,-0.314,-0.061,0.874,-0.534,-0.854,-0.427,0.580,73.333,19429.000,1.000
0.770,0.606,0.895,0.740,0.940,0.821,0.836,0.656,-0.062,0.874,-0.534,-0.854,-0.244,0.641,73.333,19430.000,1.000
1.613,1.425,1.674,1.577,1.652,1.652,1.757,1.520,-0.066,0.873,-0.535,-0.885,-0.214,0.610,73.333,19431.000,1.000
2.290,2.039,2.225,2.213,2.173,2.262,2.499,2.192,-0.065,0.874,-0.535,-0.916,-0.183,0.671,73.333,19432.000,1.000
2.780,2.432,2.527,2.629,2.531,2.636,2.984,2.612,-0.064,0.875,-0.537,-0.946,-0.214,0.610,73.333,19433.000,1.000
3.064,2.627,2.637,2.842,2.762,2.810,3.181,2.794,-0.063,0.874,-0.537,-0.885,-0.061,0.580,73.333,19434.000,1.000
3.164,2.710,2.690,2.923,2.924,2.882,3.164,2.860,-0.066,0.875,-0.537,-0.977,-0.092,0.641,73.333,19435.000,1.000
3.180,2.817,2.839,3.003,3.097,2.992,3.098,2.981,-0.067,0.874,-0.533,-1.038,-0.122,0.641,73.333,19436.000,1.000
3.194,2.998,3.106,3.144,3.287,3.175,3.081,3.202,-0.068,0.873,-0.534,-1.129,-0.092,0.549,73.333,19437.000,1.000
3.152,3.121,3.312,3.228,3.355,3.295,3.034,3.351,-0.070,0.873,-0.535,-1.099,-0.153,0.549,73.333,19438.000,1.000
2.905,2.976,3.208,3.057,3.118,3.151,2.784,3.195,-0.070,0.873,-0.532,-1.099,-0.305,0.397,73.333,19439.000,1.000
2.368,2.445,2.677,2.517,2.489,2.630,2.225,2.632,-0.071,0.872,-0.536,-1.129,-0.397,0.366,73.333,19440.000,1.000
1.630,1.627,1.843,1.697,1.579,1.805,1.429,1.785,-0.071,0.873,-0.538,-1.099,-0.397,0.397,73.333,19441.000,1.000
0.853,0.715,0.938,0.793,0.600,0.849,0.567,0.864,-0.069,0.874,-0.535,-1.099,-0.488,0.275,73.333,19442.000,1.000
0.179,-0.110,0.148,0.004,-0.251,-0.039,-0.180,0.056,-0.068,0.871,-0.535,-1.221,-0.549,0.092,73.333,19443.000,1.000
-0.280,-0.704,-0.421,-0.504,-0.822,-0.677,-0.664,-0.506,-0.068,0.874,-0.535,-1.282,-0.610,0.092,73.333,19444.000,1.000
-0.525,-1.035,-0.791,-0.716,-1.094,-1.015,-0.874,-0.825,-0.069,0.874,-0.537,-1.282,-0.610,0.153,73.333,19445.000,1.000
-0.645,-1.169,-1.037,-0.748,-1.159,-1.118,-0.918,-0.991,-0.067,0.874,-0.537,-1.282,-0.671,0.153,73.333,19446.000,1.000
-0.723,-1.193,-1.201,-0.735,-1.141,-1.090,-0.910,-1.079,-0.067,0.870,-0.536,-1.251,-0.641,0.092,73.333,19447.000,1.000
-0.819,-1.197,-1.320,-0.789,-1.159,-1.054,-0.943,-1.160,-0.066,0.872,-0.536,-1.312,-0.610,0.214,73.333,19448.000,1.000
-1.039,-1.331,-1.517,-1.038,-1.339,-1.193,-1.129,-1.371,-0.064,0.870,-0.536,-1.190,-0.610,0.183,73.333,19449.000,1.000
-1.545,-1.783,-1.986,-1.621,-1.821,-1.706,-1.626,-1.908,-0.064,0.870,-0.540,-1.129,-0.427,0.275,73.333,19450.000,1.000
-2.392,-2.595,-2.804,-2.546,-2.625,-2.625,-2.494,-2.825,-0.064,0.870,-0.538,-1.160,-0.305,0.366,73.333,19451.000,1.000
-3.423,-3.577,-3.818,-3.608,-3.579,-3.737,-3.579,-3.930,-0.065,0.872,-0.537,-1.129,-0.366,0.366,73.333,19452.000,1.000
-4.293,-4.375,-4.667,-4.434,-4.349,-4.639,-4.517,-4.822,-0.065,0.875,-0.536,-1.129,-0.427,0.397,73.333,19453.000,1.000
-4.622,-4.612,-4.949,-4.644,-4.592,-4.923,-4.877,-5.071,-0.066,0.875,-0.537,-1.068,-0.488,0.580,73.333,19454.000,1.000
-4.272,-4.151,-4.515,-4.133,-4.199,-4.459,-4.473,-4.539,-0.067,0.875,-0.540,-1.129,-0.458,0.641,73.333,19455.000,1.000
-3.419,-3.181,-3.564,-3.142,-3.360,-3.466,-3.473,-3.458,-0.068,0.874,-0.541,-1.190,-0.397,0.610,73.333,19456.000,1.000
-2.387,-2.070,-2.455,-2.060,-2.390,-2.323,-2.255,-2.236,-0.071,0.875,-0.536,-1.190,-0.488,0.580,73.333,19457.000,1.000
-1.436,-1.109,-1.444,-1.171,-1.522,-1.317,-1.148,-1.185,-0.069,0.875,-0.536,-1.221,-0.580,0.610,73.333,19458.000,1.000
-0.673,-0.396,-0.597,-0.532,-0.820,-0.530,-0.283,-0.402,-0.069,0.877,-0.536,-1.251,-0.549,0.641,73.333,19459.000,1.000
-0.110,0.080,0.095,-0.080,-0.264,0.061,0.326,0.138,-0.068,0.876,-0.536,-1.343,-0.549,0.610,73.333,19460.000,1.000
0.248,0.347,0.604,0.236,0.151,0.472,0.685,0.459,-0.065,0.875,-0.537,-1.434,-0.519,0.641,73.333,19461.000,1.000
0.303,0.356,0.779,0.334,0.321,0.606,0.711,0.495,-0.059,0.873,-0.537,-1.587,-0.427,0.610,73.333,19462.000,1.000
-0.103,-0.004,0.394,0.011,0.050,0.277,0.230,0.106,-0.057,0.872,-0.537,-1.587,-0.305,0.641,73.333,19463.000,1.000
-1.013,-0.791,-0.645,-0.861,-0.768,-0.601,-0.833,-0.776,-0.056,0.870,-0.540,-1.526,-0.153,0.763,73.333,19464.000,1.000
-2.278,-1.931,-2.178,-2.191,-2.039,-1.916,-2.313,-2.051,-0.057,0.873,-0.538,-1.434,0.061,0.732,73.333,19465.000,1.000
-3.611,-3.215,-3.832,-3.667,-3.480,-3.377,-3.824,-3.442,-0.058,0.875,-0.537,-1.373,0.122,0.824,73.333,19466.000,1.000
-4.756,-4.404,-5.227,-4.944,-4.775,-4.678,-4.997,-4.663,-0.060,0.875,-0.537,-1.495,0.244,0.824,73.333,19467.000,1.000
-5.605,-5.352,-6.166,-5.848,-5.739,-5.650,-5.705,-5.578,-0.060,0.876,-0.537,-1.526,0.366,0.854,73.333,19468.000,1.000
-6.169,-6.013,-6.646,-6.377,-6.327,-6.272,-6.051,-6.193,-0.060,0.876,-0.538,-1.648,0.458,0.885,73.333,19469.000,1.000
-6.452,-6.354,-6.736,-6.566,-6.551,-6.571,-6.170,-6.513,-0.061,0.875,-0.536,-1.678,0.580,0.793,73.333,19470.000,1.000
-6.361,-6.269,-6.432,-6.355,-6.361,-6.485,-6.039,-6.424,-0.064,0.875,-0.538,-1.831,0.580,0.854,73.333,19471.000,1.000
-5.822,-5.701,-5.735,-5.710,-5.734,-5.958,-5.572,-5.830,-0.066,0.876,-0.539,-1.862,0.549,0.793,73.333,19472.000,1.000
-4.915,-4.763,-4.769,-4.765,-4.791,-5.073,-4.795,-4.822,-0.069,0.878,-0.541,-1.770,0.549,0.763,73.333,19473.000,1.000
-3.800,-3.644,-3.691,-3.715,-3.710,-3.988,-3.815,-3.599,-0.075,0.876,-0.540,-1.709,0.336,0.580,73.333,19474.000,1.000
-2.567,-2.449,-2.561,-2.631,-2.572,-2.796,-2.700,-2.304,-0.079,0.880,-0.538,-1.709,0.214,0.549,73.333,19475.000,1.000
-1.178,-1.130,-1.292,-1.411,-1.306,-1.454,-1.421,-0.942,-0.081,0.880,-0.538,-1.740,-0.092,0.305,73.333,19476.000,1.000
0.344,0.321,0.148,-0.007,0.117,0.036,-0.006,0.463,-0.078,0.878,-0.538,-1.709,-0.336,0.214,73.333,19477.000,1.000
1.740,1.681,1.545,1.379,1.487,1.447,1.308,1.705,-0.075,0.878,-0.536,-1.740,-0.458,0.031,73.333,19478.000,1.000
2.599,2.553,2.497,2.356,2.416,2.385,2.143,2.450,-0.074,0.878,-0.537,-1.801,-0.641,-0.061,73.333,19479.000,1.000
2.584,2.581,2.615,2.535,2.537,2.497,2.165,2.412,-0.072,0.877,-0.539,-1.770,-0.763,-0.153,73.333,19480.000,1.000
1.668,1.714,1.801,1.788,1.768,1.709,1.315,1.563,-0.068,0.878,-0.538,-1.862,-0.854,-0.183,73.333,19481.000,1.000
0.123,0.194,0.262,0.297,0.326,0.236,-0.193,0.117,-0.066,0.879,-0.538,-1.953,-0.977,-0.275,73.333,19482.000,1.000
-1.773,-1.724,-1.740,-1.674,-1.552,-1.681,-2.105,-1.715,-0.064,0.879,-0.537,-1.984,-0.977,-0.305,73.333,19483.000,1.000
-3.961,-3.979,-4.107,-4.023,-3.821,-3.975,-4.337,-3.910,-0.065,0.880,-0.536,-1.923,-1.007,-0.275,73.333,19484.000,1.000
-6.519,-6.613,-6.854,-6.776,-6.522,-6.662,-6.933,-6.537,-0.067,0.880,-0.532,-1.892,-1.038,-0.183,73.333,19485.000,1.000
-9.282,-9.400,-9.748,-9.711,-9.415,-9.500,-9.708,-9.388,-0.063,0.878,-0.534,-2.045,-1.099,-0.031,73.333,19486.000,1.000
-11.662,-11.706,-12.140,-12.174,-11.836,-11.860,-12.054,-11.812,-0.063,0.876,-0.536,-2.106,-1.129,-0.092,73.333,19487.000,1.000
-12.955,-12.848,-13.322,-13.428,-13.058,-13.063,-13.262,-13.079,-0.064,0.875,-0.533,-2.106,-1.099,0.061,73.333,19488.000,1.000
-12.887,-12.623,-13.079,-13.227,-12.852,-12.890,-13.081,-12.944,-0.063,0.876,-0.533,-1.984,-1.068,0.122,73.333,19489.000,1.000
-11.835,-11.471,-11.854,-12.011,-11.674,-11.753,-11.920,-11.834,-0.062,0.873,-0.537,-2.045,-0.946,0.183,73.333,19490.000,1.000
-10.423,-10.036,-10.306,-10.453,-10.203,-10.284,-10.416,-10.396,-0.060,0.874,-0.535,-2.106,-0.946,0.275,73.333,19491.000,1.000
-9.011,-8.667,-8.802,-8.927,-8.801,-8.846,-8.923,-8.986,-0.060,0.875,-0.535,-2.014,-0.854,0.366,73.333,19492.000,1.000
-7.544,-7.284,-7.295,-7.368,-7.378,-7.385,-7.380,-7.534,-0.060,0.875,-0.533,-2.167,-0.824,0.427,73.333,19493.000,1.000
-5.731,-5.559,-5.496,-5.480,-5.608,-5.602,-5.519,-5.732,-0.061,0.875,-0.532,-2.045,-0.793,0.549,73.333,19494.000,1.000
-3.402,-3.294,-3.218,-3.108,-3.305,-3.315,-3.198,-3.399,-0.062,0.876,-0.532,-2.106,-0.549,0.549,73.333,19495.000,1.000
-0.723,-0.649,-0.588,-0.436,-0.634,-0.671,-0.575,-0.701,-0.063,0.875,-0.533,-2.075,-0.427,0.549,73.333,19496.000,1.000
1.843,1.904,1.971,2.083,1.934,1.877,1.929,1.895,-0.067,0.873,-0.533,-2.136,-0.397,0.488,73.333,19497.000,1.000
3.829,3.900,4.014,4.010,3.922,3.867,3.893,3.919,-0.065,0.871,-0.532,-2.289,-0.488,0.519,73.333,19498.000,1.000
5.127,5.232,5.418,5.266,5.217,5.194,5.219,5.256,-0.066,0.870,-0.532,-2.228,-0.427,0.488,73.333,19499.000,1.000
5.972,6.121,6.369,6.095,6.058,6.080,6.112,6.115,-0.064,0.871,-0.534,-2.197,-0.488,0.458,73.333,19500.000,1.000
6.657,6.829,7.113,6.782,6.735,6.797,6.818,6.758,-0.064,0.871,-0.531,-2.106,-0.427,0.397,73.333,19501.000,1.000
7.316,7.468,7.757,7.431,7.363,7.458,7.433,7.322,-0.066,0.871,-0.531,-2.167,-0.458,0.305,73.333,19502.000,1.000
7.979,8.063,8.335,8.057,7.964,8.087,7.996,7.882,-0.067,0.870,-0.531,-2.106,-0.397,0.275,73.333,19503.000,1.000
8.750,8.737,8.981,8.783,8.667,8.788,8.659,8.599,-0.065,0.873,-0.531,-2.167,-0.397,0.275,73.333,19504.000,1.000
9.775,9.661,9.890,9.784,9.654,9.707,9.624,9.639,-0.063,0.874,-0.529,-2.014,-0.458,0.244,73.333,19505.000,1.000
11.056,10.856,11.108,11.072,10.930,10.854,10.909,10.972,-0.063,0.874,-0.529,-2.014,-0.427,0.214,73.333,19506.000,1.000
12.293,12.046,12.357,12.332,12.183,11.969,12.203,12.253,-0.062,0.874,-0.529,-2.014,-0.366,0.092,73.333,19507.000,1.000
13.009,12.772,13.140,13.058,12.926,12.628,12.996,12.983,-0.063,0.874,-0.531,-2.045,-0.366,0.092,73.333,19508.000,1.000
12.892,12.713,13.098,12.922,12.844,12.544,12.946,12.868,-0.063,0.872,-0.532,-1.984,-0.275,0.122,73.333,19509.000,1.000
11.986,11.863,12.240,11.972,11.971,11.731,12.082,11.993,-0.063,0.871,-0.532,-1.923,-0.305,0.153,73.333,19510.000,1.000
10.650,10.553,10.929,10.596,10.666,10.512,10.771,10.748,-0.065,0.875,-0.531,-1.862,-0.305,0.092,73.333,19511.000,1.000
9.322,9.231,9.627,9.249,9.370,9.298,9.456,9.549,-0.064,0.876,-0.531,-1.801,-0.214,0.061,73.333,19512.000,1.000
8.238,8.160,8.585,8.169,8.320,8.312,8.384,8.569,-0.065,0.876,-0.535,-1.740,-0.305,0.092,73.333,19513.000,1.000
7.368,7.327,7.771,7.319,7.485,7.514,7.543,7.733,-0.065,0.878,-0.536,-1.678,-0.214,0.122,73.333,19514.000,1.000
6.558,6.572,7.023,6.555,6.719,6.750,6.786,6.902,-0.066,0.878,-0.534,-1.678,-0.122,0.214,73.333,19515.000,1.000
5.793,5.840,6.296,5.869,6.001,6.009,6.073,6.100,-0.066,0.879,-0.532,-1.648,-0.214,0.305,73.333,19516.000,1.000
5.212,5.231,5.691,5.396,5.449,5.435,5.510,5.496,-0.068,0.879,-0.532,-1.740,-0.214,0.336,73.333,19517.000,1.000
4.903,4.820,5.291,5.191,5.129,5.118,5.165,5.171,-0.069,0.880,-0.536,-1.678,-0.244,0.305,73.333,19518.000,1.000
4.837,4.609,5.097,5.171,5.002,5.006,5.014,5.064,-0.067,0.882,-0.536,-1.648,-0.336,0.305,73.333,19519.000,1.000
4.961,4.612,5.107,5.248,5.032,5.040,5.029,5.100,-0.067,0.885,-0.535,-1.678,-0.397,0.275,73.333,19520.000,1.000
5.284,4.899,5.351,5.451,5.253,5.270,5.259,5.291,-0.068,0.884,-0.536,-1.709,-0.458,0.397,73.333,19521.000,1.000
5.782,5.472,5.793,5.819,5.665,5.734,5.705,5.647,-0.068,0.885,-0.539,-1.709,-0.427,0.397,73.333,19522.000,1.000
6.311,6.161,6.280,6.269,6.140,6.313,6.228,6.077,-0.069,0.884,-0.533,-1.770,-0.519,0.397,73.333,19523.000,1.000
6.669,6.708,6.629,6.639,6.492,6.775,6.629,6.434,-0.067,0.882,-0.531,-1.801,-0.610,0.488,73.333,19524.000,1.000
6.698,6.894,6.704,6.771,6.581,6.910,6.760,6.580,-0.068,0.878,-0.531,-1.770,-0.763,0.519,73.333,19525.000,1.000
6.415,6.674,6.487,6.614,6.412,6.680,6.616,6.474,-0.067,0.878,-0.532,-1.740,-0.793,0.519,73.333,19526.000,1.000
5.997,6.186,6.076,6.237,6.109,6.228,6.298,6.179,-0.066,0.879,-0.532,-1.740,-0.793,0.549,73.333,19527.000,1.000
5.663,5.667,5.643,5.801,5.827,5.782,5.948,5.823,-0.066,0.879,-0.535,-1.648,-0.763,0.702,73.333,19528.000,1.000
5.592,5.388,5.402,5.537,5.739,5.585,5.746,5.598,-0.065,0.879,-0.532,-1.648,-0.793,0.702,73.333,19529.000,1.000
5.823,5.498,5.478,5.588,5.924,5.755,5.812,5.635,-0.062,0.879,-0.534,-1.770,-0.763,0.763,73.333,19530.000,1.000
6.194,5.890,5.777,5.876,6.254,6.161,6.079,5.869,-0.064,0.876,-0.531,-1.648,-0.793,0.763,73.333,19531.000,1.000
6.365,6.204,5.987,6.084,6.410,6.432,6.255,6.013,-0.066,0.875,-0.529,-1.678,-0.763,0.641,73.333,19532.000,1.000
5.999,6.026,5.733,5.833,6.065,6.154,5.984,5.717,-0.065,0.872,-0.531,-1.648,-0.732,0.671,73.333,19533.000,1.000
4.972,5.137,4.820,4.925,5.079,5.143,5.077,4.797,-0.064,0.870,-0.532,-1.495,-0.793,0.702,73.333,19534.000,1.000
3.391,3.583,3.298,3.410,3.517,3.498,3.573,3.301,-0.063,0.869,-0.533,-1.373,-0.641,0.702,73.333,19535.000,1.000
1.536,1.642,1.428,1.555,1.611,1.518,1.712,1.471,-0.063,0.871,-0.531,-1.404,-0.671,0.671,73.333,19536.000,1.000
-0.306,-0.326,-0.480,-0.320,-0.343,-0.457,-0.201,-0.391,-0.058,0.872,-0.533,-1.282,-0.702,0.610,73.333,19537.000,1.000
-1.961,-2.066,-2.202,-1.997,-2.117,-2.200,-1.933,-2.065,-0.057,0.874,-0.533,-1.099,-0.610,0.732,73.333,19538.000,1.000
-3.293,-3.412,-3.560,-3.306,-3.520,-3.539,-3.290,-3.375,-0.060,0.874,-0.530,-1.129,-0.519,0.732,73.333,19539.000,1.000
-4.125,-4.222,-4.370,-4.070,-4.354,-4.308,-4.089,-4.152,-0.065,0.872,-0.531,-1.099,-0.458,0.610,73.333,19540.000,1.000
-4.294,-4.376,-4.499,-4.161,-4.468,-4.385,-4.204,-4.275,-0.070,0.872,-0.530,-0.977,-0.366,0.549,73.333,19541.000,1.000
-3.814,-3.911,-3.993,-3.633,-3.917,-3.818,-3.687,-3.794,-0.073,0.872,-0.529,-0.946,-0.549,0.488,73.333,19542.000,1.000
-2.976,-3.117,-3.170,-2.812,-3.036,-2.918,-2.848,-3.015,-0.073,0.873,-0.531,-1.007,-0.549,0.366,73.333,19543.000,1.000
-2.227,-2.414,-2.492,-2.151,-2.298,-2.145,-2.146,-2.375,-0.071,0.872,-0.531,-0.977,-0.610,0.244,73.333,19544.000,1.000
-1.978,-2.180,-2.358,-2.031,-2.098,-1.918,-1.997,-2.253,-0.071,0.873,-0.531,-0.916,-0.702,0.183,73.333,19545.000,1.000
-2.454,-2.620,-2.948,-2.626,-2.620,-2.445,-2.599,-2.820,-0.068,0.874,-0.531,-0.977,-0.854,0.183,73.333,19546.000,1.000
-3.628,-3.726,-4.179,-3.874,-3.800,-3.667,-3.882,-4.007,-0.067,0.872,-0.530,-0.885,-0.824,0.092,73.333,19547.000,1.000
-5.206,-5.249,-5.741,-5.482,-5.348,-5.276,-5.528,-5.528,-0.067,0.872,-0.533,-0.824,-0.885,0.061,73.333,19548.000,1.000
-6.766,-6.806,-7.233,-7.053,-6.875,-6.865,-7.117,-7.013,-0.065,0.871,-0.531,-0.732,-0.977,0.061,73.333,19549.000,1.000
-8.091,-8.180,-8.486,-8.388,-8.190,-8.238,-8.445,-8.293,-0.065,0.877,-0.532,-0.671,-0.793,-0.061,73.333,19550.000,1.000
-9.248,-9.402,-9.599,-9.546,-9.355,-9.459,-9.582,-9.434,-0.063,0.878,-0.532,-0.763,-0.824,0.031,73.333,19551.000,1.000
-10.394,-10.584,-10.709,-10.654,-10.506,-10.654,-10.677,-10.550,-0.063,0.880,-0.532,-0.763,-0.732,0.092,73.333,19552.000,1.000
-11.657,-11.830,-11.912,-11.837,-11.772,-11.923,-11.866,-11.748,-0.064,0.879,-0.534,-0.732,-0.641,0.092,73.333,19553.000,1.000
-13.177,-13.282,-13.339,-13.270,-13.295,-13.389,-13.304,-13.182,-0.065,0.880,-0.533,-0.671,-0.671,0.183,73.333,19554.000,1.000
-15.085,-15.106,-15.156,-15.139,-15.215,-15.191,-15.140,-15.026,-0.067,0.880,-0.534,-0.763,-0.702,0.244,73.333,19555.000,1.000
-17.286,-17.263,-17.303,-17.389,-17.448,-17.282,-17.291,-17.223,-0.068,0.880,-0.531,-0.854,-0.671,0.275,73.333,19556.000,1.000
-19.346,-19.349,-19.345,-19.567,-19.557,-19.281,-19.326,-19.348,-0.069,0.879,-0.531,-0.793,-0.671,0.275,73.333,19557.000,1.000
-20.705,-20.778,-20.685,-21.040,-20.948,-20.636,-20.671,-20.802,-0.070,0.878,-0.532,-0.793,-0.671,0.183,73.333,19558.000,1.000
-20.999,-21.153,-20.950,-21.380,-21.240,-20.959,-20.960,-21.175,-0.069,0.878,-0.532,-0.824,-0.732,0.183,73.333,19559.000,1.000
-20.279,-20.517,-20.221,-20.636,-20.509,-20.290,-20.253,-20.502,-0.071,0.879,-0.530,-0.916,-0.793,0.275,73.333,19560.000,1.000
-18.879,-19.194,-18.843,-19.169,-19.111,-18.948,-18.882,-19.115,-0.071,0.879,-0.529,-0.946,-0.977,0.275,73.333,19561.000,1.000
-17.112,-17.460,-17.097,-17.293,-17.331,-17.209,-17.119,-17.301,-0.071,0.879,-0.530,-0.977,-1.038,0.214,73.333,19562.000,1.000
-15.103,-15.373,-15.060,-15.105,-15.237,-15.153,-15.024,-15.150,-0.072,0.878,-0.531,-1.038,-1.099,0.305,73.333,19563.000,1.000
-12.753,-12.816,-12.627,-12.507,-12.730,-12.681,-12.489,-12.571,-0.071,0.878,-0.531,-1.038,-1.099,0.366,73.333,19564.000,1.000
-9.885,-9.667,-9.652,-9.391,-9.698,-9.666,-9.402,-9.451,-0.067,0.878,-0.532,-1.007,-1.160,0.458,73.333,19565.000,1.000
-6.410,-5.962,-6.097,-5.769,-6.134,-6.104,-5.786,-5.797,-0.065,0.878,-0.533,-0.977,-1.129,0.610,73.333,19566.000,1.000
-2.454,-1.939,-2.129,-1.832,-2.201,-2.188,-1.852,-1.812,-0.065,0.877,-0.533,-1.129,-1.190,0.732,73.333,19567.000,1.000
1.603,1.984,1.849,2.043,1.742,1.700,2.013,2.104,-0.065,0.877,-0.531,-1.038,-1.251,0.824,73.333,19568.000,1.000
5.265,5.377,5.354,5.416,5.255,5.132,5.377,5.489,-0.067,0.878,-0.531,-1.068,-1.343,0.854,73.333,19569.000,1.000
8.135,7.973,8.037,7.983,8.008,7.814,7.946,8.041,-0.067,0.876,-0.532,-1.007,-1.495,0.854,73.333,19570.000,1.000
10.081,9.750,9.832,9.716,9.922,9.689,9.690,9.755,-0.070,0.875,-0.533,-1.007,-1.343,0.824,73.333,19571.000,1.000
11.160,10.802,10.857,10.745,11.064,10.825,10.735,10.784,-0.068,0.876,-0.535,-1.007,-1.312,0.732,73.333,19572.000,1.000
11.472,11.201,11.238,11.176,11.492,11.272,11.174,11.229,-0.067,0.877,-0.534,-0.977,-1.343,0.763,73.333,19573.000,1.000
11.201,11.076,11.125,11.121,11.315,11.148,11.116,11.181,-0.068,0.875,-0.534,-0.916,-1.495,0.763,73.333,19574.000,1.000
10.673,10.700,10.761,10.794,10.811,10.736,10.774,10.840,-0.069,0.875,-0.532,-0.885,-1.587,0.702,73.333,19575.000,1.000
