EEG 1,EEG 2,EEG 3,EEG 4,EEG 5,EEG 6,EEG 7,EEG 8,Accelerometer X,Accelerometer Y,Accelerometer Z,Gyroscope X,Gyroscope Y,Gyroscope Z,Battery Level,Counter,Validation Indicator
-3.678,-3.677,-3.393,-3.701,-3.541,-3.446,-3.756,-3.530,-0.073,0.854,-0.558,-0.092,-1.282,0.549,73.333,9033.000,1.000
-3.624,-3.730,-3.306,-3.700,-3.541,-3.416,-3.818,-3.582,-0.072,0.853,-0.555,-0.031,-1.099,0.549,73.333,9034.000,1.000
-3.505,-3.729,-3.212,-3.617,-3.473,-3.392,-3.800,-3.584,-0.072,0.856,-0.555,0.061,-1.129,0.671,73.333,9035.000,1.000
-3.335,-3.666,-3.131,-3.459,-3.372,-3.375,-3.719,-3.531,-0.074,0.856,-0.554,0.061,-0.977,0.458,73.333,9036.000,1.000
-3.367,-3.763,-3.300,-3.479,-3.499,-3.559,-3.803,-3.648,-0.077,0.856,-0.554,0.122,-0.977,0.427,73.333,9037.000,1.000
-3.952,-4.354,-4.033,-4.040,-4.192,-4.228,-4.376,-4.261,-0.082,0.857,-0.557,0.061,-0.946,0.275,73.333,9038.000,1.000
-5.257,-5.615,-5.460,-5.328,-5.604,-5.522,-5.609,-5.537,-0.082,0.858,-0.557,0.214,-0.946,0.092,73.333,9039.000,1.000
-6.951,-7.237,-7.241,-7.031,-7.387,-7.144,-7.223,-7.171,-0.085,0.860,-0.556,0.092,-1.007,-0.092,73.333,9040.000,1.000
-8.165,-8.384,-8.519,-8.286,-8.649,-8.296,-8.393,-8.322,-0.083,0.860,-0.558,0.153,-1.190,-0.183,73.333,9041.000,1.000
-7.853,-8.036,-8.258,-8.035,-8.323,-7.988,-8.087,-7.958,-0.080,0.862,-0.556,0.153,-1.160,-0.336,73.333,9042.000,1.000
-5.491,-5.673,-5.927,-5.722,-5.880,-5.690,-5.750,-5.556,-0.078,0.862,-0.556,0.183,-1.221,-0.366,73.333,9043.000,1.000
-1.592,-1.797,-2.023,-1.827,-1.853,-1.860,-1.854,-1.621,-0.073,0.861,-0.557,0.122,-1.160,-0.519,73.333,9044.000,1.000
2.360,2.125,1.977,2.180,2.245,2.074,2.146,2.378,-0.074,0.862,-0.554,0.092,-1.068,-0.488,73.333,9045.000,1.000
4.604,4.337,4.307,4.507,4.620,4.368,4.489,4.681,-0.075,0.862,-0.555,-0.031,-1.007,-0.519,73.333,9046.000,1.000
4.166,3.873,3.992,4.148,4.275,4.032,4.176,4.305,-0.075,0.863,-0.558,-0.031,-0.885,-0.458,73.333,9047.000,1.000
1.533,1.242,1.511,1.570,1.685,1.520,1.641,1.733,-0.076,0.862,-0.560,-0.092,-0.763,-0.488,73.333,9048.000,1.000
-1.580,-1.841,-1.467,-1.530,-1.442,-1.494,-1.480,-1.337,-0.077,0.860,-0.558,-0.275,-0.763,-0.427,73.333,9049.000,1.000
-3.261,-3.481,-3.086,-3.244,-3.185,-3.118,-3.302,-3.019,-0.079,0.860,-0.559,-0.183,-0.641,-0.397,73.333,9050.000,1.000
-2.505,-2.683,-2.361,-2.551,-2.505,-2.338,-2.758,-2.328,-0.080,0.860,-0.557,-0.183,-0.702,-0.305,73.333,9051.000,1.000
0.413,0.277,0.459,0.290,0.362,0.587,-0.026,0.460,-0.081,0.859,-0.556,-0.214,-0.763,-0.336,73.333,9052.000,1.000
4.233,4.142,4.168,4.037,4.182,4.408,3.710,4.110,-0.083,0.861,-0.557,-0.214,-0.702,-0.336,73.333,9053.000,1.000
7.336,7.284,7.199,7.097,7.343,7.509,6.851,7.055,-0.081,0.863,-0.558,-0.244,-0.824,-0.366,73.333,9054.000,1.000
8.475,8.441,8.327,8.244,8.567,8.629,8.105,8.106,-0.081,0.862,-0.556,-0.305,-0.671,-0.214,73.333,9055.000,1.000
7.374,7.334,7.260,7.215,7.527,7.460,7.129,7.037,-0.079,0.862,-0.556,-0.336,-0.641,-0.092,73.333,9056.000,1.000
4.915,4.842,4.838,4.877,5.046,4.868,4.748,4.717,-0.080,0.861,-0.555,-0.397,-0.580,0.031,73.333,9057.000,1.000
2.527,2.397,2.449,2.620,2.528,2.311,2.377,2.503,-0.080,0.861,-0.560,-0.488,-0.610,0.122,73.333,9058.000,1.000
1.233,1.031,1.098,1.414,1.026,0.866,1.061,1.335,-0.079,0.861,-0.559,-0.580,-0.641,0.122,73.333,9059.000,1.000
1.161,0.904,0.927,1.361,0.754,0.712,0.981,1.308,-0.079,0.862,-0.558,-0.488,-0.671,0.214,73.333,9060.000,1.000
1.787,1.524,1.457,1.943,1.278,1.354,1.656,1.916,-0.079,0.863,-0.557,-0.519,-0.610,0.366,73.333,9061.000,1.000
2.524,2.319,2.144,2.614,2.041,2.199,2.512,2.613,-0.078,0.862,-0.555,-0.519,-0.702,0.427,73.333,9062.000,1.000
3.034,2.922,2.669,3.074,2.663,2.851,3.180,3.084,-0.081,0.861,-0.559,-0.458,-0.610,0.549,73.333,9063.000,1.000
3.194,3.159,2.903,3.225,2.959,3.113,3.478,3.208,-0.079,0.862,-0.560,-0.549,-0.580,0.519,73.333,9064.000,1.000
2.975,2.963,2.800,3.052,2.857,2.914,3.319,2.959,-0.079,0.861,-0.559,-0.641,-0.671,0.610,73.333,9065.000,1.000
2.397,2.343,2.356,2.560,2.350,2.283,2.695,2.361,-0.079,0.862,-0.560,-0.671,-0.549,0.702,73.333,9066.000,1.000
1.605,1.452,1.673,1.838,1.564,1.383,1.761,1.542,-0.079,0.859,-0.555,-0.641,-0.488,0.702,73.333,9067.000,1.000
0.806,0.532,0.925,1.039,0.716,0.452,0.775,0.693,-0.077,0.859,-0.556,-0.671,-0.519,0.702,73.333,9068.000,1.000
0.125,-0.235,0.251,0.300,-0.023,-0.327,-0.062,-0.051,-0.077,0.859,-0.558,-0.732,-0.488,0.824,73.333,9069.000,1.000
-0.463,-0.819,-0.326,-0.344,-0.618,-0.904,-0.701,-0.667,-0.077,0.858,-0.559,-0.732,-0.580,0.793,73.333,9070.000,1.000
-1.080,-1.342,-0.903,-0.981,-1.172,-1.384,-1.257,-1.253,-0.078,0.855,-0.557,-0.702,-0.549,0.763,73.333,9071.000,1.000
-1.800,-1.912,-1.580,-1.688,-1.786,-1.883,-1.860,-1.899,-0.078,0.854,-0.556,-0.702,-0.519,0.824,73.333,9072.000,1.000
-2.599,-2.550,-2.385,-2.466,-2.485,-2.455,-2.560,-2.619,-0.078,0.855,-0.556,-0.671,-0.397,0.763,73.333,9073.000,1.000
-3.401,-3.223,-3.271,-3.266,-3.231,-3.094,-3.326,-3.369,-0.077,0.857,-0.555,-0.671,-0.397,0.763,73.333,9074.000,1.000
-4.130,-3.890,-4.146,-4.022,-3.958,-3.763,-4.081,-4.082,-0.078,0.855,-0.559,-0.641,-0.458,0.732,73.333,9075.000,1.000
-4.771,-4.543,-4.939,-4.710,-4.643,-4.444,-4.781,-4.734,-0.080,0.856,-0.557,-0.641,-0.549,0.671,73.333,9076.000,1.000
-5.316,-5.146,-5.578,-5.305,-5.255,-5.088,-5.375,-5.310,-0.080,0.854,-0.558,-0.580,-0.488,0.580,73.333,9077.000,1.000
-5.705,-5.601,-5.981,-5.756,-5.713,-5.585,-5.779,-5.752,-0.078,0.855,-0.555,-0.458,-0.549,0.549,73.333,9078.000,1.000
-5.857,-5.801,-6.090,-5.996,-5.922,-5.817,-5.914,-5.981,-0.077,0.855,-0.557,-0.427,-0.641,0.549,73.333,9079.000,1.000
-5.748,-5.726,-5.929,-5.990,-5.852,-5.756,-5.773,-5.950,-0.076,0.854,-0.556,-0.427,-0.580,0.427,73.333,9080.000,1.000
-5.490,-5.505,-5.639,-5.810,-5.620,-5.539,-5.491,-5.737,-0.077,0.855,-0.557,-0.427,-0.458,0.397,73.333,9081.000,1.000
-5.245,-5.291,-5.373,-5.569,-5.384,-5.334,-5.239,-5.469,-0.079,0.856,-0.558,-0.336,-0.488,0.336,73.333,9082.000,1.000
-5.071,-5.122,-5.162,-5.315,-5.189,-5.180,-5.071,-5.201,-0.077,0.857,-0.556,-0.244,-0.549,0.427,73.333,9083.000,1.000
-4.868,-4.895,-4.888,-4.975,-4.932,-4.956,-4.866,-4.865,-0.078,0.858,-0.557,-0.397,-0.519,0.427,73.333,9084.000,1.000
-4.503,-4.476,-4.402,-4.462,-4.488,-4.525,-4.453,-4.368,-0.078,0.859,-0.555,-0.336,-0.580,0.305,73.333,9085.000,1.000
-3.961,-3.859,-3.697,-3.811,-3.859,-3.892,-3.805,-3.733,-0.077,0.860,-0.558,-0.397,-0.458,0.214,73.333,9086.000,1.000
-3.297,-3.129,-2.874,-3.117,-3.127,-3.135,-3.012,-3.034,-0.077,0.860,-0.558,-0.397,-0.519,0.305,73.333,9087.000,1.000
-2.575,-2.387,-2.047,-2.442,-2.379,-2.341,-2.207,-2.329,-0.078,0.861,-0.558,-0.488,-0.549,0.336,73.333,9088.000,1.000
-1.864,-1.711,-1.311,-1.805,-1.688,-1.597,-1.503,-1.661,-0.078,0.862,-0.558,-0.549,-0.610,0.275,73.333,9089.000,1.000
-1.224,-1.122,-0.720,-1.206,-1.095,-0.968,-0.948,-1.062,-0.082,0.863,-0.555,-0.488,-0.580,0.336,73.333,9090.000,1.000
-0.702,-0.626,-0.297,-0.674,-0.634,-0.501,-0.540,-0.566,-0.081,0.864,-0.556,-0.488,-0.488,0.336,73.333,9091.000,1.000
-0.308,-0.217,-0.004,-0.241,-0.317,-0.195,-0.237,-0.173,-0.080,0.862,-0.557,-0.671,-0.519,0.214,73.333,9092.000,1.000
-0.038,0.098,0.206,0.068,-0.130,-0.013,-0.009,0.136,-0.082,0.862,-0.559,-0.671,-0.580,0.244,73.333,9093.000,1.000
0.113,0.294,0.338,0.234,-0.048,0.088,0.143,0.352,-0.081,0.861,-0.556,-0.793,-0.610,0.214,73.333,9094.000,1.000
0.170,0.357,0.365,0.267,-0.029,0.156,0.208,0.448,-0.082,0.862,-0.560,-0.977,-0.671,0.244,73.333,9095.000,1.000
0.170,0.292,0.276,0.204,-0.039,0.217,0.174,0.408,-0.083,0.863,-0.560,-0.977,-0.702,0.122,73.333,9096.000,1.000
0.129,0.132,0.077,0.083,-0.063,0.256,0.036,0.236,-0.084,0.863,-0.560,-1.007,-0.732,0.183,73.333,9097.000,1.000
-0.012,-0.136,-0.262,-0.142,-0.168,0.168,-0.234,-0.090,-0.083,0.862,-0.560,-1.129,-0.702,0.153,73.333,9098.000,1.000
-0.305,-0.520,-0.736,-0.525,-0.418,-0.125,-0.629,-0.561,-0.081,0.861,-0.557,-1.129,-0.763,0.183,73.333,9099.000,1.000
-0.661,-0.900,-1.197,-0.970,-0.734,-0.519,-1.003,-1.039,-0.082,0.858,-0.558,-1.129,-0.763,0.244,73.333,9100.000,1.000
-0.910,-1.094,-1.441,-1.266,-0.943,-0.806,-1.173,-1.331,-0.080,0.859,-0.560,-1.221,-0.824,0.244,73.333,9101.000,1.000
-0.881,-0.944,-1.300,-1.191,-0.868,-0.787,-0.996,-1.261,-0.081,0.859,-0.557,-1.190,-0.793,0.275,73.333,9102.000,1.000
-0.465,-0.393,-0.711,-0.631,-0.411,-0.361,-0.425,-0.736,-0.080,0.860,-0.555,-1.221,-0.793,0.214,73.333,9103.000,1.000
0.316,0.496,0.252,0.343,0.395,0.430,0.461,0.176,-0.078,0.861,-0.553,-1.312,-0.885,0.244,73.333,9104.000,1.000
1.296,1.545,1.362,1.473,1.382,1.403,1.459,1.243,-0.078,0.862,-0.556,-1.404,-0.854,0.305,73.333,9105.000,1.000
2.166,2.453,2.264,2.385,2.259,2.247,2.262,2.121,-0.078,0.860,-0.555,-1.434,-0.671,0.397,73.333,9106.000,1.000
2.577,2.878,2.616,2.736,2.703,2.629,2.577,2.491,-0.078,0.861,-0.552,-1.495,-0.763,0.336,73.333,9107.000,1.000
2.273,2.563,2.218,2.331,2.460,2.312,2.220,2.151,-0.076,0.859,-0.556,-1.404,-0.702,0.397,73.333,9108.000,1.000
1.257,1.525,1.142,1.244,1.506,1.305,1.236,1.145,-0.077,0.859,-0.558,-1.343,-0.641,0.549,73.333,9109.000,1.000
-0.101,0.162,-0.195,-0.108,0.186,-0.020,-0.005,-0.139,-0.079,0.857,-0.555,-1.495,-0.519,0.702,73.333,9110.000,1.000
-1.229,-0.934,-1.213,-1.157,-0.921,-1.095,-0.975,-1.143,-0.079,0.858,-0.557,-1.465,-0.488,0.610,73.333,9111.000,1.000
-1.670,-1.323,-1.494,-1.496,-1.345,-1.483,-1.277,-1.460,-0.079,0.860,-0.554,-1.465,-0.488,0.671,73.333,9112.000,1.000
-1.372,-0.995,-1.063,-1.130,-1.046,-1.171,-0.907,-1.088,-0.077,0.860,-0.558,-1.434,-0.336,0.671,73.333,9113.000,1.000
-0.690,-0.333,-0.335,-0.435,-0.391,-0.541,-0.235,-0.400,-0.079,0.860,-0.557,-1.526,-0.336,0.610,73.333,9114.000,1.000
-0.091,0.193,0.216,0.132,0.158,-0.043,0.290,0.151,-0.077,0.860,-0.556,-1.495,-0.214,0.702,73.333,9115.000,1.000
0.119,0.296,0.329,0.289,0.321,0.057,0.396,0.294,-0.076,0.859,-0.556,-1.556,-0.183,0.702,73.333,9116.000,1.000
-0.088,-0.007,0.036,0.042,0.107,-0.225,0.109,0.040,-0.077,0.861,-0.557,-1.526,-0.153,0.702,73.333,9117.000,1.000
-0.559,-0.514,-0.468,-0.415,-0.305,-0.713,-0.367,-0.432,-0.077,0.859,-0.556,-1.526,-0.092,0.671,73.333,9118.000,1.000
-1.075,-0.983,-0.970,-0.854,-0.717,-1.196,-0.803,-0.902,-0.076,0.861,-0.558,-1.465,-0.092,0.793,73.333,9119.000,1.000
-1.414,-1.233,-1.289,-1.104,-0.980,-1.494,-1.026,-1.187,-0.076,0.860,-0.556,-1.495,-0.061,0.610,73.333,9120.000,1.000
-1.426,-1.201,-1.327,-1.107,-1.038,-1.513,-0.980,-1.202,-0.076,0.859,-0.555,-1.495,0.000,0.610,73.333,9121.000,1.000
-1.082,-0.914,-1.067,-0.876,-0.886,-1.233,-0.700,-0.960,-0.075,0.861,-0.556,-1.556,0.092,0.610,73.333,9122.000,1.000
-0.513,-0.489,-0.599,-0.493,-0.583,-0.732,-0.315,-0.570,-0.076,0.861,-0.553,-1.526,0.061,0.641,73.333,9123.000,1.000
0.040,-0.112,-0.098,-0.113,-0.249,-0.196,0.001,-0.193,-0.077,0.863,-0.556,-1.526,0.092,0.732,73.333,9124.000,1.000
0.389,0.085,0.259,0.124,0.002,0.192,0.137,0.059,-0.077,0.860,-0.561,-1.495,0.214,0.763,73.333,9125.000,1.000
0.485,0.094,0.387,0.168,0.122,0.358,0.102,0.164,-0.077,0.862,-0.558,-1.495,0.214,0.610,73.333,9126.000,1.000
0.418,0.034,0.342,0.099,0.163,0.379,0.020,0.185,-0.075,0.861,-0.557,-1.587,0.336,0.702,73.333,9127.000,1.000
0.296,0.011,0.221,0.016,0.184,0.352,-0.016,0.177,-0.076,0.858,-0.557,-1.556,0.366,0.671,73.333,9128.000,1.000
0.133,-0.005,0.049,-0.087,0.136,0.269,-0.062,0.105,-0.076,0.859,-0.557,-1.526,0.366,0.641,73.333,9129.000,1.000
-0.183,-0.172,-0.248,-0.331,-0.118,0.008,-0.281,-0.149,-0.076,0.857,-0.559,-1.312,0.427,0.732,73.333,9130.000,1.000
-0.787,-0.666,-0.787,-0.867,-0.703,-0.565,-0.824,-0.706,-0.075,0.857,-0.561,-1.190,0.427,0.641,73.333,9131.000,1.000
-1.603,-1.445,-1.504,-1.628,-1.523,-1.374,-1.615,-1.487,-0.075,0.858,-0.561,-1.038,0.458,0.671,73.333,9132.000,1.000
-2.317,-2.201,-2.119,-2.304,-2.255,-2.113,-2.333,-2.178,-0.075,0.858,-0.560,-1.007,0.458,0.671,73.333,9133.000,1.000
-2.609,-2.585,-2.351,-2.572,-2.576,-2.464,-2.646,-2.452,-0.077,0.859,-0.560,-1.007,0.549,0.732,73.333,9134.000,1.000
-2.359,-2.423,-2.101,-2.307,-2.359,-2.290,-2.415,-2.173,-0.079,0.859,-0.559,-1.038,0.519,0.702,73.333,9135.000,1.000
-1.656,-1.767,-1.454,-1.592,-1.680,-1.660,-1.715,-1.425,-0.078,0.861,-0.557,-1.099,0.580,0.732,73.333,9136.000,1.000
-0.605,-0.716,-0.482,-0.518,-0.626,-0.657,-0.648,-0.318,-0.077,0.863,-0.559,-1.007,0.610,0.702,73.333,9137.000,1.000
0.784,0.698,0.843,0.899,0.798,0.722,0.762,1.120,-0.077,0.861,-0.557,-1.038,0.519,0.671,73.333,9138.000,1.000
2.532,2.471,2.558,2.654,2.591,2.488,2.511,2.873,-0.078,0.862,-0.553,-1.038,0.519,0.610,73.333,9139.000,1.000
4.531,4.480,4.540,4.619,4.611,4.509,4.483,4.804,-0.075,0.861,-0.555,-1.038,0.641,0.671,73.333,9140.000,1.000
6.377,6.309,6.362,6.394,6.426,6.357,6.284,6.519,-0.078,0.861,-0.553,-1.160,0.549,0.549,73.333,9141.000,1.000
7.503,7.389,7.445,7.439,7.462,7.454,7.367,7.495,-0.077,0.859,-0.554,-1.160,0.519,0.580,73.333,9142.000,1.000
7.543,7.374,7.422,7.415,7.377,7.447,7.377,7.419,-0.074,0.859,-0.554,-1.129,0.519,0.610,73.333,9143.000,1.000
6.648,6.463,6.469,6.507,6.376,6.518,6.476,6.475,-0.076,0.857,-0.556,-1.099,0.458,0.610,73.333,9144.000,1.000
5.462,5.328,5.270,5.381,5.151,5.341,5.324,5.321,-0.077,0.856,-0.554,-1.099,0.397,0.610,73.333,9145.000,1.000
4.701,4.658,4.562,4.734,4.423,4.633,4.640,4.646,-0.078,0.857,-0.554,-1.038,0.305,0.580,73.333,9146.000,1.000
4.733,4.768,4.694,4.880,4.525,4.737,4.777,4.764,-0.078,0.856,-0.555,-0.916,0.305,0.519,73.333,9147.000,1.000
5.411,5.464,5.465,5.602,5.257,5.452,5.549,5.463,-0.078,0.857,-0.552,-0.946,0.183,0.488,73.333,9148.000,1.000
6.190,6.191,6.277,6.303,6.044,6.183,6.367,6.169,-0.079,0.855,-0.553,-0.885,0.214,0.519,73.333,9149.000,1.000
6.460,6.369,6.510,6.401,6.278,6.310,6.605,6.298,-0.077,0.855,-0.551,-0.763,0.244,0.519,73.333,9150.000,1.000
5.887,5.714,5.856,5.656,5.656,5.553,5.958,5.583,-0.076,0.855,-0.549,-0.793,0.244,0.427,73.333,9151.000,1.000
4.621,4.420,4.500,4.296,4.361,4.146,4.606,4.227,-0.077,0.854,-0.554,-0.793,0.214,0.427,73.333,9152.000,1.000
3.126,2.959,2.927,2.792,2.880,2.618,3.028,2.718,-0.077,0.855,-0.556,-0.732,0.092,0.458,73.333,9153.000,1.000
1.851,1.742,1.591,1.547,1.658,1.427,1.683,1.492,-0.077,0.856,-0.557,-0.671,0.153,0.519,73.333,9154.000,1.000
1.042,0.954,0.744,0.768,0.914,0.772,0.838,0.758,-0.078,0.856,-0.557,-0.580,0.092,0.458,73.333,9155.000,1.000
0.721,0.586,0.409,0.462,0.635,0.595,0.536,0.485,-0.079,0.859,-0.554,-0.549,0.031,0.366,73.333,9156.000,1.000
0.782,0.567,0.484,0.538,0.713,0.741,0.684,0.550,-0.079,0.858,-0.556,-0.519,-0.092,0.458,73.333,9157.000,1.000
1.077,0.808,0.811,0.862,1.027,1.061,1.115,0.823,-0.077,0.860,-0.556,-0.458,-0.092,0.549,73.333,9158.000,1.000
1.440,1.177,1.198,1.256,1.427,1.413,1.605,1.168,-0.078,0.859,-0.554,-0.458,-0.061,0.519,73.333,9159.000,1.000
1.670,1.475,1.441,1.505,1.700,1.620,1.893,1.408,-0.079,0.859,-0.556,-0.458,-0.153,0.549,73.333,9160.000,1.000
1.572,1.491,1.372,1.415,1.630,1.505,1.756,1.363,-0.078,0.859,-0.557,-0.519,-0.305,0.458,73.333,9161.000,1.000
1.112,1.164,0.987,0.961,1.183,1.050,1.179,1.008,-0.077,0.860,-0.558,-0.580,-0.366,0.397,73.333,9162.000,1.000
0.416,0.587,0.411,0.283,0.500,0.393,0.350,0.450,-0.080,0.862,-0.559,-0.641,-0.336,0.366,73.333,9163.000,1.000
-0.351,-0.095,-0.216,-0.428,-0.223,-0.288,-0.480,-0.184,-0.079,0.861,-0.557,-0.610,-0.397,0.397,73.333,9164.000,1.000
-1.029,-0.721,-0.770,-0.984,-0.812,-0.831,-1.092,-0.768,-0.078,0.860,-0.559,-0.549,-0.366,0.488,73.333,9165.000,1.000
-1.496,-1.164,-1.170,-1.286,-1.178,-1.151,-1.393,-1.200,-0.077,0.861,-0.559,-0.549,-0.458,0.549,73.333,9166.000,1.000
-1.683,-1.373,-1.383,-1.340,-1.330,-1.255,-1.407,-1.421,-0.079,0.859,-0.560,-0.488,-0.366,0.549,73.333,9167.000,1.000
-1.644,-1.410,-1.452,-1.254,-1.371,-1.247,-1.269,-1.463,-0.078,0.859,-0.558,-0.610,-0.549,0.488,73.333,9168.000,1.000
-1.549,-1.424,-1.479,-1.194,-1.439,-1.274,-1.182,-1.452,-0.077,0.860,-0.557,-0.610,-0.488,0.488,73.333,9169.000,1.000
-1.563,-1.546,-1.560,-1.283,-1.613,-1.427,-1.303,-1.518,-0.076,0.860,-0.559,-0.549,-0.580,0.488,73.333,9170.000,1.000
-1.751,-1.808,-1.743,-1.557,-1.896,-1.715,-1.661,-1.727,-0.075,0.858,-0.557,-0.580,-0.641,0.519,73.333,9171.000,1.000
-2.044,-2.121,-1.995,-1.934,-2.209,-2.063,-2.138,-2.022,-0.076,0.860,-0.561,-0.580,-0.519,0.519,73.333,9172.000,1.000
-2.345,-2.384,-2.270,-2.307,-2.492,-2.392,-2.592,-2.310,-0.076,0.859,-0.559,-0.671,-0.610,0.580,73.333,9173.000,1.000
-2.584,-2.566,-2.542,-2.606,-2.738,-2.650,-2.934,-2.526,-0.078,0.861,-0.557,-0.671,-0.641,0.519,73.333,9174.000,1.000
-2.692,-2.650,-2.749,-2.776,-2.920,-2.775,-3.101,-2.609,-0.079,0.859,-0.557,-0.763,-0.610,0.488,73.333,9175.000,1.000
-2.662,-2.639,-2.847,-2.814,-3.008,-2.761,-3.092,-2.559,-0.077,0.859,-0.559,-0.763,-0.519,0.549,73.333,9176.000,1.000
-2.541,-2.540,-2.808,-2.748,-2.962,-2.641,-2.938,-2.416,-0.076,0.859,-0.558,-0.732,-0.641,0.488,73.333,9177.000,1.000
-2.370,-2.363,-2.620,-2.598,-2.760,-2.456,-2.664,-2.217,-0.075,0.860,-0.560,-0.702,-0.671,0.488,73.333,9178.000,1.000
-2.203,-2.170,-2.351,-2.424,-2.465,-2.283,-2.346,-2.035,-0.077,0.859,-0.558,-0.763,-0.671,0.519,73.333,9179.000,1.000
-2.148,-2.105,-2.182,-2.361,-2.256,-2.251,-2.156,-2.010,-0.076,0.859,-0.557,-0.732,-0.732,0.610,73.333,9180.000,1.000
-2.305,-2.285,-2.280,-2.516,-2.293,-2.455,-2.259,-2.231,-0.076,0.859,-0.561,-0.641,-0.702,0.671,73.333,9181.000,1.000
-2.584,-2.593,-2.553,-2.761,-2.496,-2.765,-2.575,-2.555,-0.079,0.860,-0.559,-0.732,-0.671,0.549,73.333,9182.000,1.000
-2.755,-2.754,-2.732,-2.829,-2.619,-2.919,-2.831,-2.716,-0.079,0.860,-0.558,-0.854,-0.671,0.458,73.333,9183.000,1.000
-2.730,-2.668,-2.696,-2.633,-2.563,-2.828,-2.885,-2.637,-0.080,0.860,-0.558,-0.824,-0.732,0.519,73.333,9184.000,1.000
-2.673,-2.539,-2.611,-2.399,-2.504,-2.686,-2.871,-2.528,-0.079,0.860,-0.556,-0.763,-0.732,0.488,73.333,9185.000,1.000
-2.801,-2.634,-2.711,-2.422,-2.658,-2.737,-2.999,-2.644,-0.076,0.860,-0.561,-0.854,-0.732,0.458,73.333,9186.000,1.000
-3.033,-2.897,-2.940,-2.670,-2.940,-2.929,-3.194,-2.923,-0.078,0.860,-0.557,-0.916,-0.763,0.458,73.333,9187.000,1.000
-3.041,-2.973,-2.972,-2.795,-3.007,-2.944,-3.134,-3.014,-0.078,0.857,-0.560,-0.824,-0.641,0.458,73.333,9188.000,1.000
-2.667,-2.646,-2.610,-2.559,-2.670,-2.589,-2.660,-2.712,-0.076,0.856,-0.557,-0.854,-0.763,0.458,73.333,9189.000,1.000
-2.173,-2.130,-2.068,-2.138,-2.152,-2.063,-2.048,-2.235,-0.077,0.856,-0.558,-0.946,-0.732,0.427,73.333,9190.000,1.000
-1.975,-1.845,-1.773,-1.906,-1.868,-1.756,-1.756,-1.998,-0.078,0.856,-0.558,-0.946,-0.763,0.336,73.333,9191.000,1.000
-2.143,-1.902,-1.863,-1.953,-1.930,-1.769,-1.903,-2.117,-0.075,0.857,-0.558,-0.885,-0.702,0.336,73.333,9192.000,1.000
-2.431,-2.111,-2.161,-2.113,-2.143,-1.927,-2.269,-2.398,-0.076,0.856,-0.557,-0.946,-0.671,0.275,73.333,9193.000,1.000
-2.727,-2.404,-2.556,-2.363,-2.409,-2.191,-2.725,-2.747,-0.078,0.859,-0.559,-0.946,-0.793,0.244,73.333,9194.000,1.000
-3.126,-2.905,-3.099,-2.839,-2.819,-2.708,-3.317,-3.242,-0.078,0.859,-0.561,-0.916,-0.793,0.336,73.333,9195.000,1.000
-3.578,-3.548,-3.681,-3.456,-3.313,-3.416,-3.927,-3.795,-0.077,0.859,-0.556,-0.977,-0.732,0.397,73.333,9196.000,1.000
-3.656,-3.847,-3.834,-3.704,-3.456,-3.803,-4.075,-3.949,-0.079,0.856,-0.558,-0.916,-0.824,0.366,73.333,9197.000,1.000
-2.961,-3.336,-3.141,-3.116,-2.843,-3.349,-3.355,-3.284,-0.080,0.858,-0.557,-0.885,-0.793,0.336,73.333,9198.000,1.000
-1.708,-2.177,-1.841,-1.884,-1.683,-2.186,-2.023,-2.016,-0.079,0.857,-0.558,-0.824,-0.824,0.336,73.333,9199.000,1.000
-0.693,-1.148,-0.771,-0.826,-0.761,-1.111,-0.930,-0.953,-0.079,0.856,-0.558,-0.763,-0.854,0.305,73.333,9200.000,1.000
-0.543,-0.898,-0.579,-0.613,-0.671,-0.807,-0.733,-0.729,-0.078,0.855,-0.558,-0.702,-0.824,0.397,73.333,9201.000,1.000
-0.980,-1.209,-0.990,-1.026,-1.111,-1.065,-1.162,-1.088,-0.077,0.854,-0.559,-0.702,-0.854,0.366,73.333,9202.000,1.000
-1.142,-1.287,-1.139,-1.230,-1.229,-1.082,-1.341,-1.209,-0.077,0.854,-0.561,-0.671,-0.732,0.397,73.333,9203.000,1.000
-0.596,-0.720,-0.577,-0.759,-0.624,-0.460,-0.811,-0.687,-0.076,0.855,-0.561,-0.671,-0.732,0.427,73.333,9204.000,1.000
0.254,0.129,0.311,0.054,0.274,0.390,0.059,0.095,-0.077,0.856,-0.559,-0.519,-0.671,0.519,73.333,9205.000,1.000
0.783,0.687,0.908,0.641,0.832,0.867,0.664,0.564,-0.078,0.858,-0.560,-0.580,-0.671,0.519,73.333,9206.000,1.000
0.979,0.955,1.194,0.992,1.054,1.002,0.993,0.752,-0.079,0.861,-0.561,-0.580,-0.610,0.488,73.333,9207.000,1.000
1.310,1.370,1.605,1.513,1.431,1.302,1.496,1.148,-0.080,0.861,-0.560,-0.671,-0.519,0.519,73.333,9208.000,1.000
1.857,1.977,2.175,2.196,2.060,1.866,2.222,1.829,-0.079,0.864,-0.560,-0.763,-0.580,0.519,73.333,9209.000,1.000
2.049,2.187,2.304,2.413,2.359,2.114,2.560,2.190,-0.078,0.863,-0.558,-0.732,-0.458,0.580,73.333,9210.000,1.000
1.433,1.546,1.555,1.716,1.830,1.558,2.016,1.713,-0.079,0.864,-0.559,-0.732,-0.458,0.549,73.333,9211.000,1.000
0.407,0.468,0.379,0.552,0.824,0.547,0.961,0.727,-0.076,0.861,-0.557,-0.916,-0.458,0.580,73.333,9212.000,1.000
-0.197,-0.191,-0.342,-0.197,0.145,-0.130,0.221,0.033,-0.075,0.861,-0.558,-1.007,-0.305,0.519,73.333,9213.000,1.000
-0.091,-0.118,-0.286,-0.211,0.099,-0.171,0.125,-0.043,-0.075,0.856,-0.557,-0.946,-0.214,0.702,73.333,9214.000,1.000
0.247,0.212,0.068,0.031,0.257,0.017,0.257,0.099,-0.074,0.853,-0.559,-0.885,-0.214,0.671,73.333,9215.000,1.000
0.266,0.243,0.146,-0.028,0.136,-0.042,0.122,-0.010,-0.074,0.852,-0.557,-0.946,-0.153,0.671,73.333,9216.000,1.000
0.085,0.093,0.039,-0.256,-0.100,-0.197,-0.126,-0.199,-0.072,0.854,-0.561,-0.763,-0.061,0.732,73.333,9217.000,1.000
0.254,0.321,0.282,-0.068,0.099,0.090,0.078,0.090,-0.072,0.855,-0.561,-0.793,0.031,0.702,73.333,9218.000,1.000
0.878,1.028,0.961,0.666,0.805,0.875,0.830,0.917,-0.071,0.857,-0.559,-0.671,0.122,0.793,73.333,9219.000,1.000
1.393,1.620,1.484,1.341,1.412,1.521,1.510,1.624,-0.071,0.859,-0.564,-0.793,0.275,0.885,73.333,9220.000,1.000
1.387,1.636,1.418,1.462,1.460,1.559,1.627,1.715,-0.070,0.864,-0.562,-0.854,0.305,0.946,73.333,9221.000,1.000
1.384,1.555,1.305,1.486,1.432,1.510,1.655,1.693,-0.069,0.867,-0.559,-0.977,0.458,0.946,73.333,9222.000,1.000
2.246,2.232,2.042,2.273,2.185,2.277,2.474,2.462,-0.074,0.870,-0.555,-1.190,0.397,1.007,73.333,9223.000,1.000
3.836,3.589,3.526,3.737,3.628,3.768,4.004,3.950,-0.082,0.871,-0.557,-1.282,0.397,0.916,73.333,9224.000,1.000
4.730,4.315,4.368,4.518,4.416,4.601,4.882,4.791,-0.084,0.872,-0.560,-1.343,0.336,0.824,73.333,9225.000,1.000
3.559,3.122,3.228,3.299,3.232,3.427,3.757,3.638,-0.089,0.869,-0.555,-1.404,0.092,0.702,73.333,9226.000,1.000
0.600,0.286,0.379,0.387,0.349,0.522,0.881,0.760,-0.094,0.867,-0.557,-1.556,-0.153,0.671,73.333,9227.000,1.000
-2.405,-2.505,-2.476,-2.471,-2.530,-2.389,-2.046,-2.130,-0.093,0.865,-0.556,-1.587,-0.397,0.458,73.333,9228.000,1.000
-4.068,-3.935,-4.007,-3.917,-4.062,-3.949,-3.676,-3.684,-0.092,0.863,-0.556,-1.678,-0.732,0.336,73.333,9229.000,1.000
-4.533,-4.211,-4.395,-4.157,-4.427,-4.342,-4.155,-4.079,-0.091,0.862,-0.553,-1.862,-0.946,0.214,73.333,9230.000,1.000
-4.579,-4.148,-4.414,-4.034,-4.414,-4.363,-4.227,-4.107,-0.089,0.858,-0.553,-1.984,-1.221,0.153,73.333,9231.000,1.000
-3.993,-3.532,-3.817,-3.380,-3.794,-3.779,-3.639,-3.546,-0.089,0.859,-0.555,-2.136,-1.434,0.000,73.333,9232.000,1.000
-1.804,-1.368,-1.605,-1.239,-1.575,-1.603,-1.421,-1.406,-0.088,0.862,-0.553,-2.197,-1.617,-0.153,73.333,9233.000,1.000
1.784,2.171,2.022,2.216,2.048,1.961,2.189,2.128,-0.085,0.863,-0.554,-2.258,-1.740,-0.153,73.333,9234.000,1.000
4.628,4.962,4.890,4.902,4.914,4.769,5.010,4.917,-0.084,0.862,-0.558,-2.258,-1.862,-0.122,73.333,9235.000,1.000
4.551,4.835,4.785,4.697,4.814,4.649,4.849,4.776,-0.081,0.863,-0.555,-2.289,-1.923,-0.061,73.333,9236.000,1.000
1.883,2.116,2.031,1.954,2.064,1.928,2.058,2.034,-0.078,0.861,-0.554,-2.319,-2.014,0.061,73.333,9237.000,1.000
-0.774,-0.603,-0.734,-0.744,-0.718,-0.803,-0.722,-0.706,-0.075,0.860,-0.556,-2.350,-2.014,0.122,73.333,9238.000,1.000
-1.524,-1.424,-1.560,-1.537,-1.610,-1.636,-1.559,-1.548,-0.074,0.858,-0.554,-2.380,-1.953,0.214,73.333,9239.000,1.000
-1.141,-1.112,-1.191,-1.216,-1.365,-1.321,-1.212,-1.270,-0.076,0.862,-0.552,-2.350,-2.045,0.336,73.333,9240.000,1.000
-1.427,-1.456,-1.444,-1.580,-1.772,-1.651,-1.492,-1.671,-0.074,0.861,-0.554,-2.411,-1.953,0.488,73.333,9241.000,1.000
-2.116,-2.195,-2.114,-2.359,-2.556,-2.385,-2.173,-2.473,-0.073,0.860,-0.553,-2.350,-1.801,0.763,73.333,9242.000,1.000
-0.977,-1.118,-1.023,-1.311,-1.473,-1.305,-1.062,-1.412,-0.073,0.861,-0.555,-2.350,-1.770,0.854,73.333,9243.000,1.000
2.633,2.404,2.487,2.235,2.134,2.253,2.474,2.177,-0.074,0.860,-0.552,-2.258,-1.617,0.916,73.333,9244.000,1.000
5.710,5.381,5.469,5.295,5.258,5.332,5.463,5.304,-0.074,0.860,-0.554,-2.197,-1.556,0.916,73.333,9245.000,1.000
4.477,4.086,4.201,4.094,4.104,4.181,4.182,4.188,-0.072,0.860,-0.554,-2.167,-1.404,1.007,73.333,9246.000,1.000
-0.964,-1.341,-1.207,-1.282,-1.262,-1.105,-1.233,-1.101,-0.073,0.859,-0.553,-2.075,-1.282,0.977,73.333,9247.000,1.000
-6.439,-6.744,-6.613,-6.684,-6.706,-6.396,-6.624,-6.452,-0.071,0.859,-0.551,-2.136,-1.221,0.977,73.333,9248.000,1.000
-8.399,-8.636,-8.502,-8.573,-8.695,-8.209,-8.492,-8.364,-0.071,0.858,-0.551,-2.167,-1.068,0.977,73.333,9249.000,1.000
-7.475,-7.690,-7.524,-7.569,-7.820,-7.219,-7.503,-7.458,-0.069,0.858,-0.551,-2.167,-0.916,0.854,73.333,9250.000,1.000
-6.758,-6.988,-6.776,-6.751,-7.109,-6.519,-6.759,-6.778,-0.068,0.855,-0.552,-2.045,-0.763,0.854,73.333,9251.000,1.000
-7.545,-7.791,-7.556,-7.433,-7.822,-7.382,-7.555,-7.588,-0.070,0.855,-0.554,-1.923,-0.580,0.916,73.333,9252.000,1.000
-8.185,-8.420,-8.202,-7.996,-8.332,-8.116,-8.229,-8.237,-0.067,0.856,-0.552,-1.862,-0.519,0.854,73.333,9253.000,1.000
-6.833,-7.022,-6.843,-6.622,-6.848,-6.837,-6.922,-6.888,-0.067,0.856,-0.552,-1.740,-0.305,0.702,73.333,9254.000,1.000
-3.952,-4.087,-3.933,-3.781,-3.881,-3.988,-4.073,-4.009,-0.067,0.858,-0.551,-1.770,-0.061,0.732,73.333,9255.000,1.000
-1.662,-1.775,-1.606,-1.578,-1.560,-1.697,-1.787,-1.714,-0.066,0.859,-0.551,-1.831,0.153,0.732,73.333,9256.000,1.000
-1.280,-1.416,-1.201,-1.306,-1.184,-1.301,-1.392,-1.315,-0.065,0.860,-0.550,-1.648,0.458,0.610,73.333,9257.000,1.000
-2.267,-2.456,-2.186,-2.408,-2.188,-2.286,-2.386,-2.281,-0.066,0.859,-0.551,-1.648,0.671,0.488,73.333,9258.000,1.000
-3.265,-3.508,-3.185,-3.502,-3.191,-3.295,-3.436,-3.263,-0.067,0.859,-0.551,-1.556,0.824,0.397,73.333,9259.000,1.000
-3.423,-3.705,-3.318,-3.710,-3.340,-3.466,-3.677,-3.420,-0.067,0.860,-0.553,-1.495,1.038,0.427,73.333,9260.000,1.000
-2.750,-3.040,-2.585,-3.021,-2.659,-2.801,-3.074,-2.764,-0.068,0.858,-0.550,-1.587,1.129,0.366,73.333,9261.000,1.000
-1.619,-1.874,-1.370,-1.811,-1.534,-1.668,-1.949,-1.658,-0.070,0.859,-0.550,-1.465,1.221,0.275,73.333,9262.000,1.000
-0.275,-0.462,0.040,-0.354,-0.216,-0.306,-0.539,-0.334,-0.071,0.859,-0.551,-1.312,1.404,0.153,73.333,9263.000,1.000
1.393,1.273,1.701,1.413,1.407,1.387,1.217,1.306,-0.072,0.859,-0.551,-1.221,1.434,0.061,73.333,9264.000,1.000
3.725,3.649,3.930,3.791,3.686,3.731,3.595,3.585,-0.074,0.857,-0.550,-1.190,1.495,0.061,73.333,9265.000,1.000
6.735,6.678,6.769,6.787,6.655,6.724,6.569,6.515,-0.075,0.859,-0.552,-1.129,1.556,0.031,73.333,9266.000,1.000
9.743,9.704,9.610,9.750,9.660,9.698,9.473,9.438,-0.075,0.860,-0.555,-1.007,1.465,0.122,73.333,9267.000,1.000
11.760,11.757,11.529,11.722,11.718,11.691,11.375,11.395,-0.078,0.860,-0.553,-0.916,1.434,0.061,73.333,9268.000,1.000
12.487,12.543,12.243,12.415,12.509,12.426,12.038,12.106,-0.078,0.859,-0.554,-0.793,1.373,-0.031,73.333,9269.000,1.000
12.748,12.860,12.542,12.648,12.811,12.723,12.295,12.390,-0.079,0.859,-0.552,-0.702,1.251,0.031,73.333,9270.000,1.000
13.417,13.548,13.237,13.296,13.464,13.434,12.990,13.098,-0.080,0.859,-0.552,-0.702,1.190,0.092,73.333,9271.000,1.000
14.200,14.308,14.000,14.078,14.186,14.258,13.806,13.915,-0.081,0.859,-0.552,-0.641,1.038,0.153,73.333,9272.000,1.000
14.028,14.087,13.771,13.938,13.946,14.123,13.678,13.768,-0.080,0.861,-0.553,-0.580,0.854,0.000,73.333,9273.000,1.000
12.735,12.758,12.442,12.719,12.615,12.873,12.467,12.513,-0.081,0.861,-0.549,-0.458,0.732,0.000,73.333,9274.000,1.000
11.721,11.755,11.473,11.813,11.609,11.928,11.592,11.571,-0.080,0.862,-0.552,-0.427,0.519,0.183,73.333,9275.000,1.000
12.327,12.418,12.216,12.517,12.256,12.647,12.377,12.275,-0.083,0.859,-0.554,-0.366,0.305,0.305,73.333,9276.000,1.000
13.953,14.117,14.030,14.186,13.935,14.416,14.173,13.997,-0.082,0.860,-0.555,-0.336,0.153,0.305,73.333,9277.000,1.000
14.477,14.706,14.710,14.687,14.517,15.064,14.806,14.578,-0.082,0.861,-0.556,-0.244,-0.031,0.336,73.333,9278.000,1.000
12.734,13.013,13.020,12.883,12.833,13.363,13.087,12.830,-0.083,0.860,-0.557,-0.183,-0.183,0.397,73.333,9279.000,1.000
9.965,10.273,10.184,10.051,10.120,10.513,10.271,10.001,-0.082,0.861,-0.558,0.000,-0.336,0.397,73.333,9280.000,1.000
8.187,8.483,8.258,8.220,8.380,8.549,8.399,8.135,-0.081,0.862,-0.555,-0.031,-0.458,0.427,73.333,9281.000,1.000
7.646,7.873,7.555,7.629,7.847,7.785,7.739,7.522,-0.081,0.862,-0.553,-0.031,-0.580,0.488,73.333,9282.000,1.000
6.713,6.830,6.510,6.649,6.891,6.672,6.678,6.575,-0.083,0.862,-0.558,0.061,-0.763,0.671,73.333,9283.000,1.000
4.357,4.368,4.123,4.273,4.493,4.230,4.210,4.290,-0.081,0.861,-0.556,-0.031,-0.793,0.610,73.333,9284.000,1.000
1.718,1.678,1.520,1.663,1.812,1.599,1.508,1.797,-0.081,0.860,-0.555,0.061,-1.007,0.702,73.333,9285.000,1.000
0.436,0.424,0.308,0.463,0.504,0.388,0.242,0.680,-0.079,0.856,-0.554,0.153,-1.221,0.641,73.333,9286.000,1.000
0.221,0.298,0.159,0.344,0.275,0.255,0.103,0.575,-0.079,0.855,-0.557,0.122,-1.251,0.671,73.333,9287.000,1.000
-0.897,-0.716,-0.913,-0.722,-0.852,-0.816,-0.928,-0.530,-0.078,0.855,-0.558,0.153,-1.343,0.671,73.333,9288.000,1.000
-3.827,-3.574,-3.814,-3.677,-3.786,-3.754,-3.800,-3.536,-0.077,0.852,-0.556,0.214,-1.373,0.671,73.333,9289.000,1.000
-6.908,-6.654,-6.885,-6.855,-6.865,-6.899,-6.879,-6.753,-0.072,0.855,-0.556,0.366,-1.404,0.732,73.333,9290.000,1.000
-7.887,-7.716,-7.886,-7.968,-7.837,-7.989,-7.901,-7.900,-0.071,0.855,-0.558,0.427,-1.343,0.702,73.333,9291.000,1.000
-6.687,-6.656,-6.741,-6.872,-6.621,-6.918,-6.742,-6.857,-0.067,0.856,-0.557,0.519,-1.373,0.732,73.333,9292.000,1.000
-5.349,-5.462,-5.463,-5.555,-5.256,-5.676,-5.388,-5.624,-0.067,0.859,-0.558,0.641,-1.221,0.671,73.333,9293.000,1.000
-5.348,-5.567,-5.494,-5.485,-5.232,-5.700,-5.304,-5.660,-0.068,0.859,-0.558,0.702,-1.129,0.641,73.333,9294.000,1.000
-5.976,-6.243,-6.115,-6.004,-5.849,-6.289,-5.830,-6.269,-0.070,0.857,-0.556,0.763,-1.068,0.549,73.333,9295.000,1.000
-5.896,-6.159,-6.005,-5.841,-5.770,-6.147,-5.696,-6.134,-0.073,0.856,-0.556,0.702,-1.007,0.549,73.333,9296.000,1.000
-5.397,-5.617,-5.473,-5.329,-5.281,-5.609,-5.227,-5.574,-0.075,0.857,-0.558,0.641,-1.007,0.427,73.333,9297.000,1.000
-6.189,-6.345,-6.252,-6.171,-6.092,-6.411,-6.113,-6.322,-0.078,0.858,-0.559,0.519,-1.007,0.214,73.333,9298.000,1.000
-8.920,-9.020,-9.019,-8.993,-8.857,-9.209,-8.954,-9.053,-0.078,0.859,-0.557,0.519,-1.068,0.092,73.333,9299.000,1.000
-11.734,-11.810,-11.927,-11.917,-11.734,-12.127,-11.849,-11.916,-0.078,0.860,-0.557,0.488,-1.129,0.000,73.333,9300.000,1.000
-11.984,-12.056,-12.288,-12.270,-12.067,-12.469,-12.121,-12.228,-0.079,0.860,-0.553,0.549,-1.190,-0.244,73.333,9301.000,1.000
-8.964,-9.014,-9.328,-9.298,-9.118,-9.464,-9.041,-9.212,-0.076,0.858,-0.557,0.397,-1.221,-0.305,73.333,9302.000,1.000
-4.467,-4.451,-4.797,-4.753,-4.633,-4.866,-4.401,-4.613,-0.072,0.859,-0.559,0.458,-1.282,-0.244,73.333,9303.000,1.000
-0.787,-0.675,-1.012,-0.939,-0.890,-0.997,-0.546,-0.747,-0.072,0.859,-0.557,0.336,-1.251,-0.275,73.333,9304.000,1.000
1.174,1.369,1.052,1.173,1.178,1.159,1.528,1.400,-0.072,0.860,-0.557,0.244,-1.190,-0.214,73.333,9305.000,1.000
1.659,1.879,1.574,1.743,1.752,1.757,1.984,1.984,-0.075,0.859,-0.557,0.214,-1.221,-0.244,73.333,9306.000,1.000
0.927,1.095,0.800,0.992,1.038,1.014,1.076,1.232,-0.075,0.860,-0.558,0.153,-1.160,-0.214,73.333,9307.000,1.000
-0.876,-0.806,-1.078,-0.903,-0.814,-0.888,-0.966,-0.669,-0.076,0.858,-0.559,0.153,-1.190,-0.305,73.333,9308.000,1.000
-2.934,-2.940,-3.181,-3.060,-2.943,-3.047,-3.204,-2.821,-0.077,0.859,-0.558,0.061,-1.221,-0.244,73.333,9309.000,1.000
-3.754,-3.756,-3.958,-3.913,-3.793,-3.893,-4.048,-3.655,-0.080,0.861,-0.558,0.031,-1.221,-0.122,73.333,9310.000,1.000
-2.485,-2.401,-2.541,-2.580,-2.479,-2.561,-2.641,-2.298,-0.080,0.860,-0.556,0.061,-1.282,-0.031,73.333,9311.000,1.000
0.114,0.313,0.270,0.159,0.221,0.143,0.184,0.450,-0.080,0.860,-0.560,-0.061,-1.373,-0.031,73.333,9312.000,1.000
2.297,2.567,2.652,2.495,2.501,2.406,2.569,2.771,-0.078,0.861,-0.562,-0.122,-1.373,0.183,73.333,9313.000,1.000
2.876,3.142,3.362,3.187,3.137,3.010,3.249,3.439,-0.078,0.861,-0.558,-0.183,-1.404,0.122,73.333,9314.000,1.000
2.041,2.263,2.586,2.417,2.317,2.165,2.408,2.652,-0.080,0.861,-0.563,-0.092,-1.312,0.214,73.333,9315.000,1.000
0.687,0.878,1.244,1.095,0.957,0.799,0.979,1.320,-0.078,0.860,-0.560,-0.092,-1.373,0.336,73.333,9316.000,1.000
-0.551,-0.352,-0.006,-0.126,-0.290,-0.435,-0.353,0.059,-0.077,0.860,-0.559,-0.153,-1.465,0.336,73.333,9317.000,1.000
-1.469,-1.250,-0.951,-1.052,-1.220,-1.334,-1.347,-0.954,-0.075,0.862,-0.558,-0.244,-1.587,0.427,73.333,9318.000,1.000
-1.885,-1.691,-1.415,-1.524,-1.670,-1.729,-1.812,-1.529,-0.075,0.862,-0.560,-0.275,-1.617,0.549,73.333,9319.000,1.000
-1.568,-1.466,-1.156,-1.305,-1.409,-1.379,-1.513,-1.373,-0.076,0.863,-0.558,-0.366,-1.495,0.549,73.333,9320.000,1.000
-0.712,-0.731,-0.344,-0.539,-0.608,-0.454,-0.634,-0.612,-0.076,0.862,-0.557,-0.427,-1.556,0.580,73.333,9321.000,1.000
-0.024,-0.123,0.332,0.115,0.049,0.346,0.115,0.069,-0.077,0.862,-0.555,-0.458,-1.556,0.702,73.333,9322.000,1.000
-0.163,-0.241,0.211,0.008,-0.086,0.332,0.050,-0.021,-0.077,0.864,-0.556,-0.641,-1.526,0.793,73.333,9323.000,1.000
-1.101,-1.048,-0.698,-0.870,-0.992,-0.529,-0.830,-0.914,-0.077,0.862,-0.558,-0.610,-1.556,0.793,73.333,9324.000,1.000
-2.158,-1.916,-1.727,-1.892,-2.006,-1.605,-1.853,-1.956,-0.077,0.861,-0.559,-0.671,-1.587,0.763,73.333,9325.000,1.000
-2.791,-2.397,-2.351,-2.552,-2.621,-2.367,-2.479,-2.602,-0.078,0.860,-0.556,-0.702,-1.495,0.824,73.333,9326.000,1.000
-3.207,-2.765,-2.799,-3.053,-3.067,-2.982,-2.923,-3.033,-0.076,0.860,-0.557,-0.702,-1.495,0.702,73.333,9327.000,1.000
-4.121,-3.745,-3.792,-4.064,-4.046,-4.092,-3.900,-3.938,-0.076,0.860,-0.560,-0.763,-1.495,0.580,73.333,9328.000,1.000
-5.805,-5.557,-5.566,-5.783,-5.773,-5.887,-5.647,-5.569,-0.075,0.860,-0.562,-0.824,-1.465,0.671,73.333,9329.000,1.000
-7.500,-7.378,-7.310,-7.414,-7.441,-7.572,-7.372,-7.183,-0.076,0.859,-0.557,-0.854,-1.495,0.671,73.333,9330.000,1.000
-8.180,-8.138,-7.973,-7.963,-8.031,-8.145,-8.047,-7.790,-0.076,0.857,-0.558,-0.977,-1.434,0.610,73.333,9331.000,1.000
-7.737,-7.716,-7.466,-7.397,-7.479,-7.562,-7.585,-7.309,-0.076,0.857,-0.560,-1.068,-1.312,0.458,73.333,9332.000,1.000
-7.080,-7.034,-6.745,-6.688,-6.750,-6.812,-6.913,-6.662,-0.076,0.853,-0.560,-1.099,-1.343,0.397,73.333,9333.000,1.000
-6.948,-6.860,-6.594,-6.599,-6.631,-6.691,-6.787,-6.603,-0.076,0.852,-0.560,-0.977,-1.404,0.305,73.333,9334.000,1.000
-6.984,-6.870,-6.685,-6.759,-6.779,-6.840,-6.863,-6.785,-0.076,0.851,-0.559,-0.946,-1.312,0.214,73.333,9335.000,1.000
-6.384,-6.286,-6.197,-6.311,-6.347,-6.396,-6.330,-6.383,-0.077,0.850,-0.561,-0.946,-1.282,0.214,73.333,9336.000,1.000
-5.082,-5.043,-5.004,-5.126,-5.181,-5.214,-5.083,-5.275,-0.075,0.853,-0.560,-0.854,-1.251,0.214,73.333,9337.000,1.000
-3.876,-3.924,-3.849,-3.967,-4.017,-4.063,-3.903,-4.209,-0.078,0.853,-0.560,-0.793,-1.190,0.122,73.333,9338.000,1.000
-3.394,-3.536,-3.358,-3.476,-3.498,-3.585,-3.439,-3.788,-0.078,0.854,-0.559,-0.732,-1.160,0.061,73.333,9339.000,1.000
-3.266,-3.494,-3.200,-3.324,-3.313,-3.430,-3.349,-3.636,-0.081,0.855,-0.560,-0.641,-1.221,0.000,73.333,9340.000,1.000
-2.620,-2.921,-2.544,-2.688,-2.640,-2.738,-2.758,-2.902,-0.080,0.857,-0.561,-0.641,-1.282,-0.092,73.333,9341.000,1.000
-1.168,-1.512,-1.107,-1.295,-1.195,-1.221,-1.336,-1.333,-0.078,0.858,-0.558,-0.641,-1.312,0.000,73.333,9342.000,1.000
0.453,0.130,0.502,0.259,0.420,0.478,0.319,0.405,-0.079,0.858,-0.559,-0.702,-1.221,0.000,73.333,9343.000,1.000
1.545,1.312,1.603,1.338,1.537,1.645,1.512,1.593,-0.079,0.859,-0.557,-0.732,-1.282,-0.092,73.333,9344.000,1.000
2.240,2.134,2.322,2.106,2.286,2.396,2.337,2.343,-0.078,0.861,-0.556,-0.793,-1.251,0.000,73.333,9345.000,1.000
3.143,3.165,3.245,3.141,3.249,3.332,3.347,3.236,-0.076,0.863,-0.557,-0.885,-1.251,-0.061,73.333,9346.000,1.000
4.422,4.542,4.510,4.534,4.548,4.612,4.673,4.428,-0.078,0.862,-0.556,-1.007,-1.251,-0.122,73.333,9347.000,1.000
5.526,5.680,5.540,5.647,5.596,5.663,5.746,5.393,-0.078,0.862,-0.560,-1.068,-1.251,-0.092,73.333,9348.000,1.000
5.869,5.958,5.734,5.855,5.794,5.883,5.973,5.581,-0.077,0.862,-0.559,-1.068,-1.251,0.031,73.333,9349.000,1.000
5.610,5.547,5.291,5.359,5.332,5.454,5.544,5.190,-0.079,0.863,-0.560,-1.129,-1.282,0.122,73.333,9350.000,1.000
5.471,5.236,5.013,4.981,4.997,5.154,5.242,4.977,-0.080,0.864,-0.559,-1.129,-1.160,0.153,73.333,9351.000,1.000
5.863,5.513,5.377,5.233,5.271,5.446,5.543,5.369,-0.078,0.864,-0.561,-1.160,-1.099,0.122,73.333,9352.000,1.000
6.366,5.991,5.955,5.722,5.764,5.925,6.036,5.922,-0.080,0.862,-0.560,-1.312,-1.099,0.275,73.333,9353.000,1.000
6.247,5.919,5.951,5.669,5.712,5.841,5.951,5.847,-0.080,0.864,-0.558,-1.373,-1.129,0.305,73.333,9354.000,1.000
5.360,5.107,5.143,4.872,4.906,5.018,5.094,4.953,-0.079,0.863,-0.561,-1.434,-1.160,0.336,73.333,9355.000,1.000
4.188,3.998,3.977,3.807,3.794,3.912,3.924,3.744,-0.082,0.861,-0.560,-1.434,-1.221,0.427,73.333,9356.000,1.000
3.189,3.032,2.926,2.943,2.836,2.961,2.905,2.740,-0.083,0.860,-0.562,-1.526,-1.190,0.366,73.333,9357.000,1.000
2.290,2.137,1.964,2.188,1.974,2.085,1.987,1.903,-0.082,0.858,-0.558,-1.495,-1.251,0.458,73.333,9358.000,1.000
1.156,0.991,0.802,1.167,0.886,0.953,0.858,0.879,-0.082,0.858,-0.560,-1.434,-1.312,0.458,73.333,9359.000,1.000
-0.151,-0.320,-0.471,-0.070,-0.353,-0.362,-0.397,-0.308,-0.083,0.857,-0.562,-1.404,-1.312,0.488,73.333,9360.000,1.000
-1.144,-1.295,-1.389,-1.026,-1.269,-1.371,-1.303,-1.210,-0.081,0.859,-0.556,-1.526,-1.373,0.397,73.333,9361.000,1.000
-1.555,-1.680,-1.723,-1.427,-1.631,-1.800,-1.632,-1.577,-0.081,0.857,-0.556,-1.343,-1.495,0.488,73.333,9362.000,1.000
-1.764,-1.873,-1.879,-1.645,-1.833,-2.006,-1.796,-1.768,-0.082,0.857,-0.556,-1.434,-1.526,0.427,73.333,9363.000,1.000
-2.330,-2.424,-2.406,-2.217,-2.400,-2.518,-2.344,-2.292,-0.081,0.858,-0.556,-1.434,-1.404,0.549,73.333,9364.000,1.000
-3.223,-3.280,-3.242,-3.079,-3.245,-3.291,-3.204,-3.075,-0.079,0.857,-0.556,-1.434,-1.343,0.519,73.333,9365.000,1.000
-3.882,-3.874,-3.822,-3.673,-3.788,-3.786,-3.799,-3.578,-0.079,0.858,-0.556,-1.495,-1.404,0.427,73.333,9366.000,1.000
-3.926,-3.847,-3.799,-3.654,-3.686,-3.662,-3.769,-3.491,-0.078,0.858,-0.554,-1.434,-1.312,0.519,73.333,9367.000,1.000
-3.583,-3.477,-3.445,-3.297,-3.233,-3.187,-3.391,-3.115,-0.077,0.855,-0.556,-1.373,-1.190,0.458,73.333,9368.000,1.000
-3.297,-3.235,-3.224,-3.061,-2.930,-2.838,-3.137,-2.918,-0.077,0.857,-0.556,-1.404,-1.099,0.458,73.333,9369.000,1.000
-3.110,-3.154,-3.165,-2.979,-2.827,-2.685,-3.050,-2.920,-0.076,0.857,-0.559,-1.343,-1.068,0.397,73.333,9370.000,1.000
-2.751,-2.922,-2.969,-2.753,-2.609,-2.461,-2.831,-2.800,-0.075,0.860,-0.563,-1.282,-0.977,0.488,73.333,9371.000,1.000
-2.044,-2.330,-2.432,-2.166,-2.048,-1.953,-2.266,-2.328,-0.075,0.857,-0.560,-1.251,-1.007,0.519,73.333,9372.000,1.000
-1.130,-1.498,-1.653,-1.318,-1.249,-1.229,-1.458,-1.597,-0.073,0.855,-0.560,-1.068,-0.885,0.549,73.333,9373.000,1.000
-0.362,-0.746,-0.927,-0.532,-0.537,-0.561,-0.721,-0.922,-0.076,0.857,-0.562,-1.190,-0.732,0.549,73.333,9374.000,1.000
-0.035,-0.331,-0.512,-0.114,-0.183,-0.205,-0.328,-0.577,-0.076,0.855,-0.560,-1.190,-0.702,0.427,73.333,9375.000,1.000
-0.256,-0.361,-0.550,-0.217,-0.302,-0.305,-0.406,-0.678,-0.075,0.857,-0.558,-1.190,-0.580,0.458,73.333,9376.000,1.000
-0.860,-0.719,-0.963,-0.733,-0.779,-0.782,-0.852,-1.083,-0.076,0.857,-0.560,-1.099,-0.458,0.397,73.333,9377.000,1.000
-1.465,-1.105,-1.453,-1.322,-1.308,-1.336,-1.349,-1.456,-0.079,0.857,-0.558,-1.007,-0.427,0.366,73.333,9378.000,1.000
-1.666,-1.177,-1.642,-1.580,-1.521,-1.583,-1.514,-1.446,-0.078,0.858,-0.562,-1.007,-0.336,0.275,73.333,9379.000,1.000
-1.256,-0.759,-1.294,-1.272,-1.200,-1.282,-1.123,-0.911,-0.078,0.858,-0.560,-0.977,-0.183,0.275,73.333,9380.000,1.000
-0.454,-0.065,-0.575,-0.569,-0.529,-0.599,-0.371,-0.113,-0.080,0.860,-0.558,-0.854,-0.366,0.275,73.333,9381.000,1.000
0.275,0.468,0.090,0.099,0.059,0.027,0.277,0.477,-0.076,0.863,-0.556,-0.854,-0.366,0.305,73.333,9382.000,1.000
0.611,0.572,0.392,0.410,0.262,0.271,0.491,0.582,-0.073,0.863,-0.559,-0.854,-0.214,0.275,73.333,9383.000,1.000
0.615,0.367,0.358,0.390,0.142,0.172,0.342,0.340,-0.076,0.860,-0.558,-1.038,-0.244,0.275,73.333,9384.000,1.000
0.662,0.277,0.338,0.400,0.077,0.127,0.256,0.226,-0.074,0.859,-0.555,-1.038,-0.183,0.275,73.333,9385.000,1.000
1.114,0.696,0.703,0.819,0.461,0.553,0.666,0.667,-0.077,0.859,-0.556,-0.977,-0.153,0.275,73.333,9386.000,1.000
2.096,1.751,1.619,1.789,1.467,1.617,1.734,1.780,-0.079,0.859,-0.556,-0.977,-0.183,0.275,73.333,9387.000,1.000
3.424,3.238,2.942,3.142,2.941,3.122,3.263,3.313,-0.081,0.859,-0.555,-1.038,-0.122,0.366,73.333,9388.000,1.000
4.675,4.682,4.260,4.456,4.430,4.588,4.756,4.759,-0.081,0.860,-0.557,-1.038,-0.153,0.366,73.333,9389.000,1.000
5.366,5.529,5.070,5.235,5.367,5.461,5.630,5.571,-0.082,0.860,-0.557,-1.099,-0.183,0.366,73.333,9390.000,1.000
5.203,5.428,5.049,5.172,5.378,5.399,5.533,5.437,-0.081,0.859,-0.561,-1.007,-0.244,0.397,73.333,9391.000,1.000
4.511,4.687,4.488,4.580,4.742,4.708,4.791,4.703,-0.079,0.857,-0.560,-0.977,-0.183,0.458,73.333,9392.000,1.000
4.127,4.183,4.197,4.279,4.312,4.264,4.298,4.255,-0.081,0.858,-0.561,-0.977,-0.275,0.427,73.333,9393.000,1.000
4.497,4.442,4.608,4.692,4.601,4.576,4.581,4.580,-0.080,0.859,-0.560,-0.977,-0.305,0.458,73.333,9394.000,1.000
4.958,4.859,5.047,5.131,5.013,5.011,5.024,5.021,-0.080,0.858,-0.559,-0.946,-0.366,0.366,73.333,9395.000,1.000
4.308,4.232,4.328,4.391,4.369,4.361,4.414,4.356,-0.080,0.858,-0.558,-1.099,-0.427,0.397,73.333,9396.000,1.000
2.512,2.480,2.446,2.467,2.599,2.568,2.659,2.515,-0.080,0.858,-0.560,-1.068,-0.397,0.366,73.333,9397.000,1.000
1.281,1.276,1.151,1.131,1.378,1.336,1.433,1.202,-0.080,0.859,-0.557,-0.946,-0.397,0.397,73.333,9398.000,1.000
2.199,2.193,2.049,2.014,2.272,2.245,2.302,2.029,-0.080,0.858,-0.558,-0.977,-0.427,0.427,73.333,9399.000,1.000
4.334,4.298,4.204,4.181,4.348,4.357,4.330,4.110,-0.082,0.856,-0.559,-0.946,-0.488,0.397,73.333,9400.000,1.000
4.751,4.672,4.683,4.665,4.692,4.736,4.614,4.547,-0.081,0.856,-0.559,-1.007,-0.580,0.488,73.333,9401.000,1.000
2.226,2.124,2.264,2.205,2.112,2.171,1.991,2.120,-0.081,0.860,-0.559,-1.007,-0.580,0.397,73.333,9402.000,1.000
-0.662,-0.735,-0.481,-0.632,-0.783,-0.731,-0.912,-0.627,-0.080,0.860,-0.559,-0.916,-0.732,0.305,73.333,9403.000,1.000
-0.421,-0.416,-0.085,-0.363,-0.503,-0.463,-0.609,-0.267,-0.082,0.861,-0.561,-0.885,-0.824,0.366,73.333,9404.000,1.000
2.921,3.003,3.375,2.970,2.887,2.932,2.820,3.101,-0.080,0.860,-0.560,-0.977,-0.671,0.458,73.333,9405.000,1.000
5.687,5.797,6.167,5.680,5.663,5.747,5.650,5.774,-0.080,0.860,-0.561,-0.916,-0.732,0.366,73.333,9406.000,1.000
5.068,5.159,5.480,4.981,5.010,5.157,5.071,5.001,-0.081,0.860,-0.558,-0.946,-0.824,0.397,73.333,9407.000,1.000
2.269,2.343,2.589,2.141,2.180,2.376,2.325,2.102,-0.080,0.859,-0.555,-0.885,-0.824,0.397,73.333,9408.000,1.000
0.441,0.540,0.711,0.344,0.361,0.558,0.574,0.296,-0.079,0.860,-0.559,-0.946,-0.946,0.427,73.333,9409.000,1.000
0.599,0.766,0.866,0.581,0.569,0.712,0.794,0.563,-0.079,0.858,-0.557,-1.038,-0.885,0.366,73.333,9410.000,1.000
0.886,1.148,1.150,0.933,0.924,0.985,1.089,0.962,-0.079,0.858,-0.556,-1.160,-0.885,0.488,73.333,9411.000,1.000
-0.260,0.101,-0.030,-0.193,-0.149,-0.157,-0.109,-0.121,-0.079,0.859,-0.557,-1.038,-1.038,0.427,73.333,9412.000,1.000
-1.826,-1.401,-1.664,-1.772,-1.648,-1.687,-1.764,-1.678,-0.079,0.858,-0.560,-1.007,-1.068,0.336,73.333,9413.000,1.000
-1.839,-1.443,-1.773,-1.814,-1.632,-1.653,-1.877,-1.726,-0.078,0.859,-0.562,-1.099,-1.068,0.244,73.333,9414.000,1.000
-0.258,-0.018,-0.315,-0.267,-0.097,-0.058,-0.394,-0.216,-0.079,0.860,-0.560,-1.038,-1.038,0.275,73.333,9415.000,1.000
0.892,0.880,0.701,0.841,0.933,1.045,0.659,0.841,-0.079,0.861,-0.560,-0.946,-1.038,0.336,73.333,9416.000,1.000
0.338,0.061,0.028,0.239,0.235,0.393,0.015,0.192,-0.079,0.861,-0.558,-0.946,-1.160,0.366,73.333,9417.000,1.000
-0.710,-1.187,-1.100,-0.852,-0.926,-0.760,-1.110,-0.928,-0.080,0.859,-0.556,-1.038,-1.099,0.336,73.333,9418.000,1.000
-0.335,-0.896,-0.732,-0.487,-0.589,-0.428,-0.767,-0.567,-0.079,0.860,-0.557,-1.068,-1.160,0.336,73.333,9419.000,1.000
1.324,0.825,1.033,1.208,1.139,1.302,0.949,1.164,-0.081,0.858,-0.557,-1.099,-1.160,0.275,73.333,9420.000,1.000
2.112,1.799,2.022,2.039,2.088,2.247,1.885,2.087,-0.082,0.857,-0.556,-1.160,-1.099,0.366,73.333,9421.000,1.000
0.802,0.715,0.925,0.720,0.958,1.106,0.757,0.904,-0.082,0.858,-0.559,-1.190,-1.099,0.336,73.333,9422.000,1.000
-1.143,-1.070,-0.879,-1.293,-0.876,-0.733,-1.037,-0.985,-0.080,0.859,-0.558,-1.221,-1.099,0.427,73.333,9423.000,1.000
-1.475,-1.362,-1.146,-1.674,-1.188,-1.051,-1.259,-1.325,-0.079,0.858,-0.559,-1.190,-1.190,0.458,73.333,9424.000,1.000
-0.175,-0.116,0.181,-0.326,0.079,0.186,0.138,-0.043,-0.081,0.859,-0.559,-1.190,-1.129,0.458,73.333,9425.000,1.000
0.400,0.390,0.781,0.403,0.622,0.665,0.809,0.546,-0.079,0.857,-0.559,-1.190,-1.190,0.458,73.333,9426.000,1.000
-1.239,-1.261,-0.822,-1.045,-1.013,-1.064,-0.761,-1.050,-0.078,0.858,-0.561,-1.068,-1.190,0.458,73.333,9427.000,1.000
-3.432,-3.395,-2.991,-3.109,-3.170,-3.329,-2.962,-3.219,-0.079,0.861,-0.559,-1.068,-1.038,0.519,73.333,9428.000,1.000
-3.422,-3.299,-3.005,-3.094,-3.115,-3.376,-3.068,-3.247,-0.077,0.860,-0.557,-1.007,-0.946,0.488,73.333,9429.000,1.000
-1.105,-0.931,-0.773,-0.893,-0.774,-1.105,-0.952,-1.031,-0.078,0.860,-0.555,-1.038,-0.824,0.580,73.333,9430.000,1.000
0.623,0.778,0.836,0.661,0.940,0.586,0.559,0.578,-0.077,0.860,-0.557,-1.160,-0.824,0.641,73.333,9431.000,1.000
-0.449,-0.364,-0.345,-0.561,-0.172,-0.505,-0.665,-0.581,-0.076,0.859,-0.560,-1.160,-0.793,0.671,73.333,9432.000,1.000
-3.251,-3.248,-3.208,-3.435,-3.014,-3.305,-3.506,-3.420,-0.077,0.857,-0.560,-1.038,-0.763,0.671,73.333,9433.000,1.000
-5.223,-5.276,-5.180,-5.397,-5.000,-5.262,-5.408,-5.387,-0.079,0.858,-0.562,-1.129,-0.702,0.671,73.333,9434.000,1.000
-5.498,-5.564,-5.411,-5.616,-5.266,-5.534,-5.564,-5.635,-0.078,0.857,-0.562,-1.068,-0.763,0.641,73.333,9435.000,1.000
-5.305,-5.350,-5.175,-5.369,-5.069,-5.373,-5.281,-5.407,-0.079,0.858,-0.556,-1.038,-0.671,0.641,73.333,9436.000,1.000
-5.725,-5.734,-5.599,-5.765,-5.515,-5.866,-5.691,-5.791,-0.080,0.860,-0.556,-1.068,-0.641,0.549,73.333,9437.000,1.000
-6.440,-6.406,-6.372,-6.471,-6.288,-6.673,-6.464,-6.455,-0.082,0.862,-0.555,-1.129,-0.671,0.580,73.333,9438.000,1.000
-6.692,-6.591,-6.693,-6.693,-6.600,-6.985,-6.772,-6.616,-0.082,0.863,-0.554,-1.068,-0.702,0.458,73.333,9439.000,1.000
-6.326,-6.122,-6.356,-6.248,-6.270,-6.608,-6.393,-6.113,-0.081,0.862,-0.556,-1.007,-0.610,0.397,73.333,9440.000,1.000
-5.659,-5.336,-5.641,-5.440,-5.604,-5.852,-5.622,-5.294,-0.082,0.861,-0.556,-1.038,-0.610,0.366,73.333,9441.000,1.000
-4.929,-4.512,-4.792,-4.533,-4.852,-5.001,-4.736,-4.452,-0.081,0.859,-0.557,-1.038,-0.671,0.275,73.333,9442.000,1.000
-4.388,-3.930,-4.110,-3.846,-4.275,-4.361,-4.054,-3.888,-0.081,0.857,-0.558,-1.007,-0.671,0.305,73.333,9443.000,1.000
-4.374,-3.938,-4.005,-3.803,-4.218,-4.308,-3.983,-3.965,-0.080,0.857,-0.556,-1.099,-0.702,0.275,73.333,9444.000,1.000
-4.714,-4.361,-4.343,-4.257,-4.515,-4.651,-4.380,-4.487,-0.079,0.856,-0.557,-1.190,-0.732,0.275,73.333,9445.000,1.000
-4.538,-4.317,-4.249,-4.287,-4.319,-4.492,-4.363,-4.517,-0.079,0.855,-0.558,-1.160,-0.702,0.214,73.333,9446.000,1.000
-3.237,-3.174,-3.076,-3.197,-3.046,-3.223,-3.267,-3.377,-0.077,0.858,-0.559,-1.190,-0.702,0.275,73.333,9447.000,1.000
-1.516,-1.595,-1.488,-1.619,-1.401,-1.560,-1.722,-1.748,-0.077,0.858,-0.554,-1.099,-0.641,0.336,73.333,9448.000,1.000
-0.740,-0.897,-0.823,-0.889,-0.711,-0.860,-1.031,-1.008,-0.079,0.857,-0.556,-1.190,-0.702,0.336,73.333,9449.000,1.000
-1.065,-1.214,-1.228,-1.173,-1.096,-1.252,-1.337,-1.332,-0.079,0.857,-0.556,-1.251,-0.671,0.305,73.333,9450.000,1.000
-1.121,-1.196,-1.328,-1.132,-1.181,-1.337,-1.296,-1.350,-0.080,0.857,-0.555,-1.190,-0.641,0.397,73.333,9451.000,1.000
0.122,0.136,-0.091,0.226,0.046,-0.067,0.092,-0.027,-0.080,0.857,-0.555,-1.129,-0.610,0.580,73.333,9452.000,1.000
1.759,1.829,1.569,1.947,1.659,1.647,1.889,1.727,-0.081,0.858,-0.556,-1.068,-0.732,0.580,73.333,9453.000,1.000
2.026,2.107,1.871,2.231,1.896,2.016,2.290,2.120,-0.079,0.862,-0.555,-1.160,-0.702,0.519,73.333,9454.000,1.000
0.822,0.882,0.696,0.974,0.680,0.906,1.148,1.001,-0.079,0.862,-0.556,-1.221,-0.610,0.366,73.333,9455.000,1.000
0.014,0.039,-0.092,0.085,-0.098,0.151,0.315,0.203,-0.080,0.864,-0.559,-1.373,-0.549,0.458,73.333,9456.000,1.000
1.004,0.988,0.919,1.017,0.964,1.131,1.220,1.145,-0.079,0.865,-0.555,-1.434,-0.641,0.519,73.333,9457.000,1.000
2.734,2.665,2.678,2.730,2.779,2.778,2.850,2.812,-0.079,0.866,-0.557,-1.495,-0.641,0.580,73.333,9458.000,1.000
2.955,2.817,2.931,2.970,3.055,2.862,2.999,2.991,-0.078,0.864,-0.557,-1.526,-0.641,0.610,73.333,9459.000,1.000
1.230,1.028,1.225,1.286,1.336,0.989,1.259,1.263,-0.077,0.861,-0.559,-1.617,-0.549,0.610,73.333,9460.000,1.000
-0.541,-0.750,-0.540,-0.432,-0.460,-0.874,-0.458,-0.463,-0.075,0.858,-0.558,-1.678,-0.458,0.580,73.333,9461.000,1.000
-0.673,-0.804,-0.671,-0.520,-0.630,-0.996,-0.496,-0.525,-0.074,0.855,-0.556,-1.678,-0.366,0.671,73.333,9462.000,1.000
0.195,0.197,0.201,0.340,0.190,-0.027,0.439,0.376,-0.073,0.853,-0.554,-1.526,-0.366,0.763,73.333,9463.000,1.000
0.328,0.446,0.332,0.388,0.260,0.226,0.546,0.444,-0.073,0.853,-0.555,-1.617,-0.214,0.793,73.333,9464.000,1.000
-0.345,-0.177,-0.352,-0.406,-0.473,-0.365,-0.251,-0.376,-0.073,0.854,-0.556,-1.556,-0.214,0.916,73.333,9465.000,1.000
-0.055,0.090,-0.067,-0.175,-0.211,-0.035,-0.104,-0.214,-0.074,0.857,-0.559,-1.587,-0.122,0.885,73.333,9466.000,1.000
2.129,2.197,2.130,2.080,1.994,2.167,2.003,1.950,-0.076,0.862,-0.560,-1.617,-0.092,0.885,73.333,9467.000,1.000
4.542,4.516,4.564,4.676,4.461,4.593,4.438,4.460,-0.076,0.865,-0.558,-1.678,0.000,0.916,73.333,9468.000,1.000
4.844,4.738,4.865,5.164,4.806,4.898,4.827,4.906,-0.080,0.865,-0.558,-1.648,-0.031,0.916,73.333,9469.000,1.000
3.196,3.047,3.184,3.587,3.161,3.237,3.288,3.378,-0.083,0.868,-0.558,-1.709,-0.122,0.885,73.333,9470.000,1.000
2.128,1.969,2.069,2.434,2.060,2.150,2.314,2.367,-0.089,0.867,-0.555,-1.770,-0.122,0.854,73.333,9471.000,1.000
3.111,2.966,3.015,3.237,3.009,3.140,3.346,3.332,-0.090,0.866,-0.554,-1.770,-0.244,0.732,73.333,9472.000,1.000
4.414,4.308,4.297,4.380,4.311,4.504,4.635,4.557,-0.093,0.863,-0.555,-1.801,-0.458,0.580,73.333,9473.000,1.000
3.292,3.262,3.174,3.213,3.250,3.491,3.451,3.348,-0.091,0.860,-0.556,-1.892,-0.671,0.488,73.333,9474.000,1.000
-0.317,-0.242,-0.426,-0.307,-0.244,-0.008,-0.237,-0.310,-0.090,0.861,-0.555,-1.923,-0.977,0.397,73.333,9475.000,1.000
-3.695,-3.512,-3.802,-3.535,-3.490,-3.331,-3.689,-3.691,-0.089,0.861,-0.557,-1.892,-1.099,0.244,73.333,9476.000,1.000
-4.680,-4.410,-4.798,-4.415,-4.378,-4.338,-4.732,-4.656,-0.088,0.860,-0.557,-1.831,-1.373,0.244,73.333,9477.000,1.000
-3.833,-3.517,-3.961,-3.569,-3.506,-3.558,-3.920,-3.790,-0.088,0.860,-0.557,-1.801,-1.587,0.275,73.333,9478.000,1.000
-2.808,-2.511,-2.922,-2.637,-2.540,-2.600,-2.909,-2.763,-0.086,0.857,-0.557,-1.831,-1.678,0.153,73.333,9479.000,1.000
-1.724,-1.519,-1.792,-1.686,-1.586,-1.561,-1.830,-1.698,-0.081,0.857,-0.558,-1.862,-1.770,0.031,73.333,9480.000,1.000
0.447,0.518,0.454,0.373,0.436,0.590,0.347,0.447,-0.080,0.857,-0.557,-1.831,-1.709,0.061,73.333,9481.000,1.000
3.382,3.334,3.479,3.256,3.275,3.526,3.310,3.377,-0.078,0.857,-0.555,-1.709,-1.709,0.061,73.333,9482.000,1.000
4.723,4.628,4.910,4.613,4.617,4.889,4.710,4.771,-0.077,0.857,-0.555,-1.617,-1.740,0.183,73.333,9483.000,1.000
2.636,2.586,2.883,2.589,2.605,2.835,2.689,2.806,-0.073,0.859,-0.553,-1.648,-1.587,0.214,73.333,9484.000,1.000
-1.583,-1.549,-1.350,-1.561,-1.543,-1.359,-1.500,-1.278,-0.072,0.860,-0.554,-1.617,-1.495,0.336,73.333,9485.000,1.000
-4.571,-4.501,-4.440,-4.525,-4.536,-4.349,-4.522,-4.206,-0.073,0.861,-0.554,-1.526,-1.404,0.488,73.333,9486.000,1.000
-4.394,-4.390,-4.410,-4.399,-4.463,-4.210,-4.424,-4.089,-0.072,0.858,-0.559,-1.434,-1.312,0.549,73.333,9487.000,1.000
-2.261,-2.401,-2.385,-2.371,-2.484,-2.132,-2.364,-2.099,-0.072,0.858,-0.557,-1.404,-1.190,0.702,73.333,9488.000,1.000
-0.542,-0.829,-0.669,-0.752,-0.883,-0.457,-0.668,-0.539,-0.072,0.858,-0.556,-1.282,-1.068,0.793,73.333,9489.000,1.000
0.174,-0.188,0.157,-0.069,-0.168,0.254,0.091,0.052,-0.073,0.857,-0.556,-1.282,-0.824,0.854,73.333,9490.000,1.000
1.069,0.732,1.208,0.879,0.861,1.187,1.064,0.868,-0.073,0.856,-0.555,-1.251,-0.824,1.038,73.333,9491.000,1.000
2.492,2.256,2.742,2.417,2.495,2.672,2.555,2.252,-0.076,0.856,-0.553,-1.282,-0.732,0.946,73.333,9492.000,1.000
2.699,2.581,2.950,2.742,2.876,2.921,2.775,2.448,-0.074,0.859,-0.551,-1.343,-0.671,0.916,73.333,9493.000,1.000
0.207,0.167,0.350,0.313,0.428,0.416,0.220,-0.035,-0.076,0.862,-0.549,-1.312,-0.549,0.854,73.333,9494.000,1.000
-3.187,-3.207,-3.206,-3.106,-3.079,-3.054,-3.290,-3.402,-0.075,0.862,-0.550,-1.312,-0.366,0.824,73.333,9495.000,1.000
-3.656,-3.698,-3.814,-3.693,-3.764,-3.639,-3.874,-3.837,-0.075,0.861,-0.552,-1.404,-0.214,0.732,73.333,9496.000,1.000
-0.137,-0.212,-0.351,-0.352,-0.461,-0.240,-0.409,-0.284,-0.076,0.862,-0.555,-1.404,-0.092,0.641,73.333,9497.000,1.000
3.584,3.475,3.407,3.190,3.121,3.380,3.348,3.465,-0.075,0.860,-0.552,-1.404,-0.092,0.549,73.333,9498.000,1.000
3.172,3.025,3.097,2.661,2.672,2.890,3.048,3.089,-0.073,0.858,-0.553,-1.465,0.122,0.488,73.333,9499.000,1.000
-0.385,-0.574,-0.330,-0.906,-0.839,-0.718,-0.379,-0.410,-0.073,0.859,-0.551,-1.434,0.122,0.488,73.333,9500.000,1.000
-1.496,-1.704,-1.311,-1.914,-1.855,-1.839,-1.409,-1.438,-0.071,0.859,-0.553,-1.373,0.244,0.427,73.333,9501.000,1.000
2.834,2.657,3.111,2.594,2.584,2.535,2.917,2.970,-0.072,0.856,-0.558,-1.343,0.336,0.336,73.333,9502.000,1.000
8.538,8.433,8.824,8.483,8.385,8.332,8.542,8.706,-0.073,0.856,-0.554,-1.251,0.336,0.244,73.333,9503.000,1.000
9.248,9.217,9.443,9.330,9.172,9.157,9.149,9.383,-0.073,0.858,-0.552,-1.221,0.397,0.183,73.333,9504.000,1.000
4.463,4.480,4.507,4.624,4.436,4.478,4.289,4.516,-0.074,0.858,-0.554,-1.129,0.519,0.092,73.333,9505.000,1.000
0.176,0.223,0.083,0.377,0.173,0.271,-0.012,0.140,-0.073,0.858,-0.556,-1.099,0.702,0.092,73.333,9506.000,1.000
1.232,1.310,1.073,1.442,1.245,1.378,1.095,1.143,-0.074,0.859,-0.555,-1.007,0.763,0.031,73.333,9507.000,1.000
5.543,5.668,5.395,5.729,5.580,5.718,5.491,5.458,-0.074,0.860,-0.556,-0.946,0.824,0.122,73.333,9508.000,1.000
7.487,7.657,7.387,7.626,7.546,7.682,7.504,7.456,-0.076,0.861,-0.555,-0.763,0.885,0.092,73.333,9509.000,1.000
5.417,5.589,5.337,5.497,5.465,5.622,5.441,5.457,-0.077,0.861,-0.557,-0.763,0.885,0.061,73.333,9510.000,1.000
3.163,3.269,3.029,3.180,3.157,3.357,3.115,3.253,-0.078,0.861,-0.554,-0.671,0.854,0.000,73.333,9511.000,1.000
4.415,4.402,4.158,4.376,4.341,4.565,4.240,4.510,-0.077,0.861,-0.554,-0.702,0.885,-0.031,73.333,9512.000,1.000
8.016,7.873,7.621,7.938,7.902,8.088,7.715,8.061,-0.080,0.860,-0.553,-0.641,0.946,0.000,73.333,9513.000,1.000
9.958,9.729,9.487,9.857,9.856,9.934,9.602,9.902,-0.081,0.860,-0.554,-0.885,0.763,0.000,73.333,9514.000,1.000
8.609,8.378,8.181,8.493,8.572,8.509,8.321,8.434,-0.083,0.862,-0.553,-0.977,0.763,0.000,73.333,9515.000,1.000
6.126,5.980,5.848,5.995,6.178,6.001,6.021,5.866,-0.083,0.862,-0.553,-0.854,0.732,-0.031,73.333,9516.000,1.000
5.177,5.152,5.068,5.021,5.282,5.067,5.274,4.889,-0.080,0.863,-0.553,-0.732,0.702,-0.031,73.333,9517.000,1.000
5.814,5.885,5.813,5.628,5.906,5.724,6.028,5.553,-0.081,0.861,-0.553,-0.824,0.549,0.000,73.333,9518.000,1.000
6.129,6.246,6.163,5.924,6.161,6.045,6.341,5.934,-0.082,0.863,-0.557,-0.824,0.397,0.061,73.333,9519.000,1.000
4.991,5.112,5.017,4.782,4.952,4.896,5.113,4.868,-0.083,0.862,-0.556,-0.854,0.397,0.122,73.333,9520.000,1.000
3.076,3.171,3.090,2.872,2.971,2.953,3.077,2.994,-0.082,0.863,-0.557,-0.885,0.336,0.061,73.333,9521.000,1.000
1.625,1.663,1.638,1.430,1.459,1.443,1.515,1.529,-0.082,0.863,-0.556,-0.854,0.122,0.183,73.333,9522.000,1.000
0.981,0.946,1.002,0.800,0.770,0.725,0.788,0.826,-0.083,0.863,-0.555,-0.854,-0.031,0.244,73.333,9523.000,1.000
0.566,0.469,0.584,0.397,0.345,0.252,0.327,0.336,-0.081,0.864,-0.553,-0.916,0.061,0.244,73.333,9524.000,1.000
-0.180,-0.319,-0.202,-0.360,-0.378,-0.525,-0.433,-0.471,-0.080,0.863,-0.554,-0.916,-0.031,0.244,73.333,9525.000,1.000
-1.281,-1.455,-1.387,-1.499,-1.436,-1.632,-1.521,-1.601,-0.081,0.863,-0.554,-0.916,-0.092,0.244,73.333,9526.000,1.000
-2.281,-2.498,-2.488,-2.539,-2.387,-2.607,-2.485,-2.585,-0.079,0.861,-0.557,-0.946,-0.275,0.336,73.333,9527.000,1.000
-2.615,-2.877,-2.889,-2.876,-2.676,-2.872,-2.751,-2.849,-0.080,0.861,-0.553,-0.916,-0.305,0.427,73.333,9528.000,1.000
-2.123,-2.399,-2.390,-2.330,-2.152,-2.271,-2.159,-2.244,-0.081,0.860,-0.553,-0.824,-0.427,0.488,73.333,9529.000,1.000
-1.418,-1.649,-1.593,-1.518,-1.430,-1.447,-1.337,-1.419,-0.082,0.858,-0.554,-0.916,-0.519,0.549,73.333,9530.000,1.000
-1.525,-1.656,-1.549,-1.487,-1.522,-1.459,-1.341,-1.443,-0.081,0.857,-0.554,-0.824,-0.671,0.427,73.333,9531.000,1.000
-2.614,-2.637,-2.482,-2.446,-2.593,-2.510,-2.373,-2.515,-0.081,0.856,-0.555,-0.854,-0.702,0.488,73.333,9532.000,1.000
-3.457,-3.425,-3.221,-3.207,-3.418,-3.380,-3.225,-3.404,-0.079,0.854,-0.553,-0.885,-0.793,0.641,73.333,9533.000,1.000
-2.827,-2.813,-2.573,-2.555,-2.777,-2.811,-2.659,-2.843,-0.079,0.852,-0.557,-0.793,-0.885,0.610,73.333,9534.000,1.000
-1.325,-1.366,-1.131,-1.066,-1.261,-1.360,-1.240,-1.376,-0.077,0.855,-0.556,-0.702,-0.916,0.671,73.333,9535.000,1.000
-1.027,-1.083,-0.929,-0.778,-0.917,-1.067,-0.987,-1.037,-0.077,0.857,-0.554,-0.671,-0.824,0.793,73.333,9536.000,1.000
-2.732,-2.705,-2.711,-2.473,-2.524,-2.715,-2.663,-2.633,-0.074,0.859,-0.554,-0.641,-0.977,0.854,73.333,9537.000,1.000
-4.420,-4.220,-4.446,-4.162,-4.079,-4.300,-4.276,-4.214,-0.075,0.857,-0.553,-0.610,-1.007,0.854,73.333,9538.000,1.000
-3.516,-3.130,-3.584,-3.304,-3.065,-3.288,-3.323,-3.281,-0.075,0.855,-0.552,-0.671,-0.977,0.885,73.333,9539.000,1.000
-0.361,0.117,-0.497,-0.245,0.116,-0.077,-0.206,-0.196,-0.080,0.857,-0.552,-0.732,-1.038,0.824,73.333,9540.000,1.000
1.712,2.137,1.487,1.723,2.118,1.971,1.742,1.755,-0.085,0.857,-0.555,-0.854,-1.068,0.793,73.333,9541.000,1.000
0.295,0.552,-0.016,0.235,0.559,0.450,0.153,0.220,-0.086,0.859,-0.553,-0.854,-1.190,0.610,73.333,9542.000,1.000
-3.264,-3.205,-3.623,-3.346,-3.169,-3.262,-3.570,-3.423,-0.086,0.862,-0.552,-0.885,-1.282,0.610,73.333,9543.000,1.000
-5.828,-5.910,-6.171,-5.895,-5.882,-5.972,-6.232,-6.021,-0.085,0.861,-0.558,-0.885,-1.434,0.458,73.333,9544.000,1.000
-6.398,-6.523,-6.640,-6.439,-6.537,-6.626,-6.789,-6.569,-0.082,0.860,-0.555,-0.916,-1.526,0.397,73.333,9545.000,1.000
-6.683,-6.772,-6.749,-6.716,-6.836,-6.908,-6.954,-6.796,-0.080,0.860,-0.556,-1.007,-1.587,0.397,73.333,9546.000,1.000
-7.766,-7.793,-7.625,-7.825,-7.888,-7.915,-7.863,-7.819,-0.078,0.861,-0.555,-1.038,-1.617,0.336,73.333,9547.000,1.000
-8.021,-8.009,-7.705,-8.125,-8.097,-8.066,-7.966,-8.025,-0.076,0.861,-0.553,-1.068,-1.556,0.305,73.333,9548.000,1.000
-5.453,-5.444,-5.051,-5.578,-5.484,-5.417,-5.331,-5.406,-0.077,0.861,-0.555,-1.190,-1.556,0.305,73.333,9549.000,1.000
-1.115,-1.152,-0.743,-1.212,-1.110,-1.061,-1.037,-1.027,-0.076,0.862,-0.555,-1.190,-1.465,0.275,73.333,9550.000,1.000
1.269,1.170,1.517,1.242,1.304,1.276,1.236,1.366,-0.074,0.863,-0.554,-1.221,-1.434,0.305,73.333,9551.000,1.000
-0.562,-0.702,-0.469,-0.502,-0.499,-0.635,-0.686,-0.485,-0.073,0.861,-0.556,-1.099,-1.465,0.336,73.333,9552.000,1.000
-4.807,-4.945,-4.835,-4.661,-4.719,-4.954,-4.926,-4.747,-0.075,0.856,-0.557,-1.038,-1.434,0.397,73.333,9553.000,1.000
-7.690,-7.801,-7.772,-7.466,-7.585,-7.872,-7.691,-7.617,-0.076,0.857,-0.555,-0.977,-1.343,0.488,73.333,9554.000,1.000
-7.358,-7.443,-7.428,-7.064,-7.232,-7.523,-7.175,-7.242,-0.077,0.857,-0.555,-0.885,-1.404,0.549,73.333,9555.000,1.000
-5.078,-5.149,-5.106,-4.732,-4.922,-5.198,-4.732,-4.906,-0.080,0.857,-0.556,-0.824,-1.434,0.641,73.333,9556.000,1.000
-2.957,-3.019,-2.959,-2.599,-2.787,-3.039,-2.548,-2.738,-0.080,0.858,-0.558,-0.793,-1.373,0.610,73.333,9557.000,1.000
-1.632,-1.678,-1.649,-1.320,-1.495,-1.709,-1.299,-1.401,-0.082,0.859,-0.556,-0.793,-1.373,0.610,73.333,9558.000,1.000
-0.592,-0.609,-0.661,-0.379,-0.545,-0.711,-0.448,-0.403,-0.079,0.858,-0.554,-0.763,-1.404,0.610,73.333,9559.000,1.000
0.143,0.147,0.002,0.224,0.060,-0.061,0.050,0.232,-0.080,0.859,-0.557,-0.732,-1.526,0.580,73.333,9560.000,1.000
-0.302,-0.308,-0.510,-0.349,-0.519,-0.600,-0.609,-0.346,-0.079,0.862,-0.558,-0.702,-1.434,0.580,73.333,9561.000,1.000
-2.129,-2.177,-2.365,-2.255,-2.440,-2.481,-2.576,-2.285,-0.077,0.860,-0.558,-0.732,-1.404,0.610,73.333,9562.000,1.000
-3.993,-4.083,-4.183,-4.115,-4.328,-4.327,-4.466,-4.186,-0.075,0.860,-0.556,-0.641,-1.404,0.580,73.333,9563.000,1.000
-4.329,-4.414,-4.385,-4.360,-4.613,-4.576,-4.695,-4.463,-0.075,0.861,-0.560,-0.671,-1.343,0.732,73.333,9564.000,1.000
-3.206,-3.217,-3.078,-3.096,-3.382,-3.333,-3.361,-3.213,-0.075,0.862,-0.559,-0.793,-1.251,0.793,73.333,9565.000,1.000
-2.272,-2.153,-1.980,-2.026,-2.311,-2.286,-2.186,-2.146,-0.074,0.862,-0.557,-0.732,-1.160,0.885,73.333,9566.000,1.000
-2.659,-2.399,-2.283,-2.340,-2.563,-2.597,-2.386,-2.457,-0.075,0.862,-0.560,-0.763,-1.160,0.885,73.333,9567.000,1.000
-3.644,-3.296,-3.280,-3.347,-3.444,-3.563,-3.285,-3.458,-0.077,0.859,-0.560,-0.763,-1.129,0.793,73.333,9568.000,1.000
-3.791,-3.451,-3.512,-3.598,-3.543,-3.743,-3.450,-3.705,-0.077,0.861,-0.556,-0.671,-1.068,0.793,73.333,9569.000,1.000
-2.911,-2.669,-2.761,-2.872,-2.689,-2.917,-2.658,-2.958,-0.078,0.859,-0.556,-0.763,-1.038,0.885,73.333,9570.000,1.000
-2.280,-2.174,-2.270,-2.406,-2.155,-2.323,-2.131,-2.426,-0.077,0.857,-0.559,-0.793,-0.854,0.793,73.333,9571.000,1.000
-2.858,-2.861,-2.966,-3.128,-2.867,-2.911,-2.776,-3.020,-0.078,0.857,-0.559,-0.702,-0.854,0.732,73.333,9572.000,1.000
-4.057,-4.096,-4.239,-4.419,-4.181,-4.104,-3.984,-4.150,-0.077,0.857,-0.560,-0.763,-0.732,0.671,73.333,9573.000,1.000
-4.615,-4.611,-4.827,-5.006,-4.786,-4.655,-4.512,-4.595,-0.076,0.857,-0.561,-0.702,-0.702,0.580,73.333,9574.000,1.000
-4.202,-4.108,-4.402,-4.553,-4.334,-4.232,-4.055,-4.071,-0.076,0.854,-0.559,-0.732,-0.610,0.580,73.333,9575.000,1.000
-3.662,-3.490,-3.823,-3.921,-3.708,-3.672,-3.481,-3.465,-0.077,0.855,-0.556,-0.641,-0.671,0.580,73.333,9576.000,1.000
-3.654,-3.459,-3.776,-3.812,-3.631,-3.639,-3.469,-3.460,-0.076,0.854,-0.558,-0.610,-0.671,0.488,73.333,9577.000,1.000
-3.689,-3.519,-3.793,-3.787,-3.645,-3.648,-3.537,-3.565,-0.076,0.853,-0.559,-0.458,-0.580,0.336,73.333,9578.000,1.000
-2.850,-2.707,-2.949,-2.958,-2.818,-2.792,-2.763,-2.837,-0.076,0.853,-0.559,-0.488,-0.549,0.305,73.333,9579.000,1.000
-1.118,-0.963,-1.198,-1.298,-1.104,-1.055,-1.112,-1.220,-0.077,0.854,-0.557,-0.427,-0.610,0.214,73.333,9580.000,1.000
0.421,0.636,0.404,0.159,0.439,0.491,0.346,0.249,-0.079,0.858,-0.558,-0.366,-0.641,0.183,73.333,9581.000,1.000
0.825,1.122,0.931,0.552,0.897,0.932,0.690,0.667,-0.078,0.857,-0.559,-0.366,-0.580,0.061,73.333,9582.000,1.000
0.304,0.659,0.572,0.137,0.484,0.492,0.159,0.251,-0.080,0.859,-0.556,-0.305,-0.610,-0.061,73.333,9583.000,1.000
-0.204,0.154,0.216,-0.177,0.104,0.095,-0.285,-0.102,-0.081,0.859,-0.559,-0.366,-0.519,-0.092,73.333,9584.000,1.000
-0.101,0.200,0.412,0.117,0.284,0.294,-0.063,0.135,-0.083,0.860,-0.561,-0.488,-0.549,-0.183,73.333,9585.000,1.000
0.445,0.647,0.972,0.761,0.800,0.859,0.605,0.734,-0.082,0.860,-0.562,-0.580,-0.519,-0.275,73.333,9586.000,1.000
1.166,1.260,1.631,1.445,1.382,1.493,1.406,1.418,-0.083,0.860,-0.561,-0.549,-0.641,-0.214,73.333,9587.000,1.000
2.268,2.278,2.627,2.407,2.298,2.438,2.526,2.431,-0.083,0.861,-0.559,-0.702,-0.671,-0.275,73.333,9588.000,1.000
4.059,4.000,4.301,4.030,3.929,4.062,4.250,4.112,-0.083,0.862,-0.559,-0.702,-0.702,-0.305,73.333,9589.000,1.000
6.242,6.097,6.375,6.067,6.025,6.108,6.266,6.170,-0.083,0.863,-0.555,-0.702,-0.732,-0.336,73.333,9590.000,1.000
7.962,7.703,7.996,7.678,7.736,7.739,7.744,7.758,-0.084,0.862,-0.558,-0.641,-0.854,-0.244,73.333,9591.000,1.000
8.781,8.411,8.737,8.428,8.603,8.534,8.337,8.466,-0.084,0.863,-0.559,-0.824,-0.946,-0.244,73.333,9592.000,1.000
9.233,8.808,9.161,8.870,9.132,9.035,8.693,8.881,-0.083,0.860,-0.555,-0.854,-0.946,-0.275,73.333,9593.000,1.000
10.119,9.731,10.097,9.822,10.097,10.035,9.671,9.850,-0.083,0.862,-0.557,-1.007,-1.007,-0.183,73.333,9594.000,1.000
11.432,11.164,11.527,11.261,11.472,11.494,11.227,11.364,-0.084,0.861,-0.554,-1.007,-1.099,-0.031,73.333,9595.000,1.000
12.241,12.122,12.473,12.206,12.320,12.432,12.312,12.419,-0.085,0.860,-0.554,-1.038,-1.160,-0.153,73.333,9596.000,1.000
11.803,11.788,12.131,11.856,11.889,12.057,12.052,12.157,-0.086,0.862,-0.556,-1.190,-1.129,-0.031,73.333,9597.000,1.000
10.402,10.402,10.748,10.477,10.470,10.638,10.673,10.793,-0.084,0.861,-0.556,-1.251,-1.221,0.153,73.333,9598.000,1.000
8.902,8.843,9.186,8.950,8.936,9.060,9.082,9.203,-0.085,0.861,-0.554,-1.312,-1.343,0.183,73.333,9599.000,1.000
7.740,7.616,7.920,7.753,7.738,7.811,7.817,7.889,-0.085,0.860,-0.554,-1.282,-1.404,0.153,73.333,9600.000,1.000
6.654,6.521,6.740,6.657,6.610,6.663,6.685,6.649,-0.084,0.859,-0.556,-1.312,-1.404,0.122,73.333,9601.000,1.000
5.406,5.332,5.440,5.441,5.308,5.387,5.455,5.281,-0.086,0.859,-0.558,-1.312,-1.495,0.214,73.333,9602.000,1.000
4.288,4.312,4.326,4.401,4.143,4.278,4.396,4.099,-0.084,0.859,-0.560,-1.373,-1.556,0.275,73.333,9603.000,1.000
3.752,3.858,3.827,3.957,3.598,3.776,3.929,3.550,-0.083,0.858,-0.558,-1.221,-1.709,0.305,73.333,9604.000,1.000
3.779,3.903,3.860,4.033,3.655,3.838,4.002,3.577,-0.082,0.859,-0.557,-1.221,-1.678,0.336,73.333,9605.000,1.000
3.718,3.783,3.712,3.944,3.629,3.790,3.944,3.483,-0.079,0.859,-0.561,-1.190,-1.740,0.427,73.333,9606.000,1.000
2.920,2.874,2.730,3.066,2.837,2.975,3.110,2.618,-0.080,0.859,-0.556,-1.282,-1.740,0.488,73.333,9607.000,1.000
1.415,1.257,1.001,1.483,1.304,1.426,1.559,1.054,-0.078,0.861,-0.555,-1.312,-1.770,0.519,73.333,9608.000,1.000
-0.189,-0.414,-0.793,-0.158,-0.346,-0.234,-0.072,-0.562,-0.078,0.861,-0.559,-1.404,-1.678,0.519,73.333,9609.000,1.000
-1.401,-1.626,-2.098,-1.361,-1.600,-1.486,-1.282,-1.727,-0.078,0.860,-0.558,-1.434,-1.587,0.610,73.333,9610.000,1.000
-2.290,-2.466,-2.946,-2.215,-2.509,-2.373,-2.146,-2.530,-0.077,0.860,-0.556,-1.282,-1.587,0.610,73.333,9611.000,1.000
-3.141,-3.261,-3.629,-3.038,-3.347,-3.165,-2.956,-3.283,-0.079,0.860,-0.562,-1.221,-1.404,0.549,73.333,9612.000,1.000
-4.011,-4.103,-4.277,-3.908,-4.190,-3.943,-3.800,-4.081,-0.077,0.861,-0.560,-1.312,-1.343,0.610,73.333,9613.000,1.000
-4.802,-4.892,-4.881,-4.716,-4.961,-4.661,-4.613,-4.852,-0.077,0.861,-0.557,-1.343,-1.221,0.641,73.333,9614.000,1.000
-5.549,-5.628,-5.508,-5.455,-5.682,-5.394,-5.427,-5.609,-0.077,0.861,-0.556,-1.282,-1.129,0.641,73.333,9615.000,1.000
-6.466,-6.492,-6.348,-6.311,-6.526,-6.353,-6.408,-6.514,-0.077,0.861,-0.555,-1.343,-1.160,0.610,73.333,9616.000,1.000
-7.482,-7.421,-7.301,-7.243,-7.410,-7.431,-7.448,-7.478,-0.077,0.860,-0.556,-1.251,-1.129,0.519,73.333,9617.000,1.000
-7.999,-7.866,-7.784,-7.729,-7.786,-7.996,-7.966,-7.949,-0.076,0.860,-0.556,-1.160,-1.007,0.397,73.333,9618.000,1.000
-7.500,-7.334,-7.299,-7.292,-7.200,-7.496,-7.480,-7.450,-0.078,0.860,-0.557,-1.343,-0.946,0.488,73.333,9619.000,1.000
-6.347,-6.181,-6.192,-6.263,-6.041,-6.272,-6.368,-6.329,-0.077,0.859,-0.557,-1.404,-0.946,0.397,73.333,9620.000,1.000
-5.663,-5.515,-5.560,-5.699,-5.421,-5.447,-5.753,-5.668,-0.077,0.859,-0.553,-1.282,-0.824,0.427,73.333,9621.000,1.000
-6.026,-5.914,-5.975,-6.138,-5.884,-5.642,-6.206,-6.023,-0.078,0.860,-0.556,-1.312,-0.702,0.397,73.333,9622.000,1.000
-6.656,-6.605,-6.657,-6.781,-6.600,-6.145,-6.922,-6.618,-0.078,0.859,-0.555,-1.343,-0.641,0.305,73.333,9623.000,1.000
-6.359,-6.377,-6.399,-6.445,-6.337,-5.809,-6.681,-6.267,-0.078,0.860,-0.553,-1.312,-0.549,0.305,73.333,9624.000,1.000
-5.101,-5.162,-5.166,-5.129,-5.059,-4.607,-5.432,-4.955,-0.079,0.859,-0.556,-1.312,-0.488,0.244,73.333,9625.000,1.000
-4.157,-4.195,-4.239,-4.132,-4.059,-3.781,-4.433,-3.961,-0.079,0.861,-0.557,-1.221,-0.366,0.183,73.333,9626.000,1.000
-4.396,-4.336,-4.497,-4.326,-4.232,-4.154,-4.555,-4.137,-0.078,0.860,-0.556,-1.221,-0.366,0.214,73.333,9627.000,1.000
-5.088,-4.885,-5.221,-4.986,-4.880,-4.958,-5.098,-4.744,-0.078,0.862,-0.555,-1.190,-0.244,0.275,73.333,9628.000,1.000
-4.877,-4.565,-5.058,-4.778,-4.682,-4.828,-4.767,-4.463,-0.079,0.861,-0.555,-1.221,-0.275,0.275,73.333,9629.000,1.000
-3.502,-3.185,-3.724,-3.452,-3.375,-3.506,-3.336,-3.076,-0.077,0.859,-0.555,-1.190,-0.244,0.183,73.333,9630.000,1.000
-2.023,-1.812,-2.248,-2.044,-1.966,-2.055,-1.863,-1.648,-0.078,0.858,-0.551,-1.251,-0.153,0.183,73.333,9631.000,1.000
-1.370,-1.321,-1.554,-1.446,-1.345,-1.410,-1.272,-1.088,-0.077,0.858,-0.555,-1.190,-0.153,0.305,73.333,9632.000,1.000
-1.339,-1.422,-1.448,-1.422,-1.303,-1.377,-1.352,-1.171,-0.080,0.858,-0.552,-1.129,-0.183,0.336,73.333,9633.000,1.000
-1.163,-1.289,-1.170,-1.196,-1.084,-1.186,-1.301,-1.100,-0.079,0.854,-0.555,-1.099,-0.153,0.275,73.333,9634.000,1.000
-0.578,-0.649,-0.471,-0.517,-0.429,-0.564,-0.799,-0.572,-0.079,0.857,-0.555,-1.007,-0.122,0.366,73.333,9635.000,1.000
-0.063,-0.020,0.138,0.101,0.182,0.016,-0.282,-0.049,-0.080,0.856,-0.554,-0.977,-0.092,0.366,73.333,9636.000,1.000
-0.095,0.058,0.151,0.142,0.257,0.065,-0.229,-0.015,-0.079,0.856,-0.554,-0.977,-0.092,0.427,73.333,9637.000,1.000
-0.580,-0.380,-0.344,-0.319,-0.147,-0.348,-0.588,-0.403,-0.080,0.857,-0.554,-0.885,-0.122,0.458,73.333,9638.000,1.000
-1.077,-0.901,-0.887,-0.830,-0.610,-0.816,-0.978,-0.801,-0.082,0.859,-0.554,-0.916,-0.153,0.580,73.333,9639.000,1.000
-1.253,-1.142,-1.120,-1.037,-0.805,-1.027,-1.117,-0.916,-0.082,0.856,-0.554,-0.763,-0.183,0.580,73.333,9640.000,1.000
-1.083,-1.049,-1.011,-0.915,-0.711,-0.975,-0.997,-0.765,-0.081,0.857,-0.553,-0.732,-0.214,0.610,73.333,9641.000,1.000
-0.668,-0.708,-0.651,-0.569,-0.431,-0.758,-0.686,-0.468,-0.079,0.859,-0.552,-0.732,-0.275,0.641,73.333,9642.000,1.000
-0.074,-0.184,-0.099,-0.073,-0.023,-0.403,-0.194,-0.064,-0.081,0.860,-0.552,-0.793,-0.305,0.702,73.333,9643.000,1.000
0.632,0.453,0.580,0.513,0.482,0.085,0.438,0.444,-0.080,0.861,-0.553,-0.793,-0.336,0.610,73.333,9644.000,1.000
1.342,1.099,1.268,1.111,1.028,0.652,1.096,1.024,-0.078,0.862,-0.554,-0.763,-0.305,0.610,73.333,9645.000,1.000
1.860,1.583,1.763,1.569,1.463,1.137,1.563,1.528,-0.079,0.862,-0.551,-0.763,-0.336,0.702,73.333,9646.000,1.000
1.978,1.727,1.862,1.694,1.592,1.327,1.622,1.733,-0.078,0.864,-0.554,-0.732,-0.336,0.793,73.333,9647.000,1.000
1.542,1.386,1.427,1.312,1.241,1.033,1.142,1.427,-0.078,0.861,-0.557,-0.885,-0.275,0.702,73.333,9648.000,1.000
0.616,0.592,0.531,0.448,0.419,0.262,0.221,0.610,-0.078,0.862,-0.554,-0.763,-0.275,0.671,73.333,9649.000,1.000
-0.316,-0.222,-0.340,-0.443,-0.441,-0.540,-0.630,-0.267,-0.077,0.862,-0.555,-0.793,-0.305,0.580,73.333,9650.000,1.000
-0.610,-0.449,-0.557,-0.727,-0.720,-0.746,-0.774,-0.552,-0.078,0.860,-0.555,-0.885,-0.336,0.610,73.333,9651.000,1.000
-0.088,0.085,0.042,-0.216,-0.216,-0.168,-0.072,-0.040,-0.082,0.859,-0.555,-1.007,-0.427,0.519,73.333,9652.000,1.000
0.613,0.765,0.816,0.471,0.476,0.580,0.783,0.660,-0.079,0.860,-0.556,-1.038,-0.519,0.366,73.333,9653.000,1.000
0.608,0.730,0.870,0.462,0.497,0.645,0.866,0.679,-0.079,0.861,-0.553,-0.977,-0.549,0.275,73.333,9654.000,1.000
-0.176,-0.087,0.103,-0.305,-0.235,-0.044,0.091,-0.059,-0.078,0.861,-0.556,-0.977,-0.549,0.275,73.333,9655.000,1.000
-0.867,-0.825,-0.639,-0.952,-0.885,-0.654,-0.655,-0.703,-0.080,0.861,-0.556,-0.916,-0.549,0.122,73.333,9656.000,1.000
-0.707,-0.743,-0.590,-0.738,-0.737,-0.492,-0.596,-0.525,-0.079,0.860,-0.557,-1.007,-0.702,0.061,73.333,9657.000,1.000
-0.071,-0.208,-0.087,-0.074,-0.188,0.035,-0.075,0.077,-0.077,0.860,-0.557,-1.038,-0.824,-0.092,73.333,9658.000,1.000
0.069,-0.169,-0.064,0.035,-0.186,-0.023,-0.033,0.124,-0.078,0.858,-0.554,-1.038,-0.854,-0.061,73.333,9659.000,1.000
-0.296,-0.603,-0.510,-0.421,-0.682,-0.615,-0.461,-0.374,-0.078,0.859,-0.552,-1.038,-0.702,-0.031,73.333,9660.000,1.000
-0.001,-0.322,-0.250,-0.229,-0.451,-0.506,-0.187,-0.211,-0.080,0.858,-0.554,-1.190,-0.732,-0.061,73.333,9661.000,1.000
1.674,1.399,1.449,1.407,1.254,1.084,1.518,1.391,-0.078,0.855,-0.557,-1.129,-0.854,-0.061,73.333,9662.000,1.000
3.730,3.541,3.579,3.531,3.424,3.180,3.646,3.470,-0.080,0.856,-0.560,-1.129,-0.854,-0.122,73.333,9663.000,1.000
4.477,4.371,4.421,4.414,4.334,4.072,4.473,4.326,-0.079,0.857,-0.553,-1.038,-0.854,-0.122,73.333,9664.000,1.000
3.660,3.605,3.686,3.726,3.693,3.466,3.714,3.664,-0.078,0.859,-0.555,-0.977,-0.916,-0.061,73.333,9665.000,1.000
2.774,2.740,2.850,2.899,2.960,2.805,2.858,2.926,-0.081,0.860,-0.556,-0.885,-0.885,-0.061,73.333,9666.000,1.000
3.224,3.220,3.311,3.320,3.514,3.438,3.325,3.481,-0.080,0.861,-0.553,-0.885,-0.854,0.000,73.333,9667.000,1.000
4.725,4.787,4.783,4.747,5.061,5.034,4.844,5.027,-0.079,0.863,-0.554,-0.946,-0.854,0.031,73.333,9668.000,1.000
5.914,6.067,5.912,5.877,6.236,6.222,6.049,6.198,-0.080,0.861,-0.551,-0.916,-0.885,0.092,73.333,9669.000,1.000
6.186,6.411,6.108,6.134,6.420,6.420,6.317,6.397,-0.081,0.861,-0.553,-0.946,-0.885,0.122,73.333,9670.000,1.000
6.199,6.444,6.058,6.169,6.280,6.338,6.310,6.321,-0.079,0.860,-0.557,-1.190,-0.824,0.092,73.333,9671.000,1.000
6.711,6.930,6.547,6.716,6.620,6.784,6.817,6.772,-0.079,0.860,-0.557,-1.160,-0.885,0.092,73.333,9672.000,1.000
7.437,7.607,7.296,7.477,7.226,7.507,7.582,7.486,-0.081,0.863,-0.556,-1.312,-0.793,0.031,73.333,9673.000,1.000
7.492,7.600,7.395,7.563,7.251,7.619,7.721,7.565,-0.081,0.864,-0.556,-1.282,-0.793,0.183,73.333,9674.000,1.000
6.748,6.773,6.680,6.851,6.544,6.950,7.061,6.832,-0.080,0.864,-0.557,-1.343,-0.854,0.153,73.333,9675.000,1.000
6.025,5.942,5.964,6.173,5.875,6.278,6.371,6.066,-0.077,0.863,-0.558,-1.404,-0.763,0.214,73.333,9676.000,1.000
5.960,5.753,5.895,6.161,5.835,6.212,6.253,5.900,-0.075,0.860,-0.553,-1.434,-0.793,0.183,73.333,9677.000,1.000
6.148,5.846,6.080,6.387,6.002,6.350,6.311,5.969,-0.073,0.858,-0.553,-1.526,-0.549,0.336,73.333,9678.000,1.000
5.754,5.433,5.684,5.991,5.546,5.876,5.756,5.473,-0.073,0.853,-0.554,-1.587,-0.427,0.458,73.333,9679.000,1.000
4.724,4.465,4.634,4.906,4.427,4.761,4.584,4.368,-0.074,0.855,-0.555,-1.526,-0.275,0.458,73.333,9680.000,1.000
3.821,3.669,3.688,3.913,3.442,3.788,3.593,3.415,-0.075,0.857,-0.554,-1.526,-0.214,0.488,73.333,9681.000,1.000
3.582,3.535,3.409,3.588,3.178,3.510,3.343,3.158,-0.078,0.858,-0.553,-1.526,-0.183,0.580,73.333,9682.000,1.000
3.611,3.633,3.438,3.566,3.268,3.531,3.436,3.209,-0.077,0.862,-0.555,-1.495,-0.122,0.519,73.333,9683.000,1.000
3.125,3.166,3.009,3.072,2.918,3.050,3.066,2.797,-0.081,0.862,-0.557,-1.495,-0.122,0.519,73.333,9684.000,1.000
2.046,2.062,2.026,2.016,1.998,1.964,2.115,1.842,-0.082,0.865,-0.556,-1.648,-0.214,0.488,73.333,9685.000,1.000
1.088,1.063,1.177,1.102,1.178,0.987,1.257,1.035,-0.084,0.866,-0.551,-1.740,-0.153,0.336,73.333,9686.000,1.000
0.939,0.887,1.120,1.006,1.122,0.830,1.159,1.018,-0.084,0.866,-0.553,-1.831,-0.275,0.275,73.333,9687.000,1.000
1.551,1.502,1.791,1.669,1.777,1.463,1.770,1.700,-0.088,0.866,-0.553,-1.801,-0.275,0.214,73.333,9688.000,1.000
2.244,2.228,2.500,2.398,2.449,2.187,2.411,2.380,-0.091,0.865,-0.557,-1.831,-0.397,0.183,73.333,9689.000,1.000
2.335,2.360,2.551,2.487,2.442,2.272,2.393,2.375,-0.091,0.865,-0.556,-1.892,-0.641,0.153,73.333,9690.000,1.000
1.467,1.516,1.581,1.557,1.412,1.345,1.370,1.349,-0.093,0.862,-0.550,-1.862,-0.916,0.061,73.333,9691.000,1.000
-0.402,-0.371,-0.429,-0.430,-0.635,-0.592,-0.667,-0.700,-0.094,0.863,-0.550,-1.923,-1.038,-0.122,73.333,9692.000,1.000
-3.022,-3.052,-3.180,-3.181,-3.384,-3.241,-3.422,-3.483,-0.092,0.864,-0.553,-2.075,-1.282,-0.122,73.333,9693.000,1.000
-5.725,-5.837,-5.953,-5.971,-6.113,-5.915,-6.179,-6.294,-0.090,0.864,-0.553,-2.045,-1.465,-0.336,73.333,9694.000,1.000
-7.466,-7.643,-7.682,-7.722,-7.764,-7.592,-7.863,-8.058,-0.089,0.861,-0.553,-2.014,-1.556,-0.305,73.333,9695.000,1.000
-7.407,-7.602,-7.550,-7.603,-7.533,-7.475,-7.650,-7.924,-0.087,0.861,-0.550,-2.045,-1.709,-0.275,73.333,9696.000,1.000
-5.476,-5.640,-5.537,-5.580,-5.424,-5.519,-5.541,-5.853,-0.085,0.864,-0.554,-1.923,-1.770,-0.214,73.333,9697.000,1.000
-2.461,-2.563,-2.476,-2.480,-2.294,-2.506,-2.406,-2.691,-0.082,0.865,-0.553,-1.953,-1.709,-0.092,73.333,9698.000,1.000
0.355,0.341,0.357,0.396,0.562,0.318,0.455,0.244,-0.081,0.864,-0.551,-2.106,-1.740,-0.092,73.333,9699.000,1.000
1.808,1.903,1.839,1.872,2.021,1.810,1.908,1.784,-0.080,0.863,-0.553,-2.075,-1.740,-0.092,73.333,9700.000,1.000
1.327,1.534,1.419,1.370,1.549,1.387,1.416,1.375,-0.077,0.860,-0.555,-1.892,-1.587,0.031,73.333,9701.000,1.000
-0.758,-0.466,-0.593,-0.763,-0.521,-0.650,-0.672,-0.648,-0.075,0.859,-0.554,-1.892,-1.465,0.244,73.333,9702.000,1.000
-3.366,-3.027,-3.145,-3.404,-3.122,-3.228,-3.261,-3.198,-0.076,0.857,-0.554,-1.770,-1.343,0.336,73.333,9703.000,1.000
-5.374,-5.005,-5.115,-5.386,-5.129,-5.195,-5.219,-5.136,-0.076,0.855,-0.552,-1.678,-1.282,0.488,73.333,9704.000,1.000
-6.298,-5.890,-6.009,-6.211,-6.048,-6.041,-6.066,-5.974,-0.076,0.855,-0.551,-1.526,-1.160,0.641,73.333,9705.000,1.000
-6.403,-5.947,-6.090,-6.181,-6.142,-6.039,-6.098,-6.009,-0.080,0.854,-0.552,-1.434,-1.160,0.763,73.333,9706.000,1.000
-6.152,-5.679,-5.851,-5.835,-5.881,-5.703,-5.827,-5.749,-0.079,0.854,-0.551,-1.343,-1.007,0.793,73.333,9707.000,1.000
-5.756,-5.336,-5.534,-5.441,-5.489,-5.288,-5.500,-5.410,-0.080,0.855,-0.548,-1.251,-0.946,0.793,73.333,9708.000,1.000
-5.254,-4.953,-5.172,-5.023,-5.013,-4.838,-5.141,-4.992,-0.082,0.856,-0.547,-1.221,-0.885,0.793,73.333,9709.000,1.000
-4.801,-4.632,-4.861,-4.671,-4.600,-4.479,-4.837,-4.603,-0.083,0.857,-0.548,-1.160,-0.854,0.763,73.333,9710.000,1.000
-4.755,-4.664,-4.884,-4.688,-4.596,-4.531,-4.872,-4.578,-0.084,0.856,-0.552,-1.038,-0.793,0.671,73.333,9711.000,1.000
-5.289,-5.210,-5.395,-5.239,-5.176,-5.154,-5.401,-5.108,-0.080,0.859,-0.549,-1.038,-0.702,0.610,73.333,9712.000,1.000
-6.096,-5.997,-6.130,-6.051,-6.042,-6.051,-6.160,-5.919,-0.080,0.859,-0.548,-0.977,-0.610,0.580,73.333,9713.000,1.000
-6.626,-6.528,-6.609,-6.618,-6.647,-6.689,-6.670,-6.491,-0.077,0.861,-0.547,-0.824,-0.580,0.519,73.333,9714.000,1.000
-6.581,-6.543,-6.576,-6.674,-6.688,-6.777,-6.671,-6.543,-0.079,0.861,-0.551,-0.793,-0.549,0.366,73.333,9715.000,1.000
-6.189,-6.256,-6.234,-6.410,-6.360,-6.507,-6.354,-6.267,-0.079,0.858,-0.552,-0.732,-0.397,0.214,73.333,9716.000,1.000
-5.808,-5.985,-5.895,-6.116,-5.986,-6.199,-6.014,-5.965,-0.080,0.858,-0.551,-0.671,-0.305,0.275,73.333,9717.000,1.000
-5.444,-5.715,-5.559,-5.776,-5.578,-5.857,-5.645,-5.628,-0.077,0.858,-0.553,-0.702,-0.214,0.275,73.333,9718.000,1.000
-4.797,-5.154,-4.963,-5.123,-4.890,-5.216,-4.988,-4.983,-0.078,0.859,-0.552,-0.641,-0.061,0.214,73.333,9719.000,1.000
-3.691,-4.127,-3.956,-4.020,-3.787,-4.130,-3.899,-3.886,-0.078,0.860,-0.552,-0.549,0.000,0.214,73.333,9720.000,1.000
-2.402,-2.885,-2.783,-2.752,-2.538,-2.873,-2.657,-2.627,-0.077,0.859,-0.556,-0.488,0.092,0.153,73.333,9721.000,1.000
-1.391,-1.856,-1.847,-1.760,-1.566,-1.882,-1.701,-1.649,-0.077,0.860,-0.557,-0.397,0.305,0.122,73.333,9722.000,1.000
-0.850,-1.223,-1.294,-1.219,-1.025,-1.319,-1.190,-1.111,-0.078,0.860,-0.556,-0.214,0.275,0.153,73.333,9723.000,1.000
-0.613,-0.847,-0.960,-0.954,-0.732,-1.005,-0.926,-0.814,-0.076,0.860,-0.552,-0.153,0.427,0.031,73.333,9724.000,1.000
-0.385,-0.496,-0.608,-0.677,-0.417,-0.659,-0.618,-0.472,-0.079,0.858,-0.552,-0.244,0.458,0.092,73.333,9725.000,1.000
-0.052,-0.105,-0.190,-0.290,-0.020,-0.198,-0.189,-0.027,-0.080,0.860,-0.549,-0.153,0.519,0.092,73.333,9726.000,1.000
0.355,0.286,0.236,0.158,0.394,0.313,0.291,0.424,-0.079,0.860,-0.551,-0.061,0.580,0.092,73.333,9727.000,1.000
0.806,0.679,0.674,0.627,0.813,0.834,0.778,0.820,-0.080,0.862,-0.558,-0.061,0.549,0.061,73.333,9728.000,1.000
1.271,1.088,1.145,1.093,1.254,1.340,1.246,1.154,-0.081,0.860,-0.553,-0.031,0.549,0.092,73.333,9729.000,1.000
1.645,1.437,1.568,1.463,1.653,1.742,1.605,1.374,-0.081,0.861,-0.554,0.000,0.427,0.031,73.333,9730.000,1.000
1.760,1.573,1.764,1.580,1.854,1.885,1.703,1.380,-0.081,0.859,-0.553,0.122,0.549,-0.031,73.333,9731.000,1.000
1.646,1.539,1.741,1.479,1.853,1.800,1.594,1.252,-0.082,0.860,-0.554,0.183,0.488,0.000,73.333,9732.000,1.000
1.606,1.630,1.792,1.474,1.903,1.790,1.600,1.307,-0.083,0.861,-0.553,0.122,0.427,0.092,73.333,9733.000,1.000
1.900,2.074,2.167,1.841,2.233,2.118,1.976,1.772,-0.085,0.862,-0.555,0.183,0.366,0.031,73.333,9734.000,1.000
2.474,2.760,2.793,2.512,2.791,2.732,2.637,2.527,-0.087,0.863,-0.554,0.092,0.427,-0.031,73.333,9735.000,1.000
2.989,3.305,3.308,3.121,3.260,3.276,3.209,3.169,-0.086,0.865,-0.551,0.092,0.305,0.061,73.333,9736.000,1.000
3.223,3.479,3.476,3.414,3.435,3.505,3.456,3.440,-0.085,0.863,-0.555,0.031,0.275,0.153,73.333,9737.000,1.000
3.311,3.461,3.456,3.522,3.475,3.561,3.532,3.491,-0.084,0.862,-0.555,0.031,0.153,0.183,73.333,9738.000,1.000
3.547,3.600,3.599,3.763,3.704,3.778,3.759,3.672,-0.084,0.859,-0.555,-0.061,0.031,0.214,73.333,9739.000,1.000
4.044,4.047,4.072,4.289,4.243,4.309,4.273,4.164,-0.085,0.860,-0.556,0.122,-0.061,0.305,73.333,9740.000,1.000
4.588,4.592,4.664,4.901,4.854,4.936,4.867,4.785,-0.086,0.860,-0.557,0.122,-0.092,0.275,73.333,9741.000,1.000
4.911,4.941,5.057,5.304,5.228,5.333,5.252,5.231,-0.086,0.860,-0.557,0.092,-0.092,0.336,73.333,9742.000,1.000
4.963,5.012,5.146,5.398,5.275,5.377,5.341,5.372,-0.085,0.860,-0.555,0.000,-0.244,0.305,73.333,9743.000,1.000
4.862,4.909,5.033,5.269,5.105,5.160,5.227,5.273,-0.085,0.862,-0.552,0.092,-0.275,0.397,73.333,9744.000,1.000
4.662,4.701,4.798,4.982,4.804,4.773,4.956,4.994,-0.083,0.863,-0.556,0.031,-0.244,0.549,73.333,9745.000,1.000
4.210,4.242,4.316,4.418,4.264,4.145,4.379,4.430,-0.084,0.860,-0.551,0.000,-0.366,0.519,73.333,9746.000,1.000
3.430,3.439,3.515,3.529,3.433,3.261,3.445,3.553,-0.083,0.856,-0.553,-0.122,-0.549,0.549,73.333,9747.000,1.000
2.555,2.509,2.626,2.567,2.532,2.363,2.434,2.625,-0.081,0.856,-0.557,-0.214,-0.549,0.519,73.333,9748.000,1.000
1.914,1.783,1.973,1.865,1.860,1.740,1.719,1.967,-0.079,0.855,-0.558,-0.122,-0.519,0.580,73.333,9749.000,1.000
1.610,1.395,1.653,1.527,1.511,1.458,1.428,1.659,-0.079,0.857,-0.560,-0.092,-0.519,0.580,73.333,9750.000,1.000
1.437,1.173,1.458,1.336,1.288,1.292,1.339,1.478,-0.078,0.858,-0.562,-0.031,-0.549,0.610,73.333,9751.000,1.000
1.161,0.911,1.171,1.052,0.978,1.015,1.188,1.208,-0.075,0.858,-0.562,-0.092,-0.427,0.763,73.333,9752.000,1.000
0.778,0.609,0.814,0.680,0.598,0.630,0.942,0.867,-0.073,0.858,-0.559,-0.092,-0.275,0.763,73.333,9753.000,1.000
0.457,0.423,0.563,0.404,0.325,0.320,0.756,0.622,-0.073,0.856,-0.557,-0.122,-0.244,0.763,73.333,9754.000,1.000
0.320,0.454,0.528,0.359,0.278,0.237,0.737,0.569,-0.077,0.855,-0.555,-0.214,-0.275,0.763,73.333,9755.000,1.000
0.224,0.528,0.531,0.388,0.285,0.262,0.706,0.527,-0.081,0.856,-0.556,-0.214,-0.275,0.732,73.333,9756.000,1.000
-0.152,0.292,0.226,0.149,-0.007,0.067,0.320,0.166,-0.085,0.855,-0.557,-0.275,-0.244,0.641,73.333,9757.000,1.000
-1.051,-0.526,-0.642,-0.629,-0.853,-0.638,-0.645,-0.744,-0.089,0.856,-0.559,-0.305,-0.336,0.580,73.333,9758.000,1.000
-2.469,-1.932,-2.082,-1.974,-2.247,-1.910,-2.141,-2.195,-0.088,0.857,-0.560,-0.336,-0.427,0.305,73.333,9759.000,1.000
-4.076,-3.591,-3.765,-3.573,-3.855,-3.454,-3.809,-3.861,-0.085,0.860,-0.556,-0.305,-0.549,0.244,73.333,9760.000,1.000
-5.278,-4.883,-5.081,-4.822,-5.081,-4.680,-5.062,-5.141,-0.085,0.863,-0.555,-0.305,-0.702,0.092,73.333,9761.000,1.000
-5.270,-4.985,-5.202,-4.897,-5.123,-4.772,-5.117,-5.216,-0.081,0.863,-0.553,-0.366,-0.702,0.092,73.333,9762.000,1.000
-3.378,-3.207,-3.426,-3.097,-3.295,-3.021,-3.309,-3.386,-0.081,0.862,-0.557,-0.671,-0.610,0.061,73.333,9763.000,1.000
0.277,0.332,0.149,0.474,0.290,0.483,0.240,0.233,-0.078,0.861,-0.559,-0.641,-0.671,0.092,73.333,9764.000,1.000
4.399,4.343,4.232,4.522,4.333,4.456,4.242,4.332,-0.079,0.862,-0.559,-0.732,-0.671,0.092,73.333,9765.000,1.000
7.044,6.899,6.861,7.086,6.880,6.951,6.772,6.944,-0.077,0.861,-0.559,-0.763,-0.549,0.122,73.333,9766.000,1.000
6.982,6.795,6.779,6.926,6.715,6.751,6.620,6.831,-0.079,0.861,-0.558,-0.854,-0.549,0.092,73.333,9767.000,1.000
4.597,4.418,4.368,4.441,4.258,4.265,4.183,4.397,-0.080,0.858,-0.561,-0.885,-0.427,0.092,73.333,9768.000,1.000
1.496,1.350,1.248,1.258,1.134,1.120,1.053,1.277,-0.082,0.857,-0.558,-0.824,-0.519,0.183,73.333,9769.000,1.000
-0.591,-0.723,-0.842,-0.883,-0.938,-0.961,-1.070,-0.796,-0.083,0.857,-0.562,-0.916,-0.458,0.244,73.333,9770.000,1.000
-0.792,-0.948,-1.028,-1.098,-1.111,-1.118,-1.315,-0.956,-0.082,0.856,-0.561,-0.824,-0.488,0.275,73.333,9771.000,1.000
0.675,0.479,0.468,0.410,0.385,0.424,0.137,0.572,-0.083,0.859,-0.557,-0.763,-0.458,0.366,73.333,9772.000,1.000
2.866,2.651,2.695,2.691,2.609,2.714,2.374,2.823,-0.084,0.860,-0.556,-0.763,-0.458,0.305,73.333,9773.000,1.000
4.649,4.456,4.514,4.582,4.420,4.600,4.262,4.639,-0.084,0.858,-0.560,-0.916,-0.488,0.397,73.333,9774.000,1.000
5.174,5.033,5.073,5.190,4.962,5.208,4.927,5.169,-0.083,0.861,-0.556,-0.854,-0.458,0.366,73.333,9775.000,1.000
4.147,4.067,4.087,4.206,3.942,4.224,4.041,4.145,-0.080,0.859,-0.557,-0.977,-0.458,0.366,73.333,9776.000,1.000
2.021,1.998,2.010,2.101,1.823,2.094,2.022,2.042,-0.081,0.858,-0.557,-0.946,-0.458,0.397,73.333,9777.000,1.000
-0.227,-0.194,-0.196,-0.128,-0.411,-0.184,-0.180,-0.174,-0.081,0.859,-0.558,-0.977,-0.397,0.427,73.333,9778.000,1.000
-1.740,-1.653,-1.693,-1.631,-1.896,-1.727,-1.714,-1.682,-0.081,0.859,-0.555,-1.007,-0.458,0.549,73.333,9779.000,1.000
-2.227,-2.111,-2.201,-2.152,-2.335,-2.247,-2.274,-2.223,-0.080,0.860,-0.558,-1.099,-0.488,0.580,73.333,9780.000,1.000
-1.960,-1.860,-1.991,-1.986,-2.010,-2.034,-2.086,-2.071,-0.081,0.861,-0.556,-1.099,-0.488,0.641,73.333,9781.000,1.000
-1.386,-1.345,-1.494,-1.561,-1.384,-1.529,-1.543,-1.634,-0.080,0.860,-0.555,-1.190,-0.427,0.732,73.333,9782.000,1.000
-0.831,-0.864,-1.022,-1.152,-0.799,-1.034,-0.948,-1.184,-0.081,0.861,-0.554,-1.221,-0.488,0.671,73.333,9783.000,1.000
-0.450,-0.540,-0.711,-0.863,-0.403,-0.675,-0.478,-0.826,-0.082,0.861,-0.556,-1.160,-0.488,0.824,73.333,9784.000,1.000
-0.230,-0.330,-0.511,-0.643,-0.152,-0.430,-0.156,-0.534,-0.081,0.859,-0.556,-1.160,-0.427,0.824,73.333,9785.000,1.000
-0.146,-0.200,-0.358,-0.460,0.002,-0.284,0.019,-0.306,-0.081,0.861,-0.558,-1.099,-0.488,0.916,73.333,9786.000,1.000
-0.247,-0.239,-0.315,-0.399,-0.013,-0.314,-0.020,-0.260,-0.081,0.859,-0.556,-1.129,-0.519,0.885,73.333,9787.000,1.000
-0.646,-0.624,-0.562,-0.638,-0.368,-0.657,-0.405,-0.573,-0.080,0.859,-0.555,-1.160,-0.458,0.946,73.333,9788.000,1.000
-1.421,-1.454,-1.252,-1.307,-1.190,-1.412,-1.214,-1.340,-0.080,0.857,-0.555,-1.068,-0.366,0.885,73.333,9789.000,1.000
-2.472,-2.598,-2.305,-2.304,-2.377,-2.485,-2.314,-2.424,-0.079,0.857,-0.556,-1.068,-0.488,0.885,73.333,9790.000,1.000
-3.557,-3.763,-3.451,-3.361,-3.638,-3.628,-3.428,-3.532,-0.077,0.857,-0.553,-1.099,-0.488,0.793,73.333,9791.000,1.000
-4.362,-4.603,-4.311,-4.139,-4.581,-4.498,-4.231,-4.319,-0.076,0.859,-0.555,-1.129,-0.366,0.763,73.333,9792.000,1.000
-4.608,-4.838,-4.550,-4.353,-4.868,-4.786,-4.457,-4.509,-0.078,0.860,-0.554,-1.038,-0.275,0.763,73.333,9793.000,1.000
-4.207,-4.406,-4.067,-3.911,-4.413,-4.392,-4.026,-4.041,-0.080,0.856,-0.555,-0.916,-0.183,0.763,73.333,9794.000,1.000
-3.265,-3.440,-3.016,-2.939,-3.377,-3.437,-3.055,-3.063,-0.080,0.854,-0.555,-0.854,-0.183,0.702,73.333,9795.000,1.000
-2.058,-2.218,-1.745,-1.746,-2.100,-2.211,-1.829,-1.889,-0.080,0.853,-0.555,-0.793,-0.305,0.580,73.333,9796.000,1.000
-0.938,-1.074,-0.638,-0.699,-0.956,-1.057,-0.706,-0.871,-0.081,0.857,-0.556,-0.793,-0.275,0.610,73.333,9797.000,1.000
-0.235,-0.330,-0.011,-0.109,-0.256,-0.292,-0.014,-0.292,-0.079,0.853,-0.557,-0.885,-0.366,0.549,73.333,9798.000,1.000
-0.110,-0.162,0.016,-0.109,-0.133,-0.093,0.075,-0.254,-0.077,0.855,-0.555,-0.793,-0.397,0.549,73.333,9799.000,1.000
-0.409,-0.442,-0.371,-0.535,-0.421,-0.350,-0.306,-0.579,-0.079,0.857,-0.556,-0.732,-0.336,0.427,73.333,9800.000,1.000
-0.812,-0.857,-0.825,-1.059,-0.799,-0.766,-0.838,-0.964,-0.081,0.856,-0.555,-0.671,-0.336,0.458,73.333,9801.000,1.000
-1.022,-1.103,-1.046,-1.365,-0.983,-1.037,-1.190,-1.143,-0.081,0.858,-0.558,-0.641,-0.366,0.519,73.333,9802.000,1.000
-0.926,-1.045,-0.944,-1.325,-0.884,-1.022,-1.191,-1.019,-0.080,0.860,-0.556,-0.549,-0.488,0.427,73.333,9803.000,1.000
-0.630,-0.772,-0.653,-1.035,-0.624,-0.792,-0.888,-0.698,-0.080,0.861,-0.553,-0.671,-0.397,0.519,73.333,9804.000,1.000
-0.247,-0.396,-0.292,-0.601,-0.307,-0.426,-0.375,-0.290,-0.081,0.861,-0.555,-0.671,-0.397,0.397,73.333,9805.000,1.000
0.231,0.084,0.165,-0.012,0.113,0.095,0.314,0.207,-0.081,0.860,-0.555,-0.732,-0.397,0.397,73.333,9806.000,1.000
0.886,0.750,0.811,0.784,0.749,0.822,1.162,0.867,-0.082,0.861,-0.554,-0.732,-0.549,0.336,73.333,9807.000,1.000
1.654,1.546,1.580,1.674,1.537,1.645,2.010,1.628,-0.082,0.863,-0.557,-0.732,-0.488,0.427,73.333,9808.000,1.000
2.261,2.219,2.204,2.347,2.183,2.279,2.563,2.242,-0.082,0.861,-0.555,-0.702,-0.488,0.427,73.333,9809.000,1.000
2.514,2.578,2.492,2.607,2.474,2.556,2.675,2.540,-0.081,0.860,-0.557,-0.824,-0.549,0.427,73.333,9810.000,1.000
2.442,2.622,2.461,2.496,2.427,2.524,2.456,2.552,-0.082,0.861,-0.555,-0.916,-0.641,0.427,73.333,9811.000,1.000
2.188,2.455,2.237,2.176,2.185,2.322,2.122,2.393,-0.084,0.862,-0.556,-0.824,-0.702,0.397,73.333,9812.000,1.000
1.803,2.108,1.867,1.724,1.808,1.981,1.751,2.082,-0.085,0.863,-0.556,-0.702,-0.702,0.366,73.333,9813.000,1.000
1.235,1.536,1.299,1.112,1.259,1.427,1.256,1.545,-0.086,0.862,-0.557,-0.763,-0.824,0.275,73.333,9814.000,1.000
0.525,0.797,0.568,0.390,0.587,0.695,0.613,0.831,-0.086,0.861,-0.553,-0.854,-0.824,0.244,73.333,9815.000,1.000
-0.171,0.049,-0.184,-0.309,-0.064,-0.045,-0.071,0.112,-0.086,0.860,-0.555,-0.885,-0.885,0.244,73.333,9816.000,1.000
-0.676,-0.535,-0.776,-0.836,-0.547,-0.599,-0.626,-0.429,-0.084,0.859,-0.557,-1.038,-0.977,0.336,73.333,9817.000,1.000
-0.922,-0.877,-1.096,-1.126,-0.811,-0.886,-0.942,-0.717,-0.083,0.859,-0.560,-0.946,-1.068,0.305,73.333,9818.000,1.000
-0.959,-0.987,-1.135,-1.192,-0.897,-0.933,-1.004,-0.784,-0.082,0.860,-0.559,-0.916,-1.099,0.305,73.333,9819.000,1.000
-0.817,-0.875,-0.917,-1.039,-0.811,-0.761,-0.821,-0.670,-0.080,0.859,-0.556,-0.763,-1.160,0.427,73.333,9820.000,1.000
-0.529,-0.595,-0.528,-0.716,-0.576,-0.425,-0.465,-0.441,-0.080,0.856,-0.559,-0.763,-1.068,0.458,73.333,9821.000,1.000
-0.161,-0.251,-0.106,-0.336,-0.266,-0.042,-0.073,-0.188,-0.081,0.855,-0.557,-0.671,-1.099,0.549,73.333,9822.000,1.000
0.170,0.026,0.182,-0.054,-0.007,0.220,0.188,-0.018,-0.081,0.856,-0.559,-0.519,-1.068,0.610,73.333,9823.000,1.000
0.300,0.092,0.162,-0.032,0.057,0.193,0.158,-0.053,-0.080,0.855,-0.557,-0.519,-1.129,0.641,73.333,9824.000,1.000
0.157,-0.090,-0.193,-0.295,-0.111,-0.145,-0.159,-0.308,-0.081,0.856,-0.554,-0.427,-1.099,0.763,73.333,9825.000,1.000
-0.180,-0.425,-0.716,-0.689,-0.418,-0.632,-0.599,-0.658,-0.080,0.856,-0.559,-0.397,-1.129,0.763,73.333,9826.000,1.000
-0.510,-0.725,-1.125,-0.970,-0.675,-1.008,-0.937,-0.908,-0.080,0.859,-0.554,-0.427,-1.038,0.763,73.333,9827.000,1.000
-0.693,-0.871,-1.248,-1.015,-0.766,-1.122,-1.074,-0.976,-0.081,0.858,-0.557,-0.427,-0.946,0.793,73.333,9828.000,1.000
-0.785,-0.925,-1.177,-0.940,-0.780,-1.080,-1.113,-0.976,-0.080,0.858,-0.556,-0.336,-0.916,0.732,73.333,9829.000,1.000
-0.900,-0.987,-1.086,-0.913,-0.850,-1.070,-1.183,-1.032,-0.079,0.859,-0.555,-0.336,-0.946,0.824,73.333,9830.000,1.000
-1.078,-1.102,-1.082,-0.999,-1.027,-1.189,-1.327,-1.173,-0.079,0.860,-0.554,-0.336,-0.916,0.793,73.333,9831.000,1.000
-1.242,-1.217,-1.137,-1.117,-1.226,-1.349,-1.478,-1.308,-0.078,0.860,-0.556,-0.397,-0.854,0.793,73.333,9832.000,1.000
-1.272,-1.253,-1.161,-1.143,-1.316,-1.389,-1.544,-1.329,-0.079,0.860,-0.557,-0.427,-0.763,0.732,73.333,9833.000,1.000
-1.157,-1.215,-1.131,-1.061,-1.267,-1.258,-1.523,-1.248,-0.080,0.863,-0.555,-0.397,-0.763,0.732,73.333,9834.000,1.000
-0.978,-1.130,-1.067,-0.932,-1.129,-1.027,-1.470,-1.142,-0.078,0.863,-0.556,-0.580,-0.702,0.763,73.333,9835.000,1.000
-0.845,-1.022,-0.999,-0.831,-0.976,-0.817,-1.440,-1.076,-0.078,0.865,-0.554,-0.580,-0.610,0.763,73.333,9836.000,1.000
-0.802,-0.887,-0.940,-0.770,-0.836,-0.695,-1.419,-1.046,-0.078,0.864,-0.553,-0.671,-0.488,0.793,73.333,9837.000,1.000
-0.807,-0.721,-0.886,-0.701,-0.691,-0.645,-1.342,-1.000,-0.078,0.865,-0.555,-0.732,-0.488,0.885,73.333,9838.000,1.000
-0.750,-0.502,-0.797,-0.553,-0.494,-0.576,-1.123,-0.863,-0.078,0.862,-0.558,-0.916,-0.488,0.824,73.333,9839.000,1.000
-0.520,-0.202,-0.589,-0.259,-0.194,-0.380,-0.712,-0.571,-0.077,0.863,-0.560,-0.916,-0.427,0.763,73.333,9840.000,1.000
-0.201,0.086,-0.313,0.091,0.114,-0.110,-0.254,-0.227,-0.078,0.861,-0.558,-1.038,-0.366,0.763,73.333,9841.000,1.000
-0.037,0.181,-0.161,0.280,0.226,0.031,-0.009,-0.057,-0.078,0.861,-0.556,-1.129,-0.305,0.824,73.333,9842.000,1.000
-0.213,-0.020,-0.297,0.131,0.006,-0.124,-0.141,-0.217,-0.079,0.862,-0.556,-1.190,-0.275,0.916,73.333,9843.000,1.000
-0.719,-0.478,-0.731,-0.370,-0.530,-0.594,-0.620,-0.693,-0.079,0.861,-0.559,-1.251,-0.244,0.885,73.333,9844.000,1.000
-1.352,-1.022,-1.302,-1.035,-1.209,-1.227,-1.240,-1.307,-0.079,0.860,-0.560,-1.251,-0.275,0.793,73.333,9845.000,1.000
-1.886,-1.482,-1.821,-1.628,-1.838,-1.838,-1.781,-1.861,-0.078,0.860,-0.560,-1.221,-0.214,0.824,73.333,9846.000,1.000
-2.118,-1.700,-2.093,-1.914,-2.199,-2.224,-2.041,-2.152,-0.081,0.861,-0.556,-1.343,-0.214,0.702,73.333,9847.000,1.000
-1.900,-1.528,-1.941,-1.712,-2.075,-2.182,-1.851,-2.003,-0.079,0.862,-0.556,-1.343,-0.122,0.671,73.333,9848.000,1.000
-1.238,-0.939,-1.334,-1.025,-1.400,-1.641,-1.208,-1.389,-0.081,0.859,-0.557,-1.343,-0.092,0.671,73.333,9849.000,1.000
-0.312,-0.069,-0.433,-0.058,-0.332,-0.715,-0.285,-0.468,-0.079,0.856,-0.556,-1.343,-0.061,0.732,73.333,9850.000,1.000
0.592,0.811,0.491,0.870,0.789,0.322,0.626,0.475,-0.080,0.856,-0.557,-1.282,-0.092,0.732,73.333,9851.000,1.000
1.277,1.499,1.271,1.561,1.679,1.239,1.342,1.245,-0.081,0.855,-0.555,-1.282,-0.092,0.641,73.333,9852.000,1.000
1.724,1.960,1.899,2.021,2.248,1.949,1.860,1.817,-0.080,0.856,-0.560,-1.190,-0.061,0.641,73.333,9853.000,1.000
1.959,2.203,2.361,2.290,2.493,2.400,2.199,2.191,-0.079,0.857,-0.558,-1.129,-0.061,0.732,73.333,9854.000,1.000
1.967,2.203,2.550,2.341,2.417,2.521,2.301,2.304,-0.080,0.859,-0.556,-1.190,-0.061,0.671,73.333,9855.000,1.000
1.675,1.888,2.306,2.062,1.993,2.232,2.060,2.062,-0.078,0.858,-0.562,-1.221,0.000,0.702,73.333,9856.000,1.000
1.119,1.309,1.640,1.465,1.311,1.598,1.518,1.509,-0.079,0.860,-0.561,-1.160,-0.061,0.732,73.333,9857.000,1.000
0.533,0.715,0.843,0.799,0.644,0.904,0.938,0.899,-0.078,0.859,-0.554,-1.129,-0.031,0.671,73.333,9858.000,1.000
0.155,0.342,0.255,0.346,0.243,0.436,0.577,0.479,-0.077,0.858,-0.557,-1.129,0.031,0.702,73.333,9859.000,1.000
-0.012,0.171,-0.037,0.143,0.099,0.227,0.420,0.268,-0.078,0.860,-0.557,-1.190,0.031,0.793,73.333,9860.000,1.000
-0.235,-0.099,-0.287,-0.082,-0.088,0.003,0.162,0.009,-0.077,0.861,-0.558,-1.282,0.000,0.732,73.333,9861.000,1.000
-0.718,-0.673,-0.729,-0.562,-0.540,-0.468,-0.401,-0.493,-0.078,0.859,-0.558,-1.434,-0.031,0.854,73.333,9862.000,1.000
-1.284,-1.354,-1.239,-1.150,-1.085,-1.032,-1.054,-1.069,-0.080,0.856,-0.559,-1.312,-0.031,0.671,73.333,9863.000,1.000
-1.502,-1.686,-1.432,-1.421,-1.303,-1.265,-1.333,-1.309,-0.080,0.857,-0.555,-1.312,-0.061,0.763,73.333,9864.000,1.000
-1.072,-1.355,-1.030,-1.064,-0.924,-0.866,-0.928,-0.933,-0.080,0.859,-0.556,-1.221,0.031,0.763,73.333,9865.000,1.000
-0.118,-0.473,-0.145,-0.172,-0.079,0.045,0.034,-0.055,-0.080,0.858,-0.556,-1.099,0.031,0.793,73.333,9866.000,1.000
0.976,0.588,0.885,0.906,0.882,1.082,1.160,0.981,-0.083,0.859,-0.558,-1.068,-0.092,0.641,73.333,9867.000,1.000
1.852,1.468,1.743,1.814,1.640,1.884,2.072,1.856,-0.081,0.861,-0.556,-1.160,-0.122,0.610,73.333,9868.000,1.000
2.302,1.950,2.234,2.311,2.014,2.262,2.543,2.369,-0.082,0.859,-0.557,-1.160,-0.153,0.549,73.333,9869.000,1.000
2.350,2.037,2.352,2.370,2.020,2.257,2.580,2.493,-0.080,0.858,-0.555,-1.129,-0.244,0.549,73.333,9870.000,1.000
2.115,1.834,2.175,2.093,1.768,2.004,2.312,2.285,-0.080,0.859,-0.552,-1.160,-0.336,0.549,73.333,9871.000,1.000
1.678,1.426,1.766,1.584,1.338,1.594,1.851,1.820,-0.082,0.860,-0.554,-1.068,-0.366,0.549,73.333,9872.000,1.000
1.093,0.872,1.175,0.934,0.789,1.071,1.256,1.189,-0.081,0.858,-0.557,-1.007,-0.366,0.397,73.333,9873.000,1.000
0.485,0.289,0.526,0.290,0.244,0.523,0.620,0.555,-0.080,0.857,-0.552,-0.977,-0.458,0.488,73.333,9874.000,1.000
0.080,-0.108,0.071,-0.112,-0.087,0.156,0.148,0.152,-0.080,0.855,-0.554,-0.916,-0.519,0.458,73.333,9875.000,1.000
0.051,-0.160,0.009,-0.122,-0.067,0.139,0.025,0.123,-0.082,0.854,-0.556,-0.793,-0.641,0.458,73.333,9876.000,1.000
0.431,0.160,0.378,0.248,0.291,0.500,0.304,0.446,-0.083,0.854,-0.554,-0.885,-0.610,0.458,73.333,9877.000,1.000
1.069,0.716,1.026,0.826,0.820,1.075,0.851,0.944,-0.080,0.854,-0.553,-0.763,-0.671,0.397,73.333,9878.000,1.000
1.659,1.241,1.649,1.335,1.254,1.576,1.382,1.355,-0.079,0.856,-0.554,-0.732,-0.671,0.519,73.333,9879.000,1.000
1.942,1.517,1.990,1.576,1.424,1.788,1.666,1.519,-0.080,0.854,-0.554,-0.610,-0.732,0.549,73.333,9880.000,1.000
1.815,1.461,1.923,1.472,1.309,1.642,1.610,1.399,-0.081,0.855,-0.550,-0.549,-0.824,0.549,73.333,9881.000,1.000
1.376,1.148,1.492,1.095,1.014,1.230,1.278,1.063,-0.079,0.857,-0.554,-0.519,-0.854,0.610,73.333,9882.000,1.000
0.838,0.737,0.871,0.601,0.677,0.731,0.816,0.638,-0.079,0.862,-0.556,-0.549,-0.885,0.671,73.333,9883.000,1.000
0.349,0.334,0.247,0.108,0.355,0.269,0.326,0.213,-0.079,0.861,-0.554,-0.549,-0.885,0.671,73.333,9884.000,1.000
-0.019,0.007,-0.215,-0.306,0.071,-0.092,-0.119,-0.144,-0.079,0.859,-0.554,-0.488,-0.854,0.671,73.333,9885.000,1.000
-0.271,-0.218,-0.427,-0.594,-0.169,-0.335,-0.465,-0.391,-0.077,0.860,-0.557,-0.519,-0.854,0.763,73.333,9886.000,1.000
-0.447,-0.353,-0.412,-0.739,-0.367,-0.467,-0.686,-0.528,-0.079,0.860,-0.558,-0.549,-0.763,0.793,73.333,9887.000,1.000
-0.627,-0.473,-0.321,-0.805,-0.564,-0.560,-0.824,-0.636,-0.081,0.859,-0.560,-0.519,-0.824,0.885,73.333,9888.000,1.000
-0.903,-0.685,-0.357,-0.919,-0.825,-0.732,-0.985,-0.847,-0.079,0.860,-0.559,-0.458,-0.824,0.793,73.333,9889.000,1.000
-1.256,-0.997,-0.588,-1.128,-1.123,-1.009,-1.209,-1.179,-0.079,0.858,-0.558,-0.549,-0.824,0.763,73.333,9890.000,1.000
-1.596,-1.342,-0.960,-1.399,-1.402,-1.339,-1.491,-1.560,-0.078,0.856,-0.558,-0.519,-0.824,0.793,73.333,9891.000,1.000
-1.831,-1.619,-1.353,-1.647,-1.616,-1.633,-1.785,-1.866,-0.078,0.856,-0.558,-0.458,-0.824,0.824,73.333,9892.000,1.000
-1.895,-1.725,-1.623,-1.760,-1.717,-1.792,-1.997,-1.978,-0.076,0.855,-0.559,-0.427,-0.763,0.885,73.333,9893.000,1.000
-1.757,-1.592,-1.654,-1.645,-1.653,-1.732,-1.996,-1.819,-0.076,0.853,-0.559,-0.427,-0.793,0.916,73.333,9894.000,1.000
-1.393,-1.195,-1.366,-1.243,-1.363,-1.396,-1.667,-1.364,-0.075,0.855,-0.558,-0.427,-0.732,1.038,73.333,9895.000,1.000
-0.893,-0.649,-0.857,-0.675,-0.909,-0.880,-1.094,-0.752,-0.075,0.856,-0.556,-0.397,-0.671,1.007,73.333,9896.000,1.000
-0.490,-0.215,-0.412,-0.232,-0.524,-0.450,-0.581,-0.279,-0.071,0.860,-0.559,-0.458,-0.641,1.099,73.333,9897.000,1.000
-0.441,-0.175,-0.349,-0.219,-0.487,-0.401,-0.474,-0.251,-0.067,0.862,-0.559,-0.458,-0.458,1.160,73.333,9898.000,1.000
-0.838,-0.635,-0.794,-0.721,-0.902,-0.839,-0.899,-0.751,-0.067,0.864,-0.557,-0.580,-0.336,1.099,73.333,9899.000,1.000
-1.427,-1.327,-1.488,-1.439,-1.497,-1.496,-1.575,-1.474,-0.068,0.866,-0.558,-0.702,-0.244,1.160,73.333,9900.000,1.000
-1.780,-1.781,-1.968,-1.899,-1.819,-1.922,-2.014,-1.937,-0.071,0.868,-0.558,-0.854,-0.214,1.007,73.333,9901.000,1.000
-1.642,-1.695,-1.923,-1.821,-1.605,-1.830,-1.899,-1.855,-0.078,0.868,-0.557,-0.977,-0.153,1.007,73.333,9902.000,1.000
-1.234,-1.269,-1.543,-1.422,-1.104,-1.427,-1.428,-1.444,-0.085,0.866,-0.555,-0.977,-0.153,0.946,73.333,9903.000,1.000
-1.255,-1.215,-1.534,-1.410,-1.054,-1.412,-1.317,-1.416,-0.089,0.865,-0.558,-1.007,-0.244,0.732,73.333,9904.000,1.000
-2.383,-2.257,-2.607,-2.490,-2.160,-2.490,-2.293,-2.465,-0.091,0.864,-0.556,-1.221,-0.488,0.488,73.333,9905.000,1.000
-4.735,-4.581,-4.914,-4.823,-4.551,-4.824,-4.537,-4.733,-0.092,0.862,-0.558,-1.221,-0.732,0.244,73.333,9906.000,1.000
-7.617,-7.539,-7.772,-7.738,-7.528,-7.743,-7.406,-7.542,-0.090,0.862,-0.558,-1.312,-0.946,0.122,73.333,9907.000,1.000
-9.797,-9.872,-9.926,-9.973,-9.830,-9.985,-9.662,-9.676,-0.091,0.861,-0.557,-1.282,-1.160,-0.061,73.333,9908.000,1.000
-10.140,-10.355,-10.215,-10.342,-10.279,-10.358,-10.113,-10.005,-0.090,0.859,-0.560,-1.312,-1.343,-0.183,73.333,9909.000,1.000
-8.172,-8.431,-8.166,-8.342,-8.365,-8.353,-8.216,-8.047,-0.088,0.860,-0.559,-1.312,-1.465,-0.336,73.333,9910.000,1.000
-4.413,-4.608,-4.342,-4.520,-4.599,-4.509,-4.465,-4.315,-0.088,0.861,-0.558,-1.343,-1.617,-0.305,73.333,9911.000,1.000
-0.211,-0.275,-0.130,-0.265,-0.336,-0.214,-0.216,-0.148,-0.085,0.861,-0.557,-1.282,-1.709,-0.458,73.333,9912.000,1.000
2.874,2.957,2.922,2.859,2.855,2.961,2.959,2.918,-0.082,0.861,-0.556,-1.221,-1.770,-0.458,73.333,9913.000,1.000
3.823,4.030,3.842,3.848,3.930,3.999,4.028,3.882,-0.082,0.862,-0.552,-1.221,-1.801,-0.397,73.333,9914.000,1.000
2.670,2.945,2.708,2.752,2.885,2.929,3.000,2.778,-0.080,0.861,-0.556,-1.221,-1.801,-0.244,73.333,9915.000,1.000
0.386,0.652,0.488,0.517,0.653,0.688,0.800,0.555,-0.078,0.860,-0.556,-1.129,-1.801,-0.214,73.333,9916.000,1.000
-1.670,-1.494,-1.503,-1.546,-1.423,-1.393,-1.263,-1.463,-0.079,0.860,-0.555,-1.190,-1.892,-0.122,73.333,9917.000,1.000
-2.420,-2.392,-2.232,-2.382,-2.250,-2.236,-2.128,-2.215,-0.079,0.859,-0.554,-1.129,-1.770,-0.031,73.333,9918.000,1.000
-1.516,-1.642,-1.370,-1.613,-1.433,-1.456,-1.416,-1.345,-0.078,0.858,-0.555,-1.038,-1.770,0.092,73.333,9919.000,1.000
0.696,0.477,0.748,0.487,0.733,0.644,0.603,0.820,-0.077,0.855,-0.556,-0.946,-1.801,0.214,73.333,9920.000,1.000
3.432,3.224,3.355,3.187,3.479,3.289,3.214,3.503,-0.078,0.855,-0.553,-0.946,-1.617,0.458,73.333,9921.000,1.000
5.768,5.670,5.554,5.567,5.850,5.540,5.529,5.786,-0.078,0.854,-0.556,-1.068,-1.556,0.580,73.333,9922.000,1.000
6.887,6.942,6.555,6.770,6.989,6.563,6.710,6.862,-0.078,0.854,-0.554,-0.916,-1.404,0.610,73.333,9923.000,1.000
6.363,6.543,5.970,6.327,6.458,5.945,6.282,6.307,-0.077,0.854,-0.554,-0.854,-1.312,0.671,73.333,9924.000,1.000
4.480,4.715,4.113,4.507,4.552,4.004,4.482,4.400,-0.079,0.856,-0.553,-0.854,-1.373,0.763,73.333,9925.000,1.000
2.073,2.307,1.830,2.158,2.126,1.625,2.137,1.985,-0.077,0.858,-0.554,-0.793,-1.251,0.732,73.333,9926.000,1.000
0.008,0.223,-0.032,0.156,0.059,-0.307,0.126,-0.054,-0.077,0.858,-0.554,-0.763,-1.129,0.641,73.333,9927.000,1.000
-1.263,-1.072,-1.087,-1.083,-1.206,-1.400,-1.112,-1.268,-0.077,0.857,-0.553,-0.824,-1.068,0.610,73.333,9928.000,1.000
-1.749,-1.600,-1.432,-1.622,-1.709,-1.765,-1.607,-1.693,-0.076,0.858,-0.557,-0.824,-1.038,0.580,73.333,9929.000,1.000
-1.636,-1.561,-1.320,-1.649,-1.661,-1.652,-1.543,-1.551,-0.073,0.859,-0.554,-0.793,-0.885,0.610,73.333,9930.000,1.000
-1.148,-1.168,-0.954,-1.308,-1.259,-1.246,-1.105,-1.065,-0.072,0.860,-0.554,-0.824,-0.824,0.549,73.333,9931.000,1.000
-0.489,-0.585,-0.445,-0.702,-0.636,-0.643,-0.458,-0.405,-0.073,0.859,-0.557,-0.885,-0.671,0.580,73.333,9932.000,1.000
0.183,0.065,0.134,0.032,0.098,0.078,0.237,0.290,-0.072,0.859,-0.561,-0.824,-0.519,0.580,73.333,9933.000,1.000
0.764,0.692,0.713,0.735,0.822,0.801,0.854,0.913,-0.072,0.858,-0.558,-0.885,-0.366,0.580,73.333,9934.000,1.000
1.233,1.263,1.261,1.320,1.456,1.428,1.358,1.434,-0.074,0.860,-0.560,-0.916,-0.183,0.488,73.333,9935.000,1.000
1.527,1.701,1.686,1.707,1.887,1.834,1.698,1.798,-0.074,0.861,-0.559,-0.977,-0.031,0.458,73.333,9936.000,1.000
1.559,1.882,1.845,1.820,2.001,1.916,1.786,1.913,-0.073,0.861,-0.557,-1.007,0.153,0.488,73.333,9937.000,1.000
1.317,1.742,1.666,1.641,1.766,1.673,1.592,1.732,-0.073,0.861,-0.556,-1.038,0.244,0.336,73.333,9938.000,1.000
0.890,1.327,1.210,1.240,1.268,1.213,1.173,1.310,-0.073,0.859,-0.557,-1.099,0.305,0.244,73.333,9939.000,1.000
0.476,0.833,0.686,0.801,0.724,0.756,0.704,0.831,-0.075,0.859,-0.556,-1.007,0.427,0.153,73.333,9940.000,1.000
0.280,0.508,0.333,0.532,0.379,0.525,0.397,0.510,-0.076,0.860,-0.557,-1.068,0.488,0.275,73.333,9941.000,1.000
0.431,0.545,0.331,0.587,0.407,0.651,0.434,0.494,-0.077,0.859,-0.557,-1.160,0.610,0.153,73.333,9942.000,1.000
0.880,0.940,0.679,0.955,0.792,1.071,0.821,0.764,-0.079,0.858,-0.558,-1.007,0.671,0.153,73.333,9943.000,1.000
1.411,1.469,1.193,1.447,1.321,1.551,1.354,1.154,-0.079,0.859,-0.559,-1.129,0.763,0.122,73.333,9944.000,1.000
1.904,1.961,1.745,1.934,1.845,1.964,1.879,1.588,-0.079,0.860,-0.555,-1.068,0.671,0.153,73.333,9945.000,1.000
2.413,2.416,2.337,2.439,2.370,2.366,2.399,2.122,-0.081,0.862,-0.559,-1.129,0.702,0.000,73.333,9946.000,1.000
3.005,2.903,2.972,3.021,2.943,2.855,2.962,2.786,-0.082,0.861,-0.558,-1.038,0.732,-0.092,73.333,9947.000,1.000
3.587,3.367,3.519,3.600,3.486,3.373,3.498,3.437,-0.080,0.861,-0.562,-1.129,0.610,-0.061,73.333,9948.000,1.000
3.943,3.642,3.787,3.981,3.815,3.726,3.832,3.834,-0.082,0.860,-0.556,-1.038,0.671,-0.061,73.333,9949.000,1.000
4.014,3.691,3.778,4.105,3.879,3.835,3.923,3.912,-0.083,0.862,-0.553,-1.038,0.641,-0.092,73.333,9950.000,1.000
3.944,3.654,3.681,4.092,3.803,3.793,3.888,3.818,-0.083,0.862,-0.553,-1.099,0.488,-0.153,73.333,9951.000,1.000
3.932,3.709,3.691,4.108,3.775,3.771,3.884,3.756,-0.084,0.860,-0.554,-1.099,0.397,-0.153,73.333,9952.000,1.000
4.080,3.937,3.873,4.241,3.908,3.891,3.995,3.838,-0.083,0.860,-0.554,-1.099,0.305,-0.061,73.333,9953.000,1.000
4.351,4.291,4.160,4.481,4.192,4.172,4.211,4.058,-0.083,0.860,-0.555,-1.099,0.275,0.000,73.333,9954.000,1.000
4.671,4.695,4.485,4.800,4.570,4.588,4.514,4.378,-0.086,0.859,-0.556,-1.160,0.153,0.031,73.333,9955.000,1.000
4.968,5.055,4.801,5.139,4.955,5.056,4.866,4.720,-0.085,0.862,-0.557,-1.099,0.092,0.153,73.333,9956.000,1.000
5.206,5.302,5.085,5.437,5.273,5.475,5.223,5.001,-0.087,0.861,-0.554,-1.007,-0.183,0.183,73.333,9957.000,1.000
5.371,5.397,5.296,5.634,5.467,5.749,5.521,5.164,-0.085,0.862,-0.551,-1.038,-0.397,0.153,73.333,9958.000,1.000
5.402,5.295,5.337,5.644,5.446,5.775,5.632,5.147,-0.084,0.861,-0.553,-1.038,-0.458,0.153,73.333,9959.000,1.000
5.248,4.982,5.138,5.413,5.151,5.507,5.449,4.918,-0.086,0.862,-0.553,-1.038,-0.519,0.183,73.333,9960.000,1.000
4.881,4.478,4.694,4.936,4.596,4.974,4.946,4.486,-0.086,0.863,-0.555,-0.977,-0.732,0.244,73.333,9961.000,1.000
4.336,3.853,4.087,4.282,3.889,4.269,4.212,3.924,-0.087,0.861,-0.552,-0.946,-0.824,0.275,73.333,9962.000,1.000
3.669,3.170,3.411,3.534,3.149,3.480,3.375,3.301,-0.086,0.859,-0.553,-1.007,-1.007,0.366,73.333,9963.000,1.000
2.900,2.431,2.705,2.719,2.419,2.638,2.509,2.608,-0.086,0.855,-0.551,-0.977,-1.160,0.397,73.333,9964.000,1.000
2.085,1.674,2.001,1.885,1.727,1.802,1.684,1.850,-0.085,0.854,-0.554,-1.007,-1.190,0.458,73.333,9965.000,1.000
1.282,0.939,1.314,1.086,1.073,1.017,0.941,1.065,-0.083,0.854,-0.556,-0.885,-1.190,0.427,73.333,9966.000,1.000
0.527,0.250,0.645,0.352,0.426,0.287,0.273,0.307,-0.083,0.854,-0.556,-0.885,-1.251,0.427,73.333,9967.000,1.000
-0.162,-0.391,-0.008,-0.326,-0.237,-0.411,-0.360,-0.388,-0.081,0.854,-0.555,-0.885,-1.312,0.458,73.333,9968.000,1.000
-0.784,-0.991,-0.657,-0.973,-0.912,-1.077,-0.993,-1.014,-0.078,0.854,-0.558,-0.763,-1.343,0.488,73.333,9969.000,1.000
-1.275,-1.485,-1.231,-1.527,-1.499,-1.615,-1.558,-1.507,-0.075,0.856,-0.557,-0.641,-1.373,0.519,73.333,9970.000,1.000
-1.573,-1.810,-1.631,-1.901,-1.891,-1.924,-1.952,-1.793,-0.073,0.856,-0.559,-0.641,-1.373,0.610,73.333,9971.000,1.000
-1.693,-1.980,-1.827,-2.077,-2.061,-2.004,-2.148,-1.879,-0.075,0.854,-0.556,-0.580,-1.282,0.610,73.333,9972.000,1.000
-1.763,-2.100,-1.925,-2.148,-2.101,-1.984,-2.245,-1.893,-0.078,0.855,-0.552,-0.519,-1.160,0.763,73.333,9973.000,1.000
-2.033,-2.387,-2.194,-2.349,-2.261,-2.135,-2.495,-2.100,-0.082,0.856,-0.554,-0.427,-1.099,0.671,73.333,9974.000,1.000
-2.800,-3.101,-2.967,-2.998,-2.874,-2.788,-3.215,-2.825,-0.085,0.855,-0.555,-0.488,-1.190,0.580,73.333,9975.000,1.000
-4.263,-4.427,-4.438,-4.348,-4.200,-4.169,-4.614,-4.277,-0.086,0.858,-0.557,-0.488,-1.221,0.519,73.333,9976.000,1.000
-6.202,-6.182,-6.354,-6.227,-6.071,-6.073,-6.467,-6.231,-0.083,0.859,-0.556,-0.458,-1.312,0.488,73.333,9977.000,1.000
-7.834,-7.658,-7.906,-7.873,-7.723,-7.719,-7.993,-7.893,-0.083,0.859,-0.554,-0.488,-1.343,0.336,73.333,9978.000,1.000
-8.138,-7.908,-8.098,-8.249,-8.111,-8.093,-8.191,-8.236,-0.082,0.859,-0.551,-0.458,-1.373,0.366,73.333,9979.000,1.000
-6.526,-6.363,-6.394,-6.725,-6.577,-6.589,-6.500,-6.655,-0.081,0.858,-0.555,-0.519,-1.465,0.275,73.333,9980.000,1.000
-3.459,-3.454,-3.298,-3.710,-3.527,-3.627,-3.388,-3.584,-0.082,0.859,-0.558,-0.702,-1.343,0.214,73.333,9981.000,1.000
-0.318,-0.489,-0.180,-0.536,-0.333,-0.547,-0.229,-0.387,-0.079,0.859,-0.558,-0.732,-1.190,0.183,73.333,9982.000,1.000
1.418,1.123,1.519,1.321,1.482,1.187,1.498,1.441,-0.080,0.858,-0.558,-0.732,-1.221,0.153,73.333,9983.000,1.000
1.016,0.703,1.104,1.078,1.141,0.841,1.079,1.144,-0.079,0.859,-0.559,-0.641,-1.129,0.031,73.333,9984.000,1.000
-1.070,-1.303,-0.973,-0.900,-0.922,-1.158,-1.017,-0.852,-0.078,0.862,-0.557,-0.549,-1.038,0.092,73.333,9985.000,1.000
-3.499,-3.603,-3.408,-3.350,-3.366,-3.508,-3.442,-3.230,-0.078,0.862,-0.560,-0.580,-1.038,0.061,73.333,9986.000,1.000
-4.753,-4.741,-4.726,-4.769,-4.664,-4.727,-4.698,-4.488,-0.077,0.861,-0.560,-0.580,-0.977,0.153,73.333,9987.000,1.000
-4.006,-3.931,-4.101,-4.252,-3.968,-3.988,-3.964,-3.786,-0.078,0.860,-0.558,-0.610,-0.916,0.214,73.333,9988.000,1.000
-1.611,-1.536,-1.839,-2.038,-1.608,-1.619,-1.591,-1.454,-0.077,0.858,-0.556,-0.732,-0.824,0.153,73.333,9989.000,1.000
1.198,1.226,0.881,0.712,1.196,1.177,1.187,1.293,-0.080,0.860,-0.554,-0.702,-0.793,0.244,73.333,9990.000,1.000
3.030,3.002,2.693,2.607,3.051,3.024,2.977,3.083,-0.079,0.861,-0.558,-0.824,-0.793,0.305,73.333,9991.000,1.000
3.073,3.024,2.779,2.798,3.128,3.114,2.982,3.129,-0.079,0.860,-0.559,-0.885,-0.763,0.305,73.333,9992.000,1.000
1.424,1.412,1.215,1.334,1.502,1.536,1.324,1.549,-0.079,0.860,-0.560,-0.916,-0.702,0.275,73.333,9993.000,1.000
-1.098,-1.015,-1.207,-1.013,-1.018,-0.903,-1.165,-0.860,-0.079,0.861,-0.558,-0.946,-0.641,0.336,73.333,9994.000,1.000
-3.382,-3.182,-3.404,-3.178,-3.316,-3.110,-3.394,-3.054,-0.078,0.862,-0.558,-0.885,-0.580,0.336,73.333,9995.000,1.000
-4.581,-4.285,-4.549,-4.330,-4.529,-4.261,-4.552,-4.246,-0.079,0.862,-0.560,-0.885,-0.549,0.397,73.333,9996.000,1.000
-4.412,-4.077,-4.369,-4.173,-4.366,-4.096,-4.389,-4.159,-0.079,0.861,-0.556,-0.824,-0.427,0.427,73.333,9997.000,1.000
-3.182,-2.866,-3.155,-2.973,-3.125,-2.924,-3.200,-3.033,-0.077,0.859,-0.556,-0.977,-0.397,0.488,73.333,9998.000,1.000
-1.575,-1.303,-1.561,-1.378,-1.495,-1.398,-1.627,-1.471,-0.078,0.860,-0.555,-1.007,-0.244,0.519,73.333,9999.000,1.000
-0.215,0.007,-0.195,-0.012,-0.124,-0.115,-0.262,-0.076,-0.077,0.861,-0.556,-0.946,-0.183,0.549,73.333,10000.000,1.000
0.584,0.751,0.626,0.787,0.652,0.615,0.591,0.795,-0.080,0.858,-0.556,-1.038,0.031,0.610,73.333,10001.000,1.000
0.853,0.953,0.924,1.033,0.883,0.830,0.959,1.113,-0.080,0.859,-0.557,-1.129,-0.061,0.641,73.333,10002.000,1.000
0.832,0.862,0.934,0.979,0.849,0.786,1.070,1.082,-0.079,0.859,-0.556,-1.129,-0.092,0.671,73.333,10003.000,1.000
0.751,0.735,0.878,0.873,0.793,0.722,1.123,0.937,-0.079,0.855,-0.553,-1.068,-0.092,0.549,73.333,10004.000,1.000
0.695,0.688,0.830,0.811,0.777,0.721,1.159,0.794,-0.081,0.857,-0.557,-0.977,0.000,0.549,73.333,10005.000,1.000
0.570,0.637,0.694,0.706,0.685,0.684,1.058,0.598,-0.081,0.858,-0.557,-0.946,0.122,0.641,73.333,10006.000,1.000
0.290,0.489,0.406,0.478,0.429,0.524,0.748,0.292,-0.080,0.859,-0.557,-0.885,0.061,0.580,73.333,10007.000,1.000
-0.102,0.257,0.037,0.168,0.060,0.261,0.322,-0.079,-0.079,0.857,-0.557,-0.824,0.031,0.549,73.333,10008.000,1.000
-0.510,-0.009,-0.313,-0.146,-0.327,-0.049,-0.083,-0.445,-0.079,0.855,-0.556,-0.732,0.122,0.458,73.333,10009.000,1.000
-0.855,-0.279,-0.587,-0.413,-0.651,-0.360,-0.384,-0.755,-0.080,0.855,-0.555,-0.824,0.061,0.458,73.333,10010.000,1.000
-1.138,-0.577,-0.834,-0.676,-0.925,-0.669,-0.615,-1.022,-0.081,0.856,-0.556,-0.885,0.031,0.366,73.333,10011.000,1.000
-1.363,-0.906,-1.112,-0.976,-1.188,-0.969,-0.832,-1.251,-0.081,0.854,-0.556,-0.916,-0.122,0.458,73.333,10012.000,1.000
-1.485,-1.197,-1.381,-1.268,-1.431,-1.208,-1.013,-1.390,-0.081,0.856,-0.555,-0.916,-0.092,0.397,73.333,10013.000,1.000
-1.456,-1.350,-1.522,-1.449,-1.589,-1.321,-1.082,-1.378,-0.082,0.856,-0.555,-0.763,-0.214,0.336,73.333,10014.000,1.000
-1.216,-1.231,-1.372,-1.369,-1.518,-1.212,-0.920,-1.129,-0.082,0.858,-0.555,-0.854,-0.122,0.305,73.333,10015.000,1.000
-0.764,-0.788,-0.884,-0.972,-1.125,-0.847,-0.496,-0.634,-0.081,0.859,-0.553,-0.916,-0.122,0.244,73.333,10016.000,1.000
-0.194,-0.127,-0.182,-0.362,-0.469,-0.309,0.071,-0.004,-0.082,0.859,-0.553,-0.946,-0.153,0.275,73.333,10017.000,1.000
0.330,0.523,0.499,0.240,0.237,0.238,0.571,0.567,-0.080,0.861,-0.555,-0.946,-0.214,0.244,73.333,10018.000,1.000
0.633,0.920,0.913,0.608,0.731,0.615,0.813,0.889,-0.082,0.860,-0.555,-1.007,-0.244,0.092,73.333,10019.000,1.000
0.641,0.961,0.958,0.660,0.865,0.737,0.754,0.894,-0.083,0.860,-0.558,-1.099,-0.275,0.061,73.333,10020.000,1.000
0.373,0.678,0.681,0.446,0.645,0.606,0.465,0.609,-0.083,0.861,-0.558,-1.282,-0.366,0.061,73.333,10021.000,1.000
-0.046,0.218,0.244,0.102,0.215,0.314,0.081,0.168,-0.084,0.859,-0.555,-1.190,-0.244,0.061,73.333,10022.000,1.000
-0.414,-0.209,-0.145,-0.213,-0.188,0.020,-0.236,-0.218,-0.084,0.861,-0.556,-1.068,-0.366,0.092,73.333,10023.000,1.000
-0.548,-0.420,-0.325,-0.380,-0.356,-0.130,-0.355,-0.362,-0.081,0.860,-0.558,-1.038,-0.397,0.122,73.333,10024.000,1.000
-0.329,-0.297,-0.196,-0.295,-0.169,-0.033,-0.183,-0.174,-0.082,0.859,-0.556,-0.946,-0.427,0.061,73.333,10025.000,1.000
0.191,0.117,0.203,0.053,0.309,0.281,0.247,0.262,-0.081,0.859,-0.556,-1.007,-0.397,0.122,73.333,10026.000,1.000
0.817,0.647,0.725,0.563,0.872,0.681,0.778,0.751,-0.083,0.859,-0.558,-1.068,-0.519,0.122,73.333,10027.000,1.000
1.312,1.078,1.187,1.060,1.290,1.004,1.197,1.103,-0.083,0.859,-0.558,-1.068,-0.580,0.061,73.333,10028.000,1.000
1.494,1.239,1.424,1.359,1.399,1.110,1.326,1.207,-0.085,0.860,-0.559,-1.160,-0.519,0.183,73.333,10029.000,1.000
1.364,1.135,1.403,1.407,1.219,0.993,1.163,1.110,-0.085,0.858,-0.557,-1.221,-0.580,0.183,73.333,10030.000,1.000
1.090,0.939,1.246,1.312,0.935,0.799,0.884,0.988,-0.086,0.861,-0.556,-1.160,-0.732,0.153,73.333,10031.000,1.000
0.951,0.929,1.210,1.307,0.841,0.785,0.792,1.076,-0.085,0.860,-0.559,-1.129,-0.854,0.214,73.333,10032.000,1.000
1.151,1.294,1.492,1.565,1.150,1.142,1.104,1.498,-0.087,0.856,-0.557,-1.251,-0.977,0.183,73.333,10033.000,1.000
1.586,1.897,1.970,1.975,1.748,1.747,1.695,2.063,-0.086,0.856,-0.557,-1.221,-1.007,0.183,73.333,10034.000,1.000
1.912,2.333,2.278,2.209,2.243,2.208,2.150,2.369,-0.085,0.859,-0.559,-1.221,-1.129,0.183,73.333,10035.000,1.000
1.784,2.209,2.072,1.962,2.229,2.138,2.060,2.090,-0.085,0.859,-0.560,-1.099,-1.129,0.336,73.333,10036.000,1.000
1.138,1.453,1.326,1.205,1.607,1.472,1.354,1.240,-0.083,0.860,-0.561,-1.251,-1.251,0.305,73.333,10037.000,1.000
0.216,0.354,0.320,0.190,0.614,0.473,0.308,0.142,-0.081,0.858,-0.563,-1.251,-1.221,0.458,73.333,10038.000,1.000
-0.665,-0.706,-0.615,-0.780,-0.416,-0.533,-0.725,-0.847,-0.077,0.861,-0.560,-1.190,-1.221,0.519,73.333,10039.000,1.000
-1.275,-1.447,-1.253,-1.484,-1.217,-1.309,-1.487,-1.497,-0.077,0.860,-0.558,-1.099,-1.221,0.519,73.333,10040.000,1.000
-1.563,-1.794,-1.550,-1.855,-1.679,-1.771,-1.892,-1.774,-0.079,0.859,-0.557,-1.099,-1.251,0.641,73.333,10041.000,1.000
-1.570,-1.788,-1.570,-1.907,-1.786,-1.911,-1.959,-1.757,-0.079,0.859,-0.557,-1.190,-1.068,0.671,73.333,10042.000,1.000
-1.357,-1.519,-1.395,-1.673,-1.588,-1.769,-1.754,-1.542,-0.080,0.858,-0.554,-1.190,-1.038,0.671,73.333,10043.000,1.000
-1.052,-1.175,-1.147,-1.284,-1.253,-1.485,-1.437,-1.265,-0.079,0.859,-0.558,-1.251,-1.007,0.671,73.333,10044.000,1.000
-0.835,-0.984,-0.976,-0.960,-1.006,-1.246,-1.213,-1.081,-0.080,0.861,-0.557,-1.190,-0.916,0.671,73.333,10045.000,1.000
-0.882,-1.130,-1.051,-0.956,-1.060,-1.246,-1.284,-1.162,-0.078,0.859,-0.558,-1.160,-0.793,0.824,73.333,10046.000,1.000
-1.242,-1.630,-1.452,-1.378,-1.482,-1.573,-1.714,-1.576,-0.076,0.859,-0.559,-1.129,-0.763,0.824,73.333,10047.000,1.000
-1.780,-2.283,-2.064,-2.063,-2.114,-2.117,-2.347,-2.195,-0.076,0.858,-0.560,-1.160,-0.732,0.732,73.333,10048.000,1.000
-2.252,-2.788,-2.616,-2.665,-2.655,-2.623,-2.870,-2.735,-0.077,0.858,-0.558,-1.038,-0.641,0.793,73.333,10049.000,1.000
-2.409,-2.890,-2.814,-2.858,-2.823,-2.829,-2.984,-2.904,-0.078,0.858,-0.557,-1.038,-0.488,0.732,73.333,10050.000,1.000
-2.214,-2.593,-2.591,-2.603,-2.592,-2.700,-2.663,-2.652,-0.074,0.859,-0.555,-1.190,-0.397,0.671,73.333,10051.000,1.000
-1.868,-2.140,-2.152,-2.150,-2.193,-2.426,-2.163,-2.204,-0.073,0.861,-0.557,-1.282,-0.366,0.732,73.333,10052.000,1.000
-1.650,-1.837,-1.806,-1.821,-1.924,-2.234,-1.812,-1.867,-0.073,0.862,-0.556,-1.343,-0.183,0.702,73.333,10053.000,1.000
-1.735,-1.883,-1.776,-1.818,-1.963,-2.262,-1.814,-1.843,-0.069,0.859,-0.559,-1.343,0.000,0.732,73.333,10054.000,1.000
-2.077,-2.235,-2.044,-2.111,-2.256,-2.474,-2.120,-2.098,-0.068,0.855,-0.561,-1.404,0.153,0.854,73.333,10055.000,1.000
-2.489,-2.680,-2.435,-2.518,-2.617,-2.735,-2.518,-2.449,-0.069,0.848,-0.565,-1.190,0.427,1.129,73.333,10056.000,1.000
-2.712,-2.916,-2.687,-2.770,-2.798,-2.842,-2.729,-2.642,-0.071,0.841,-0.566,-0.793,0.397,1.282,73.333,10057.000,1.000
-2.507,-2.666,-2.538,-2.591,-2.553,-2.575,-2.512,-2.445,-0.072,0.839,-0.564,-0.397,0.488,1.373,73.333,10058.000,1.000
-1.827,-1.882,-1.899,-1.898,-1.815,-1.871,-1.823,-1.814,-0.075,0.840,-0.561,-0.244,0.549,1.434,73.333,10059.000,1.000
-0.830,-0.765,-0.898,-0.846,-0.732,-0.857,-0.823,-0.910,-0.072,0.847,-0.558,-0.061,0.854,1.465,73.333,10060.000,1.000
0.274,0.413,0.245,0.329,0.463,0.273,0.283,0.071,-0.073,0.851,-0.556,-0.061,1.190,1.404,73.333,10061.000,1.000
1.492,1.626,1.507,1.610,1.737,1.526,1.509,1.180,-0.071,0.854,-0.556,0.000,1.373,1.343,73.333,10062.000,1.000
3.074,3.136,3.107,3.237,3.316,3.139,3.116,2.722,-0.071,0.856,-0.558,0.061,1.709,1.373,73.333,10063.000,1.000
5.219,5.195,5.227,5.397,5.406,5.304,5.302,4.917,-0.069,0.858,-0.562,0.153,2.014,1.526,73.333,10064.000,1.000
7.846,7.774,7.781,7.998,7.949,7.940,7.964,7.646,-0.071,0.864,-0.563,0.153,2.350,1.587,73.333,10065.000,1.000
10.575,10.511,10.415,10.678,10.611,10.671,10.712,10.472,-0.072,0.865,-0.559,0.244,2.716,1.648,73.333,10066.000,1.000
12.998,12.983,12.778,13.072,13.021,13.101,13.148,12.963,-0.073,0.869,-0.557,0.244,2.930,1.678,73.333,10067.000,1.000
14.856,14.901,14.657,14.951,14.927,14.988,15.031,14.871,-0.076,0.868,-0.561,0.031,3.143,1.801,73.333,10068.000,1.000
15.980,16.075,15.873,16.133,16.124,16.160,16.189,16.034,-0.079,0.870,-0.558,-0.122,3.387,1.770,73.333,10069.000,1.000
16.280,16.404,16.294,16.496,16.469,16.511,16.520,16.349,-0.078,0.869,-0.558,-0.244,3.693,1.801,73.333,10070.000,1.000
15.738,15.870,15.859,15.996,15.921,16.009,15.997,15.795,-0.081,0.869,-0.561,-0.427,3.784,1.801,73.333,10071.000,1.000
14.463,14.565,14.640,14.711,14.592,14.747,14.700,14.483,-0.083,0.868,-0.562,-0.641,3.876,1.709,73.333,10072.000,1.000
12.635,12.657,12.803,12.794,12.685,12.883,12.789,12.605,-0.085,0.868,-0.561,-0.763,3.784,1.617,73.333,10073.000,1.000
10.369,10.276,10.488,10.374,10.349,10.534,10.406,10.315,-0.085,0.865,-0.559,-0.793,3.845,1.587,73.333,10074.000,1.000
7.755,7.569,7.831,7.622,7.713,7.837,7.710,7.765,-0.085,0.864,-0.558,-0.885,3.815,1.404,73.333,10075.000,1.000
4.946,4.749,5.001,4.768,4.955,5.002,4.893,5.135,-0.086,0.865,-0.563,-1.068,3.754,1.343,73.333,10076.000,1.000
2.209,2.093,2.236,2.085,2.319,2.305,2.207,2.625,-0.084,0.865,-0.561,-1.343,3.632,1.312,73.333,10077.000,1.000
-0.173,-0.169,-0.216,-0.204,0.034,-0.008,-0.117,0.394,-0.082,0.863,-0.556,-1.465,3.540,1.282,73.333,10078.000,1.000
