EEG 1,EEG 2,EEG 3,EEG 4,EEG 5,EEG 6,EEG 7,EEG 8,Accelerometer X,Accelerometer Y,Accelerometer Z,Gyroscope X,Gyroscope Y,Gyroscope Z,Battery Level,Counter,Validation Indicator
2.506,2.580,2.645,2.538,2.825,2.467,2.395,2.783,-0.051,0.874,-0.533,-0.732,-0.763,0.488,73.333,29265.000,1.000
2.909,2.981,3.027,2.940,3.197,2.951,2.881,3.190,-0.052,0.875,-0.532,-0.793,-0.885,0.458,73.333,29266.000,1.000
3.855,3.902,3.924,3.894,4.058,3.956,3.890,4.067,-0.052,0.875,-0.533,-0.854,-0.885,0.305,73.333,29267.000,1.000
4.997,5.006,4.994,5.045,5.109,5.104,5.032,5.097,-0.054,0.874,-0.535,-0.885,-0.885,0.244,73.333,29268.000,1.000
5.847,5.828,5.755,5.896,5.904,5.904,5.813,5.836,-0.053,0.876,-0.532,-0.916,-0.946,0.122,73.333,29269.000,1.000
6.105,6.072,5.917,6.141,6.149,6.081,5.960,6.023,-0.053,0.875,-0.536,-0.793,-1.007,0.122,73.333,29270.000,1.000
5.685,5.646,5.414,5.708,5.736,5.587,5.439,5.600,-0.054,0.874,-0.533,-0.793,-1.068,-0.031,73.333,29271.000,1.000
4.706,4.673,4.397,4.751,4.754,4.576,4.419,4.695,-0.054,0.874,-0.535,-0.763,-1.190,-0.122,73.333,29272.000,1.000
3.494,3.490,3.224,3.617,3.519,3.391,3.250,3.602,-0.054,0.875,-0.537,-0.824,-1.251,-0.031,73.333,29273.000,1.000
2.452,2.504,2.295,2.690,2.445,2.428,2.318,2.663,-0.053,0.875,-0.540,-0.793,-1.312,-0.092,73.333,29274.000,1.000
1.783,1.913,1.773,2.114,1.753,1.853,1.783,2.033,-0.055,0.875,-0.540,-0.732,-1.373,-0.122,73.333,29275.000,1.000
1.377,1.592,1.509,1.742,1.348,1.531,1.503,1.601,-0.053,0.874,-0.532,-0.793,-1.434,-0.183,73.333,29276.000,1.000
1.169,1.453,1.420,1.519,1.176,1.391,1.407,1.338,-0.053,0.873,-0.531,-0.793,-1.404,-0.122,73.333,29277.000,1.000
1.369,1.687,1.689,1.679,1.439,1.627,1.697,1.475,-0.053,0.873,-0.534,-0.793,-1.404,-0.183,73.333,29278.000,1.000
2.083,2.386,2.382,2.331,2.221,2.317,2.457,2.108,-0.052,0.873,-0.532,-0.793,-1.343,-0.092,73.333,29279.000,1.000
2.843,3.080,3.025,3.009,3.039,2.997,3.209,2.769,-0.052,0.871,-0.535,-0.763,-1.343,0.000,73.333,29280.000,1.000
2.877,3.014,2.901,2.960,3.110,2.942,3.199,2.713,-0.051,0.873,-0.537,-0.671,-1.251,0.092,73.333,29281.000,1.000
2.012,2.045,1.921,2.034,2.251,2.033,2.280,1.804,-0.052,0.873,-0.537,-0.641,-1.312,0.214,73.333,29282.000,1.000
0.949,0.905,0.849,0.940,1.161,0.995,1.168,0.759,-0.051,0.877,-0.539,-0.671,-1.312,0.214,73.333,29283.000,1.000
0.463,0.392,0.470,0.451,0.624,0.584,0.648,0.344,-0.052,0.877,-0.535,-0.580,-1.312,0.366,73.333,29284.000,1.000
0.576,0.535,0.762,0.584,0.678,0.776,0.746,0.547,-0.050,0.876,-0.532,-0.671,-1.190,0.336,73.333,29285.000,1.000
0.689,0.718,1.054,0.730,0.745,0.935,0.860,0.728,-0.051,0.879,-0.529,-0.732,-1.221,0.549,73.333,29286.000,1.000
0.474,0.593,0.953,0.535,0.509,0.730,0.654,0.540,-0.053,0.877,-0.529,-0.702,-1.221,0.458,73.333,29287.000,1.000
0.273,0.471,0.763,0.312,0.304,0.518,0.460,0.326,-0.052,0.879,-0.531,-0.763,-1.068,0.549,73.333,29288.000,1.000
0.496,0.726,0.904,0.465,0.520,0.709,0.675,0.512,-0.052,0.879,-0.531,-0.946,-0.916,0.549,73.333,29289.000,1.000
0.860,1.040,1.132,0.734,0.849,1.003,1.001,0.829,-0.052,0.879,-0.530,-0.977,-0.916,0.549,73.333,29290.000,1.000
0.490,0.531,0.619,0.281,0.396,0.507,0.553,0.405,-0.050,0.875,-0.536,-1.007,-0.793,0.580,73.333,29291.000,1.000
-1.111,-1.261,-1.092,-1.360,-1.318,-1.256,-1.152,-1.251,-0.048,0.872,-0.539,-1.038,-0.671,0.580,73.333,29292.000,1.000
-3.467,-3.787,-3.497,-3.696,-3.769,-3.761,-3.608,-3.646,-0.044,0.868,-0.539,-1.038,-0.549,0.671,73.333,29293.000,1.000
-5.607,-6.012,-5.613,-5.764,-5.942,-5.992,-5.815,-5.785,-0.046,0.868,-0.537,-1.007,-0.488,0.763,73.333,29294.000,1.000
-6.966,-7.343,-6.894,-7.031,-7.263,-7.374,-7.202,-7.097,-0.045,0.868,-0.536,-1.038,-0.427,0.702,73.333,29295.000,1.000
-7.663,-7.918,-7.499,-7.667,-7.876,-8.050,-7.898,-7.732,-0.042,0.870,-0.535,-1.007,-0.244,0.824,73.333,29296.000,1.000
-7.956,-8.036,-7.719,-7.958,-8.065,-8.298,-8.170,-7.984,-0.042,0.873,-0.536,-1.007,-0.092,0.916,73.333,29297.000,1.000
-7.842,-7.735,-7.570,-7.882,-7.846,-8.118,-8.008,-7.854,-0.041,0.876,-0.535,-0.977,0.183,0.885,73.333,29298.000,1.000
-7.223,-6.961,-6.974,-7.306,-7.130,-7.421,-7.303,-7.233,-0.039,0.878,-0.535,-0.916,0.366,0.916,73.333,29299.000,1.000
-6.201,-5.849,-6.043,-6.313,-6.027,-6.330,-6.173,-6.227,-0.040,0.882,-0.535,-1.068,0.488,0.946,73.333,29300.000,1.000
-5.086,-4.731,-5.080,-5.217,-4.858,-5.184,-4.977,-5.155,-0.043,0.884,-0.532,-1.129,0.580,1.038,73.333,29301.000,1.000
-4.102,-3.829,-4.275,-4.239,-3.852,-4.220,-3.974,-4.235,-0.051,0.887,-0.534,-1.343,0.671,0.916,73.333,29302.000,1.000
-3.292,-3.159,-3.609,-3.412,-3.048,-3.464,-3.203,-3.480,-0.057,0.888,-0.532,-1.434,0.641,0.946,73.333,29303.000,1.000
-2.693,-2.712,-3.066,-2.777,-2.477,-2.908,-2.670,-2.906,-0.063,0.888,-0.532,-1.648,0.580,0.702,73.333,29304.000,1.000
-2.451,-2.585,-2.792,-2.516,-2.285,-2.665,-2.498,-2.653,-0.067,0.887,-0.530,-1.831,0.397,0.610,73.333,29305.000,1.000
-2.722,-2.909,-2.987,-2.820,-2.620,-2.889,-2.825,-2.877,-0.068,0.882,-0.533,-1.923,0.183,0.366,73.333,29306.000,1.000
-3.400,-3.581,-3.581,-3.585,-3.354,-3.493,-3.542,-3.487,-0.069,0.880,-0.534,-1.953,-0.092,0.183,73.333,29307.000,1.000
-4.109,-4.257,-4.200,-4.385,-4.087,-4.124,-4.279,-4.119,-0.068,0.879,-0.534,-1.984,-0.458,0.000,73.333,29308.000,1.000
-4.459,-4.565,-4.438,-4.761,-4.421,-4.402,-4.643,-4.390,-0.066,0.877,-0.534,-1.953,-0.763,-0.122,73.333,29309.000,1.000
-4.259,-4.310,-4.098,-4.492,-4.178,-4.140,-4.429,-4.123,-0.065,0.874,-0.535,-1.862,-1.038,-0.183,73.333,29310.000,1.000
-3.568,-3.549,-3.274,-3.674,-3.450,-3.411,-3.707,-3.413,-0.062,0.875,-0.530,-1.801,-1.190,-0.305,73.333,29311.000,1.000
-2.521,-2.428,-2.157,-2.508,-2.408,-2.369,-2.647,-2.421,-0.061,0.876,-0.529,-1.892,-1.251,-0.397,73.333,29312.000,1.000
-1.225,-1.069,-0.895,-1.155,-1.170,-1.108,-1.379,-1.244,-0.058,0.876,-0.529,-1.892,-1.404,-0.275,73.333,29313.000,1.000
0.165,0.356,0.371,0.214,0.142,0.267,-0.046,0.007,-0.056,0.878,-0.532,-1.862,-1.495,-0.153,73.333,29314.000,1.000
1.413,1.580,1.464,1.393,1.342,1.549,1.150,1.153,-0.056,0.877,-0.531,-1.953,-1.617,-0.183,73.333,29315.000,1.000
2.261,2.328,2.192,2.171,2.194,2.451,1.980,1.984,-0.054,0.879,-0.533,-1.923,-1.709,-0.031,73.333,29316.000,1.000
2.528,2.451,2.418,2.410,2.511,2.742,2.285,2.344,-0.053,0.876,-0.533,-1.953,-1.709,0.122,73.333,29317.000,1.000
2.116,1.927,2.055,2.038,2.176,2.294,1.972,2.121,-0.050,0.877,-0.528,-1.923,-1.587,0.366,73.333,29318.000,1.000
1.065,0.856,1.111,1.075,1.205,1.147,1.049,1.286,-0.048,0.875,-0.527,-1.923,-1.587,0.488,73.333,29319.000,1.000
-0.371,-0.509,-0.229,-0.285,-0.185,-0.407,-0.292,-0.001,-0.049,0.877,-0.532,-1.740,-1.495,0.580,73.333,29320.000,1.000
-1.875,-1.916,-1.717,-1.785,-1.726,-2.007,-1.795,-1.488,-0.048,0.874,-0.533,-1.831,-1.404,0.671,73.333,29321.000,1.000
-3.327,-3.314,-3.239,-3.300,-3.306,-3.502,-3.343,-3.028,-0.046,0.873,-0.532,-1.831,-1.282,0.824,73.333,29322.000,1.000
-4.878,-4.875,-4.893,-4.920,-5.028,-5.039,-5.031,-4.693,-0.047,0.871,-0.534,-1.831,-1.129,0.977,73.333,29323.000,1.000
-6.672,-6.714,-6.764,-6.742,-6.962,-6.785,-6.935,-6.557,-0.048,0.871,-0.530,-1.801,-1.007,1.038,73.333,29324.000,1.000
-8.517,-8.598,-8.635,-8.571,-8.870,-8.586,-8.830,-8.414,-0.050,0.871,-0.531,-1.801,-0.854,1.068,73.333,29325.000,1.000
-10.007,-10.086,-10.114,-10.023,-10.334,-10.066,-10.307,-9.883,-0.048,0.872,-0.529,-1.678,-0.763,1.038,73.333,29326.000,1.000
-10.851,-10.878,-10.956,-10.841,-11.079,-10.934,-11.092,-10.721,-0.047,0.875,-0.530,-1.709,-0.549,1.038,73.333,29327.000,1.000
-11.039,-11.000,-11.181,-11.047,-11.136,-11.157,-11.213,-10.947,-0.045,0.875,-0.527,-1.648,-0.519,1.068,73.333,29328.000,1.000
-10.651,-10.588,-10.857,-10.727,-10.635,-10.785,-10.795,-10.636,-0.044,0.875,-0.526,-1.617,-0.305,0.946,73.333,29329.000,1.000
-9.587,-9.578,-9.854,-9.749,-9.518,-9.712,-9.756,-9.667,-0.042,0.875,-0.528,-1.648,-0.153,0.977,73.333,29330.000,1.000
-7.650,-7.751,-7.952,-7.874,-7.594,-7.747,-7.878,-7.815,-0.042,0.876,-0.531,-1.556,0.061,0.916,73.333,29331.000,1.000
-4.781,-5.002,-5.086,-5.021,-4.784,-4.842,-5.071,-5.001,-0.042,0.874,-0.529,-1.495,0.183,0.854,73.333,29332.000,1.000
-1.254,-1.570,-1.543,-1.474,-1.336,-1.284,-1.583,-1.494,-0.042,0.873,-0.530,-1.343,0.427,0.763,73.333,29333.000,1.000
2.385,2.003,2.103,2.188,2.221,2.355,2.044,2.140,-0.040,0.872,-0.534,-1.343,0.549,0.732,73.333,29334.000,1.000
5.600,5.170,5.286,5.395,5.359,5.523,5.268,5.341,-0.041,0.872,-0.532,-1.312,0.671,0.610,73.333,29335.000,1.000
8.054,7.580,7.655,7.791,7.739,7.896,7.744,7.759,-0.042,0.873,-0.530,-1.282,0.793,0.610,73.333,29336.000,1.000
9.645,9.138,9.128,9.295,9.265,9.400,9.372,9.292,-0.042,0.872,-0.531,-1.221,1.007,0.488,73.333,29337.000,1.000
10.412,9.912,9.801,9.995,9.991,10.110,10.204,9.999,-0.043,0.873,-0.532,-1.190,1.129,0.519,73.333,29338.000,1.000
10.494,10.078,9.884,10.085,10.081,10.201,10.396,10.060,-0.045,0.873,-0.535,-1.038,1.221,0.336,73.333,29339.000,1.000
10.182,9.935,9.711,9.898,9.851,9.993,10.255,9.819,-0.044,0.874,-0.534,-0.885,1.373,0.305,73.333,29340.000,1.000
9.840,9.792,9.619,9.789,9.664,9.833,10.127,9.651,-0.047,0.875,-0.530,-0.824,1.434,0.244,73.333,29341.000,1.000
9.750,9.840,9.803,9.968,9.759,9.932,10.224,9.793,-0.047,0.875,-0.529,-0.763,1.587,0.153,73.333,29342.000,1.000
9.999,10.103,10.240,10.417,10.149,10.288,10.559,10.250,-0.050,0.878,-0.530,-0.671,1.556,0.153,73.333,29343.000,1.000
10.566,10.569,10.839,11.055,10.745,10.835,11.077,10.932,-0.051,0.878,-0.534,-0.641,1.495,0.122,73.333,29344.000,1.000
11.461,11.332,11.626,11.907,11.558,11.628,11.822,11.844,-0.052,0.876,-0.533,-0.641,1.404,0.031,73.333,29345.000,1.000
12.649,12.444,12.654,12.995,12.620,12.730,12.839,12.998,-0.054,0.878,-0.531,-0.732,1.221,0.061,73.333,29346.000,1.000
13.968,13.781,13.859,14.227,13.860,14.069,14.055,14.285,-0.056,0.878,-0.531,-0.610,1.190,0.092,73.333,29347.000,1.000
15.202,15.098,15.056,15.414,15.096,15.429,15.289,15.495,-0.054,0.878,-0.531,-0.488,1.068,0.153,73.333,29348.000,1.000
16.201,16.189,16.060,16.385,16.140,16.575,16.352,16.463,-0.056,0.877,-0.532,-0.519,0.916,0.061,73.333,29349.000,1.000
16.943,16.989,16.805,17.078,16.907,17.388,17.155,17.157,-0.057,0.877,-0.535,-0.580,0.793,0.092,73.333,29350.000,1.000
17.414,17.494,17.280,17.474,17.368,17.830,17.659,17.580,-0.057,0.880,-0.532,-0.549,0.610,0.153,73.333,29351.000,1.000
17.548,17.653,17.429,17.521,17.474,17.865,17.809,17.668,-0.056,0.881,-0.533,-0.549,0.580,0.153,73.333,29352.000,1.000
17.179,17.304,17.089,17.070,17.078,17.370,17.447,17.246,-0.056,0.880,-0.531,-0.580,0.366,0.275,73.333,29353.000,1.000
16.103,16.237,16.038,15.924,15.987,16.167,16.361,16.110,-0.055,0.879,-0.533,-0.610,0.214,0.336,73.333,29354.000,1.000
14.280,14.424,14.226,14.055,14.172,14.239,14.508,14.243,-0.054,0.880,-0.532,-0.549,0.122,0.397,73.333,29355.000,1.000
11.910,12.076,11.865,11.678,11.839,11.813,12.102,11.865,-0.055,0.882,-0.535,-0.671,-0.092,0.336,73.333,29356.000,1.000
9.295,9.479,9.267,9.104,9.286,9.203,9.462,9.275,-0.056,0.882,-0.531,-0.793,-0.366,0.397,73.333,29357.000,1.000
6.630,6.796,6.619,6.522,6.703,6.578,6.791,6.646,-0.055,0.882,-0.528,-0.610,-0.488,0.427,73.333,29358.000,1.000
4.031,4.133,4.031,4.027,4.192,4.009,4.195,4.069,-0.054,0.881,-0.529,-0.641,-0.702,0.549,73.333,29359.000,1.000
1.708,1.740,1.711,1.794,1.948,1.681,1.868,1.739,-0.055,0.879,-0.528,-0.641,-0.854,0.641,73.333,29360.000,1.000
-0.133,-0.118,-0.124,0.004,0.172,-0.191,0.017,-0.139,-0.054,0.875,-0.530,-0.610,-0.946,0.732,73.333,29361.000,1.000
-1.479,-1.390,-1.445,-1.326,-1.114,-1.560,-1.324,-1.527,-0.054,0.873,-0.531,-0.549,-1.038,0.732,73.333,29362.000,1.000
-2.553,-2.320,-2.457,-2.396,-2.134,-2.618,-2.363,-2.608,-0.053,0.871,-0.533,-0.580,-1.129,0.763,73.333,29363.000,1.000
-3.604,-3.222,-3.397,-3.432,-3.149,-3.609,-3.352,-3.609,-0.052,0.871,-0.535,-0.397,-1.160,0.793,73.333,29364.000,1.000
-4.601,-4.144,-4.258,-4.405,-4.164,-4.532,-4.291,-4.520,-0.051,0.871,-0.534,-0.427,-1.160,0.916,73.333,29365.000,1.000
-5.338,-4.911,-4.893,-5.125,-5.002,-5.220,-5.016,-5.190,-0.048,0.873,-0.532,-0.275,-1.251,0.885,73.333,29366.000,1.000
-5.759,-5.427,-5.304,-5.557,-5.597,-5.636,-5.504,-5.605,-0.046,0.876,-0.532,-0.305,-1.190,0.824,73.333,29367.000,1.000
-6.036,-5.800,-5.686,-5.882,-6.081,-5.948,-5.924,-5.939,-0.043,0.874,-0.532,-0.214,-1.129,0.977,73.333,29368.000,1.000
-6.306,-6.133,-6.152,-6.223,-6.545,-6.279,-6.371,-6.303,-0.042,0.872,-0.533,-0.275,-1.068,1.129,73.333,29369.000,1.000
-6.471,-6.328,-6.530,-6.435,-6.849,-6.512,-6.687,-6.553,-0.045,0.874,-0.533,-0.244,-1.007,1.190,73.333,29370.000,1.000
-6.346,-6.215,-6.548,-6.297,-6.776,-6.454,-6.638,-6.468,-0.048,0.874,-0.531,-0.244,-0.885,1.068,73.333,29371.000,1.000
-5.839,-5.713,-6.070,-5.726,-6.232,-6.014,-6.128,-5.940,-0.049,0.875,-0.528,-0.244,-0.885,0.977,73.333,29372.000,1.000
-5.032,-4.912,-5.197,-4.861,-5.323,-5.262,-5.274,-5.071,-0.052,0.876,-0.532,-0.244,-0.885,0.793,73.333,29373.000,1.000
-4.144,-4.034,-4.204,-3.972,-4.305,-4.388,-4.338,-4.122,-0.054,0.876,-0.534,-0.305,-0.946,0.702,73.333,29374.000,1.000
-3.387,-3.295,-3.348,-3.265,-3.430,-3.586,-3.547,-3.350,-0.055,0.876,-0.533,-0.275,-1.007,0.580,73.333,29375.000,1.000
-2.888,-2.836,-2.797,-2.843,-2.866,-3.008,-3.040,-2.909,-0.052,0.875,-0.535,-0.275,-1.129,0.458,73.333,29376.000,1.000
-2.644,-2.662,-2.573,-2.687,-2.637,-2.699,-2.825,-2.776,-0.053,0.877,-0.537,-0.244,-1.190,0.427,73.333,29377.000,1.000
-2.551,-2.654,-2.553,-2.673,-2.625,-2.575,-2.790,-2.795,-0.051,0.875,-0.536,-0.244,-1.160,0.336,73.333,29378.000,1.000
-2.475,-2.642,-2.545,-2.629,-2.634,-2.488,-2.760,-2.780,-0.049,0.876,-0.535,-0.305,-1.160,0.153,73.333,29379.000,1.000
-2.247,-2.429,-2.324,-2.363,-2.430,-2.254,-2.521,-2.540,-0.048,0.876,-0.532,-0.519,-1.068,0.183,73.333,29380.000,1.000
-1.744,-1.902,-1.759,-1.763,-1.871,-1.756,-1.935,-1.969,-0.049,0.877,-0.533,-0.549,-1.129,0.061,73.333,29381.000,1.000
-0.997,-1.129,-0.931,-0.905,-1.029,-1.040,-1.063,-1.142,-0.047,0.876,-0.534,-0.671,-1.068,0.031,73.333,29382.000,1.000
-0.226,-0.358,-0.116,-0.047,-0.170,-0.318,-0.173,-0.316,-0.047,0.875,-0.536,-0.763,-0.977,0.061,73.333,29383.000,1.000
0.317,0.157,0.406,0.540,0.427,0.178,0.448,0.252,-0.050,0.879,-0.536,-0.763,-1.007,-0.031,73.333,29384.000,1.000
0.537,0.345,0.558,0.760,0.658,0.363,0.687,0.471,-0.049,0.881,-0.536,-0.671,-1.007,0.061,73.333,29385.000,1.000
0.433,0.238,0.388,0.617,0.520,0.238,0.543,0.332,-0.049,0.881,-0.534,-0.824,-1.038,0.031,73.333,29386.000,1.000
0.008,-0.144,-0.057,0.124,0.037,-0.198,0.044,-0.171,-0.051,0.880,-0.537,-0.885,-1.038,0.092,73.333,29387.000,1.000
-0.753,-0.824,-0.778,-0.707,-0.764,-0.947,-0.782,-1.024,-0.051,0.879,-0.533,-0.946,-1.007,0.153,73.333,29388.000,1.000
-1.872,-1.839,-1.810,-1.847,-1.856,-2.002,-1.919,-2.184,-0.051,0.880,-0.534,-1.068,-0.854,0.244,73.333,29389.000,1.000
-3.320,-3.183,-3.156,-3.243,-3.199,-3.321,-3.330,-3.567,-0.050,0.878,-0.537,-1.221,-0.732,0.275,73.333,29390.000,1.000
-4.989,-4.773,-4.752,-4.821,-4.724,-4.830,-4.931,-5.084,-0.050,0.878,-0.535,-1.221,-0.671,0.336,73.333,29391.000,1.000
-6.645,-6.383,-6.391,-6.411,-6.268,-6.351,-6.515,-6.566,-0.049,0.875,-0.533,-1.068,-0.641,0.458,73.333,29392.000,1.000
-7.993,-7.716,-7.778,-7.759,-7.593,-7.640,-7.809,-7.787,-0.048,0.873,-0.533,-1.068,-0.641,0.488,73.333,29393.000,1.000
-8.859,-8.586,-8.709,-8.679,-8.531,-8.547,-8.651,-8.590,-0.050,0.876,-0.533,-1.038,-0.610,0.549,73.333,29394.000,1.000
-9.245,-9.000,-9.165,-9.143,-9.048,-9.065,-9.072,-8.957,-0.049,0.875,-0.536,-1.068,-0.519,0.641,73.333,29395.000,1.000
-9.328,-9.136,-9.311,-9.310,-9.274,-9.315,-9.252,-9.042,-0.049,0.875,-0.529,-1.068,-0.488,0.671,73.333,29396.000,1.000
-9.353,-9.227,-9.381,-9.419,-9.410,-9.459,-9.393,-9.085,-0.049,0.875,-0.529,-0.977,-0.366,0.641,73.333,29397.000,1.000
-9.515,-9.450,-9.566,-9.669,-9.626,-9.634,-9.633,-9.294,-0.050,0.876,-0.530,-0.977,-0.305,0.671,73.333,29398.000,1.000
-9.834,-9.828,-9.906,-10.079,-9.939,-9.878,-9.959,-9.702,-0.051,0.876,-0.533,-0.916,-0.366,0.610,73.333,29399.000,1.000
-10.053,-10.113,-10.154,-10.381,-10.105,-10.004,-10.111,-10.034,-0.049,0.875,-0.533,-0.946,-0.305,0.641,73.333,29400.000,1.000
-9.820,-9.949,-9.936,-10.190,-9.795,-9.728,-9.756,-9.886,-0.051,0.877,-0.533,-0.977,-0.244,0.702,73.333,29401.000,1.000
-8.975,-9.159,-9.059,-9.323,-8.880,-8.913,-8.787,-9.064,-0.051,0.874,-0.536,-1.007,-0.275,0.702,73.333,29402.000,1.000
-7.697,-7.928,-7.717,-7.983,-7.577,-7.718,-7.458,-7.774,-0.050,0.874,-0.533,-1.007,-0.275,0.641,73.333,29403.000,1.000
-6.394,-6.670,-6.368,-6.633,-6.314,-6.510,-6.212,-6.475,-0.050,0.873,-0.537,-0.885,-0.244,0.549,73.333,29404.000,1.000
-5.426,-5.730,-5.405,-5.664,-5.432,-5.596,-5.377,-5.536,-0.050,0.873,-0.537,-0.885,-0.153,0.519,73.333,29405.000,1.000
-4.955,-5.259,-4.973,-5.214,-5.044,-5.096,-5.043,-5.089,-0.050,0.872,-0.535,-0.732,-0.183,0.397,73.333,29406.000,1.000
-4.868,-5.156,-4.914,-5.119,-5.004,-4.907,-5.052,-4.982,-0.050,0.871,-0.531,-0.549,-0.275,0.397,73.333,29407.000,1.000
-4.870,-5.145,-4.904,-5.063,-5.022,-4.792,-5.111,-4.922,-0.052,0.871,-0.533,-0.549,-0.244,0.458,73.333,29408.000,1.000
-4.837,-5.109,-4.835,-4.949,-5.006,-4.689,-5.126,-4.835,-0.053,0.873,-0.533,-0.519,-0.214,0.427,73.333,29409.000,1.000
-5.066,-5.345,-5.044,-5.125,-5.267,-4.914,-5.414,-5.074,-0.052,0.873,-0.533,-0.488,-0.305,0.336,73.333,29410.000,1.000
-5.915,-6.204,-5.911,-5.962,-6.152,-5.802,-6.323,-6.006,-0.052,0.873,-0.533,-0.397,-0.305,0.336,73.333,29411.000,1.000
-6.917,-7.206,-6.950,-6.963,-7.175,-6.862,-7.359,-7.115,-0.052,0.874,-0.534,-0.427,-0.336,0.366,73.333,29412.000,1.000
-6.767,-7.033,-6.825,-6.786,-7.026,-6.774,-7.189,-7.029,-0.052,0.874,-0.532,-0.366,-0.427,0.275,73.333,29413.000,1.000
-4.805,-5.026,-4.858,-4.772,-5.053,-4.870,-5.160,-5.069,-0.052,0.875,-0.530,-0.366,-0.458,0.305,73.333,29414.000,1.000
-2.244,-2.414,-2.266,-2.166,-2.479,-2.353,-2.520,-2.466,-0.053,0.874,-0.535,-0.397,-0.519,0.366,73.333,29415.000,1.000
-1.188,-1.325,-1.165,-1.104,-1.410,-1.321,-1.424,-1.354,-0.052,0.877,-0.535,-0.427,-0.488,0.244,73.333,29416.000,1.000
-2.240,-2.373,-2.161,-2.188,-2.423,-2.372,-2.483,-2.352,-0.053,0.877,-0.535,-0.427,-0.549,0.214,73.333,29417.000,1.000
-3.804,-3.955,-3.656,-3.794,-3.900,-3.905,-4.065,-3.870,-0.052,0.878,-0.534,-0.336,-0.580,0.214,73.333,29418.000,1.000
-4.083,-4.260,-3.862,-4.082,-4.054,-4.123,-4.312,-4.103,-0.053,0.876,-0.537,-0.366,-0.732,0.214,73.333,29419.000,1.000
-2.961,-3.155,-2.689,-2.906,-2.813,-2.926,-3.080,-2.921,-0.053,0.877,-0.539,-0.397,-0.824,0.305,73.333,29420.000,1.000
-1.432,-1.605,-1.149,-1.263,-1.217,-1.330,-1.385,-1.308,-0.054,0.878,-0.535,-0.427,-0.824,0.305,73.333,29421.000,1.000
0.222,0.138,0.487,0.533,0.430,0.372,0.435,0.447,-0.053,0.878,-0.534,-0.488,-0.854,0.397,73.333,29422.000,1.000
2.532,2.620,2.782,2.959,2.674,2.712,2.861,2.840,-0.052,0.881,-0.536,-0.427,-0.916,0.488,73.333,29423.000,1.000
5.161,5.475,5.422,5.637,5.222,5.362,5.535,5.496,-0.052,0.883,-0.534,-0.549,-1.007,0.427,73.333,29424.000,1.000
6.353,6.869,6.637,6.787,6.350,6.563,6.707,6.641,-0.054,0.884,-0.533,-0.580,-0.946,0.427,73.333,29425.000,1.000
4.778,5.389,5.050,5.082,4.742,4.968,5.070,4.957,-0.054,0.881,-0.537,-0.702,-0.946,0.519,73.333,29426.000,1.000
1.552,2.117,1.739,1.662,1.509,1.673,1.759,1.598,-0.055,0.882,-0.536,-0.793,-1.007,0.610,73.333,29427.000,1.000
-0.621,-0.197,-0.571,-0.715,-0.654,-0.596,-0.502,-0.674,-0.055,0.881,-0.536,-0.854,-1.068,0.671,73.333,29428.000,1.000
-0.583,-0.315,-0.640,-0.827,-0.605,-0.640,-0.539,-0.660,-0.056,0.882,-0.536,-0.946,-1.129,0.702,73.333,29429.000,1.000
-0.237,-0.087,-0.309,-0.548,-0.263,-0.338,-0.249,-0.275,-0.055,0.881,-0.538,-0.946,-1.251,0.732,73.333,29430.000,1.000
-2.136,-2.035,-2.129,-2.432,-2.172,-2.241,-2.177,-2.100,-0.055,0.878,-0.537,-1.038,-1.190,0.641,73.333,29431.000,1.000
-5.262,-5.123,-5.133,-5.490,-5.290,-5.340,-5.294,-5.138,-0.054,0.878,-0.538,-0.977,-1.251,0.793,73.333,29432.000,1.000
-4.553,-4.296,-4.330,-4.699,-4.543,-4.578,-4.537,-4.337,-0.054,0.875,-0.538,-0.946,-1.251,0.702,73.333,29433.000,1.000
3.414,3.834,3.664,3.332,3.488,3.466,3.503,3.712,-0.051,0.875,-0.537,-0.885,-1.190,0.732,73.333,29434.000,1.000
14.586,15.153,14.797,14.533,14.747,14.720,14.742,14.938,-0.050,0.871,-0.538,-0.824,-1.343,0.793,73.333,29435.000,1.000
19.960,20.602,20.104,19.911,20.226,20.161,20.157,20.328,-0.050,0.870,-0.542,-0.580,-1.312,0.702,73.333,29436.000,1.000
15.299,15.906,15.375,15.243,15.656,15.527,15.504,15.647,-0.049,0.867,-0.538,-0.519,-1.221,0.824,73.333,29437.000,1.000
6.046,6.494,6.058,5.969,6.427,6.240,6.230,6.332,-0.045,0.866,-0.541,-0.336,-1.251,0.824,73.333,29438.000,1.000
0.728,0.924,0.676,0.611,1.047,0.830,0.874,0.914,-0.044,0.867,-0.541,-0.214,-1.099,0.885,73.333,29439.000,1.000
1.322,1.233,1.197,1.149,1.517,1.304,1.419,1.393,-0.045,0.866,-0.541,0.000,-1.038,0.793,73.333,29440.000,1.000
2.632,2.308,2.434,2.423,2.702,2.526,2.679,2.617,-0.044,0.866,-0.537,-0.031,-0.854,0.854,73.333,29441.000,1.000
0.706,0.261,0.467,0.519,0.708,0.590,0.714,0.669,-0.043,0.868,-0.537,0.061,-0.793,0.854,73.333,29442.000,1.000
-1.633,-2.064,-1.862,-1.741,-1.616,-1.681,-1.641,-1.635,-0.042,0.868,-0.539,0.183,-0.519,0.885,73.333,29443.000,1.000
0.239,-0.066,0.074,0.237,0.337,0.299,0.248,0.297,-0.044,0.869,-0.539,0.305,-0.427,0.854,73.333,29444.000,1.000
4.280,4.171,4.228,4.377,4.486,4.450,4.346,4.398,-0.042,0.871,-0.540,0.336,-0.336,0.824,73.333,29445.000,1.000
2.296,2.382,2.381,2.459,2.586,2.549,2.432,2.450,-0.043,0.873,-0.541,0.427,-0.061,0.793,73.333,29446.000,1.000
-9.314,-9.122,-9.126,-9.134,-9.007,-9.028,-9.150,-9.174,-0.044,0.874,-0.539,0.397,0.092,0.702,73.333,29447.000,1.000
-22.581,-22.423,-22.381,-22.427,-22.321,-22.314,-22.468,-22.514,-0.043,0.873,-0.535,0.305,0.214,0.732,73.333,29448.000,1.000
-25.542,-25.541,-25.441,-25.445,-25.357,-25.335,-25.546,-25.591,-0.043,0.875,-0.534,0.183,0.427,0.610,73.333,29449.000,1.000
-15.578,-15.778,-15.657,-15.577,-15.458,-15.468,-15.723,-15.756,-0.045,0.874,-0.537,0.183,0.397,0.671,73.333,29450.000,1.000
-1.753,-2.108,-2.047,-1.898,-1.666,-1.775,-2.024,-2.051,-0.045,0.873,-0.536,0.031,0.580,0.488,73.333,29451.000,1.000
6.050,5.652,5.570,5.743,6.141,5.898,5.706,5.675,-0.048,0.874,-0.537,-0.031,0.641,0.458,73.333,29452.000,1.000
6.876,6.549,6.303,6.464,6.983,6.640,6.534,6.506,-0.047,0.874,-0.535,0.000,0.641,0.427,73.333,29453.000,1.000
6.503,6.308,5.964,6.098,6.604,6.257,6.229,6.243,-0.049,0.874,-0.537,-0.092,0.702,0.397,73.333,29454.000,1.000
8.792,8.730,8.399,8.504,8.843,8.616,8.624,8.720,-0.049,0.876,-0.535,-0.183,0.763,0.397,73.333,29455.000,1.000
12.015,12.040,11.824,11.893,11.983,11.956,11.961,12.138,-0.049,0.875,-0.536,-0.305,0.732,0.305,73.333,29456.000,1.000
12.924,12.978,12.925,12.954,12.813,12.967,12.980,13.181,-0.046,0.877,-0.536,-0.366,0.671,0.244,73.333,29457.000,1.000
11.449,11.490,11.575,11.587,11.303,11.521,11.587,11.759,-0.047,0.877,-0.536,-0.610,0.671,0.183,73.333,29458.000,1.000
10.214,10.218,10.368,10.430,10.082,10.227,10.382,10.506,-0.049,0.878,-0.535,-0.702,0.610,0.214,73.333,29459.000,1.000
11.040,10.988,11.123,11.317,10.934,10.931,11.163,11.254,-0.051,0.880,-0.535,-0.885,0.549,0.183,73.333,29460.000,1.000
13.109,12.990,13.053,13.420,12.990,12.851,13.113,13.194,-0.052,0.879,-0.535,-1.068,0.580,0.122,73.333,29461.000,1.000
14.243,14.057,14.029,14.537,14.054,13.855,14.091,14.172,-0.052,0.879,-0.534,-1.251,0.366,0.183,73.333,29462.000,1.000
13.086,12.854,12.756,13.307,12.802,12.630,12.810,12.877,-0.054,0.880,-0.533,-1.434,0.336,0.092,73.333,29463.000,1.000
10.110,9.875,9.749,10.234,9.768,9.676,9.798,9.812,-0.055,0.882,-0.532,-1.617,0.214,0.153,73.333,29464.000,1.000
7.223,7.046,6.923,7.257,6.910,6.891,6.957,6.883,-0.055,0.884,-0.532,-1.831,0.214,0.183,73.333,29465.000,1.000
6.204,6.122,6.016,6.162,5.998,6.005,6.009,5.847,-0.054,0.885,-0.532,-2.075,0.061,0.031,73.333,29466.000,1.000
7.044,7.041,6.968,6.947,6.966,6.956,6.890,6.687,-0.055,0.884,-0.533,-2.258,-0.183,0.092,73.333,29467.000,1.000
7.879,7.900,7.879,7.771,7.886,7.855,7.719,7.541,-0.054,0.883,-0.532,-2.441,-0.244,0.153,73.333,29468.000,1.000
7.040,7.019,7.059,6.980,7.048,7.031,6.846,6.740,-0.054,0.884,-0.532,-2.747,-0.458,0.183,73.333,29469.000,1.000
5.220,5.118,5.203,5.249,5.155,5.189,5.001,4.975,-0.053,0.884,-0.531,-3.082,-0.519,0.305,73.333,29470.000,1.000
4.694,4.503,4.595,4.800,4.525,4.616,4.478,4.498,-0.055,0.883,-0.531,-3.357,-0.641,0.275,73.333,29471.000,1.000
6.190,5.913,5.979,6.300,5.928,6.051,5.991,6.005,-0.057,0.881,-0.531,-3.540,-0.793,0.214,73.333,29472.000,1.000
7.520,7.167,7.201,7.541,7.193,7.328,7.344,7.297,-0.054,0.883,-0.528,-3.723,-0.977,0.214,73.333,29473.000,1.000
6.261,5.867,5.881,6.152,5.913,6.057,6.133,5.992,-0.054,0.881,-0.531,-3.876,-1.099,0.305,73.333,29474.000,1.000
3.307,2.936,2.944,3.124,2.998,3.153,3.283,3.057,-0.054,0.881,-0.528,-4.089,-1.221,0.336,73.333,29475.000,1.000
2.032,1.755,1.762,1.897,1.813,1.983,2.177,1.905,-0.050,0.879,-0.529,-4.150,-1.251,0.397,73.333,29476.000,1.000
3.766,3.640,3.645,3.788,3.655,3.847,4.118,3.843,-0.052,0.880,-0.528,-4.150,-1.373,0.488,73.333,29477.000,1.000
5.647,5.704,5.716,5.872,5.647,5.855,6.199,5.946,-0.052,0.879,-0.527,-4.364,-1.526,0.488,73.333,29478.000,1.000
4.099,4.329,4.377,4.497,4.203,4.402,4.791,4.573,-0.050,0.879,-0.528,-4.486,-1.526,0.610,73.333,29479.000,1.000
-0.363,-0.016,0.089,0.130,-0.192,-0.024,0.373,0.199,-0.049,0.878,-0.524,-4.547,-1.495,0.610,73.333,29480.000,1.000
-3.707,-3.316,-3.182,-3.201,-3.535,-3.399,-3.023,-3.149,-0.048,0.880,-0.525,-4.486,-1.556,0.580,73.333,29481.000,1.000
-3.698,-3.328,-3.229,-3.232,-3.584,-3.467,-3.135,-3.211,-0.047,0.878,-0.526,-4.639,-1.587,0.671,73.333,29482.000,1.000
-2.808,-2.503,-2.501,-2.423,-2.774,-2.677,-2.416,-2.424,-0.048,0.878,-0.526,-4.578,-1.648,0.732,73.333,29483.000,1.000
-4.774,-4.548,-4.659,-4.511,-4.796,-4.734,-4.570,-4.499,-0.046,0.877,-0.530,-4.578,-1.556,0.793,73.333,29484.000,1.000
-9.372,-9.205,-9.397,-9.254,-9.387,-9.376,-9.308,-9.187,-0.045,0.874,-0.529,-4.486,-1.434,0.824,73.333,29485.000,1.000
-12.695,-12.547,-12.765,-12.702,-12.632,-12.675,-12.662,-12.565,-0.047,0.874,-0.527,-4.395,-1.465,0.854,73.333,29486.000,1.000
-12.471,-12.323,-12.506,-12.542,-12.289,-12.381,-12.363,-12.368,-0.048,0.872,-0.527,-4.089,-1.404,0.854,73.333,29487.000,1.000
-11.106,-10.970,-11.069,-11.162,-10.809,-10.946,-10.875,-11.013,-0.048,0.872,-0.525,-4.028,-1.343,0.885,73.333,29488.000,1.000
-12.263,-12.158,-12.153,-12.241,-11.886,-12.068,-11.935,-12.172,-0.048,0.872,-0.524,-3.601,-1.282,0.793,73.333,29489.000,1.000
-15.579,-15.496,-15.408,-15.458,-15.176,-15.381,-15.230,-15.485,-0.048,0.871,-0.525,-3.387,-1.221,0.671,73.333,29490.000,1.000
-17.044,-16.956,-16.825,-16.847,-16.671,-16.853,-16.757,-16.948,-0.047,0.873,-0.523,-3.326,-1.129,0.763,73.333,29491.000,1.000
-14.575,-14.451,-14.314,-14.339,-14.245,-14.376,-14.386,-14.472,-0.049,0.874,-0.522,-3.052,-1.129,0.610,73.333,29492.000,1.000
-11.026,-10.854,-10.731,-10.795,-10.705,-10.802,-10.916,-10.905,-0.049,0.874,-0.526,-2.869,-1.099,0.580,73.333,29493.000,1.000
-10.467,-10.259,-10.153,-10.292,-10.112,-10.217,-10.391,-10.316,-0.049,0.875,-0.527,-2.747,-1.007,0.519,73.333,29494.000,1.000
-12.696,-12.478,-12.367,-12.613,-12.288,-12.430,-12.616,-12.500,-0.049,0.874,-0.527,-2.472,-1.038,0.580,73.333,29495.000,1.000
-13.561,-13.355,-13.209,-13.567,-13.127,-13.300,-13.458,-13.320,-0.049,0.873,-0.527,-2.197,-1.007,0.458,73.333,29496.000,1.000
-10.502,-10.327,-10.131,-10.557,-10.119,-10.291,-10.381,-10.259,-0.050,0.872,-0.524,-1.862,-1.068,0.427,73.333,29497.000,1.000
-5.806,-5.684,-5.456,-5.858,-5.563,-5.703,-5.695,-5.632,-0.051,0.873,-0.524,-1.617,-1.099,0.427,73.333,29498.000,1.000
-3.390,-3.343,-3.125,-3.410,-3.336,-3.434,-3.335,-3.340,-0.050,0.874,-0.525,-1.526,-1.160,0.366,73.333,29499.000,1.000
-3.580,-3.634,-3.455,-3.575,-3.691,-3.761,-3.635,-3.664,-0.051,0.874,-0.525,-1.221,-1.038,0.275,73.333,29500.000,1.000
-3.108,-3.281,-3.146,-3.116,-3.311,-3.357,-3.297,-3.294,-0.053,0.873,-0.527,-1.007,-1.007,0.275,73.333,29501.000,1.000
-0.010,-0.280,-0.191,-0.070,-0.222,-0.226,-0.297,-0.228,-0.054,0.875,-0.528,-0.824,-1.129,0.153,73.333,29502.000,1.000
3.534,3.223,3.260,3.399,3.362,3.419,3.222,3.358,-0.053,0.876,-0.531,-0.641,-1.160,0.122,73.333,29503.000,1.000
4.220,3.934,3.908,4.009,4.094,4.203,3.947,4.129,-0.053,0.875,-0.529,-0.366,-1.099,0.122,73.333,29504.000,1.000
2.292,2.079,1.977,2.021,2.184,2.314,2.075,2.271,-0.053,0.876,-0.531,-0.244,-1.190,0.153,73.333,29505.000,1.000
1.240,1.122,0.948,0.937,1.116,1.232,1.060,1.227,-0.054,0.875,-0.531,-0.061,-1.190,0.183,73.333,29506.000,1.000
3.156,3.129,2.913,2.849,3.000,3.078,2.984,3.086,-0.053,0.873,-0.530,0.031,-1.282,0.061,73.333,29507.000,1.000
6.127,6.169,5.958,5.832,5.946,5.982,5.939,5.969,-0.054,0.873,-0.530,0.153,-1.251,0.122,73.333,29508.000,1.000
6.981,7.064,6.894,6.698,6.805,6.803,6.769,6.756,-0.052,0.874,-0.530,0.275,-1.190,0.092,73.333,29509.000,1.000
5.627,5.725,5.613,5.348,5.493,5.450,5.393,5.401,-0.053,0.873,-0.530,0.397,-1.312,0.275,73.333,29510.000,1.000
4.961,5.052,5.008,4.688,4.889,4.814,4.716,4.819,-0.051,0.872,-0.527,0.671,-1.221,0.336,73.333,29511.000,1.000
6.719,6.785,6.821,6.469,6.697,6.626,6.476,6.719,-0.049,0.874,-0.530,0.793,-1.221,0.336,73.333,29512.000,1.000
9.102,9.115,9.237,8.884,9.086,9.068,8.866,9.224,-0.049,0.873,-0.530,0.916,-1.221,0.427,73.333,29513.000,1.000
9.258,9.187,9.381,9.066,9.193,9.258,9.031,9.406,-0.050,0.872,-0.527,1.068,-1.160,0.366,73.333,29514.000,1.000
7.210,7.036,7.275,7.033,7.070,7.198,7.004,7.267,-0.052,0.873,-0.533,1.160,-1.129,0.458,73.333,29515.000,1.000
5.741,5.480,5.727,5.578,5.550,5.676,5.568,5.639,-0.052,0.873,-0.532,1.221,-1.129,0.610,73.333,29516.000,1.000
6.650,6.357,6.561,6.505,6.452,6.523,6.500,6.396,-0.053,0.873,-0.534,1.343,-1.160,0.671,73.333,29517.000,1.000
8.560,8.312,8.414,8.438,8.379,8.398,8.408,8.215,-0.052,0.875,-0.535,1.465,-1.007,0.732,73.333,29518.000,1.000
9.013,8.875,8.821,8.915,8.824,8.837,8.838,8.645,-0.050,0.878,-0.534,1.434,-1.007,0.671,73.333,29519.000,1.000
7.838,7.823,7.611,7.757,7.595,7.646,7.647,7.491,-0.049,0.879,-0.532,1.373,-0.824,0.732,73.333,29520.000,1.000
7.082,7.154,6.852,7.014,6.767,6.868,6.920,6.793,-0.046,0.880,-0.531,1.373,-0.824,0.763,73.333,29521.000,1.000
7.947,8.062,7.778,7.906,7.599,7.735,7.882,7.774,-0.047,0.880,-0.529,1.251,-0.732,0.702,73.333,29522.000,1.000
9.139,9.271,9.074,9.137,8.824,8.978,9.221,9.140,-0.046,0.879,-0.533,1.129,-0.702,0.702,73.333,29523.000,1.000
8.618,8.753,8.634,8.636,8.384,8.538,8.829,8.790,-0.042,0.876,-0.532,1.068,-0.580,0.671,73.333,29524.000,1.000
6.222,6.348,6.241,6.223,6.069,6.208,6.475,6.489,-0.043,0.874,-0.535,0.977,-0.305,0.610,73.333,29525.000,1.000
3.569,3.680,3.523,3.531,3.463,3.569,3.768,3.830,-0.041,0.872,-0.534,1.038,-0.244,0.580,73.333,29526.000,1.000
1.815,1.939,1.711,1.751,1.735,1.782,1.924,2.011,-0.044,0.872,-0.535,0.946,-0.153,0.580,73.333,29527.000,1.000
0.520,0.712,0.430,0.459,0.481,0.447,0.593,0.652,-0.044,0.870,-0.539,1.007,-0.031,0.610,73.333,29528.000,1.000
-1.190,-0.898,-1.187,-1.218,-1.160,-1.280,-1.049,-1.077,-0.043,0.871,-0.537,1.068,0.092,0.641,73.333,29529.000,1.000
-2.965,-2.604,-2.830,-2.933,-2.859,-3.036,-2.672,-2.810,-0.041,0.874,-0.538,1.038,0.275,0.549,73.333,29530.000,1.000
-3.547,-3.200,-3.301,-3.446,-3.393,-3.567,-3.092,-3.319,-0.038,0.874,-0.538,0.977,0.305,0.549,73.333,29531.000,1.000
-2.452,-2.198,-2.169,-2.312,-2.314,-2.413,-1.919,-2.191,-0.037,0.877,-0.538,0.702,0.458,0.580,73.333,29532.000,1.000
-0.657,-0.536,-0.432,-0.531,-0.608,-0.585,-0.182,-0.465,-0.039,0.880,-0.534,0.580,0.702,0.580,73.333,29533.000,1.000
0.499,0.475,0.588,0.561,0.407,0.555,0.791,0.521,-0.046,0.881,-0.532,0.366,0.824,0.519,73.333,29534.000,1.000
0.753,0.599,0.695,0.731,0.520,0.767,0.818,0.580,-0.051,0.882,-0.536,0.305,0.916,0.427,73.333,29535.000,1.000
0.773,0.530,0.624,0.678,0.434,0.754,0.653,0.470,-0.060,0.885,-0.536,0.122,0.916,0.366,73.333,29536.000,1.000
0.911,0.630,0.757,0.757,0.504,0.883,0.679,0.586,-0.062,0.887,-0.538,-0.061,0.732,0.244,73.333,29537.000,1.000
0.665,0.400,0.576,0.467,0.227,0.648,0.388,0.410,-0.064,0.887,-0.536,-0.214,0.549,0.000,73.333,29538.000,1.000
-0.592,-0.775,-0.571,-0.792,-1.010,-0.577,-0.846,-0.726,-0.066,0.885,-0.534,-0.427,0.275,-0.122,73.333,29539.000,1.000
-2.565,-2.595,-2.414,-2.685,-2.892,-2.497,-2.724,-2.571,-0.066,0.883,-0.535,-0.610,-0.031,-0.305,73.333,29540.000,1.000
-4.207,-4.058,-3.937,-4.175,-4.383,-4.084,-4.232,-4.120,-0.061,0.883,-0.535,-0.702,-0.275,-0.427,73.333,29541.000,1.000
-4.802,-4.530,-4.457,-4.617,-4.813,-4.652,-4.722,-4.688,-0.062,0.880,-0.533,-0.916,-0.549,-0.519,73.333,29542.000,1.000
-4.527,-4.247,-4.174,-4.268,-4.413,-4.390,-4.415,-4.452,-0.061,0.880,-0.535,-1.099,-0.732,-0.641,73.333,29543.000,1.000
-3.972,-3.797,-3.686,-3.751,-3.807,-3.887,-3.904,-3.987,-0.059,0.880,-0.534,-1.160,-0.793,-0.641,73.333,29544.000,1.000
-3.322,-3.308,-3.180,-3.227,-3.180,-3.317,-3.358,-3.460,-0.058,0.877,-0.536,-1.221,-0.946,-0.580,73.333,29545.000,1.000
-2.366,-2.508,-2.431,-2.437,-2.295,-2.459,-2.540,-2.646,-0.056,0.879,-0.533,-1.343,-1.068,-0.488,73.333,29546.000,1.000
-1.078,-1.324,-1.351,-1.279,-1.076,-1.260,-1.367,-1.476,-0.053,0.882,-0.533,-1.404,-1.251,-0.488,73.333,29547.000,1.000
0.155,-0.119,-0.226,-0.064,0.134,-0.069,-0.154,-0.284,-0.053,0.881,-0.533,-1.434,-1.221,-0.183,73.333,29548.000,1.000
0.801,0.573,0.481,0.690,0.804,0.611,0.589,0.427,-0.051,0.880,-0.534,-1.587,-1.251,-0.061,73.333,29549.000,1.000
0.654,0.524,0.525,0.700,0.695,0.560,0.608,0.421,-0.049,0.880,-0.533,-1.678,-1.251,0.183,73.333,29550.000,1.000
-0.192,-0.220,-0.138,-0.053,-0.127,-0.186,-0.094,-0.283,-0.048,0.879,-0.533,-1.709,-1.160,0.397,73.333,29551.000,1.000
-1.645,-1.615,-1.547,-1.534,-1.559,-1.589,-1.497,-1.664,-0.047,0.878,-0.531,-1.831,-1.221,0.580,73.333,29552.000,1.000
-3.648,-3.619,-3.664,-3.652,-3.512,-3.591,-3.554,-3.679,-0.046,0.875,-0.531,-1.984,-1.099,0.732,73.333,29553.000,1.000
-6.027,-6.031,-6.224,-6.157,-5.800,-5.975,-6.035,-6.117,-0.045,0.876,-0.530,-1.984,-0.916,0.916,73.333,29554.000,1.000
-8.348,-8.377,-8.679,-8.559,-8.022,-8.275,-8.435,-8.496,-0.046,0.878,-0.528,-2.014,-0.946,1.038,73.333,29555.000,1.000
-10.161,-10.186,-10.524,-10.397,-9.790,-10.050,-10.277,-10.342,-0.047,0.875,-0.531,-2.045,-0.854,1.038,73.333,29556.000,1.000
-11.321,-11.322,-11.639,-11.553,-10.992,-11.189,-11.435,-11.513,-0.048,0.875,-0.528,-2.014,-0.824,1.068,73.333,29557.000,1.000
-12.008,-11.995,-12.272,-12.251,-11.785,-11.910,-12.135,-12.197,-0.048,0.875,-0.528,-2.045,-0.641,1.160,73.333,29558.000,1.000
-12.511,-12.509,-12.758,-12.806,-12.400,-12.498,-12.693,-12.681,-0.044,0.875,-0.531,-2.167,-0.549,1.343,73.333,29559.000,1.000
-12.855,-12.892,-13.130,-13.228,-12.817,-12.927,-13.131,-13.000,-0.044,0.874,-0.528,-2.197,-0.397,1.282,73.333,29560.000,1.000
-12.850,-12.950,-13.178,-13.275,-12.821,-12.953,-13.232,-12.978,-0.045,0.876,-0.530,-2.228,-0.275,1.251,73.333,29561.000,1.000
-12.397,-12.575,-12.758,-12.798,-12.312,-12.470,-12.851,-12.524,-0.044,0.875,-0.528,-2.167,-0.275,1.190,73.333,29562.000,1.000
-11.596,-11.843,-11.931,-11.885,-11.423,-11.622,-12.060,-11.730,-0.044,0.875,-0.530,-2.228,-0.153,1.129,73.333,29563.000,1.000
-10.631,-10.919,-10.878,-10.769,-10.397,-10.642,-11.056,-10.777,-0.043,0.873,-0.534,-2.228,-0.122,1.007,73.333,29564.000,1.000
-9.503,-9.799,-9.632,-9.517,-9.279,-9.547,-9.878,-9.663,-0.042,0.875,-0.532,-2.289,0.092,1.007,73.333,29565.000,1.000
-8.122,-8.390,-8.130,-8.060,-7.972,-8.215,-8.446,-8.282,-0.042,0.873,-0.529,-2.258,0.214,0.885,73.333,29566.000,1.000
-6.596,-6.803,-6.510,-6.488,-6.539,-6.713,-6.856,-6.736,-0.041,0.873,-0.533,-2.228,0.336,0.732,73.333,29567.000,1.000
-5.262,-5.384,-5.133,-5.116,-5.271,-5.354,-5.435,-5.367,-0.042,0.874,-0.532,-2.167,0.580,0.610,73.333,29568.000,1.000
-4.409,-4.437,-4.284,-4.217,-4.420,-4.431,-4.474,-4.463,-0.043,0.875,-0.530,-2.075,0.702,0.519,73.333,29569.000,1.000
-3.894,-3.837,-3.792,-3.638,-3.835,-3.832,-3.838,-3.871,-0.042,0.872,-0.529,-2.014,0.702,0.458,73.333,29570.000,1.000
-3.320,-3.187,-3.217,-2.980,-3.140,-3.191,-3.142,-3.193,-0.043,0.872,-0.528,-1.984,0.854,0.397,73.333,29571.000,1.000
-2.502,-2.308,-2.366,-2.091,-2.207,-2.340,-2.240,-2.281,-0.045,0.871,-0.532,-1.923,0.885,0.122,73.333,29572.000,1.000
-1.665,-1.445,-1.491,-1.235,-1.332,-1.510,-1.407,-1.406,-0.046,0.872,-0.533,-1.831,0.946,0.092,73.333,29573.000,1.000
-1.187,-0.990,-1.003,-0.803,-0.926,-1.067,-1.022,-0.958,-0.047,0.872,-0.531,-1.831,0.885,-0.061,73.333,29574.000,1.000
-0.969,-0.832,-0.805,-0.677,-0.864,-0.897,-0.922,-0.801,-0.049,0.874,-0.530,-1.709,0.854,-0.092,73.333,29575.000,1.000
-0.412,-0.328,-0.275,-0.228,-0.477,-0.379,-0.413,-0.278,-0.050,0.875,-0.530,-1.678,0.916,-0.183,73.333,29576.000,1.000
0.881,0.962,1.002,0.968,0.700,0.904,0.940,1.042,-0.051,0.874,-0.527,-1.648,0.946,-0.153,73.333,29577.000,1.000
2.678,2.813,2.791,2.705,2.463,2.718,2.863,2.912,-0.053,0.873,-0.530,-1.587,0.763,-0.153,73.333,29578.000,1.000
4.548,4.765,4.644,4.570,4.370,4.615,4.845,4.854,-0.056,0.875,-0.530,-1.556,0.641,-0.244,73.333,29579.000,1.000
6.641,6.922,6.694,6.708,6.534,6.729,6.968,6.973,-0.057,0.875,-0.525,-1.617,0.488,-0.336,73.333,29580.000,1.000
9.458,9.746,9.446,9.597,9.420,9.559,9.722,9.751,-0.057,0.875,-0.525,-1.648,0.458,-0.519,73.333,29581.000,1.000
12.907,13.133,12.847,13.119,12.915,13.029,13.054,13.118,-0.057,0.876,-0.529,-1.648,0.275,-0.397,73.333,29582.000,1.000
16.077,16.190,16.023,16.344,16.110,16.245,16.114,16.208,-0.058,0.878,-0.527,-1.556,0.061,-0.397,73.333,29583.000,1.000
18.100,18.090,18.107,18.389,18.143,18.341,18.070,18.183,-0.056,0.879,-0.531,-1.495,-0.122,-0.305,73.333,29584.000,1.000
19.102,19.004,19.192,19.376,19.128,19.425,19.047,19.177,-0.058,0.878,-0.531,-1.587,-0.214,-0.305,73.333,29585.000,1.000
19.794,19.684,19.953,20.017,19.765,20.178,19.740,19.888,-0.057,0.882,-0.529,-1.526,-0.366,-0.153,73.333,29586.000,1.000
20.255,20.201,20.439,20.406,20.144,20.639,20.207,20.361,-0.056,0.883,-0.531,-1.465,-0.488,-0.061,73.333,29587.000,1.000
19.640,19.664,19.801,19.736,19.462,19.957,19.609,19.735,-0.056,0.882,-0.531,-1.404,-0.519,0.122,73.333,29588.000,1.000
17.304,17.379,17.434,17.407,17.126,17.521,17.327,17.386,-0.056,0.880,-0.531,-1.404,-0.610,0.183,73.333,29589.000,1.000
14.026,14.096,14.165,14.206,13.936,14.155,14.143,14.118,-0.055,0.881,-0.530,-1.495,-0.793,0.153,73.333,29590.000,1.000
11.378,11.382,11.581,11.666,11.420,11.454,11.587,11.502,-0.054,0.880,-0.531,-1.373,-0.916,0.305,73.333,29591.000,1.000
9.865,9.769,10.167,10.253,10.021,9.926,10.120,10.038,-0.056,0.879,-0.533,-1.404,-0.977,0.427,73.333,29592.000,1.000
8.383,8.214,8.792,8.857,8.608,8.476,8.638,8.633,-0.057,0.878,-0.533,-1.221,-1.068,0.366,73.333,29593.000,1.000
5.818,5.651,6.321,6.366,6.071,5.977,6.055,6.169,-0.057,0.874,-0.530,-1.099,-1.190,0.580,73.333,29594.000,1.000
2.872,2.772,3.416,3.448,3.119,3.086,3.080,3.300,-0.055,0.873,-0.532,-0.946,-1.251,0.580,73.333,29595.000,1.000
1.385,1.371,1.877,1.894,1.594,1.597,1.552,1.802,-0.055,0.872,-0.532,-0.763,-1.221,0.580,73.333,29596.000,1.000
1.771,1.815,2.107,2.101,1.904,1.911,1.889,2.069,-0.052,0.871,-0.532,-0.549,-1.251,0.610,73.333,29597.000,1.000
2.085,2.142,2.198,2.163,2.107,2.103,2.158,2.194,-0.052,0.873,-0.536,-0.366,-1.190,0.641,73.333,29598.000,1.000
0.680,0.703,0.573,0.506,0.576,0.561,0.706,0.596,-0.050,0.873,-0.536,-0.092,-1.282,0.793,73.333,29599.000,1.000
0.139,0.092,-0.128,-0.201,-0.066,-0.092,0.100,-0.094,-0.046,0.872,-0.539,0.092,-1.282,0.885,73.333,29600.000,1.000
6.379,6.261,6.055,6.034,6.154,6.115,6.286,6.098,-0.044,0.871,-0.535,0.244,-1.160,0.885,73.333,29601.000,1.000
20.452,20.308,20.175,20.280,20.320,20.256,20.368,20.253,-0.044,0.870,-0.534,0.427,-1.007,1.007,73.333,29602.000,1.000
32.105,31.999,31.927,32.191,32.142,32.035,32.103,32.066,-0.046,0.867,-0.534,0.580,-0.885,0.916,73.333,29603.000,1.000
27.502,27.483,27.413,27.801,27.711,27.548,27.616,27.608,-0.049,0.869,-0.532,0.732,-0.763,0.824,73.333,29604.000,1.000
5.825,5.903,5.784,6.194,6.141,5.929,6.036,6.003,-0.054,0.870,-0.532,0.793,-0.763,0.793,73.333,29605.000,1.000
-17.023,-16.869,-17.052,-16.740,-16.699,-16.919,-16.773,-16.844,-0.056,0.868,-0.535,0.916,-0.732,0.732,73.333,29606.000,1.000
-24.818,-24.636,-24.859,-24.729,-24.584,-24.762,-24.604,-24.691,-0.057,0.870,-0.537,1.007,-0.793,0.641,73.333,29607.000,1.000
-17.766,-17.635,-17.846,-17.916,-17.701,-17.802,-17.671,-17.740,-0.055,0.872,-0.540,1.068,-0.885,0.519,73.333,29608.000,1.000
-9.283,-9.274,-9.428,-9.652,-9.398,-9.438,-9.365,-9.388,-0.054,0.873,-0.538,1.221,-0.946,0.488,73.333,29609.000,1.000
-8.562,-8.696,-8.793,-9.090,-8.775,-8.826,-8.832,-8.788,-0.052,0.874,-0.536,1.312,-0.977,0.427,73.333,29610.000,1.000
-11.839,-12.064,-12.149,-12.449,-12.016,-12.156,-12.239,-12.133,-0.047,0.876,-0.538,1.343,-0.885,0.336,73.333,29611.000,1.000
-11.192,-11.428,-11.542,-11.815,-11.238,-11.499,-11.637,-11.486,-0.044,0.880,-0.538,1.190,-0.763,0.305,73.333,29612.000,1.000
-6.493,-6.682,-6.817,-7.087,-6.417,-6.758,-6.921,-6.743,-0.045,0.882,-0.540,1.190,-0.580,0.275,73.333,29613.000,1.000
-4.595,-4.717,-4.816,-5.140,-4.489,-4.827,-4.967,-4.775,-0.046,0.885,-0.539,1.038,-0.580,0.122,73.333,29614.000,1.000
-8.797,-8.863,-8.868,-9.281,-8.778,-9.020,-9.072,-8.892,-0.047,0.886,-0.538,0.946,-0.458,0.183,73.333,29615.000,1.000
-14.156,-14.192,-14.083,-14.557,-14.292,-14.379,-14.287,-14.149,-0.044,0.887,-0.539,0.702,-0.214,0.122,73.333,29616.000,1.000
-14.156,-14.187,-13.985,-14.446,-14.430,-14.362,-14.122,-14.045,-0.046,0.884,-0.534,0.519,-0.244,0.153,73.333,29617.000,1.000
-8.675,-8.711,-8.463,-8.831,-8.994,-8.821,-8.498,-8.481,-0.047,0.881,-0.539,0.397,-0.122,0.153,73.333,29618.000,1.000
-3.179,-3.220,-2.973,-3.203,-3.437,-3.219,-2.913,-2.944,-0.048,0.879,-0.538,0.366,-0.122,0.244,73.333,29619.000,1.000
-1.633,-1.681,-1.475,-1.563,-1.775,-1.553,-1.338,-1.416,-0.050,0.881,-0.541,0.214,-0.122,0.336,73.333,29620.000,1.000
-2.770,-2.825,-2.689,-2.667,-2.805,-2.595,-2.489,-2.624,-0.049,0.880,-0.540,0.183,-0.061,0.366,73.333,29621.000,1.000
-3.043,-3.085,-3.019,-2.964,-3.012,-2.815,-2.786,-2.971,-0.049,0.879,-0.539,0.153,0.122,0.336,73.333,29622.000,1.000
-1.089,-1.086,-1.051,-1.067,-1.040,-0.857,-0.849,-1.051,-0.051,0.879,-0.537,-0.031,0.183,0.366,73.333,29623.000,1.000
1.528,1.606,1.653,1.492,1.551,1.722,1.748,1.568,-0.052,0.879,-0.539,-0.153,0.153,0.336,73.333,29624.000,1.000
2.875,3.042,3.109,2.827,2.843,3.003,3.059,2.918,-0.052,0.880,-0.533,-0.336,0.214,0.397,73.333,29625.000,1.000
2.551,2.794,2.860,2.583,2.471,2.614,2.688,2.580,-0.052,0.881,-0.534,-0.458,0.122,0.366,73.333,29626.000,1.000
1.385,1.665,1.704,1.595,1.300,1.411,1.498,1.402,-0.050,0.881,-0.533,-0.580,0.092,0.488,73.333,29627.000,1.000
0.350,0.621,0.621,0.769,0.323,0.376,0.493,0.389,-0.049,0.879,-0.532,-0.793,0.031,0.458,73.333,29628.000,1.000
-0.219,0.016,-0.023,0.339,-0.133,-0.167,-0.003,-0.125,-0.051,0.879,-0.527,-0.977,0.092,0.580,73.333,29629.000,1.000
-0.876,-0.687,-0.745,-0.333,-0.680,-0.805,-0.605,-0.746,-0.051,0.879,-0.529,-1.312,0.000,0.610,73.333,29630.000,1.000
-2.641,-2.498,-2.553,-2.274,-2.413,-2.603,-2.397,-2.556,-0.051,0.879,-0.528,-1.465,0.000,0.610,73.333,29631.000,1.000
-5.646,-5.556,-5.587,-5.551,-5.507,-5.713,-5.529,-5.706,-0.050,0.879,-0.527,-1.678,-0.031,0.702,73.333,29632.000,1.000
-8.192,-8.164,-8.161,-8.358,-8.231,-8.403,-8.261,-8.461,-0.052,0.881,-0.528,-1.862,-0.092,0.732,73.333,29633.000,1.000
-8.164,-8.201,-8.174,-8.483,-8.391,-8.503,-8.414,-8.628,-0.052,0.881,-0.528,-2.045,-0.031,0.793,73.333,29634.000,1.000
-5.672,-5.757,-5.736,-5.993,-6.017,-6.075,-6.040,-6.243,-0.051,0.882,-0.528,-2.197,-0.092,0.763,73.333,29635.000,1.000
-3.401,-3.487,-3.514,-3.608,-3.748,-3.780,-3.790,-3.963,-0.049,0.882,-0.525,-2.472,-0.214,0.763,73.333,29636.000,1.000
-3.490,-3.519,-3.631,-3.569,-3.743,-3.774,-3.817,-3.967,-0.047,0.883,-0.526,-2.655,-0.244,0.854,73.333,29637.000,1.000
-4.781,-4.710,-4.930,-4.806,-4.909,-4.942,-5.004,-5.167,-0.048,0.884,-0.526,-2.991,-0.336,0.854,73.333,29638.000,1.000
-4.457,-4.279,-4.605,-4.512,-4.489,-4.519,-4.575,-4.785,-0.047,0.884,-0.524,-3.143,-0.397,0.854,73.333,29639.000,1.000
-2.126,-1.877,-2.265,-2.242,-2.113,-2.148,-2.157,-2.420,-0.048,0.886,-0.526,-3.326,-0.397,0.854,73.333,29640.000,1.000
-0.713,-0.461,-0.840,-0.870,-0.706,-0.766,-0.684,-0.985,-0.049,0.885,-0.526,-3.479,-0.336,0.793,73.333,29641.000,1.000
-2.457,-2.266,-2.592,-2.624,-2.491,-2.588,-2.400,-2.725,-0.051,0.885,-0.527,-3.693,-0.397,0.824,73.333,29642.000,1.000
-5.367,-5.254,-5.551,-5.527,-5.443,-5.561,-5.307,-5.645,-0.051,0.884,-0.526,-3.845,-0.549,0.916,73.333,29643.000,1.000
-5.508,-5.444,-5.769,-5.663,-5.590,-5.697,-5.457,-5.787,-0.053,0.883,-0.527,-3.906,-0.519,0.824,73.333,29644.000,1.000
-2.335,-2.280,-2.658,-2.502,-2.375,-2.448,-2.305,-2.592,-0.052,0.881,-0.525,-4.150,-0.549,0.763,73.333,29645.000,1.000
0.233,0.293,-0.088,0.041,0.256,0.221,0.218,0.012,-0.055,0.877,-0.525,-4.120,-0.732,0.732,73.333,29646.000,1.000
-1.144,-1.104,-1.387,-1.361,-1.082,-1.089,-1.239,-1.337,-0.054,0.878,-0.524,-4.211,-0.885,0.671,73.333,29647.000,1.000
-4.750,-4.777,-4.862,-4.968,-4.699,-4.694,-4.942,-4.919,-0.053,0.878,-0.521,-4.181,-1.007,0.610,73.333,29648.000,1.000
-6.123,-6.258,-6.103,-6.310,-6.130,-6.132,-6.392,-6.248,-0.054,0.876,-0.524,-4.120,-1.099,0.549,73.333,29649.000,1.000
-4.030,-4.274,-3.921,-4.164,-4.117,-4.145,-4.323,-4.067,-0.055,0.877,-0.522,-4.211,-1.251,0.427,73.333,29650.000,1.000
-1.975,-2.275,-1.837,-2.054,-2.125,-2.189,-2.223,-1.872,-0.053,0.876,-0.521,-4.150,-1.221,0.397,73.333,29651.000,1.000
-3.165,-3.434,-3.048,-3.197,-3.330,-3.422,-3.305,-2.893,-0.051,0.879,-0.526,-4.028,-1.404,0.458,73.333,29652.000,1.000
-5.931,-6.094,-5.857,-5.931,-6.068,-6.162,-5.939,-5.516,-0.052,0.879,-0.525,-3.967,-1.373,0.427,73.333,29653.000,1.000
-6.078,-6.114,-6.052,-6.077,-6.197,-6.243,-5.989,-5.612,-0.051,0.881,-0.526,-3.937,-1.465,0.488,73.333,29654.000,1.000
-2.915,-2.864,-2.928,-2.942,-3.066,-3.004,-2.801,-2.503,-0.050,0.880,-0.524,-3.876,-1.373,0.366,73.333,29655.000,1.000
-0.582,-0.529,-0.613,-0.632,-0.799,-0.603,-0.505,-0.284,-0.051,0.880,-0.524,-3.723,-1.465,0.488,73.333,29656.000,1.000
-2.549,-2.586,-2.582,-2.591,-2.814,-2.525,-2.541,-2.369,-0.049,0.880,-0.522,-3.601,-1.373,0.458,73.333,29657.000,1.000
-6.666,-6.853,-6.708,-6.677,-6.930,-6.643,-6.724,-6.575,-0.047,0.882,-0.522,-3.571,-1.434,0.427,73.333,29658.000,1.000
-7.750,-8.089,-7.815,-7.725,-7.964,-7.779,-7.845,-7.706,-0.049,0.879,-0.524,-3.357,-1.495,0.519,73.333,29659.000,1.000
-4.273,-4.712,-4.358,-4.222,-4.415,-4.384,-4.369,-4.239,-0.052,0.879,-0.525,-3.082,-1.465,0.519,73.333,29660.000,1.000
-0.203,-0.655,-0.278,-0.138,-0.279,-0.394,-0.278,-0.159,-0.050,0.878,-0.523,-2.930,-1.465,0.458,73.333,29661.000,1.000
0.388,0.003,0.348,0.451,0.353,0.143,0.333,0.443,-0.047,0.877,-0.521,-2.777,-1.465,0.488,73.333,29662.000,1.000
-1.508,-1.788,-1.519,-1.467,-1.538,-1.766,-1.558,-1.450,-0.050,0.874,-0.525,-2.533,-1.373,0.427,73.333,29663.000,1.000
-1.815,-1.991,-1.825,-1.808,-1.860,-2.026,-1.858,-1.763,-0.047,0.874,-0.530,-2.228,-1.282,0.488,73.333,29664.000,1.000
0.716,0.617,0.676,0.677,0.654,0.607,0.704,0.757,-0.048,0.873,-0.527,-2.045,-1.312,0.397,73.333,29665.000,1.000
2.855,2.803,2.769,2.763,2.800,2.885,2.905,2.892,-0.047,0.873,-0.527,-1.678,-1.312,0.488,73.333,29666.000,1.000
1.599,1.589,1.477,1.469,1.601,1.777,1.737,1.654,-0.050,0.872,-0.527,-1.404,-1.190,0.366,73.333,29667.000,1.000
-1.428,-1.383,-1.559,-1.551,-1.313,-1.115,-1.202,-1.335,-0.051,0.874,-0.528,-1.038,-1.160,0.366,73.333,29668.000,1.000
-2.081,-1.964,-2.183,-2.153,-1.814,-1.659,-1.794,-1.957,-0.050,0.872,-0.528,-0.732,-1.160,0.305,73.333,29669.000,1.000
0.750,0.941,0.704,0.738,1.165,1.246,1.051,0.865,-0.049,0.871,-0.528,-0.336,-1.160,0.305,73.333,29670.000,1.000
3.773,4.011,3.781,3.787,4.277,4.292,4.035,3.828,-0.049,0.871,-0.528,0.031,-1.099,0.244,73.333,29671.000,1.000
3.844,4.064,3.875,3.847,4.336,4.317,4.008,3.824,-0.051,0.870,-0.534,0.244,-1.007,0.244,73.333,29672.000,1.000
2.067,2.189,2.080,2.053,2.435,2.424,2.083,2.010,-0.051,0.870,-0.531,0.610,-1.068,0.214,73.333,29673.000,1.000
1.959,1.937,1.931,1.959,2.147,2.175,1.822,1.936,-0.050,0.870,-0.527,0.854,-1.038,0.153,73.333,29674.000,1.000
4.585,4.441,4.518,4.637,4.619,4.691,4.340,4.640,-0.050,0.871,-0.532,1.038,-0.916,0.122,73.333,29675.000,1.000
7.223,7.027,7.136,7.331,7.183,7.271,6.938,7.346,-0.051,0.871,-0.531,1.343,-0.946,0.153,73.333,29676.000,1.000
7.152,6.977,7.065,7.284,7.108,7.173,6.895,7.290,-0.053,0.873,-0.531,1.526,-0.885,0.214,73.333,29677.000,1.000
5.272,5.157,5.203,5.386,5.259,5.276,5.097,5.379,-0.054,0.873,-0.535,1.801,-1.038,0.122,73.333,29678.000,1.000
4.685,4.632,4.637,4.756,4.705,4.671,4.612,4.748,-0.053,0.874,-0.535,1.984,-1.007,0.244,73.333,29679.000,1.000
6.494,6.493,6.447,6.522,6.544,6.464,6.499,6.531,-0.055,0.874,-0.533,1.984,-1.007,0.122,73.333,29680.000,1.000
8.522,8.556,8.450,8.517,8.604,8.484,8.544,8.554,-0.053,0.874,-0.528,2.106,-0.977,0.031,73.333,29681.000,1.000
8.442,8.489,8.354,8.419,8.562,8.414,8.428,8.476,-0.052,0.875,-0.529,2.167,-1.007,0.061,73.333,29682.000,1.000
6.890,6.926,6.840,6.873,7.040,6.884,6.844,6.931,-0.052,0.875,-0.534,2.258,-1.038,0.031,73.333,29683.000,1.000
6.387,6.391,6.425,6.404,6.533,6.392,6.364,6.449,-0.051,0.875,-0.537,2.258,-0.977,0.092,73.333,29684.000,1.000
7.893,7.847,8.011,7.969,7.988,7.888,7.941,8.000,-0.049,0.875,-0.539,2.319,-0.977,0.183,73.333,29685.000,1.000
9.668,9.568,9.806,9.811,9.678,9.645,9.784,9.851,-0.049,0.876,-0.536,2.289,-0.854,0.153,73.333,29686.000,1.000
9.750,9.623,9.854,9.960,9.689,9.736,9.894,10.047,-0.050,0.876,-0.537,2.472,-0.793,0.183,73.333,29687.000,1.000
8.504,8.408,8.563,8.780,8.439,8.547,8.645,8.945,-0.051,0.877,-0.535,2.319,-0.732,0.153,73.333,29688.000,1.000
7.760,7.754,7.809,8.100,7.770,7.894,7.901,8.340,-0.049,0.877,-0.536,2.319,-0.641,0.214,73.333,29689.000,1.000
8.059,8.174,8.156,8.464,8.176,8.285,8.230,8.727,-0.050,0.876,-0.533,2.258,-0.519,0.305,73.333,29690.000,1.000
7.873,8.102,8.067,8.334,8.060,8.166,8.097,8.543,-0.048,0.875,-0.532,2.167,-0.488,0.427,73.333,29691.000,1.000
5.755,6.071,6.037,6.217,5.921,6.064,6.023,6.327,-0.048,0.876,-0.536,2.136,-0.458,0.488,73.333,29692.000,1.000
2.349,2.709,2.626,2.703,2.398,2.599,2.602,2.730,-0.048,0.875,-0.535,2.075,-0.458,0.519,73.333,29693.000,1.000
-0.447,-0.100,-0.291,-0.302,-0.550,-0.318,-0.286,-0.311,-0.048,0.874,-0.533,2.014,-0.244,0.519,73.333,29694.000,1.000
-1.705,-1.426,-1.717,-1.789,-1.902,-1.707,-1.665,-1.792,-0.047,0.876,-0.535,1.953,-0.153,0.549,73.333,29695.000,1.000
-2.171,-1.988,-2.287,-2.393,-2.342,-2.255,-2.199,-2.368,-0.047,0.875,-0.536,1.892,-0.183,0.580,73.333,29696.000,1.000
-2.820,-2.725,-2.916,-3.030,-2.857,-2.908,-2.815,-2.976,-0.047,0.876,-0.539,1.678,-0.214,0.610,73.333,29697.000,1.000
-3.416,-3.372,-3.386,-3.482,-3.271,-3.434,-3.304,-3.419,-0.045,0.875,-0.536,1.617,-0.092,0.580,73.333,29698.000,1.000
-2.982,-2.943,-2.794,-2.853,-2.682,-2.880,-2.755,-2.810,-0.046,0.875,-0.539,1.526,0.092,0.549,73.333,29699.000,1.000
-1.265,-1.198,-0.969,-0.986,-0.896,-1.049,-0.975,-0.987,-0.048,0.876,-0.539,1.373,0.153,0.641,73.333,29700.000,1.000
0.819,0.916,1.129,1.143,1.157,1.087,1.091,1.087,-0.047,0.878,-0.540,1.190,0.275,0.580,73.333,29701.000,1.000
2.293,2.391,2.523,2.553,2.524,2.522,2.463,2.450,-0.046,0.878,-0.537,1.129,0.397,0.549,73.333,29702.000,1.000
3.221,3.283,3.307,3.350,3.311,3.339,3.229,3.220,-0.045,0.877,-0.536,0.977,0.397,0.549,73.333,29703.000,1.000
4.323,4.331,4.244,4.313,4.273,4.300,4.154,4.178,-0.045,0.878,-0.534,0.763,0.366,0.549,73.333,29704.000,1.000
5.819,5.789,5.607,5.711,5.660,5.657,5.511,5.575,-0.046,0.879,-0.536,0.610,0.458,0.641,73.333,29705.000,1.000
7.039,7.000,6.762,6.882,6.817,6.753,6.667,6.731,-0.048,0.879,-0.533,0.397,0.519,0.580,73.333,29706.000,1.000
7.221,7.193,6.973,7.049,6.994,6.849,6.878,6.864,-0.048,0.879,-0.537,0.244,0.519,0.519,73.333,29707.000,1.000
6.399,6.394,6.271,6.235,6.232,6.004,6.174,6.012,-0.048,0.881,-0.539,0.000,0.488,0.488,73.333,29708.000,1.000
5.225,5.264,5.269,5.095,5.179,4.891,5.178,4.856,-0.049,0.880,-0.537,-0.092,0.519,0.366,73.333,29709.000,1.000
4.224,4.338,4.422,4.164,4.330,4.025,4.368,3.941,-0.050,0.877,-0.536,-0.305,0.488,0.366,73.333,29710.000,1.000
3.444,3.658,3.718,3.474,3.685,3.421,3.734,3.291,-0.051,0.876,-0.537,-0.427,0.488,0.366,73.333,29711.000,1.000
2.809,3.118,3.050,2.903,3.121,2.956,3.142,2.771,-0.050,0.876,-0.535,-0.488,0.488,0.305,73.333,29712.000,1.000
2.471,2.827,2.579,2.552,2.763,2.731,2.723,2.474,-0.048,0.874,-0.537,-0.580,0.397,0.305,73.333,29713.000,1.000
2.580,2.897,2.507,2.563,2.759,2.861,2.665,2.538,-0.049,0.875,-0.538,-0.793,0.275,0.366,73.333,29714.000,1.000
2.977,3.167,2.730,2.814,2.987,3.193,2.885,2.836,-0.050,0.876,-0.539,-0.854,0.275,0.488,73.333,29715.000,1.000
3.226,3.245,2.842,2.930,3.085,3.337,3.021,2.976,-0.052,0.877,-0.536,-0.916,0.214,0.488,73.333,29716.000,1.000
3.009,2.884,2.536,2.648,2.808,3.035,2.794,2.679,-0.051,0.877,-0.537,-1.007,0.305,0.427,73.333,29717.000,1.000
2.471,2.280,1.985,2.146,2.318,2.472,2.333,2.123,-0.051,0.876,-0.535,-1.190,0.214,0.427,73.333,29718.000,1.000
2.013,1.839,1.623,1.816,1.978,2.038,1.992,1.732,-0.051,0.878,-0.535,-1.282,0.183,0.519,73.333,29719.000,1.000
1.878,1.762,1.686,1.843,1.968,1.936,1.965,1.737,-0.051,0.878,-0.537,-1.343,0.244,0.549,73.333,29720.000,1.000
1.986,1.921,2.037,2.071,2.154,2.046,2.148,2.010,-0.050,0.879,-0.535,-1.465,0.183,0.580,73.333,29721.000,1.000
2.124,2.091,2.398,2.254,2.315,2.159,2.341,2.285,-0.050,0.878,-0.534,-1.556,0.183,0.610,73.333,29722.000,1.000
2.199,2.207,2.633,2.322,2.387,2.225,2.474,2.440,-0.050,0.879,-0.536,-1.709,0.092,0.702,73.333,29723.000,1.000
2.196,2.271,2.691,2.292,2.377,2.268,2.526,2.456,-0.051,0.881,-0.536,-1.801,0.031,0.671,73.333,29724.000,1.000
2.058,2.195,2.496,2.118,2.210,2.223,2.395,2.282,-0.054,0.881,-0.538,-1.801,0.000,0.702,73.333,29725.000,1.000
1.603,1.746,1.881,1.625,1.680,1.854,1.856,1.751,-0.054,0.881,-0.538,-1.801,-0.092,0.732,73.333,29726.000,1.000
0.634,0.706,0.706,0.625,0.596,0.901,0.713,0.684,-0.056,0.878,-0.536,-1.892,-0.275,0.641,73.333,29727.000,1.000
-0.773,-0.825,-0.877,-0.803,-0.927,-0.581,-0.907,-0.829,-0.057,0.877,-0.541,-1.953,-0.397,0.580,73.333,29728.000,1.000
-2.258,-2.449,-2.467,-2.321,-2.501,-2.219,-2.593,-2.436,-0.057,0.878,-0.536,-2.014,-0.519,0.519,73.333,29729.000,1.000
-3.486,-3.794,-3.717,-3.606,-3.781,-3.629,-3.970,-3.796,-0.056,0.877,-0.534,-2.075,-0.610,0.488,73.333,29730.000,1.000
-4.408,-4.782,-4.602,-4.579,-4.724,-4.700,-4.959,-4.834,-0.055,0.876,-0.533,-1.984,-0.793,0.488,73.333,29731.000,1.000
-5.168,-5.546,-5.293,-5.339,-5.488,-5.535,-5.696,-5.664,-0.054,0.875,-0.534,-2.014,-0.885,0.519,73.333,29732.000,1.000
-5.784,-6.097,-5.826,-5.887,-6.087,-6.149,-6.207,-6.281,-0.053,0.875,-0.532,-2.136,-0.885,0.305,73.333,29733.000,1.000
-6.133,-6.313,-6.086,-6.123,-6.377,-6.429,-6.390,-6.552,-0.050,0.876,-0.533,-2.045,-1.007,0.275,73.333,29734.000,1.000
-6.217,-6.237,-6.095,-6.095,-6.360,-6.392,-6.287,-6.506,-0.048,0.874,-0.535,-2.106,-1.129,0.275,73.333,29735.000,1.000
-6.319,-6.215,-6.166,-6.132,-6.356,-6.353,-6.242,-6.477,-0.049,0.871,-0.535,-1.892,-1.068,0.305,73.333,29736.000,1.000
-6.612,-6.462,-6.492,-6.426,-6.574,-6.527,-6.479,-6.682,-0.048,0.872,-0.533,-1.831,-1.129,0.336,73.333,29737.000,1.000
-6.688,-6.563,-6.652,-6.563,-6.623,-6.538,-6.604,-6.734,-0.048,0.868,-0.533,-1.831,-1.190,0.427,73.333,29738.000,1.000
-6.003,-5.932,-6.064,-5.982,-5.949,-5.842,-6.045,-6.083,-0.047,0.872,-0.534,-1.801,-1.129,0.549,73.333,29739.000,1.000
-4.775,-4.741,-4.898,-4.873,-4.757,-4.644,-4.959,-4.919,-0.049,0.872,-0.534,-1.740,-1.190,0.549,73.333,29740.000,1.000
-4.022,-3.975,-4.138,-4.200,-4.031,-3.932,-4.293,-4.211,-0.049,0.872,-0.538,-1.740,-1.221,0.488,73.333,29741.000,1.000
-4.303,-4.205,-4.351,-4.480,-4.313,-4.238,-4.563,-4.491,-0.050,0.871,-0.535,-1.709,-1.099,0.488,73.333,29742.000,1.000
-4.715,-4.560,-4.680,-4.819,-4.707,-4.643,-4.875,-4.880,-0.051,0.871,-0.535,-1.678,-1.129,0.519,73.333,29743.000,1.000
-3.878,-3.695,-3.801,-3.907,-3.869,-3.792,-3.912,-4.047,-0.051,0.874,-0.533,-1.556,-1.099,0.488,73.333,29744.000,1.000
-1.955,-1.788,-1.897,-1.974,-1.988,-1.892,-1.910,-2.187,-0.052,0.874,-0.533,-1.526,-1.129,0.488,73.333,29745.000,1.000
-0.934,-0.818,-0.925,-1.031,-1.056,-0.962,-0.901,-1.272,-0.053,0.875,-0.532,-1.587,-1.129,0.397,73.333,29746.000,1.000
-2.195,-2.142,-2.212,-2.407,-2.422,-2.355,-2.243,-2.620,-0.054,0.876,-0.534,-1.495,-1.251,0.427,73.333,29747.000,1.000
-4.335,-4.359,-4.327,-4.613,-4.633,-4.602,-4.467,-4.768,-0.052,0.877,-0.532,-1.495,-1.251,0.519,73.333,29748.000,1.000
-4.736,-4.863,-4.671,-4.975,-5.031,-5.038,-4.897,-5.082,-0.049,0.875,-0.533,-1.495,-1.312,0.458,73.333,29749.000,1.000
-3.098,-3.336,-2.987,-3.215,-3.308,-3.357,-3.231,-3.292,-0.047,0.874,-0.533,-1.465,-1.343,0.519,73.333,29750.000,1.000
-2.072,-2.388,-1.971,-2.071,-2.153,-2.231,-2.157,-2.106,-0.045,0.870,-0.532,-1.404,-1.190,0.519,73.333,29751.000,1.000
-3.811,-4.143,-3.792,-3.778,-3.776,-3.843,-3.868,-3.729,-0.044,0.870,-0.531,-1.312,-1.221,0.610,73.333,29752.000,1.000
-6.936,-7.223,-7.045,-6.971,-6.847,-6.860,-6.992,-6.810,-0.044,0.867,-0.536,-1.129,-1.038,0.610,73.333,29753.000,1.000
-8.284,-8.478,-8.495,-8.410,-8.211,-8.164,-8.331,-8.170,-0.045,0.869,-0.534,-0.946,-0.916,0.732,73.333,29754.000,1.000
-7.337,-7.403,-7.552,-7.485,-7.321,-7.241,-7.326,-7.245,-0.043,0.872,-0.533,-1.007,-0.824,0.702,73.333,29755.000,1.000
-7.428,-7.366,-7.533,-7.501,-7.475,-7.391,-7.312,-7.329,-0.044,0.876,-0.534,-0.885,-0.763,0.580,73.333,29756.000,1.000
-11.309,-11.170,-11.258,-11.273,-11.408,-11.339,-11.106,-11.182,-0.046,0.878,-0.537,-0.946,-0.671,0.549,73.333,29757.000,1.000
-16.194,-16.058,-16.032,-16.082,-16.322,-16.280,-15.988,-16.045,-0.047,0.879,-0.537,-0.977,-0.519,0.610,73.333,29758.000,1.000
-15.707,-15.632,-15.517,-15.559,-15.811,-15.817,-15.586,-15.547,-0.050,0.879,-0.538,-0.793,-0.549,0.671,73.333,29759.000,1.000
-7.736,-7.731,-7.570,-7.556,-7.746,-7.830,-7.734,-7.553,-0.053,0.879,-0.537,-0.824,-0.427,0.519,73.333,29760.000,1.000
1.787,1.733,1.917,1.993,1.903,1.710,1.690,2.009,-0.058,0.878,-0.540,-0.824,-0.641,0.458,73.333,29761.000,1.000
5.129,5.024,5.238,5.327,5.334,5.022,4.989,5.383,-0.063,0.878,-0.540,-0.732,-0.854,0.397,73.333,29762.000,1.000
1.506,1.359,1.621,1.663,1.721,1.328,1.397,1.764,-0.064,0.880,-0.539,-0.732,-0.946,0.214,73.333,29763.000,1.000
-3.074,-3.254,-2.935,-2.965,-2.918,-3.311,-3.106,-2.864,-0.066,0.881,-0.538,-0.763,-1.129,0.031,73.333,29764.000,1.000
-3.967,-4.169,-3.806,-3.892,-3.889,-4.201,-3.921,-3.855,-0.066,0.881,-0.536,-0.732,-1.434,-0.092,73.333,29765.000,1.000
-2.903,-3.120,-2.738,-2.850,-2.867,-3.068,-2.795,-2.899,-0.062,0.880,-0.539,-0.732,-1.556,-0.244,73.333,29766.000,1.000
-4.003,-4.223,-3.854,-3.972,-3.948,-4.060,-3.840,-4.049,-0.060,0.879,-0.534,-0.763,-1.709,-0.305,73.333,29767.000,1.000
-7.260,-7.465,-7.146,-7.272,-7.155,-7.205,-7.049,-7.267,-0.059,0.879,-0.537,-0.763,-1.862,-0.519,73.333,29768.000,1.000
-8.645,-8.829,-8.587,-8.734,-8.515,-8.501,-8.424,-8.554,-0.056,0.877,-0.538,-0.763,-1.862,-0.519,73.333,29769.000,1.000
-5.952,-6.123,-5.954,-6.139,-5.852,-5.761,-5.783,-5.758,-0.053,0.878,-0.537,-0.793,-1.862,-0.336,73.333,29770.000,1.000
-1.914,-2.080,-1.947,-2.170,-1.875,-1.713,-1.839,-1.649,-0.051,0.878,-0.536,-0.702,-1.831,-0.366,73.333,29771.000,1.000
-0.511,-0.665,-0.526,-0.762,-0.529,-0.326,-0.534,-0.214,-0.050,0.876,-0.535,-0.702,-1.831,-0.275,73.333,29772.000,1.000
-1.805,-1.936,-1.771,-1.986,-1.864,-1.656,-1.916,-1.515,-0.048,0.878,-0.535,-0.793,-1.709,-0.122,73.333,29773.000,1.000
-2.380,-2.484,-2.324,-2.473,-2.470,-2.278,-2.574,-2.135,-0.045,0.876,-0.533,-0.824,-1.617,0.061,73.333,29774.000,1.000
-0.549,-0.635,-0.550,-0.586,-0.664,-0.498,-0.830,-0.385,-0.045,0.875,-0.531,-0.885,-1.587,0.214,73.333,29775.000,1.000
0.629,0.553,0.488,0.595,0.498,0.637,0.264,0.686,-0.047,0.874,-0.530,-0.977,-1.465,0.366,73.333,29776.000,1.000
-2.843,-2.898,-3.145,-2.918,-2.961,-2.855,-3.265,-2.885,-0.047,0.874,-0.533,-0.977,-1.434,0.427,73.333,29777.000,1.000
-9.338,-9.355,-9.738,-9.475,-9.413,-9.355,-9.772,-9.423,-0.050,0.874,-0.531,-1.099,-1.404,0.458,73.333,29778.000,1.000
-11.652,-11.640,-12.045,-11.855,-11.689,-11.699,-12.050,-11.711,-0.052,0.874,-0.533,-1.099,-1.282,0.702,73.333,29779.000,1.000
-5.267,-5.259,-5.564,-5.516,-5.312,-5.397,-5.603,-5.265,-0.053,0.870,-0.530,-1.068,-1.221,0.763,73.333,29780.000,1.000
5.288,5.252,5.113,5.038,5.172,5.039,5.011,5.333,-0.053,0.871,-0.531,-1.251,-1.160,0.793,73.333,29781.000,1.000
10.835,10.747,10.753,10.646,10.617,10.487,10.603,10.883,-0.053,0.873,-0.532,-1.312,-1.129,0.916,73.333,29782.000,1.000
7.584,7.471,7.542,7.510,7.259,7.201,7.389,7.610,-0.051,0.876,-0.531,-1.282,-1.129,1.007,73.333,29783.000,1.000
0.260,0.178,0.231,0.328,-0.153,-0.082,0.111,0.273,-0.051,0.877,-0.531,-1.434,-1.068,1.038,73.333,29784.000,1.000
-4.293,-4.282,-4.291,-4.096,-4.744,-4.537,-4.360,-4.256,-0.048,0.878,-0.530,-1.495,-1.007,1.068,73.333,29785.000,1.000
-4.106,-3.964,-4.036,-3.829,-4.508,-4.237,-4.045,-4.022,-0.050,0.878,-0.529,-1.617,-0.916,0.916,73.333,29786.000,1.000
-1.987,-1.737,-1.834,-1.704,-2.257,-2.035,-1.785,-1.872,-0.048,0.880,-0.531,-1.831,-0.854,1.007,73.333,29787.000,1.000
-0.554,-0.277,-0.358,-0.335,-0.667,-0.574,-0.248,-0.452,-0.050,0.880,-0.531,-1.953,-0.793,0.824,73.333,29788.000,1.000
0.426,0.642,0.599,0.561,0.438,0.397,0.778,0.502,-0.050,0.878,-0.529,-2.014,-0.671,0.885,73.333,29789.000,1.000
2.436,2.536,2.527,2.524,2.519,2.395,2.783,2.519,-0.049,0.880,-0.530,-2.106,-0.641,0.854,73.333,29790.000,1.000
5.705,5.686,5.687,5.815,5.814,5.673,6.005,5.843,-0.046,0.881,-0.529,-2.258,-0.519,0.763,73.333,29791.000,1.000
8.826,8.732,8.707,9.012,8.929,8.827,9.046,9.038,-0.045,0.881,-0.528,-2.411,-0.366,0.763,73.333,29792.000,1.000
10.229,10.129,10.048,10.493,10.314,10.278,10.359,10.495,-0.044,0.880,-0.529,-2.594,-0.275,0.671,73.333,29793.000,1.000
9.484,9.437,9.282,9.763,9.555,9.587,9.538,9.750,-0.047,0.882,-0.530,-2.655,-0.214,0.580,73.333,29794.000,1.000
7.616,7.651,7.421,7.823,7.684,7.773,7.614,7.825,-0.046,0.881,-0.532,-2.716,-0.153,0.427,73.333,29795.000,1.000
6.327,6.437,6.157,6.416,6.383,6.521,6.288,6.446,-0.047,0.881,-0.530,-2.899,0.000,0.366,73.333,29796.000,1.000
6.453,6.602,6.319,6.456,6.467,6.643,6.396,6.478,-0.048,0.879,-0.530,-2.869,-0.031,0.305,73.333,29797.000,1.000
7.067,7.223,6.978,7.073,7.018,7.201,7.008,7.016,-0.047,0.878,-0.533,-2.869,0.000,0.275,73.333,29798.000,1.000
6.459,6.604,6.409,6.540,6.356,6.495,6.399,6.351,-0.048,0.879,-0.529,-3.021,0.122,0.244,73.333,29799.000,1.000
4.506,4.625,4.454,4.648,4.371,4.423,4.424,4.348,-0.049,0.879,-0.531,-2.991,0.244,0.183,73.333,29800.000,1.000
3.427,3.508,3.313,3.535,3.283,3.237,3.307,3.218,-0.050,0.879,-0.527,-2.960,0.244,0.275,73.333,29801.000,1.000
5.205,5.255,4.993,5.180,5.084,4.956,5.068,4.951,-0.049,0.880,-0.524,-2.960,0.305,0.275,73.333,29802.000,1.000
8.692,8.744,8.414,8.509,8.641,8.455,8.604,8.420,-0.050,0.879,-0.526,-2.991,0.244,0.183,73.333,29803.000,1.000
10.478,10.586,10.230,10.214,10.541,10.329,10.516,10.245,-0.050,0.880,-0.529,-2.991,0.305,0.092,73.333,29804.000,1.000
9.112,9.327,9.005,8.907,9.316,9.122,9.321,9.005,-0.051,0.880,-0.528,-2.991,0.275,0.122,73.333,29805.000,1.000
7.158,7.495,7.249,7.127,7.498,7.355,7.520,7.249,-0.051,0.882,-0.529,-2.991,0.336,0.153,73.333,29806.000,1.000
7.908,8.331,8.160,8.073,8.347,8.257,8.363,8.197,-0.051,0.880,-0.528,-2.991,0.275,0.183,73.333,29807.000,1.000
10.973,11.411,11.267,11.257,11.455,11.389,11.457,11.364,-0.051,0.880,-0.526,-3.082,0.183,0.183,73.333,29808.000,1.000
12.626,12.997,12.837,12.917,13.093,13.018,13.113,12.981,-0.052,0.882,-0.526,-2.991,0.092,0.183,73.333,29809.000,1.000
10.813,11.057,10.890,11.025,11.222,11.116,11.318,11.038,-0.051,0.880,-0.524,-3.082,0.214,0.366,73.333,29810.000,1.000
8.064,8.174,8.051,8.167,8.398,8.255,8.604,8.150,-0.051,0.880,-0.524,-3.052,0.092,0.366,73.333,29811.000,1.000
8.061,8.085,8.051,8.078,8.339,8.164,8.613,8.069,-0.052,0.881,-0.526,-3.052,0.061,0.366,73.333,29812.000,1.000
10.524,10.534,10.599,10.501,10.787,10.581,11.020,10.536,-0.052,0.882,-0.527,-2.930,0.061,0.427,73.333,29813.000,1.000
11.435,11.494,11.633,11.411,11.721,11.480,11.813,11.515,-0.052,0.882,-0.526,-2.869,-0.092,0.458,73.333,29814.000,1.000
8.578,8.723,8.894,8.579,8.897,8.627,8.830,8.751,-0.052,0.881,-0.526,-2.838,-0.061,0.580,73.333,29815.000,1.000
4.745,4.979,5.130,4.781,5.067,4.813,4.914,4.988,-0.051,0.879,-0.522,-2.899,-0.061,0.732,73.333,29816.000,1.000
4.030,4.312,4.405,4.092,4.303,4.131,4.177,4.282,-0.049,0.875,-0.523,-2.838,-0.122,0.641,73.333,29817.000,1.000
6.333,6.589,6.618,6.382,6.512,6.457,6.496,6.510,-0.048,0.874,-0.521,-2.716,-0.153,0.793,73.333,29818.000,1.000
7.510,7.658,7.652,7.482,7.576,7.615,7.674,7.526,-0.049,0.872,-0.523,-2.563,-0.153,0.824,73.333,29819.000,1.000
5.068,5.061,5.054,4.901,5.026,5.104,5.166,4.862,-0.048,0.870,-0.526,-2.411,-0.183,0.916,73.333,29820.000,1.000
1.487,1.352,1.348,1.174,1.365,1.446,1.459,1.077,-0.049,0.870,-0.525,-2.258,-0.183,0.885,73.333,29821.000,1.000
0.532,0.363,0.339,0.145,0.375,0.467,0.384,0.052,-0.049,0.871,-0.525,-2.045,-0.122,0.854,73.333,29822.000,1.000
1.881,1.773,1.717,1.543,1.739,1.867,1.686,1.522,-0.045,0.872,-0.522,-1.953,-0.153,0.946,73.333,29823.000,1.000
1.542,1.529,1.458,1.353,1.443,1.612,1.393,1.442,-0.044,0.870,-0.525,-1.831,-0.122,0.946,73.333,29824.000,1.000
-2.401,-2.356,-2.407,-2.413,-2.460,-2.277,-2.425,-2.223,-0.044,0.869,-0.525,-1.526,-0.122,0.977,73.333,29825.000,1.000
-6.745,-6.720,-6.713,-6.629,-6.806,-6.643,-6.615,-6.386,-0.049,0.868,-0.524,-1.434,-0.061,0.977,73.333,29826.000,1.000
-7.184,-7.261,-7.162,-7.033,-7.308,-7.192,-6.945,-6.815,-0.053,0.869,-0.525,-1.251,-0.183,0.885,73.333,29827.000,1.000
-3.886,-4.105,-3.905,-3.798,-4.103,-4.067,-3.650,-3.680,-0.058,0.872,-0.527,-1.068,-0.183,0.793,73.333,29828.000,1.000
-1.247,-1.574,-1.310,-1.276,-1.525,-1.596,-1.133,-1.288,-0.059,0.873,-0.527,-0.854,-0.214,0.763,73.333,29829.000,1.000
-2.139,-2.476,-2.220,-2.268,-2.403,-2.568,-2.198,-2.377,-0.057,0.875,-0.527,-0.702,-0.427,0.549,73.333,29830.000,1.000
-4.474,-4.705,-4.530,-4.645,-4.649,-4.853,-4.665,-4.775,-0.055,0.875,-0.527,-0.519,-0.610,0.427,73.333,29831.000,1.000
-4.595,-4.645,-4.594,-4.761,-4.639,-4.813,-4.817,-4.824,-0.051,0.874,-0.527,-0.305,-0.763,0.336,73.333,29832.000,1.000
-2.445,-2.313,-2.388,-2.585,-2.365,-2.460,-2.599,-2.512,-0.048,0.873,-0.527,-0.183,-0.824,0.336,73.333,29833.000,1.000
-1.477,-1.237,-1.397,-1.581,-1.316,-1.324,-1.497,-1.359,-0.049,0.875,-0.526,0.000,-0.793,0.305,73.333,29834.000,1.000
-3.585,-3.345,-3.529,-3.636,-3.392,-3.345,-3.460,-3.334,-0.048,0.874,-0.528,0.153,-0.671,0.153,73.333,29835.000,1.000
-6.313,-6.159,-6.328,-6.302,-6.111,-6.071,-6.102,-6.042,-0.048,0.873,-0.526,0.214,-0.671,0.183,73.333,29836.000,1.000
-6.239,-6.208,-6.336,-6.176,-6.029,-6.045,-6.047,-6.059,-0.047,0.873,-0.530,0.366,-0.641,0.153,73.333,29837.000,1.000
-3.575,-3.661,-3.728,-3.493,-3.376,-3.445,-3.504,-3.543,-0.049,0.871,-0.532,0.488,-0.641,0.122,73.333,29838.000,1.000
-1.791,-1.963,-1.971,-1.738,-1.655,-1.730,-1.894,-1.915,-0.048,0.872,-0.531,0.641,-0.610,0.061,73.333,29839.000,1.000
-2.846,-3.067,-3.048,-2.875,-2.832,-2.865,-3.108,-3.123,-0.052,0.872,-0.531,0.916,-0.671,-0.031,73.333,29840.000,1.000
-4.635,-4.875,-4.871,-4.773,-4.768,-4.742,-4.983,-5.057,-0.052,0.873,-0.531,1.068,-0.610,0.000,73.333,29841.000,1.000
-4.063,-4.296,-4.319,-4.271,-4.313,-4.225,-4.391,-4.577,-0.053,0.875,-0.531,1.160,-0.549,-0.061,73.333,29842.000,1.000
-1.257,-1.439,-1.475,-1.428,-1.537,-1.391,-1.465,-1.743,-0.054,0.876,-0.529,1.312,-0.580,-0.031,73.333,29843.000,1.000
0.699,0.607,0.575,0.677,0.491,0.688,0.647,0.368,-0.054,0.876,-0.532,1.373,-0.702,-0.092,73.333,29844.000,1.000
0.019,0.024,0.004,0.195,-0.057,0.179,0.076,-0.093,-0.054,0.878,-0.530,1.465,-0.793,-0.122,73.333,29845.000,1.000
-1.436,-1.384,-1.382,-1.112,-1.407,-1.150,-1.371,-1.363,-0.054,0.879,-0.533,1.434,-0.885,-0.061,73.333,29846.000,1.000
-0.905,-0.894,-0.845,-0.568,-0.858,-0.614,-0.931,-0.754,-0.053,0.878,-0.535,1.495,-1.038,0.000,73.333,29847.000,1.000
1.467,1.360,1.482,1.669,1.450,1.642,1.306,1.582,-0.052,0.879,-0.532,1.495,-1.007,0.061,73.333,29848.000,1.000
2.853,2.613,2.805,2.838,2.746,2.866,2.580,2.866,-0.053,0.878,-0.534,1.495,-0.916,-0.061,73.333,29849.000,1.000
1.600,1.281,1.496,1.381,1.438,1.496,1.274,1.507,-0.052,0.878,-0.533,1.495,-1.068,-0.061,73.333,29850.000,1.000
-0.617,-0.915,-0.744,-0.942,-0.756,-0.739,-0.927,-0.758,-0.052,0.878,-0.532,1.495,-1.038,-0.031,73.333,29851.000,1.000
-1.080,-1.264,-1.191,-1.391,-1.119,-1.140,-1.320,-1.195,-0.050,0.880,-0.532,1.556,-1.099,-0.031,73.333,29852.000,1.000
0.604,0.575,0.529,0.385,0.691,0.623,0.455,0.547,-0.051,0.880,-0.531,1.526,-1.099,0.031,73.333,29853.000,1.000
2.286,2.389,2.249,2.173,2.452,2.345,2.210,2.253,-0.052,0.881,-0.533,1.495,-1.160,0.092,73.333,29854.000,1.000
2.257,2.430,2.244,2.213,2.403,2.301,2.209,2.167,-0.050,0.878,-0.534,1.526,-1.251,0.183,73.333,29855.000,1.000
1.293,1.475,1.284,1.268,1.338,1.288,1.229,1.084,-0.052,0.877,-0.535,1.465,-1.221,0.214,73.333,29856.000,1.000
1.203,1.353,1.172,1.160,1.123,1.146,1.098,0.875,-0.052,0.876,-0.537,1.465,-1.190,0.214,73.333,29857.000,1.000
2.246,2.347,2.176,2.177,2.080,2.164,2.087,1.867,-0.053,0.874,-0.534,1.465,-1.190,0.275,73.333,29858.000,1.000
2.871,2.920,2.760,2.792,2.698,2.799,2.655,2.532,-0.054,0.875,-0.536,1.648,-1.221,0.244,73.333,29859.000,1.000
1.964,1.956,1.824,1.894,1.855,1.918,1.698,1.724,-0.051,0.874,-0.536,1.495,-1.251,0.153,73.333,29860.000,1.000
0.330,0.244,0.195,0.294,0.311,0.298,0.027,0.189,-0.052,0.875,-0.534,1.434,-1.282,0.183,73.333,29861.000,1.000
-0.550,-0.739,-0.637,-0.525,-0.512,-0.589,-0.873,-0.637,-0.054,0.872,-0.536,1.434,-1.343,0.183,73.333,29862.000,1.000
-0.467,-0.763,-0.473,-0.360,-0.434,-0.512,-0.785,-0.548,-0.054,0.873,-0.534,1.373,-1.373,0.153,73.333,29863.000,1.000
-0.581,-0.947,-0.493,-0.385,-0.590,-0.612,-0.861,-0.667,-0.054,0.871,-0.536,1.373,-1.434,0.092,73.333,29864.000,1.000
-1.623,-1.993,-1.433,-1.337,-1.653,-1.610,-1.840,-1.672,-0.055,0.873,-0.532,1.465,-1.373,0.031,73.333,29865.000,1.000
-2.783,-3.088,-2.493,-2.415,-2.777,-2.706,-2.937,-2.737,-0.051,0.874,-0.536,1.434,-1.434,0.122,73.333,29866.000,1.000
-2.875,-3.051,-2.496,-2.437,-2.771,-2.718,-2.984,-2.709,-0.053,0.874,-0.533,1.343,-1.434,0.031,73.333,29867.000,1.000
-1.905,-1.904,-1.465,-1.422,-1.664,-1.654,-1.982,-1.652,-0.053,0.875,-0.533,1.343,-1.495,0.061,73.333,29868.000,1.000
-1.019,-0.831,-0.567,-0.540,-0.644,-0.680,-1.071,-0.747,-0.051,0.877,-0.534,1.282,-1.404,0.061,73.333,29869.000,1.000
-1.004,-0.669,-0.594,-0.581,-0.541,-0.617,-1.029,-0.769,-0.051,0.878,-0.535,1.099,-1.373,0.092,73.333,29870.000,1.000
-1.424,-1.014,-1.091,-1.072,-0.944,-1.042,-1.406,-1.227,-0.051,0.877,-0.537,1.068,-1.373,0.092,73.333,29871.000,1.000
-1.422,-1.018,-1.178,-1.124,-0.997,-1.097,-1.342,-1.227,-0.051,0.877,-0.536,0.946,-1.282,0.153,73.333,29872.000,1.000
-0.823,-0.489,-0.662,-0.571,-0.507,-0.592,-0.682,-0.602,-0.050,0.877,-0.536,0.763,-1.282,-0.031,73.333,29873.000,1.000
-0.239,-0.004,-0.136,-0.059,-0.063,-0.125,-0.076,0.004,-0.050,0.878,-0.534,0.671,-1.190,0.031,73.333,29874.000,1.000
-0.181,-0.039,-0.092,-0.110,-0.144,-0.178,-0.046,0.066,-0.050,0.878,-0.535,0.458,-1.068,0.031,73.333,29875.000,1.000
-0.416,-0.346,-0.300,-0.470,-0.491,-0.487,-0.345,-0.180,-0.051,0.880,-0.534,0.336,-1.099,0.061,73.333,29876.000,1.000
-0.459,-0.434,-0.308,-0.609,-0.602,-0.548,-0.457,-0.239,-0.050,0.879,-0.535,0.244,-1.007,0.092,73.333,29877.000,1.000
-0.316,-0.304,-0.160,-0.496,-0.481,-0.364,-0.355,-0.108,-0.053,0.877,-0.536,0.092,-0.977,0.122,73.333,29878.000,1.000
-0.535,-0.494,-0.418,-0.678,-0.685,-0.514,-0.562,-0.342,-0.054,0.880,-0.536,-0.061,-0.977,0.183,73.333,29879.000,1.000
-1.475,-1.368,-1.434,-1.560,-1.592,-1.404,-1.450,-1.316,-0.053,0.878,-0.534,-0.183,-0.977,0.244,73.333,29880.000,1.000
-2.834,-2.641,-2.886,-2.893,-2.926,-2.768,-2.757,-2.735,-0.051,0.877,-0.533,-0.366,-0.946,0.092,73.333,29881.000,1.000
-4.045,-3.785,-4.181,-4.130,-4.142,-4.048,-3.962,-4.021,-0.053,0.879,-0.536,-0.549,-0.885,0.000,73.333,29882.000,1.000
-4.781,-4.520,-4.970,-4.917,-4.923,-4.902,-4.756,-4.842,-0.053,0.879,-0.537,-0.763,-0.977,0.122,73.333,29883.000,1.000
-5.078,-4.918,-5.298,-5.251,-5.298,-5.334,-5.161,-5.239,-0.055,0.879,-0.535,-0.793,-0.916,0.153,73.333,29884.000,1.000
-5.083,-5.112,-5.335,-5.260,-5.389,-5.444,-5.282,-5.352,-0.053,0.880,-0.535,-0.916,-0.854,0.183,73.333,29885.000,1.000
-4.871,-5.100,-5.159,-5.015,-5.227,-5.264,-5.131,-5.226,-0.052,0.880,-0.532,-0.977,-0.824,0.183,73.333,29886.000,1.000
-4.543,-4.890,-4.838,-4.631,-4.874,-4.889,-4.759,-4.924,-0.052,0.877,-0.534,-1.099,-0.763,0.183,73.333,29887.000,1.000
-4.236,-4.574,-4.475,-4.268,-4.464,-4.492,-4.297,-4.566,-0.051,0.876,-0.534,-1.221,-0.732,0.244,73.333,29888.000,1.000
-4.076,-4.303,-4.187,-4.074,-4.158,-4.246,-3.921,-4.294,-0.052,0.876,-0.533,-1.373,-0.671,0.244,73.333,29889.000,1.000
-4.055,-4.140,-4.005,-4.044,-4.007,-4.173,-3.706,-4.139,-0.051,0.876,-0.533,-1.526,-0.641,0.244,73.333,29890.000,1.000
-4.060,-4.029,-3.872,-4.038,-3.936,-4.161,-3.604,-4.026,-0.050,0.876,-0.534,-1.434,-0.671,0.305,73.333,29891.000,1.000
-4.103,-4.016,-3.843,-4.042,-3.964,-4.214,-3.647,-3.992,-0.049,0.877,-0.535,-1.556,-0.549,0.305,73.333,29892.000,1.000
-4.291,-4.215,-4.022,-4.158,-4.185,-4.420,-3.911,-4.149,-0.048,0.877,-0.534,-1.648,-0.458,0.366,73.333,29893.000,1.000
-4.670,-4.649,-4.430,-4.451,-4.622,-4.804,-4.379,-4.528,-0.048,0.877,-0.532,-1.770,-0.305,0.305,73.333,29894.000,1.000
-5.149,-5.190,-4.949,-4.856,-5.162,-5.258,-4.910,-5.018,-0.048,0.878,-0.534,-1.831,-0.244,0.366,73.333,29895.000,1.000
-5.575,-5.677,-5.426,-5.254,-5.646,-5.648,-5.351,-5.470,-0.049,0.879,-0.532,-1.923,-0.183,0.366,73.333,29896.000,1.000
-5.887,-6.062,-5.816,-5.626,-6.023,-5.960,-5.687,-5.839,-0.047,0.880,-0.533,-1.953,-0.092,0.336,73.333,29897.000,1.000
-6.056,-6.305,-6.090,-5.942,-6.265,-6.186,-5.911,-6.089,-0.049,0.878,-0.531,-2.045,-0.031,0.336,73.333,29898.000,1.000
-6.122,-6.398,-6.263,-6.184,-6.386,-6.335,-6.035,-6.217,-0.051,0.877,-0.534,-2.106,0.000,0.336,73.333,29899.000,1.000
-6.233,-6.451,-6.440,-6.428,-6.505,-6.512,-6.161,-6.332,-0.049,0.876,-0.537,-2.167,0.000,0.366,73.333,29900.000,1.000
-6.513,-6.600,-6.719,-6.773,-6.742,-6.805,-6.397,-6.558,-0.050,0.875,-0.536,-2.045,0.061,0.336,73.333,29901.000,1.000
-6.947,-6.887,-7.097,-7.223,-7.115,-7.197,-6.767,-6.929,-0.050,0.876,-0.536,-2.228,0.092,0.427,73.333,29902.000,1.000
-7.309,-7.171,-7.386,-7.588,-7.453,-7.488,-7.118,-7.288,-0.051,0.875,-0.532,-2.136,0.153,0.275,73.333,29903.000,1.000
-7.365,-7.264,-7.382,-7.641,-7.543,-7.471,-7.249,-7.417,-0.052,0.875,-0.533,-2.167,0.244,0.336,73.333,29904.000,1.000
-7.109,-7.134,-7.079,-7.355,-7.344,-7.151,-7.117,-7.246,-0.052,0.875,-0.533,-2.258,0.305,0.275,73.333,29905.000,1.000
-6.788,-6.959,-6.711,-6.965,-7.050,-6.772,-6.896,-6.948,-0.052,0.875,-0.534,-2.289,0.305,0.275,73.333,29906.000,1.000
-6.716,-6.981,-6.587,-6.790,-6.950,-6.645,-6.856,-6.822,-0.051,0.874,-0.534,-2.289,0.397,0.305,73.333,29907.000,1.000
-6.901,-7.159,-6.712,-6.846,-7.045,-6.777,-7.003,-6.904,-0.052,0.873,-0.534,-2.075,0.397,0.305,73.333,29908.000,1.000
-7.015,-7.172,-6.761,-6.828,-7.032,-6.854,-7.053,-6.904,-0.050,0.875,-0.532,-2.045,0.427,0.305,73.333,29909.000,1.000
-6.700,-6.735,-6.395,-6.417,-6.596,-6.536,-6.704,-6.502,-0.052,0.872,-0.535,-1.984,0.366,0.244,73.333,29910.000,1.000
-5.836,-5.805,-5.524,-5.534,-5.656,-5.719,-5.868,-5.602,-0.053,0.873,-0.534,-1.953,0.427,0.214,73.333,29911.000,1.000
-4.615,-4.591,-4.352,-4.385,-4.411,-4.584,-4.720,-4.398,-0.053,0.873,-0.532,-1.892,0.366,0.183,73.333,29912.000,1.000
-3.299,-3.312,-3.120,-3.200,-3.113,-3.357,-3.481,-3.132,-0.053,0.870,-0.528,-1.801,0.275,0.214,73.333,29913.000,1.000
-2.079,-2.102,-1.979,-2.119,-1.936,-2.184,-2.308,-1.977,-0.054,0.873,-0.534,-1.617,0.183,0.214,73.333,29914.000,1.000
-1.056,-1.040,-1.004,-1.201,-0.962,-1.149,-1.282,-1.018,-0.052,0.872,-0.534,-1.465,0.122,0.275,73.333,29915.000,1.000
-0.254,-0.153,-0.208,-0.443,-0.193,-0.277,-0.413,-0.253,-0.052,0.871,-0.535,-1.312,0.214,0.366,73.333,29916.000,1.000
0.368,0.579,0.436,0.206,0.418,0.451,0.323,0.388,-0.054,0.873,-0.534,-1.251,0.153,0.366,73.333,29917.000,1.000
1.010,1.315,1.097,0.928,1.055,1.203,1.081,1.112,-0.053,0.871,-0.536,-1.099,0.092,0.397,73.333,29918.000,1.000
1.866,2.215,1.952,1.871,1.893,2.142,2.016,2.086,-0.052,0.871,-0.532,-0.824,0.061,0.458,73.333,29919.000,1.000
2.901,3.230,2.963,2.936,2.895,3.214,3.075,3.217,-0.054,0.872,-0.534,-0.702,0.122,0.397,73.333,29920.000,1.000
3.917,4.181,3.944,3.897,3.881,4.208,4.061,4.255,-0.053,0.873,-0.537,-0.702,-0.061,0.305,73.333,29921.000,1.000
4.680,4.877,4.672,4.545,4.651,4.892,4.763,4.966,-0.055,0.875,-0.534,-0.549,-0.061,0.275,73.333,29922.000,1.000
5.014,5.170,4.975,4.751,5.045,5.114,5.030,5.217,-0.054,0.873,-0.533,-0.610,-0.214,0.244,73.333,29923.000,1.000
4.789,4.927,4.728,4.420,4.910,4.783,4.741,4.913,-0.056,0.871,-0.534,-0.458,-0.366,0.305,73.333,29924.000,1.000
4.043,4.169,3.965,3.602,4.240,3.974,3.934,4.102,-0.054,0.870,-0.535,-0.214,-0.366,0.305,73.333,29925.000,1.000
3.072,3.169,2.969,2.590,3.290,2.998,2.901,3.075,-0.054,0.870,-0.536,-0.153,-0.397,0.275,73.333,29926.000,1.000
2.231,2.262,2.072,1.736,2.397,2.185,1.992,2.175,-0.054,0.871,-0.539,-0.153,-0.549,0.366,73.333,29927.000,1.000
1.795,1.727,1.541,1.320,1.850,1.757,1.489,1.680,-0.055,0.871,-0.538,0.000,-0.610,0.397,73.333,29928.000,1.000
1.889,1.712,1.509,1.464,1.807,1.787,1.522,1.711,-0.053,0.875,-0.536,0.122,-0.580,0.397,73.333,29929.000,1.000
2.499,2.245,1.985,2.139,2.295,2.251,2.092,2.250,-0.052,0.876,-0.533,0.122,-0.580,0.397,73.333,29930.000,1.000
3.526,3.264,2.913,3.223,3.249,3.101,3.115,3.212,-0.049,0.874,-0.533,0.244,-0.610,0.488,73.333,29931.000,1.000
4.696,4.502,4.058,4.424,4.422,4.148,4.339,4.357,-0.051,0.877,-0.533,0.214,-0.549,0.427,73.333,29932.000,1.000
5.623,5.558,5.060,5.377,5.434,5.074,5.389,5.339,-0.051,0.876,-0.534,0.153,-0.580,0.458,73.333,29933.000,1.000
6.018,6.103,5.610,5.833,5.965,5.597,5.945,5.875,-0.049,0.876,-0.535,0.092,-0.580,0.610,73.333,29934.000,1.000
5.930,6.143,5.704,5.876,6.003,5.722,6.007,5.977,-0.052,0.878,-0.533,0.092,-0.610,0.641,73.333,29935.000,1.000
5.732,6.012,5.657,5.872,5.864,5.753,5.911,5.952,-0.052,0.876,-0.536,0.061,-0.580,0.702,73.333,29936.000,1.000
5.684,5.941,5.689,6.013,5.796,5.888,5.904,6.000,-0.053,0.876,-0.538,0.153,-0.671,0.671,73.333,29937.000,1.000
5.709,5.850,5.715,6.134,5.754,6.008,5.924,6.012,-0.053,0.877,-0.538,0.183,-0.763,0.671,73.333,29938.000,1.000
5.566,5.532,5.518,5.950,5.542,5.865,5.759,5.761,-0.053,0.875,-0.537,0.122,-0.824,0.610,73.333,29939.000,1.000
5.251,5.038,5.127,5.492,5.175,5.470,5.419,5.292,-0.052,0.874,-0.534,0.061,-0.763,0.610,73.333,29940.000,1.000
5.095,4.756,4.913,5.172,4.984,5.194,5.225,4.996,-0.055,0.876,-0.536,0.092,-0.793,0.641,73.333,29941.000,1.000
5.268,4.879,5.051,5.229,5.129,5.254,5.326,5.073,-0.056,0.874,-0.536,0.031,-0.824,0.549,73.333,29942.000,1.000
5.414,5.035,5.170,5.332,5.254,5.327,5.361,5.163,-0.055,0.877,-0.537,-0.122,-0.916,0.458,73.333,29943.000,1.000
4.932,4.597,4.668,4.882,4.784,4.825,4.774,4.661,-0.055,0.878,-0.538,-0.153,-0.977,0.397,73.333,29944.000,1.000
3.756,3.483,3.500,3.789,3.663,3.668,3.551,3.492,-0.056,0.875,-0.538,-0.244,-1.038,0.427,73.333,29945.000,1.000
2.641,2.443,2.457,2.769,2.632,2.589,2.480,2.406,-0.054,0.873,-0.536,-0.275,-1.129,0.275,73.333,29946.000,1.000
2.360,2.254,2.333,2.571,2.433,2.364,2.318,2.182,-0.052,0.873,-0.534,-0.305,-1.190,0.214,73.333,29947.000,1.000
2.844,2.850,3.039,3.119,2.965,2.934,2.939,2.764,-0.052,0.870,-0.535,-0.366,-1.282,0.214,73.333,29948.000,1.000
3.300,3.434,3.710,3.621,3.423,3.496,3.481,3.354,-0.052,0.868,-0.536,-0.427,-1.190,0.153,73.333,29949.000,1.000
3.249,3.499,3.788,3.596,3.348,3.547,3.429,3.435,-0.048,0.871,-0.535,-0.458,-1.221,0.061,73.333,29950.000,1.000
3.136,3.450,3.680,3.491,3.225,3.503,3.255,3.403,-0.049,0.870,-0.532,-0.427,-1.129,0.031,73.333,29951.000,1.000
3.566,3.868,4.006,3.908,3.676,3.943,3.629,3.829,-0.047,0.870,-0.532,-0.488,-1.129,0.031,73.333,29952.000,1.000
4.340,4.561,4.605,4.644,4.489,4.662,4.403,4.525,-0.048,0.869,-0.530,-0.458,-1.099,0.122,73.333,29953.000,1.000
4.598,4.703,4.669,4.842,4.776,4.836,4.710,4.685,-0.048,0.871,-0.533,-0.458,-1.129,0.122,73.333,29954.000,1.000
3.976,3.958,3.874,4.155,4.146,4.147,4.122,4.002,-0.049,0.874,-0.534,-0.549,-0.977,0.153,73.333,29955.000,1.000
3.216,3.098,2.990,3.337,3.329,3.355,3.320,3.243,-0.046,0.877,-0.535,-0.610,-0.977,0.244,73.333,29956.000,1.000
3.247,3.060,2.940,3.305,3.270,3.351,3.221,3.299,-0.048,0.877,-0.537,-0.519,-0.763,0.244,73.333,29957.000,1.000
4.094,3.863,3.724,4.055,4.028,4.120,3.895,4.129,-0.046,0.878,-0.539,-0.702,-0.702,0.244,73.333,29958.000,1.000
5.032,4.782,4.609,4.861,4.911,4.938,4.695,4.975,-0.048,0.879,-0.537,-0.763,-0.702,0.183,73.333,29959.000,1.000
5.676,5.454,5.237,5.376,5.557,5.472,5.311,5.490,-0.052,0.878,-0.537,-0.854,-0.549,0.183,73.333,29960.000,1.000
6.419,6.279,6.040,6.052,6.351,6.165,6.155,6.137,-0.053,0.880,-0.536,-0.916,-0.641,0.214,73.333,29961.000,1.000
7.498,7.467,7.266,7.170,7.492,7.263,7.410,7.201,-0.053,0.881,-0.538,-0.977,-0.549,0.214,73.333,29962.000,1.000
8.223,8.273,8.189,8.030,8.237,8.047,8.296,7.983,-0.050,0.882,-0.541,-0.946,-0.488,0.153,73.333,29963.000,1.000
7.561,7.623,7.703,7.535,7.546,7.445,7.713,7.404,-0.049,0.877,-0.539,-1.099,-0.458,0.122,73.333,29964.000,1.000
5.493,5.506,5.727,5.598,5.440,5.419,5.637,5.404,-0.049,0.874,-0.536,-1.160,-0.366,0.122,73.333,29965.000,1.000
3.337,3.293,3.570,3.517,3.286,3.293,3.430,3.302,-0.049,0.871,-0.537,-1.190,-0.244,0.183,73.333,29966.000,1.000
2.264,2.214,2.440,2.484,2.273,2.252,2.312,2.293,-0.048,0.868,-0.541,-1.068,-0.183,0.183,73.333,29967.000,1.000
1.911,1.931,2.030,2.152,2.029,1.948,1.949,2.033,-0.047,0.865,-0.541,-1.007,-0.031,0.275,73.333,29968.000,1.000
0.997,1.137,1.091,1.246,1.238,1.094,1.060,1.224,-0.047,0.866,-0.544,-0.916,0.000,0.336,73.333,29969.000,1.000
-0.414,-0.176,-0.305,-0.169,-0.077,-0.271,-0.307,-0.100,-0.045,0.870,-0.543,-0.732,0.000,0.519,73.333,29970.000,1.000
0.225,0.483,0.386,0.471,0.604,0.381,0.381,0.584,-0.046,0.875,-0.542,-0.793,0.061,0.458,73.333,29971.000,1.000
5.255,5.474,5.502,5.522,5.631,5.404,5.462,5.615,-0.047,0.877,-0.542,-0.854,0.153,0.427,73.333,29972.000,1.000
12.200,12.368,12.538,12.470,12.527,12.329,12.433,12.509,-0.049,0.881,-0.537,-1.068,0.275,0.458,73.333,29973.000,1.000
13.738,13.872,14.122,13.931,13.960,13.832,13.936,13.934,-0.052,0.883,-0.538,-1.160,0.305,0.519,73.333,29974.000,1.000
5.588,5.697,5.947,5.604,5.657,5.630,5.682,5.622,-0.054,0.880,-0.537,-1.251,0.275,0.549,73.333,29975.000,1.000
-6.334,-6.251,-6.049,-6.535,-6.418,-6.348,-6.359,-6.465,-0.058,0.879,-0.537,-1.312,0.275,0.519,73.333,29976.000,1.000
-10.956,-10.916,-10.758,-11.329,-11.145,-11.020,-11.050,-11.215,-0.063,0.876,-0.534,-1.434,0.031,0.427,73.333,29977.000,1.000
-4.980,-4.995,-4.852,-5.407,-5.204,-5.078,-5.058,-5.301,-0.066,0.875,-0.535,-1.526,-0.122,0.305,73.333,29978.000,1.000
3.041,2.971,3.121,2.683,2.835,2.928,3.038,2.731,-0.066,0.876,-0.534,-1.526,-0.305,0.153,73.333,29979.000,1.000
3.271,3.156,3.298,3.034,3.098,3.145,3.333,3.020,-0.066,0.875,-0.534,-1.526,-0.580,0.061,73.333,29980.000,1.000
-4.063,-4.215,-4.139,-4.232,-4.226,-4.217,-4.016,-4.260,-0.064,0.876,-0.531,-1.556,-0.732,0.031,73.333,29981.000,1.000
-10.703,-10.882,-10.938,-10.900,-10.886,-10.881,-10.757,-10.882,-0.063,0.876,-0.533,-1.526,-1.068,-0.061,73.333,29982.000,1.000
-11.340,-11.506,-11.715,-11.590,-11.531,-11.476,-11.490,-11.507,-0.063,0.876,-0.534,-1.556,-1.160,-0.122,73.333,29983.000,1.000
-8.840,-8.920,-9.238,-9.069,-8.979,-8.839,-8.973,-8.948,-0.060,0.877,-0.533,-1.526,-1.312,-0.214,73.333,29984.000,1.000
-8.631,-8.564,-8.902,-8.738,-8.656,-8.445,-8.623,-8.630,-0.058,0.879,-0.531,-1.648,-1.434,-0.336,73.333,29985.000,1.000
-11.376,-11.155,-11.431,-11.328,-11.267,-11.044,-11.190,-11.269,-0.057,0.883,-0.535,-1.740,-1.465,-0.366,73.333,29986.000,1.000
-13.261,-12.947,-13.112,-13.109,-13.056,-12.880,-12.959,-13.099,-0.055,0.885,-0.536,-1.801,-1.465,-0.397,73.333,29987.000,1.000
-11.705,-11.395,-11.425,-11.524,-11.471,-11.387,-11.384,-11.559,-0.052,0.886,-0.536,-1.923,-1.495,-0.336,73.333,29988.000,1.000
-8.423,-8.184,-8.067,-8.240,-8.205,-8.225,-8.133,-8.332,-0.054,0.888,-0.536,-1.892,-1.434,-0.214,73.333,29989.000,1.000
-6.781,-6.602,-6.347,-6.558,-6.578,-6.656,-6.487,-6.730,-0.052,0.887,-0.535,-2.014,-1.465,-0.122,73.333,29990.000,1.000
-7.852,-7.648,-7.309,-7.525,-7.636,-7.666,-7.473,-7.781,-0.050,0.885,-0.534,-2.075,-1.465,-0.031,73.333,29991.000,1.000
-9.950,-9.629,-9.284,-9.484,-9.695,-9.577,-9.449,-9.795,-0.050,0.883,-0.532,-2.167,-1.373,0.244,73.333,29992.000,1.000
-11.065,-10.608,-10.308,-10.485,-10.765,-10.481,-10.498,-10.798,-0.050,0.882,-0.531,-2.197,-1.312,0.366,73.333,29993.000,1.000
-10.884,-10.369,-10.112,-10.272,-10.544,-10.184,-10.372,-10.529,-0.051,0.879,-0.535,-2.228,-1.129,0.366,73.333,29994.000,1.000
-10.348,-9.901,-9.644,-9.799,-9.978,-9.683,-10.000,-9.964,-0.051,0.878,-0.534,-2.075,-1.129,0.519,73.333,29995.000,1.000
-9.663,-9.376,-9.078,-9.238,-9.269,-9.149,-9.512,-9.315,-0.052,0.877,-0.533,-2.014,-1.099,0.641,73.333,29996.000,1.000
-7.755,-7.662,-7.311,-7.485,-7.363,-7.439,-7.762,-7.502,-0.052,0.875,-0.531,-2.014,-1.007,0.763,73.333,29997.000,1.000
-4.356,-4.447,-4.077,-4.261,-4.017,-4.240,-4.449,-4.252,-0.054,0.874,-0.529,-1.953,-1.038,0.732,73.333,29998.000,1.000
-1.690,-1.930,-1.607,-1.774,-1.458,-1.757,-1.805,-1.768,-0.052,0.873,-0.530,-1.984,-0.885,0.793,73.333,29999.000,1.000
-2.258,-2.589,-2.367,-2.475,-2.135,-2.464,-2.360,-2.497,-0.052,0.872,-0.527,-1.984,-0.824,0.732,73.333,30000.000,1.000
-5.067,-5.412,-5.308,-5.332,-5.005,-5.334,-5.148,-5.391,-0.049,0.871,-0.528,-2.045,-0.763,0.732,73.333,30001.000,1.000
-6.121,-6.404,-6.393,-6.355,-6.047,-6.348,-6.187,-6.422,-0.049,0.871,-0.529,-2.014,-0.702,0.793,73.333,30002.000,1.000
-3.151,-3.317,-3.365,-3.327,-3.009,-3.257,-3.209,-3.340,-0.048,0.870,-0.523,-2.045,-0.641,0.824,73.333,30003.000,1.000
1.576,1.532,1.461,1.424,1.804,1.610,1.519,1.527,-0.047,0.867,-0.522,-1.923,-0.458,0.763,73.333,30004.000,1.000
4.044,4.054,4.008,3.845,4.307,4.153,3.974,4.081,-0.044,0.865,-0.526,-1.892,-0.305,0.854,73.333,30005.000,1.000
2.962,2.916,2.936,2.662,3.164,3.034,2.862,2.981,-0.044,0.864,-0.522,-1.831,-0.061,0.854,73.333,30006.000,1.000
0.479,0.303,0.395,0.084,0.552,0.434,0.337,0.396,-0.044,0.865,-0.525,-1.892,0.092,0.854,73.333,30007.000,1.000
-0.646,-0.941,-0.828,-1.073,-0.705,-0.822,-0.832,-0.855,-0.044,0.867,-0.526,-1.831,0.183,0.763,73.333,30008.000,1.000
0.363,0.036,0.085,-0.013,0.216,0.094,0.145,0.074,-0.045,0.868,-0.527,-1.709,0.366,0.763,73.333,30009.000,1.000
2.166,1.912,1.837,1.904,1.972,1.861,1.940,1.890,-0.045,0.872,-0.527,-1.709,0.458,0.763,73.333,30010.000,1.000
2.865,2.754,2.549,2.733,2.646,2.579,2.653,2.686,-0.044,0.875,-0.527,-1.678,0.610,0.671,73.333,30011.000,1.000
1.652,1.690,1.394,1.625,1.427,1.433,1.469,1.600,-0.045,0.879,-0.527,-1.678,0.732,0.641,73.333,30012.000,1.000
-0.412,-0.290,-0.604,-0.377,-0.614,-0.528,-0.557,-0.366,-0.045,0.885,-0.531,-1.709,0.946,0.519,73.333,30013.000,1.000
-1.342,-1.236,-1.481,-1.279,-1.493,-1.339,-1.445,-1.249,-0.046,0.886,-0.530,-1.831,1.007,0.519,73.333,30014.000,1.000
-0.377,-0.356,-0.486,-0.304,-0.472,-0.264,-0.444,-0.284,-0.048,0.888,-0.529,-1.892,1.038,0.519,73.333,30015.000,1.000
0.946,0.886,0.841,1.022,0.885,1.132,0.901,1.012,-0.048,0.892,-0.529,-1.984,1.099,0.549,73.333,30016.000,1.000
0.521,0.430,0.388,0.588,0.443,0.725,0.476,0.540,-0.050,0.889,-0.529,-2.106,1.099,0.488,73.333,30017.000,1.000
-1.387,-1.450,-1.570,-1.343,-1.535,-1.213,-1.443,-1.420,-0.049,0.887,-0.528,-2.167,1.160,0.366,73.333,30018.000,1.000
-2.008,-1.995,-2.231,-1.986,-2.245,-1.890,-2.062,-2.075,-0.051,0.884,-0.529,-2.136,1.068,0.336,73.333,30019.000,1.000
0.463,0.574,0.253,0.498,0.167,0.510,0.449,0.406,-0.051,0.883,-0.529,-2.319,1.038,0.336,73.333,30020.000,1.000
4.219,4.413,4.080,4.320,3.915,4.177,4.280,4.217,-0.054,0.880,-0.528,-2.228,1.007,0.275,73.333,30021.000,1.000
5.821,6.041,5.768,6.014,5.545,5.674,5.961,5.889,-0.053,0.879,-0.529,-2.075,1.038,0.366,73.333,30022.000,1.000
4.601,4.786,4.590,4.845,4.350,4.366,4.785,4.721,-0.054,0.881,-0.533,-1.984,0.946,0.397,73.333,30023.000,1.000
3.537,3.656,3.491,3.748,3.281,3.265,3.711,3.682,-0.054,0.881,-0.531,-1.953,0.885,0.397,73.333,30024.000,1.000
5.224,5.285,5.073,5.338,4.946,4.979,5.359,5.389,-0.055,0.878,-0.531,-1.801,0.854,0.244,73.333,30025.000,1.000
8.344,8.360,8.066,8.345,8.068,8.161,8.437,8.542,-0.055,0.877,-0.529,-1.770,0.793,0.305,73.333,30026.000,1.000
9.434,9.402,9.072,9.339,9.203,9.297,9.473,9.670,-0.055,0.875,-0.526,-1.617,0.702,0.366,73.333,30027.000,1.000
7.713,7.618,7.361,7.536,7.536,7.572,7.664,7.956,-0.055,0.874,-0.526,-1.465,0.580,0.305,73.333,30028.000,1.000
6.297,6.137,6.038,6.044,6.128,6.110,6.128,6.480,-0.056,0.873,-0.527,-1.404,0.549,0.305,73.333,30029.000,1.000
7.991,7.774,7.829,7.671,7.760,7.746,7.702,8.043,-0.057,0.872,-0.526,-1.251,0.458,0.305,73.333,30030.000,1.000
11.327,11.064,11.184,10.981,10.999,11.036,10.966,11.221,-0.058,0.873,-0.528,-1.099,0.275,0.305,73.333,30031.000,1.000
12.335,12.037,12.114,12.039,11.933,12.009,11.983,12.107,-0.057,0.872,-0.527,-0.916,0.031,0.427,73.333,30032.000,1.000
9.829,9.528,9.491,9.663,9.428,9.484,9.563,9.572,-0.056,0.872,-0.526,-0.702,-0.092,0.549,73.333,30033.000,1.000
7.021,6.762,6.603,7.017,6.703,6.696,6.864,6.831,-0.056,0.871,-0.526,-0.580,-0.153,0.488,73.333,30034.000,1.000
7.230,7.046,6.802,7.340,7.050,6.988,7.136,7.152,-0.055,0.872,-0.527,-0.458,-0.183,0.488,73.333,30035.000,1.000
9.499,9.414,9.126,9.621,9.463,9.394,9.402,9.524,-0.054,0.871,-0.528,-0.427,-0.244,0.458,73.333,30036.000,1.000
10.028,10.066,9.748,10.066,10.083,10.070,9.888,10.136,-0.052,0.872,-0.531,-0.244,-0.336,0.519,73.333,30037.000,1.000
7.486,7.666,7.301,7.403,7.550,7.639,7.298,7.667,-0.048,0.872,-0.533,-0.031,-0.427,0.519,73.333,30038.000,1.000
4.838,5.142,4.701,4.648,4.850,5.042,4.598,5.059,-0.049,0.873,-0.537,0.122,-0.458,0.549,73.333,30039.000,1.000
5.180,5.529,5.024,4.919,5.126,5.367,4.886,5.369,-0.046,0.875,-0.534,0.366,-0.488,0.671,73.333,30040.000,1.000
7.448,7.734,7.237,7.154,7.351,7.549,7.119,7.532,-0.047,0.875,-0.532,0.488,-0.549,0.793,73.333,30041.000,1.000
7.857,8.004,7.636,7.589,7.762,7.834,7.555,7.830,-0.048,0.875,-0.532,0.702,-0.427,0.793,73.333,30042.000,1.000
5.165,5.156,5.024,5.000,5.110,5.030,4.965,5.084,-0.050,0.875,-0.529,0.854,-0.427,0.854,73.333,30043.000,1.000
2.484,2.342,2.480,2.472,2.462,2.290,2.427,2.400,-0.054,0.875,-0.530,0.885,-0.336,0.763,73.333,30044.000,1.000
3.189,2.938,3.301,3.308,3.143,2.987,3.246,3.102,-0.059,0.875,-0.534,0.763,-0.488,0.885,73.333,30045.000,1.000
6.504,6.154,6.659,6.665,6.360,6.312,6.603,6.375,-0.062,0.874,-0.534,0.854,-0.549,0.671,73.333,30046.000,1.000
8.627,8.179,8.765,8.738,8.356,8.427,8.707,8.421,-0.060,0.874,-0.535,0.854,-0.732,0.610,73.333,30047.000,1.000
7.790,7.260,7.889,7.814,7.430,7.542,7.827,7.501,-0.060,0.872,-0.534,0.946,-0.885,0.488,73.333,30048.000,1.000
6.226,5.671,6.294,6.200,5.863,5.899,6.228,5.889,-0.058,0.874,-0.537,1.007,-1.007,0.366,73.333,30049.000,1.000
6.600,6.115,6.661,6.594,6.321,6.203,6.584,6.277,-0.053,0.874,-0.536,1.099,-1.068,0.305,73.333,30050.000,1.000
8.136,7.805,8.210,8.195,7.985,7.721,8.104,7.864,-0.052,0.871,-0.535,1.221,-1.099,0.244,73.333,30051.000,1.000
7.736,7.588,7.831,7.858,7.702,7.379,7.684,7.508,-0.051,0.869,-0.532,1.251,-1.160,0.214,73.333,30052.000,1.000
4.410,4.406,4.520,4.571,4.445,4.169,4.354,4.207,-0.050,0.868,-0.535,1.343,-1.190,0.244,73.333,30053.000,1.000
0.735,0.796,0.862,0.919,0.797,0.628,0.719,0.565,-0.051,0.868,-0.537,1.373,-1.251,0.122,73.333,30054.000,1.000
-0.509,-0.459,-0.342,-0.301,-0.430,-0.507,-0.442,-0.606,-0.051,0.870,-0.536,1.495,-1.129,0.122,73.333,30055.000,1.000
0.220,0.220,0.459,0.460,0.329,0.289,0.381,0.238,-0.050,0.868,-0.536,1.526,-1.190,0.031,73.333,30056.000,1.000
0.197,0.146,0.509,0.465,0.339,0.293,0.407,0.328,-0.050,0.870,-0.535,1.617,-1.221,0.153,73.333,30057.000,1.000
-1.708,-1.794,-1.371,-1.437,-1.550,-1.612,-1.526,-1.521,-0.051,0.871,-0.535,1.556,-1.190,0.153,73.333,30058.000,1.000
-3.634,-3.748,-3.348,-3.411,-3.497,-3.554,-3.544,-3.481,-0.050,0.873,-0.535,1.556,-1.251,0.153,73.333,30059.000,1.000
-3.513,-3.649,-3.331,-3.394,-3.439,-3.443,-3.534,-3.469,-0.051,0.876,-0.535,1.587,-1.190,0.214,73.333,30060.000,1.000
-1.987,-2.118,-1.904,-2.008,-1.990,-1.892,-2.099,-2.089,-0.049,0.877,-0.535,1.526,-1.190,0.214,73.333,30061.000,1.000
-1.587,-1.670,-1.549,-1.726,-1.630,-1.427,-1.754,-1.820,-0.048,0.876,-0.540,1.343,-1.007,0.183,73.333,30062.000,1.000
-3.362,-3.367,-3.314,-3.550,-3.375,-3.137,-3.555,-3.679,-0.049,0.878,-0.538,1.312,-0.977,0.244,73.333,30063.000,1.000
-5.607,-5.536,-5.535,-5.793,-5.542,-5.378,-5.824,-5.965,-0.049,0.879,-0.538,1.160,-0.946,0.214,73.333,30064.000,1.000
-6.246,-6.128,-6.173,-6.428,-6.098,-6.090,-6.502,-6.616,-0.049,0.878,-0.538,1.007,-0.793,0.214,73.333,30065.000,1.000
-5.442,-5.315,-5.399,-5.647,-5.235,-5.398,-5.742,-5.795,-0.049,0.878,-0.538,0.977,-0.702,0.336,73.333,30066.000,1.000
-5.105,-5.006,-5.099,-5.356,-4.873,-5.169,-5.422,-5.406,-0.049,0.877,-0.538,0.977,-0.671,0.366,73.333,30067.000,1.000
-6.177,-6.129,-6.168,-6.459,-5.940,-6.322,-6.460,-6.385,-0.050,0.879,-0.541,0.824,-0.610,0.366,73.333,30068.000,1.000
-7.494,-7.480,-7.402,-7.737,-7.235,-7.668,-7.678,-7.562,-0.050,0.879,-0.538,0.732,-0.641,0.366,73.333,30069.000,1.000
-7.555,-7.518,-7.315,-7.659,-7.243,-7.690,-7.590,-7.455,-0.051,0.876,-0.538,0.549,-0.610,0.427,73.333,30070.000,1.000
-6.516,-6.405,-6.148,-6.428,-6.157,-6.574,-6.404,-6.280,-0.052,0.877,-0.540,0.427,-0.549,0.427,73.333,30071.000,1.000
-5.827,-5.642,-5.435,-5.592,-5.483,-5.824,-5.623,-5.549,-0.049,0.875,-0.538,0.305,-0.549,0.366,73.333,30072.000,1.000
-6.203,-5.985,-5.916,-5.944,-5.960,-6.197,-5.989,-5.999,-0.053,0.876,-0.540,0.122,-0.458,0.336,73.333,30073.000,1.000
-6.839,-6.641,-6.741,-6.674,-6.762,-6.897,-6.697,-6.791,-0.052,0.875,-0.538,0.122,-0.549,0.366,73.333,30074.000,1.000
-6.764,-6.617,-6.845,-6.737,-6.855,-6.926,-6.741,-6.868,-0.052,0.875,-0.537,0.092,-0.549,0.366,73.333,30075.000,1.000
-6.266,-6.159,-6.431,-6.334,-6.449,-6.516,-6.346,-6.426,-0.052,0.875,-0.537,0.000,-0.488,0.366,73.333,30076.000,1.000
-6.535,-6.420,-6.652,-6.604,-6.683,-6.785,-6.644,-6.614,-0.052,0.874,-0.536,-0.092,-0.519,0.336,73.333,30077.000,1.000
-8.053,-7.872,-8.006,-8.027,-8.040,-8.167,-8.097,-7.945,-0.052,0.874,-0.538,-0.214,-0.519,0.336,73.333,30078.000,1.000
-9.971,-9.689,-9.689,-9.785,-9.729,-9.833,-9.868,-9.637,-0.052,0.873,-0.538,-0.214,-0.610,0.275,73.333,30079.000,1.000
-11.159,-10.791,-10.642,-10.815,-10.713,-10.744,-10.873,-10.631,-0.052,0.872,-0.537,-0.183,-0.702,0.275,73.333,30080.000,1.000
-11.383,-10.984,-10.716,-10.956,-10.850,-10.772,-10.936,-10.746,-0.051,0.874,-0.537,-0.336,-0.732,0.305,73.333,30081.000,1.000
-11.229,-10.868,-10.546,-10.824,-10.767,-10.562,-10.690,-10.586,-0.053,0.872,-0.536,-0.397,-0.732,0.305,73.333,30082.000,1.000
-11.067,-10.806,-10.490,-10.767,-10.811,-10.480,-10.516,-10.510,-0.054,0.873,-0.539,-0.397,-0.732,0.244,73.333,30083.000,1.000
-10.594,-10.469,-10.190,-10.437,-10.608,-10.179,-10.094,-10.180,-0.055,0.873,-0.539,-0.397,-0.732,0.305,73.333,30084.000,1.000
-9.449,-9.469,-9.246,-9.448,-9.717,-9.247,-9.058,-9.213,-0.054,0.874,-0.540,-0.488,-0.732,0.275,73.333,30085.000,1.000
-7.894,-8.050,-7.903,-8.054,-8.336,-7.896,-7.671,-7.849,-0.054,0.874,-0.539,-0.610,-0.702,0.275,73.333,30086.000,1.000
-6.667,-6.925,-6.877,-6.976,-7.169,-6.818,-6.638,-6.785,-0.054,0.874,-0.540,-0.580,-0.946,0.336,73.333,30087.000,1.000
-6.091,-6.397,-6.455,-6.511,-6.542,-6.304,-6.223,-6.299,-0.053,0.874,-0.540,-0.458,-0.854,0.305,73.333,30088.000,1.000
-5.695,-5.986,-6.128,-6.155,-6.022,-5.875,-5.908,-5.890,-0.053,0.875,-0.542,-0.580,-0.885,0.336,73.333,30089.000,1.000
-4.930,-5.136,-5.339,-5.342,-5.109,-5.004,-5.131,-5.016,-0.055,0.876,-0.539,-0.610,-1.007,0.427,73.333,30090.000,1.000
-3.970,-4.035,-4.310,-4.287,-4.034,-3.922,-4.099,-3.916,-0.054,0.878,-0.540,-0.641,-1.129,0.397,73.333,30091.000,1.000
-3.528,-3.424,-3.804,-3.763,-3.535,-3.395,-3.566,-3.383,-0.055,0.875,-0.539,-0.671,-1.190,0.427,73.333,30092.000,1.000
-3.822,-3.559,-4.058,-4.016,-3.810,-3.658,-3.762,-3.666,-0.056,0.876,-0.539,-0.702,-1.251,0.427,73.333,30093.000,1.000
-4.229,-3.859,-4.436,-4.399,-4.195,-4.072,-4.061,-4.115,-0.054,0.874,-0.536,-0.763,-1.221,0.397,73.333,30094.000,1.000
-4.245,-3.853,-4.415,-4.376,-4.166,-4.116,-3.971,-4.181,-0.053,0.873,-0.538,-0.793,-1.282,0.336,73.333,30095.000,1.000
-4.441,-4.107,-4.561,-4.511,-4.312,-4.358,-4.097,-4.413,-0.054,0.874,-0.534,-0.793,-1.312,0.397,73.333,30096.000,1.000
-5.850,-5.616,-5.910,-5.853,-5.696,-5.825,-5.503,-5.839,-0.057,0.875,-0.535,-0.824,-1.373,0.458,73.333,30097.000,1.000
-8.162,-8.018,-8.163,-8.116,-8.023,-8.198,-7.877,-8.155,-0.058,0.874,-0.537,-0.793,-1.343,0.458,73.333,30098.000,1.000
-9.410,-9.317,-9.365,-9.352,-9.314,-9.491,-9.216,-9.405,-0.057,0.872,-0.536,-0.854,-1.434,0.366,73.333,30099.000,1.000
-8.173,-8.099,-8.096,-8.128,-8.112,-8.255,-8.046,-8.163,-0.056,0.874,-0.538,-0.946,-1.648,0.427,73.333,30100.000,1.000
-5.527,-5.462,-5.436,-5.499,-5.465,-5.548,-5.420,-5.498,-0.057,0.875,-0.535,-0.977,-1.648,0.397,73.333,30101.000,1.000
-3.920,-3.876,-3.841,-3.901,-3.815,-3.841,-3.809,-3.862,-0.057,0.872,-0.536,-0.946,-1.678,0.305,73.333,30102.000,1.000
-4.080,-4.068,-4.045,-4.062,-3.897,-3.921,-3.974,-3.988,-0.055,0.872,-0.540,-0.854,-1.587,0.366,73.333,30103.000,1.000
-4.147,-4.172,-4.181,-4.125,-3.877,-3.978,-4.080,-4.019,-0.053,0.876,-0.542,-0.854,-1.678,0.305,73.333,30104.000,1.000
-2.430,-2.486,-2.535,-2.394,-2.101,-2.320,-2.426,-2.270,-0.053,0.876,-0.542,-0.916,-1.648,0.366,73.333,30105.000,1.000
-0.017,-0.091,-0.172,0.056,0.299,-0.004,-0.070,0.155,-0.050,0.878,-0.539,-1.007,-1.587,0.305,73.333,30106.000,1.000
0.491,0.410,0.311,0.615,0.709,0.401,0.410,0.641,-0.050,0.879,-0.538,-0.916,-1.617,0.305,73.333,30107.000,1.000
-1.275,-1.345,-1.461,-1.123,-1.205,-1.455,-1.358,-1.182,-0.049,0.876,-0.539,-1.007,-1.495,0.336,73.333,30108.000,1.000
-2.547,-2.574,-2.719,-2.421,-2.615,-2.790,-2.617,-2.528,-0.049,0.876,-0.545,-1.038,-1.373,0.366,73.333,30109.000,1.000
-1.107,-1.046,-1.240,-1.048,-1.250,-1.379,-1.157,-1.146,-0.046,0.875,-0.543,-1.038,-1.282,0.366,73.333,30110.000,1.000
1.279,1.457,1.198,1.281,1.145,1.010,1.237,1.220,-0.048,0.875,-0.542,-1.007,-1.099,0.519,73.333,30111.000,1.000
0.830,1.118,0.775,0.818,0.761,0.582,0.753,0.780,-0.048,0.874,-0.545,-1.038,-1.129,0.641,73.333,30112.000,1.000
-2.542,-2.188,-2.642,-2.550,-2.541,-2.755,-2.714,-2.590,-0.050,0.875,-0.544,-1.007,-0.977,0.580,73.333,30113.000,1.000
-3.508,-3.152,-3.731,-3.540,-3.474,-3.674,-3.819,-3.589,-0.050,0.873,-0.543,-1.007,-0.854,0.610,73.333,30114.000,1.000
2.485,2.781,2.131,2.406,2.511,2.377,2.049,2.358,-0.051,0.872,-0.540,-1.007,-0.793,0.549,73.333,30115.000,1.000
12.007,12.198,11.612,11.914,12.024,11.976,11.534,11.876,-0.050,0.871,-0.537,-1.007,-0.641,0.519,73.333,30116.000,1.000
15.897,15.955,15.582,15.858,15.937,15.964,15.505,15.823,-0.047,0.869,-0.540,-0.977,-0.519,0.580,73.333,30117.000,1.000
10.146,10.068,9.984,10.209,10.232,10.321,9.914,10.144,-0.048,0.871,-0.543,-0.854,-0.427,0.610,73.333,30118.000,1.000
1.424,1.237,1.394,1.576,1.531,1.687,1.349,1.438,-0.049,0.872,-0.538,-0.854,-0.336,0.580,73.333,30119.000,1.000
-1.223,-1.459,-1.194,-1.048,-1.140,-0.913,-1.198,-1.272,-0.049,0.872,-0.539,-0.732,-0.244,0.549,73.333,30120.000,1.000
1.669,1.450,1.709,1.789,1.704,1.974,1.742,1.524,-0.050,0.870,-0.540,-0.671,-0.183,0.549,73.333,30121.000,1.000
0.538,0.365,0.586,0.547,0.521,0.775,0.628,0.330,-0.049,0.869,-0.541,-0.671,-0.061,0.458,73.333,30122.000,1.000
-9.582,-9.726,-9.519,-9.691,-9.656,-9.460,-9.501,-9.785,-0.050,0.870,-0.544,-0.763,0.092,0.549,73.333,30123.000,1.000
-20.408,-20.565,-20.348,-20.589,-20.551,-20.407,-20.375,-20.553,-0.048,0.870,-0.545,-0.580,0.214,0.580,73.333,30124.000,1.000
-19.538,-19.736,-19.511,-19.712,-19.752,-19.616,-19.585,-19.606,-0.048,0.874,-0.542,-0.671,0.305,0.549,73.333,30125.000,1.000
-5.884,-6.108,-5.895,-5.974,-6.152,-5.971,-6.018,-5.892,-0.048,0.873,-0.541,-0.641,0.336,0.641,73.333,30126.000,1.000
8.937,8.748,8.921,8.977,8.648,8.906,8.744,8.948,-0.047,0.874,-0.540,-0.671,0.397,0.610,73.333,30127.000,1.000
14.603,14.525,14.642,14.777,14.336,14.660,14.404,14.598,-0.046,0.874,-0.541,-0.549,0.580,0.610,73.333,30128.000,1.000
12.631,12.710,12.791,12.926,12.442,12.765,12.491,12.615,-0.047,0.874,-0.543,-0.549,0.610,0.580,73.333,30129.000,1.000
11.285,11.503,11.597,11.683,11.228,11.452,11.255,11.295,-0.050,0.874,-0.542,-0.610,0.732,0.610,73.333,30130.000,1.000
14.140,14.436,14.586,14.621,14.249,14.293,14.244,14.216,-0.050,0.875,-0.541,-0.610,0.702,0.641,73.333,30131.000,1.000
17.378,17.676,17.903,17.902,17.642,17.499,17.608,17.536,-0.051,0.875,-0.540,-0.488,0.763,0.671,73.333,30132.000,1.000
16.972,17.209,17.503,17.475,17.328,17.079,17.294,17.199,-0.053,0.876,-0.541,-0.549,0.702,0.702,73.333,30133.000,1.000
14.290,14.435,14.770,14.703,14.650,14.413,14.657,14.550,-0.051,0.875,-0.541,-0.519,0.732,0.671,73.333,30134.000,1.000
13.390,13.460,13.796,13.671,13.690,13.541,13.763,13.632,-0.051,0.877,-0.541,-0.671,0.824,0.702,73.333,30135.000,1.000
15.491,15.538,15.832,15.649,15.710,15.651,15.843,15.672,-0.050,0.876,-0.540,-0.854,0.946,0.641,73.333,30136.000,1.000
18.016,18.086,18.306,18.096,18.157,18.144,18.326,18.118,-0.051,0.875,-0.540,-0.916,0.946,0.702,73.333,30137.000,1.000
18.168,18.268,18.402,18.212,18.234,18.236,18.421,18.209,-0.051,0.876,-0.538,-1.099,0.885,0.610,73.333,30138.000,1.000
15.657,15.755,15.812,15.684,15.645,15.675,15.845,15.672,-0.051,0.874,-0.539,-1.129,0.824,0.641,73.333,30139.000,1.000
12.142,12.192,12.189,12.142,12.045,12.153,12.246,12.142,-0.052,0.876,-0.536,-1.251,0.793,0.671,73.333,30140.000,1.000
9.505,9.465,9.427,9.435,9.325,9.553,9.496,9.453,-0.050,0.877,-0.533,-1.373,0.671,0.671,73.333,30141.000,1.000
8.656,8.509,8.466,8.469,8.418,8.767,8.526,8.485,-0.051,0.877,-0.536,-1.556,0.488,0.671,73.333,30142.000,1.000
9.027,8.792,8.777,8.725,8.785,9.208,8.816,8.701,-0.052,0.879,-0.533,-1.740,0.580,0.610,73.333,30143.000,1.000
8.877,8.599,8.636,8.528,8.685,9.104,8.666,8.421,-0.050,0.879,-0.537,-1.831,0.488,0.671,73.333,30144.000,1.000
6.910,6.625,6.715,6.585,6.787,7.110,6.768,6.392,-0.051,0.877,-0.536,-2.045,0.519,0.763,73.333,30145.000,1.000
4.101,3.823,3.936,3.828,4.020,4.182,4.035,3.591,-0.051,0.876,-0.534,-2.045,0.397,0.824,73.333,30146.000,1.000
2.898,2.625,2.716,2.666,2.818,2.800,2.851,2.441,-0.052,0.875,-0.534,-2.319,0.427,0.763,73.333,30147.000,1.000
4.068,3.790,3.835,3.855,3.953,3.793,3.975,3.669,-0.051,0.875,-0.533,-2.563,0.305,0.732,73.333,30148.000,1.000
5.211,4.914,4.916,4.992,5.032,4.802,5.043,4.834,-0.051,0.875,-0.530,-2.563,0.244,0.702,73.333,30149.000,1.000
3.603,3.289,3.254,3.354,3.344,3.127,3.376,3.204,-0.052,0.873,-0.532,-2.563,0.061,0.702,73.333,30150.000,1.000
0.154,-0.153,-0.230,-0.146,-0.168,-0.323,-0.088,-0.276,-0.052,0.875,-0.535,-2.655,0.000,0.671,73.333,30151.000,1.000
-1.380,-1.651,-1.765,-1.732,-1.704,-1.803,-1.588,-1.800,-0.053,0.875,-0.534,-2.625,-0.214,0.610,73.333,30152.000,1.000
0.609,0.402,0.282,0.255,0.366,0.290,0.474,0.274,-0.052,0.876,-0.534,-2.655,-0.336,0.641,73.333,30153.000,1.000
3.075,2.952,2.875,2.815,2.964,2.905,3.036,2.899,-0.053,0.875,-0.536,-2.716,-0.366,0.671,73.333,30154.000,1.000
2.108,2.061,2.067,2.027,2.116,2.110,2.159,2.117,-0.052,0.876,-0.532,-2.747,-0.397,0.641,73.333,30155.000,1.000
-1.657,-1.671,-1.580,-1.540,-1.596,-1.507,-1.550,-1.512,-0.052,0.876,-0.532,-2.777,-0.519,0.641,73.333,30156.000,1.000
-3.683,-3.725,-3.585,-3.427,-3.649,-3.468,-3.572,-3.506,-0.051,0.877,-0.532,-2.899,-0.610,0.580,73.333,30157.000,1.000
-1.667,-1.782,-1.641,-1.369,-1.710,-1.496,-1.601,-1.560,-0.051,0.876,-0.536,-2.960,-0.702,0.519,73.333,30158.000,1.000
1.173,0.985,1.079,1.422,1.059,1.218,1.169,1.155,-0.050,0.877,-0.537,-2.991,-0.793,0.519,73.333,30159.000,1.000
0.378,0.161,0.167,0.521,0.253,0.276,0.309,0.241,-0.050,0.874,-0.534,-3.021,-0.885,0.549,73.333,30160.000,1.000
-3.511,-3.690,-3.798,-3.476,-3.565,-3.724,-3.614,-3.713,-0.051,0.875,-0.535,-3.052,-0.854,0.458,73.333,30161.000,1.000
-5.544,-5.629,-5.839,-5.562,-5.463,-5.795,-5.635,-5.727,-0.052,0.876,-0.533,-3.082,-0.977,0.488,73.333,30162.000,1.000
-3.058,-3.026,-3.280,-3.041,-2.828,-3.267,-3.103,-3.135,-0.051,0.878,-0.536,-3.113,-0.946,0.458,73.333,30163.000,1.000
0.654,0.781,0.562,0.766,0.996,0.534,0.652,0.740,-0.052,0.876,-0.531,-3.052,-0.977,0.397,73.333,30164.000,1.000
0.709,0.875,0.756,0.918,1.093,0.677,0.718,0.965,-0.053,0.875,-0.527,-3.143,-1.099,0.366,73.333,30165.000,1.000
-2.834,-2.688,-2.681,-2.566,-2.488,-2.809,-2.839,-2.442,-0.053,0.876,-0.526,-3.021,-1.221,0.336,73.333,30166.000,1.000
-5.344,-5.252,-5.136,-5.061,-5.099,-5.286,-5.357,-4.871,-0.053,0.873,-0.530,-3.174,-1.312,0.397,73.333,30167.000,1.000
-4.148,-4.117,-3.925,-3.888,-4.016,-4.055,-4.140,-3.655,-0.056,0.872,-0.529,-3.113,-1.312,0.183,73.333,30168.000,1.000
-2.128,-2.152,-1.919,-1.936,-2.071,-1.994,-2.080,-1.674,-0.054,0.873,-0.528,-3.052,-1.465,0.122,73.333,30169.000,1.000
-3.527,-3.595,-3.353,-3.455,-3.495,-3.362,-3.448,-3.160,-0.056,0.873,-0.531,-3.052,-1.556,0.122,73.333,30170.000,1.000
-7.793,-7.879,-7.657,-7.863,-7.752,-7.616,-7.710,-7.527,-0.056,0.873,-0.532,-2.960,-1.587,0.122,73.333,30171.000,1.000
-10.207,-10.281,-10.093,-10.385,-10.149,-10.039,-10.153,-10.012,-0.059,0.872,-0.531,-2.838,-1.740,-0.061,73.333,30172.000,1.000
-8.334,-8.377,-8.217,-8.533,-8.270,-8.183,-8.334,-8.143,-0.058,0.872,-0.531,-2.777,-1.801,-0.031,73.333,30173.000,1.000
-5.316,-5.325,-5.170,-5.429,-5.252,-5.165,-5.364,-5.062,-0.056,0.872,-0.530,-2.655,-2.014,-0.092,73.333,30174.000,1.000
-5.550,-5.534,-5.356,-5.494,-5.474,-5.375,-5.609,-5.204,-0.055,0.870,-0.532,-2.716,-2.045,-0.153,73.333,30175.000,1.000
-8.684,-8.663,-8.440,-8.441,-8.566,-8.483,-8.724,-8.271,-0.056,0.868,-0.534,-2.655,-1.923,-0.031,73.333,30176.000,1.000
-10.263,-10.252,-9.988,-9.888,-10.075,-10.055,-10.288,-9.839,-0.054,0.870,-0.532,-2.380,-1.953,-0.061,73.333,30177.000,1.000
-7.863,-7.848,-7.587,-7.455,-7.591,-7.669,-7.895,-7.473,-0.054,0.871,-0.533,-2.197,-2.136,-0.031,73.333,30178.000,1.000
-4.245,-4.212,-4.003,-3.905,-3.914,-4.077,-4.300,-3.918,-0.055,0.872,-0.536,-2.075,-2.136,0.031,73.333,30179.000,1.000
-3.530,-3.486,-3.344,-3.319,-3.199,-3.376,-3.584,-3.271,-0.056,0.871,-0.535,-1.801,-2.045,0.153,73.333,30180.000,1.000
-5.691,-5.672,-5.572,-5.605,-5.430,-5.516,-5.695,-5.480,-0.056,0.871,-0.537,-1.465,-2.014,0.153,73.333,30181.000,1.000
-6.946,-6.992,-6.894,-6.925,-6.812,-6.712,-6.861,-6.751,-0.054,0.873,-0.534,-1.251,-2.106,0.214,73.333,30182.000,1.000
-5.117,-5.240,-5.126,-5.096,-5.131,-4.821,-4.955,-4.924,-0.051,0.873,-0.531,-1.068,-2.136,0.305,73.333,30183.000,1.000
-2.499,-2.664,-2.549,-2.442,-2.633,-2.181,-2.326,-2.310,-0.051,0.875,-0.530,-1.068,-2.014,0.305,73.333,30184.000,1.000
-2.541,-2.683,-2.590,-2.444,-2.738,-2.262,-2.444,-2.363,-0.049,0.875,-0.530,-0.946,-1.984,0.244,73.333,30185.000,1.000
-5.060,-5.117,-5.059,-4.937,-5.261,-4.864,-5.090,-4.898,-0.049,0.877,-0.531,-0.854,-1.770,0.366,73.333,30186.000,1.000
-6.715,-6.655,-6.638,-6.602,-6.883,-6.620,-6.863,-6.579,-0.050,0.876,-0.533,-0.671,-1.678,0.458,73.333,30187.000,1.000
-5.778,-5.609,-5.642,-5.733,-5.906,-5.789,-5.992,-5.691,-0.047,0.875,-0.533,-0.610,-1.526,0.458,73.333,30188.000,1.000
-4.482,-4.258,-4.338,-4.558,-4.585,-4.600,-4.705,-4.480,-0.047,0.872,-0.533,-0.549,-1.434,0.519,73.333,30189.000,1.000
-5.895,-5.699,-5.795,-6.115,-6.002,-6.102,-6.096,-6.008,-0.045,0.869,-0.534,-0.366,-1.343,0.641,73.333,30190.000,1.000
-9.624,-9.535,-9.598,-9.968,-9.760,-9.866,-9.813,-9.847,-0.044,0.868,-0.534,-0.183,-1.099,0.671,73.333,30191.000,1.000
-12.276,-12.344,-12.346,-12.703,-12.455,-12.495,-12.481,-12.569,-0.044,0.869,-0.540,-0.092,-0.854,0.702,73.333,30192.000,1.000
-11.804,-12.037,-11.988,-12.271,-12.027,-11.984,-12.044,-12.116,-0.044,0.867,-0.539,0.092,-0.732,0.732,73.333,30193.000,1.000
-9.818,-10.189,-10.117,-10.290,-10.078,-9.983,-10.089,-10.109,-0.044,0.870,-0.538,0.153,-0.671,0.732,73.333,30194.000,1.000
-9.045,-9.505,-9.428,-9.503,-9.336,-9.232,-9.326,-9.299,-0.041,0.872,-0.541,0.275,-0.519,0.854,73.333,30195.000,1.000
-9.525,-10.017,-9.937,-9.969,-9.850,-9.766,-9.784,-9.759,-0.042,0.875,-0.539,0.427,-0.244,0.824,73.333,30196.000,1.000
-8.831,-9.296,-9.204,-9.267,-9.190,-9.139,-9.020,-9.080,-0.039,0.878,-0.535,0.366,-0.092,0.946,73.333,30197.000,1.000
-5.685,-6.092,-5.976,-6.130,-6.068,-6.059,-5.774,-5.990,-0.038,0.881,-0.537,0.397,0.183,1.068,73.333,30198.000,1.000
-1.933,-2.275,-2.154,-2.396,-2.316,-2.357,-1.926,-2.310,-0.044,0.884,-0.536,0.275,0.336,1.038,73.333,30199.000,1.000
-0.302,-0.573,-0.510,-0.760,-0.659,-0.752,-0.228,-0.734,-0.049,0.886,-0.531,0.183,0.488,1.007,73.333,30200.000,1.000
-0.987,-1.178,-1.225,-1.376,-1.291,-1.431,-0.875,-1.423,-0.056,0.887,-0.534,0.122,0.519,1.068,73.333,30201.000,1.000
-1.756,-1.860,-2.004,-2.002,-1.976,-2.150,-1.611,-2.124,-0.060,0.885,-0.531,-0.122,0.366,0.793,73.333,30202.000,1.000
-1.057,-1.076,-1.231,-1.128,-1.155,-1.355,-0.863,-1.295,-0.064,0.883,-0.533,-0.275,0.366,0.549,73.333,30203.000,1.000
0.246,0.299,0.249,0.310,0.295,0.066,0.514,0.167,-0.066,0.881,-0.531,-0.305,0.122,0.427,73.333,30204.000,1.000
0.514,0.612,0.741,0.617,0.691,0.427,0.853,0.578,-0.067,0.879,-0.533,-0.519,-0.183,0.305,73.333,30205.000,1.000
-0.116,0.001,0.296,-0.072,0.132,-0.163,0.257,0.043,-0.067,0.878,-0.531,-0.549,-0.275,0.153,73.333,30206.000,1.000
0.128,0.251,0.611,0.067,0.382,0.072,0.481,0.313,-0.067,0.878,-0.532,-0.580,-0.641,0.000,73.333,30207.000,1.000
2.267,2.390,2.675,2.114,2.480,2.164,2.550,2.395,-0.065,0.875,-0.535,-0.519,-0.702,-0.122,73.333,30208.000,1.000
5.295,5.412,5.506,5.100,5.445,5.124,5.474,5.285,-0.063,0.874,-0.533,-0.519,-0.854,-0.183,73.333,30209.000,1.000
7.554,7.655,7.525,7.373,7.643,7.340,7.616,7.371,-0.060,0.877,-0.531,-0.549,-1.068,-0.305,73.333,30210.000,1.000
8.835,8.915,8.624,8.710,8.882,8.649,8.804,8.511,-0.056,0.879,-0.530,-0.641,-1.251,-0.427,73.333,30211.000,1.000
10.253,10.333,9.972,10.210,10.277,10.177,10.181,9.868,-0.058,0.878,-0.531,-0.763,-1.373,-0.366,73.333,30212.000,1.000
12.345,12.477,12.106,12.404,12.372,12.433,12.296,11.994,-0.055,0.879,-0.533,-0.854,-1.434,-0.244,73.333,30213.000,1.000
14.128,14.373,14.019,14.314,14.200,14.386,14.163,13.902,-0.052,0.881,-0.531,-0.916,-1.434,-0.153,73.333,30214.000,1.000
14.248,14.622,14.302,14.558,14.401,14.616,14.406,14.174,-0.052,0.879,-0.529,-0.946,-1.404,-0.031,73.333,30215.000,1.000
12.689,13.131,12.869,13.062,12.909,13.051,12.960,12.706,-0.051,0.877,-0.530,-0.916,-1.434,0.061,73.333,30216.000,1.000
10.706,11.110,10.934,11.043,10.932,10.943,11.034,10.702,-0.050,0.877,-0.531,-1.038,-1.434,0.092,73.333,30217.000,1.000
9.307,9.599,9.518,9.526,9.469,9.364,9.624,9.209,-0.049,0.875,-0.529,-1.068,-1.312,0.366,73.333,30218.000,1.000
8.352,8.542,8.522,8.433,8.419,8.267,8.616,8.183,-0.049,0.877,-0.530,-1.068,-1.251,0.519,73.333,30219.000,1.000
7.168,7.339,7.301,7.160,7.161,7.043,7.373,7.030,-0.049,0.876,-0.530,-1.312,-1.312,0.580,73.333,30220.000,1.000
5.663,5.915,5.770,5.650,5.637,5.593,5.830,5.666,-0.050,0.875,-0.529,-1.404,-1.190,0.732,73.333,30221.000,1.000
4.299,4.669,4.387,4.349,4.298,4.312,4.448,4.484,-0.052,0.874,-0.528,-1.434,-1.129,0.793,73.333,30222.000,1.000
3.294,3.727,3.359,3.420,3.333,3.348,3.418,3.622,-0.051,0.877,-0.526,-1.495,-1.099,0.824,73.333,30223.000,1.000
2.357,2.748,2.391,2.527,2.430,2.388,2.428,2.749,-0.051,0.877,-0.530,-1.556,-0.977,0.916,73.333,30224.000,1.000
1.181,1.456,1.183,1.356,1.290,1.160,1.186,1.563,-0.050,0.877,-0.527,-1.587,-0.885,0.916,73.333,30225.000,1.000
0.067,0.234,0.052,0.233,0.230,0.015,0.024,0.401,-0.051,0.878,-0.525,-1.709,-0.885,0.793,73.333,30226.000,1.000
-0.323,-0.187,-0.321,-0.149,-0.079,-0.349,-0.370,-0.035,-0.050,0.880,-0.526,-1.831,-0.824,0.763,73.333,30227.000,1.000
0.272,0.477,0.318,0.486,0.606,0.330,0.261,0.533,-0.048,0.878,-0.527,-1.892,-0.732,0.824,73.333,30228.000,1.000
1.373,1.710,1.462,1.638,1.775,1.538,1.414,1.615,-0.050,0.877,-0.527,-1.953,-0.732,0.824,73.333,30229.000,1.000
2.171,2.626,2.262,2.449,2.584,2.417,2.246,2.387,-0.047,0.876,-0.525,-1.984,-0.641,0.793,73.333,30230.000,1.000
2.299,2.776,2.332,2.515,2.652,2.555,2.373,2.484,-0.045,0.876,-0.526,-2.075,-0.580,0.732,73.333,30231.000,1.000
1.953,2.317,1.878,2.044,2.181,2.133,2.000,2.120,-0.046,0.876,-0.527,-2.075,-0.397,0.641,73.333,30232.000,1.000
1.463,1.607,1.265,1.421,1.524,1.502,1.477,1.628,-0.046,0.876,-0.528,-2.014,-0.244,0.671,73.333,30233.000,1.000
0.934,0.836,0.645,0.806,0.815,0.822,0.921,1.082,-0.044,0.877,-0.531,-1.953,-0.153,0.671,73.333,30234.000,1.000
0.209,-0.067,-0.109,0.048,-0.070,0.004,0.175,0.282,-0.046,0.876,-0.531,-1.892,-0.061,0.549,73.333,30235.000,1.000
-0.791,-1.138,-1.067,-0.953,-1.170,-0.986,-0.840,-0.844,-0.047,0.873,-0.529,-1.801,0.092,0.458,73.333,30236.000,1.000
-1.921,-2.247,-2.106,-2.073,-2.301,-2.010,-1.965,-2.098,-0.046,0.873,-0.530,-1.678,0.153,0.366,73.333,30237.000,1.000
-2.957,-3.215,-3.034,-3.092,-3.243,-2.902,-2.969,-3.194,-0.046,0.872,-0.531,-1.709,0.275,0.244,73.333,30238.000,1.000
-3.757,-3.939,-3.748,-3.871,-3.907,-3.599,-3.726,-3.972,-0.047,0.872,-0.531,-1.648,0.366,0.214,73.333,30239.000,1.000
-4.327,-4.418,-4.269,-4.403,-4.355,-4.144,-4.267,-4.444,-0.047,0.870,-0.533,-1.495,0.366,0.244,73.333,30240.000,1.000
-4.632,-4.588,-4.557,-4.639,-4.576,-4.471,-4.580,-4.605,-0.049,0.870,-0.533,-1.404,0.366,0.183,73.333,30241.000,1.000
-4.616,-4.400,-4.528,-4.528,-4.519,-4.461,-4.608,-4.435,-0.052,0.873,-0.530,-1.373,0.488,-0.031,73.333,30242.000,1.000
-4.299,-3.930,-4.175,-4.120,-4.205,-4.106,-4.346,-4.005,-0.051,0.874,-0.529,-1.190,0.610,0.031,73.333,30243.000,1.000
-3.743,-3.301,-3.555,-3.507,-3.681,-3.494,-3.817,-3.415,-0.052,0.875,-0.531,-1.038,0.549,0.061,73.333,30244.000,1.000
-3.022,-2.591,-2.755,-2.770,-2.981,-2.732,-3.059,-2.734,-0.052,0.874,-0.533,-0.885,0.488,0.092,73.333,30245.000,1.000
-2.106,-1.734,-1.773,-1.872,-2.055,-1.813,-2.049,-1.904,-0.054,0.873,-0.533,-0.732,0.458,0.092,73.333,30246.000,1.000
-0.936,-0.635,-0.574,-0.745,-0.856,-0.687,-0.774,-0.834,-0.051,0.874,-0.531,-0.580,0.397,0.092,73.333,30247.000,1.000
0.488,0.716,0.842,0.634,0.598,0.657,0.713,0.496,-0.053,0.874,-0.536,-0.427,0.427,0.061,73.333,30248.000,1.000
2.072,2.235,2.403,2.197,2.200,2.160,2.294,2.008,-0.053,0.875,-0.532,-0.336,0.366,0.000,73.333,30249.000,1.000
3.539,3.642,3.844,3.674,3.655,3.573,3.698,3.435,-0.054,0.875,-0.531,-0.183,0.305,0.000,73.333,30250.000,1.000
4.570,4.608,4.842,4.735,4.634,4.575,4.625,4.463,-0.056,0.876,-0.534,-0.153,0.397,0.000,73.333,30251.000,1.000
5.027,4.986,5.242,5.223,5.000,5.001,4.950,4.938,-0.058,0.878,-0.534,-0.061,0.214,-0.031,73.333,30252.000,1.000
5.074,4.949,5.186,5.284,4.931,5.003,4.855,4.998,-0.057,0.878,-0.532,0.061,0.214,0.031,73.333,30253.000,1.000
5.064,4.855,5.025,5.246,4.801,4.931,4.710,4.965,-0.057,0.881,-0.530,0.031,0.000,-0.031,73.333,30254.000,1.000
5.191,4.904,4.992,5.300,4.831,4.997,4.743,5.025,-0.057,0.881,-0.529,0.061,-0.031,0.000,73.333,30255.000,1.000
5.448,5.119,5.142,5.465,5.043,5.220,4.981,5.195,-0.057,0.881,-0.532,0.122,-0.183,0.122,73.333,30256.000,1.000
5.722,5.436,5.405,5.672,5.344,5.515,5.323,5.409,-0.056,0.879,-0.532,0.214,-0.305,0.092,73.333,30257.000,1.000
5.936,5.798,5.692,5.877,5.649,5.812,5.682,5.632,-0.057,0.879,-0.535,0.336,-0.366,0.061,73.333,30258.000,1.000
6.126,6.188,5.985,6.124,5.958,6.121,6.056,5.907,-0.057,0.876,-0.533,0.336,-0.366,0.092,73.333,30259.000,1.000
6.331,6.541,6.248,6.428,6.259,6.421,6.409,6.231,-0.056,0.875,-0.532,0.397,-0.549,0.305,73.333,30260.000,1.000
6.580,6.796,6.445,6.757,6.534,6.677,6.684,6.556,-0.057,0.872,-0.534,0.427,-0.671,0.336,73.333,30261.000,1.000
6.836,6.916,6.539,7.023,6.740,6.845,6.818,6.798,-0.058,0.870,-0.532,0.519,-0.732,0.366,73.333,30262.000,1.000
6.985,6.874,6.489,7.096,6.811,6.870,6.751,6.876,-0.056,0.867,-0.533,0.580,-0.763,0.427,73.333,30263.000,1.000
6.907,6.658,6.269,6.891,6.693,6.701,6.461,6.747,-0.056,0.866,-0.534,0.732,-0.916,0.427,73.333,30264.000,1.000
6.495,6.207,5.821,6.350,6.311,6.253,5.916,6.350,-0.054,0.865,-0.532,0.824,-0.885,0.488,73.333,30265.000,1.000
5.745,5.492,5.123,5.503,5.644,5.516,5.139,5.652,-0.052,0.867,-0.538,1.129,-0.946,0.458,73.333,30266.000,1.000
4.708,4.510,4.172,4.407,4.702,4.538,4.172,4.654,-0.049,0.868,-0.537,1.221,-1.038,0.641,73.333,30267.000,1.000
3.482,3.313,3.022,3.161,3.535,3.410,3.086,3.438,-0.046,0.869,-0.537,1.373,-0.916,0.580,73.333,30268.000,1.000
2.291,2.086,1.869,1.988,2.323,2.315,2.056,2.239,-0.045,0.869,-0.536,1.373,-0.854,0.702,73.333,30269.000,1.000
1.362,1.063,0.950,1.112,1.290,1.435,1.259,1.301,-0.045,0.869,-0.535,1.404,-0.702,0.824,73.333,30270.000,1.000
0.837,0.448,0.445,0.665,0.626,0.903,0.812,0.777,-0.049,0.872,-0.535,1.495,-0.641,0.916,73.333,30271.000,1.000
0.645,0.242,0.326,0.556,0.328,0.657,0.639,0.601,-0.055,0.873,-0.533,1.495,-0.549,0.916,73.333,30272.000,1.000
0.519,0.198,0.331,0.483,0.172,0.442,0.476,0.488,-0.057,0.871,-0.533,1.404,-0.702,0.763,73.333,30273.000,1.000
0.170,-0.022,0.134,0.115,-0.131,-0.014,0.042,0.121,-0.058,0.870,-0.536,1.373,-0.854,0.702,73.333,30274.000,1.000
-0.621,-0.707,-0.526,-0.759,-0.821,-0.906,-0.845,-0.712,-0.057,0.871,-0.536,1.373,-0.854,0.641,73.333,30275.000,1.000
-1.785,-1.827,-1.591,-2.008,-1.860,-2.152,-2.052,-1.898,-0.055,0.871,-0.535,1.282,-1.007,0.610,73.333,30276.000,1.000
-2.941,-2.983,-2.664,-3.181,-2.899,-3.362,-3.145,-3.014,-0.055,0.873,-0.538,1.312,-1.068,0.519,73.333,30277.000,1.000
-3.610,-3.662,-3.259,-3.789,-3.502,-4.040,-3.656,-3.600,-0.054,0.873,-0.537,1.221,-1.038,0.366,73.333,30278.000,1.000
-3.477,-3.529,-3.076,-3.557,-3.376,-3.856,-3.349,-3.397,-0.052,0.873,-0.538,1.190,-1.129,0.397,73.333,30279.000,1.000
-2.598,-2.633,-2.185,-2.581,-2.558,-2.870,-2.366,-2.513,-0.051,0.874,-0.539,1.160,-1.099,0.244,73.333,30280.000,1.000
-1.304,-1.305,-0.920,-1.219,-1.328,-1.451,-1.078,-1.291,-0.049,0.874,-0.536,0.946,-1.129,0.214,73.333,30281.000,1.000
-0.043,-0.015,0.279,0.057,-0.092,-0.098,0.084,-0.145,-0.052,0.876,-0.537,0.885,-0.977,0.183,73.333,30282.000,1.000
0.858,0.874,1.089,0.904,0.821,0.840,0.851,0.652,-0.050,0.877,-0.534,0.824,-1.007,0.183,73.333,30283.000,1.000
1.368,1.333,1.500,1.305,1.364,1.358,1.270,1.118,-0.050,0.878,-0.539,0.671,-0.946,0.214,73.333,30284.000,1.000
1.593,1.514,1.666,1.424,1.641,1.616,1.515,1.390,-0.049,0.878,-0.539,0.610,-0.946,0.305,73.333,30285.000,1.000
1.596,1.518,1.687,1.385,1.724,1.710,1.650,1.531,-0.046,0.877,-0.541,0.519,-0.916,0.336,73.333,30286.000,1.000
1.253,1.220,1.434,1.080,1.487,1.501,1.479,1.390,-0.047,0.878,-0.543,0.366,-0.824,0.336,73.333,30287.000,1.000
0.389,0.407,0.678,0.292,0.719,0.757,0.723,0.731,-0.048,0.880,-0.544,0.183,-0.763,0.397,73.333,30288.000,1.000
-0.966,-0.927,-0.598,-0.999,-0.585,-0.536,-0.636,-0.473,-0.047,0.879,-0.539,0.031,-0.732,0.427,73.333,30289.000,1.000
-2.577,-2.558,-2.189,-2.589,-2.204,-2.152,-2.345,-2.029,-0.046,0.877,-0.544,0.061,-0.641,0.427,73.333,30290.000,1.000
-4.071,-4.083,-3.716,-4.098,-3.749,-3.691,-3.969,-3.564,-0.048,0.877,-0.542,0.031,-0.580,0.458,73.333,30291.000,1.000
-5.161,-5.188,-4.859,-5.205,-4.915,-4.840,-5.166,-4.764,-0.047,0.877,-0.544,-0.092,-0.488,0.488,73.333,30292.000,1.000
-5.861,-5.880,-5.593,-5.890,-5.696,-5.584,-5.919,-5.597,-0.046,0.878,-0.541,-0.122,-0.366,0.488,73.333,30293.000,1.000
-6.374,-6.367,-6.102,-6.354,-6.262,-6.105,-6.432,-6.219,-0.048,0.880,-0.543,-0.275,-0.305,0.549,73.333,30294.000,1.000
-6.823,-6.786,-6.526,-6.744,-6.708,-6.530,-6.839,-6.735,-0.047,0.879,-0.540,-0.397,-0.214,0.549,73.333,30295.000,1.000
-7.023,-6.986,-6.725,-6.915,-6.867,-6.716,-6.982,-6.989,-0.047,0.875,-0.539,-0.488,-0.092,0.519,73.333,30296.000,1.000
-6.768,-6.780,-6.517,-6.678,-6.571,-6.487,-6.680,-6.802,-0.049,0.877,-0.539,-0.519,-0.153,0.610,73.333,30297.000,1.000
-6.236,-6.330,-6.071,-6.191,-6.021,-6.015,-6.133,-6.342,-0.049,0.876,-0.540,-0.549,-0.061,0.580,73.333,30298.000,1.000
-5.924,-6.087,-5.836,-5.902,-5.703,-5.772,-5.835,-6.063,-0.049,0.875,-0.536,-0.671,0.061,0.458,73.333,30299.000,1.000
