EEG 1,EEG 2,EEG 3,EEG 4,EEG 5,EEG 6,EEG 7,EEG 8,Accelerometer X,Accelerometer Y,Accelerometer Z,Gyroscope X,Gyroscope Y,Gyroscope Z,Battery Level,Counter,Validation Indicator
1.126,1.340,1.031,0.704,1.319,1.012,1.185,1.029,-0.055,0.875,-0.532,-0.824,-0.519,0.427,73.333,13561.000,1.000
1.537,1.706,1.380,1.060,1.702,1.440,1.468,1.328,-0.058,0.875,-0.532,-0.885,-0.580,0.488,73.333,13562.000,1.000
1.857,1.960,1.638,1.390,1.972,1.748,1.646,1.618,-0.058,0.875,-0.532,-0.885,-0.519,0.397,73.333,13563.000,1.000
2.018,2.020,1.763,1.614,2.051,1.863,1.676,1.802,-0.060,0.875,-0.534,-0.824,-0.488,0.336,73.333,13564.000,1.000
2.126,1.993,1.881,1.808,2.055,1.902,1.671,1.944,-0.061,0.876,-0.535,-0.854,-0.519,0.275,73.333,13565.000,1.000
2.354,2.092,2.174,2.115,2.199,2.062,1.810,2.190,-0.061,0.876,-0.533,-0.824,-0.549,0.214,73.333,13566.000,1.000
2.758,2.430,2.702,2.575,2.597,2.433,2.164,2.605,-0.062,0.876,-0.535,-0.916,-0.641,0.153,73.333,13567.000,1.000
3.214,2.906,3.330,3.070,3.157,2.906,2.629,3.088,-0.063,0.875,-0.534,-1.038,-0.610,0.092,73.333,13568.000,1.000
3.524,3.295,3.815,3.408,3.644,3.272,3.008,3.446,-0.060,0.874,-0.534,-1.038,-0.641,0.092,73.333,13569.000,1.000
3.541,3.413,3.963,3.467,3.835,3.371,3.143,3.525,-0.060,0.875,-0.537,-0.946,-0.671,0.092,73.333,13570.000,1.000
3.316,3.283,3.785,3.319,3.706,3.234,3.052,3.357,-0.063,0.877,-0.535,-0.885,-0.824,0.031,73.333,13571.000,1.000
3.029,3.056,3.447,3.129,3.400,3.008,2.877,3.092,-0.061,0.875,-0.536,-0.885,-0.854,-0.031,73.333,13572.000,1.000
2.817,2.841,3.097,2.978,3.060,2.799,2.725,2.849,-0.059,0.873,-0.537,-0.946,-0.885,0.061,73.333,13573.000,1.000
2.714,2.664,2.810,2.854,2.774,2.630,2.626,2.661,-0.059,0.874,-0.538,-0.946,-0.854,0.092,73.333,13574.000,1.000
2.661,2.484,2.572,2.698,2.547,2.474,2.531,2.487,-0.058,0.874,-0.539,-0.916,-0.854,0.061,73.333,13575.000,1.000
2.598,2.286,2.365,2.499,2.355,2.328,2.398,2.295,-0.058,0.872,-0.536,-0.885,-0.854,0.153,73.333,13576.000,1.000
2.489,2.072,2.192,2.288,2.171,2.199,2.209,2.096,-0.058,0.873,-0.536,-0.885,-0.916,0.183,73.333,13577.000,1.000
2.264,1.802,2.013,2.046,1.930,2.024,1.920,1.868,-0.056,0.872,-0.533,-0.824,-0.793,0.305,73.333,13578.000,1.000
1.827,1.383,1.716,1.670,1.543,1.681,1.455,1.513,-0.057,0.873,-0.534,-0.763,-0.885,0.336,73.333,13579.000,1.000
1.103,0.703,1.135,1.018,0.908,1.052,0.733,0.894,-0.056,0.873,-0.535,-0.854,-0.885,0.397,73.333,13580.000,1.000
0.111,-0.266,0.187,0.039,-0.003,0.123,-0.253,-0.045,-0.055,0.874,-0.532,-0.824,-0.854,0.549,73.333,13581.000,1.000
-1.042,-1.428,-1.061,-1.179,-1.123,-1.011,-1.412,-1.221,-0.056,0.872,-0.531,-0.854,-0.702,0.610,73.333,13582.000,1.000
-2.193,-2.579,-2.398,-2.437,-2.295,-2.179,-2.566,-2.442,-0.055,0.872,-0.535,-0.824,-0.702,0.671,73.333,13583.000,1.000
-3.176,-3.497,-3.556,-3.509,-3.327,-3.188,-3.515,-3.471,-0.055,0.875,-0.535,-0.793,-0.610,0.641,73.333,13584.000,1.000
-3.917,-4.095,-4.354,-4.267,-4.102,-3.931,-4.151,-4.164,-0.057,0.875,-0.535,-0.793,-0.549,0.793,73.333,13585.000,1.000
-4.390,-4.381,-4.704,-4.660,-4.558,-4.353,-4.440,-4.469,-0.053,0.875,-0.533,-0.793,-0.366,0.824,73.333,13586.000,1.000
-4.549,-4.361,-4.586,-4.653,-4.636,-4.403,-4.363,-4.392,-0.053,0.874,-0.536,-0.824,-0.427,0.793,73.333,13587.000,1.000
-4.346,-4.035,-4.062,-4.255,-4.313,-4.064,-3.939,-3.984,-0.056,0.876,-0.537,-0.854,-0.397,0.763,73.333,13588.000,1.000
-3.800,-3.449,-3.279,-3.555,-3.653,-3.401,-3.262,-3.334,-0.053,0.876,-0.534,-0.916,-0.336,0.854,73.333,13589.000,1.000
-3.038,-2.730,-2.441,-2.733,-2.826,-2.572,-2.503,-2.580,-0.056,0.875,-0.533,-1.038,-0.244,0.793,73.333,13590.000,1.000
-2.218,-2.013,-1.709,-1.952,-1.993,-1.744,-1.803,-1.847,-0.056,0.876,-0.533,-1.068,-0.122,0.824,73.333,13591.000,1.000
-1.513,-1.427,-1.211,-1.344,-1.307,-1.079,-1.270,-1.275,-0.057,0.875,-0.535,-1.099,-0.183,0.824,73.333,13592.000,1.000
-1.103,-1.098,-1.061,-1.030,-0.929,-0.741,-1.019,-1.005,-0.055,0.874,-0.535,-0.977,-0.153,0.885,73.333,13593.000,1.000
-1.072,-1.079,-1.266,-1.050,-0.934,-0.786,-1.081,-1.080,-0.056,0.874,-0.535,-0.946,-0.122,0.793,73.333,13594.000,1.000
-1.351,-1.317,-1.702,-1.329,-1.268,-1.133,-1.375,-1.405,-0.055,0.876,-0.535,-1.068,-0.092,0.824,73.333,13595.000,1.000
-1.738,-1.670,-2.156,-1.695,-1.750,-1.596,-1.731,-1.785,-0.054,0.875,-0.536,-1.129,-0.031,0.763,73.333,13596.000,1.000
-2.024,-1.978,-2.444,-1.978,-2.169,-1.984,-1.989,-2.037,-0.055,0.873,-0.537,-1.099,-0.092,0.702,73.333,13597.000,1.000
-2.123,-2.149,-2.508,-2.103,-2.401,-2.199,-2.085,-2.098,-0.057,0.873,-0.533,-1.099,0.031,0.671,73.333,13598.000,1.000
-2.089,-2.173,-2.409,-2.094,-2.437,-2.248,-2.053,-2.030,-0.056,0.875,-0.535,-1.129,0.000,0.610,73.333,13599.000,1.000
-2.046,-2.104,-2.261,-2.036,-2.350,-2.202,-1.992,-1.950,-0.056,0.875,-0.534,-1.160,0.092,0.610,73.333,13600.000,1.000
-2.014,-1.947,-2.075,-1.944,-2.158,-2.075,-1.935,-1.878,-0.057,0.875,-0.536,-1.221,0.061,0.580,73.333,13601.000,1.000
-1.873,-1.636,-1.763,-1.738,-1.806,-1.790,-1.791,-1.712,-0.056,0.875,-0.533,-1.160,0.061,0.458,73.333,13602.000,1.000
-1.458,-1.100,-1.228,-1.295,-1.231,-1.253,-1.398,-1.316,-0.056,0.875,-0.534,-1.160,0.153,0.549,73.333,13603.000,1.000
-0.669,-0.320,-0.436,-0.533,-0.418,-0.421,-0.643,-0.611,-0.056,0.875,-0.532,-1.160,0.061,0.671,73.333,13604.000,1.000
0.399,0.597,0.520,0.460,0.527,0.598,0.401,0.322,-0.056,0.876,-0.535,-1.160,0.061,0.458,73.333,13605.000,1.000
1.526,1.507,1.493,1.495,1.467,1.621,1.533,1.329,-0.057,0.876,-0.532,-1.099,0.092,0.519,73.333,13606.000,1.000
2.520,2.338,2.383,2.425,2.324,2.518,2.562,2.291,-0.058,0.874,-0.536,-1.099,0.061,0.488,73.333,13607.000,1.000
3.279,3.067,3.125,3.180,3.057,3.227,3.360,3.121,-0.059,0.875,-0.537,-1.160,0.122,0.458,73.333,13608.000,1.000
3.755,3.641,3.656,3.721,3.601,3.722,3.858,3.727,-0.057,0.876,-0.537,-1.129,0.031,0.519,73.333,13609.000,1.000
3.877,3.927,3.858,3.956,3.830,3.928,3.998,3.975,-0.058,0.876,-0.536,-1.129,-0.031,0.458,73.333,13610.000,1.000
3.569,3.781,3.618,3.773,3.625,3.744,3.729,3.748,-0.057,0.873,-0.537,-1.160,-0.031,0.427,73.333,13611.000,1.000
2.797,3.126,2.900,3.105,2.938,3.097,3.025,3.012,-0.058,0.872,-0.534,-1.129,-0.061,0.519,73.333,13612.000,1.000
1.654,2.033,1.807,2.001,1.862,2.035,1.950,1.872,-0.056,0.871,-0.531,-1.099,-0.092,0.549,73.333,13613.000,1.000
0.387,0.752,0.584,0.681,0.631,0.762,0.716,0.577,-0.055,0.872,-0.534,-1.038,-0.031,0.610,73.333,13614.000,1.000
-0.748,-0.426,-0.524,-0.567,-0.516,-0.474,-0.423,-0.615,-0.055,0.873,-0.534,-0.885,-0.061,0.702,73.333,13615.000,1.000
-1.527,-1.236,-1.302,-1.457,-1.356,-1.417,-1.218,-1.465,-0.055,0.873,-0.534,-0.977,-0.031,0.641,73.333,13616.000,1.000
-1.763,-1.474,-1.562,-1.758,-1.682,-1.818,-1.465,-1.771,-0.053,0.874,-0.533,-0.885,0.000,0.549,73.333,13617.000,1.000
-1.390,-1.088,-1.238,-1.397,-1.397,-1.553,-1.101,-1.447,-0.053,0.874,-0.536,-0.916,0.031,0.488,73.333,13618.000,1.000
-0.542,-0.225,-0.448,-0.519,-0.596,-0.719,-0.272,-0.598,-0.054,0.873,-0.534,-0.977,-0.061,0.519,73.333,13619.000,1.000
0.471,0.797,0.525,0.542,0.436,0.358,0.694,0.474,-0.055,0.874,-0.536,-0.946,-0.061,0.610,73.333,13620.000,1.000
1.338,1.663,1.379,1.433,1.357,1.297,1.471,1.430,-0.055,0.874,-0.535,-0.946,-0.092,0.641,73.333,13621.000,1.000
1.848,2.147,1.881,1.910,1.892,1.818,1.863,2.017,-0.055,0.877,-0.533,-0.916,0.000,0.641,73.333,13622.000,1.000
1.868,2.105,1.876,1.854,1.875,1.770,1.789,2.077,-0.054,0.873,-0.534,-0.824,-0.092,0.641,73.333,13623.000,1.000
1.372,1.517,1.334,1.290,1.311,1.152,1.281,1.589,-0.055,0.874,-0.532,-0.854,-0.061,0.671,73.333,13624.000,1.000
0.517,0.554,0.415,0.412,0.397,0.146,0.501,0.721,-0.054,0.874,-0.534,-0.793,-0.122,0.580,73.333,13625.000,1.000
-0.360,-0.433,-0.542,-0.452,-0.513,-0.877,-0.270,-0.198,-0.053,0.875,-0.539,-0.885,-0.122,0.488,73.333,13626.000,1.000
-0.964,-1.128,-1.236,-1.044,-1.140,-1.569,-0.809,-0.894,-0.054,0.874,-0.536,-0.854,-0.122,0.549,73.333,13627.000,1.000
-1.221,-1.431,-1.552,-1.309,-1.421,-1.808,-1.061,-1.276,-0.056,0.873,-0.536,-0.793,-0.153,0.580,73.333,13628.000,1.000
-1.215,-1.429,-1.538,-1.324,-1.441,-1.695,-1.089,-1.382,-0.056,0.875,-0.536,-0.732,-0.244,0.458,73.333,13629.000,1.000
-1.172,-1.354,-1.411,-1.281,-1.402,-1.508,-1.070,-1.387,-0.057,0.873,-0.535,-0.854,-0.275,0.458,73.333,13630.000,1.000
-1.325,-1.433,-1.434,-1.374,-1.500,-1.525,-1.204,-1.499,-0.057,0.874,-0.538,-0.824,-0.305,0.397,73.333,13631.000,1.000
-1.715,-1.699,-1.694,-1.636,-1.756,-1.797,-1.538,-1.777,-0.057,0.874,-0.535,-0.854,-0.366,0.305,73.333,13632.000,1.000
-2.125,-1.953,-2.020,-1.888,-1.982,-2.109,-1.901,-2.050,-0.056,0.873,-0.536,-0.854,-0.336,0.244,73.333,13633.000,1.000
-2.208,-1.893,-2.092,-1.849,-1.897,-2.117,-1.994,-2.026,-0.056,0.873,-0.535,-0.885,-0.336,0.275,73.333,13634.000,1.000
-1.740,-1.345,-1.677,-1.348,-1.332,-1.603,-1.612,-1.511,-0.056,0.872,-0.533,-0.854,-0.336,0.183,73.333,13635.000,1.000
-0.753,-0.378,-0.767,-0.424,-0.342,-0.611,-0.763,-0.547,-0.056,0.871,-0.534,-0.946,-0.366,0.214,73.333,13636.000,1.000
0.449,0.709,0.381,0.659,0.796,0.558,0.305,0.586,-0.055,0.868,-0.533,-0.793,-0.427,0.366,73.333,13637.000,1.000
1.484,1.577,1.407,1.555,1.739,1.537,1.249,1.531,-0.054,0.870,-0.536,-0.854,-0.366,0.244,73.333,13638.000,1.000
2.130,2.074,2.085,2.082,2.298,2.138,1.860,2.090,-0.052,0.871,-0.535,-0.885,-0.305,0.305,73.333,13639.000,1.000
2.339,2.203,2.338,2.233,2.431,2.336,2.081,2.224,-0.053,0.870,-0.538,-0.793,-0.305,0.427,73.333,13640.000,1.000
2.172,2.022,2.193,2.085,2.187,2.191,1.956,1.998,-0.052,0.872,-0.540,-0.702,-0.244,0.427,73.333,13641.000,1.000
1.790,1.656,1.790,1.774,1.730,1.826,1.637,1.584,-0.054,0.875,-0.537,-0.671,-0.336,0.488,73.333,13642.000,1.000
1.444,1.320,1.382,1.506,1.325,1.460,1.368,1.243,-0.053,0.876,-0.536,-0.671,-0.275,0.427,73.333,13643.000,1.000
1.391,1.255,1.249,1.494,1.245,1.345,1.390,1.228,-0.055,0.876,-0.536,-0.732,-0.336,0.488,73.333,13644.000,1.000
1.683,1.524,1.484,1.780,1.559,1.562,1.733,1.585,-0.056,0.874,-0.533,-0.854,-0.336,0.427,73.333,13645.000,1.000
2.165,1.980,1.959,2.227,2.100,1.992,2.228,2.147,-0.057,0.873,-0.532,-0.854,-0.305,0.366,73.333,13646.000,1.000
2.625,2.420,2.458,2.657,2.621,2.439,2.667,2.683,-0.059,0.874,-0.533,-0.977,-0.427,0.397,73.333,13647.000,1.000
2.912,2.698,2.795,2.928,2.928,2.747,2.906,3.012,-0.061,0.875,-0.531,-1.129,-0.366,0.336,73.333,13648.000,1.000
2.946,2.738,2.872,2.944,2.935,2.822,2.864,3.032,-0.059,0.874,-0.532,-1.221,-0.397,0.366,73.333,13649.000,1.000
2.663,2.484,2.639,2.633,2.610,2.597,2.495,2.690,-0.054,0.875,-0.538,-1.190,-0.488,0.366,73.333,13650.000,1.000
2.070,1.936,2.118,2.018,1.991,2.069,1.831,2.028,-0.051,0.873,-0.540,-1.099,-0.427,0.488,73.333,13651.000,1.000
1.235,1.151,1.367,1.195,1.156,1.296,0.962,1.160,-0.049,0.871,-0.538,-1.160,-0.366,0.427,73.333,13652.000,1.000
0.246,0.215,0.462,0.272,0.195,0.363,-0.015,0.200,-0.047,0.871,-0.533,-1.068,-0.305,0.549,73.333,13653.000,1.000
-0.724,-0.698,-0.433,-0.599,-0.729,-0.560,-0.937,-0.690,-0.047,0.871,-0.535,-0.916,-0.214,0.702,73.333,13654.000,1.000
-1.458,-1.378,-1.114,-1.264,-1.417,-1.267,-1.619,-1.345,-0.049,0.868,-0.537,-0.946,-0.061,0.702,73.333,13655.000,1.000
-1.817,-1.704,-1.472,-1.640,-1.754,-1.636,-1.955,-1.682,-0.050,0.868,-0.536,-0.885,-0.031,0.702,73.333,13656.000,1.000
-1.860,-1.757,-1.580,-1.772,-1.815,-1.729,-2.010,-1.779,-0.051,0.873,-0.535,-0.977,0.061,0.763,73.333,13657.000,1.000
-1.806,-1.766,-1.622,-1.810,-1.808,-1.739,-1.977,-1.821,-0.051,0.876,-0.534,-0.977,0.061,0.793,73.333,13658.000,1.000
-1.807,-1.868,-1.690,-1.855,-1.851,-1.775,-1.972,-1.908,-0.050,0.879,-0.534,-1.129,0.092,0.671,73.333,13659.000,1.000
-1.807,-1.961,-1.689,-1.852,-1.857,-1.742,-1.920,-1.948,-0.052,0.881,-0.540,-1.099,0.214,0.702,73.333,13660.000,1.000
-1.568,-1.762,-1.396,-1.603,-1.582,-1.404,-1.597,-1.700,-0.054,0.881,-0.537,-1.282,0.244,0.671,73.333,13661.000,1.000
-0.883,-1.057,-0.645,-0.931,-0.842,-0.617,-0.835,-0.977,-0.059,0.879,-0.534,-1.404,0.183,0.580,73.333,13662.000,1.000
0.241,0.116,0.517,0.151,0.319,0.532,0.316,0.183,-0.064,0.880,-0.537,-1.312,0.061,0.580,73.333,13663.000,1.000
1.536,1.439,1.796,1.382,1.600,1.732,1.568,1.485,-0.067,0.879,-0.535,-1.312,-0.153,0.519,73.333,13664.000,1.000
2.467,2.355,2.648,2.247,2.459,2.479,2.405,2.385,-0.068,0.877,-0.537,-1.373,-0.427,0.397,73.333,13665.000,1.000
2.440,2.285,2.506,2.167,2.334,2.255,2.279,2.312,-0.069,0.876,-0.537,-1.465,-0.610,0.183,73.333,13666.000,1.000
1.109,0.919,1.072,0.801,0.932,0.792,0.891,0.954,-0.069,0.876,-0.542,-1.465,-0.854,0.031,73.333,13667.000,1.000
-1.384,-1.573,-1.482,-1.706,-1.572,-1.729,-1.591,-1.525,-0.067,0.876,-0.537,-1.465,-1.038,-0.183,73.333,13668.000,1.000
-4.345,-4.478,-4.461,-4.657,-4.486,-4.618,-4.481,-4.430,-0.065,0.875,-0.538,-1.465,-1.251,-0.214,73.333,13669.000,1.000
-6.792,-6.834,-6.916,-7.078,-6.865,-6.942,-6.847,-6.805,-0.062,0.876,-0.537,-1.434,-1.343,-0.275,73.333,13670.000,1.000
-7.901,-7.861,-8.049,-8.159,-7.915,-7.922,-7.915,-7.860,-0.060,0.875,-0.535,-1.495,-1.465,-0.275,73.333,13671.000,1.000
-7.390,-7.311,-7.563,-7.623,-7.358,-7.293,-7.418,-7.322,-0.059,0.875,-0.534,-1.465,-1.526,-0.397,73.333,13672.000,1.000
-5.579,-5.513,-5.744,-5.785,-5.510,-5.383,-5.658,-5.508,-0.057,0.876,-0.536,-1.495,-1.678,-0.427,73.333,13673.000,1.000
-3.111,-3.088,-3.223,-3.269,-3.021,-2.852,-3.241,-3.063,-0.054,0.878,-0.536,-1.343,-1.648,-0.275,73.333,13674.000,1.000
-0.679,-0.701,-0.718,-0.756,-0.599,-0.411,-0.824,-0.687,-0.054,0.878,-0.533,-1.404,-1.648,-0.153,73.333,13675.000,1.000
1.188,1.140,1.208,1.217,1.225,1.412,1.081,1.104,-0.053,0.876,-0.535,-1.465,-1.617,0.000,73.333,13676.000,1.000
2.248,2.188,2.279,2.357,2.213,2.399,2.211,2.086,-0.054,0.876,-0.534,-1.556,-1.556,0.153,73.333,13677.000,1.000
2.501,2.430,2.485,2.612,2.380,2.585,2.525,2.288,-0.052,0.875,-0.533,-1.617,-1.404,0.244,73.333,13678.000,1.000
2.095,2.007,1.999,2.120,1.912,2.138,2.145,1.897,-0.054,0.876,-0.534,-1.526,-1.434,0.275,73.333,13679.000,1.000
1.247,1.131,1.073,1.141,1.056,1.264,1.283,1.149,-0.054,0.873,-0.533,-1.465,-1.526,0.397,73.333,13680.000,1.000
0.300,0.146,0.071,0.079,0.156,0.281,0.296,0.354,-0.054,0.872,-0.532,-1.434,-1.404,0.488,73.333,13681.000,1.000
-0.331,-0.508,-0.577,-0.592,-0.392,-0.396,-0.377,-0.132,-0.054,0.873,-0.532,-1.343,-1.312,0.580,73.333,13682.000,1.000
-0.436,-0.596,-0.651,-0.629,-0.404,-0.533,-0.506,-0.148,-0.055,0.874,-0.530,-1.373,-1.282,0.641,73.333,13683.000,1.000
-0.205,-0.311,-0.344,-0.227,-0.103,-0.289,-0.252,0.107,-0.055,0.872,-0.533,-1.312,-1.282,0.793,73.333,13684.000,1.000
-0.097,-0.126,-0.138,0.108,0.032,-0.119,-0.055,0.194,-0.055,0.871,-0.532,-1.373,-1.160,0.824,73.333,13685.000,1.000
-0.410,-0.348,-0.353,0.003,-0.290,-0.352,-0.224,-0.153,-0.053,0.870,-0.531,-1.343,-1.099,0.793,73.333,13686.000,1.000
-1.093,-0.927,-0.938,-0.542,-0.989,-0.973,-0.750,-0.856,-0.053,0.870,-0.531,-1.282,-0.946,0.793,73.333,13687.000,1.000
-1.925,-1.670,-1.673,-1.321,-1.823,-1.788,-1.477,-1.696,-0.054,0.870,-0.534,-1.221,-0.977,0.793,73.333,13688.000,1.000
-2.682,-2.406,-2.367,-2.112,-2.575,-2.587,-2.232,-2.475,-0.053,0.870,-0.535,-1.160,-0.885,0.702,73.333,13689.000,1.000
-3.200,-3.004,-2.897,-2.746,-3.104,-3.188,-2.853,-3.054,-0.052,0.870,-0.532,-1.221,-0.824,0.702,73.333,13690.000,1.000
-3.335,-3.294,-3.124,-3.055,-3.284,-3.401,-3.150,-3.289,-0.050,0.868,-0.529,-1.190,-0.702,0.702,73.333,13691.000,1.000
-2.998,-3.112,-2.928,-2.904,-3.023,-3.102,-2.965,-3.058,-0.052,0.868,-0.529,-1.190,-0.641,0.519,73.333,13692.000,1.000
-2.289,-2.476,-2.357,-2.340,-2.397,-2.390,-2.353,-2.414,-0.051,0.869,-0.530,-1.129,-0.458,0.397,73.333,13693.000,1.000
-1.515,-1.646,-1.674,-1.642,-1.679,-1.591,-1.619,-1.638,-0.053,0.869,-0.528,-1.190,-0.336,0.397,73.333,13694.000,1.000
-1.006,-0.966,-1.177,-1.138,-1.164,-1.039,-1.119,-1.066,-0.053,0.870,-0.530,-1.099,-0.244,0.397,73.333,13695.000,1.000
-0.723,-0.479,-0.833,-0.808,-0.809,-0.693,-0.834,-0.692,-0.052,0.872,-0.531,-1.068,-0.183,0.275,73.333,13696.000,1.000
-0.279,0.096,-0.289,-0.295,-0.253,-0.170,-0.375,-0.169,-0.052,0.873,-0.531,-1.068,-0.122,0.122,73.333,13697.000,1.000
0.459,0.831,0.554,0.505,0.597,0.641,0.406,0.598,-0.052,0.872,-0.533,-1.007,-0.122,0.092,73.333,13698.000,1.000
0.975,1.238,1.158,1.057,1.197,1.208,0.995,1.073,-0.052,0.873,-0.533,-1.038,0.031,0.031,73.333,13699.000,1.000
0.626,0.744,0.859,0.720,0.896,0.881,0.723,0.623,-0.052,0.875,-0.535,-0.946,0.061,-0.092,73.333,13700.000,1.000
-0.266,-0.276,-0.041,-0.175,0.014,-0.012,-0.125,-0.411,-0.055,0.876,-0.534,-0.946,0.092,-0.183,73.333,13701.000,1.000
-0.358,-0.449,-0.196,-0.280,-0.099,-0.110,-0.218,-0.648,-0.054,0.881,-0.539,-0.977,0.183,-0.183,73.333,13702.000,1.000
1.199,1.087,1.277,1.257,1.419,1.453,1.313,0.818,-0.056,0.880,-0.537,-1.038,0.061,-0.183,73.333,13703.000,1.000
3.484,3.406,3.503,3.527,3.664,3.760,3.572,3.111,-0.055,0.881,-0.535,-1.160,0.153,-0.214,73.333,13704.000,1.000
4.642,4.636,4.655,4.693,4.792,4.942,4.724,4.379,-0.057,0.882,-0.533,-1.251,0.092,-0.275,73.333,13705.000,1.000
4.138,4.208,4.178,4.200,4.251,4.425,4.227,4.018,-0.059,0.882,-0.534,-1.221,0.061,-0.275,73.333,13706.000,1.000
3.448,3.546,3.482,3.461,3.464,3.644,3.512,3.395,-0.060,0.882,-0.532,-1.312,0.061,-0.244,73.333,13707.000,1.000
4.128,4.172,4.074,3.999,3.974,4.158,4.110,4.005,-0.060,0.880,-0.535,-1.373,-0.061,-0.183,73.333,13708.000,1.000
5.853,5.784,5.667,5.553,5.520,5.707,5.743,5.578,-0.060,0.879,-0.534,-1.373,-0.122,-0.183,73.333,13709.000,1.000
6.958,6.780,6.698,6.576,6.524,6.688,6.826,6.576,-0.059,0.880,-0.534,-1.465,-0.183,-0.214,73.333,13710.000,1.000
6.671,6.452,6.476,6.363,6.250,6.347,6.632,6.335,-0.059,0.880,-0.533,-1.495,-0.305,-0.092,73.333,13711.000,1.000
5.940,5.778,5.946,5.839,5.625,5.619,6.083,5.811,-0.059,0.881,-0.531,-1.434,-0.336,-0.061,73.333,13712.000,1.000
5.864,5.828,6.112,5.998,5.691,5.578,6.187,5.996,-0.060,0.879,-0.531,-1.404,-0.458,0.092,73.333,13713.000,1.000
6.055,6.147,6.467,6.331,5.997,5.811,6.456,6.356,-0.062,0.880,-0.533,-1.526,-0.458,0.092,73.333,13714.000,1.000
5.232,5.383,5.665,5.477,5.221,5.006,5.571,5.532,-0.062,0.880,-0.532,-1.526,-0.580,0.214,73.333,13715.000,1.000
3.385,3.486,3.703,3.430,3.337,3.118,3.537,3.542,-0.061,0.879,-0.532,-1.556,-0.580,0.122,73.333,13716.000,1.000
2.315,2.276,2.434,2.075,2.157,1.937,2.213,2.283,-0.062,0.879,-0.533,-1.495,-0.732,0.214,73.333,13717.000,1.000
3.342,3.139,3.244,2.861,3.041,2.813,2.997,3.173,-0.064,0.876,-0.534,-1.404,-0.793,0.275,73.333,13718.000,1.000
5.178,4.863,4.905,4.601,4.761,4.524,4.685,4.978,-0.063,0.875,-0.532,-1.343,-0.885,0.244,73.333,13719.000,1.000
5.222,4.891,4.847,4.698,4.765,4.535,4.708,5.085,-0.062,0.874,-0.535,-1.221,-1.038,0.305,73.333,13720.000,1.000
2.993,2.744,2.602,2.600,2.596,2.400,2.566,2.951,-0.062,0.872,-0.532,-1.221,-1.129,0.305,73.333,13721.000,1.000
0.922,0.817,0.593,0.647,0.675,0.527,0.640,0.943,-0.062,0.871,-0.534,-1.160,-1.282,0.366,73.333,13722.000,1.000
1.035,1.070,0.805,0.809,0.980,0.871,0.900,1.060,-0.060,0.870,-0.538,-1.007,-1.312,0.519,73.333,13723.000,1.000
2.043,2.152,1.892,1.787,2.154,2.062,2.000,2.030,-0.056,0.871,-0.537,-0.824,-1.190,0.488,73.333,13724.000,1.000
1.051,1.158,0.941,0.747,1.264,1.176,1.034,1.015,-0.055,0.870,-0.537,-0.702,-1.190,0.610,73.333,13725.000,1.000
-1.841,-1.780,-1.908,-2.130,-1.583,-1.665,-1.856,-1.832,-0.059,0.868,-0.535,-0.549,-1.190,0.702,73.333,13726.000,1.000
-2.319,-2.304,-2.314,-2.496,-2.050,-2.116,-2.314,-2.195,-0.060,0.869,-0.536,-0.336,-1.251,0.732,73.333,13727.000,1.000
2.960,2.954,3.036,2.944,3.211,3.171,2.993,3.213,-0.064,0.870,-0.532,-0.153,-1.282,0.732,73.333,13728.000,1.000
10.236,10.240,10.324,10.353,10.431,10.428,10.260,10.553,-0.067,0.871,-0.534,-0.061,-1.221,0.610,73.333,13729.000,1.000
10.740,10.772,10.762,10.913,10.842,10.902,10.699,11.013,-0.066,0.869,-0.536,0.000,-1.343,0.580,73.333,13730.000,1.000
1.103,1.162,1.016,1.259,1.103,1.266,0.968,1.252,-0.064,0.866,-0.537,0.244,-1.434,0.549,73.333,13731.000,1.000
-11.089,-11.022,-11.268,-10.991,-11.157,-10.874,-11.307,-11.074,-0.061,0.866,-0.534,0.458,-1.526,0.580,73.333,13732.000,1.000
-15.582,-15.537,-15.799,-15.545,-15.664,-15.288,-15.838,-15.652,-0.059,0.866,-0.534,0.580,-1.648,0.610,73.333,13733.000,1.000
-11.838,-11.848,-12.038,-11.853,-11.896,-11.499,-12.072,-11.938,-0.058,0.865,-0.539,0.671,-1.587,0.671,73.333,13734.000,1.000
-9.250,-9.351,-9.407,-9.320,-9.295,-8.954,-9.431,-9.354,-0.055,0.867,-0.538,0.793,-1.556,0.641,73.333,13735.000,1.000
-13.946,-14.154,-14.070,-14.079,-14.019,-13.777,-14.094,-14.049,-0.052,0.869,-0.540,0.977,-1.465,0.732,73.333,13736.000,1.000
-19.453,-19.737,-19.559,-19.634,-19.573,-19.431,-19.611,-19.543,-0.052,0.872,-0.541,1.007,-1.343,0.732,73.333,13737.000,1.000
-14.842,-15.141,-14.922,-15.026,-14.985,-14.912,-15.030,-14.890,-0.051,0.872,-0.541,1.129,-1.221,0.671,73.333,13738.000,1.000
-0.068,-0.322,-0.081,-0.190,-0.176,-0.133,-0.257,-0.037,-0.052,0.873,-0.539,1.160,-1.099,0.793,73.333,13739.000,1.000
12.515,12.339,12.609,12.519,12.494,12.534,12.393,12.656,-0.053,0.874,-0.538,1.251,-0.977,0.824,73.333,13740.000,1.000
12.813,12.744,13.017,12.986,12.906,12.939,12.831,13.070,-0.054,0.872,-0.539,1.190,-0.824,0.732,73.333,13741.000,1.000
4.250,4.325,4.516,4.589,4.452,4.451,4.452,4.589,-0.054,0.873,-0.540,1.343,-0.732,0.732,73.333,13742.000,1.000
-2.080,-1.833,-1.830,-1.632,-1.806,-1.866,-1.713,-1.733,-0.053,0.873,-0.542,1.373,-0.610,0.793,73.333,13743.000,1.000
-0.763,-0.378,-0.621,-0.319,-0.491,-0.609,-0.321,-0.504,-0.059,0.873,-0.542,1.434,-0.641,0.732,73.333,13744.000,1.000
3.952,4.366,3.902,4.257,4.130,3.971,4.346,4.022,-0.059,0.874,-0.541,1.373,-0.671,0.641,73.333,13745.000,1.000
5.778,6.092,5.495,5.850,5.796,5.616,6.029,5.593,-0.057,0.873,-0.542,1.343,-0.610,0.641,73.333,13746.000,1.000
3.720,3.870,3.244,3.567,3.586,3.398,3.805,3.300,-0.056,0.874,-0.543,1.343,-0.641,0.580,73.333,13747.000,1.000
1.104,1.132,0.554,0.835,0.892,0.711,1.077,0.570,-0.053,0.876,-0.541,1.373,-0.488,0.580,73.333,13748.000,1.000
0.423,0.434,-0.061,0.175,0.229,0.073,0.374,-0.052,-0.052,0.879,-0.540,1.282,-0.305,0.488,73.333,13749.000,1.000
0.954,1.040,0.637,0.820,0.854,0.728,0.956,0.669,-0.053,0.878,-0.544,1.129,-0.305,0.580,73.333,13750.000,1.000
0.585,0.770,0.453,0.587,0.624,0.493,0.662,0.517,-0.054,0.876,-0.539,1.129,-0.244,0.671,73.333,13751.000,1.000
-1.606,-1.390,-1.616,-1.504,-1.433,-1.618,-1.482,-1.527,-0.054,0.875,-0.541,0.977,-0.183,0.580,73.333,13752.000,1.000
-4.664,-4.528,-4.641,-4.510,-4.398,-4.660,-4.531,-4.545,-0.053,0.874,-0.539,0.946,-0.214,0.610,73.333,13753.000,1.000
-6.604,-6.627,-6.604,-6.437,-6.304,-6.619,-6.487,-6.524,-0.054,0.875,-0.536,0.763,-0.153,0.671,73.333,13754.000,1.000
-6.025,-6.199,-6.054,-5.861,-5.734,-6.045,-5.935,-5.998,-0.055,0.875,-0.537,0.610,-0.092,0.702,73.333,13755.000,1.000
-3.448,-3.697,-3.488,-3.288,-3.191,-3.438,-3.388,-3.435,-0.057,0.875,-0.541,0.427,-0.061,0.702,73.333,13756.000,1.000
-1.102,-1.342,-1.134,-0.946,-0.898,-1.042,-1.070,-1.057,-0.059,0.875,-0.540,0.275,-0.092,0.671,73.333,13757.000,1.000
-0.708,-0.889,-0.713,-0.566,-0.572,-0.616,-0.697,-0.621,-0.059,0.876,-0.541,0.122,-0.031,0.610,73.333,13758.000,1.000
-1.276,-1.380,-1.235,-1.155,-1.210,-1.202,-1.262,-1.170,-0.058,0.877,-0.541,-0.092,-0.092,0.641,73.333,13759.000,1.000
-0.207,-0.231,-0.117,-0.095,-0.193,-0.199,-0.159,-0.119,-0.060,0.875,-0.538,-0.244,-0.122,0.671,73.333,13760.000,1.000
3.068,3.134,3.188,3.191,3.070,3.001,3.175,3.106,-0.059,0.874,-0.538,-0.488,-0.153,0.702,73.333,13761.000,1.000
5.694,5.853,5.812,5.845,5.726,5.590,5.865,5.667,-0.060,0.875,-0.534,-0.641,-0.153,0.671,73.333,13762.000,1.000
4.718,4.953,4.819,4.903,4.813,4.634,4.948,4.648,-0.058,0.874,-0.531,-0.916,-0.122,0.580,73.333,13763.000,1.000
1.272,1.538,1.363,1.480,1.444,1.250,1.538,1.212,-0.058,0.873,-0.535,-1.129,-0.183,0.580,73.333,13764.000,1.000
-0.461,-0.222,-0.361,-0.259,-0.224,-0.405,-0.201,-0.462,-0.056,0.874,-0.534,-1.312,-0.275,0.580,73.333,13765.000,1.000
1.354,1.518,1.471,1.517,1.614,1.480,1.563,1.420,-0.057,0.873,-0.536,-1.495,-0.336,0.397,73.333,13766.000,1.000
3.601,3.678,3.730,3.718,3.834,3.786,3.751,3.703,-0.056,0.874,-0.536,-1.740,-0.275,0.366,73.333,13767.000,1.000
2.349,2.366,2.474,2.452,2.513,2.586,2.474,2.430,-0.057,0.875,-0.538,-1.648,-0.275,0.275,73.333,13768.000,1.000
-1.506,-1.498,-1.399,-1.360,-1.425,-1.230,-1.356,-1.492,-0.055,0.873,-0.536,-1.862,-0.275,0.275,73.333,13769.000,1.000
-3.171,-3.124,-3.083,-2.929,-3.152,-2.879,-2.963,-3.227,-0.057,0.874,-0.532,-1.984,-0.336,0.244,73.333,13770.000,1.000
-0.549,-0.441,-0.458,-0.197,-0.549,-0.270,-0.283,-0.628,-0.058,0.876,-0.535,-2.258,-0.488,0.153,73.333,13771.000,1.000
2.545,2.688,2.661,2.966,2.555,2.791,2.827,2.497,-0.057,0.878,-0.534,-2.411,-0.458,0.244,73.333,13772.000,1.000
1.278,1.393,1.409,1.687,1.289,1.481,1.512,1.281,-0.057,0.878,-0.532,-2.594,-0.519,0.214,73.333,13773.000,1.000
-3.466,-3.451,-3.373,-3.155,-3.495,-3.320,-3.335,-3.445,-0.056,0.878,-0.535,-2.747,-0.671,0.183,73.333,13774.000,1.000
-5.939,-6.056,-5.953,-5.783,-6.052,-5.878,-5.936,-5.967,-0.059,0.879,-0.533,-2.991,-0.641,0.183,73.333,13775.000,1.000
-2.985,-3.207,-3.143,-2.996,-3.214,-3.037,-3.101,-3.118,-0.058,0.880,-0.531,-3.052,-0.702,0.183,73.333,13776.000,1.000
1.868,1.617,1.584,1.721,1.509,1.711,1.670,1.637,-0.060,0.878,-0.529,-3.326,-0.793,0.214,73.333,13777.000,1.000
3.080,2.894,2.742,2.858,2.610,2.871,2.855,2.828,-0.059,0.876,-0.532,-3.510,-0.824,0.122,73.333,13778.000,1.000
0.297,0.256,0.007,0.075,-0.214,0.120,0.112,0.130,-0.062,0.879,-0.529,-3.723,-1.068,0.214,73.333,13779.000,1.000
-1.693,-1.563,-1.846,-1.853,-2.141,-1.757,-1.788,-1.701,-0.062,0.878,-0.531,-3.815,-1.068,0.275,73.333,13780.000,1.000
0.115,0.366,0.139,0.047,-0.172,0.208,0.117,0.281,-0.062,0.879,-0.530,-3.937,-1.251,0.305,73.333,13781.000,1.000
2.799,3.061,2.977,2.824,2.724,3.038,2.855,3.101,-0.063,0.880,-0.529,-3.967,-1.373,0.366,73.333,13782.000,1.000
1.723,1.888,1.978,1.825,1.852,2.045,1.769,2.094,-0.064,0.880,-0.529,-4.089,-1.495,0.336,73.333,13783.000,1.000
-2.788,-2.766,-2.553,-2.635,-2.513,-2.477,-2.809,-2.422,-0.061,0.882,-0.527,-4.181,-1.617,0.397,73.333,13784.000,1.000
-5.777,-5.886,-5.639,-5.617,-5.457,-5.576,-5.903,-5.480,-0.064,0.882,-0.527,-4.242,-1.709,0.397,73.333,13785.000,1.000
-4.441,-4.645,-4.421,-4.326,-4.188,-4.413,-4.689,-4.254,-0.061,0.881,-0.525,-4.425,-1.709,0.366,73.333,13786.000,1.000
-1.913,-2.171,-1.980,-1.880,-1.802,-2.060,-2.272,-1.836,-0.060,0.879,-0.530,-4.456,-1.801,0.427,73.333,13787.000,1.000
-2.883,-3.155,-2.986,-2.932,-2.915,-3.143,-3.309,-2.878,-0.063,0.877,-0.527,-4.486,-1.862,0.519,73.333,13788.000,1.000
-7.003,-7.269,-7.095,-7.110,-7.121,-7.282,-7.441,-7.030,-0.063,0.873,-0.529,-4.425,-2.106,0.519,73.333,13789.000,1.000
-9.302,-9.563,-9.348,-9.433,-9.436,-9.527,-9.710,-9.351,-0.063,0.871,-0.530,-4.364,-2.167,0.488,73.333,13790.000,1.000
-6.884,-7.145,-6.875,-7.017,-6.988,-7.039,-7.244,-6.974,-0.062,0.872,-0.533,-4.181,-2.228,0.427,73.333,13791.000,1.000
-2.711,-2.962,-2.669,-2.850,-2.764,-2.834,-3.021,-2.859,-0.062,0.870,-0.531,-4.028,-2.228,0.519,73.333,13792.000,1.000
-1.567,-1.781,-1.516,-1.737,-1.566,-1.699,-1.822,-1.765,-0.061,0.868,-0.532,-3.906,-2.136,0.580,73.333,13793.000,1.000
-3.777,-3.928,-3.714,-3.994,-3.728,-3.919,-3.964,-3.985,-0.060,0.867,-0.528,-3.571,-2.106,0.519,73.333,13794.000,1.000
-5.256,-5.333,-5.154,-5.503,-5.175,-5.369,-5.363,-5.414,-0.057,0.866,-0.531,-3.235,-2.106,0.610,73.333,13795.000,1.000
-3.407,-3.421,-3.250,-3.647,-3.313,-3.451,-3.438,-3.471,-0.056,0.867,-0.533,-3.113,-2.106,0.702,73.333,13796.000,1.000
-0.609,-0.575,-0.397,-0.813,-0.509,-0.586,-0.578,-0.569,-0.054,0.867,-0.531,-2.777,-2.075,0.732,73.333,13797.000,1.000
-0.753,-0.685,-0.508,-0.934,-0.641,-0.716,-0.682,-0.645,-0.052,0.866,-0.532,-2.380,-1.984,0.824,73.333,13798.000,1.000
-3.787,-3.702,-3.566,-3.998,-3.666,-3.808,-3.715,-3.685,-0.050,0.866,-0.535,-2.167,-1.831,0.916,73.333,13799.000,1.000
-5.851,-5.782,-5.730,-6.154,-5.752,-5.972,-5.830,-5.827,-0.048,0.865,-0.532,-1.740,-1.678,0.946,73.333,13800.000,1.000
-4.485,-4.472,-4.505,-4.894,-4.448,-4.692,-4.542,-4.562,-0.048,0.867,-0.531,-1.465,-1.495,0.916,73.333,13801.000,1.000
-1.734,-1.812,-1.876,-2.190,-1.788,-1.979,-1.857,-1.887,-0.046,0.865,-0.533,-1.190,-1.251,0.854,73.333,13802.000,1.000
-1.309,-1.476,-1.505,-1.711,-1.448,-1.530,-1.448,-1.474,-0.047,0.867,-0.537,-0.916,-1.068,0.793,73.333,13803.000,1.000
-3.709,-3.923,-3.888,-3.977,-3.898,-3.853,-3.803,-3.816,-0.049,0.868,-0.531,-0.610,-0.946,0.793,73.333,13804.000,1.000
-5.852,-6.056,-5.971,-5.972,-6.054,-5.898,-5.857,-5.856,-0.049,0.870,-0.531,-0.305,-0.793,0.732,73.333,13805.000,1.000
-5.253,-5.409,-5.306,-5.267,-5.448,-5.224,-5.168,-5.158,-0.050,0.871,-0.529,-0.183,-0.610,0.763,73.333,13806.000,1.000
-2.979,-3.077,-2.967,-2.930,-3.156,-2.923,-2.836,-2.813,-0.048,0.872,-0.531,0.031,-0.427,0.732,73.333,13807.000,1.000
-1.825,-1.862,-1.731,-1.718,-1.962,-1.767,-1.653,-1.602,-0.050,0.872,-0.531,0.275,-0.153,0.732,73.333,13808.000,1.000
-2.503,-2.472,-2.311,-2.321,-2.572,-2.434,-2.311,-2.227,-0.052,0.871,-0.535,0.488,-0.183,0.671,73.333,13809.000,1.000
-3.110,-3.005,-2.832,-2.846,-3.096,-3.010,-2.901,-2.796,-0.054,0.872,-0.536,0.641,0.000,0.580,73.333,13810.000,1.000
-1.997,-1.831,-1.673,-1.671,-1.906,-1.859,-1.777,-1.670,-0.054,0.874,-0.535,0.916,0.061,0.488,73.333,13811.000,1.000
0.176,0.361,0.486,0.522,0.321,0.330,0.394,0.490,-0.056,0.874,-0.537,0.946,0.092,0.458,73.333,13812.000,1.000
1.585,1.739,1.822,1.902,1.756,1.715,1.782,1.870,-0.055,0.874,-0.536,1.099,0.092,0.275,73.333,13813.000,1.000
1.715,1.811,1.847,1.971,1.895,1.794,1.871,1.970,-0.057,0.874,-0.534,1.099,0.153,0.092,73.333,13814.000,1.000
1.716,1.769,1.761,1.912,1.906,1.753,1.829,1.951,-0.055,0.876,-0.535,1.160,0.122,0.092,73.333,13815.000,1.000
2.578,2.633,2.590,2.748,2.777,2.602,2.670,2.799,-0.054,0.875,-0.537,1.251,0.183,0.000,73.333,13816.000,1.000
3.785,3.885,3.822,3.949,3.967,3.807,3.871,3.958,-0.053,0.874,-0.535,1.312,0.183,-0.061,73.333,13817.000,1.000
4.074,4.223,4.163,4.197,4.192,4.068,4.129,4.120,-0.053,0.875,-0.537,1.404,0.153,-0.031,73.333,13818.000,1.000
3.254,3.418,3.387,3.278,3.271,3.193,3.233,3.105,-0.052,0.872,-0.536,1.404,0.214,0.031,73.333,13819.000,1.000
2.488,2.638,2.658,2.408,2.414,2.398,2.387,2.162,-0.052,0.874,-0.533,1.312,0.244,0.153,73.333,13820.000,1.000
2.736,2.875,2.954,2.612,2.625,2.692,2.607,2.349,-0.052,0.874,-0.535,1.465,0.336,0.092,73.333,13821.000,1.000
3.509,3.658,3.776,3.410,3.415,3.574,3.411,3.201,-0.052,0.873,-0.534,1.465,0.366,0.244,73.333,13822.000,1.000
3.570,3.729,3.853,3.516,3.508,3.746,3.529,3.425,-0.053,0.871,-0.536,1.434,0.397,0.336,73.333,13823.000,1.000
2.734,2.874,2.979,2.670,2.672,2.956,2.733,2.740,-0.054,0.871,-0.536,1.526,0.305,0.397,73.333,13824.000,1.000
2.128,2.205,2.283,1.946,2.006,2.305,2.121,2.192,-0.053,0.867,-0.537,1.617,0.214,0.519,73.333,13825.000,1.000
2.615,2.605,2.647,2.235,2.389,2.691,2.571,2.625,-0.055,0.872,-0.536,1.556,0.336,0.580,73.333,13826.000,1.000
3.643,3.556,3.545,3.080,3.318,3.625,3.572,3.527,-0.055,0.871,-0.534,1.556,0.336,0.641,73.333,13827.000,1.000
4.014,3.887,3.811,3.372,3.652,3.951,3.954,3.775,-0.057,0.873,-0.533,1.434,0.275,0.641,73.333,13828.000,1.000
3.616,3.489,3.362,3.034,3.297,3.557,3.590,3.322,-0.057,0.872,-0.535,1.343,0.183,0.671,73.333,13829.000,1.000
3.618,3.520,3.377,3.219,3.408,3.590,3.629,3.376,-0.056,0.873,-0.536,1.251,0.092,0.671,73.333,13830.000,1.000
4.962,4.916,4.789,4.810,4.891,4.968,5.001,4.863,-0.058,0.875,-0.535,1.160,0.031,0.702,73.333,13831.000,1.000
7.203,7.222,7.127,7.273,7.266,7.229,7.256,7.279,-0.059,0.875,-0.536,1.099,-0.153,0.641,73.333,13832.000,1.000
9.013,9.104,9.037,9.222,9.177,9.046,9.075,9.231,-0.059,0.877,-0.534,0.885,-0.183,0.580,73.333,13833.000,1.000
9.616,9.782,9.719,9.886,9.833,9.657,9.689,9.914,-0.059,0.876,-0.531,0.793,-0.336,0.641,73.333,13834.000,1.000
9.245,9.491,9.395,9.537,9.469,9.311,9.330,9.576,-0.058,0.877,-0.531,0.549,-0.397,0.580,73.333,13835.000,1.000
8.480,8.792,8.643,8.766,8.672,8.577,8.552,8.799,-0.057,0.877,-0.534,0.122,-0.610,0.610,73.333,13836.000,1.000
7.575,7.902,7.715,7.809,7.698,7.683,7.599,7.812,-0.058,0.877,-0.535,-0.061,-0.702,0.580,73.333,13837.000,1.000
6.424,6.678,6.495,6.544,6.434,6.493,6.373,6.492,-0.057,0.879,-0.537,-0.336,-0.702,0.580,73.333,13838.000,1.000
5.082,5.186,5.041,5.056,4.944,5.060,4.962,4.936,-0.057,0.878,-0.533,-0.366,-0.763,0.580,73.333,13839.000,1.000
3.931,3.882,3.767,3.791,3.657,3.795,3.790,3.617,-0.057,0.880,-0.534,-0.702,-0.854,0.549,73.333,13840.000,1.000
3.281,3.166,3.023,3.113,2.951,3.045,3.189,2.923,-0.057,0.879,-0.534,-0.885,-1.007,0.580,73.333,13841.000,1.000
2.954,2.885,2.655,2.844,2.679,2.668,2.960,2.675,-0.056,0.878,-0.536,-1.099,-1.129,0.610,73.333,13842.000,1.000
2.445,2.466,2.147,2.432,2.294,2.162,2.536,2.293,-0.057,0.878,-0.539,-1.190,-1.068,0.519,73.333,13843.000,1.000
1.654,1.706,1.366,1.715,1.609,1.397,1.751,1.578,-0.057,0.877,-0.537,-1.373,-1.068,0.488,73.333,13844.000,1.000
1.006,0.993,0.711,1.079,0.991,0.766,1.027,0.912,-0.058,0.877,-0.538,-1.465,-1.160,0.549,73.333,13845.000,1.000
0.815,0.676,0.500,0.838,0.771,0.580,0.735,0.651,-0.057,0.875,-0.537,-1.648,-1.343,0.397,73.333,13846.000,1.000
0.852,0.594,0.520,0.799,0.781,0.625,0.704,0.644,-0.058,0.874,-0.534,-1.953,-1.312,0.397,73.333,13847.000,1.000
0.630,0.329,0.313,0.540,0.592,0.432,0.468,0.459,-0.057,0.876,-0.535,-2.014,-1.373,0.397,73.333,13848.000,1.000
0.114,-0.121,-0.143,0.062,0.176,-0.032,-0.026,0.047,-0.055,0.875,-0.534,-2.197,-1.404,0.336,73.333,13849.000,1.000
-0.231,-0.310,-0.393,-0.178,-0.036,-0.310,-0.328,-0.179,-0.055,0.872,-0.536,-2.228,-1.404,0.366,73.333,13850.000,1.000
-0.010,0.094,-0.079,0.159,0.289,-0.023,-0.053,0.127,-0.053,0.869,-0.536,-2.289,-1.434,0.366,73.333,13851.000,1.000
0.660,0.895,0.646,0.895,0.969,0.686,0.657,0.825,-0.054,0.870,-0.538,-2.411,-1.434,0.336,73.333,13852.000,1.000
1.267,1.543,1.265,1.489,1.479,1.294,1.262,1.409,-0.055,0.872,-0.535,-2.441,-1.373,0.458,73.333,13853.000,1.000
1.490,1.722,1.469,1.634,1.541,1.479,1.438,1.568,-0.053,0.871,-0.536,-2.502,-1.404,0.458,73.333,13854.000,1.000
1.356,1.490,1.289,1.396,1.256,1.279,1.234,1.341,-0.052,0.872,-0.539,-2.533,-1.282,0.427,73.333,13855.000,1.000
0.980,0.992,0.843,0.935,0.788,0.829,0.775,0.840,-0.054,0.873,-0.537,-2.441,-1.343,0.366,73.333,13856.000,1.000
0.413,0.315,0.211,0.338,0.201,0.214,0.114,0.125,-0.055,0.876,-0.537,-2.472,-1.343,0.427,73.333,13857.000,1.000
-0.332,-0.480,-0.546,-0.361,-0.497,-0.521,-0.708,-0.737,-0.056,0.876,-0.535,-2.502,-1.282,0.427,73.333,13858.000,1.000
-1.090,-1.200,-1.237,-1.016,-1.159,-1.207,-1.479,-1.509,-0.060,0.875,-0.532,-2.502,-1.221,0.244,73.333,13859.000,1.000
-1.587,-1.586,-1.597,-1.391,-1.545,-1.587,-1.890,-1.886,-0.060,0.875,-0.531,-2.563,-1.221,0.214,73.333,13860.000,1.000
-1.568,-1.429,-1.409,-1.273,-1.438,-1.440,-1.694,-1.645,-0.060,0.878,-0.534,-2.594,-1.221,0.183,73.333,13861.000,1.000
-0.900,-0.636,-0.588,-0.549,-0.721,-0.655,-0.802,-0.721,-0.058,0.880,-0.534,-2.502,-1.190,0.122,73.333,13862.000,1.000
0.199,0.546,0.599,0.552,0.397,0.521,0.498,0.584,-0.057,0.878,-0.534,-2.563,-1.190,0.000,73.333,13863.000,1.000
1.105,1.473,1.503,1.401,1.313,1.446,1.522,1.578,-0.054,0.877,-0.535,-2.563,-1.190,0.000,73.333,13864.000,1.000
1.100,1.423,1.421,1.281,1.326,1.405,1.528,1.507,-0.051,0.875,-0.534,-2.472,-1.129,0.031,73.333,13865.000,1.000
0.043,0.268,0.254,0.065,0.293,0.287,0.392,0.249,-0.050,0.874,-0.535,-2.441,-1.007,0.153,73.333,13866.000,1.000
-1.314,-1.218,-1.215,-1.466,-1.066,-1.128,-1.096,-1.374,-0.048,0.872,-0.533,-2.350,-0.854,0.061,73.333,13867.000,1.000
-2.078,-2.110,-2.073,-2.356,-1.867,-1.928,-1.987,-2.353,-0.048,0.871,-0.533,-2.197,-0.854,0.244,73.333,13868.000,1.000
-2.099,-2.228,-2.152,-2.385,-1.941,-1.966,-2.077,-2.442,-0.047,0.871,-0.533,-2.167,-0.702,0.244,73.333,13869.000,1.000
-2.005,-2.196,-2.076,-2.176,-1.891,-1.888,-1.992,-2.272,-0.049,0.872,-0.529,-2.075,-0.519,0.336,73.333,13870.000,1.000
-2.337,-2.565,-2.393,-2.334,-2.240,-2.257,-2.309,-2.463,-0.048,0.874,-0.530,-2.014,-0.427,0.397,73.333,13871.000,1.000
-2.870,-3.102,-2.889,-2.710,-2.757,-2.843,-2.820,-2.868,-0.048,0.876,-0.534,-1.953,-0.305,0.366,73.333,13872.000,1.000
-3.004,-3.192,-2.970,-2.764,-2.858,-3.020,-2.934,-2.924,-0.048,0.878,-0.533,-1.831,-0.122,0.427,73.333,13873.000,1.000
-2.493,-2.594,-2.410,-2.285,-2.340,-2.508,-2.421,-2.402,-0.052,0.880,-0.533,-1.770,0.061,0.397,73.333,13874.000,1.000
-1.677,-1.690,-1.582,-1.599,-1.576,-1.635,-1.639,-1.646,-0.056,0.881,-0.534,-1.740,0.122,0.427,73.333,13875.000,1.000
-0.965,-0.917,-0.909,-1.045,-0.952,-0.825,-0.979,-1.035,-0.062,0.882,-0.532,-1.587,0.000,0.336,73.333,13876.000,1.000
-0.307,-0.236,-0.323,-0.511,-0.374,-0.073,-0.361,-0.470,-0.064,0.881,-0.531,-1.648,0.000,0.366,73.333,13877.000,1.000
0.432,0.486,0.348,0.161,0.320,0.706,0.365,0.220,-0.070,0.878,-0.534,-1.617,-0.183,0.244,73.333,13878.000,1.000
0.862,0.863,0.744,0.586,0.747,1.099,0.809,0.663,-0.073,0.875,-0.533,-1.526,-0.458,0.153,73.333,13879.000,1.000
0.180,0.099,0.067,-0.037,0.102,0.326,0.154,0.056,-0.071,0.874,-0.534,-1.495,-0.641,0.031,73.333,13880.000,1.000
-1.830,-1.997,-1.917,-1.950,-1.846,-1.775,-1.828,-1.833,-0.071,0.874,-0.531,-1.434,-0.946,-0.122,73.333,13881.000,1.000
-4.158,-4.390,-4.218,-4.176,-4.116,-4.144,-4.126,-4.027,-0.072,0.874,-0.535,-1.251,-1.282,-0.244,73.333,13882.000,1.000
-5.383,-5.653,-5.429,-5.320,-5.311,-5.360,-5.318,-5.156,-0.070,0.873,-0.533,-1.221,-1.495,-0.336,73.333,13883.000,1.000
-4.938,-5.230,-4.983,-4.836,-4.864,-4.882,-4.844,-4.685,-0.068,0.871,-0.534,-1.068,-1.740,-0.427,73.333,13884.000,1.000
-3.442,-3.762,-3.501,-3.371,-3.390,-3.366,-3.344,-3.240,-0.067,0.872,-0.533,-0.916,-1.984,-0.549,73.333,13885.000,1.000
-1.825,-2.189,-1.915,-1.860,-1.812,-1.765,-1.761,-1.733,-0.065,0.873,-0.534,-0.824,-1.953,-0.549,73.333,13886.000,1.000
-0.423,-0.844,-0.546,-0.591,-0.466,-0.406,-0.416,-0.463,-0.064,0.873,-0.534,-0.732,-2.167,-0.610,73.333,13887.000,1.000
0.753,0.282,0.615,0.500,0.650,0.739,0.716,0.612,-0.062,0.873,-0.537,-0.702,-2.167,-0.580,73.333,13888.000,1.000
1.356,0.870,1.229,1.103,1.201,1.346,1.313,1.175,-0.060,0.872,-0.535,-0.671,-2.228,-0.519,73.333,13889.000,1.000
0.757,0.316,0.664,0.562,0.569,0.759,0.742,0.591,-0.058,0.875,-0.533,-0.671,-2.197,-0.458,73.333,13890.000,1.000
-1.103,-1.442,-1.147,-1.241,-1.302,-1.115,-1.087,-1.222,-0.060,0.873,-0.534,-0.519,-2.258,-0.305,73.333,13891.000,1.000
-3.281,-3.501,-3.287,-3.412,-3.472,-3.339,-3.268,-3.360,-0.058,0.872,-0.534,-0.549,-2.319,-0.183,73.333,13892.000,1.000
-4.696,-4.819,-4.705,-4.869,-4.869,-4.802,-4.731,-4.778,-0.060,0.873,-0.533,-0.427,-2.258,-0.061,73.333,13893.000,1.000
-5.116,-5.185,-5.189,-5.346,-5.271,-5.247,-5.240,-5.258,-0.060,0.872,-0.535,-0.488,-2.258,0.000,73.333,13894.000,1.000
-5.154,-5.212,-5.327,-5.418,-5.299,-5.282,-5.383,-5.380,-0.060,0.871,-0.534,-0.427,-2.136,0.183,73.333,13895.000,1.000
-5.336,-5.410,-5.592,-5.599,-5.490,-5.449,-5.651,-5.615,-0.062,0.871,-0.531,-0.305,-2.106,0.244,73.333,13896.000,1.000
-5.501,-5.598,-5.775,-5.737,-5.684,-5.599,-5.845,-5.768,-0.060,0.871,-0.532,-0.305,-2.075,0.244,73.333,13897.000,1.000
-5.285,-5.382,-5.499,-5.482,-5.488,-5.368,-5.578,-5.474,-0.061,0.871,-0.532,-0.183,-1.984,0.336,73.333,13898.000,1.000
-4.693,-4.757,-4.802,-4.848,-4.877,-4.751,-4.863,-4.768,-0.059,0.872,-0.533,-0.244,-1.953,0.366,73.333,13899.000,1.000
-4.077,-4.091,-4.097,-4.180,-4.210,-4.108,-4.103,-4.039,-0.058,0.873,-0.531,-0.153,-1.831,0.366,73.333,13900.000,1.000
-3.646,-3.621,-3.642,-3.673,-3.727,-3.669,-3.559,-3.518,-0.058,0.874,-0.532,-0.183,-1.831,0.458,73.333,13901.000,1.000
-3.161,-3.116,-3.206,-3.091,-3.218,-3.210,-3.016,-2.979,-0.055,0.875,-0.530,-0.183,-1.740,0.427,73.333,13902.000,1.000
-2.319,-2.252,-2.434,-2.158,-2.381,-2.406,-2.149,-2.131,-0.056,0.875,-0.531,-0.153,-1.495,0.397,73.333,13903.000,1.000
-1.203,-1.082,-1.334,-0.987,-1.280,-1.295,-1.008,-1.058,-0.055,0.876,-0.532,-0.305,-1.343,0.427,73.333,13904.000,1.000
-0.334,-0.133,-0.391,-0.108,-0.425,-0.377,-0.109,-0.262,-0.054,0.875,-0.533,-0.366,-1.282,0.427,73.333,13905.000,1.000
-0.190,0.092,-0.110,0.016,-0.287,-0.150,0.049,-0.177,-0.053,0.874,-0.531,-0.427,-1.251,0.397,73.333,13906.000,1.000
-0.692,-0.354,-0.471,-0.509,-0.778,-0.593,-0.473,-0.691,-0.055,0.877,-0.532,-0.427,-1.038,0.305,73.333,13907.000,1.000
-1.373,-1.003,-1.046,-1.187,-1.407,-1.276,-1.191,-1.309,-0.054,0.875,-0.533,-0.519,-0.854,0.214,73.333,13908.000,1.000
-1.787,-1.392,-1.394,-1.558,-1.717,-1.737,-1.627,-1.583,-0.054,0.876,-0.535,-0.488,-0.702,0.214,73.333,13909.000,1.000
-1.774,-1.354,-1.346,-1.478,-1.572,-1.752,-1.593,-1.391,-0.053,0.875,-0.536,-0.488,-0.519,0.183,73.333,13910.000,1.000
-1.370,-0.946,-0.927,-1.018,-1.063,-1.309,-1.118,-0.841,-0.054,0.875,-0.535,-0.488,-0.366,0.122,73.333,13911.000,1.000
-0.604,-0.220,-0.159,-0.221,-0.254,-0.440,-0.249,-0.010,-0.054,0.875,-0.533,-0.580,-0.214,0.183,73.333,13912.000,1.000
0.443,0.736,0.872,0.831,0.766,0.718,0.881,1.012,-0.056,0.874,-0.535,-0.519,-0.153,-0.031,73.333,13913.000,1.000
1.573,1.749,1.968,1.942,1.821,1.900,2.027,2.049,-0.059,0.874,-0.535,-0.488,-0.061,0.061,73.333,13914.000,1.000
2.528,2.615,2.880,2.861,2.695,2.818,2.921,2.878,-0.060,0.875,-0.532,-0.580,0.092,-0.092,73.333,13915.000,1.000
3.159,3.231,3.461,3.449,3.289,3.344,3.445,3.378,-0.062,0.875,-0.534,-0.549,0.061,-0.061,73.333,13916.000,1.000
3.548,3.678,3.772,3.780,3.693,3.600,3.702,3.639,-0.061,0.874,-0.533,-0.580,0.000,-0.183,73.333,13917.000,1.000
3.865,4.054,3.957,4.004,4.033,3.773,3.858,3.827,-0.062,0.874,-0.535,-0.671,0.000,-0.336,73.333,13918.000,1.000
4.275,4.440,4.176,4.282,4.426,4.031,4.087,4.109,-0.061,0.874,-0.533,-0.702,0.061,-0.427,73.333,13919.000,1.000
4.817,4.854,4.514,4.688,4.906,4.441,4.472,4.555,-0.061,0.875,-0.535,-0.793,0.031,-0.397,73.333,13920.000,1.000
5.318,5.170,4.874,5.110,5.329,4.888,4.891,5.029,-0.061,0.876,-0.535,-0.854,-0.031,-0.366,73.333,13921.000,1.000
5.515,5.200,5.053,5.327,5.459,5.145,5.108,5.276,-0.061,0.877,-0.536,-0.854,0.031,-0.305,73.333,13922.000,1.000
5.231,4.820,4.886,5.155,5.128,5.022,4.923,5.091,-0.061,0.876,-0.534,-0.946,-0.061,-0.244,73.333,13923.000,1.000
4.591,4.170,4.451,4.662,4.450,4.577,4.395,4.541,-0.062,0.875,-0.534,-1.068,-0.153,-0.122,73.333,13924.000,1.000
3.895,3.527,3.974,4.089,3.725,4.033,3.764,3.889,-0.064,0.875,-0.532,-1.038,-0.153,-0.214,73.333,13925.000,1.000
3.350,3.069,3.603,3.630,3.192,3.558,3.239,3.353,-0.064,0.875,-0.531,-1.038,0.031,-0.061,73.333,13926.000,1.000
3.045,2.860,3.388,3.399,2.961,3.257,2.952,3.067,-0.063,0.877,-0.533,-1.038,-0.153,-0.061,73.333,13927.000,1.000
3.005,2.903,3.346,3.431,3.032,3.199,2.952,3.094,-0.065,0.874,-0.535,-1.068,-0.305,0.031,73.333,13928.000,1.000
3.281,3.242,3.557,3.756,3.415,3.468,3.291,3.487,-0.064,0.876,-0.535,-1.190,-0.366,0.031,73.333,13929.000,1.000
3.805,3.821,4.011,4.284,4.009,4.000,3.893,4.143,-0.066,0.878,-0.536,-1.038,-0.397,0.092,73.333,13930.000,1.000
4.259,4.334,4.428,4.688,4.487,4.448,4.420,4.680,-0.066,0.880,-0.531,-1.068,-0.427,0.183,73.333,13931.000,1.000
4.282,4.419,4.441,4.606,4.494,4.419,4.480,4.689,-0.068,0.878,-0.531,-0.946,-0.610,0.305,73.333,13932.000,1.000
3.739,3.929,3.891,3.920,3.920,3.777,3.925,4.041,-0.067,0.874,-0.533,-0.977,-0.671,0.397,73.333,13933.000,1.000
2.899,3.118,3.022,2.933,3.048,2.829,3.037,3.053,-0.067,0.873,-0.531,-1.038,-0.732,0.397,73.333,13934.000,1.000
2.154,2.375,2.229,2.086,2.267,2.020,2.248,2.180,-0.065,0.871,-0.532,-1.038,-0.885,0.488,73.333,13935.000,1.000
1.662,1.854,1.700,1.551,1.718,1.540,1.742,1.614,-0.063,0.870,-0.532,-1.007,-0.946,0.549,73.333,13936.000,1.000
1.349,1.484,1.394,1.229,1.318,1.301,1.434,1.278,-0.062,0.871,-0.536,-0.977,-0.916,0.641,73.333,13937.000,1.000
1.059,1.126,1.145,0.926,0.924,1.094,1.135,0.984,-0.060,0.871,-0.536,-0.916,-0.977,0.641,73.333,13938.000,1.000
0.786,0.792,0.902,0.621,0.565,0.860,0.820,0.699,-0.060,0.870,-0.533,-0.916,-0.977,0.671,73.333,13939.000,1.000
0.685,0.642,0.786,0.479,0.424,0.729,0.658,0.565,-0.054,0.871,-0.536,-0.702,-1.007,0.671,73.333,13940.000,1.000
0.876,0.805,0.917,0.635,0.635,0.841,0.795,0.714,-0.051,0.869,-0.539,-0.580,-0.946,0.824,73.333,13941.000,1.000
1.353,1.283,1.310,1.075,1.170,1.227,1.234,1.156,-0.051,0.870,-0.535,-0.458,-0.793,0.977,73.333,13942.000,1.000
1.915,1.884,1.804,1.594,1.793,1.724,1.789,1.725,-0.055,0.872,-0.533,-0.458,-0.641,1.129,73.333,13943.000,1.000
2.269,2.308,2.149,1.917,2.188,2.067,2.199,2.157,-0.059,0.872,-0.530,-0.305,-0.610,0.916,73.333,13944.000,1.000
2.086,2.197,2.014,1.731,2.002,1.914,2.129,2.101,-0.065,0.872,-0.533,-0.427,-0.610,0.885,73.333,13945.000,1.000
1.039,1.181,1.020,0.704,0.899,0.899,1.189,1.161,-0.066,0.871,-0.535,-0.427,-0.671,0.763,73.333,13946.000,1.000
-0.971,-0.864,-0.986,-1.279,-1.210,-1.107,-0.801,-0.825,-0.066,0.871,-0.535,-0.244,-0.793,0.671,73.333,13947.000,1.000
-3.595,-3.574,-3.667,-3.886,-3.932,-3.753,-3.508,-3.520,-0.062,0.872,-0.535,-0.214,-0.916,0.702,73.333,13948.000,1.000
-5.907,-5.975,-6.072,-6.196,-6.296,-6.088,-5.959,-5.962,-0.061,0.873,-0.534,-0.092,-0.946,0.519,73.333,13949.000,1.000
-6.874,-6.986,-7.132,-7.164,-7.248,-7.060,-7.051,-7.072,-0.060,0.873,-0.533,-0.122,-0.946,0.366,73.333,13950.000,1.000
-6.153,-6.242,-6.473,-6.432,-6.453,-6.329,-6.395,-6.463,-0.057,0.874,-0.532,-0.092,-0.916,0.275,73.333,13951.000,1.000
-4.329,-4.324,-4.662,-4.582,-4.516,-4.487,-4.551,-4.674,-0.057,0.873,-0.535,-0.092,-0.793,0.275,73.333,13952.000,1.000
-2.442,-2.305,-2.739,-2.666,-2.507,-2.584,-2.565,-2.725,-0.055,0.873,-0.533,-0.122,-0.763,0.244,73.333,13953.000,1.000
-1.189,-0.945,-1.407,-1.388,-1.154,-1.326,-1.175,-1.332,-0.057,0.874,-0.536,-0.183,-0.671,0.244,73.333,13954.000,1.000
-0.649,-0.370,-0.761,-0.839,-0.564,-0.807,-0.523,-0.639,-0.058,0.873,-0.534,-0.153,-0.549,0.000,73.333,13955.000,1.000
-0.617,-0.374,-0.629,-0.830,-0.538,-0.833,-0.459,-0.505,-0.058,0.872,-0.535,-0.244,-0.458,0.000,73.333,13956.000,1.000
-0.914,-0.742,-0.862,-1.171,-0.871,-1.213,-0.805,-0.774,-0.058,0.873,-0.536,-0.183,-0.488,0.092,73.333,13957.000,1.000
-1.472,-1.367,-1.391,-1.744,-1.455,-1.834,-1.436,-1.350,-0.061,0.873,-0.535,-0.183,-0.458,0.122,73.333,13958.000,1.000
-2.141,-2.076,-2.057,-2.354,-2.115,-2.496,-2.135,-2.034,-0.063,0.872,-0.534,-0.153,-0.488,0.092,73.333,13959.000,1.000
-2.654,-2.599,-2.595,-2.743,-2.588,-2.910,-2.618,-2.543,-0.064,0.873,-0.533,-0.183,-0.488,0.061,73.333,13960.000,1.000
-2.789,-2.728,-2.790,-2.745,-2.668,-2.880,-2.694,-2.669,-0.061,0.874,-0.534,-0.214,-0.519,0.031,73.333,13961.000,1.000
-2.468,-2.406,-2.564,-2.340,-2.305,-2.384,-2.331,-2.362,-0.061,0.874,-0.536,-0.244,-0.549,-0.031,73.333,13962.000,1.000
-1.826,-1.796,-2.045,-1.704,-1.677,-1.624,-1.702,-1.785,-0.062,0.874,-0.539,-0.214,-0.671,0.061,73.333,13963.000,1.000
-1.079,-1.096,-1.415,-1.036,-1.000,-0.843,-1.021,-1.156,-0.061,0.873,-0.538,-0.366,-0.610,0.153,73.333,13964.000,1.000
-0.412,-0.445,-0.805,-0.464,-0.411,-0.211,-0.444,-0.617,-0.061,0.876,-0.537,-0.336,-0.610,0.153,73.333,13965.000,1.000
0.047,0.054,-0.307,-0.052,0.020,0.181,-0.062,-0.242,-0.059,0.875,-0.536,-0.366,-0.519,0.183,73.333,13966.000,1.000
0.292,0.371,0.054,0.219,0.296,0.355,0.142,-0.007,-0.060,0.875,-0.537,-0.519,-0.488,0.153,73.333,13967.000,1.000
0.356,0.495,0.260,0.363,0.424,0.358,0.204,0.102,-0.060,0.876,-0.535,-0.488,-0.610,0.214,73.333,13968.000,1.000
0.284,0.452,0.305,0.387,0.416,0.242,0.156,0.098,-0.060,0.878,-0.534,-0.519,-0.519,0.366,73.333,13969.000,1.000
0.076,0.232,0.148,0.239,0.237,0.006,-0.037,-0.051,-0.059,0.877,-0.533,-0.488,-0.458,0.305,73.333,13970.000,1.000
-0.345,-0.237,-0.295,-0.185,-0.201,-0.424,-0.464,-0.425,-0.058,0.878,-0.533,-0.641,-0.488,0.366,73.333,13971.000,1.000
-0.967,-0.927,-0.980,-0.868,-0.870,-1.034,-1.100,-1.012,-0.060,0.876,-0.531,-0.671,-0.458,0.488,73.333,13972.000,1.000
-1.659,-1.675,-1.723,-1.643,-1.604,-1.690,-1.784,-1.680,-0.061,0.875,-0.536,-0.702,-0.549,0.427,73.333,13973.000,1.000
-2.209,-2.237,-2.274,-2.249,-2.160,-2.183,-2.284,-2.209,-0.062,0.875,-0.535,-0.671,-0.488,0.580,73.333,13974.000,1.000
-2.479,-2.454,-2.491,-2.523,-2.402,-2.390,-2.470,-2.454,-0.060,0.874,-0.535,-0.610,-0.488,0.610,73.333,13975.000,1.000
-2.483,-2.355,-2.417,-2.488,-2.369,-2.341,-2.392,-2.426,-0.060,0.873,-0.533,-0.702,-0.488,0.641,73.333,13976.000,1.000
-2.258,-2.011,-2.138,-2.210,-2.116,-2.085,-2.124,-2.176,-0.060,0.872,-0.536,-0.763,-0.549,0.671,73.333,13977.000,1.000
-1.875,-1.534,-1.751,-1.783,-1.713,-1.699,-1.735,-1.798,-0.060,0.871,-0.536,-0.824,-0.671,0.641,73.333,13978.000,1.000
-1.414,-1.047,-1.332,-1.309,-1.239,-1.270,-1.288,-1.391,-0.058,0.870,-0.535,-0.793,-0.610,0.641,73.333,13979.000,1.000
-0.969,-0.687,-0.948,-0.905,-0.802,-0.884,-0.879,-1.048,-0.059,0.872,-0.538,-0.793,-0.580,0.610,73.333,13980.000,1.000
-0.660,-0.573,-0.692,-0.690,-0.528,-0.632,-0.637,-0.855,-0.059,0.871,-0.537,-0.702,-0.641,0.580,73.333,13981.000,1.000
-0.559,-0.721,-0.621,-0.684,-0.481,-0.553,-0.642,-0.834,-0.059,0.870,-0.537,-0.671,-0.549,0.519,73.333,13982.000,1.000
-0.690,-1.071,-0.765,-0.856,-0.668,-0.663,-0.922,-0.984,-0.061,0.871,-0.536,-0.702,-0.519,0.641,73.333,13983.000,1.000
-0.897,-1.416,-0.992,-1.043,-0.938,-0.833,-1.316,-1.175,-0.060,0.869,-0.535,-0.702,-0.580,0.610,73.333,13984.000,1.000
-0.885,-1.458,-1.032,-0.992,-1.003,-0.809,-1.484,-1.155,-0.060,0.868,-0.539,-0.641,-0.519,0.549,73.333,13985.000,1.000
-0.515,-1.082,-0.748,-0.599,-0.721,-0.472,-1.215,-0.801,-0.062,0.869,-0.538,-0.671,-0.580,0.519,73.333,13986.000,1.000
0.061,-0.471,-0.251,-0.016,-0.229,0.035,-0.607,-0.246,-0.062,0.871,-0.537,-0.641,-0.549,0.519,73.333,13987.000,1.000
0.502,0.011,0.181,0.439,0.156,0.401,-0.009,0.197,-0.061,0.872,-0.538,-0.580,-0.549,0.519,73.333,13988.000,1.000
0.622,0.172,0.405,0.594,0.276,0.482,0.335,0.376,-0.061,0.873,-0.538,-0.519,-0.549,0.458,73.333,13989.000,1.000
0.549,0.159,0.537,0.584,0.286,0.447,0.489,0.436,-0.061,0.872,-0.533,-0.549,-0.671,0.488,73.333,13990.000,1.000
0.550,0.250,0.788,0.689,0.447,0.569,0.685,0.620,-0.061,0.874,-0.535,-0.549,-0.732,0.458,73.333,13991.000,1.000
0.759,0.568,1.218,1.042,0.861,0.930,1.035,0.995,-0.062,0.875,-0.533,-0.580,-0.763,0.519,73.333,13992.000,1.000
0.994,0.902,1.580,1.416,1.294,1.277,1.330,1.319,-0.063,0.874,-0.538,-0.641,-0.854,0.397,73.333,13993.000,1.000
1.014,0.989,1.598,1.515,1.452,1.332,1.309,1.338,-0.061,0.872,-0.538,-0.580,-0.885,0.366,73.333,13994.000,1.000
0.802,0.794,1.258,1.288,1.274,1.085,0.966,1.062,-0.062,0.873,-0.532,-0.671,-0.854,0.275,73.333,13995.000,1.000
0.516,0.487,0.774,0.907,0.925,0.726,0.525,0.697,-0.063,0.871,-0.537,-0.702,-0.885,0.305,73.333,13996.000,1.000
0.324,0.250,0.396,0.584,0.613,0.452,0.232,0.449,-0.062,0.872,-0.540,-0.610,-0.946,0.336,73.333,13997.000,1.000
0.213,0.085,0.171,0.349,0.380,0.264,0.120,0.311,-0.063,0.873,-0.537,-0.702,-0.916,0.427,73.333,13998.000,1.000
0.124,-0.067,0.036,0.162,0.203,0.101,0.103,0.196,-0.062,0.873,-0.533,-0.580,-0.946,0.366,73.333,13999.000,1.000
0.081,-0.180,-0.027,0.064,0.112,-0.025,0.138,0.109,-0.062,0.872,-0.535,-0.519,-0.977,0.366,73.333,14000.000,1.000
0.162,-0.149,0.032,0.139,0.164,-0.034,0.249,0.139,-0.063,0.872,-0.539,-0.519,-1.007,0.336,73.333,14001.000,1.000
0.456,0.150,0.298,0.454,0.417,0.182,0.511,0.399,-0.062,0.872,-0.536,-0.580,-1.038,0.427,73.333,14002.000,1.000
0.883,0.636,0.685,0.877,0.770,0.565,0.859,0.807,-0.062,0.873,-0.538,-0.549,-1.099,0.336,73.333,14003.000,1.000
1.182,1.020,0.930,1.123,0.971,0.864,1.067,1.090,-0.061,0.871,-0.541,-0.458,-1.160,0.305,73.333,14004.000,1.000
1.063,0.980,0.759,0.925,0.777,0.791,0.894,0.960,-0.060,0.869,-0.539,-0.427,-1.099,0.427,73.333,14005.000,1.000
0.407,0.379,0.080,0.195,0.115,0.218,0.240,0.300,-0.061,0.872,-0.539,-0.458,-1.068,0.427,73.333,14006.000,1.000
-0.615,-0.615,-0.919,-0.889,-0.838,-0.706,-0.752,-0.724,-0.060,0.869,-0.539,-0.397,-1.129,0.366,73.333,14007.000,1.000
-1.699,-1.690,-1.930,-2.016,-1.809,-1.698,-1.808,-1.803,-0.058,0.871,-0.540,-0.427,-1.160,0.366,73.333,14008.000,1.000
-2.531,-2.515,-2.647,-2.842,-2.528,-2.464,-2.596,-2.606,-0.059,0.872,-0.538,-0.458,-1.068,0.397,73.333,14009.000,1.000
-2.930,-2.912,-2.918,-3.186,-2.853,-2.848,-2.909,-2.950,-0.059,0.870,-0.537,-0.427,-1.007,0.427,73.333,14010.000,1.000
-2.950,-2.945,-2.822,-3.133,-2.849,-2.909,-2.806,-2.904,-0.057,0.872,-0.539,-0.366,-1.007,0.427,73.333,14011.000,1.000
-2.740,-2.750,-2.513,-2.860,-2.644,-2.757,-2.457,-2.631,-0.056,0.874,-0.539,-0.427,-0.977,0.397,73.333,14012.000,1.000
-2.456,-2.446,-2.151,-2.528,-2.360,-2.495,-2.045,-2.297,-0.057,0.875,-0.539,-0.427,-0.916,0.458,73.333,14013.000,1.000
-2.162,-2.071,-1.802,-2.201,-2.037,-2.160,-1.667,-1.979,-0.059,0.874,-0.538,-0.519,-0.916,0.488,73.333,14014.000,1.000
-1.847,-1.645,-1.451,-1.875,-1.671,-1.758,-1.349,-1.676,-0.060,0.874,-0.538,-0.549,-0.824,0.458,73.333,14015.000,1.000
-1.511,-1.249,-1.111,-1.552,-1.309,-1.337,-1.113,-1.383,-0.059,0.876,-0.537,-0.610,-0.763,0.488,73.333,14016.000,1.000
-1.119,-0.913,-0.770,-1.186,-0.965,-0.908,-0.905,-1.044,-0.061,0.875,-0.536,-0.702,-0.763,0.458,73.333,14017.000,1.000
-0.637,-0.594,-0.384,-0.708,-0.612,-0.443,-0.626,-0.604,-0.060,0.873,-0.539,-0.916,-0.732,0.336,73.333,14018.000,1.000
-0.052,-0.192,0.099,-0.067,-0.181,0.104,-0.183,-0.036,-0.059,0.872,-0.540,-0.977,-0.610,0.397,73.333,14019.000,1.000
0.573,0.337,0.642,0.685,0.350,0.715,0.407,0.599,-0.061,0.873,-0.538,-0.977,-0.610,0.336,73.333,14020.000,1.000
1.086,0.911,1.103,1.369,0.882,1.267,0.997,1.142,-0.061,0.873,-0.539,-1.038,-0.610,0.275,73.333,14021.000,1.000
1.383,1.427,1.381,1.824,1.310,1.655,1.440,1.486,-0.060,0.872,-0.538,-1.099,-0.610,0.122,73.333,14022.000,1.000
1.457,1.791,1.446,1.977,1.562,1.823,1.649,1.612,-0.058,0.873,-0.538,-1.068,-0.580,0.214,73.333,14023.000,1.000
1.468,2.049,1.437,1.960,1.718,1.876,1.717,1.666,-0.057,0.873,-0.538,-1.038,-0.549,0.244,73.333,14024.000,1.000
1.676,2.366,1.594,2.051,1.982,2.031,1.889,1.896,-0.056,0.873,-0.535,-1.099,-0.458,0.275,73.333,14025.000,1.000
2.192,2.821,2.040,2.407,2.442,2.400,2.309,2.404,-0.057,0.873,-0.538,-1.251,-0.458,0.244,73.333,14026.000,1.000
2.869,3.311,2.665,2.940,2.984,2.893,2.897,3.056,-0.058,0.872,-0.541,-1.160,-0.458,0.275,73.333,14027.000,1.000
3.326,3.552,3.119,3.324,3.299,3.221,3.319,3.499,-0.057,0.873,-0.537,-1.129,-0.519,0.336,73.333,14028.000,1.000
3.267,3.344,3.103,3.281,3.161,3.152,3.279,3.449,-0.058,0.871,-0.537,-1.099,-0.427,0.397,73.333,14029.000,1.000
2.762,2.804,2.668,2.853,2.661,2.741,2.815,2.971,-0.059,0.871,-0.537,-1.129,-0.549,0.366,73.333,14030.000,1.000
2.169,2.280,2.154,2.358,2.137,2.283,2.259,2.405,-0.060,0.873,-0.538,-1.099,-0.458,0.366,73.333,14031.000,1.000
1.884,2.116,1.943,2.162,1.955,2.119,2.008,2.142,-0.060,0.872,-0.539,-1.099,-0.458,0.366,73.333,14032.000,1.000
2.031,2.369,2.145,2.368,2.201,2.355,2.191,2.308,-0.060,0.873,-0.538,-1.038,-0.458,0.427,73.333,14033.000,1.000
2.438,2.820,2.586,2.788,2.667,2.811,2.634,2.738,-0.060,0.872,-0.535,-1.068,-0.580,0.458,73.333,14034.000,1.000
2.782,3.132,2.959,3.101,3.007,3.157,3.003,3.102,-0.060,0.875,-0.532,-1.129,-0.519,0.488,73.333,14035.000,1.000
2.792,3.048,2.992,3.039,2.939,3.114,3.005,3.088,-0.060,0.873,-0.535,-1.129,-0.488,0.397,73.333,14036.000,1.000
2.437,2.578,2.634,2.581,2.447,2.659,2.591,2.632,-0.057,0.874,-0.537,-1.190,-0.488,0.397,73.333,14037.000,1.000
1.854,1.898,2.013,1.880,1.712,1.944,1.898,1.885,-0.056,0.874,-0.535,-1.160,-0.519,0.427,73.333,14038.000,1.000
1.277,1.264,1.390,1.200,1.019,1.238,1.189,1.140,-0.059,0.875,-0.538,-1.221,-0.488,0.427,73.333,14039.000,1.000
0.927,0.900,1.030,0.786,0.612,0.805,0.728,0.688,-0.059,0.875,-0.535,-1.282,-0.458,0.549,73.333,14040.000,1.000
0.828,0.838,0.982,0.674,0.512,0.699,0.590,0.591,-0.060,0.876,-0.534,-1.251,-0.519,0.610,73.333,14041.000,1.000
0.873,0.961,1.113,0.743,0.599,0.797,0.684,0.716,-0.061,0.875,-0.534,-1.251,-0.519,0.549,73.333,14042.000,1.000
0.941,1.110,1.230,0.837,0.736,0.941,0.863,0.879,-0.062,0.876,-0.534,-1.312,-0.580,0.519,73.333,14043.000,1.000
1.012,1.230,1.257,0.907,0.885,1.077,1.041,1.003,-0.063,0.875,-0.531,-1.373,-0.610,0.519,73.333,14044.000,1.000
1.097,1.325,1.207,0.962,1.048,1.198,1.167,1.065,-0.062,0.876,-0.535,-1.495,-0.641,0.275,73.333,14045.000,1.000
1.108,1.329,1.048,0.945,1.133,1.205,1.120,0.989,-0.063,0.876,-0.534,-1.556,-0.671,0.305,73.333,14046.000,1.000
0.927,1.139,0.729,0.772,1.020,0.977,0.809,0.716,-0.063,0.875,-0.535,-1.526,-0.671,0.214,73.333,14047.000,1.000
0.450,0.639,0.188,0.338,0.589,0.416,0.198,0.213,-0.064,0.874,-0.533,-1.587,-0.702,0.244,73.333,14048.000,1.000
-0.258,-0.135,-0.513,-0.337,-0.102,-0.395,-0.579,-0.425,-0.062,0.875,-0.534,-1.526,-0.793,0.244,73.333,14049.000,1.000
-0.890,-0.880,-1.099,-1.003,-0.739,-1.130,-1.190,-0.930,-0.064,0.872,-0.534,-1.526,-0.916,0.122,73.333,14050.000,1.000
-1.100,-1.224,-1.280,-1.340,-0.960,-1.441,-1.325,-1.042,-0.063,0.870,-0.538,-1.404,-0.946,0.153,73.333,14051.000,1.000
-0.772,-1.006,-0.962,-1.189,-0.640,-1.198,-0.921,-0.704,-0.062,0.870,-0.535,-1.282,-0.977,0.183,73.333,14052.000,1.000
-0.130,-0.421,-0.351,-0.688,-0.016,-0.604,-0.227,-0.139,-0.060,0.870,-0.533,-1.190,-0.916,0.183,73.333,14053.000,1.000
0.527,0.245,0.292,-0.065,0.599,0.065,0.462,0.410,-0.060,0.870,-0.533,-1.160,-0.916,0.061,73.333,14054.000,1.000
1.068,0.856,0.862,0.576,1.093,0.689,1.031,0.883,-0.059,0.869,-0.533,-1.007,-0.916,0.000,73.333,14055.000,1.000
1.510,1.403,1.369,1.220,1.503,1.265,1.504,1.342,-0.059,0.868,-0.534,-0.946,-0.916,0.153,73.333,14056.000,1.000
1.937,1.916,1.858,1.872,1.906,1.818,1.951,1.852,-0.059,0.867,-0.536,-0.793,-0.885,0.122,73.333,14057.000,1.000
2.298,2.288,2.243,2.391,2.224,2.224,2.300,2.300,-0.060,0.869,-0.532,-0.824,-0.763,0.244,73.333,14058.000,1.000
2.414,2.334,2.343,2.561,2.271,2.281,2.377,2.460,-0.060,0.870,-0.533,-0.854,-0.793,0.397,73.333,14059.000,1.000
2.154,1.974,2.065,2.277,1.946,1.916,2.094,2.199,-0.062,0.871,-0.536,-0.854,-0.793,0.275,73.333,14060.000,1.000
1.548,1.307,1.474,1.626,1.324,1.263,1.522,1.572,-0.059,0.869,-0.538,-0.641,-0.854,0.336,73.333,14061.000,1.000
0.880,0.638,0.841,0.911,0.700,0.661,0.925,0.866,-0.061,0.870,-0.537,-0.549,-0.854,0.366,73.333,14062.000,1.000
0.560,0.351,0.536,0.531,0.455,0.484,0.644,0.484,-0.061,0.873,-0.537,-0.519,-0.824,0.397,73.333,14063.000,1.000
0.893,0.723,0.841,0.793,0.851,0.946,0.938,0.747,-0.062,0.875,-0.532,-0.488,-0.824,0.336,73.333,14064.000,1.000
1.795,1.652,1.673,1.649,1.772,1.889,1.744,1.605,-0.060,0.876,-0.534,-0.519,-0.824,0.397,73.333,14065.000,1.000
2.730,2.596,2.538,2.613,2.690,2.775,2.598,2.561,-0.058,0.877,-0.533,-0.519,-0.763,0.427,73.333,14066.000,1.000
3.083,2.934,2.873,3.089,3.019,3.042,2.948,3.013,-0.057,0.877,-0.533,-0.641,-0.702,0.458,73.333,14067.000,1.000
2.472,2.284,2.326,2.656,2.403,2.366,2.427,2.548,-0.058,0.876,-0.535,-0.671,-0.641,0.427,73.333,14068.000,1.000
0.976,0.755,0.950,1.321,0.923,0.863,1.071,1.181,-0.056,0.874,-0.537,-0.702,-0.641,0.336,73.333,14069.000,1.000
-0.915,-1.120,-0.824,-0.485,-0.945,-0.971,-0.701,-0.649,-0.057,0.870,-0.536,-0.641,-0.549,0.427,73.333,14070.000,1.000
-2.641,-2.764,-2.486,-2.230,-2.647,-2.595,-2.389,-2.406,-0.056,0.867,-0.534,-0.702,-0.519,0.397,73.333,14071.000,1.000
-3.774,-3.772,-3.611,-3.466,-3.743,-3.617,-3.571,-3.644,-0.057,0.868,-0.535,-0.671,-0.427,0.427,73.333,14072.000,1.000
-4.134,-4.017,-3.985,-3.957,-4.041,-3.897,-4.025,-4.141,-0.057,0.868,-0.538,-0.580,-0.397,0.397,73.333,14073.000,1.000
-3.774,-3.615,-3.644,-3.691,-3.606,-3.516,-3.752,-3.903,-0.059,0.870,-0.534,-0.580,-0.305,0.458,73.333,14074.000,1.000
-2.916,-2.824,-2.812,-2.855,-2.694,-2.694,-2.942,-3.116,-0.059,0.873,-0.532,-0.580,-0.366,0.427,73.333,14075.000,1.000
-1.881,-1.940,-1.809,-1.781,-1.658,-1.725,-1.906,-2.075,-0.058,0.874,-0.534,-0.671,-0.244,0.488,73.333,14076.000,1.000
-0.908,-1.129,-0.876,-0.751,-0.750,-0.823,-0.890,-1.015,-0.058,0.875,-0.537,-0.732,-0.214,0.458,73.333,14077.000,1.000
-0.099,-0.413,-0.113,0.080,-0.047,-0.077,-0.020,-0.078,-0.060,0.879,-0.538,-0.885,-0.183,0.397,73.333,14078.000,1.000
0.577,0.268,0.520,0.716,0.525,0.551,0.694,0.696,-0.062,0.878,-0.535,-1.007,-0.244,0.336,73.333,14079.000,1.000
1.109,0.861,1.023,1.151,0.984,1.043,1.198,1.247,-0.067,0.878,-0.536,-0.916,-0.366,0.427,73.333,14080.000,1.000
1.231,1.036,1.158,1.160,1.067,1.129,1.230,1.330,-0.070,0.878,-0.538,-1.007,-0.549,0.305,73.333,14081.000,1.000
0.631,0.436,0.620,0.468,0.434,0.490,0.503,0.676,-0.073,0.876,-0.539,-1.038,-0.641,0.122,73.333,14082.000,1.000
-0.811,-1.041,-0.726,-1.025,-1.056,-0.991,-1.065,-0.805,-0.076,0.872,-0.539,-1.190,-0.885,0.000,73.333,14083.000,1.000
-2.869,-3.122,-2.694,-3.087,-3.185,-3.078,-3.209,-2.889,-0.074,0.873,-0.537,-1.160,-1.190,-0.183,73.333,14084.000,1.000
-5.029,-5.274,-4.817,-5.216,-5.431,-5.259,-5.377,-5.074,-0.074,0.871,-0.539,-1.190,-1.404,-0.244,73.333,14085.000,1.000
-6.685,-6.922,-6.517,-6.845,-7.163,-6.936,-6.958,-6.773,-0.075,0.872,-0.538,-1.221,-1.556,-0.336,73.333,14086.000,1.000
-7.252,-7.529,-7.207,-7.426,-7.766,-7.526,-7.402,-7.415,-0.072,0.871,-0.535,-1.251,-1.678,-0.488,73.333,14087.000,1.000
-6.438,-6.796,-6.544,-6.661,-6.935,-6.712,-6.456,-6.689,-0.070,0.872,-0.534,-1.282,-1.953,-0.488,73.333,14088.000,1.000
-4.467,-4.887,-4.683,-4.745,-4.897,-4.687,-4.391,-4.780,-0.067,0.873,-0.533,-1.343,-2.014,-0.519,73.333,14089.000,1.000
-2.071,-2.466,-2.315,-2.382,-2.397,-2.172,-1.982,-2.381,-0.066,0.872,-0.536,-1.282,-2.075,-0.519,73.333,14090.000,1.000
-0.155,-0.415,-0.349,-0.462,-0.363,-0.092,-0.149,-0.401,-0.064,0.873,-0.536,-1.282,-1.984,-0.458,73.333,14091.000,1.000
0.738,0.689,0.651,0.482,0.642,0.977,0.612,0.587,-0.063,0.876,-0.537,-1.282,-2.075,-0.275,73.333,14092.000,1.000
0.624,0.782,0.663,0.453,0.614,0.997,0.390,0.557,-0.063,0.874,-0.537,-1.251,-2.106,-0.305,73.333,14093.000,1.000
-0.075,0.210,0.078,-0.154,-0.041,0.343,-0.322,-0.096,-0.063,0.873,-0.535,-1.282,-2.075,-0.092,73.333,14094.000,1.000
-0.901,-0.604,-0.665,-0.908,-0.873,-0.526,-1.036,-0.912,-0.062,0.874,-0.535,-1.343,-2.014,0.031,73.333,14095.000,1.000
-1.669,-1.450,-1.384,-1.634,-1.686,-1.375,-1.606,-1.691,-0.060,0.873,-0.539,-1.343,-1.892,0.305,73.333,14096.000,1.000
-2.362,-2.248,-2.054,-2.304,-2.419,-2.132,-2.097,-2.409,-0.059,0.875,-0.536,-1.404,-1.923,0.397,73.333,14097.000,1.000
-2.978,-2.938,-2.675,-2.906,-3.022,-2.783,-2.592,-3.063,-0.060,0.873,-0.536,-1.404,-1.831,0.519,73.333,14098.000,1.000
-3.448,-3.434,-3.177,-3.376,-3.414,-3.281,-3.049,-3.575,-0.059,0.872,-0.538,-1.434,-1.648,0.641,73.333,14099.000,1.000
-3.668,-3.649,-3.443,-3.618,-3.524,-3.546,-3.340,-3.817,-0.058,0.874,-0.538,-1.465,-1.404,0.763,73.333,14100.000,1.000
-3.600,-3.574,-3.431,-3.595,-3.366,-3.555,-3.391,-3.744,-0.058,0.873,-0.538,-1.556,-1.343,0.824,73.333,14101.000,1.000
-3.286,-3.258,-3.200,-3.342,-3.024,-3.346,-3.222,-3.418,-0.060,0.873,-0.536,-1.526,-1.221,0.916,73.333,14102.000,1.000
-2.903,-2.860,-2.934,-3.010,-2.690,-3.066,-2.982,-3.041,-0.061,0.873,-0.531,-1.587,-1.160,1.007,73.333,14103.000,1.000
-2.628,-2.538,-2.784,-2.749,-2.510,-2.855,-2.796,-2.798,-0.060,0.872,-0.532,-1.587,-1.221,0.916,73.333,14104.000,1.000
-2.454,-2.295,-2.704,-2.553,-2.426,-2.702,-2.630,-2.681,-0.059,0.870,-0.531,-1.617,-1.038,0.977,73.333,14105.000,1.000
-2.242,-2.031,-2.541,-2.319,-2.261,-2.496,-2.362,-2.533,-0.059,0.871,-0.531,-1.556,-0.946,0.854,73.333,14106.000,1.000
-1.811,-1.572,-2.093,-1.871,-1.816,-2.062,-1.840,-2.113,-0.057,0.873,-0.535,-1.648,-0.793,0.885,73.333,14107.000,1.000
-1.073,-0.802,-1.254,-1.092,-1.013,-1.281,-0.997,-1.278,-0.054,0.873,-0.536,-1.587,-0.549,0.885,73.333,14108.000,1.000
-0.068,0.240,-0.094,-0.024,0.054,-0.190,0.091,-0.103,-0.054,0.871,-0.537,-1.587,-0.488,0.854,73.333,14109.000,1.000
1.019,1.331,1.132,1.101,1.145,0.983,1.206,1.126,-0.051,0.871,-0.538,-1.495,-0.275,0.793,73.333,14110.000,1.000
1.871,2.119,2.040,1.917,1.929,1.863,2.009,2.003,-0.052,0.870,-0.539,-1.526,0.031,0.854,73.333,14111.000,1.000
2.241,2.372,2.360,2.167,2.205,2.185,2.262,2.273,-0.052,0.873,-0.540,-1.434,0.214,0.793,73.333,14112.000,1.000
2.083,2.099,2.068,1.842,1.990,1.929,1.954,1.957,-0.053,0.871,-0.538,-1.404,0.336,0.854,73.333,14113.000,1.000
1.601,1.553,1.428,1.210,1.523,1.353,1.338,1.346,-0.052,0.872,-0.537,-1.373,0.488,0.641,73.333,14114.000,1.000
1.137,1.100,0.857,0.674,1.133,0.846,0.797,0.845,-0.055,0.873,-0.538,-1.251,0.610,0.671,73.333,14115.000,1.000
0.930,0.967,0.639,0.498,1.020,0.662,0.588,0.710,-0.057,0.874,-0.537,-1.221,0.732,0.519,73.333,14116.000,1.000
1.026,1.157,0.804,0.695,1.185,0.819,0.752,0.945,-0.056,0.875,-0.535,-1.099,0.824,0.427,73.333,14117.000,1.000
1.246,1.433,1.117,1.024,1.428,1.108,1.080,1.298,-0.058,0.873,-0.535,-1.160,1.038,0.397,73.333,14118.000,1.000
1.393,1.554,1.329,1.239,1.554,1.319,1.330,1.509,-0.060,0.872,-0.536,-1.251,1.038,0.214,73.333,14119.000,1.000
1.492,1.552,1.443,1.358,1.616,1.486,1.495,1.591,-0.061,0.871,-0.538,-1.282,1.129,0.153,73.333,14120.000,1.000
1.750,1.694,1.667,1.618,1.848,1.812,1.769,1.779,-0.061,0.869,-0.539,-1.251,1.068,0.092,73.333,14121.000,1.000
2.333,2.215,2.191,2.235,2.435,2.445,2.328,2.288,-0.062,0.870,-0.539,-1.251,1.099,0.122,73.333,14122.000,1.000
3.127,3.026,2.933,3.116,3.254,3.254,3.082,3.050,-0.062,0.870,-0.536,-1.190,1.068,0.000,73.333,14123.000,1.000
3.858,3.825,3.638,3.965,4.007,3.957,3.782,3.808,-0.062,0.872,-0.538,-1.190,1.068,-0.061,73.333,14124.000,1.000
4.355,4.392,4.138,4.559,4.501,4.379,4.277,4.370,-0.063,0.874,-0.539,-1.068,1.038,-0.031,73.333,14125.000,1.000
4.596,4.674,4.402,4.841,4.705,4.518,4.567,4.679,-0.063,0.877,-0.536,-0.946,1.007,-0.092,73.333,14126.000,1.000
4.668,4.752,4.508,4.899,4.733,4.506,4.748,4.802,-0.065,0.874,-0.537,-1.099,0.977,-0.061,73.333,14127.000,1.000
4.637,4.710,4.522,4.822,4.696,4.455,4.861,4.807,-0.065,0.874,-0.540,-1.038,0.854,-0.031,73.333,14128.000,1.000
4.567,4.634,4.507,4.700,4.681,4.446,4.918,4.774,-0.065,0.873,-0.536,-1.099,0.824,-0.031,73.333,14129.000,1.000
4.517,4.601,4.515,4.623,4.739,4.524,4.930,4.783,-0.067,0.875,-0.536,-1.007,0.732,0.092,73.333,14130.000,1.000
4.434,4.552,4.484,4.562,4.764,4.585,4.832,4.769,-0.068,0.876,-0.538,-1.068,0.580,0.153,73.333,14131.000,1.000
4.250,4.391,4.348,4.447,4.625,4.496,4.587,4.640,-0.067,0.878,-0.534,-1.099,0.488,0.336,73.333,14132.000,1.000
3.974,4.097,4.117,4.256,4.287,4.213,4.240,4.379,-0.068,0.880,-0.533,-1.160,0.336,0.336,73.333,14133.000,1.000
3.747,3.801,3.916,4.105,3.909,3.878,3.945,4.122,-0.067,0.879,-0.534,-1.160,0.183,0.397,73.333,14134.000,1.000
3.790,3.754,3.945,4.220,3.788,3.778,3.925,4.105,-0.067,0.877,-0.533,-1.221,0.092,0.458,73.333,14135.000,1.000
4.164,4.065,4.269,4.672,4.070,4.065,4.244,4.404,-0.066,0.877,-0.535,-1.190,-0.092,0.580,73.333,14136.000,1.000
4.665,4.560,4.716,5.243,4.579,4.593,4.700,4.830,-0.066,0.876,-0.533,-1.251,-0.244,0.671,73.333,14137.000,1.000
4.882,4.815,4.902,5.483,4.878,4.933,4.873,4.987,-0.068,0.875,-0.536,-1.190,-0.214,0.702,73.333,14138.000,1.000
4.485,4.469,4.506,5.032,4.592,4.689,4.425,4.557,-0.065,0.873,-0.535,-1.190,-0.275,0.702,73.333,14139.000,1.000
3.451,3.484,3.495,3.862,3.652,3.766,3.336,3.521,-0.064,0.872,-0.535,-1.221,-0.336,0.732,73.333,14140.000,1.000
2.009,2.089,2.076,2.227,2.239,2.354,1.842,2.097,-0.060,0.870,-0.540,-1.221,-0.366,0.793,73.333,14141.000,1.000
0.551,0.681,0.621,0.572,0.725,0.853,0.348,0.665,-0.060,0.872,-0.541,-1.221,-0.549,0.885,73.333,14142.000,1.000
-0.588,-0.401,-0.525,-0.685,-0.530,-0.350,-0.787,-0.440,-0.059,0.873,-0.538,-1.160,-0.549,0.946,73.333,14143.000,1.000
-1.211,-0.958,-1.138,-1.291,-1.275,-1.003,-1.343,-1.023,-0.057,0.872,-0.537,-1.190,-0.488,0.977,73.333,14144.000,1.000
-1.243,-0.929,-1.129,-1.197,-1.388,-1.015,-1.257,-1.021,-0.053,0.871,-0.537,-1.007,-0.488,1.038,73.333,14145.000,1.000
-0.823,-0.464,-0.649,-0.633,-0.984,-0.536,-0.707,-0.574,-0.055,0.872,-0.538,-0.885,-0.366,1.068,73.333,14146.000,1.000
-0.272,0.110,-0.050,-0.003,-0.395,0.080,-0.062,-0.002,-0.058,0.869,-0.535,-0.916,-0.244,1.160,73.333,14147.000,1.000
-0.050,0.335,0.175,0.207,-0.104,0.334,0.186,0.230,-0.060,0.869,-0.534,-0.854,-0.153,1.129,73.333,14148.000,1.000
-0.561,-0.180,-0.375,-0.363,-0.533,-0.197,-0.358,-0.282,-0.064,0.871,-0.537,-0.885,-0.153,1.038,73.333,14149.000,1.000
-1.877,-1.510,-1.751,-1.737,-1.786,-1.585,-1.729,-1.618,-0.066,0.871,-0.538,-0.946,-0.214,1.007,73.333,14150.000,1.000
-3.713,-3.394,-3.639,-3.613,-3.620,-3.530,-3.606,-3.502,-0.063,0.871,-0.538,-0.916,-0.305,0.732,73.333,14151.000,1.000
-5.500,-5.294,-5.455,-5.438,-5.485,-5.454,-5.415,-5.368,-0.063,0.872,-0.540,-0.885,-0.305,0.549,73.333,14152.000,1.000
-6.592,-6.559,-6.548,-6.577,-6.705,-6.695,-6.527,-6.552,-0.060,0.875,-0.539,-0.824,-0.366,0.397,73.333,14153.000,1.000
-6.467,-6.613,-6.407,-6.508,-6.704,-6.710,-6.443,-6.509,-0.059,0.874,-0.537,-0.916,-0.366,0.336,73.333,14154.000,1.000
-5.007,-5.272,-4.932,-5.089,-5.311,-5.349,-5.034,-5.102,-0.060,0.875,-0.538,-0.885,-0.397,0.244,73.333,14155.000,1.000
-2.723,-3.014,-2.653,-2.808,-3.004,-3.094,-2.780,-2.840,-0.059,0.873,-0.536,-0.946,-0.305,0.275,73.333,14156.000,1.000
-0.525,-0.761,-0.475,-0.574,-0.703,-0.847,-0.571,-0.647,-0.058,0.874,-0.533,-0.916,-0.305,0.183,73.333,14157.000,1.000
0.767,0.623,0.793,0.758,0.719,0.545,0.761,0.639,-0.057,0.873,-0.533,-0.824,-0.214,0.122,73.333,14158.000,1.000
0.937,0.877,0.945,0.931,0.979,0.832,0.983,0.801,-0.057,0.873,-0.541,-0.916,-0.183,0.092,73.333,14159.000,1.000
0.467,0.441,0.459,0.410,0.511,0.456,0.556,0.326,-0.058,0.873,-0.538,-0.946,-0.183,0.031,73.333,14160.000,1.000
0.037,-0.024,0.021,-0.096,0.009,0.076,0.150,-0.086,-0.060,0.873,-0.537,-0.977,-0.214,0.061,73.333,14161.000,1.000
0.031,-0.124,0.033,-0.143,-0.082,0.078,0.162,-0.035,-0.062,0.874,-0.534,-0.946,-0.183,0.153,73.333,14162.000,1.000
0.284,0.018,0.338,0.133,0.133,0.324,0.450,0.311,-0.061,0.875,-0.534,-0.885,-0.183,0.183,73.333,14163.000,1.000
0.370,0.017,0.489,0.271,0.237,0.405,0.576,0.494,-0.061,0.875,-0.536,-0.946,-0.305,0.153,73.333,14164.000,1.000
0.114,-0.276,0.276,0.040,0.023,0.137,0.317,0.296,-0.062,0.875,-0.534,-0.946,-0.244,0.336,73.333,14165.000,1.000
-0.320,-0.675,-0.142,-0.400,-0.363,-0.320,-0.187,-0.133,-0.061,0.874,-0.537,-0.977,-0.275,0.336,73.333,14166.000,1.000
-0.624,-0.871,-0.444,-0.708,-0.623,-0.643,-0.623,-0.469,-0.061,0.876,-0.534,-1.129,-0.244,0.366,73.333,14167.000,1.000
-0.635,-0.748,-0.467,-0.706,-0.605,-0.652,-0.803,-0.526,-0.062,0.875,-0.534,-1.099,-0.366,0.275,73.333,14168.000,1.000
-0.409,-0.433,-0.275,-0.470,-0.380,-0.401,-0.743,-0.345,-0.061,0.877,-0.537,-1.129,-0.458,0.336,73.333,14169.000,1.000
-0.152,-0.173,-0.054,-0.216,-0.150,-0.111,-0.595,-0.116,-0.062,0.876,-0.537,-1.129,-0.519,0.366,73.333,14170.000,1.000
-0.135,-0.224,-0.054,-0.208,-0.170,-0.072,-0.592,-0.101,-0.062,0.877,-0.534,-1.190,-0.519,0.458,73.333,14171.000,1.000
-0.449,-0.638,-0.377,-0.534,-0.533,-0.397,-0.839,-0.419,-0.062,0.877,-0.535,-1.099,-0.549,0.488,73.333,14172.000,1.000
-0.985,-1.272,-0.944,-1.091,-1.145,-0.992,-1.281,-0.997,-0.062,0.875,-0.537,-1.251,-0.458,0.519,73.333,14173.000,1.000
-1.595,-1.943,-1.620,-1.733,-1.843,-1.695,-1.830,-1.693,-0.063,0.875,-0.536,-1.282,-0.519,0.488,73.333,14174.000,1.000
-2.181,-2.520,-2.296,-2.359,-2.475,-2.363,-2.419,-2.371,-0.063,0.875,-0.536,-1.434,-0.610,0.671,73.333,14175.000,1.000
-2.716,-2.977,-2.922,-2.933,-2.967,-2.923,-3.008,-2.961,-0.065,0.875,-0.535,-1.465,-0.641,0.549,73.333,14176.000,1.000
-3.195,-3.336,-3.466,-3.426,-3.306,-3.350,-3.529,-3.424,-0.063,0.875,-0.537,-1.495,-0.641,0.641,73.333,14177.000,1.000
-3.667,-3.671,-3.942,-3.865,-3.580,-3.705,-3.955,-3.800,-0.064,0.872,-0.534,-1.465,-0.671,0.580,73.333,14178.000,1.000
-4.121,-4.000,-4.336,-4.249,-3.854,-4.019,-4.260,-4.108,-0.063,0.873,-0.534,-1.587,-0.793,0.549,73.333,14179.000,1.000
-4.381,-4.181,-4.508,-4.441,-4.022,-4.169,-4.329,-4.225,-0.063,0.871,-0.532,-1.556,-0.854,0.580,73.333,14180.000,1.000
-4.263,-4.043,-4.330,-4.301,-3.917,-4.005,-4.063,-4.018,-0.062,0.872,-0.533,-1.495,-0.946,0.488,73.333,14181.000,1.000
-3.707,-3.508,-3.772,-3.782,-3.443,-3.474,-3.456,-3.458,-0.063,0.875,-0.535,-1.495,-0.885,0.427,73.333,14182.000,1.000
-2.878,-2.707,-2.981,-3.018,-2.703,-2.713,-2.664,-2.704,-0.062,0.874,-0.533,-1.495,-0.946,0.488,73.333,14183.000,1.000
-2.047,-1.899,-2.178,-2.223,-1.918,-1.951,-1.914,-1.981,-0.062,0.875,-0.535,-1.373,-1.038,0.427,73.333,14184.000,1.000
-1.377,-1.257,-1.484,-1.527,-1.241,-1.320,-1.317,-1.399,-0.063,0.872,-0.535,-1.373,-1.038,0.458,73.333,14185.000,1.000
-0.902,-0.828,-0.911,-0.967,-0.726,-0.842,-0.866,-0.962,-0.062,0.872,-0.537,-1.373,-1.068,0.366,73.333,14186.000,1.000
-0.529,-0.517,-0.406,-0.484,-0.307,-0.444,-0.462,-0.593,-0.063,0.871,-0.532,-1.282,-1.099,0.427,73.333,14187.000,1.000
-0.164,-0.212,0.041,-0.034,0.093,-0.081,-0.041,-0.239,-0.064,0.872,-0.534,-1.221,-1.129,0.305,73.333,14188.000,1.000
0.243,0.154,0.418,0.394,0.508,0.256,0.402,0.125,-0.064,0.872,-0.534,-1.221,-1.221,0.336,73.333,14189.000,1.000
0.702,0.598,0.754,0.814,0.934,0.585,0.851,0.526,-0.063,0.872,-0.536,-1.282,-1.251,0.366,73.333,14190.000,1.000
1.095,0.992,0.989,1.141,1.240,0.837,1.169,0.873,-0.064,0.872,-0.536,-1.282,-1.251,0.397,73.333,14191.000,1.000
1.255,1.164,1.010,1.234,1.265,0.905,1.195,1.020,-0.066,0.876,-0.536,-1.221,-1.312,0.336,73.333,14192.000,1.000
1.130,1.056,0.796,1.057,0.990,0.765,0.916,0.920,-0.063,0.875,-0.534,-1.282,-1.434,0.305,73.333,14193.000,1.000
0.860,0.801,0.500,0.764,0.607,0.553,0.540,0.701,-0.061,0.875,-0.535,-1.282,-1.495,0.244,73.333,14194.000,1.000
0.643,0.588,0.307,0.556,0.359,0.445,0.311,0.535,-0.063,0.876,-0.536,-1.160,-1.556,0.336,73.333,14195.000,1.000
0.521,0.455,0.235,0.457,0.287,0.455,0.258,0.443,-0.063,0.877,-0.536,-1.099,-1.465,0.305,73.333,14196.000,1.000
0.396,0.313,0.179,0.354,0.261,0.464,0.232,0.336,-0.066,0.876,-0.535,-1.160,-1.587,0.336,73.333,14197.000,1.000
0.077,-0.020,-0.053,0.056,0.050,0.252,-0.004,0.032,-0.063,0.877,-0.535,-1.221,-1.678,0.244,73.333,14198.000,1.000
-0.532,-0.634,-0.564,-0.523,-0.469,-0.311,-0.564,-0.571,-0.063,0.876,-0.534,-1.282,-1.587,0.183,73.333,14199.000,1.000
-1.236,-1.339,-1.175,-1.194,-1.121,-1.052,-1.249,-1.308,-0.063,0.875,-0.534,-1.373,-1.526,0.275,73.333,14200.000,1.000
-1.750,-1.852,-1.611,-1.697,-1.622,-1.669,-1.761,-1.898,-0.062,0.876,-0.536,-1.434,-1.587,0.244,73.333,14201.000,1.000
-1.900,-2.000,-1.713,-1.888,-1.788,-1.949,-1.924,-2.139,-0.063,0.875,-0.536,-1.373,-1.648,0.244,73.333,14202.000,1.000
-1.726,-1.822,-1.534,-1.812,-1.656,-1.886,-1.784,-2.024,-0.063,0.874,-0.536,-1.312,-1.648,0.305,73.333,14203.000,1.000
-1.428,-1.529,-1.280,-1.635,-1.436,-1.650,-1.542,-1.721,-0.061,0.875,-0.533,-1.221,-1.587,0.275,73.333,14204.000,1.000
-1.248,-1.358,-1.180,-1.537,-1.356,-1.478,-1.423,-1.476,-0.061,0.875,-0.531,-1.221,-1.678,0.305,73.333,14205.000,1.000
-1.412,-1.509,-1.431,-1.694,-1.597,-1.605,-1.620,-1.536,-0.060,0.874,-0.534,-1.129,-1.678,0.366,73.333,14206.000,1.000
-1.961,-2.011,-2.040,-2.146,-2.158,-2.092,-2.147,-1.984,-0.061,0.872,-0.533,-1.221,-1.587,0.488,73.333,14207.000,1.000
-2.708,-2.703,-2.792,-2.751,-2.845,-2.766,-2.808,-2.674,-0.061,0.874,-0.533,-1.190,-1.465,0.397,73.333,14208.000,1.000
-3.284,-3.248,-3.319,-3.207,-3.317,-3.265,-3.244,-3.266,-0.061,0.872,-0.536,-1.129,-1.434,0.427,73.333,14209.000,1.000
-3.310,-3.273,-3.264,-3.186,-3.239,-3.214,-3.109,-3.363,-0.060,0.872,-0.529,-1.160,-1.434,0.397,73.333,14210.000,1.000
-2.732,-2.700,-2.598,-2.638,-2.598,-2.573,-2.396,-2.863,-0.061,0.870,-0.531,-1.129,-1.343,0.397,73.333,14211.000,1.000
-1.853,-1.797,-1.649,-1.831,-1.714,-1.655,-1.442,-2.022,-0.058,0.870,-0.533,-1.038,-1.282,0.336,73.333,14212.000,1.000
-1.100,-0.977,-0.857,-1.148,-1.003,-0.885,-0.685,-1.248,-0.058,0.868,-0.537,-1.007,-1.221,0.397,73.333,14213.000,1.000
-0.716,-0.492,-0.453,-0.803,-0.678,-0.495,-0.343,-0.792,-0.058,0.868,-0.538,-0.885,-1.221,0.427,73.333,14214.000,1.000
-0.629,-0.302,-0.334,-0.704,-0.636,-0.409,-0.309,-0.610,-0.057,0.870,-0.538,-0.854,-1.129,0.305,73.333,14215.000,1.000
-0.647,-0.270,-0.311,-0.669,-0.681,-0.457,-0.379,-0.561,-0.057,0.869,-0.532,-0.763,-1.007,0.336,73.333,14216.000,1.000
-0.643,-0.317,-0.284,-0.600,-0.703,-0.520,-0.429,-0.557,-0.060,0.871,-0.533,-0.702,-0.885,0.366,73.333,14217.000,1.000
-0.636,-0.455,-0.306,-0.558,-0.732,-0.602,-0.484,-0.617,-0.059,0.871,-0.535,-0.641,-0.793,0.397,73.333,14218.000,1.000
-0.687,-0.680,-0.440,-0.616,-0.815,-0.725,-0.606,-0.773,-0.059,0.873,-0.535,-0.580,-0.732,0.305,73.333,14219.000,1.000
-0.758,-0.866,-0.626,-0.716,-0.880,-0.817,-0.747,-0.947,-0.059,0.874,-0.537,-0.549,-0.671,0.244,73.333,14220.000,1.000
-0.781,-0.908,-0.753,-0.765,-0.841,-0.805,-0.802,-1.022,-0.059,0.874,-0.535,-0.549,-0.641,0.183,73.333,14221.000,1.000
-0.679,-0.758,-0.708,-0.685,-0.642,-0.643,-0.671,-0.896,-0.058,0.875,-0.537,-0.641,-0.610,0.122,73.333,14222.000,1.000
-0.448,-0.465,-0.495,-0.485,-0.327,-0.368,-0.373,-0.586,-0.059,0.873,-0.537,-0.732,-0.549,0.214,73.333,14223.000,1.000
-0.182,-0.149,-0.247,-0.252,-0.022,-0.090,-0.056,-0.231,-0.059,0.873,-0.534,-0.763,-0.458,0.183,73.333,14224.000,1.000
0.057,0.121,-0.058,-0.030,0.202,0.128,0.176,0.064,-0.060,0.873,-0.535,-0.671,-0.458,0.214,73.333,14225.000,1.000
0.272,0.348,0.088,0.193,0.351,0.283,0.325,0.287,-0.059,0.874,-0.534,-0.641,-0.427,0.214,73.333,14226.000,1.000
0.529,0.584,0.304,0.483,0.500,0.438,0.487,0.521,-0.060,0.875,-0.538,-0.885,-0.366,0.214,73.333,14227.000,1.000
0.820,0.821,0.615,0.835,0.674,0.601,0.688,0.791,-0.059,0.875,-0.537,-0.824,-0.305,0.366,73.333,14228.000,1.000
1.044,0.984,0.907,1.154,0.812,0.723,0.855,1.017,-0.059,0.878,-0.539,-0.916,-0.244,0.366,73.333,14229.000,1.000
1.172,1.080,1.102,1.398,0.908,0.829,0.974,1.158,-0.059,0.877,-0.533,-0.946,-0.153,0.366,73.333,14230.000,1.000
1.278,1.204,1.230,1.605,1.029,1.003,1.120,1.263,-0.058,0.876,-0.533,-0.946,-0.153,0.275,73.333,14231.000,1.000
1.506,1.494,1.429,1.883,1.306,1.338,1.417,1.462,-0.059,0.876,-0.534,-1.007,-0.092,0.305,73.333,14232.000,1.000
1.926,2.001,1.795,2.291,1.800,1.831,1.909,1.844,-0.059,0.875,-0.531,-1.099,-0.061,0.366,73.333,14233.000,1.000
2.486,2.642,2.320,2.792,2.443,2.388,2.526,2.398,-0.060,0.876,-0.529,-1.160,0.061,0.397,73.333,14234.000,1.000
3.093,3.287,2.929,3.314,3.116,2.918,3.161,3.044,-0.061,0.875,-0.535,-1.190,0.153,0.427,73.333,14235.000,1.000
3.585,3.760,3.447,3.725,3.649,3.304,3.646,3.602,-0.060,0.876,-0.532,-1.251,0.061,0.519,73.333,14236.000,1.000
3.801,3.926,3.672,3.895,3.893,3.462,3.824,3.892,-0.060,0.876,-0.533,-1.251,0.092,0.519,73.333,14237.000,1.000
3.639,3.751,3.495,3.745,3.770,3.365,3.627,3.815,-0.062,0.875,-0.535,-1.251,0.000,0.488,73.333,14238.000,1.000
3.177,3.353,3.013,3.350,3.359,3.104,3.171,3.449,-0.063,0.874,-0.537,-1.221,0.031,0.671,73.333,14239.000,1.000
2.713,3.009,2.551,2.985,2.932,2.907,2.771,3.071,-0.062,0.874,-0.534,-1.312,0.031,0.763,73.333,14240.000,1.000
2.526,2.933,2.400,2.891,2.741,2.941,2.698,2.925,-0.064,0.875,-0.533,-1.282,0.031,0.671,73.333,14241.000,1.000
2.690,3.149,2.646,3.109,2.862,3.208,3.022,3.078,-0.064,0.875,-0.535,-1.343,0.061,0.732,73.333,14242.000,1.000
3.047,3.481,3.122,3.454,3.158,3.544,3.553,3.381,-0.066,0.875,-0.533,-1.312,0.031,0.671,73.333,14243.000,1.000
3.381,3.710,3.553,3.684,3.430,3.761,3.994,3.616,-0.065,0.874,-0.534,-1.343,-0.061,0.580,73.333,14244.000,1.000
3.610,3.783,3.788,3.723,3.604,3.821,4.189,3.712,-0.064,0.874,-0.534,-1.190,-0.092,0.549,73.333,14245.000,1.000
3.765,3.791,3.835,3.664,3.706,3.798,4.176,3.744,-0.064,0.875,-0.535,-1.160,-0.214,0.519,73.333,14246.000,1.000
3.971,3.914,3.859,3.717,3.849,3.858,4.153,3.881,-0.064,0.875,-0.531,-1.068,-0.244,0.580,73.333,14247.000,1.000
4.294,4.221,3.998,3.995,4.100,4.093,4.258,4.195,-0.064,0.876,-0.533,-1.038,-0.336,0.610,73.333,14248.000,1.000
4.608,4.545,4.205,4.366,4.361,4.398,4.416,4.540,-0.063,0.873,-0.536,-0.977,-0.458,0.519,73.333,14249.000,1.000
4.729,4.659,4.328,4.580,4.464,4.573,4.452,4.697,-0.061,0.872,-0.534,-0.977,-0.488,0.641,73.333,14250.000,1.000
4.513,4.419,4.196,4.420,4.255,4.444,4.206,4.497,-0.059,0.872,-0.533,-0.977,-0.366,0.549,73.333,14251.000,1.000
3.956,3.849,3.746,3.851,3.711,3.982,3.660,3.930,-0.057,0.871,-0.536,-0.854,-0.336,0.641,73.333,14252.000,1.000
3.182,3.098,3.072,3.035,2.954,3.296,2.944,3.146,-0.057,0.870,-0.536,-0.885,-0.366,0.671,73.333,14253.000,1.000
2.376,2.341,2.371,2.221,2.176,2.550,2.251,2.370,-0.059,0.869,-0.532,-0.763,-0.397,0.641,73.333,14254.000,1.000
1.696,1.700,1.812,1.604,1.533,1.893,1.721,1.785,-0.059,0.871,-0.533,-0.671,-0.305,0.702,73.333,14255.000,1.000
1.176,1.177,1.408,1.194,1.038,1.379,1.328,1.398,-0.057,0.874,-0.535,-0.549,-0.275,0.793,73.333,14256.000,1.000
0.822,0.782,1.124,0.938,0.675,1.044,1.020,1.144,-0.060,0.872,-0.539,-0.427,-0.305,0.824,73.333,14257.000,1.000
0.636,0.548,0.938,0.786,0.429,0.880,0.774,0.945,-0.059,0.870,-0.534,-0.519,-0.397,0.824,73.333,14258.000,1.000
0.580,0.467,0.807,0.677,0.274,0.808,0.575,0.741,-0.060,0.870,-0.532,-0.519,-0.336,0.702,73.333,14259.000,1.000
0.587,0.482,0.683,0.569,0.195,0.734,0.412,0.519,-0.065,0.870,-0.531,-0.458,-0.366,0.641,73.333,14260.000,1.000
0.497,0.424,0.460,0.378,0.109,0.524,0.204,0.231,-0.066,0.872,-0.532,-0.488,-0.336,0.458,73.333,14261.000,1.000
0.219,0.168,0.111,0.093,-0.043,0.147,-0.093,-0.116,-0.065,0.874,-0.530,-0.427,-0.397,0.458,73.333,14262.000,1.000
-0.133,-0.209,-0.224,-0.159,-0.196,-0.245,-0.382,-0.385,-0.063,0.875,-0.534,-0.488,-0.519,0.366,73.333,14263.000,1.000
-0.320,-0.460,-0.317,-0.193,-0.196,-0.418,-0.466,-0.384,-0.061,0.877,-0.534,-0.488,-0.519,0.336,73.333,14264.000,1.000
-0.151,-0.341,-0.007,0.111,0.101,-0.209,-0.185,0.003,-0.059,0.876,-0.533,-0.641,-0.488,0.366,73.333,14265.000,1.000
0.319,0.123,0.606,0.642,0.632,0.292,0.375,0.644,-0.056,0.874,-0.536,-0.732,-0.519,0.366,73.333,14266.000,1.000
0.838,0.647,1.201,1.116,1.147,0.809,0.914,1.226,-0.053,0.871,-0.535,-0.702,-0.427,0.366,73.333,14267.000,1.000
1.105,0.878,1.425,1.234,1.353,1.031,1.095,1.423,-0.055,0.868,-0.536,-0.580,-0.336,0.427,73.333,14268.000,1.000
0.952,0.635,1.121,0.877,1.119,0.806,0.773,1.104,-0.052,0.869,-0.534,-0.427,-0.336,0.427,73.333,14269.000,1.000
0.447,0.021,0.436,0.195,0.566,0.244,0.106,0.426,-0.057,0.872,-0.536,-0.458,-0.305,0.519,73.333,14270.000,1.000
-0.224,-0.723,-0.355,-0.557,-0.085,-0.437,-0.628,-0.347,-0.056,0.874,-0.538,-0.580,-0.275,0.610,73.333,14271.000,1.000
-0.807,-1.313,-0.955,-1.106,-0.591,-0.985,-1.158,-0.948,-0.057,0.876,-0.539,-0.580,-0.214,0.580,73.333,14272.000,1.000
-1.049,-1.508,-1.143,-1.236,-0.756,-1.183,-1.283,-1.158,-0.059,0.880,-0.539,-0.580,-0.122,0.702,73.333,14273.000,1.000
-0.760,-1.148,-0.789,-0.828,-0.459,-0.867,-0.876,-0.833,-0.059,0.880,-0.539,-0.580,-0.061,0.580,73.333,14274.000,1.000
0.170,-0.142,0.181,0.168,0.379,0.074,0.121,0.093,-0.062,0.881,-0.541,-0.671,-0.153,0.610,73.333,14275.000,1.000
1.626,1.389,1.648,1.608,1.666,1.534,1.571,1.469,-0.069,0.880,-0.538,-0.732,-0.183,0.610,73.333,14276.000,1.000
3.231,3.074,3.256,3.130,3.092,3.138,3.122,2.937,-0.071,0.879,-0.537,-0.702,-0.427,0.519,73.333,14277.000,1.000
4.414,4.347,4.448,4.206,4.152,4.305,4.251,3.998,-0.073,0.879,-0.534,-0.854,-0.549,0.366,73.333,14278.000,1.000
4.632,4.657,4.675,4.335,4.324,4.488,4.438,4.184,-0.075,0.877,-0.535,-0.854,-0.793,0.366,73.333,14279.000,1.000
3.666,3.765,3.697,3.322,3.368,3.476,3.452,3.302,-0.075,0.878,-0.537,-0.977,-1.068,0.244,73.333,14280.000,1.000
1.619,1.746,1.608,1.272,1.343,1.389,1.375,1.414,-0.072,0.880,-0.537,-1.099,-1.251,0.214,73.333,14281.000,1.000
-1.140,-1.038,-1.204,-1.456,-1.396,-1.382,-1.414,-1.176,-0.070,0.878,-0.536,-1.068,-1.526,0.061,73.333,14282.000,1.000
-4.003,-3.959,-4.094,-4.269,-4.230,-4.215,-4.279,-3.907,-0.068,0.878,-0.535,-1.068,-1.648,0.092,73.333,14283.000,1.000
-6.229,-6.240,-6.293,-6.432,-6.394,-6.366,-6.449,-6.050,-0.066,0.878,-0.536,-1.099,-1.770,0.092,73.333,14284.000,1.000
-7.208,-7.255,-7.202,-7.346,-7.278,-7.245,-7.314,-6.988,-0.064,0.876,-0.535,-1.129,-1.862,0.061,73.333,14285.000,1.000
-6.863,-6.928,-6.790,-6.954,-6.837,-6.815,-6.837,-6.632,-0.062,0.876,-0.537,-1.251,-1.862,0.061,73.333,14286.000,1.000
-5.664,-5.732,-5.574,-5.748,-5.577,-5.571,-5.551,-5.442,-0.059,0.877,-0.539,-1.373,-1.892,0.153,73.333,14287.000,1.000
-4.351,-4.403,-4.298,-4.463,-4.236,-4.247,-4.224,-4.158,-0.057,0.877,-0.537,-1.282,-1.801,0.183,73.333,14288.000,1.000
-3.556,-3.565,-3.553,-3.695,-3.415,-3.440,-3.454,-3.409,-0.055,0.876,-0.537,-1.404,-1.862,0.244,73.333,14289.000,1.000
-3.479,-3.434,-3.497,-3.614,-3.303,-3.336,-3.398,-3.395,-0.056,0.876,-0.537,-1.343,-1.740,0.427,73.333,14290.000,1.000
-3.924,-3.843,-3.923,-4.020,-3.728,-3.749,-3.845,-3.901,-0.057,0.875,-0.537,-1.373,-1.526,0.549,73.333,14291.000,1.000
-4.504,-4.405,-4.449,-4.533,-4.314,-4.314,-4.410,-4.501,-0.057,0.875,-0.534,-1.404,-1.434,0.519,73.333,14292.000,1.000
-4.957,-4.830,-4.826,-4.905,-4.784,-4.778,-4.821,-4.892,-0.059,0.874,-0.535,-1.465,-1.373,0.671,73.333,14293.000,1.000
-5.226,-5.054,-5.020,-5.115,-5.063,-5.088,-5.033,-5.035,-0.059,0.870,-0.534,-1.465,-1.190,0.732,73.333,14294.000,1.000
-5.302,-5.092,-5.064,-5.195,-5.151,-5.227,-5.072,-4.999,-0.057,0.869,-0.534,-1.465,-1.160,0.763,73.333,14295.000,1.000
-5.261,-5.041,-5.062,-5.222,-5.136,-5.241,-5.042,-4.923,-0.059,0.869,-0.533,-1.434,-1.038,0.793,73.333,14296.000,1.000
-5.244,-5.048,-5.147,-5.300,-5.162,-5.242,-5.078,-4.964,-0.059,0.870,-0.533,-1.373,-0.977,0.854,73.333,14297.000,1.000
-5.361,-5.223,-5.381,-5.486,-5.321,-5.336,-5.279,-5.211,-0.060,0.870,-0.532,-1.373,-1.007,0.854,73.333,14298.000,1.000
-5.574,-5.516,-5.676,-5.709,-5.547,-5.512,-5.601,-5.589,-0.059,0.870,-0.532,-1.404,-1.007,0.854,73.333,14299.000,1.000
-5.666,-5.686,-5.776,-5.751,-5.617,-5.590,-5.792,-5.837,-0.059,0.871,-0.530,-1.373,-0.946,0.732,73.333,14300.000,1.000
-5.481,-5.547,-5.521,-5.482,-5.399,-5.441,-5.647,-5.759,-0.059,0.871,-0.532,-1.282,-0.824,0.671,73.333,14301.000,1.000
-5.055,-5.115,-4.979,-4.974,-4.957,-5.089,-5.169,-5.366,-0.057,0.870,-0.531,-1.312,-0.824,0.732,73.333,14302.000,1.000
-4.545,-4.552,-4.355,-4.403,-4.449,-4.643,-4.528,-4.812,-0.055,0.870,-0.532,-1.312,-0.763,0.702,73.333,14303.000,1.000
-4.054,-3.984,-3.801,-3.868,-3.962,-4.162,-3.884,-4.223,-0.055,0.869,-0.530,-1.282,-0.610,0.610,73.333,14304.000,1.000
-3.525,-3.380,-3.288,-3.303,-3.422,-3.578,-3.262,-3.582,-0.055,0.870,-0.533,-1.251,-0.397,0.610,73.333,14305.000,1.000
-2.841,-2.640,-2.707,-2.605,-2.705,-2.811,-2.608,-2.817,-0.054,0.871,-0.532,-1.251,-0.244,0.610,73.333,14306.000,1.000
-1.866,-1.654,-1.918,-1.673,-1.704,-1.791,-1.801,-1.839,-0.054,0.870,-0.535,-1.251,-0.122,0.580,73.333,14307.000,1.000
-0.588,-0.420,-0.872,-0.506,-0.444,-0.545,-0.761,-0.643,-0.053,0.872,-0.537,-1.190,-0.031,0.519,73.333,14308.000,1.000
0.776,0.863,0.294,0.733,0.849,0.739,0.418,0.613,-0.055,0.872,-0.536,-1.129,0.031,0.427,73.333,14309.000,1.000
1.938,1.942,1.382,1.836,1.922,1.848,1.557,1.729,-0.054,0.872,-0.532,-1.007,0.122,0.427,73.333,14310.000,1.000
2.707,2.661,2.247,2.645,2.644,2.642,2.477,2.556,-0.056,0.874,-0.535,-0.793,0.305,0.397,73.333,14311.000,1.000
3.097,3.055,2.862,3.144,3.058,3.111,3.097,3.060,-0.057,0.874,-0.533,-0.885,0.397,0.336,73.333,14312.000,1.000
3.186,3.188,3.197,3.346,3.221,3.254,3.372,3.229,-0.058,0.872,-0.533,-0.885,0.427,0.153,73.333,14313.000,1.000
3.016,3.060,3.186,3.234,3.114,3.046,3.252,3.041,-0.059,0.876,-0.532,-0.854,0.458,0.122,73.333,14314.000,1.000
2.743,2.792,2.932,2.937,2.858,2.650,2.876,2.658,-0.058,0.874,-0.535,-0.916,0.549,0.092,73.333,14315.000,1.000
2.615,2.641,2.714,2.724,2.727,2.400,2.566,2.399,-0.063,0.873,-0.533,-0.854,0.488,-0.031,73.333,14316.000,1.000
2.831,2.827,2.817,2.831,2.956,2.575,2.626,2.540,-0.062,0.874,-0.533,-0.946,0.580,-0.092,73.333,14317.000,1.000
3.376,3.348,3.297,3.277,3.538,3.188,3.107,3.093,-0.061,0.875,-0.532,-0.793,0.610,-0.122,73.333,14318.000,1.000
4.056,4.014,3.978,3.882,4.253,4.010,3.809,3.837,-0.061,0.876,-0.537,-0.793,0.519,-0.092,73.333,14319.000,1.000
4.708,4.674,4.670,4.491,4.920,4.811,4.525,4.577,-0.062,0.876,-0.538,-0.732,0.458,-0.153,73.333,14320.000,1.000
5.219,5.240,5.233,5.014,5.443,5.434,5.109,5.195,-0.064,0.877,-0.534,-0.702,0.397,-0.122,73.333,14321.000,1.000
5.527,5.662,5.595,5.420,5.791,5.812,5.491,5.630,-0.064,0.878,-0.534,-0.854,0.336,-0.061,73.333,14322.000,1.000
5.595,5.886,5.728,5.682,5.940,5.928,5.658,5.830,-0.063,0.877,-0.534,-0.854,0.305,-0.092,73.333,14323.000,1.000
5.437,5.875,5.641,5.766,5.871,5.801,5.638,5.763,-0.064,0.877,-0.534,-0.916,0.275,-0.061,73.333,14324.000,1.000
5.169,5.684,5.428,5.689,5.639,5.529,5.520,5.510,-0.064,0.879,-0.532,-0.916,0.397,0.031,73.333,14325.000,1.000
4.888,5.369,5.169,5.467,5.300,5.196,5.351,5.173,-0.064,0.878,-0.535,-0.885,0.336,0.031,73.333,14326.000,1.000
4.647,4.980,4.917,5.131,4.906,4.862,5.137,4.841,-0.063,0.877,-0.534,-0.916,0.183,0.122,73.333,14327.000,1.000
4.428,4.544,4.660,4.713,4.483,4.535,4.851,4.547,-0.063,0.878,-0.534,-0.824,0.122,0.153,73.333,14328.000,1.000
4.169,4.074,4.333,4.229,4.031,4.174,4.466,4.267,-0.065,0.879,-0.534,-0.916,0.092,0.244,73.333,14329.000,1.000
3.905,3.674,3.973,3.795,3.641,3.823,4.081,4.030,-0.064,0.878,-0.533,-0.946,-0.031,0.244,73.333,14330.000,1.000
3.738,3.468,3.708,3.554,3.447,3.587,3.850,3.889,-0.063,0.877,-0.532,-0.946,-0.031,0.305,73.333,14331.000,1.000
3.755,3.518,3.648,3.589,3.529,3.562,3.872,3.894,-0.064,0.877,-0.531,-0.977,-0.092,0.397,73.333,14332.000,1.000
3.929,3.753,3.774,3.833,3.828,3.738,4.094,4.026,-0.064,0.874,-0.530,-0.916,-0.061,0.458,73.333,14333.000,1.000
4.120,4.005,3.952,4.102,4.159,3.987,4.330,4.182,-0.066,0.869,-0.532,-1.007,-0.244,0.488,73.333,14334.000,1.000
4.227,4.157,4.078,4.255,4.376,4.182,4.429,4.272,-0.064,0.869,-0.535,-0.916,-0.305,0.366,73.333,14335.000,1.000
4.160,4.112,4.053,4.183,4.369,4.197,4.289,4.195,-0.063,0.867,-0.537,-0.916,-0.366,0.488,73.333,14336.000,1.000
3.830,3.772,3.765,3.810,4.047,3.932,3.854,3.862,-0.061,0.867,-0.536,-0.793,-0.366,0.488,73.333,14337.000,1.000
3.156,3.065,3.111,3.086,3.326,3.314,3.090,3.200,-0.060,0.868,-0.536,-0.671,-0.458,0.549,73.333,14338.000,1.000
2.140,2.016,2.096,2.037,2.213,2.348,2.036,2.220,-0.059,0.870,-0.535,-0.641,-0.488,0.519,73.333,14339.000,1.000
0.995,0.870,0.965,0.892,0.941,1.240,0.915,1.134,-0.057,0.869,-0.538,-0.488,-0.427,0.488,73.333,14340.000,1.000
0.059,-0.030,0.081,-0.008,-0.126,0.309,0.050,0.273,-0.056,0.872,-0.537,-0.427,-0.488,0.549,73.333,14341.000,1.000
-0.356,-0.387,-0.244,-0.351,-0.641,-0.140,-0.262,-0.073,-0.057,0.874,-0.531,-0.488,-0.488,0.549,73.333,14342.000,1.000
-0.186,-0.161,0.029,-0.087,-0.505,-0.038,0.026,0.128,-0.061,0.872,-0.531,-0.610,-0.305,0.580,73.333,14343.000,1.000
0.260,0.330,0.562,0.459,-0.013,0.334,0.567,0.544,-0.067,0.872,-0.531,-0.549,-0.336,0.519,73.333,14344.000,1.000
0.509,0.617,0.858,0.797,0.332,0.534,0.845,0.703,-0.069,0.871,-0.532,-0.641,-0.458,0.336,73.333,14345.000,1.000
0.144,0.301,0.483,0.494,0.051,0.166,0.429,0.229,-0.069,0.871,-0.537,-0.580,-0.580,0.336,73.333,14346.000,1.000
-0.908,-0.674,-0.624,-0.541,-0.969,-0.843,-0.717,-0.894,-0.069,0.873,-0.533,-0.549,-0.793,0.183,73.333,14347.000,1.000
-2.224,-1.886,-2.007,-1.893,-2.308,-2.095,-2.118,-2.205,-0.066,0.873,-0.531,-0.549,-0.885,0.031,73.333,14348.000,1.000
-3.080,-2.636,-2.894,-2.825,-3.205,-2.893,-3.011,-2.984,-0.063,0.874,-0.529,-0.549,-0.977,-0.031,73.333,14349.000,1.000
-2.858,-2.355,-2.658,-2.696,-3.009,-2.637,-2.773,-2.655,-0.061,0.873,-0.529,-0.671,-1.007,-0.061,73.333,14350.000,1.000
-1.563,-1.090,-1.335,-1.495,-1.711,-1.348,-1.438,-1.284,-0.060,0.875,-0.531,-0.732,-1.007,-0.092,73.333,14351.000,1.000
0.142,0.503,0.371,0.131,0.021,0.304,0.292,0.420,-0.059,0.874,-0.534,-0.793,-0.977,-0.183,73.333,14352.000,1.000
1.355,1.582,1.542,1.296,1.275,1.437,1.488,1.560,-0.060,0.872,-0.536,-0.732,-1.007,-0.092,73.333,14353.000,1.000
1.464,1.598,1.582,1.393,1.433,1.474,1.538,1.566,-0.059,0.873,-0.532,-0.671,-0.916,-0.061,73.333,14354.000,1.000
0.482,0.580,0.523,0.424,0.498,0.457,0.472,0.491,-0.061,0.873,-0.531,-0.702,-0.854,-0.061,73.333,14355.000,1.000
-1.127,-1.047,-1.163,-1.170,-1.072,-1.154,-1.224,-1.192,-0.060,0.872,-0.535,-0.641,-0.885,0.000,73.333,14356.000,1.000
-2.762,-2.741,-2.876,-2.817,-2.701,-2.808,-2.942,-2.902,-0.061,0.872,-0.531,-0.702,-0.793,0.031,73.333,14357.000,1.000
-3.970,-4.066,-4.165,-4.082,-3.960,-4.102,-4.219,-4.196,-0.066,0.873,-0.532,-0.671,-0.854,0.122,73.333,14358.000,1.000
-4.551,-4.775,-4.826,-4.745,-4.646,-4.825,-4.829,-4.856,-0.066,0.874,-0.533,-0.671,-0.854,0.183,73.333,14359.000,1.000
-4.463,-4.761,-4.801,-4.724,-4.684,-4.876,-4.705,-4.807,-0.066,0.875,-0.532,-0.549,-0.977,0.244,73.333,14360.000,1.000
-3.853,-4.140,-4.223,-4.148,-4.183,-4.353,-4.007,-4.193,-0.065,0.876,-0.534,-0.641,-1.099,0.183,73.333,14361.000,1.000
-3.014,-3.230,-3.393,-3.331,-3.416,-3.531,-3.081,-3.338,-0.064,0.877,-0.536,-0.641,-1.038,0.275,73.333,14362.000,1.000
-2.281,-2.419,-2.665,-2.627,-2.709,-2.752,-2.315,-2.605,-0.063,0.877,-0.534,-0.610,-1.129,0.244,73.333,14363.000,1.000
-1.904,-2.003,-2.296,-2.266,-2.308,-2.286,-1.974,-2.233,-0.062,0.876,-0.535,-0.671,-1.129,0.305,73.333,14364.000,1.000
-1.872,-1.989,-2.267,-2.200,-2.210,-2.152,-2.013,-2.188,-0.062,0.875,-0.540,-0.793,-1.038,0.366,73.333,14365.000,1.000
-1.990,-2.160,-2.368,-2.212,-2.243,-2.172,-2.185,-2.260,-0.061,0.875,-0.538,-0.763,-1.038,0.397,73.333,14366.000,1.000
-2.074,-2.283,-2.399,-2.138,-2.248,-2.165,-2.269,-2.269,-0.060,0.878,-0.533,-0.763,-1.129,0.458,73.333,14367.000,1.000
-2.141,-2.349,-2.376,-2.059,-2.254,-2.145,-2.278,-2.246,-0.060,0.880,-0.533,-0.793,-1.038,0.580,73.333,14368.000,1.000
-2.387,-2.567,-2.511,-2.243,-2.464,-2.318,-2.439,-2.404,-0.060,0.880,-0.530,-0.946,-0.916,0.671,73.333,14369.000,1.000
-2.907,-3.065,-2.946,-2.827,-2.992,-2.806,-2.894,-2.856,-0.062,0.880,-0.530,-0.946,-0.885,0.671,73.333,14370.000,1.000
-3.607,-3.768,-3.636,-3.699,-3.760,-3.529,-3.591,-3.523,-0.062,0.878,-0.532,-0.977,-0.824,0.671,73.333,14371.000,1.000
-4.228,-4.413,-4.341,-4.532,-4.499,-4.224,-4.291,-4.151,-0.063,0.876,-0.536,-1.038,-0.793,0.671,73.333,14372.000,1.000
-4.521,-4.720,-4.764,-4.980,-4.909,-4.619,-4.720,-4.480,-0.062,0.877,-0.533,-1.129,-0.793,0.702,73.333,14373.000,1.000
-4.424,-4.600,-4.761,-4.910,-4.872,-4.627,-4.746,-4.422,-0.060,0.873,-0.536,-1.038,-0.763,0.580,73.333,14374.000,1.000
-4.005,-4.120,-4.352,-4.387,-4.423,-4.288,-4.368,-4.023,-0.059,0.873,-0.538,-1.099,-0.732,0.610,73.333,14375.000,1.000
-3.394,-3.453,-3.690,-3.600,-3.712,-3.717,-3.712,-3.415,-0.059,0.871,-0.535,-1.068,-0.610,0.549,73.333,14376.000,1.000
-2.689,-2.751,-2.930,-2.736,-2.893,-3.026,-2.933,-2.723,-0.061,0.871,-0.537,-1.068,-0.641,0.519,73.333,14377.000,1.000
-1.943,-2.084,-2.164,-1.910,-2.072,-2.287,-2.142,-2.033,-0.060,0.871,-0.534,-0.824,-0.763,0.458,73.333,14378.000,1.000
-1.213,-1.464,-1.446,-1.191,-1.311,-1.547,-1.399,-1.401,-0.058,0.870,-0.537,-0.885,-0.671,0.427,73.333,14379.000,1.000
-0.494,-0.814,-0.751,-0.532,-0.572,-0.771,-0.669,-0.786,-0.058,0.870,-0.536,-0.885,-0.641,0.488,73.333,14380.000,1.000
0.211,-0.089,-0.054,0.131,0.179,0.048,0.080,-0.133,-0.058,0.869,-0.531,-0.793,-0.549,0.397,73.333,14381.000,1.000
0.865,0.676,0.630,0.815,0.901,0.851,0.816,0.546,-0.058,0.869,-0.533,-0.702,-0.610,0.366,73.333,14382.000,1.000
1.378,1.347,1.200,1.425,1.468,1.506,1.421,1.134,-0.059,0.870,-0.532,-0.610,-0.488,0.305,73.333,14383.000,1.000
1.640,1.748,1.505,1.783,1.725,1.860,1.733,1.456,-0.059,0.870,-0.532,-0.549,-0.549,0.244,73.333,14384.000,1.000
1.675,1.842,1.537,1.848,1.677,1.911,1.739,1.493,-0.060,0.870,-0.531,-0.427,-0.488,0.275,73.333,14385.000,1.000
1.608,1.724,1.427,1.724,1.475,1.781,1.568,1.373,-0.061,0.871,-0.534,-0.397,-0.397,0.183,73.333,14386.000,1.000
1.567,1.540,1.329,1.561,1.310,1.620,1.387,1.255,-0.061,0.873,-0.536,-0.305,-0.397,0.183,73.333,14387.000,1.000
1.572,1.377,1.289,1.423,1.265,1.487,1.269,1.186,-0.061,0.873,-0.534,-0.275,-0.397,0.000,73.333,14388.000,1.000
1.507,1.188,1.208,1.247,1.248,1.306,1.144,1.069,-0.061,0.873,-0.535,-0.275,-0.458,0.000,73.333,14389.000,1.000
1.267,0.902,0.981,0.959,1.121,0.993,0.919,0.808,-0.062,0.873,-0.535,-0.336,-0.488,-0.061,73.333,14390.000,1.000
0.782,0.432,0.525,0.481,0.743,0.480,0.506,0.329,-0.064,0.875,-0.536,-0.214,-0.519,-0.031,73.333,14391.000,1.000
0.082,-0.224,-0.148,-0.203,0.079,-0.210,-0.098,-0.357,-0.063,0.874,-0.536,-0.275,-0.549,0.000,73.333,14392.000,1.000
-0.657,-0.917,-0.880,-0.952,-0.723,-0.905,-0.757,-1.095,-0.063,0.875,-0.536,-0.244,-0.519,0.000,73.333,14393.000,1.000
-1.178,-1.413,-1.423,-1.523,-1.372,-1.359,-1.250,-1.638,-0.065,0.876,-0.532,-0.336,-0.610,0.061,73.333,14394.000,1.000
-1.207,-1.447,-1.490,-1.629,-1.523,-1.321,-1.310,-1.705,-0.065,0.873,-0.536,-0.397,-0.671,0.031,73.333,14395.000,1.000
-0.667,-0.930,-0.982,-1.147,-1.023,-0.729,-0.822,-1.187,-0.068,0.873,-0.537,-0.336,-0.702,-0.031,73.333,14396.000,1.000
0.230,-0.047,-0.087,-0.228,-0.053,0.209,0.056,-0.256,-0.068,0.874,-0.537,-0.397,-0.793,-0.031,73.333,14397.000,1.000
1.105,0.845,0.841,0.777,0.986,1.122,0.974,0.736,-0.067,0.872,-0.536,-0.427,-0.946,0.000,73.333,14398.000,1.000
1.658,1.461,1.525,1.546,1.741,1.723,1.613,1.478,-0.067,0.874,-0.537,-0.427,-0.916,0.092,73.333,14399.000,1.000
1.897,1.807,1.954,2.020,2.153,2.029,1.928,1.926,-0.067,0.872,-0.536,-0.397,-0.977,0.031,73.333,14400.000,1.000
1.972,2.019,2.222,2.278,2.330,2.190,2.032,2.173,-0.068,0.872,-0.538,-0.549,-1.068,0.092,73.333,14401.000,1.000
1.959,2.137,2.357,2.356,2.338,2.263,2.010,2.262,-0.065,0.871,-0.536,-0.549,-1.099,0.061,73.333,14402.000,1.000
1.801,2.058,2.277,2.195,2.142,2.151,1.842,2.130,-0.065,0.869,-0.537,-0.549,-1.221,0.122,73.333,14403.000,1.000
1.414,1.658,1.888,1.740,1.690,1.728,1.472,1.706,-0.063,0.872,-0.536,-0.519,-1.190,0.214,73.333,14404.000,1.000
0.846,0.992,1.249,1.070,1.069,1.033,0.934,1.058,-0.063,0.872,-0.539,-0.488,-1.251,0.214,73.333,14405.000,1.000
0.165,0.185,0.467,0.284,0.372,0.178,0.249,0.282,-0.062,0.873,-0.536,-0.488,-1.312,0.275,73.333,14406.000,1.000
-0.570,-0.621,-0.334,-0.519,-0.334,-0.701,-0.541,-0.523,-0.061,0.873,-0.535,-0.488,-1.251,0.336,73.333,14407.000,1.000
-1.217,-1.230,-0.960,-1.166,-0.922,-1.398,-1.266,-1.169,-0.060,0.871,-0.535,-0.549,-1.221,0.366,73.333,14408.000,1.000
-1.623,-1.497,-1.261,-1.500,-1.262,-1.737,-1.719,-1.481,-0.059,0.872,-0.537,-0.549,-1.160,0.458,73.333,14409.000,1.000
-1.767,-1.451,-1.248,-1.508,-1.344,-1.717,-1.837,-1.436,-0.059,0.872,-0.537,-0.458,-1.129,0.488,73.333,14410.000,1.000
-1.859,-1.352,-1.172,-1.422,-1.369,-1.601,-1.812,-1.288,-0.060,0.872,-0.539,-0.519,-1.129,0.488,73.333,14411.000,1.000
-2.148,-1.490,-1.328,-1.537,-1.580,-1.705,-1.920,-1.365,-0.062,0.871,-0.534,-0.519,-1.038,0.397,73.333,14412.000,1.000
-2.698,-1.970,-1.840,-1.991,-2.073,-2.152,-2.300,-1.812,-0.062,0.870,-0.537,-0.519,-1.099,0.549,73.333,14413.000,1.000
-3.349,-2.672,-2.593,-2.677,-2.742,-2.810,-2.868,-2.510,-0.063,0.870,-0.537,-0.336,-1.038,0.519,73.333,14414.000,1.000
-3.784,-3.281,-3.246,-3.266,-3.285,-3.340,-3.325,-3.124,-0.064,0.870,-0.539,-0.305,-0.946,0.519,73.333,14415.000,1.000
-3.815,-3.562,-3.517,-3.499,-3.470,-3.491,-3.456,-3.398,-0.062,0.871,-0.537,-0.305,-0.916,0.458,73.333,14416.000,1.000
-3.508,-3.505,-3.364,-3.358,-3.285,-3.261,-3.285,-3.301,-0.062,0.873,-0.538,-0.275,-0.977,0.580,73.333,14417.000,1.000
-3.072,-3.242,-2.941,-2.993,-2.890,-2.837,-2.979,-2.965,-0.060,0.876,-0.537,-0.366,-0.885,0.549,73.333,14418.000,1.000
-2.698,-2.920,-2.464,-2.591,-2.483,-2.441,-2.694,-2.554,-0.061,0.876,-0.533,-0.336,-0.793,0.397,73.333,14419.000,1.000
-2.425,-2.581,-2.036,-2.229,-2.157,-2.152,-2.457,-2.139,-0.060,0.873,-0.533,-0.427,-0.824,0.305,73.333,14420.000,1.000
-2.256,-2.264,-1.727,-1.965,-1.962,-1.992,-2.279,-1.799,-0.060,0.874,-0.536,-0.427,-0.732,0.275,73.333,14421.000,1.000
-2.163,-2.005,-1.559,-1.823,-1.886,-1.931,-2.155,-1.598,-0.059,0.875,-0.537,-0.427,-0.671,0.305,73.333,14422.000,1.000
-1.999,-1.724,-1.412,-1.681,-1.772,-1.820,-1.967,-1.440,-0.061,0.875,-0.538,-0.458,-0.610,0.336,73.333,14423.000,1.000
-1.558,-1.255,-1.075,-1.321,-1.405,-1.446,-1.522,-1.117,-0.059,0.875,-0.533,-0.397,-0.549,0.427,73.333,14424.000,1.000
-0.683,-0.422,-0.342,-0.550,-0.607,-0.638,-0.637,-0.422,-0.061,0.874,-0.535,-0.366,-0.549,0.427,73.333,14425.000,1.000
0.589,0.783,0.803,0.625,0.614,0.577,0.688,0.685,-0.061,0.876,-0.533,-0.427,-0.458,0.458,73.333,14426.000,1.000
2.055,2.189,2.177,2.020,2.067,2.007,2.252,2.061,-0.062,0.875,-0.533,-0.366,-0.458,0.458,73.333,14427.000,1.000
3.432,3.500,3.472,3.360,3.453,3.375,3.727,3.416,-0.063,0.874,-0.532,-0.580,-0.366,0.458,73.333,14428.000,1.000
4.382,4.358,4.335,4.312,4.420,4.343,4.730,4.362,-0.062,0.874,-0.536,-0.610,-0.305,0.366,73.333,14429.000,1.000
4.674,4.538,4.553,4.645,4.731,4.662,5.018,4.620,-0.060,0.873,-0.538,-0.732,-0.244,0.275,73.333,14430.000,1.000
4.236,4.012,4.085,4.289,4.311,4.241,4.541,4.120,-0.061,0.872,-0.537,-0.641,-0.244,0.397,73.333,14431.000,1.000
3.235,2.995,3.120,3.413,3.330,3.255,3.507,3.081,-0.061,0.872,-0.537,-0.763,-0.275,0.549,73.333,14432.000,1.000
2.090,1.909,2.058,2.407,2.208,2.144,2.340,1.965,-0.062,0.874,-0.538,-0.671,-0.336,0.458,73.333,14433.000,1.000
1.265,1.177,1.305,1.684,1.408,1.367,1.480,1.227,-0.063,0.874,-0.536,-0.641,-0.275,0.366,73.333,14434.000,1.000
1.057,1.034,1.091,1.494,1.211,1.191,1.195,1.101,-0.064,0.876,-0.536,-0.519,-0.275,0.305,73.333,14435.000,1.000
1.380,1.363,1.300,1.738,1.522,1.497,1.399,1.439,-0.066,0.873,-0.533,-0.610,-0.244,0.366,73.333,14436.000,1.000
1.853,1.796,1.586,2.062,1.968,1.900,1.735,1.842,-0.064,0.875,-0.534,-0.702,-0.305,0.366,73.333,14437.000,1.000
2.065,1.954,1.613,2.093,2.149,2.020,1.825,1.928,-0.065,0.874,-0.533,-0.793,-0.336,0.366,73.333,14438.000,1.000
1.808,1.654,1.255,1.668,1.863,1.692,1.505,1.550,-0.066,0.874,-0.536,-0.793,-0.366,0.275,73.333,14439.000,1.000
1.262,1.084,0.736,1.004,1.279,1.121,0.984,0.933,-0.064,0.872,-0.537,-0.671,-0.366,0.366,73.333,14440.000,1.000
0.779,0.597,0.399,0.485,0.739,0.660,0.620,0.448,-0.062,0.870,-0.537,-0.641,-0.488,0.366,73.333,14441.000,1.000
0.599,0.443,0.438,0.368,0.495,0.532,0.631,0.338,-0.062,0.870,-0.536,-0.702,-0.397,0.366,73.333,14442.000,1.000
0.739,0.662,0.814,0.654,0.606,0.741,0.997,0.620,-0.062,0.870,-0.539,-0.732,-0.580,0.458,73.333,14443.000,1.000
1.043,1.094,1.294,1.128,0.939,1.116,1.498,1.115,-0.063,0.868,-0.541,-0.641,-0.488,0.519,73.333,14444.000,1.000
1.359,1.551,1.669,1.568,1.331,1.489,1.923,1.632,-0.062,0.870,-0.539,-0.549,-0.580,0.458,73.333,14445.000,1.000
1.583,1.874,1.840,1.822,1.636,1.733,2.147,2.018,-0.061,0.867,-0.539,-0.458,-0.488,0.610,73.333,14446.000,1.000
1.695,1.997,1.840,1.865,1.784,1.817,2.163,2.206,-0.064,0.867,-0.540,-0.397,-0.549,0.641,73.333,14447.000,1.000
1.757,1.972,1.784,1.784,1.812,1.810,2.062,2.221,-0.065,0.869,-0.537,-0.427,-0.732,0.580,73.333,14448.000,1.000
1.816,1.890,1.742,1.664,1.776,1.774,1.919,2.114,-0.063,0.870,-0.534,-0.366,-0.671,0.610,73.333,14449.000,1.000
1.912,1.863,1.758,1.595,1.754,1.764,1.808,1.976,-0.062,0.871,-0.534,-0.305,-0.641,0.641,73.333,14450.000,1.000
2.040,1.941,1.828,1.623,1.796,1.814,1.774,1.894,-0.061,0.872,-0.540,-0.305,-0.671,0.671,73.333,14451.000,1.000
2.212,2.157,1.976,1.807,1.960,1.979,1.898,1.974,-0.061,0.874,-0.539,-0.336,-0.580,0.610,73.333,14452.000,1.000
2.468,2.528,2.259,2.197,2.299,2.308,2.256,2.305,-0.061,0.875,-0.536,-0.458,-0.549,0.519,73.333,14453.000,1.000
2.750,2.939,2.616,2.686,2.709,2.702,2.751,2.790,-0.062,0.875,-0.541,-0.488,-0.549,0.519,73.333,14454.000,1.000
2.957,3.222,2.915,3.085,3.009,3.000,3.182,3.222,-0.059,0.874,-0.538,-0.458,-0.519,0.549,73.333,14455.000,1.000
2.980,3.232,3.011,3.193,3.032,3.048,3.339,3.381,-0.060,0.874,-0.537,-0.488,-0.397,0.549,73.333,14456.000,1.000
2.701,2.870,2.773,2.850,2.666,2.719,3.058,3.091,-0.058,0.870,-0.537,-0.458,-0.397,0.641,73.333,14457.000,1.000
1.997,2.073,2.084,1.974,1.858,1.928,2.245,2.264,-0.056,0.869,-0.537,-0.397,-0.305,0.549,73.333,14458.000,1.000
0.802,0.827,0.895,0.593,0.621,0.663,0.904,0.913,-0.056,0.868,-0.535,-0.488,-0.275,0.641,73.333,14459.000,1.000
-0.701,-0.673,-0.610,-1.029,-0.840,-0.860,-0.730,-0.707,-0.057,0.866,-0.534,-0.366,-0.244,0.610,73.333,14460.000,1.000
-2.099,-2.039,-2.044,-2.458,-2.159,-2.242,-2.245,-2.165,-0.055,0.867,-0.535,-0.427,-0.153,0.610,73.333,14461.000,1.000
-2.911,-2.822,-2.947,-3.239,-2.926,-3.029,-3.162,-2.990,-0.055,0.868,-0.536,-0.397,0.031,0.519,73.333,14462.000,1.000
-2.812,-2.725,-2.979,-3.089,-2.867,-2.916,-3.138,-2.889,-0.055,0.872,-0.537,-0.427,0.183,0.549,73.333,14463.000,1.000
-1.812,-1.772,-2.104,-2.046,-1.978,-1.909,-2.160,-1.898,-0.054,0.874,-0.539,-0.366,0.122,0.641,73.333,14464.000,1.000
-0.160,-0.190,-0.523,-0.371,-0.430,-0.238,-0.474,-0.257,-0.054,0.876,-0.536,-0.397,0.183,0.671,73.333,14465.000,1.000
1.715,1.633,1.348,1.503,1.430,1.687,1.490,1.625,-0.059,0.878,-0.536,-0.397,0.336,0.671,73.333,14466.000,1.000
3.306,3.203,2.981,3.059,3.095,3.335,3.209,3.233,-0.062,0.877,-0.535,-0.427,0.397,0.641,73.333,14467.000,1.000
4.128,4.026,3.873,3.839,4.030,4.176,4.172,4.059,-0.067,0.879,-0.538,-0.519,0.397,0.641,73.333,14468.000,1.000
3.830,3.734,3.665,3.541,3.831,3.832,3.988,3.735,-0.072,0.875,-0.539,-0.671,0.153,0.549,73.333,14469.000,1.000
2.455,2.372,2.395,2.242,2.518,2.378,2.676,2.327,-0.072,0.877,-0.537,-0.641,0.061,0.366,73.333,14470.000,1.000
0.466,0.394,0.507,0.382,0.552,0.323,0.679,0.321,-0.074,0.875,-0.542,-0.580,-0.214,0.305,73.333,14471.000,1.000
-1.534,-1.610,-1.424,-1.501,-1.460,-1.707,-1.414,-1.669,-0.073,0.873,-0.541,-0.641,-0.458,0.122,73.333,14472.000,1.000
-3.127,-3.211,-2.993,-3.038,-3.089,-3.304,-3.166,-3.229,-0.075,0.875,-0.541,-0.580,-0.580,-0.031,73.333,14473.000,1.000
-4.183,-4.235,-4.051,-4.088,-4.182,-4.349,-4.376,-4.235,-0.075,0.875,-0.540,-0.641,-0.793,-0.122,73.333,14474.000,1.000
-4.611,-4.550,-4.474,-4.508,-4.622,-4.741,-4.865,-4.601,-0.072,0.873,-0.538,-0.702,-1.038,-0.122,73.333,14475.000,1.000
-4.306,-4.077,-4.146,-4.161,-4.298,-4.364,-4.497,-4.244,-0.069,0.874,-0.541,-0.763,-1.190,-0.275,73.333,14476.000,1.000
-3.296,-2.928,-3.120,-3.081,-3.257,-3.257,-3.348,-3.233,-0.066,0.874,-0.538,-0.854,-1.221,-0.305,73.333,14477.000,1.000
-1.872,-1.464,-1.704,-1.592,-1.822,-1.748,-1.791,-1.880,-0.065,0.873,-0.541,-0.763,-1.343,-0.275,73.333,14478.000,1.000
-0.554,-0.207,-0.400,-0.247,-0.530,-0.381,-0.405,-0.670,-0.062,0.874,-0.540,-0.854,-1.556,-0.244,73.333,14479.000,1.000
0.204,0.448,0.382,0.488,0.178,0.397,0.352,0.020,-0.061,0.875,-0.538,-0.916,-1.465,-0.214,73.333,14480.000,1.000
0.199,0.357,0.437,0.414,0.118,0.391,0.305,0.026,-0.058,0.874,-0.537,-0.854,-1.465,0.000,73.333,14481.000,1.000
-0.463,-0.359,-0.190,-0.340,-0.582,-0.301,-0.413,-0.572,-0.058,0.875,-0.537,-0.946,-1.312,0.000,73.333,14482.000,1.000
-1.468,-1.403,-1.255,-1.436,-1.587,-1.358,-1.471,-1.510,-0.058,0.874,-0.537,-0.977,-1.221,0.183,73.333,14483.000,1.000
-2.508,-2.480,-2.464,-2.551,-2.591,-2.442,-2.556,-2.526,-0.058,0.873,-0.537,-0.946,-1.251,0.427,73.333,14484.000,1.000
-3.300,-3.296,-3.469,-3.395,-3.328,-3.239,-3.381,-3.354,-0.059,0.873,-0.535,-1.068,-1.160,0.519,73.333,14485.000,1.000
-3.660,-3.662,-3.992,-3.799,-3.654,-3.579,-3.777,-3.799,-0.060,0.872,-0.537,-1.099,-1.099,0.610,73.333,14486.000,1.000
-3.587,-3.585,-3.966,-3.781,-3.609,-3.506,-3.769,-3.829,-0.061,0.874,-0.534,-1.068,-1.129,0.763,73.333,14487.000,1.000
-3.237,-3.237,-3.545,-3.505,-3.360,-3.220,-3.530,-3.576,-0.063,0.873,-0.537,-1.038,-1.007,0.824,73.333,14488.000,1.000
-2.842,-2.871,-3.016,-3.198,-3.102,-2.959,-3.277,-3.264,-0.063,0.872,-0.533,-1.068,-0.977,0.793,73.333,14489.000,1.000
-2.551,-2.633,-2.598,-2.979,-2.922,-2.830,-3.095,-3.027,-0.064,0.873,-0.535,-1.099,-1.007,0.885,73.333,14490.000,1.000
-2.432,-2.559,-2.399,-2.875,-2.838,-2.832,-2.982,-2.892,-0.062,0.871,-0.535,-1.190,-0.977,0.946,73.333,14491.000,1.000
-2.400,-2.514,-2.332,-2.769,-2.755,-2.817,-2.818,-2.731,-0.060,0.871,-0.537,-1.282,-0.916,0.977,73.333,14492.000,1.000
-2.164,-2.192,-2.091,-2.390,-2.426,-2.481,-2.363,-2.261,-0.059,0.870,-0.535,-1.251,-0.824,1.007,73.333,14493.000,1.000
-1.493,-1.423,-1.438,-1.571,-1.690,-1.649,-1.492,-1.341,-0.059,0.869,-0.533,-1.282,-0.854,0.977,73.333,14494.000,1.000
-0.403,-0.313,-0.393,-0.391,-0.603,-0.422,-0.310,-0.110,-0.059,0.868,-0.536,-1.312,-0.671,0.946,73.333,14495.000,1.000
0.820,0.819,0.755,0.840,0.568,0.857,0.871,1.071,-0.056,0.869,-0.538,-1.312,-0.549,0.916,73.333,14496.000,1.000
1.773,1.631,1.618,1.737,1.476,1.785,1.693,1.827,-0.056,0.870,-0.535,-1.343,-0.519,0.854,73.333,14497.000,1.000
2.113,1.866,1.884,1.984,1.821,2.050,1.885,1.916,-0.056,0.870,-0.537,-1.221,-0.488,0.854,73.333,14498.000,1.000
1.668,1.391,1.405,1.439,1.435,1.513,1.340,1.273,-0.056,0.869,-0.536,-1.282,-0.397,0.854,73.333,14499.000,1.000
0.595,0.334,0.343,0.301,0.441,0.354,0.241,0.112,-0.054,0.867,-0.537,-1.251,-0.153,0.763,73.333,14500.000,1.000
-0.722,-0.980,-0.926,-1.018,-0.818,-1.027,-1.041,-1.180,-0.057,0.868,-0.542,-1.251,-0.092,0.824,73.333,14501.000,1.000
-1.841,-2.151,-1.974,-2.073,-1.916,-2.179,-2.102,-2.199,-0.057,0.869,-0.539,-1.251,0.000,0.824,73.333,14502.000,1.000
-2.419,-2.823,-2.478,-2.528,-2.489,-2.757,-2.626,-2.650,-0.058,0.870,-0.542,-1.221,0.000,0.671,73.333,14503.000,1.000
-2.352,-2.842,-2.361,-2.310,-2.414,-2.672,-2.534,-2.481,-0.056,0.870,-0.538,-1.007,0.122,0.610,73.333,14504.000,1.000
-1.722,-2.236,-1.712,-1.554,-1.769,-2.007,-1.909,-1.802,-0.057,0.870,-0.537,-0.977,0.153,0.580,73.333,14505.000,1.000
-0.777,-1.239,-0.771,-0.558,-0.807,-1.008,-0.986,-0.853,-0.057,0.871,-0.538,-0.946,0.275,0.519,73.333,14506.000,1.000
0.145,-0.218,0.128,0.340,0.136,-0.015,-0.081,0.046,-0.057,0.869,-0.538,-0.916,0.366,0.427,73.333,14507.000,1.000
0.805,0.550,0.745,0.930,0.824,0.715,0.578,0.658,-0.058,0.867,-0.538,-0.793,0.397,0.366,73.333,14508.000,1.000
1.149,0.994,1.031,1.193,1.195,1.101,0.931,0.937,-0.058,0.871,-0.536,-0.824,0.488,0.336,73.333,14509.000,1.000
1.353,1.299,1.192,1.347,1.420,1.313,1.143,1.096,-0.062,0.871,-0.537,-0.732,0.458,0.153,73.333,14510.000,1.000
1.666,1.719,1.509,1.679,1.754,1.622,1.467,1.428,-0.061,0.871,-0.537,-0.702,0.397,0.153,73.333,14511.000,1.000
2.212,2.356,2.101,2.311,2.306,2.179,2.044,2.070,-0.060,0.871,-0.535,-0.641,0.305,0.122,73.333,14512.000,1.000
2.863,3.050,2.811,3.069,2.921,2.873,2.764,2.864,-0.060,0.871,-0.536,-0.580,0.336,0.214,73.333,14513.000,1.000
3.287,3.440,3.268,3.557,3.262,3.366,3.280,3.424,-0.061,0.873,-0.538,-0.610,0.397,0.061,73.333,14514.000,1.000
3.267,3.313,3.236,3.519,3.147,3.411,3.332,3.471,-0.062,0.874,-0.536,-0.549,0.305,0.000,73.333,14515.000,1.000
2.843,2.734,2.748,2.999,2.658,3.018,2.918,2.999,-0.064,0.874,-0.540,-0.488,0.214,0.031,73.333,14516.000,1.000
2.231,1.961,2.051,2.257,2.037,2.403,2.257,2.235,-0.065,0.872,-0.541,-0.336,0.092,0.183,73.333,14517.000,1.000
1.671,1.291,1.436,1.593,1.532,1.839,1.631,1.495,-0.065,0.868,-0.540,-0.214,-0.092,0.183,73.333,14518.000,1.000
1.319,0.918,1.081,1.200,1.284,1.511,1.233,1.017,-0.070,0.867,-0.540,-0.214,-0.244,0.275,73.333,14519.000,1.000
1.325,0.980,1.115,1.218,1.392,1.554,1.216,0.986,-0.071,0.870,-0.538,-0.183,-0.458,0.458,73.333,14520.000,1.000
1.743,1.471,1.567,1.671,1.856,1.978,1.628,1.436,-0.070,0.871,-0.539,-0.061,-0.549,0.488,73.333,14521.000,1.000
2.425,2.204,2.299,2.396,2.515,2.616,2.334,2.190,-0.070,0.872,-0.540,-0.031,-0.732,0.732,73.333,14522.000,1.000
3.076,2.889,3.041,3.097,3.116,3.207,3.060,2.944,-0.073,0.874,-0.540,-0.153,-0.946,0.763,73.333,14523.000,1.000
3.366,3.221,3.469,3.439,3.372,3.461,3.482,3.369,-0.071,0.874,-0.539,-0.092,-1.129,1.068,73.333,14524.000,1.000
3.144,3.052,3.392,3.256,3.133,3.230,3.418,3.306,-0.072,0.877,-0.539,0.000,-1.312,1.190,73.333,14525.000,1.000
2.406,2.356,2.749,2.539,2.368,2.492,2.814,2.728,-0.068,0.874,-0.539,0.031,-1.617,1.343,73.333,14526.000,1.000
1.269,1.231,1.611,1.407,1.179,1.363,1.733,1.713,-0.068,0.874,-0.538,-0.031,-1.648,1.434,73.333,14527.000,1.000
0.000,-0.055,0.247,0.132,-0.145,0.123,0.435,0.497,-0.068,0.871,-0.540,-0.061,-1.801,1.617,73.333,14528.000,1.000
-1.130,-1.209,-1.019,-0.997,-1.294,-0.957,-0.759,-0.644,-0.064,0.871,-0.537,0.000,-1.801,1.678,73.333,14529.000,1.000
-1.939,-2.013,-1.941,-1.780,-2.045,-1.705,-1.605,-1.499,-0.062,0.869,-0.538,0.061,-1.892,1.770,73.333,14530.000,1.000
-2.390,-2.420,-2.454,-2.194,-2.365,-2.114,-2.066,-2.024,-0.058,0.871,-0.540,0.031,-1.892,1.923,73.333,14531.000,1.000
-2.542,-2.498,-2.615,-2.318,-2.350,-2.261,-2.234,-2.265,-0.056,0.870,-0.540,0.061,-1.801,2.014,73.333,14532.000,1.000
-2.485,-2.358,-2.518,-2.245,-2.137,-2.212,-2.204,-2.277,-0.056,0.870,-0.539,-0.031,-1.770,1.984,73.333,14533.000,1.000
-2.407,-2.209,-2.364,-2.155,-1.932,-2.116,-2.146,-2.207,-0.054,0.869,-0.542,0.000,-1.770,2.014,73.333,14534.000,1.000
-2.471,-2.231,-2.356,-2.224,-1.912,-2.129,-2.217,-2.216,-0.058,0.867,-0.539,-0.092,-1.678,1.984,73.333,14535.000,1.000
-2.761,-2.507,-2.615,-2.551,-2.173,-2.367,-2.502,-2.425,-0.060,0.866,-0.536,-0.153,-1.617,2.075,73.333,14536.000,1.000
-3.320,-3.064,-3.196,-3.182,-2.762,-2.918,-3.051,-2.929,-0.068,0.866,-0.536,-0.061,-1.617,1.984,73.333,14537.000,1.000
-4.169,-3.908,-4.102,-4.126,-3.673,-3.822,-3.920,-3.785,-0.069,0.867,-0.540,0.031,-1.770,1.862,73.333,14538.000,1.000
-5.204,-4.938,-5.208,-5.275,-4.774,-4.969,-5.058,-4.891,-0.069,0.866,-0.539,0.031,-1.923,1.770,73.333,14539.000,1.000
-5.984,-5.735,-6.049,-6.175,-5.606,-5.874,-6.031,-5.777,-0.068,0.870,-0.545,0.031,-2.106,1.678,73.333,14540.000,1.000
-5.890,-5.688,-5.977,-6.165,-5.543,-5.873,-6.145,-5.771,-0.066,0.871,-0.539,0.061,-2.197,1.465,73.333,14541.000,1.000
-4.489,-4.342,-4.534,-4.770,-4.154,-4.511,-4.858,-4.392,-0.062,0.872,-0.542,0.061,-2.319,1.312,73.333,14542.000,1.000
-1.821,-1.711,-1.776,-2.041,-1.511,-1.842,-2.154,-1.681,-0.059,0.873,-0.540,-0.092,-2.197,1.160,73.333,14543.000,1.000
1.472,1.575,1.606,1.338,1.699,1.467,1.290,1.673,-0.057,0.874,-0.540,-0.061,-2.136,1.099,73.333,14544.000,1.000
4.457,4.586,4.638,4.399,4.530,4.460,4.460,4.675,-0.057,0.872,-0.539,-0.183,-2.106,0.977,73.333,14545.000,1.000
6.293,6.472,6.472,6.289,6.191,6.277,6.429,6.463,-0.057,0.872,-0.542,-0.214,-1.953,0.824,73.333,14546.000,1.000
6.590,6.825,6.732,6.619,6.377,6.526,6.761,6.678,-0.060,0.871,-0.540,-0.275,-1.923,0.793,73.333,14547.000,1.000
5.629,5.890,5.718,5.669,5.418,5.502,5.739,5.648,-0.060,0.871,-0.543,-0.397,-1.801,0.732,73.333,14548.000,1.000
4.159,4.396,4.205,4.187,4.044,3.969,4.163,4.156,-0.058,0.871,-0.543,-0.427,-1.770,0.610,73.333,14549.000,1.000
2.986,3.152,3.022,2.975,3.003,2.740,2.903,3.008,-0.057,0.870,-0.541,-0.458,-1.770,0.580,73.333,14550.000,1.000
2.439,2.515,2.504,2.370,2.562,2.147,2.325,2.505,-0.056,0.873,-0.541,-0.427,-1.678,0.519,73.333,14551.000,1.000
2.225,2.228,2.351,2.105,2.398,1.911,2.141,2.324,-0.057,0.873,-0.542,-0.336,-1.648,0.488,73.333,14552.000,1.000
1.856,1.815,2.041,1.710,2.014,1.536,1.830,1.954,-0.055,0.873,-0.543,-0.427,-1.678,0.397,73.333,14553.000,1.000
1.109,1.050,1.312,0.959,1.203,0.783,1.129,1.167,-0.056,0.874,-0.540,-0.580,-1.587,0.366,73.333,14554.000,1.000
0.241,0.189,0.394,0.098,0.256,-0.089,0.271,0.239,-0.058,0.874,-0.541,-0.641,-1.373,0.366,73.333,14555.000,1.000
-0.327,-0.353,-0.283,-0.470,-0.382,-0.653,-0.328,-0.389,-0.058,0.874,-0.544,-0.641,-1.282,0.305,73.333,14556.000,1.000
-0.409,-0.417,-0.505,-0.579,-0.525,-0.745,-0.479,-0.524,-0.058,0.872,-0.542,-0.732,-1.160,0.305,73.333,14557.000,1.000
-0.140,-0.168,-0.366,-0.369,-0.306,-0.520,-0.302,-0.309,-0.057,0.871,-0.543,-0.854,-0.977,0.366,73.333,14558.000,1.000
0.171,0.074,-0.140,-0.128,-0.028,-0.276,-0.074,-0.047,-0.058,0.870,-0.544,-0.885,-0.885,0.397,73.333,14559.000,1.000
0.352,0.161,0.033,0.018,0.146,-0.142,0.075,0.111,-0.058,0.870,-0.540,-0.916,-0.824,0.427,73.333,14560.000,1.000
0.469,0.203,0.226,0.166,0.280,-0.005,0.233,0.244,-0.059,0.869,-0.540,-0.885,-0.732,0.366,73.333,14561.000,1.000
0.708,0.428,0.601,0.509,0.553,0.339,0.573,0.537,-0.061,0.870,-0.544,-0.885,-0.580,0.366,73.333,14562.000,1.000
1.170,0.953,1.218,1.139,1.053,0.974,1.168,1.085,-0.059,0.869,-0.539,-0.885,-0.580,0.397,73.333,14563.000,1.000
1.705,1.622,1.886,1.885,1.624,1.708,1.843,1.729,-0.061,0.872,-0.539,-0.885,-0.519,0.305,73.333,14564.000,1.000
2.114,2.210,2.368,2.497,2.065,2.290,2.364,2.242,-0.063,0.871,-0.541,-0.916,-0.519,0.427,73.333,14565.000,1.000
2.290,2.575,2.544,2.798,2.267,2.567,2.586,2.486,-0.065,0.872,-0.540,-0.946,-0.488,0.366,73.333,14566.000,1.000
2.224,2.663,2.414,2.724,2.226,2.512,2.478,2.425,-0.067,0.872,-0.540,-0.824,-0.549,0.275,73.333,14567.000,1.000
2.000,2.504,2.090,2.354,2.035,2.224,2.142,2.132,-0.066,0.872,-0.537,-0.916,-0.549,0.214,73.333,14568.000,1.000
1.740,2.196,1.741,1.876,1.821,1.869,1.763,1.747,-0.064,0.870,-0.540,-0.854,-0.610,0.244,73.333,14569.000,1.000
1.612,1.934,1.575,1.563,1.745,1.660,1.568,1.485,-0.062,0.871,-0.538,-0.885,-0.580,0.214,73.333,14570.000,1.000
1.693,1.861,1.674,1.563,1.863,1.696,1.654,1.477,-0.063,0.870,-0.538,-0.824,-0.549,0.214,73.333,14571.000,1.000
1.911,1.975,1.951,1.819,2.096,1.905,1.946,1.692,-0.062,0.870,-0.540,-0.946,-0.610,0.275,73.333,14572.000,1.000
2.134,2.179,2.250,2.159,2.323,2.153,2.302,1.994,-0.063,0.870,-0.537,-0.885,-0.702,0.122,73.333,14573.000,1.000
2.209,2.319,2.394,2.372,2.423,2.294,2.550,2.201,-0.061,0.869,-0.541,-0.824,-0.671,0.183,73.333,14574.000,1.000
2.140,2.372,2.370,2.417,2.425,2.331,2.656,2.290,-0.060,0.868,-0.540,-0.793,-0.671,0.183,73.333,14575.000,1.000
2.081,2.433,2.328,2.422,2.456,2.388,2.713,2.393,-0.062,0.870,-0.540,-0.702,-0.671,0.244,73.333,14576.000,1.000
2.154,2.571,2.401,2.508,2.582,2.559,2.797,2.603,-0.062,0.868,-0.542,-0.671,-0.702,0.183,73.333,14577.000,1.000
2.349,2.767,2.587,2.682,2.757,2.812,2.891,2.866,-0.062,0.867,-0.542,-0.641,-0.732,0.153,73.333,14578.000,1.000
2.470,2.847,2.687,2.760,2.791,2.943,2.842,2.952,-0.062,0.869,-0.541,-0.580,-0.793,0.244,73.333,14579.000,1.000
2.317,2.630,2.507,2.548,2.507,2.753,2.523,2.674,-0.063,0.871,-0.538,-0.641,-0.732,0.214,73.333,14580.000,1.000
1.823,2.059,1.996,1.989,1.868,2.186,1.934,2.017,-0.063,0.871,-0.538,-0.763,-0.793,0.275,73.333,14581.000,1.000
1.090,1.254,1.265,1.200,1.010,1.360,1.198,1.134,-0.064,0.870,-0.537,-0.671,-0.793,0.305,73.333,14582.000,1.000
0.307,0.417,0.486,0.383,0.150,0.481,0.477,0.245,-0.064,0.872,-0.542,-0.610,-0.793,0.275,73.333,14583.000,1.000
-0.436,-0.374,-0.287,-0.373,-0.613,-0.342,-0.200,-0.561,-0.063,0.871,-0.542,-0.580,-0.641,0.244,73.333,14584.000,1.000
-1.104,-1.088,-1.035,-1.045,-1.239,-1.051,-0.842,-1.253,-0.065,0.870,-0.540,-0.610,-0.580,0.214,73.333,14585.000,1.000
-1.688,-1.710,-1.726,-1.627,-1.724,-1.610,-1.455,-1.826,-0.064,0.870,-0.539,-0.702,-0.702,0.214,73.333,14586.000,1.000
-2.189,-2.233,-2.315,-2.127,-2.115,-2.017,-2.031,-2.294,-0.066,0.870,-0.539,-0.732,-0.793,0.244,73.333,14587.000,1.000
-2.543,-2.605,-2.701,-2.488,-2.419,-2.245,-2.489,-2.621,-0.066,0.873,-0.541,-0.763,-0.854,0.305,73.333,14588.000,1.000
-2.680,-2.774,-2.799,-2.634,-2.605,-2.289,-2.726,-2.761,-0.066,0.874,-0.542,-0.732,-0.854,0.305,73.333,14589.000,1.000
-2.574,-2.717,-2.600,-2.518,-2.615,-2.165,-2.668,-2.694,-0.066,0.872,-0.537,-0.702,-0.916,0.305,73.333,14590.000,1.000
-2.298,-2.493,-2.229,-2.208,-2.455,-1.945,-2.368,-2.487,-0.066,0.872,-0.536,-0.702,-0.854,0.214,73.333,14591.000,1.000
-1.941,-2.181,-1.847,-1.826,-2.175,-1.712,-1.950,-2.223,-0.066,0.869,-0.538,-0.732,-0.793,0.305,73.333,14592.000,1.000
-1.540,-1.821,-1.542,-1.449,-1.824,-1.494,-1.528,-1.928,-0.065,0.870,-0.539,-0.702,-0.946,0.244,73.333,14593.000,1.000
-1.219,-1.528,-1.416,-1.200,-1.549,-1.377,-1.277,-1.693,-0.065,0.869,-0.538,-0.824,-1.038,0.275,73.333,14594.000,1.000
-1.114,-1.418,-1.522,-1.176,-1.476,-1.432,-1.295,-1.610,-0.067,0.870,-0.539,-0.671,-1.190,0.183,73.333,14595.000,1.000
-1.257,-1.509,-1.796,-1.371,-1.601,-1.636,-1.522,-1.697,-0.065,0.871,-0.541,-0.763,-1.221,0.214,73.333,14596.000,1.000
-1.543,-1.703,-2.068,-1.662,-1.788,-1.878,-1.785,-1.878,-0.062,0.869,-0.542,-0.732,-1.221,0.244,73.333,14597.000,1.000
-1.741,-1.812,-2.125,-1.837,-1.828,-1.979,-1.869,-1.979,-0.063,0.870,-0.542,-0.732,-1.160,0.275,73.333,14598.000,1.000
-1.695,-1.728,-1.877,-1.779,-1.622,-1.851,-1.696,-1.883,-0.063,0.869,-0.543,-0.702,-1.190,0.305,73.333,14599.000,1.000
-1.388,-1.447,-1.387,-1.486,-1.213,-1.508,-1.329,-1.580,-0.062,0.869,-0.541,-0.641,-1.129,0.336,73.333,14600.000,1.000
-0.984,-1.104,-0.872,-1.103,-0.801,-1.088,-0.954,-1.189,-0.062,0.870,-0.539,-0.641,-1.129,0.397,73.333,14601.000,1.000
-0.749,-0.927,-0.627,-0.877,-0.653,-0.823,-0.805,-0.933,-0.062,0.871,-0.542,-0.549,-1.160,0.488,73.333,14602.000,1.000
-0.861,-1.078,-0.819,-0.982,-0.910,-0.881,-1.003,-0.986,-0.062,0.873,-0.537,-0.580,-1.068,0.549,73.333,14603.000,1.000
-1.301,-1.527,-1.378,-1.401,-1.484,-1.266,-1.490,-1.357,-0.061,0.874,-0.538,-0.671,-1.068,0.519,73.333,14604.000,1.000
