EEG 1,EEG 2,EEG 3,EEG 4,EEG 5,EEG 6,EEG 7,EEG 8,Accelerometer X,Accelerometer Y,Accelerometer Z,Gyroscope X,Gyroscope Y,Gyroscope Z,Battery Level,Counter,Validation Indicator
-4.529,-4.785,-4.756,-4.818,-4.697,-4.584,-4.883,-4.928,-0.057,0.861,-0.552,-1.495,-1.099,0.732,73.333,38753.000,1.000
-6.628,-6.792,-6.884,-6.866,-6.871,-6.617,-6.908,-6.924,-0.056,0.859,-0.551,-1.404,-1.007,0.732,73.333,38754.000,1.000
-8.537,-8.624,-8.802,-8.746,-8.844,-8.436,-8.741,-8.735,-0.056,0.858,-0.553,-1.221,-0.946,0.824,73.333,38755.000,1.000
-10.062,-10.122,-10.295,-10.267,-10.387,-9.886,-10.223,-10.205,-0.057,0.859,-0.552,-1.038,-0.763,0.793,73.333,38756.000,1.000
-11.066,-11.151,-11.243,-11.290,-11.364,-10.879,-11.234,-11.228,-0.060,0.859,-0.554,-0.946,-0.702,0.671,73.333,38757.000,1.000
-11.454,-11.586,-11.576,-11.689,-11.707,-11.342,-11.650,-11.684,-0.058,0.859,-0.548,-0.793,-0.519,0.763,73.333,38758.000,1.000
-11.152,-11.313,-11.249,-11.359,-11.376,-11.179,-11.358,-11.438,-0.056,0.861,-0.550,-0.854,-0.427,0.763,73.333,38759.000,1.000
-10.126,-10.266,-10.244,-10.259,-10.335,-10.293,-10.297,-10.405,-0.053,0.863,-0.553,-0.824,-0.275,0.732,73.333,38760.000,1.000
-8.514,-8.577,-8.697,-8.553,-8.705,-8.768,-8.609,-8.724,-0.052,0.866,-0.550,-0.946,-0.061,0.702,73.333,38761.000,1.000
-6.654,-6.610,-6.905,-6.612,-6.809,-6.918,-6.659,-6.773,-0.056,0.870,-0.550,-0.977,0.122,0.580,73.333,38762.000,1.000
-4.979,-4.835,-5.250,-4.897,-5.064,-5.188,-4.916,-5.033,-0.060,0.872,-0.549,-1.068,0.122,0.549,73.333,38763.000,1.000
-3.814,-3.602,-4.043,-3.746,-3.784,-3.933,-3.724,-3.862,-0.065,0.875,-0.549,-1.312,0.183,0.519,73.333,38764.000,1.000
-3.227,-2.991,-3.381,-3.215,-3.061,-3.257,-3.153,-3.325,-0.069,0.875,-0.548,-1.373,0.275,0.458,73.333,38765.000,1.000
-3.162,-2.950,-3.234,-3.217,-2.899,-3.142,-3.140,-3.333,-0.074,0.875,-0.551,-1.526,0.183,0.244,73.333,38766.000,1.000
-3.609,-3.464,-3.601,-3.716,-3.342,-3.596,-3.671,-3.836,-0.078,0.873,-0.549,-1.556,-0.183,0.031,73.333,38767.000,1.000
-4.592,-4.525,-4.501,-4.713,-4.416,-4.615,-4.748,-4.820,-0.078,0.870,-0.548,-1.709,-0.366,-0.183,73.333,38768.000,1.000
-5.919,-5.910,-5.745,-6.002,-5.877,-5.955,-6.132,-6.076,-0.079,0.867,-0.546,-1.648,-0.549,-0.427,73.333,38769.000,1.000
-7.083,-7.098,-6.841,-7.090,-7.161,-7.078,-7.282,-7.112,-0.077,0.868,-0.549,-1.556,-0.763,-0.488,73.333,38770.000,1.000
-7.599,-7.614,-7.322,-7.537,-7.759,-7.514,-7.722,-7.491,-0.075,0.866,-0.550,-1.587,-0.885,-0.549,73.333,38771.000,1.000
-7.329,-7.356,-7.077,-7.261,-7.535,-7.170,-7.361,-7.131,-0.072,0.864,-0.551,-1.587,-1.038,-0.610,73.333,38772.000,1.000
-6.571,-6.650,-6.403,-6.560,-6.780,-6.385,-6.543,-6.359,-0.068,0.865,-0.551,-1.648,-1.190,-0.671,73.333,38773.000,1.000
-5.809,-5.968,-5.749,-5.864,-5.958,-5.654,-5.769,-5.644,-0.068,0.866,-0.548,-1.617,-1.282,-0.763,73.333,38774.000,1.000
-5.271,-5.486,-5.298,-5.341,-5.293,-5.184,-5.252,-5.171,-0.067,0.867,-0.551,-1.617,-1.282,-0.854,73.333,38775.000,1.000
-4.811,-5.007,-4.878,-4.815,-4.664,-4.788,-4.805,-4.753,-0.067,0.867,-0.548,-1.587,-1.312,-0.824,73.333,38776.000,1.000
-4.143,-4.250,-4.204,-4.025,-3.848,-4.147,-4.119,-4.088,-0.067,0.867,-0.549,-1.648,-1.312,-0.641,73.333,38777.000,1.000
-3.171,-3.176,-3.204,-2.934,-2.812,-3.164,-3.118,-3.095,-0.067,0.867,-0.547,-1.587,-1.404,-0.488,73.333,38778.000,1.000
-2.048,-1.999,-2.067,-1.758,-1.727,-2.007,-1.998,-1.959,-0.066,0.868,-0.547,-1.495,-1.495,-0.336,73.333,38779.000,1.000
-0.941,-0.899,-0.979,-0.688,-0.731,-0.857,-0.950,-0.883,-0.065,0.869,-0.547,-1.587,-1.373,-0.122,73.333,38780.000,1.000
0.065,0.076,0.000,0.226,0.146,0.189,-0.031,0.055,-0.064,0.869,-0.548,-1.556,-1.404,0.153,73.333,38781.000,1.000
0.875,0.888,0.832,0.970,0.869,1.031,0.735,0.818,-0.066,0.869,-0.545,-1.556,-1.465,0.366,73.333,38782.000,1.000
1.345,1.418,1.394,1.448,1.323,1.516,1.246,1.315,-0.066,0.867,-0.544,-1.648,-1.312,0.610,73.333,38783.000,1.000
1.481,1.649,1.664,1.650,1.507,1.644,1.486,1.553,-0.066,0.864,-0.544,-1.678,-1.404,0.641,73.333,38784.000,1.000
1.592,1.833,1.893,1.818,1.693,1.735,1.700,1.788,-0.065,0.864,-0.546,-1.648,-1.190,0.824,73.333,38785.000,1.000
2.012,2.247,2.361,2.224,2.171,2.116,2.182,2.288,-0.066,0.864,-0.545,-1.648,-1.251,0.885,73.333,38786.000,1.000
2.800,2.930,3.102,2.913,2.962,2.826,2.994,3.073,-0.067,0.864,-0.547,-1.648,-1.190,0.946,73.333,38787.000,1.000
3.734,3.694,3.899,3.699,3.832,3.631,3.935,3.931,-0.064,0.865,-0.545,-1.617,-1.190,1.129,73.333,38788.000,1.000
4.501,4.302,4.491,4.330,4.489,4.249,4.710,4.592,-0.064,0.865,-0.544,-1.709,-1.099,1.129,73.333,38789.000,1.000
4.932,4.641,4.777,4.674,4.799,4.557,5.140,4.920,-0.062,0.866,-0.542,-1.740,-1.007,1.221,73.333,38790.000,1.000
5.032,4.732,4.809,4.746,4.808,4.610,5.207,4.939,-0.060,0.865,-0.545,-1.740,-1.007,1.312,73.333,38791.000,1.000
4.966,4.726,4.744,4.689,4.711,4.585,5.070,4.826,-0.061,0.864,-0.544,-1.770,-0.885,1.373,73.333,38792.000,1.000
4.931,4.802,4.754,4.693,4.717,4.677,4.961,4.801,-0.058,0.862,-0.545,-1.770,-0.732,1.373,73.333,38793.000,1.000
5.049,5.065,4.954,4.896,4.946,4.986,5.061,5.012,-0.059,0.860,-0.547,-1.740,-0.580,1.312,73.333,38794.000,1.000
5.394,5.560,5.412,5.368,5.440,5.529,5.459,5.521,-0.057,0.861,-0.550,-1.617,-0.458,1.343,73.333,38795.000,1.000
5.962,6.241,6.097,6.067,6.140,6.236,6.113,6.264,-0.056,0.863,-0.547,-1.526,-0.275,1.251,73.333,38796.000,1.000
6.655,6.978,6.887,6.857,6.903,6.969,6.884,7.076,-0.056,0.863,-0.547,-1.373,-0.031,1.160,73.333,38797.000,1.000
7.264,7.569,7.573,7.520,7.504,7.533,7.552,7.724,-0.055,0.863,-0.548,-1.282,0.061,1.007,73.333,38798.000,1.000
7.477,7.739,7.849,7.752,7.645,7.672,7.811,7.923,-0.054,0.861,-0.547,-1.282,0.366,0.946,73.333,38799.000,1.000
7.032,7.261,7.455,7.307,7.101,7.186,7.403,7.461,-0.054,0.862,-0.545,-1.282,0.519,0.916,73.333,38800.000,1.000
5.927,6.151,6.377,6.201,5.919,6.107,6.330,6.369,-0.056,0.864,-0.548,-1.129,0.549,0.732,73.333,38801.000,1.000
4.584,4.811,5.007,4.846,4.548,4.834,5.001,5.035,-0.058,0.865,-0.547,-1.007,0.732,0.580,73.333,38802.000,1.000
3.646,3.851,3.973,3.873,3.626,3.961,4.035,4.050,-0.060,0.864,-0.546,-0.885,0.885,0.519,73.333,38803.000,1.000
3.587,3.729,3.772,3.769,3.605,3.929,3.899,3.886,-0.060,0.864,-0.545,-0.916,0.916,0.275,73.333,38804.000,1.000
4.502,4.561,4.557,4.665,4.556,4.839,4.718,4.690,-0.063,0.866,-0.545,-0.824,1.038,0.183,73.333,38805.000,1.000
6.085,6.068,6.061,6.257,6.151,6.403,6.216,6.195,-0.062,0.865,-0.546,-0.763,1.068,0.031,73.333,38806.000,1.000
7.814,7.743,7.768,7.975,7.860,8.101,7.875,7.879,-0.064,0.867,-0.545,-0.702,1.038,-0.061,73.333,38807.000,1.000
9.241,9.150,9.212,9.324,9.250,9.483,9.231,9.272,-0.063,0.869,-0.549,-0.702,1.099,-0.092,73.333,38808.000,1.000
10.186,10.130,10.185,10.137,10.162,10.365,10.093,10.179,-0.064,0.869,-0.551,-0.763,1.068,-0.214,73.333,38809.000,1.000
10.724,10.751,10.733,10.551,10.676,10.821,10.547,10.666,-0.064,0.870,-0.545,-0.702,0.946,-0.275,73.333,38810.000,1.000
10.982,11.092,10.967,10.756,10.909,10.977,10.734,10.855,-0.065,0.869,-0.547,-0.793,0.946,-0.214,73.333,38811.000,1.000
11.054,11.178,10.985,10.866,10.942,10.933,10.759,10.844,-0.065,0.869,-0.545,-0.854,0.854,-0.244,73.333,38812.000,1.000
10.956,10.998,10.823,10.853,10.797,10.719,10.644,10.684,-0.067,0.869,-0.548,-0.732,0.702,-0.305,73.333,38813.000,1.000
10.586,10.491,10.404,10.545,10.392,10.261,10.304,10.317,-0.067,0.870,-0.547,-0.793,0.641,-0.305,73.333,38814.000,1.000
9.838,9.619,9.653,9.803,9.643,9.494,9.639,9.661,-0.067,0.869,-0.550,-0.763,0.549,-0.214,73.333,38815.000,1.000
8.748,8.471,8.626,8.702,8.593,8.483,8.677,8.734,-0.068,0.871,-0.546,-0.824,0.458,-0.183,73.333,38816.000,1.000
7.571,7.324,7.574,7.558,7.509,7.470,7.641,7.738,-0.069,0.871,-0.545,-0.977,0.458,-0.092,73.333,38817.000,1.000
6.614,6.472,6.774,6.705,6.694,6.691,6.798,6.910,-0.071,0.872,-0.547,-0.977,0.122,0.061,73.333,38818.000,1.000
5.989,5.978,6.291,6.215,6.225,6.170,6.219,6.305,-0.070,0.870,-0.547,-1.129,-0.092,0.061,73.333,38819.000,1.000
5.603,5.686,5.977,5.926,5.950,5.760,5.793,5.824,-0.070,0.868,-0.547,-1.099,-0.153,0.092,73.333,38820.000,1.000
5.298,5.395,5.635,5.622,5.665,5.322,5.375,5.354,-0.072,0.868,-0.548,-1.007,-0.366,0.153,73.333,38821.000,1.000
5.023,5.069,5.231,5.246,5.317,4.892,4.959,4.925,-0.070,0.865,-0.544,-1.068,-0.458,0.244,73.333,38822.000,1.000
4.841,4.816,4.894,4.894,5.006,4.620,4.645,4.656,-0.070,0.864,-0.544,-1.160,-0.641,0.366,73.333,38823.000,1.000
4.790,4.706,4.723,4.659,4.834,4.579,4.496,4.586,-0.069,0.863,-0.546,-1.129,-0.824,0.397,73.333,38824.000,1.000
4.846,4.732,4.725,4.572,4.840,4.725,4.513,4.661,-0.069,0.861,-0.548,-1.068,-0.824,0.427,73.333,38825.000,1.000
4.925,4.822,4.811,4.588,4.951,4.922,4.612,4.775,-0.068,0.860,-0.552,-0.885,-0.885,0.427,73.333,38826.000,1.000
4.912,4.883,4.851,4.613,5.024,5.013,4.660,4.815,-0.065,0.861,-0.550,-0.854,-0.916,0.580,73.333,38827.000,1.000
4.681,4.775,4.679,4.494,4.878,4.840,4.495,4.640,-0.065,0.862,-0.547,-0.732,-1.007,0.641,73.333,38828.000,1.000
4.081,4.290,4.096,4.011,4.322,4.233,3.942,4.074,-0.060,0.864,-0.549,-0.732,-1.099,0.763,73.333,38829.000,1.000
3.012,3.261,2.977,3.003,3.251,3.105,2.894,2.999,-0.061,0.865,-0.548,-0.702,-1.068,0.916,73.333,38830.000,1.000
1.502,1.708,1.387,1.498,1.724,1.528,1.401,1.466,-0.060,0.866,-0.545,-0.580,-1.007,0.824,73.333,38831.000,1.000
-0.167,-0.042,-0.322,-0.159,0.069,-0.166,-0.228,-0.207,-0.064,0.864,-0.544,-0.610,-1.007,0.885,73.333,38832.000,1.000
-1.541,-1.490,-1.653,-1.452,-1.248,-1.509,-1.533,-1.547,-0.066,0.865,-0.547,-0.641,-1.068,0.854,73.333,38833.000,1.000
-2.363,-2.371,-2.365,-2.119,-2.007,-2.283,-2.285,-2.316,-0.070,0.864,-0.547,-0.702,-1.160,0.854,73.333,38834.000,1.000
-2.823,-2.897,-2.713,-2.417,-2.459,-2.734,-2.721,-2.743,-0.071,0.865,-0.549,-0.641,-1.190,0.641,73.333,38835.000,1.000
-3.424,-3.578,-3.265,-2.933,-3.141,-3.387,-3.359,-3.358,-0.072,0.867,-0.551,-0.580,-1.312,0.671,73.333,38836.000,1.000
-4.473,-4.699,-4.344,-4.009,-4.348,-4.526,-4.474,-4.457,-0.071,0.867,-0.550,-0.519,-1.434,0.549,73.333,38837.000,1.000
-5.764,-6.021,-5.706,-5.410,-5.818,-5.902,-5.803,-5.800,-0.068,0.865,-0.546,-0.519,-1.617,0.458,73.333,38838.000,1.000
-6.748,-6.965,-6.744,-6.539,-6.937,-6.936,-6.768,-6.814,-0.066,0.868,-0.544,-0.549,-1.617,0.275,73.333,38839.000,1.000
-6.943,-7.052,-6.947,-6.882,-7.190,-7.140,-6.922,-7.022,-0.064,0.867,-0.545,-0.519,-1.648,0.336,73.333,38840.000,1.000
-6.295,-6.264,-6.279,-6.378,-6.540,-6.472,-6.270,-6.386,-0.062,0.867,-0.542,-0.549,-1.648,0.214,73.333,38841.000,1.000
-5.143,-5.008,-5.125,-5.379,-5.367,-5.289,-5.185,-5.259,-0.063,0.867,-0.546,-0.610,-1.434,0.214,73.333,38842.000,1.000
-3.952,-3.803,-3.977,-4.355,-4.172,-4.077,-4.115,-4.114,-0.064,0.867,-0.549,-0.732,-1.404,0.183,73.333,38843.000,1.000
-3.138,-3.070,-3.237,-3.695,-3.377,-3.267,-3.411,-3.361,-0.064,0.867,-0.547,-0.732,-1.434,0.183,73.333,38844.000,1.000
-2.984,-3.043,-3.145,-3.635,-3.240,-3.148,-3.290,-3.259,-0.064,0.868,-0.551,-0.793,-1.373,0.214,73.333,38845.000,1.000
-3.574,-3.731,-3.742,-4.209,-3.794,-3.788,-3.808,-3.858,-0.063,0.867,-0.551,-0.793,-1.312,0.305,73.333,38846.000,1.000
-4.675,-4.852,-4.778,-5.162,-4.779,-4.935,-4.759,-4.906,-0.063,0.864,-0.549,-0.671,-1.221,0.336,73.333,38847.000,1.000
-5.822,-5.941,-5.807,-6.045,-5.764,-6.099,-5.730,-5.954,-0.064,0.865,-0.553,-0.763,-1.160,0.336,73.333,38848.000,1.000
-6.621,-6.649,-6.485,-6.539,-6.437,-6.875,-6.388,-6.647,-0.064,0.866,-0.551,-0.824,-1.282,0.366,73.333,38849.000,1.000
-6.990,-6.937,-6.776,-6.654,-6.772,-7.187,-6.680,-6.925,-0.063,0.869,-0.549,-0.793,-1.068,0.427,73.333,38850.000,1.000
-7.166,-7.051,-6.929,-6.689,-6.995,-7.293,-6.840,-7.028,-0.063,0.872,-0.547,-0.977,-1.099,0.488,73.333,38851.000,1.000
-7.427,-7.257,-7.201,-6.922,-7.321,-7.478,-7.114,-7.221,-0.066,0.871,-0.548,-0.916,-1.038,0.519,73.333,38852.000,1.000
-7.865,-7.637,-7.660,-7.411,-7.795,-7.831,-7.564,-7.595,-0.065,0.870,-0.546,-0.916,-0.977,0.519,73.333,38853.000,1.000
-8.450,-8.170,-8.263,-8.089,-8.378,-8.327,-8.147,-8.127,-0.063,0.868,-0.547,-1.007,-0.977,0.519,73.333,38854.000,1.000
-9.105,-8.817,-8.948,-8.870,-9.031,-8.924,-8.806,-8.767,-0.062,0.868,-0.547,-1.160,-0.885,0.580,73.333,38855.000,1.000
-9.723,-9.500,-9.632,-9.643,-9.670,-9.551,-9.456,-9.434,-0.064,0.870,-0.545,-1.160,-0.885,0.610,73.333,38856.000,1.000
-10.086,-9.984,-10.095,-10.158,-10.062,-9.974,-9.883,-9.894,-0.062,0.869,-0.545,-1.160,-0.732,0.610,73.333,38857.000,1.000
-9.942,-9.962,-10.042,-10.106,-9.929,-9.895,-9.818,-9.832,-0.063,0.868,-0.548,-1.190,-0.671,0.610,73.333,38858.000,1.000
-9.222,-9.313,-9.365,-9.385,-9.201,-9.220,-9.172,-9.136,-0.064,0.868,-0.547,-1.251,-0.549,0.732,73.333,38859.000,1.000
-8.098,-8.185,-8.237,-8.200,-8.081,-8.124,-8.107,-8.000,-0.064,0.868,-0.548,-1.221,-0.519,0.763,73.333,38860.000,1.000
-6.903,-6.918,-7.027,-6.957,-6.936,-6.956,-6.961,-6.821,-0.062,0.868,-0.551,-1.251,-0.488,0.793,73.333,38861.000,1.000
-5.947,-5.865,-6.085,-6.025,-6.079,-6.032,-6.053,-5.957,-0.061,0.866,-0.548,-1.373,-0.488,0.702,73.333,38862.000,1.000
-5.382,-5.229,-5.569,-5.560,-5.622,-5.489,-5.533,-5.548,-0.063,0.867,-0.547,-1.373,-0.366,0.732,73.333,38863.000,1.000
-5.187,-5.009,-5.420,-5.472,-5.479,-5.281,-5.363,-5.498,-0.065,0.867,-0.548,-1.404,-0.275,0.641,73.333,38864.000,1.000
-5.190,-5.025,-5.418,-5.501,-5.435,-5.223,-5.357,-5.544,-0.065,0.867,-0.549,-1.434,-0.275,0.641,73.333,38865.000,1.000
-5.168,-5.043,-5.320,-5.394,-5.276,-5.111,-5.298,-5.431,-0.063,0.865,-0.548,-1.373,-0.275,0.580,73.333,38866.000,1.000
-4.874,-4.819,-4.921,-4.966,-4.824,-4.743,-4.963,-4.966,-0.063,0.865,-0.547,-1.343,-0.214,0.519,73.333,38867.000,1.000
-4.133,-4.180,-4.116,-4.138,-3.981,-3.970,-4.198,-4.076,-0.063,0.864,-0.544,-1.434,-0.183,0.580,73.333,38868.000,1.000
-3.061,-3.214,-3.053,-3.063,-2.895,-2.900,-3.118,-2.946,-0.065,0.864,-0.544,-1.343,-0.153,0.641,73.333,38869.000,1.000
-2.051,-2.258,-2.084,-2.098,-1.932,-1.902,-2.096,-1.974,-0.064,0.862,-0.544,-1.312,-0.092,0.519,73.333,38870.000,1.000
-1.486,-1.658,-1.531,-1.560,-1.423,-1.345,-1.501,-1.499,-0.065,0.861,-0.546,-1.312,-0.031,0.397,73.333,38871.000,1.000
-1.398,-1.471,-1.408,-1.459,-1.368,-1.257,-1.376,-1.506,-0.065,0.861,-0.550,-1.221,0.000,0.397,73.333,38872.000,1.000
-1.442,-1.422,-1.409,-1.474,-1.432,-1.301,-1.394,-1.617,-0.066,0.861,-0.551,-1.068,0.031,0.336,73.333,38873.000,1.000
-1.234,-1.183,-1.192,-1.242,-1.270,-1.094,-1.175,-1.427,-0.069,0.860,-0.552,-0.885,-0.031,0.397,73.333,38874.000,1.000
-0.655,-0.646,-0.645,-0.634,-0.776,-0.510,-0.589,-0.814,-0.071,0.858,-0.552,-0.763,-0.122,0.275,73.333,38875.000,1.000
0.135,0.061,0.083,0.192,-0.087,0.287,0.212,0.036,-0.070,0.859,-0.551,-0.549,-0.092,0.214,73.333,38876.000,1.000
0.996,0.847,0.878,1.080,0.701,1.147,1.087,0.948,-0.068,0.862,-0.550,-0.366,-0.061,0.061,73.333,38877.000,1.000
1.974,1.795,1.801,2.053,1.673,2.108,2.077,1.936,-0.069,0.863,-0.553,-0.244,-0.244,0.031,73.333,38878.000,1.000
3.083,2.917,2.869,3.118,2.845,3.190,3.186,3.001,-0.068,0.864,-0.549,-0.275,-0.275,0.214,73.333,38879.000,1.000
4.113,3.973,3.864,4.087,3.966,4.206,4.196,3.953,-0.069,0.865,-0.550,-0.183,-0.336,0.153,73.333,38880.000,1.000
4.729,4.594,4.466,4.659,4.639,4.839,4.796,4.501,-0.069,0.866,-0.553,0.031,-0.305,0.092,73.333,38881.000,1.000
4.832,4.667,4.595,4.754,4.720,4.980,4.899,4.574,-0.066,0.866,-0.554,-0.031,-0.305,0.183,73.333,38882.000,1.000
4.703,4.473,4.517,4.638,4.479,4.879,4.756,4.444,-0.066,0.868,-0.554,-0.031,-0.336,0.275,73.333,38883.000,1.000
4.675,4.372,4.517,4.619,4.297,4.839,4.654,4.414,-0.066,0.870,-0.556,0.061,-0.397,0.305,73.333,38884.000,1.000
4.774,4.428,4.587,4.706,4.266,4.865,4.617,4.492,-0.067,0.871,-0.554,0.122,-0.366,0.336,73.333,38885.000,1.000
4.678,4.341,4.428,4.584,4.109,4.634,4.387,4.377,-0.067,0.874,-0.555,0.214,-0.397,0.336,73.333,38886.000,1.000
4.066,3.789,3.763,3.947,3.507,3.851,3.719,3.781,-0.065,0.875,-0.558,0.275,-0.519,0.397,73.333,38887.000,1.000
2.968,2.789,2.648,2.831,2.473,2.595,2.665,2.733,-0.067,0.878,-0.559,0.275,-0.519,0.488,73.333,38888.000,1.000
1.896,1.829,1.592,1.737,1.504,1.432,1.705,1.717,-0.066,0.882,-0.559,0.122,-0.488,0.580,73.333,38889.000,1.000
1.638,1.670,1.367,1.447,1.377,1.185,1.586,1.503,-0.067,0.882,-0.556,0.122,-0.488,0.732,73.333,38890.000,1.000
2.471,2.577,2.246,2.253,2.353,2.138,2.551,2.382,-0.068,0.885,-0.557,-0.061,-0.458,0.702,73.333,38891.000,1.000
3.434,3.590,3.284,3.233,3.437,3.297,3.614,3.418,-0.068,0.885,-0.556,-0.275,-0.458,0.641,73.333,38892.000,1.000
2.753,2.926,2.713,2.638,2.821,2.831,2.984,2.840,-0.070,0.884,-0.554,-0.458,-0.519,0.763,73.333,38893.000,1.000
-0.233,-0.090,-0.156,-0.226,-0.171,0.017,-0.013,-0.052,-0.068,0.880,-0.554,-0.580,-0.549,0.854,73.333,38894.000,1.000
-3.259,-3.180,-3.095,-3.152,-3.245,-2.909,-3.100,-3.033,-0.067,0.881,-0.552,-0.824,-0.671,0.824,73.333,38895.000,1.000
-2.560,-2.538,-2.345,-2.398,-2.586,-2.174,-2.472,-2.342,-0.067,0.876,-0.555,-1.099,-0.641,0.793,73.333,38896.000,1.000
2.386,2.392,2.632,2.568,2.365,2.758,2.432,2.564,-0.066,0.875,-0.554,-1.221,-0.671,0.854,73.333,38897.000,1.000
6.468,6.508,6.725,6.662,6.510,6.779,6.517,6.600,-0.064,0.874,-0.552,-1.282,-0.702,0.885,73.333,38898.000,1.000
3.978,4.081,4.209,4.192,4.129,4.196,4.061,4.080,-0.062,0.872,-0.552,-1.404,-0.641,0.824,73.333,38899.000,1.000
-3.933,-3.777,-3.774,-3.690,-3.660,-3.804,-3.813,-3.834,-0.061,0.868,-0.550,-1.465,-0.702,0.854,73.333,38900.000,1.000
-9.815,-9.661,-9.764,-9.546,-9.447,-9.741,-9.698,-9.704,-0.059,0.868,-0.550,-1.526,-0.610,0.854,73.333,38901.000,1.000
-8.706,-8.618,-8.762,-8.424,-8.302,-8.653,-8.658,-8.582,-0.059,0.866,-0.547,-1.556,-0.519,0.793,73.333,38902.000,1.000
-3.741,-3.749,-3.860,-3.469,-3.375,-3.701,-3.816,-3.615,-0.058,0.864,-0.544,-1.678,-0.397,0.793,73.333,38903.000,1.000
-1.408,-1.506,-1.524,-1.186,-1.154,-1.406,-1.608,-1.303,-0.059,0.862,-0.547,-1.709,-0.397,0.824,73.333,38904.000,1.000
-3.180,-3.344,-3.231,-3.053,-3.082,-3.242,-3.459,-3.130,-0.060,0.860,-0.547,-1.678,-0.275,0.854,73.333,38905.000,1.000
-4.674,-4.873,-4.619,-4.667,-4.725,-4.796,-4.969,-4.703,-0.058,0.863,-0.547,-1.648,-0.244,0.824,73.333,38906.000,1.000
-2.492,-2.684,-2.330,-2.601,-2.639,-2.638,-2.759,-2.590,-0.058,0.861,-0.546,-1.709,-0.183,0.732,73.333,38907.000,1.000
1.168,1.023,1.400,0.970,0.999,1.038,0.940,1.053,-0.057,0.863,-0.545,-1.862,-0.153,0.763,73.333,38908.000,1.000
1.972,1.899,2.215,1.724,1.841,1.875,1.765,1.905,-0.056,0.862,-0.540,-1.831,0.031,0.702,73.333,38909.000,1.000
-0.461,-0.459,-0.266,-0.719,-0.528,-0.539,-0.685,-0.452,-0.055,0.863,-0.540,-1.984,0.061,0.671,73.333,38910.000,1.000
-2.354,-2.286,-2.249,-2.596,-2.369,-2.449,-2.629,-2.286,-0.055,0.865,-0.542,-1.984,0.183,0.641,73.333,38911.000,1.000
-1.013,-0.891,-1.013,-1.231,-1.000,-1.156,-1.346,-0.918,-0.058,0.866,-0.541,-2.075,0.336,0.610,73.333,38912.000,1.000
1.991,2.151,1.904,1.797,2.019,1.805,1.637,2.100,-0.058,0.869,-0.541,-2.228,0.366,0.549,73.333,38913.000,1.000
3.391,3.572,3.262,3.219,3.446,3.203,3.089,3.543,-0.059,0.870,-0.539,-2.289,0.397,0.580,73.333,38914.000,1.000
2.444,2.621,2.321,2.299,2.548,2.310,2.265,2.687,-0.059,0.868,-0.538,-2.472,0.458,0.549,73.333,38915.000,1.000
1.205,1.337,1.097,1.088,1.367,1.160,1.164,1.555,-0.060,0.869,-0.540,-2.594,0.488,0.610,73.333,38916.000,1.000
1.342,1.393,1.220,1.243,1.551,1.394,1.391,1.759,-0.062,0.869,-0.538,-2.747,0.427,0.427,73.333,38917.000,1.000
2.221,2.189,2.060,2.108,2.454,2.345,2.284,2.628,-0.062,0.865,-0.539,-2.838,0.397,0.366,73.333,38918.000,1.000
2.303,2.218,2.125,2.145,2.531,2.443,2.316,2.633,-0.065,0.866,-0.541,-3.021,0.427,0.305,73.333,38919.000,1.000
1.388,1.268,1.242,1.178,1.565,1.457,1.319,1.608,-0.067,0.865,-0.542,-3.113,0.397,0.183,73.333,38920.000,1.000
0.616,0.450,0.537,0.384,0.702,0.544,0.477,0.742,-0.068,0.864,-0.541,-3.082,0.153,0.153,73.333,38921.000,1.000
0.877,0.642,0.866,0.668,0.865,0.658,0.714,0.954,-0.067,0.859,-0.537,-3.082,0.031,0.153,73.333,38922.000,1.000
1.987,1.664,2.028,1.840,1.912,1.680,1.836,2.053,-0.068,0.857,-0.538,-3.082,-0.031,0.092,73.333,38923.000,1.000
3.189,2.790,3.282,3.111,3.122,2.875,3.057,3.261,-0.068,0.857,-0.537,-3.082,-0.275,0.031,73.333,38924.000,1.000
3.908,3.497,4.076,3.884,3.933,3.659,3.791,3.993,-0.069,0.857,-0.533,-3.082,-0.397,0.000,73.333,38925.000,1.000
3.936,3.601,4.193,3.945,4.103,3.778,3.848,4.039,-0.069,0.856,-0.533,-3.052,-0.610,-0.092,73.333,38926.000,1.000
3.420,3.217,3.730,3.450,3.707,3.321,3.378,3.523,-0.068,0.855,-0.536,-2.930,-0.793,-0.092,73.333,38927.000,1.000
2.842,2.782,3.137,2.891,3.174,2.749,2.856,2.917,-0.068,0.857,-0.536,-2.747,-0.977,-0.031,73.333,38928.000,1.000
2.617,2.695,2.854,2.698,2.921,2.509,2.685,2.651,-0.069,0.857,-0.534,-2.686,-1.129,-0.122,73.333,38929.000,1.000
2.631,2.836,2.815,2.761,2.866,2.533,2.736,2.632,-0.071,0.860,-0.540,-2.594,-1.312,-0.214,73.333,38930.000,1.000
2.346,2.648,2.505,2.528,2.500,2.295,2.455,2.310,-0.070,0.862,-0.539,-2.502,-1.495,-0.244,73.333,38931.000,1.000
1.620,1.972,1.780,1.841,1.704,1.633,1.711,1.524,-0.068,0.865,-0.539,-2.563,-1.526,-0.153,73.333,38932.000,1.000
1.170,1.524,1.338,1.420,1.209,1.229,1.254,0.990,-0.066,0.866,-0.535,-2.502,-1.801,-0.092,73.333,38933.000,1.000
1.723,2.043,1.883,2.024,1.743,1.794,1.844,1.465,-0.066,0.868,-0.534,-2.563,-1.892,-0.061,73.333,38934.000,1.000
2.937,3.199,3.063,3.317,2.948,2.987,3.129,2.642,-0.067,0.869,-0.537,-2.655,-1.923,-0.031,73.333,38935.000,1.000
3.579,3.777,3.661,4.022,3.578,3.592,3.848,3.302,-0.066,0.872,-0.538,-2.625,-2.014,0.153,73.333,38936.000,1.000
3.024,3.179,3.096,3.457,3.017,3.007,3.366,2.812,-0.065,0.875,-0.539,-2.747,-2.045,0.214,73.333,38937.000,1.000
2.100,2.259,2.239,2.442,2.115,2.084,2.527,1.977,-0.064,0.874,-0.538,-2.869,-2.197,0.275,73.333,38938.000,1.000
1.871,2.083,2.143,2.089,1.941,1.895,2.393,1.835,-0.066,0.876,-0.539,-3.021,-2.258,0.336,73.333,38939.000,1.000
2.022,2.306,2.429,2.139,2.159,2.107,2.608,2.045,-0.066,0.880,-0.539,-3.143,-2.197,0.397,73.333,38940.000,1.000
1.177,1.511,1.642,1.250,1.363,1.318,1.745,1.219,-0.067,0.878,-0.540,-3.326,-2.228,0.519,73.333,38941.000,1.000
-1.123,-0.786,-0.699,-1.025,-0.926,-0.940,-0.659,-1.086,-0.066,0.877,-0.539,-3.540,-2.167,0.549,73.333,38942.000,1.000
-3.524,-3.232,-3.207,-3.348,-3.363,-3.323,-3.202,-3.489,-0.065,0.878,-0.538,-3.662,-2.228,0.549,73.333,38943.000,1.000
-4.495,-4.285,-4.299,-4.247,-4.420,-4.317,-4.293,-4.449,-0.064,0.879,-0.538,-3.815,-2.350,0.488,73.333,38944.000,1.000
-4.284,-4.162,-4.176,-4.022,-4.313,-4.174,-4.145,-4.220,-0.065,0.880,-0.540,-3.784,-2.319,0.458,73.333,38945.000,1.000
-4.546,-4.484,-4.475,-4.335,-4.649,-4.528,-4.424,-4.467,-0.064,0.882,-0.536,-4.028,-2.380,0.580,73.333,38946.000,1.000
-6.036,-5.988,-5.964,-5.905,-6.154,-6.095,-5.929,-5.957,-0.063,0.879,-0.537,-4.181,-2.380,0.549,73.333,38947.000,1.000
-7.491,-7.420,-7.407,-7.421,-7.567,-7.580,-7.437,-7.437,-0.062,0.876,-0.536,-4.425,-2.350,0.549,73.333,38948.000,1.000
-7.358,-7.238,-7.268,-7.300,-7.348,-7.423,-7.386,-7.334,-0.063,0.877,-0.541,-4.425,-2.289,0.458,73.333,38949.000,1.000
-5.883,-5.704,-5.792,-5.797,-5.753,-5.882,-5.964,-5.863,-0.062,0.875,-0.541,-4.395,-2.197,0.397,73.333,38950.000,1.000
-4.732,-4.505,-4.640,-4.615,-4.476,-4.652,-4.788,-4.679,-0.063,0.872,-0.537,-4.425,-2.136,0.427,73.333,38951.000,1.000
-4.622,-4.386,-4.531,-4.512,-4.285,-4.494,-4.578,-4.532,-0.064,0.874,-0.535,-4.364,-2.136,0.397,73.333,38952.000,1.000
-4.308,-4.108,-4.234,-4.250,-3.985,-4.196,-4.140,-4.205,-0.063,0.874,-0.540,-4.395,-2.045,0.488,73.333,38953.000,1.000
-2.529,-2.391,-2.502,-2.542,-2.323,-2.480,-2.272,-2.439,-0.063,0.876,-0.536,-4.242,-1.892,0.458,73.333,38954.000,1.000
-0.120,-0.035,-0.157,-0.181,-0.086,-0.114,0.168,-0.047,-0.061,0.874,-0.538,-4.211,-1.740,0.397,73.333,38955.000,1.000
0.757,0.824,0.659,0.686,0.633,0.791,1.019,0.817,-0.060,0.871,-0.538,-4.120,-1.617,0.366,73.333,38956.000,1.000
-0.623,-0.527,-0.763,-0.668,-0.835,-0.494,-0.424,-0.567,-0.062,0.867,-0.538,-4.028,-1.526,0.305,73.333,38957.000,1.000
-2.443,-2.289,-2.609,-2.441,-2.658,-2.199,-2.326,-2.375,-0.063,0.867,-0.537,-3.815,-1.373,0.244,73.333,38958.000,1.000
-2.519,-2.324,-2.703,-2.468,-2.677,-2.204,-2.485,-2.426,-0.065,0.866,-0.540,-3.693,-1.282,0.305,73.333,38959.000,1.000
-0.857,-0.685,-1.048,-0.781,-0.948,-0.549,-0.891,-0.745,-0.065,0.865,-0.540,-3.448,-1.099,0.275,73.333,38960.000,1.000
0.647,0.719,0.465,0.705,0.587,0.873,0.563,0.744,-0.065,0.862,-0.541,-3.174,-1.007,0.305,73.333,38961.000,1.000
0.910,0.833,0.757,0.911,0.836,1.014,0.794,0.960,-0.064,0.865,-0.540,-2.838,-1.068,0.336,73.333,38962.000,1.000
1.076,0.846,0.958,0.992,0.965,1.048,0.935,1.071,-0.065,0.865,-0.542,-2.533,-0.854,0.366,73.333,38963.000,1.000
2.632,2.288,2.531,2.455,2.480,2.483,2.460,2.596,-0.065,0.864,-0.540,-2.258,-0.732,0.366,73.333,38964.000,1.000
5.060,4.661,4.936,4.801,4.867,4.815,4.845,5.030,-0.067,0.862,-0.539,-1.984,-0.610,0.397,73.333,38965.000,1.000
6.282,5.894,6.107,5.979,6.052,5.988,6.028,6.299,-0.064,0.864,-0.541,-1.648,-0.488,0.427,73.333,38966.000,1.000
5.358,5.020,5.136,5.062,5.105,5.063,5.095,5.437,-0.064,0.863,-0.544,-1.343,-0.458,0.427,73.333,38967.000,1.000
3.778,3.481,3.533,3.528,3.525,3.512,3.545,3.884,-0.063,0.861,-0.544,-1.099,-0.366,0.610,73.333,38968.000,1.000
3.513,3.217,3.272,3.322,3.286,3.283,3.334,3.568,-0.064,0.863,-0.544,-0.732,-0.153,0.641,73.333,38969.000,1.000
4.564,4.238,4.346,4.428,4.387,4.370,4.447,4.499,-0.063,0.863,-0.547,-0.549,0.000,0.702,73.333,38970.000,1.000
5.239,4.886,5.055,5.151,5.139,5.087,5.188,5.042,-0.062,0.862,-0.550,-0.397,0.061,0.732,73.333,38971.000,1.000
4.696,4.346,4.539,4.643,4.691,4.594,4.701,4.417,-0.063,0.862,-0.544,-0.031,0.275,0.793,73.333,38972.000,1.000
4.147,3.855,4.015,4.111,4.250,4.103,4.179,3.874,-0.060,0.864,-0.545,0.275,0.488,0.854,73.333,38973.000,1.000
4.986,4.821,4.892,4.950,5.200,5.014,5.011,4.802,-0.061,0.863,-0.549,0.549,0.610,1.007,73.333,38974.000,1.000
6.619,6.632,6.584,6.582,6.921,6.734,6.618,6.554,-0.060,0.863,-0.551,0.702,0.824,1.099,73.333,38975.000,1.000
7.024,7.206,7.046,6.994,7.346,7.227,6.996,7.044,-0.061,0.864,-0.547,0.916,1.007,1.221,73.333,38976.000,1.000
5.337,5.602,5.381,5.314,5.591,5.589,5.281,5.370,-0.062,0.863,-0.549,1.038,1.038,1.221,73.333,38977.000,1.000
3.004,3.226,3.025,2.970,3.131,3.238,2.924,2.984,-0.062,0.865,-0.546,1.190,1.312,1.312,73.333,38978.000,1.000
1.898,1.979,1.870,1.817,1.902,2.055,1.803,1.800,-0.063,0.863,-0.551,1.251,1.404,1.404,73.333,38979.000,1.000
2.042,1.958,1.968,1.873,1.975,2.093,1.928,1.880,-0.061,0.865,-0.551,1.343,1.556,1.465,73.333,38980.000,1.000
1.886,1.692,1.779,1.611,1.814,1.834,1.721,1.691,-0.059,0.865,-0.556,1.434,1.678,1.404,73.333,38981.000,1.000
0.644,0.443,0.508,0.278,0.607,0.522,0.385,0.444,-0.060,0.862,-0.553,1.526,1.801,1.404,73.333,38982.000,1.000
-0.550,-0.659,-0.719,-0.962,-0.563,-0.691,-0.907,-0.737,-0.058,0.863,-0.550,1.678,1.953,1.190,73.333,38983.000,1.000
-0.302,-0.271,-0.506,-0.710,-0.329,-0.419,-0.705,-0.475,-0.062,0.864,-0.549,1.770,2.106,1.221,73.333,38984.000,1.000
1.053,1.211,0.822,0.681,0.990,0.982,0.679,0.882,-0.062,0.865,-0.551,1.892,2.197,1.129,73.333,38985.000,1.000
1.784,2.019,1.564,1.471,1.705,1.752,1.501,1.611,-0.061,0.863,-0.552,1.831,2.319,1.007,73.333,38986.000,1.000
0.878,1.129,0.738,0.649,0.821,0.856,0.722,0.727,-0.057,0.861,-0.554,1.984,2.411,0.977,73.333,38987.000,1.000
-0.850,-0.633,-0.855,-0.976,-0.864,-0.891,-0.870,-0.932,-0.056,0.858,-0.549,1.831,2.502,0.946,73.333,38988.000,1.000
-2.001,-1.843,-1.875,-2.031,-1.984,-2.077,-1.909,-1.985,-0.054,0.856,-0.548,1.953,2.594,0.793,73.333,38989.000,1.000
-2.243,-2.145,-2.034,-2.204,-2.223,-2.352,-2.081,-2.138,-0.055,0.856,-0.552,1.953,2.747,0.702,73.333,38990.000,1.000
-2.283,-2.238,-2.051,-2.211,-2.283,-2.417,-2.098,-2.140,-0.054,0.855,-0.552,2.045,2.838,0.580,73.333,38991.000,1.000
-2.483,-2.484,-2.273,-2.411,-2.509,-2.621,-2.303,-2.371,-0.051,0.856,-0.552,2.014,2.960,0.549,73.333,38992.000,1.000
-2.159,-2.202,-2.004,-2.117,-2.214,-2.270,-1.987,-2.138,-0.052,0.857,-0.553,1.984,3.113,0.580,73.333,38993.000,1.000
-0.702,-0.781,-0.627,-0.703,-0.783,-0.759,-0.525,-0.792,-0.052,0.861,-0.553,1.862,3.204,0.458,73.333,38994.000,1.000
1.239,1.131,1.220,1.212,1.136,1.227,1.420,1.066,-0.052,0.864,-0.553,1.862,3.326,0.458,73.333,38995.000,1.000
2.209,2.090,2.097,2.190,2.088,2.197,2.373,2.013,-0.052,0.866,-0.550,1.678,3.387,0.519,73.333,38996.000,1.000
1.533,1.426,1.343,1.544,1.391,1.475,1.631,1.378,-0.054,0.867,-0.546,1.465,3.479,0.397,73.333,38997.000,1.000
0.050,-0.046,-0.202,0.076,-0.119,-0.065,0.005,-0.039,-0.061,0.869,-0.545,1.160,3.418,0.305,73.333,38998.000,1.000
-0.947,-1.068,-1.244,-0.944,-1.147,-1.097,-1.208,-0.997,-0.067,0.871,-0.544,0.946,3.540,0.153,73.333,38999.000,1.000
-1.029,-1.217,-1.350,-1.074,-1.256,-1.185,-1.510,-1.090,-0.070,0.872,-0.544,0.732,3.235,0.000,73.333,39000.000,1.000
-0.738,-0.998,-1.064,-0.838,-0.967,-0.880,-1.361,-0.838,-0.075,0.872,-0.547,0.397,2.991,-0.183,73.333,39001.000,1.000
-0.645,-0.919,-0.964,-0.780,-0.833,-0.751,-1.282,-0.772,-0.078,0.871,-0.545,0.153,2.686,-0.244,73.333,39002.000,1.000
-0.626,-0.818,-0.915,-0.738,-0.734,-0.654,-1.140,-0.749,-0.079,0.871,-0.547,-0.061,2.228,-0.458,73.333,39003.000,1.000
-0.196,-0.240,-0.405,-0.210,-0.220,-0.101,-0.478,-0.285,-0.078,0.874,-0.543,-0.336,1.892,-0.488,73.333,39004.000,1.000
0.836,0.917,0.760,0.959,0.850,1.063,0.827,0.795,-0.076,0.875,-0.545,-0.488,1.495,-0.549,73.333,39005.000,1.000
2.178,2.280,2.247,2.405,2.164,2.488,2.388,2.177,-0.075,0.879,-0.546,-0.763,1.160,-0.702,73.333,39006.000,1.000
3.427,3.439,3.597,3.681,3.343,3.732,3.725,3.446,-0.074,0.880,-0.541,-1.282,0.885,-0.763,73.333,39007.000,1.000
4.458,4.325,4.660,4.682,4.307,4.668,4.698,4.480,-0.072,0.881,-0.542,-1.648,0.549,-0.793,73.333,39008.000,1.000
5.214,4.957,5.393,5.398,5.040,5.286,5.307,5.249,-0.070,0.880,-0.539,-2.106,0.397,-0.763,73.333,39009.000,1.000
5.377,5.078,5.512,5.535,5.233,5.343,5.318,5.455,-0.070,0.880,-0.540,-2.380,0.183,-0.732,73.333,39010.000,1.000
4.465,4.227,4.569,4.616,4.389,4.414,4.310,4.618,-0.070,0.878,-0.540,-2.869,-0.092,-0.671,73.333,39011.000,1.000
2.349,2.256,2.453,2.514,2.368,2.371,2.177,2.584,-0.071,0.878,-0.539,-3.143,-0.305,-0.641,73.333,39012.000,1.000
-0.418,-0.327,-0.283,-0.217,-0.291,-0.279,-0.530,-0.131,-0.070,0.877,-0.537,-3.357,-0.549,-0.488,73.333,39013.000,1.000
-3.064,-2.808,-2.892,-2.815,-2.850,-2.829,-3.065,-2.792,-0.070,0.877,-0.538,-3.418,-0.793,-0.366,73.333,39014.000,1.000
-5.240,-4.891,-5.064,-4.953,-5.009,-4.982,-5.129,-5.065,-0.068,0.879,-0.541,-3.601,-1.007,-0.183,73.333,39015.000,1.000
-7.091,-6.749,-6.967,-6.794,-6.937,-6.904,-6.912,-7.068,-0.071,0.879,-0.539,-3.754,-1.190,-0.092,73.333,39016.000,1.000
-8.740,-8.494,-8.698,-8.456,-8.729,-8.683,-8.550,-8.863,-0.069,0.876,-0.536,-4.028,-1.312,0.122,73.333,39017.000,1.000
-9.898,-9.799,-9.925,-9.641,-10.044,-9.967,-9.747,-10.106,-0.069,0.872,-0.533,-4.242,-1.465,0.336,73.333,39018.000,1.000
-10.244,-10.280,-10.288,-10.005,-10.497,-10.372,-10.157,-10.436,-0.071,0.872,-0.533,-4.456,-1.709,0.427,73.333,39019.000,1.000
-9.848,-9.955,-9.839,-9.598,-10.109,-9.944,-9.806,-9.928,-0.070,0.871,-0.537,-4.639,-1.831,0.458,73.333,39020.000,1.000
-9.111,-9.216,-9.002,-8.825,-9.276,-9.111,-9.055,-9.035,-0.071,0.871,-0.537,-4.730,-2.045,0.580,73.333,39021.000,1.000
-8.344,-8.397,-8.138,-8.036,-8.351,-8.246,-8.212,-8.144,-0.070,0.870,-0.534,-4.669,-2.319,0.549,73.333,39022.000,1.000
-7.453,-7.432,-7.204,-7.186,-7.300,-7.309,-7.232,-7.208,-0.069,0.869,-0.535,-4.486,-2.411,0.488,73.333,39023.000,1.000
-6.195,-6.105,-5.972,-6.041,-5.930,-6.074,-5.937,-5.972,-0.070,0.871,-0.535,-4.425,-2.502,0.580,73.333,39024.000,1.000
-4.562,-4.429,-4.419,-4.554,-4.269,-4.498,-4.350,-4.390,-0.068,0.868,-0.535,-4.486,-2.686,0.580,73.333,39025.000,1.000
-2.865,-2.721,-2.814,-2.982,-2.621,-2.836,-2.745,-2.739,-0.067,0.868,-0.535,-4.425,-2.808,0.549,73.333,39026.000,1.000
-1.446,-1.312,-1.451,-1.621,-1.290,-1.400,-1.395,-1.352,-0.064,0.870,-0.532,-4.303,-2.930,0.671,73.333,39027.000,1.000
-0.344,-0.234,-0.351,-0.496,-0.278,-0.256,-0.302,-0.278,-0.063,0.868,-0.534,-4.120,-2.930,0.702,73.333,39028.000,1.000
0.550,0.614,0.567,0.473,0.536,0.659,0.619,0.569,-0.061,0.867,-0.535,-3.906,-2.930,0.732,73.333,39029.000,1.000
1.214,1.193,1.225,1.205,1.120,1.297,1.290,1.152,-0.060,0.865,-0.535,-3.906,-2.899,0.732,73.333,39030.000,1.000
1.511,1.377,1.450,1.518,1.333,1.535,1.540,1.353,-0.059,0.864,-0.533,-3.815,-2.991,0.702,73.333,39031.000,1.000
1.442,1.198,1.250,1.389,1.182,1.404,1.373,1.203,-0.059,0.863,-0.530,-3.540,-2.899,0.610,73.333,39032.000,1.000
1.214,0.895,0.878,1.031,0.897,1.132,1.038,0.929,-0.059,0.864,-0.536,-3.265,-2.777,0.580,73.333,39033.000,1.000
0.884,0.549,0.453,0.557,0.565,0.781,0.650,0.595,-0.059,0.866,-0.532,-3.113,-2.777,0.397,73.333,39034.000,1.000
0.198,-0.091,-0.246,-0.215,-0.051,0.081,-0.024,-0.053,-0.061,0.866,-0.532,-2.930,-2.686,0.305,73.333,39035.000,1.000
-1.129,-1.324,-1.502,-1.532,-1.251,-1.268,-1.292,-1.305,-0.059,0.868,-0.532,-2.655,-2.502,0.305,73.333,39036.000,1.000
-3.009,-3.098,-3.251,-3.327,-2.993,-3.170,-3.100,-3.083,-0.059,0.870,-0.534,-2.563,-2.289,0.336,73.333,39037.000,1.000
-4.867,-4.895,-4.968,-5.084,-4.742,-5.026,-4.900,-4.840,-0.060,0.869,-0.535,-2.380,-2.258,0.244,73.333,39038.000,1.000
-6.083,-6.124,-6.086,-6.227,-5.897,-6.211,-6.092,-5.999,-0.060,0.867,-0.534,-2.167,-2.045,0.183,73.333,39039.000,1.000
-6.457,-6.559,-6.420,-6.565,-6.252,-6.537,-6.476,-6.382,-0.061,0.868,-0.536,-2.045,-1.953,0.092,73.333,39040.000,1.000
-6.265,-6.423,-6.213,-6.362,-6.075,-6.296,-6.291,-6.248,-0.061,0.868,-0.534,-1.801,-1.862,0.000,73.333,39041.000,1.000
-5.852,-6.016,-5.765,-5.927,-5.695,-5.839,-5.827,-5.886,-0.063,0.867,-0.538,-1.648,-1.770,-0.061,73.333,39042.000,1.000
-5.169,-5.276,-5.021,-5.171,-5.047,-5.110,-5.016,-5.201,-0.063,0.866,-0.539,-1.373,-1.770,-0.183,73.333,39043.000,1.000
-3.998,-4.003,-3.793,-3.867,-3.897,-3.890,-3.690,-3.975,-0.062,0.868,-0.540,-1.160,-1.617,-0.244,73.333,39044.000,1.000
-2.431,-2.320,-2.195,-2.147,-2.333,-2.274,-2.018,-2.326,-0.059,0.870,-0.539,-0.854,-1.465,-0.214,73.333,39045.000,1.000
-0.914,-0.716,-0.686,-0.524,-0.818,-0.729,-0.517,-0.739,-0.061,0.870,-0.539,-0.732,-1.434,-0.244,73.333,39046.000,1.000
0.174,0.390,0.359,0.577,0.250,0.356,0.435,0.390,-0.060,0.868,-0.534,-0.519,-1.282,-0.275,73.333,39047.000,1.000
0.963,1.133,1.099,1.302,1.003,1.122,1.038,1.189,-0.063,0.869,-0.536,-0.366,-1.190,-0.244,73.333,39048.000,1.000
1.862,1.961,1.972,2.107,1.879,1.991,1.796,2.076,-0.062,0.870,-0.539,-0.244,-1.190,-0.244,73.333,39049.000,1.000
3.001,3.035,3.093,3.154,3.030,3.082,2.884,3.168,-0.062,0.870,-0.540,0.031,-1.099,-0.244,73.333,39050.000,1.000
4.009,3.988,4.044,4.083,4.075,3.999,3.916,4.076,-0.062,0.869,-0.542,0.214,-0.885,-0.275,73.333,39051.000,1.000
4.420,4.346,4.342,4.436,4.505,4.275,4.371,4.344,-0.065,0.868,-0.542,0.397,-0.824,-0.244,73.333,39052.000,1.000
4.247,4.122,4.033,4.215,4.290,3.948,4.205,4.029,-0.064,0.868,-0.538,0.641,-0.763,-0.214,73.333,39053.000,1.000
3.880,3.716,3.562,3.774,3.814,3.450,3.779,3.557,-0.065,0.868,-0.538,0.763,-0.732,-0.183,73.333,39054.000,1.000
3.583,3.403,3.242,3.362,3.382,3.086,3.379,3.199,-0.065,0.865,-0.536,0.977,-0.610,-0.092,73.333,39055.000,1.000
3.285,3.114,3.012,2.946,2.982,2.792,2.985,2.884,-0.063,0.866,-0.541,1.099,-0.488,-0.183,73.333,39056.000,1.000
2.847,2.707,2.701,2.462,2.512,2.404,2.516,2.489,-0.063,0.866,-0.540,1.251,-0.366,-0.031,73.333,39057.000,1.000
2.446,2.360,2.436,2.128,2.146,2.060,2.183,2.206,-0.064,0.862,-0.540,1.495,-0.397,0.061,73.333,39058.000,1.000
2.423,2.429,2.535,2.259,2.205,2.093,2.321,2.365,-0.061,0.861,-0.545,1.709,-0.183,0.000,73.333,39059.000,1.000
2.858,2.997,3.074,2.864,2.749,2.600,2.961,3.004,-0.061,0.863,-0.541,1.862,-0.153,0.061,73.333,39060.000,1.000
3.363,3.649,3.666,3.489,3.378,3.209,3.644,3.671,-0.063,0.865,-0.545,2.136,-0.122,0.092,73.333,39061.000,1.000
3.391,3.779,3.753,3.547,3.523,3.350,3.763,3.765,-0.060,0.869,-0.545,2.380,0.061,0.244,73.333,39062.000,1.000
2.818,3.213,3.191,2.915,3.019,2.858,3.173,3.159,-0.058,0.872,-0.545,2.411,0.214,0.336,73.333,39063.000,1.000
2.026,2.320,2.344,2.001,2.201,2.079,2.268,2.273,-0.056,0.875,-0.548,2.411,0.305,0.275,73.333,39064.000,1.000
1.548,1.667,1.742,1.393,1.599,1.535,1.621,1.695,-0.058,0.875,-0.545,2.380,0.458,0.336,73.333,39065.000,1.000
1.735,1.676,1.771,1.503,1.617,1.612,1.632,1.816,-0.061,0.875,-0.545,2.441,0.702,0.549,73.333,39066.000,1.000
2.656,2.490,2.551,2.440,2.407,2.449,2.412,2.715,-0.066,0.875,-0.543,2.472,0.824,0.610,73.333,39067.000,1.000
4.175,4.009,3.993,4.051,3.885,3.969,3.846,4.247,-0.070,0.875,-0.544,2.319,0.854,0.549,73.333,39068.000,1.000
5.908,5.836,5.737,5.902,5.673,5.788,5.567,6.022,-0.072,0.876,-0.545,2.136,0.854,0.458,73.333,39069.000,1.000
7.278,7.341,7.206,7.364,7.162,7.281,7.004,7.469,-0.073,0.878,-0.546,2.106,0.763,0.427,73.333,39070.000,1.000
7.725,7.912,7.802,7.849,7.767,7.827,7.574,8.032,-0.073,0.875,-0.545,2.197,0.580,0.397,73.333,39071.000,1.000
7.043,7.308,7.249,7.148,7.265,7.187,7.023,7.473,-0.073,0.875,-0.548,2.197,0.580,0.275,73.333,39072.000,1.000
5.659,5.946,5.926,5.716,6.062,5.787,5.740,6.168,-0.071,0.873,-0.549,2.136,0.427,0.244,73.333,39073.000,1.000
4.329,4.588,4.592,4.355,4.878,4.411,4.461,4.849,-0.070,0.872,-0.550,2.136,0.336,0.092,73.333,39074.000,1.000
3.557,3.754,3.786,3.602,4.182,3.597,3.682,4.023,-0.069,0.871,-0.549,2.045,0.366,0.214,73.333,39075.000,1.000
3.341,3.470,3.549,3.452,3.966,3.388,3.413,3.714,-0.066,0.868,-0.552,2.136,0.275,0.122,73.333,39076.000,1.000
3.471,3.561,3.689,3.669,4.030,3.594,3.466,3.736,-0.068,0.865,-0.552,2.228,0.244,0.183,73.333,39077.000,1.000
3.966,4.052,4.194,4.222,4.416,4.205,3.876,4.117,-0.066,0.862,-0.550,2.289,0.122,0.122,73.333,39078.000,1.000
4.873,4.971,5.076,5.119,5.213,5.214,4.711,4.903,-0.067,0.862,-0.554,2.502,0.153,0.031,73.333,39079.000,1.000
5.823,5.935,5.959,5.982,6.091,6.207,5.627,5.727,-0.067,0.859,-0.557,2.625,0.214,0.031,73.333,39080.000,1.000
6.103,6.221,6.151,6.124,6.344,6.451,5.930,5.886,-0.068,0.859,-0.557,2.869,0.183,0.000,73.333,39081.000,1.000
5.365,5.483,5.340,5.253,5.607,5.619,5.274,5.058,-0.070,0.860,-0.554,3.021,0.183,0.061,73.333,39082.000,1.000
4.253,4.362,4.195,4.056,4.495,4.408,4.284,3.904,-0.069,0.860,-0.554,3.143,0.092,0.153,73.333,39083.000,1.000
3.877,3.965,3.819,3.667,4.095,3.969,4.021,3.533,-0.069,0.856,-0.556,3.296,-0.092,0.122,73.333,39084.000,1.000
4.640,4.693,4.582,4.485,4.780,4.710,4.840,4.325,-0.070,0.855,-0.560,3.326,-0.092,0.183,73.333,39085.000,1.000
5.829,5.844,5.742,5.762,5.833,5.897,6.011,5.539,-0.068,0.856,-0.559,3.418,-0.244,0.122,73.333,39086.000,1.000
6.561,6.535,6.413,6.558,6.399,6.599,6.669,6.263,-0.068,0.855,-0.558,3.418,-0.305,0.214,73.333,39087.000,1.000
6.913,6.844,6.713,6.926,6.619,6.886,6.949,6.586,-0.067,0.856,-0.559,3.418,-0.305,0.305,73.333,39088.000,1.000
7.590,7.480,7.401,7.598,7.256,7.506,7.622,7.278,-0.065,0.854,-0.557,3.571,-0.275,0.458,73.333,39089.000,1.000
8.646,8.507,8.564,8.679,8.382,8.576,8.780,8.466,-0.064,0.853,-0.552,3.601,-0.336,0.397,73.333,39090.000,1.000
9.102,8.959,9.198,9.208,8.984,9.135,9.423,9.165,-0.063,0.854,-0.555,3.693,-0.305,0.488,73.333,39091.000,1.000
8.044,7.922,8.304,8.232,8.075,8.230,8.548,8.351,-0.063,0.855,-0.553,3.632,-0.275,0.610,73.333,39092.000,1.000
5.828,5.741,6.134,6.040,5.937,6.141,6.394,6.233,-0.064,0.859,-0.557,3.540,-0.336,0.763,73.333,39093.000,1.000
3.661,3.611,3.847,3.803,3.751,4.023,4.098,3.944,-0.063,0.861,-0.556,3.448,-0.336,0.885,73.333,39094.000,1.000
2.217,2.204,2.167,2.222,2.226,2.549,2.390,2.217,-0.063,0.862,-0.553,3.265,-0.305,1.007,73.333,39095.000,1.000
1.073,1.097,0.800,0.957,1.004,1.342,0.990,0.777,-0.064,0.863,-0.552,3.021,-0.397,1.129,73.333,39096.000,1.000
-0.475,-0.412,-0.834,-0.617,-0.575,-0.250,-0.696,-0.940,-0.063,0.864,-0.551,2.808,-0.397,1.160,73.333,39097.000,1.000
-2.319,-2.212,-2.581,-2.366,-2.389,-2.099,-2.531,-2.767,-0.064,0.863,-0.548,2.686,-0.488,1.282,73.333,39098.000,1.000
-3.701,-3.573,-3.756,-3.592,-3.717,-3.475,-3.795,-3.999,-0.063,0.862,-0.548,2.472,-0.519,1.251,73.333,39099.000,1.000
-4.252,-4.169,-4.131,-4.024,-4.249,-4.042,-4.185,-4.385,-0.063,0.861,-0.546,2.228,-0.519,1.282,73.333,39100.000,1.000
-4.414,-4.466,-4.263,-4.191,-4.475,-4.268,-4.233,-4.484,-0.063,0.864,-0.550,1.892,-0.397,1.282,73.333,39101.000,1.000
-4.888,-5.137,-4.877,-4.820,-5.094,-4.865,-4.709,-5.041,-0.063,0.863,-0.548,1.648,-0.458,1.190,73.333,39102.000,1.000
-5.921,-6.350,-6.135,-6.107,-6.291,-6.064,-5.863,-6.256,-0.066,0.863,-0.547,1.404,-0.488,1.129,73.333,39103.000,1.000
-7.306,-7.817,-7.710,-7.735,-7.779,-7.605,-7.419,-7.823,-0.065,0.863,-0.546,1.099,-0.549,1.099,73.333,39104.000,1.000
-8.765,-9.217,-9.223,-9.308,-9.231,-9.136,-9.000,-9.364,-0.065,0.864,-0.546,0.732,-0.519,1.068,73.333,39105.000,1.000
-10.106,-10.389,-10.447,-10.576,-10.472,-10.427,-10.345,-10.628,-0.063,0.864,-0.546,0.366,-0.488,1.099,73.333,39106.000,1.000
-11.109,-11.200,-11.217,-11.367,-11.332,-11.281,-11.233,-11.404,-0.064,0.866,-0.545,0.092,-0.580,0.977,73.333,39107.000,1.000
-11.402,-11.371,-11.276,-11.434,-11.476,-11.405,-11.363,-11.398,-0.062,0.864,-0.544,-0.153,-0.488,0.916,73.333,39108.000,1.000
-10.719,-10.673,-10.445,-10.607,-10.647,-10.618,-10.558,-10.446,-0.061,0.864,-0.547,-0.427,-0.610,0.885,73.333,39109.000,1.000
-9.144,-9.153,-8.824,-8.981,-8.946,-9.045,-8.955,-8.706,-0.063,0.864,-0.546,-0.763,-0.610,0.732,73.333,39110.000,1.000
-7.076,-7.131,-6.781,-6.918,-6.795,-7.051,-6.960,-6.600,-0.062,0.865,-0.544,-0.977,-0.671,0.641,73.333,39111.000,1.000
-5.094,-5.134,-4.853,-4.955,-4.794,-5.145,-5.116,-4.677,-0.064,0.864,-0.548,-1.190,-0.610,0.580,73.333,39112.000,1.000
-3.749,-3.713,-3.552,-3.610,-3.481,-3.813,-3.910,-3.415,-0.064,0.866,-0.547,-1.526,-0.671,0.366,73.333,39113.000,1.000
-3.385,-3.249,-3.205,-3.201,-3.160,-3.376,-3.615,-3.085,-0.065,0.868,-0.547,-1.678,-0.732,0.366,73.333,39114.000,1.000
-3.904,-3.694,-3.734,-3.644,-3.701,-3.761,-4.114,-3.570,-0.064,0.869,-0.551,-1.953,-0.854,0.183,73.333,39115.000,1.000
-4.756,-4.526,-4.621,-4.436,-4.570,-4.475,-4.892,-4.361,-0.063,0.870,-0.547,-2.197,-0.763,0.122,73.333,39116.000,1.000
-5.308,-5.104,-5.229,-4.961,-5.164,-4.925,-5.346,-4.858,-0.063,0.872,-0.544,-2.411,-0.885,0.000,73.333,39117.000,1.000
-5.171,-5.003,-5.137,-4.818,-5.103,-4.735,-5.092,-4.677,-0.065,0.872,-0.546,-2.533,-0.732,-0.031,73.333,39118.000,1.000
-4.393,-4.239,-4.373,-4.047,-4.425,-3.964,-4.193,-3.873,-0.063,0.871,-0.551,-2.655,-0.793,-0.031,73.333,39119.000,1.000
-3.308,-3.138,-3.291,-2.995,-3.440,-2.953,-3.020,-2.798,-0.064,0.870,-0.550,-2.838,-0.854,-0.061,73.333,39120.000,1.000
-2.260,-2.069,-2.267,-2.015,-2.453,-2.029,-1.939,-1.809,-0.063,0.870,-0.551,-2.899,-0.824,-0.153,73.333,39121.000,1.000
-1.604,-1.429,-1.668,-1.452,-1.789,-1.512,-1.309,-1.263,-0.064,0.871,-0.549,-2.930,-0.763,-0.214,73.333,39122.000,1.000
-1.679,-1.581,-1.821,-1.636,-1.802,-1.716,-1.469,-1.491,-0.063,0.869,-0.551,-2.930,-0.702,-0.214,73.333,39123.000,1.000
-2.584,-2.609,-2.822,-2.663,-2.648,-2.737,-2.512,-2.575,-0.062,0.869,-0.553,-2.991,-0.610,-0.275,73.333,39124.000,1.000
-3.962,-4.121,-4.303,-4.167,-4.014,-4.213,-4.046,-4.114,-0.061,0.867,-0.551,-3.113,-0.549,-0.427,73.333,39125.000,1.000
-5.193,-5.457,-5.601,-5.493,-5.281,-5.502,-5.390,-5.436,-0.062,0.868,-0.555,-2.991,-0.519,-0.305,73.333,39126.000,1.000
-5.888,-6.192,-6.277,-6.201,-6.027,-6.187,-6.096,-6.110,-0.063,0.866,-0.551,-3.052,-0.366,-0.183,73.333,39127.000,1.000
-6.049,-6.311,-6.328,-6.274,-6.221,-6.268,-6.160,-6.140,-0.065,0.865,-0.549,-2.991,-0.336,-0.275,73.333,39128.000,1.000
-5.980,-6.129,-6.101,-6.058,-6.145,-6.075,-5.950,-5.894,-0.064,0.864,-0.547,-2.991,-0.214,-0.183,73.333,39129.000,1.000
-6.023,-6.029,-5.985,-5.978,-6.136,-6.000,-5.905,-5.813,-0.065,0.864,-0.550,-2.838,-0.122,-0.183,73.333,39130.000,1.000
-6.295,-6.175,-6.116,-6.202,-6.319,-6.206,-6.183,-6.087,-0.063,0.861,-0.550,-2.777,-0.031,-0.092,73.333,39131.000,1.000
-6.665,-6.472,-6.372,-6.592,-6.589,-6.579,-6.616,-6.577,-0.065,0.859,-0.552,-2.686,-0.061,-0.153,73.333,39132.000,1.000
-6.852,-6.643,-6.483,-6.822,-6.703,-6.811,-6.860,-6.931,-0.064,0.858,-0.551,-2.594,0.000,-0.092,73.333,39133.000,1.000
-6.654,-6.459,-6.252,-6.651,-6.493,-6.659,-6.676,-6.864,-0.065,0.858,-0.552,-2.350,0.061,0.000,73.333,39134.000,1.000
-6.082,-5.899,-5.698,-6.086,-5.981,-6.116,-6.082,-6.347,-0.065,0.859,-0.550,-2.258,0.092,0.061,73.333,39135.000,1.000
-5.303,-5.120,-5.009,-5.329,-5.308,-5.362,-5.283,-5.557,-0.065,0.863,-0.553,-1.984,0.244,0.183,73.333,39136.000,1.000
-4.561,-4.379,-4.434,-4.657,-4.679,-4.660,-4.556,-4.780,-0.065,0.866,-0.554,-2.014,0.214,0.061,73.333,39137.000,1.000
-4.036,-3.874,-4.112,-4.245,-4.249,-4.185,-4.082,-4.247,-0.066,0.870,-0.557,-1.770,0.244,0.153,73.333,39138.000,1.000
-3.839,-3.722,-4.076,-4.152,-4.119,-4.022,-3.940,-4.091,-0.064,0.873,-0.555,-1.801,0.366,0.366,73.333,39139.000,1.000
-4.001,-3.950,-4.316,-4.364,-4.315,-4.193,-4.137,-4.329,-0.063,0.873,-0.550,-1.648,0.397,0.305,73.333,39140.000,1.000
-4.388,-4.403,-4.715,-4.742,-4.699,-4.581,-4.543,-4.781,-0.064,0.875,-0.548,-1.740,0.427,0.427,73.333,39141.000,1.000
-4.698,-4.744,-5.002,-4.994,-4.957,-4.894,-4.861,-5.096,-0.066,0.874,-0.545,-1.770,0.458,0.549,73.333,39142.000,1.000
-4.523,-4.542,-4.788,-4.738,-4.685,-4.716,-4.682,-4.843,-0.067,0.872,-0.546,-1.831,0.366,0.580,73.333,39143.000,1.000
-3.700,-3.641,-3.909,-3.835,-3.743,-3.870,-3.829,-3.885,-0.066,0.868,-0.552,-1.770,0.427,0.702,73.333,39144.000,1.000
-2.621,-2.463,-2.742,-2.685,-2.553,-2.738,-2.686,-2.665,-0.069,0.868,-0.552,-1.709,0.427,0.610,73.333,39145.000,1.000
-2.008,-1.773,-2.022,-2.016,-1.867,-2.049,-1.993,-1.960,-0.071,0.869,-0.552,-1.587,0.336,0.580,73.333,39146.000,1.000
-2.202,-1.941,-2.125,-2.181,-2.045,-2.164,-2.124,-2.147,-0.070,0.870,-0.553,-1.404,0.366,0.641,73.333,39147.000,1.000
-2.616,-2.383,-2.498,-2.601,-2.498,-2.523,-2.514,-2.632,-0.068,0.868,-0.548,-1.190,0.366,0.641,73.333,39148.000,1.000
-2.346,-2.181,-2.245,-2.354,-2.294,-2.245,-2.261,-2.463,-0.067,0.866,-0.549,-1.038,0.275,0.793,73.333,39149.000,1.000
-1.327,-1.245,-1.281,-1.344,-1.326,-1.271,-1.280,-1.512,-0.065,0.862,-0.549,-1.038,0.214,0.763,73.333,39150.000,1.000
-0.455,-0.445,-0.455,-0.442,-0.453,-0.487,-0.436,-0.640,-0.066,0.861,-0.548,-0.977,0.153,0.732,73.333,39151.000,1.000
-0.314,-0.345,-0.312,-0.228,-0.257,-0.451,-0.297,-0.438,-0.066,0.859,-0.550,-0.854,0.153,0.763,73.333,39152.000,1.000
0.081,0.048,0.141,0.273,0.222,-0.134,0.130,0.051,-0.064,0.858,-0.551,-0.732,0.183,0.702,73.333,39153.000,1.000
2.477,2.476,2.610,2.768,2.695,2.243,2.579,2.542,-0.064,0.858,-0.548,-0.488,0.122,0.763,73.333,39154.000,1.000
6.761,6.817,6.930,7.094,7.025,6.562,6.909,6.907,-0.065,0.858,-0.544,-0.336,0.031,0.793,73.333,39155.000,1.000
9.838,9.950,9.978,10.116,10.098,9.688,9.983,10.030,-0.062,0.857,-0.542,-0.397,-0.122,0.793,73.333,39156.000,1.000
8.485,8.610,8.537,8.617,8.675,8.353,8.559,8.657,-0.062,0.857,-0.538,-0.275,-0.214,0.824,73.333,39157.000,1.000
3.606,3.669,3.538,3.550,3.660,3.421,3.546,3.673,-0.062,0.858,-0.541,-0.214,-0.244,0.732,73.333,39158.000,1.000
0.009,-0.039,-0.172,-0.208,-0.109,-0.298,-0.217,-0.090,-0.061,0.858,-0.541,-0.244,-0.244,0.732,73.333,39159.000,1.000
1.124,0.970,0.880,0.822,0.848,0.681,0.745,0.855,-0.063,0.858,-0.543,-0.244,-0.214,0.824,73.333,39160.000,1.000
5.090,4.878,4.860,4.788,4.724,4.570,4.620,4.706,-0.066,0.860,-0.543,-0.214,-0.336,0.824,73.333,39161.000,1.000
7.331,7.118,7.184,7.095,6.974,6.829,6.860,6.926,-0.066,0.863,-0.542,-0.244,-0.397,0.824,73.333,39162.000,1.000
6.443,6.264,6.396,6.285,6.178,6.039,6.046,6.098,-0.063,0.863,-0.539,-0.397,-0.549,0.702,73.333,39163.000,1.000
5.618,5.478,5.650,5.505,5.481,5.354,5.336,5.376,-0.064,0.863,-0.539,-0.427,-0.610,0.732,73.333,39164.000,1.000
7.865,7.745,7.954,7.770,7.844,7.744,7.719,7.734,-0.064,0.865,-0.537,-0.519,-0.580,0.732,73.333,39165.000,1.000
11.461,11.344,11.619,11.411,11.530,11.466,11.473,11.442,-0.063,0.866,-0.538,-0.671,-0.732,0.732,73.333,39166.000,1.000
11.682,11.583,11.945,11.739,11.827,11.784,11.854,11.778,-0.063,0.865,-0.540,-0.916,-0.671,0.702,73.333,39167.000,1.000
6.624,6.580,6.996,6.818,6.835,6.781,6.906,6.823,-0.062,0.865,-0.538,-1.099,-0.793,0.732,73.333,39168.000,1.000
-0.437,-0.409,-0.010,-0.142,-0.194,-0.278,-0.132,-0.181,-0.064,0.866,-0.539,-1.343,-0.885,0.702,73.333,39169.000,1.000
-4.781,-4.714,-4.393,-4.469,-4.574,-4.674,-4.531,-4.527,-0.063,0.867,-0.536,-1.617,-0.916,0.702,73.333,39170.000,1.000
-5.076,-5.025,-4.810,-4.833,-4.966,-5.041,-4.917,-4.864,-0.063,0.867,-0.535,-1.831,-0.885,0.732,73.333,39171.000,1.000
-3.785,-3.788,-3.678,-3.671,-3.794,-3.801,-3.720,-3.623,-0.060,0.870,-0.532,-2.045,-0.977,0.732,73.333,39172.000,1.000
-3.571,-3.626,-3.608,-3.600,-3.671,-3.598,-3.581,-3.447,-0.063,0.872,-0.533,-2.350,-1.099,0.793,73.333,39173.000,1.000
-4.554,-4.628,-4.671,-4.690,-4.681,-4.553,-4.611,-4.449,-0.062,0.872,-0.532,-2.686,-1.099,0.732,73.333,39174.000,1.000
-5.073,-5.121,-5.178,-5.247,-5.153,-5.007,-5.140,-4.972,-0.063,0.875,-0.529,-2.869,-1.068,0.702,73.333,39175.000,1.000
-4.191,-4.170,-4.198,-4.327,-4.161,-4.021,-4.226,-4.091,-0.064,0.876,-0.531,-3.113,-1.160,0.702,73.333,39176.000,1.000
-2.856,-2.734,-2.701,-2.894,-2.684,-2.543,-2.811,-2.744,-0.065,0.876,-0.536,-3.357,-1.251,0.641,73.333,39177.000,1.000
-2.705,-2.490,-2.370,-2.620,-2.409,-2.237,-2.555,-2.561,-0.065,0.875,-0.534,-3.571,-1.282,0.610,73.333,39178.000,1.000
-4.389,-4.150,-3.922,-4.201,-4.032,-3.807,-4.159,-4.215,-0.064,0.877,-0.535,-3.754,-1.343,0.549,73.333,39179.000,1.000
-7.158,-6.994,-6.669,-6.917,-6.829,-6.548,-6.914,-6.984,-0.066,0.879,-0.536,-3.967,-1.434,0.488,73.333,39180.000,1.000
-9.762,-9.748,-9.390,-9.531,-9.557,-9.238,-9.585,-9.631,-0.066,0.879,-0.536,-4.089,-1.495,0.488,73.333,39181.000,1.000
-11.595,-11.744,-11.451,-11.421,-11.572,-11.260,-11.538,-11.529,-0.066,0.877,-0.534,-4.272,-1.587,0.488,73.333,39182.000,1.000
-12.774,-13.042,-12.901,-12.676,-12.914,-12.661,-12.836,-12.763,-0.066,0.876,-0.538,-4.395,-1.495,0.458,73.333,39183.000,1.000
-13.319,-13.625,-13.684,-13.286,-13.519,-13.365,-13.449,-13.326,-0.066,0.878,-0.539,-4.395,-1.495,0.366,73.333,39184.000,1.000
-12.512,-12.782,-13.036,-12.534,-12.657,-12.606,-12.655,-12.503,-0.066,0.880,-0.537,-4.547,-1.556,0.214,73.333,39185.000,1.000
-9.416,-9.620,-10.026,-9.499,-9.465,-9.487,-9.566,-9.391,-0.066,0.880,-0.538,-4.578,-1.587,0.214,73.333,39186.000,1.000
-4.137,-4.294,-4.775,-4.296,-4.151,-4.198,-4.336,-4.131,-0.066,0.883,-0.537,-4.608,-1.740,0.214,73.333,39187.000,1.000
1.822,1.683,1.220,1.598,1.762,1.726,1.547,1.782,-0.066,0.885,-0.539,-4.547,-1.831,0.122,73.333,39188.000,1.000
6.659,6.530,6.165,6.407,6.522,6.510,6.331,6.581,-0.066,0.884,-0.535,-4.608,-1.892,0.122,73.333,39189.000,1.000
9.668,9.550,9.320,9.420,9.472,9.487,9.325,9.574,-0.067,0.881,-0.537,-4.608,-1.831,0.122,73.333,39190.000,1.000
11.473,11.360,11.252,11.233,11.258,11.307,11.121,11.385,-0.067,0.880,-0.538,-4.639,-1.831,0.092,73.333,39191.000,1.000
12.958,12.844,12.827,12.726,12.766,12.865,12.593,12.911,-0.065,0.877,-0.542,-4.486,-1.923,0.122,73.333,39192.000,1.000
14.253,14.143,14.200,14.054,14.117,14.287,13.912,14.311,-0.064,0.879,-0.540,-4.425,-1.862,0.183,73.333,39193.000,1.000
14.799,14.712,14.844,14.683,14.726,14.983,14.559,15.010,-0.063,0.877,-0.541,-4.120,-1.862,0.183,73.333,39194.000,1.000
14.404,14.361,14.556,14.407,14.381,14.705,14.321,14.750,-0.062,0.875,-0.538,-3.906,-1.740,0.214,73.333,39195.000,1.000
13.870,13.879,14.084,13.976,13.876,14.206,13.934,14.264,-0.061,0.875,-0.541,-3.632,-1.831,0.305,73.333,39196.000,1.000
14.110,14.141,14.287,14.261,14.123,14.379,14.246,14.435,-0.062,0.874,-0.540,-3.296,-1.740,0.397,73.333,39197.000,1.000
14.904,14.900,14.939,15.034,14.903,15.029,15.018,15.071,-0.065,0.871,-0.544,-2.960,-1.648,0.519,73.333,39198.000,1.000
15.038,14.944,14.882,15.108,15.013,15.000,15.064,15.030,-0.063,0.867,-0.541,-2.655,-1.465,0.580,73.333,39199.000,1.000
13.887,13.682,13.574,13.896,13.848,13.729,13.822,13.767,-0.060,0.864,-0.542,-2.319,-1.404,0.671,73.333,39200.000,1.000
12.449,12.153,12.075,12.427,12.429,12.261,12.355,12.320,-0.060,0.863,-0.544,-2.045,-1.434,0.702,73.333,39201.000,1.000
12.223,11.892,11.901,12.211,12.260,12.094,12.191,12.167,-0.059,0.863,-0.544,-1.648,-1.434,0.671,73.333,39202.000,1.000
13.274,12.978,13.089,13.295,13.389,13.251,13.366,13.319,-0.062,0.864,-0.542,-1.251,-1.221,0.793,73.333,39203.000,1.000
14.014,13.803,13.995,14.066,14.194,14.089,14.232,14.146,-0.060,0.865,-0.542,-0.885,-1.007,0.885,73.333,39204.000,1.000
13.125,13.012,13.234,13.186,13.328,13.261,13.423,13.310,-0.059,0.867,-0.545,-0.549,-0.916,0.885,73.333,39205.000,1.000
11.073,11.055,11.231,11.123,11.263,11.235,11.392,11.265,-0.055,0.866,-0.546,-0.183,-0.732,1.007,73.333,39206.000,1.000
9.158,9.223,9.287,9.184,9.310,9.320,9.438,9.297,-0.054,0.864,-0.545,0.183,-0.641,1.068,73.333,39207.000,1.000
7.566,7.695,7.626,7.572,7.660,7.705,7.771,7.598,-0.050,0.859,-0.544,0.549,-0.244,1.099,73.333,39208.000,1.000
5.219,5.374,5.220,5.224,5.238,5.310,5.355,5.124,-0.047,0.855,-0.547,0.977,-0.092,1.221,73.333,39209.000,1.000
1.754,1.888,1.736,1.768,1.697,1.787,1.864,1.563,-0.050,0.857,-0.548,1.343,0.122,1.282,73.333,39210.000,1.000
-1.202,-1.131,-1.196,-1.205,-1.323,-1.223,-1.080,-1.435,-0.050,0.858,-0.544,1.648,0.305,1.404,73.333,39211.000,1.000
-1.661,-1.672,-1.623,-1.737,-1.838,-1.734,-1.541,-1.896,-0.051,0.860,-0.542,2.045,0.519,1.434,73.333,39212.000,1.000
0.164,0.081,0.180,-0.035,-0.067,0.030,0.216,-0.067,-0.051,0.865,-0.542,2.350,0.702,1.373,73.333,39213.000,1.000
1.801,1.677,1.707,1.472,1.524,1.597,1.713,1.561,-0.051,0.868,-0.546,2.563,0.916,1.404,73.333,39214.000,1.000
1.389,1.255,1.123,0.976,1.086,1.131,1.147,1.127,-0.052,0.869,-0.547,2.594,1.099,1.434,73.333,39215.000,1.000
-0.120,-0.243,-0.550,-0.544,-0.418,-0.386,-0.449,-0.402,-0.053,0.870,-0.546,2.747,1.312,1.404,73.333,39216.000,1.000
-0.375,-0.479,-0.887,-0.734,-0.623,-0.592,-0.669,-0.668,-0.057,0.867,-0.547,2.899,1.343,1.404,73.333,39217.000,1.000
1.403,1.300,0.933,1.161,1.257,1.273,1.244,1.101,-0.061,0.865,-0.549,3.082,1.312,1.251,73.333,39218.000,1.000
3.734,3.584,3.424,3.622,3.711,3.683,3.721,3.425,-0.065,0.866,-0.548,3.265,1.312,1.129,73.333,39219.000,1.000
5.003,4.768,4.907,4.990,5.064,4.978,5.066,4.710,-0.068,0.866,-0.548,3.326,1.221,0.885,73.333,39220.000,1.000
5.304,4.989,5.377,5.326,5.366,5.239,5.345,5.066,-0.070,0.865,-0.550,3.540,1.099,0.641,73.333,39221.000,1.000
5.609,5.262,5.736,5.598,5.592,5.462,5.574,5.461,-0.069,0.865,-0.550,3.723,0.977,0.580,73.333,39222.000,1.000
5.840,5.524,5.897,5.751,5.714,5.605,5.744,5.786,-0.066,0.864,-0.549,3.754,0.793,0.488,73.333,39223.000,1.000
4.672,4.442,4.594,4.511,4.480,4.373,4.578,4.690,-0.065,0.864,-0.551,3.845,0.671,0.336,73.333,39224.000,1.000
1.467,1.347,1.267,1.281,1.302,1.138,1.431,1.521,-0.065,0.864,-0.551,3.967,0.641,0.244,73.333,39225.000,1.000
-2.379,-2.407,-2.642,-2.537,-2.438,-2.707,-2.355,-2.337,-0.061,0.864,-0.552,3.937,0.519,0.092,73.333,39226.000,1.000
-4.775,-4.761,-5.051,-4.898,-4.720,-5.084,-4.756,-4.808,-0.058,0.864,-0.552,3.937,0.427,0.092,73.333,39227.000,1.000
-5.233,-5.242,-5.507,-5.370,-5.129,-5.526,-5.317,-5.410,-0.057,0.863,-0.556,4.211,0.427,0.061,73.333,39228.000,1.000
-5.143,-5.228,-5.426,-5.358,-5.077,-5.446,-5.394,-5.497,-0.055,0.864,-0.556,4.089,0.488,0.183,73.333,39229.000,1.000
-5.768,-5.951,-6.068,-6.080,-5.793,-6.111,-6.174,-6.254,-0.055,0.866,-0.555,4.120,0.580,0.183,73.333,39230.000,1.000
-6.681,-6.948,-6.972,-7.034,-6.782,-7.059,-7.152,-7.182,-0.055,0.867,-0.552,3.967,0.610,0.244,73.333,39231.000,1.000
-6.598,-6.914,-6.840,-6.899,-6.712,-6.957,-7.012,-6.983,-0.055,0.867,-0.554,3.967,0.671,0.397,73.333,39232.000,1.000
-5.196,-5.507,-5.366,-5.368,-5.261,-5.454,-5.445,-5.383,-0.052,0.865,-0.555,3.937,0.641,0.366,73.333,39233.000,1.000
-3.495,-3.719,-3.579,-3.499,-3.473,-3.569,-3.509,-3.472,-0.054,0.865,-0.554,3.784,0.671,0.458,73.333,39234.000,1.000
-2.436,-2.478,-2.396,-2.247,-2.305,-2.284,-2.181,-2.241,-0.057,0.864,-0.553,3.723,0.641,0.610,73.333,39235.000,1.000
-1.695,-1.498,-1.475,-1.289,-1.446,-1.337,-1.177,-1.378,-0.058,0.862,-0.554,3.571,0.732,0.610,73.333,39236.000,1.000
-0.388,0.016,0.024,0.244,-0.039,0.095,0.335,0.010,-0.057,0.861,-0.553,3.540,0.763,0.671,73.333,39237.000,1.000
1.446,1.949,1.988,2.253,1.845,1.945,2.261,1.885,-0.061,0.858,-0.552,3.387,0.763,0.732,73.333,39238.000,1.000
2.651,3.139,3.227,3.522,3.049,3.083,3.419,3.083,-0.060,0.857,-0.551,3.235,0.763,0.793,73.333,39239.000,1.000
2.502,2.915,3.038,3.294,2.854,2.833,3.105,2.863,-0.062,0.857,-0.554,3.235,0.610,0.854,73.333,39240.000,1.000
1.980,2.317,2.447,2.575,2.245,2.208,2.354,2.207,-0.061,0.858,-0.555,3.082,0.549,0.763,73.333,39241.000,1.000
2.673,2.973,3.084,3.029,2.831,2.809,2.813,2.751,-0.063,0.859,-0.552,2.991,0.519,0.793,73.333,39242.000,1.000
4.429,4.727,4.808,4.578,4.494,4.483,4.368,4.395,-0.063,0.862,-0.553,2.960,0.397,0.885,73.333,39243.000,1.000
5.003,5.296,5.355,5.014,4.998,4.981,4.795,4.907,-0.063,0.861,-0.553,2.747,0.366,0.885,73.333,39244.000,1.000
3.194,3.448,3.511,3.152,3.139,3.113,2.916,3.074,-0.063,0.861,-0.551,2.502,0.244,0.793,73.333,39245.000,1.000
1.949,2.131,2.231,1.946,1.876,1.849,1.698,1.835,-0.059,0.858,-0.556,2.411,0.183,0.763,73.333,39246.000,1.000
5.898,5.999,6.156,6.003,5.847,5.831,5.749,5.814,-0.058,0.857,-0.557,2.350,0.214,0.732,73.333,39247.000,1.000
14.628,14.669,14.866,14.845,14.621,14.621,14.588,14.571,-0.058,0.858,-0.553,2.319,0.244,0.641,73.333,39248.000,1.000
20.833,20.856,21.039,21.115,20.863,20.878,20.849,20.774,-0.054,0.858,-0.555,2.167,0.183,0.671,73.333,39249.000,1.000
17.977,18.026,18.138,18.270,18.017,18.044,17.972,17.887,-0.054,0.859,-0.556,1.892,0.183,0.641,73.333,39250.000,1.000
8.323,8.432,8.458,8.612,8.347,8.397,8.247,8.203,-0.053,0.861,-0.556,1.801,0.092,0.458,73.333,39251.000,1.000
0.156,0.347,0.310,0.467,0.152,0.257,0.023,0.049,-0.054,0.861,-0.552,1.617,0.122,0.549,73.333,39252.000,1.000
-2.166,-1.891,-1.959,-1.787,-2.180,-1.994,-2.282,-2.186,-0.054,0.863,-0.551,1.465,0.122,0.610,73.333,39253.000,1.000
-2.180,-1.857,-1.952,-1.724,-2.169,-1.917,-2.224,-2.065,-0.053,0.861,-0.553,1.160,0.214,0.488,73.333,39254.000,1.000
-4.948,-4.634,-4.794,-4.475,-4.873,-4.616,-4.936,-4.715,-0.054,0.865,-0.554,0.977,0.244,0.397,73.333,39255.000,1.000
-9.871,-9.607,-9.873,-9.481,-9.696,-9.507,-9.860,-9.577,-0.056,0.866,-0.550,0.732,0.244,0.275,73.333,39256.000,1.000
-12.265,-12.048,-12.396,-12.028,-11.971,-11.889,-12.276,-11.954,-0.059,0.867,-0.547,0.488,0.214,0.275,73.333,39257.000,1.000
-10.313,-10.121,-10.446,-10.243,-9.932,-9.936,-10.313,-10.001,-0.060,0.868,-0.552,0.183,0.244,0.153,73.333,39258.000,1.000
-7.421,-7.228,-7.411,-7.484,-7.040,-7.054,-7.355,-7.097,-0.059,0.868,-0.550,0.092,0.122,-0.061,73.333,39259.000,1.000
-7.319,-7.110,-7.105,-7.469,-7.045,-6.985,-7.158,-6.964,-0.061,0.870,-0.549,-0.214,0.122,-0.092,73.333,39260.000,1.000
-9.214,-8.997,-8.870,-9.419,-9.117,-8.943,-8.988,-8.826,-0.063,0.874,-0.552,-0.427,0.031,-0.061,73.333,39261.000,1.000
-9.460,-9.277,-9.148,-9.697,-9.535,-9.278,-9.247,-9.076,-0.062,0.877,-0.551,-0.732,-0.061,-0.244,73.333,39262.000,1.000
-6.686,-6.594,-6.546,-6.915,-6.864,-6.600,-6.560,-6.358,-0.064,0.878,-0.552,-1.038,-0.183,-0.427,73.333,39263.000,1.000
-3.323,-3.347,-3.369,-3.482,-3.518,-3.310,-3.302,-3.084,-0.067,0.880,-0.548,-1.343,-0.336,-0.488,73.333,39264.000,1.000
-2.160,-2.268,-2.277,-2.190,-2.300,-2.169,-2.196,-2.005,-0.067,0.880,-0.549,-1.648,-0.458,-0.488,73.333,39265.000,1.000
-3.069,-3.180,-3.090,-2.940,-3.119,-3.036,-3.083,-2.961,-0.068,0.882,-0.550,-2.014,-0.732,-0.519,73.333,39266.000,1.000
-3.964,-3.987,-3.784,-3.692,-3.936,-3.843,-3.893,-3.858,-0.068,0.880,-0.554,-2.319,-0.732,-0.610,73.333,39267.000,1.000
-3.754,-3.633,-3.380,-3.402,-3.692,-3.544,-3.573,-3.615,-0.067,0.883,-0.558,-2.594,-1.007,-0.671,73.333,39268.000,1.000
-3.263,-3.000,-2.790,-2.918,-3.208,-3.006,-2.978,-3.066,-0.068,0.881,-0.555,-2.747,-1.099,-0.671,73.333,39269.000,1.000
-3.693,-3.347,-3.232,-3.423,-3.664,-3.443,-3.325,-3.420,-0.067,0.881,-0.557,-2.899,-1.190,-0.641,73.333,39270.000,1.000
-5.166,-4.812,-4.780,-4.991,-5.160,-4.950,-4.735,-4.804,-0.069,0.880,-0.555,-3.052,-1.373,-0.519,73.333,39271.000,1.000
-6.934,-6.624,-6.632,-6.849,-6.945,-6.749,-6.486,-6.489,-0.070,0.876,-0.556,-3.113,-1.587,-0.427,73.333,39272.000,1.000
-8.234,-7.986,-7.996,-8.239,-8.268,-8.068,-7.849,-7.753,-0.070,0.870,-0.554,-3.113,-1.801,-0.366,73.333,39273.000,1.000
-8.672,-8.489,-8.491,-8.792,-8.752,-8.524,-8.447,-8.264,-0.070,0.863,-0.553,-3.113,-1.862,-0.214,73.333,39274.000,1.000
-8.237,-8.133,-8.131,-8.522,-8.392,-8.127,-8.238,-8.047,-0.070,0.860,-0.552,-3.113,-2.014,-0.122,73.333,39275.000,1.000
-7.319,-7.324,-7.322,-7.804,-7.565,-7.290,-7.542,-7.463,-0.071,0.858,-0.556,-3.021,-2.106,-0.061,73.333,39276.000,1.000
-6.601,-6.725,-6.726,-7.256,-6.924,-6.706,-6.964,-7.086,-0.070,0.859,-0.563,-2.838,-2.228,0.061,73.333,39277.000,1.000
-6.370,-6.573,-6.580,-7.093,-6.725,-6.623,-6.747,-7.056,-0.067,0.858,-0.565,-2.594,-2.441,0.092,73.333,39278.000,1.000
-6.136,-6.350,-6.343,-6.789,-6.467,-6.479,-6.417,-6.785,-0.065,0.859,-0.563,-2.289,-2.563,0.336,73.333,39279.000,1.000
-5.425,-5.596,-5.529,-5.891,-5.683,-5.746,-5.559,-5.814,-0.064,0.860,-0.563,-2.075,-2.625,0.336,73.333,39280.000,1.000
-4.673,-4.770,-4.620,-4.900,-4.833,-4.872,-4.680,-4.707,-0.064,0.860,-0.557,-1.862,-2.716,0.519,73.333,39281.000,1.000
-4.747,-4.757,-4.555,-4.756,-4.808,-4.787,-4.693,-4.478,-0.068,0.861,-0.558,-1.740,-2.808,0.610,73.333,39282.000,1.000
-5.404,-5.327,-5.140,-5.263,-5.366,-5.314,-5.355,-4.971,-0.071,0.861,-0.558,-1.617,-2.838,0.671,73.333,39283.000,1.000
-4.992,-4.848,-4.732,-4.779,-4.853,-4.834,-4.977,-4.539,-0.074,0.861,-0.560,-1.556,-2.991,0.641,73.333,39284.000,1.000
-2.331,-2.148,-2.125,-2.100,-2.089,-2.157,-2.338,-1.950,-0.077,0.860,-0.561,-1.373,-3.174,0.610,73.333,39285.000,1.000
1.461,1.640,1.583,1.659,1.781,1.617,1.451,1.721,-0.076,0.859,-0.562,-1.343,-3.387,0.488,73.333,39286.000,1.000
3.702,3.830,3.719,3.816,4.050,3.828,3.693,3.821,-0.074,0.860,-0.558,-1.129,-3.571,0.427,73.333,39287.000,1.000
3.171,3.226,3.080,3.170,3.498,3.281,3.164,3.160,-0.071,0.860,-0.559,-0.885,-3.784,0.305,73.333,39288.000,1.000
1.593,1.598,1.412,1.491,1.869,1.705,1.600,1.484,-0.068,0.861,-0.557,-0.824,-3.967,0.275,73.333,39289.000,1.000
1.339,1.345,1.098,1.183,1.556,1.450,1.366,1.170,-0.065,0.859,-0.558,-0.732,-3.998,0.153,73.333,39290.000,1.000
2.356,2.403,2.088,2.199,2.522,2.441,2.392,2.165,-0.062,0.861,-0.559,-0.732,-3.998,0.031,73.333,39291.000,1.000
2.382,2.472,2.107,2.257,2.503,2.409,2.404,2.197,-0.062,0.863,-0.557,-0.732,-3.845,-0.031,73.333,39292.000,1.000
0.151,0.264,-0.119,0.071,0.239,0.112,0.156,-0.010,-0.060,0.864,-0.558,-0.671,-3.815,-0.122,73.333,39293.000,1.000
-2.880,-2.765,-3.127,-2.915,-2.803,-2.966,-2.875,-3.006,-0.058,0.865,-0.558,-0.763,-3.845,-0.061,73.333,39294.000,1.000
-4.576,-4.469,-4.779,-4.571,-4.498,-4.681,-4.552,-4.659,-0.058,0.867,-0.556,-0.885,-3.815,0.000,73.333,39295.000,1.000
-4.848,-4.761,-4.999,-4.817,-4.788,-4.957,-4.807,-4.886,-0.057,0.869,-0.557,-1.129,-3.540,-0.122,73.333,39296.000,1.000
-5.422,-5.385,-5.523,-5.402,-5.421,-5.534,-5.393,-5.426,-0.057,0.870,-0.553,-1.251,-3.418,0.000,73.333,39297.000,1.000
-7.139,-7.201,-7.199,-7.191,-7.241,-7.269,-7.180,-7.139,-0.057,0.870,-0.555,-1.373,-3.326,0.000,73.333,39298.000,1.000
-8.748,-8.957,-8.802,-8.923,-8.988,-8.928,-8.927,-8.793,-0.058,0.870,-0.551,-1.495,-2.991,0.031,73.333,39299.000,1.000
-8.786,-9.149,-8.895,-9.093,-9.181,-9.053,-9.138,-8.926,-0.059,0.873,-0.557,-1.678,-2.747,-0.031,73.333,39300.000,1.000
-7.648,-8.106,-7.858,-8.038,-8.172,-8.025,-8.131,-7.892,-0.058,0.872,-0.558,-1.923,-2.655,0.000,73.333,39301.000,1.000
-7.036,-7.489,-7.334,-7.429,-7.610,-7.513,-7.524,-7.333,-0.059,0.870,-0.558,-1.984,-2.502,0.000,73.333,39302.000,1.000
-7.635,-7.990,-7.964,-7.957,-8.152,-8.162,-7.974,-7.906,-0.059,0.869,-0.557,-2.106,-2.319,0.031,73.333,39303.000,1.000
-8.350,-8.573,-8.668,-8.567,-8.731,-8.860,-8.453,-8.545,-0.057,0.866,-0.558,-2.136,-2.228,0.092,73.333,39304.000,1.000
-8.054,-8.167,-8.357,-8.163,-8.286,-8.495,-7.942,-8.176,-0.056,0.864,-0.555,-2.228,-1.984,0.214,73.333,39305.000,1.000
-7.151,-7.217,-7.455,-7.167,-7.292,-7.521,-6.930,-7.242,-0.057,0.861,-0.558,-2.197,-1.678,0.183,73.333,39306.000,1.000
-6.871,-6.966,-7.182,-6.809,-7.008,-7.213,-6.662,-6.992,-0.057,0.860,-0.557,-2.167,-1.587,0.153,73.333,39307.000,1.000
-7.303,-7.485,-7.607,-7.179,-7.491,-7.661,-7.199,-7.503,-0.058,0.860,-0.561,-2.197,-1.404,0.244,73.333,39308.000,1.000
-7.074,-7.351,-7.352,-6.918,-7.295,-7.448,-7.118,-7.348,-0.060,0.860,-0.560,-2.106,-1.221,0.305,73.333,39309.000,1.000
-5.144,-5.483,-5.386,-5.006,-5.326,-5.498,-5.332,-5.427,-0.061,0.856,-0.554,-2.014,-1.099,0.397,73.333,39310.000,1.000
-2.026,-2.388,-2.245,-1.966,-2.106,-2.324,-2.321,-2.245,-0.060,0.857,-0.553,-1.953,-0.885,0.397,73.333,39311.000,1.000
1.103,0.742,0.878,1.047,1.129,0.872,0.750,0.967,-0.058,0.855,-0.555,-1.801,-0.763,0.519,73.333,39312.000,1.000
3.923,3.582,3.671,3.761,4.014,3.744,3.563,3.823,-0.058,0.853,-0.552,-1.770,-0.580,0.641,73.333,39313.000,1.000
6.800,6.503,6.516,6.592,6.907,6.639,6.482,6.664,-0.059,0.852,-0.552,-1.617,-0.427,0.610,73.333,39314.000,1.000
9.385,9.154,9.076,9.213,9.483,9.210,9.149,9.175,-0.057,0.851,-0.558,-1.648,-0.275,0.702,73.333,39315.000,1.000
10.442,10.285,10.125,10.369,10.537,10.253,10.308,10.181,-0.059,0.849,-0.556,-1.373,-0.153,0.763,73.333,39316.000,1.000
9.280,9.192,8.981,9.325,9.394,9.112,9.246,9.031,-0.061,0.847,-0.556,-1.190,-0.031,0.854,73.333,39317.000,1.000
7.002,6.964,6.744,7.137,7.142,6.894,7.044,6.821,-0.060,0.849,-0.559,-1.099,0.000,0.885,73.333,39318.000,1.000
5.792,5.785,5.591,5.954,5.939,5.754,5.872,5.689,-0.062,0.848,-0.560,-0.885,0.153,0.885,73.333,39319.000,1.000
6.757,6.779,6.620,6.884,6.886,6.759,6.834,6.701,-0.063,0.850,-0.559,-0.763,0.244,0.824,73.333,39320.000,1.000
8.833,8.900,8.750,8.890,8.925,8.827,8.872,8.780,-0.063,0.850,-0.555,-0.732,0.427,0.793,73.333,39321.000,1.000
10.017,10.129,9.949,10.001,10.054,9.960,9.995,9.940,-0.063,0.852,-0.555,-0.641,0.397,0.763,73.333,39322.000,1.000
9.588,9.713,9.484,9.514,9.555,9.471,9.508,9.489,-0.062,0.855,-0.558,-0.580,0.458,0.641,73.333,39323.000,1.000
8.611,8.701,8.453,8.503,8.516,8.459,8.515,8.518,-0.063,0.855,-0.554,-0.458,0.488,0.580,73.333,39324.000,1.000
8.212,8.221,8.037,8.105,8.104,8.056,8.165,8.153,-0.061,0.857,-0.552,-0.610,0.549,0.610,73.333,39325.000,1.000
8.151,8.045,8.016,8.074,8.097,8.008,8.184,8.123,-0.062,0.857,-0.551,-0.610,0.580,0.427,73.333,39326.000,1.000
7.466,7.257,7.413,7.439,7.518,7.360,7.555,7.440,-0.062,0.859,-0.553,-0.671,0.641,0.366,73.333,39327.000,1.000
6.186,5.951,6.231,6.218,6.355,6.161,6.285,6.147,-0.061,0.855,-0.554,-0.763,0.671,0.336,73.333,39328.000,1.000
5.538,5.369,5.653,5.615,5.770,5.632,5.620,5.494,-0.063,0.855,-0.554,-0.732,0.641,0.244,73.333,39329.000,1.000
6.244,6.176,6.350,6.314,6.437,6.457,6.304,6.194,-0.063,0.856,-0.553,-0.854,0.732,0.214,73.333,39330.000,1.000
7.341,7.331,7.345,7.334,7.404,7.621,7.368,7.252,-0.062,0.854,-0.553,-0.824,0.763,0.061,73.333,39331.000,1.000
7.094,7.080,6.956,6.973,7.009,7.365,7.066,6.923,-0.064,0.855,-0.557,-0.641,0.854,0.000,73.333,39332.000,1.000
4.998,4.951,4.766,4.789,4.821,5.201,4.908,4.724,-0.062,0.855,-0.554,-0.580,0.793,-0.122,73.333,39333.000,1.000
2.241,2.179,2.022,2.016,2.061,2.369,2.120,1.884,-0.064,0.855,-0.556,-0.641,0.854,-0.214,73.333,39334.000,1.000
0.101,0.064,-0.009,-0.082,-0.016,0.189,-0.002,-0.291,-0.064,0.854,-0.556,-0.671,0.916,-0.275,73.333,39335.000,1.000
-1.361,-1.342,-1.319,-1.483,-1.389,-1.261,-1.411,-1.726,-0.065,0.855,-0.558,-0.488,0.916,-0.366,73.333,39336.000,1.000
-2.775,-2.692,-2.600,-2.853,-2.716,-2.637,-2.767,-3.050,-0.064,0.854,-0.562,-0.458,0.824,-0.427,73.333,39337.000,1.000
-4.122,-3.999,-3.883,-4.189,-3.996,-3.972,-4.084,-4.261,-0.065,0.854,-0.561,-0.397,0.916,-0.458,73.333,39338.000,1.000
-4.639,-4.536,-4.433,-4.729,-4.488,-4.544,-4.627,-4.637,-0.066,0.854,-0.560,-0.366,0.793,-0.519,73.333,39339.000,1.000
-4.125,-4.099,-4.027,-4.240,-3.996,-4.136,-4.196,-4.016,-0.065,0.854,-0.558,-0.275,0.946,-0.549,73.333,39340.000,1.000
-3.614,-3.655,-3.619,-3.710,-3.509,-3.706,-3.772,-3.435,-0.067,0.854,-0.555,-0.397,0.885,-0.610,73.333,39341.000,1.000
-4.396,-4.420,-4.417,-4.402,-4.258,-4.475,-4.579,-4.167,-0.069,0.855,-0.558,-0.488,1.007,-0.580,73.333,39342.000,1.000
-6.461,-6.369,-6.387,-6.322,-6.222,-6.417,-6.581,-6.194,-0.069,0.858,-0.558,-0.488,0.946,-0.610,73.333,39343.000,1.000
-8.402,-8.152,-8.158,-8.107,-8.037,-8.171,-8.392,-8.117,-0.067,0.857,-0.557,-0.427,0.793,-0.610,73.333,39344.000,1.000
-9.018,-8.666,-8.601,-8.607,-8.568,-8.617,-8.864,-8.743,-0.069,0.858,-0.558,-0.427,0.793,-0.519,73.333,39345.000,1.000
-8.483,-8.150,-7.952,-8.035,-8.034,-8.003,-8.223,-8.234,-0.069,0.859,-0.559,-0.305,0.824,-0.610,73.333,39346.000,1.000
-7.781,-7.578,-7.235,-7.386,-7.422,-7.333,-7.489,-7.553,-0.069,0.861,-0.561,-0.214,0.732,-0.549,73.333,39347.000,1.000
-7.354,-7.314,-6.896,-7.068,-7.129,-7.005,-7.103,-7.125,-0.067,0.863,-0.554,-0.214,0.641,-0.580,73.333,39348.000,1.000
-6.832,-6.883,-6.516,-6.634,-6.711,-6.564,-6.643,-6.567,-0.069,0.863,-0.553,-0.214,0.671,-0.458,73.333,39349.000,1.000
-5.987,-5.999,-5.784,-5.796,-5.893,-5.721,-5.808,-5.649,-0.069,0.865,-0.555,-0.214,0.641,-0.397,73.333,39350.000,1.000
-5.284,-5.157,-5.105,-5.021,-5.159,-4.945,-5.033,-4.865,-0.068,0.865,-0.556,-0.336,0.641,-0.336,73.333,39351.000,1.000
-5.322,-5.062,-5.093,-4.977,-5.175,-4.911,-4.965,-4.870,-0.069,0.867,-0.558,-0.366,0.580,-0.244,73.333,39352.000,1.000
-5.971,-5.669,-5.670,-5.588,-5.855,-5.552,-5.544,-5.556,-0.069,0.866,-0.556,-0.427,0.519,-0.153,73.333,39353.000,1.000
-6.421,-6.177,-6.068,-6.045,-6.377,-6.059,-6.004,-6.081,-0.071,0.863,-0.558,-0.397,0.397,-0.153,73.333,39354.000,1.000
-6.191,-6.044,-5.811,-5.824,-6.212,-5.895,-5.844,-5.893,-0.072,0.864,-0.559,-0.427,0.397,-0.122,73.333,39355.000,1.000
-5.677,-5.603,-5.297,-5.304,-5.727,-5.403,-5.400,-5.356,-0.073,0.863,-0.556,-0.305,0.366,-0.031,73.333,39356.000,1.000
-5.625,-5.585,-5.286,-5.251,-5.672,-5.326,-5.377,-5.250,-0.071,0.865,-0.557,-0.214,0.275,0.122,73.333,39357.000,1.000
-6.150,-6.130,-5.891,-5.813,-6.183,-5.823,-5.897,-5.747,-0.073,0.863,-0.557,-0.153,0.214,0.244,73.333,39358.000,1.000
-6.573,-6.587,-6.409,-6.328,-6.601,-6.268,-6.335,-6.206,-0.073,0.862,-0.557,-0.183,0.031,0.305,73.333,39359.000,1.000
-6.323,-6.390,-6.245,-6.208,-6.372,-6.107,-6.153,-6.057,-0.072,0.863,-0.557,-0.092,0.000,0.397,73.333,39360.000,1.000
-5.566,-5.687,-5.555,-5.576,-5.669,-5.475,-5.495,-5.447,-0.071,0.866,-0.560,-0.214,-0.092,0.519,73.333,39361.000,1.000
-4.866,-5.034,-4.906,-4.965,-5.047,-4.897,-4.894,-4.912,-0.070,0.869,-0.559,-0.214,-0.244,0.488,73.333,39362.000,1.000
-4.384,-4.589,-4.468,-4.529,-4.641,-4.507,-4.503,-4.583,-0.068,0.868,-0.559,-0.305,-0.275,0.519,73.333,39363.000,1.000
-3.680,-3.915,-3.819,-3.859,-4.009,-3.869,-3.894,-4.008,-0.071,0.869,-0.558,-0.366,-0.397,0.488,73.333,39364.000,1.000
-2.408,-2.658,-2.608,-2.633,-2.805,-2.650,-2.723,-2.845,-0.072,0.868,-0.555,-0.366,-0.427,0.641,73.333,39365.000,1.000
-0.807,-1.060,-1.046,-1.102,-1.259,-1.096,-1.211,-1.338,-0.072,0.869,-0.555,-0.427,-0.458,0.671,73.333,39366.000,1.000
0.536,0.290,0.322,0.174,0.084,0.233,0.090,-0.054,-0.071,0.869,-0.557,-0.519,-0.580,0.610,73.333,39367.000,1.000
1.357,1.136,1.241,0.971,0.983,1.091,0.937,0.782,-0.072,0.870,-0.556,-0.641,-0.732,0.671,73.333,39368.000,1.000
1.929,1.756,1.949,1.585,1.698,1.741,1.592,1.463,-0.069,0.869,-0.552,-0.824,-0.732,0.793,73.333,39369.000,1.000
2.568,2.449,2.697,2.307,2.499,2.462,2.334,2.277,-0.069,0.868,-0.553,-0.977,-0.824,0.854,73.333,39370.000,1.000
3.213,3.133,3.369,3.021,3.279,3.163,3.057,3.105,-0.068,0.868,-0.556,-1.251,-0.885,0.854,73.333,39371.000,1.000
3.543,3.473,3.621,3.360,3.667,3.499,3.408,3.561,-0.069,0.867,-0.553,-1.373,-1.007,0.885,73.333,39372.000,1.000
3.506,3.411,3.426,3.268,3.581,3.403,3.335,3.551,-0.069,0.868,-0.553,-1.465,-1.068,0.793,73.333,39373.000,1.000
3.531,3.372,3.273,3.201,3.467,3.304,3.294,3.494,-0.069,0.868,-0.552,-1.526,-0.977,0.885,73.333,39374.000,1.000
4.005,3.761,3.622,3.594,3.788,3.635,3.722,3.823,-0.070,0.868,-0.554,-1.678,-1.038,0.916,73.333,39375.000,1.000
4.837,4.522,4.417,4.399,4.528,4.379,4.564,4.520,-0.070,0.868,-0.554,-1.801,-1.190,0.916,73.333,39376.000,1.000
5.549,5.218,5.168,5.164,5.250,5.111,5.367,5.175,-0.070,0.868,-0.551,-1.831,-1.099,0.885,73.333,39377.000,1.000
5.766,5.497,5.467,5.506,5.569,5.463,5.749,5.436,-0.071,0.869,-0.552,-1.892,-1.282,0.824,73.333,39378.000,1.000
5.421,5.289,5.226,5.304,5.380,5.325,5.593,5.206,-0.072,0.868,-0.548,-2.136,-1.373,0.702,73.333,39379.000,1.000
4.584,4.620,4.494,4.554,4.696,4.684,4.885,4.491,-0.068,0.869,-0.546,-2.380,-1.434,0.763,73.333,39380.000,1.000
3.615,3.809,3.625,3.601,3.833,3.828,3.942,3.619,-0.067,0.867,-0.548,-2.533,-1.556,0.793,73.333,39381.000,1.000
3.339,3.655,3.452,3.323,3.602,3.556,3.616,3.423,-0.066,0.867,-0.548,-2.594,-1.556,0.702,73.333,39382.000,1.000
4.481,4.869,4.711,4.498,4.734,4.632,4.698,4.655,-0.066,0.868,-0.549,-2.594,-1.648,0.732,73.333,39383.000,1.000
6.754,7.148,7.094,6.829,6.947,6.825,6.946,7.026,-0.064,0.867,-0.550,-2.625,-1.617,0.732,73.333,39384.000,1.000
8.807,9.135,9.195,8.914,8.896,8.805,9.001,9.146,-0.062,0.864,-0.548,-2.716,-1.617,0.702,73.333,39385.000,1.000
9.430,9.647,9.757,9.512,9.385,9.360,9.606,9.769,-0.064,0.866,-0.546,-2.594,-1.678,0.671,73.333,39386.000,1.000
8.615,8.715,8.789,8.621,8.446,8.497,8.720,8.886,-0.061,0.867,-0.548,-2.686,-1.526,0.702,73.333,39387.000,1.000
7.360,7.378,7.374,7.267,7.138,7.253,7.366,7.533,-0.060,0.866,-0.547,-2.594,-1.526,0.702,73.333,39388.000,1.000
6.567,6.554,6.488,6.383,6.389,6.542,6.495,6.650,-0.060,0.866,-0.546,-2.716,-1.465,0.641,73.333,39389.000,1.000
6.261,6.266,6.177,6.015,6.203,6.353,6.155,6.288,-0.061,0.865,-0.547,-2.686,-1.373,0.732,73.333,39390.000,1.000
5.989,6.051,5.960,5.716,6.074,6.176,5.884,6.004,-0.062,0.865,-0.546,-2.594,-1.312,0.671,73.333,39391.000,1.000
5.542,5.681,5.594,5.278,5.740,5.755,5.460,5.590,-0.062,0.864,-0.548,-2.594,-1.282,0.702,73.333,39392.000,1.000
5.149,5.363,5.285,4.930,5.384,5.310,5.102,5.253,-0.064,0.864,-0.550,-2.472,-1.190,0.641,73.333,39393.000,1.000
5.099,5.374,5.305,4.964,5.305,5.164,5.093,5.254,-0.064,0.863,-0.548,-2.472,-1.221,0.671,73.333,39394.000,1.000
5.299,5.624,5.548,5.275,5.470,5.279,5.337,5.487,-0.062,0.861,-0.545,-2.380,-1.221,0.702,73.333,39395.000,1.000
5.337,5.706,5.601,5.432,5.519,5.282,5.432,5.548,-0.063,0.861,-0.548,-2.228,-1.190,0.610,73.333,39396.000,1.000
4.856,5.245,5.098,5.054,5.092,4.814,5.016,5.081,-0.065,0.860,-0.547,-2.075,-1.160,0.427,73.333,39397.000,1.000
3.903,4.255,4.076,4.164,4.189,3.892,4.108,4.115,-0.067,0.862,-0.548,-1.892,-1.251,0.458,73.333,39398.000,1.000
2.926,3.168,2.991,3.208,3.209,2.926,3.123,3.094,-0.067,0.861,-0.548,-1.892,-1.221,0.366,73.333,39399.000,1.000
2.267,2.356,2.220,2.554,2.480,2.251,2.397,2.391,-0.067,0.858,-0.550,-1.801,-1.221,0.275,73.333,39400.000,1.000
1.817,1.765,1.690,2.111,1.917,1.782,1.846,1.934,-0.067,0.860,-0.550,-1.678,-1.251,0.153,73.333,39401.000,1.000
1.226,1.088,1.057,1.513,1.207,1.184,1.147,1.371,-0.067,0.858,-0.550,-1.617,-1.282,0.061,73.333,39402.000,1.000
0.453,0.280,0.262,0.684,0.329,0.397,0.279,0.630,-0.068,0.859,-0.549,-1.373,-1.312,0.031,73.333,39403.000,1.000
-0.042,-0.224,-0.250,0.081,-0.246,-0.129,-0.277,0.146,-0.066,0.858,-0.550,-1.312,-1.282,-0.031,73.333,39404.000,1.000
0.173,-0.014,-0.050,0.172,-0.077,0.054,-0.068,0.343,-0.064,0.857,-0.548,-1.160,-1.160,0.000,73.333,39405.000,1.000
0.935,0.737,0.711,0.845,0.677,0.802,0.747,1.065,-0.064,0.859,-0.547,-0.854,-1.129,-0.031,73.333,39406.000,1.000
1.512,1.301,1.312,1.392,1.274,1.376,1.408,1.589,-0.063,0.858,-0.548,-0.732,-1.038,0.153,73.333,39407.000,1.000
1.341,1.115,1.186,1.234,1.133,1.188,1.302,1.350,-0.062,0.858,-0.547,-0.549,-0.946,0.122,73.333,39408.000,1.000
0.619,0.388,0.522,0.536,0.448,0.432,0.607,0.550,-0.059,0.859,-0.549,-0.427,-0.885,0.183,73.333,39409.000,1.000
-0.114,-0.334,-0.144,-0.184,-0.236,-0.333,-0.123,-0.256,-0.061,0.859,-0.551,-0.366,-0.793,0.244,73.333,39410.000,1.000
-0.730,-0.913,-0.691,-0.796,-0.790,-0.951,-0.732,-0.916,-0.061,0.861,-0.549,-0.366,-0.702,0.275,73.333,39411.000,1.000
-1.600,-1.715,-1.509,-1.651,-1.581,-1.772,-1.582,-1.784,-0.061,0.861,-0.549,-0.244,-0.488,0.244,73.333,39412.000,1.000
-2.842,-2.859,-2.743,-2.853,-2.735,-2.928,-2.803,-2.978,-0.063,0.861,-0.547,-0.183,-0.488,0.366,73.333,39413.000,1.000
-3.766,-3.687,-3.721,-3.712,-3.586,-3.773,-3.708,-3.831,-0.062,0.861,-0.547,-0.061,-0.427,0.305,73.333,39414.000,1.000
-3.510,-3.388,-3.572,-3.389,-3.302,-3.489,-3.433,-3.516,-0.063,0.863,-0.547,-0.122,-0.275,0.427,73.333,39415.000,1.000
-2.245,-2.154,-2.415,-2.082,-2.065,-2.243,-2.147,-2.219,-0.066,0.865,-0.548,-0.092,-0.183,0.427,73.333,39416.000,1.000
-1.452,-1.447,-1.669,-1.300,-1.352,-1.488,-1.339,-1.415,-0.065,0.867,-0.549,-0.061,-0.214,0.366,73.333,39417.000,1.000
-2.456,-2.539,-2.635,-2.371,-2.462,-2.529,-2.345,-2.420,-0.065,0.867,-0.547,-0.153,-0.122,0.244,73.333,39418.000,1.000
-4.743,-4.870,-4.836,-4.745,-4.833,-4.849,-4.650,-4.722,-0.065,0.868,-0.550,-0.244,-0.031,0.275,73.333,39419.000,1.000
-6.449,-6.548,-6.462,-6.500,-6.562,-6.575,-6.374,-6.463,-0.064,0.868,-0.547,-0.366,0.000,0.397,73.333,39420.000,1.000
-6.485,-6.488,-6.450,-6.508,-6.562,-6.610,-6.418,-6.540,-0.063,0.865,-0.550,-0.427,0.061,0.275,73.333,39421.000,1.000
-5.648,-5.510,-5.592,-5.561,-5.659,-5.751,-5.573,-5.717,-0.062,0.860,-0.548,-0.488,0.183,0.305,73.333,39422.000,1.000
-5.339,-5.048,-5.265,-5.089,-5.281,-5.404,-5.247,-5.373,-0.061,0.857,-0.550,-0.397,0.183,0.336,73.333,39423.000,1.000
-5.753,-5.337,-5.649,-5.345,-5.646,-5.777,-5.657,-5.715,-0.060,0.856,-0.554,-0.336,0.305,0.366,73.333,39424.000,1.000
-5.904,-5.435,-5.774,-5.413,-5.784,-5.909,-5.846,-5.794,-0.061,0.857,-0.553,-0.366,0.427,0.458,73.333,39425.000,1.000
-4.885,-4.468,-4.768,-4.416,-4.789,-4.914,-4.908,-4.740,-0.061,0.858,-0.552,-0.244,0.519,0.427,73.333,39426.000,1.000
-2.666,-2.398,-2.614,-2.292,-2.621,-2.756,-2.781,-2.541,-0.059,0.862,-0.552,-0.336,0.519,0.488,73.333,39427.000,1.000
0.102,0.191,0.074,0.372,0.083,-0.040,-0.076,0.166,-0.060,0.865,-0.547,-0.214,0.610,0.488,73.333,39428.000,1.000
2.605,2.578,2.531,2.810,2.525,2.473,2.422,2.612,-0.062,0.872,-0.550,-0.214,0.763,0.549,73.333,39429.000,1.000
4.135,4.102,4.073,4.320,4.009,4.088,4.003,4.121,-0.065,0.874,-0.553,-0.427,0.671,0.549,73.333,39430.000,1.000
4.380,4.421,4.367,4.562,4.232,4.455,4.320,4.376,-0.070,0.875,-0.550,-0.549,0.641,0.549,73.333,39431.000,1.000
3.613,3.726,3.641,3.757,3.465,3.783,3.597,3.608,-0.074,0.874,-0.552,-0.519,0.458,0.488,73.333,39432.000,1.000
2.518,2.629,2.539,2.559,2.374,2.707,2.482,2.469,-0.077,0.869,-0.553,-0.610,0.275,0.305,73.333,39433.000,1.000
1.768,1.799,1.740,1.670,1.623,1.907,1.655,1.655,-0.081,0.870,-0.553,-0.641,0.092,0.214,73.333,39434.000,1.000
1.679,1.594,1.617,1.462,1.523,1.739,1.473,1.526,-0.084,0.869,-0.551,-0.580,-0.153,0.092,73.333,39435.000,1.000
2.262,2.056,2.218,1.985,2.076,2.246,1.983,2.103,-0.083,0.869,-0.552,-0.488,-0.427,-0.092,73.333,39436.000,1.000
3.365,3.031,3.365,3.083,3.125,3.276,3.047,3.207,-0.083,0.867,-0.552,-0.580,-0.824,-0.031,73.333,39437.000,1.000
4.744,4.280,4.748,4.481,4.445,4.590,4.423,4.562,-0.081,0.867,-0.554,-0.519,-1.038,-0.153,73.333,39438.000,1.000
6.108,5.566,6.061,5.873,5.797,5.931,5.826,5.884,-0.077,0.868,-0.553,-0.427,-1.251,-0.183,73.333,39439.000,1.000
7.081,6.568,6.966,6.889,6.831,6.948,6.881,6.823,-0.075,0.868,-0.552,-0.458,-1.465,-0.183,73.333,39440.000,1.000
7.280,6.917,7.127,7.160,7.146,7.249,7.200,7.023,-0.075,0.870,-0.556,-0.427,-1.678,-0.305,73.333,39441.000,1.000
6.479,6.327,6.324,6.438,6.463,6.570,6.536,6.267,-0.075,0.870,-0.558,-0.427,-1.740,-0.336,73.333,39442.000,1.000
4.800,4.829,4.652,4.798,4.861,4.992,4.971,4.657,-0.073,0.871,-0.558,-0.549,-1.862,-0.305,73.333,39443.000,1.000
2.790,2.887,2.627,2.752,2.867,3.028,2.998,2.700,-0.073,0.873,-0.559,-0.458,-1.984,-0.183,73.333,39444.000,1.000
1.002,1.036,0.787,0.856,1.035,1.217,1.130,0.919,-0.072,0.877,-0.559,-0.549,-1.984,-0.031,73.333,39445.000,1.000
-0.468,-0.574,-0.757,-0.743,-0.519,-0.333,-0.520,-0.588,-0.072,0.877,-0.558,-0.580,-2.167,0.061,73.333,39446.000,1.000
-1.980,-2.213,-2.331,-2.340,-2.121,-1.958,-2.233,-2.150,-0.072,0.875,-0.558,-0.549,-2.289,0.092,73.333,39447.000,1.000
-3.777,-4.060,-4.153,-4.141,-3.984,-3.867,-4.153,-3.965,-0.070,0.873,-0.558,-0.488,-2.228,0.275,73.333,39448.000,1.000
-5.481,-5.732,-5.842,-5.770,-5.719,-5.634,-5.846,-5.632,-0.068,0.868,-0.557,-0.519,-2.319,0.427,73.333,39449.000,1.000
-6.475,-6.653,-6.793,-6.652,-6.717,-6.620,-6.718,-6.554,-0.072,0.865,-0.558,-0.458,-2.411,0.488,73.333,39450.000,1.000
-6.699,-6.796,-6.943,-6.759,-6.902,-6.770,-6.767,-6.707,-0.069,0.863,-0.561,-0.366,-2.350,0.641,73.333,39451.000,1.000
-6.751,-6.770,-6.878,-6.699,-6.846,-6.716,-6.633,-6.713,-0.070,0.861,-0.560,-0.214,-2.228,0.610,73.333,39452.000,1.000
-7.044,-6.993,-7.025,-6.887,-6.975,-6.910,-6.752,-6.987,-0.068,0.859,-0.560,-0.122,-2.228,0.763,73.333,39453.000,1.000
-7.117,-7.022,-6.969,-6.871,-6.886,-6.925,-6.687,-7.057,-0.068,0.857,-0.562,0.153,-2.197,0.916,73.333,39454.000,1.000
-6.273,-6.176,-6.064,-5.973,-5.949,-6.074,-5.777,-6.207,-0.067,0.854,-0.561,0.336,-2.136,0.946,73.333,39455.000,1.000
-4.717,-4.648,-4.526,-4.406,-4.389,-4.542,-4.244,-4.615,-0.067,0.853,-0.563,0.519,-2.106,0.946,73.333,39456.000,1.000
-3.580,-3.535,-3.444,-3.295,-3.307,-3.423,-3.202,-3.409,-0.065,0.850,-0.562,0.732,-1.953,0.946,73.333,39457.000,1.000
-3.524,-3.477,-3.426,-3.290,-3.323,-3.366,-3.262,-3.281,-0.063,0.847,-0.562,0.854,-1.862,0.946,73.333,39458.000,1.000
-3.702,-3.630,-3.591,-3.526,-3.566,-3.532,-3.515,-3.420,-0.060,0.846,-0.569,1.129,-1.740,1.038,73.333,39459.000,1.000
-2.738,-2.634,-2.564,-2.605,-2.640,-2.561,-2.554,-2.470,-0.057,0.844,-0.570,1.495,-1.617,1.099,73.333,39460.000,1.000
-0.458,-0.344,-0.205,-0.358,-0.362,-0.297,-0.234,-0.268,-0.056,0.842,-0.571,1.831,-1.282,1.099,73.333,39461.000,1.000
1.861,1.942,2.160,1.913,1.988,1.978,2.105,1.929,-0.055,0.843,-0.571,2.045,-1.007,1.068,73.333,39462.000,1.000
3.037,3.065,3.324,3.024,3.220,3.106,3.244,2.997,-0.054,0.842,-0.568,2.350,-0.854,1.099,73.333,39463.000,1.000
3.374,3.386,3.604,3.303,3.631,3.434,3.497,3.306,-0.052,0.840,-0.563,2.625,-0.458,1.099,73.333,39464.000,1.000
4.012,4.088,4.168,3.913,4.347,4.115,4.043,4.022,-0.052,0.840,-0.562,2.686,-0.183,1.038,73.333,39465.000,1.000
5.276,5.483,5.368,5.189,5.661,5.447,5.237,5.435,-0.050,0.843,-0.560,2.716,0.061,0.977,73.333,39466.000,1.000
6.268,6.601,6.315,6.224,6.639,6.485,6.173,6.569,-0.053,0.844,-0.558,2.747,0.305,0.946,73.333,39467.000,1.000
6.131,6.511,6.151,6.150,6.423,6.346,5.975,6.492,-0.052,0.844,-0.555,2.625,0.580,0.916,73.333,39468.000,1.000
5.197,5.504,5.194,5.265,5.372,5.354,4.963,5.492,-0.051,0.847,-0.556,2.533,0.854,0.916,73.333,39469.000,1.000
4.494,4.631,4.455,4.551,4.545,4.551,4.176,4.606,-0.051,0.853,-0.555,2.380,1.160,0.854,73.333,39470.000,1.000
4.617,4.556,4.516,4.581,4.558,4.575,4.238,4.488,-0.056,0.854,-0.555,2.197,1.373,0.671,73.333,39471.000,1.000
5.303,5.112,5.134,5.140,5.174,5.222,4.927,4.981,-0.057,0.857,-0.554,1.923,1.465,0.549,73.333,39472.000,1.000
5.910,5.723,5.710,5.679,5.774,5.876,5.628,5.544,-0.057,0.860,-0.551,1.465,1.648,0.336,73.333,39473.000,1.000
6.032,5.975,5.876,5.846,5.949,6.104,5.920,5.788,-0.057,0.866,-0.550,1.038,1.770,0.305,73.333,39474.000,1.000
5.598,5.715,5.558,5.544,5.609,5.792,5.670,5.557,-0.058,0.866,-0.546,0.610,1.923,0.214,73.333,39475.000,1.000
4.792,5.037,4.892,4.872,4.903,5.084,4.985,4.905,-0.058,0.870,-0.549,0.061,2.014,0.061,73.333,39476.000,1.000
3.879,4.169,4.090,4.027,4.066,4.226,4.101,4.018,-0.059,0.872,-0.546,-0.488,2.167,-0.061,73.333,39477.000,1.000
2.954,3.221,3.220,3.084,3.176,3.296,3.152,2.996,-0.061,0.874,-0.544,-1.007,2.197,0.000,73.333,39478.000,1.000
1.910,2.102,2.160,1.957,2.108,2.165,2.069,1.796,-0.061,0.874,-0.547,-1.587,2.258,-0.031,73.333,39479.000,1.000
0.658,0.739,0.812,0.603,0.766,0.748,0.774,0.404,-0.062,0.875,-0.546,-2.106,2.289,-0.214,73.333,39480.000,1.000
-0.528,-0.577,-0.529,-0.657,-0.564,-0.627,-0.470,-0.852,-0.060,0.878,-0.545,-2.502,2.350,-0.244,73.333,39481.000,1.000
-1.144,-1.307,-1.287,-1.280,-1.325,-1.369,-1.147,-1.435,-0.062,0.881,-0.543,-3.052,2.197,-0.275,73.333,39482.000,1.000
-1.069,-1.292,-1.266,-1.139,-1.331,-1.299,-1.115,-1.236,-0.062,0.882,-0.546,-3.510,2.228,-0.183,73.333,39483.000,1.000
-0.856,-1.054,-0.988,-0.802,-1.084,-0.982,-0.907,-0.846,-0.063,0.882,-0.544,-3.967,2.197,-0.183,73.333,39484.000,1.000
-1.194,-1.289,-1.176,-1.003,-1.285,-1.177,-1.205,-1.006,-0.063,0.882,-0.545,-4.517,2.197,-0.244,73.333,39485.000,1.000
-2.051,-2.012,-1.869,-1.771,-1.973,-1.926,-1.991,-1.725,-0.064,0.883,-0.543,-4.974,2.167,-0.061,73.333,39486.000,1.000
-2.718,-2.572,-2.420,-2.439,-2.512,-2.551,-2.583,-2.319,-0.066,0.885,-0.547,-5.402,2.014,0.031,73.333,39487.000,1.000
-2.742,-2.547,-2.398,-2.540,-2.477,-2.583,-2.552,-2.337,-0.069,0.883,-0.547,-5.646,1.801,0.000,73.333,39488.000,1.000
-2.447,-2.244,-2.104,-2.327,-2.171,-2.308,-2.211,-2.069,-0.072,0.879,-0.547,-6.042,1.709,0.061,73.333,39489.000,1.000
-2.470,-2.249,-2.133,-2.358,-2.206,-2.334,-2.167,-2.106,-0.073,0.876,-0.547,-6.073,1.526,0.214,73.333,39490.000,1.000
-2.881,-2.589,-2.536,-2.682,-2.641,-2.736,-2.480,-2.502,-0.072,0.873,-0.552,-6.195,1.251,0.214,73.333,39491.000,1.000
-3.078,-2.687,-2.749,-2.760,-2.882,-2.946,-2.605,-2.691,-0.072,0.869,-0.553,-6.287,1.068,0.427,73.333,39492.000,1.000
-2.569,-2.124,-2.327,-2.192,-2.444,-2.492,-2.120,-2.234,-0.072,0.865,-0.552,-6.165,0.854,0.488,73.333,39493.000,1.000
-1.470,-1.077,-1.383,-1.150,-1.428,-1.472,-1.157,-1.265,-0.069,0.861,-0.553,-5.951,0.824,0.671,73.333,39494.000,1.000
-0.271,-0.033,-0.349,-0.104,-0.298,-0.341,-0.133,-0.239,-0.067,0.859,-0.558,-5.829,0.732,0.824,73.333,39495.000,1.000
0.747,0.786,0.553,0.732,0.668,0.638,0.767,0.622,-0.065,0.858,-0.562,-5.493,0.671,0.854,73.333,39496.000,1.000
1.659,1.542,1.432,1.516,1.541,1.545,1.658,1.442,-0.062,0.854,-0.558,-5.096,0.549,1.038,73.333,39497.000,1.000
2.580,2.409,2.395,2.406,2.437,2.490,2.611,2.355,-0.062,0.854,-0.559,-4.608,0.519,1.221,73.333,39498.000,1.000
3.436,3.308,3.330,3.311,3.288,3.387,3.474,3.266,-0.064,0.855,-0.560,-4.120,0.458,1.221,73.333,39499.000,1.000
3.970,3.934,3.942,3.903,3.847,3.954,3.957,3.877,-0.068,0.853,-0.563,-3.571,0.366,1.282,73.333,39500.000,1.000
3.960,4.013,3.979,3.898,3.893,3.954,3.856,3.919,-0.073,0.852,-0.563,-3.021,0.275,1.221,73.333,39501.000,1.000
3.385,3.490,3.406,3.260,3.388,3.363,3.183,3.330,-0.076,0.854,-0.563,-2.441,0.031,1.251,73.333,39502.000,1.000
2.498,2.616,2.495,2.282,2.556,2.452,2.225,2.357,-0.074,0.853,-0.565,-1.923,-0.092,1.251,73.333,39503.000,1.000
1.869,1.972,1.854,1.587,1.943,1.813,1.583,1.604,-0.076,0.851,-0.563,-1.312,-0.244,1.190,73.333,39504.000,1.000
2.039,2.124,2.054,1.756,2.104,2.012,1.817,1.678,-0.073,0.852,-0.564,-0.732,-0.427,1.038,73.333,39505.000,1.000
3.088,3.168,3.154,2.878,3.148,3.139,2.992,2.711,-0.071,0.855,-0.563,-0.122,-0.519,1.007,73.333,39506.000,1.000
4.518,4.593,4.599,4.423,4.579,4.657,4.569,4.209,-0.068,0.855,-0.563,0.458,-0.732,0.854,73.333,39507.000,1.000
5.618,5.656,5.634,5.613,5.648,5.780,5.784,5.413,-0.067,0.857,-0.563,0.885,-0.854,0.702,73.333,39508.000,1.000
5.976,5.942,5.869,6.001,5.919,6.055,6.184,5.858,-0.065,0.858,-0.562,1.343,-0.854,0.610,73.333,39509.000,1.000
5.487,5.390,5.274,5.503,5.325,5.423,5.652,5.432,-0.064,0.861,-0.563,1.648,-0.946,0.519,73.333,39510.000,1.000
4.137,4.022,3.904,4.132,3.930,3.950,4.198,4.136,-0.064,0.863,-0.565,1.984,-0.854,0.488,73.333,39511.000,1.000
2.028,1.928,1.875,1.992,1.864,1.781,1.965,2.085,-0.067,0.862,-0.563,2.197,-0.885,0.275,73.333,39512.000,1.000
-0.370,-0.486,-0.400,-0.483,-0.462,-0.635,-0.560,-0.281,-0.066,0.861,-0.562,2.350,-0.916,0.214,73.333,39513.000,1.000
-2.165,-2.384,-2.120,-2.415,-2.247,-2.448,-2.484,-2.119,-0.064,0.861,-0.562,2.472,-0.885,0.122,73.333,39514.000,1.000
-2.700,-3.095,-2.683,-3.113,-2.868,-3.017,-3.129,-2.788,-0.067,0.861,-0.565,2.716,-0.977,0.244,73.333,39515.000,1.000
-2.380,-2.955,-2.473,-2.906,-2.691,-2.733,-2.854,-2.639,-0.067,0.861,-0.564,2.869,-0.946,0.122,73.333,39516.000,1.000
-2.517,-3.186,-2.717,-3.041,-2.947,-2.879,-2.928,-2.890,-0.067,0.859,-0.565,3.021,-1.007,0.092,73.333,39517.000,1.000
-3.804,-4.440,-4.029,-4.213,-4.273,-4.133,-4.052,-4.179,-0.066,0.860,-0.568,3.082,-1.068,0.092,73.333,39518.000,1.000
-4.982,-5.483,-5.139,-5.231,-5.411,-5.247,-5.037,-5.262,-0.066,0.857,-0.567,2.991,-1.068,0.183,73.333,39519.000,1.000
-4.123,-4.455,-4.165,-4.238,-4.458,-4.321,-4.040,-4.270,-0.064,0.857,-0.563,2.899,-1.099,0.122,73.333,39520.000,1.000
-1.793,-1.986,-1.734,-1.833,-2.005,-1.947,-1.677,-1.826,-0.064,0.856,-0.557,2.869,-1.068,0.061,73.333,39521.000,1.000
-1.746,-1.865,-1.630,-1.767,-1.836,-1.889,-1.697,-1.725,-0.063,0.854,-0.557,2.716,-1.038,0.061,73.333,39522.000,1.000
-6.767,-6.882,-6.642,-6.808,-6.773,-6.936,-6.846,-6.759,-0.063,0.851,-0.558,2.594,-1.038,0.092,73.333,39523.000,1.000
-14.305,-14.471,-14.208,-14.374,-14.293,-14.531,-14.523,-14.346,-0.063,0.849,-0.562,2.472,-1.038,0.122,73.333,39524.000,1.000
-18.445,-18.706,-18.407,-18.530,-18.478,-18.746,-18.777,-18.538,-0.060,0.848,-0.557,2.319,-0.977,0.244,73.333,39525.000,1.000
-16.467,-16.836,-16.496,-16.533,-16.566,-16.836,-16.857,-16.592,-0.061,0.850,-0.555,2.197,-1.038,0.427,73.333,39526.000,1.000
-11.623,-12.055,-11.697,-11.621,-11.756,-12.021,-11.987,-11.735,-0.060,0.848,-0.555,1.984,-1.007,0.549,73.333,39527.000,1.000
-8.711,-9.112,-8.806,-8.606,-8.820,-9.082,-8.979,-8.756,-0.061,0.848,-0.555,1.770,-0.916,0.610,73.333,39528.000,1.000
-8.437,-8.715,-8.552,-8.235,-8.489,-8.744,-8.589,-8.381,-0.062,0.846,-0.552,1.465,-0.977,0.610,73.333,39529.000,1.000
-7.675,-7.792,-7.813,-7.419,-7.689,-7.916,-7.742,-7.523,-0.061,0.849,-0.550,1.190,-0.885,0.702,73.333,39530.000,1.000
-4.278,-4.266,-4.427,-4.027,-4.307,-4.479,-4.319,-4.070,-0.060,0.851,-0.547,1.038,-0.824,0.732,73.333,39531.000,1.000
0.277,0.354,0.154,0.475,0.193,0.088,0.206,0.495,-0.059,0.849,-0.547,0.793,-0.854,0.916,73.333,39532.000,1.000
3.178,3.270,3.125,3.313,3.047,2.996,3.057,3.384,-0.058,0.851,-0.545,0.397,-0.824,0.977,73.333,39533.000,1.000
3.738,3.836,3.792,3.841,3.617,3.589,3.601,3.949,-0.058,0.854,-0.544,-0.031,-0.702,1.068,73.333,39534.000,1.000
3.631,3.746,3.804,3.734,3.595,3.548,3.539,3.881,-0.055,0.857,-0.545,-0.427,-0.610,0.946,73.333,39535.000,1.000
4.480,4.611,4.763,4.595,4.576,4.480,4.481,4.790,-0.054,0.859,-0.540,-0.824,-0.610,1.038,73.333,39536.000,1.000
6.133,6.246,6.504,6.267,6.353,6.203,6.234,6.497,-0.055,0.863,-0.539,-1.312,-0.519,1.129,73.333,39537.000,1.000
7.140,7.197,7.566,7.299,7.435,7.254,7.306,7.536,-0.056,0.867,-0.539,-1.923,-0.397,1.068,73.333,39538.000,1.000
6.312,6.316,6.748,6.494,6.637,6.463,6.493,6.722,-0.054,0.868,-0.537,-2.441,-0.305,1.068,73.333,39539.000,1.000
3.669,3.665,4.059,3.859,3.993,3.873,3.825,4.079,-0.056,0.867,-0.535,-3.021,-0.214,1.038,73.333,39540.000,1.000
0.402,0.462,0.704,0.585,0.712,0.670,0.517,0.799,-0.055,0.868,-0.542,-3.479,-0.183,1.068,73.333,39541.000,1.000
-2.027,-1.843,-1.822,-1.863,-1.732,-1.719,-1.962,-1.673,-0.057,0.871,-0.542,-3.937,-0.092,1.038,73.333,39542.000,1.000
-3.207,-2.881,-3.087,-3.074,-2.910,-2.914,-3.203,-2.943,-0.058,0.872,-0.542,-4.395,-0.061,1.068,73.333,39543.000,1.000
-4.179,-3.747,-4.141,-4.086,-3.863,-3.950,-4.256,-4.052,-0.059,0.875,-0.538,-4.822,-0.122,1.099,73.333,39544.000,1.000
-6.196,-5.736,-6.253,-6.142,-5.875,-6.054,-6.369,-6.231,-0.059,0.876,-0.536,-5.249,-0.031,1.007,73.333,39545.000,1.000
-8.891,-8.507,-9.080,-8.884,-8.635,-8.852,-9.165,-9.083,-0.058,0.879,-0.534,-5.829,0.000,0.854,73.333,39546.000,1.000
-10.323,-10.087,-10.674,-10.387,-10.230,-10.396,-10.682,-10.638,-0.059,0.880,-0.536,-6.256,-0.061,0.824,73.333,39547.000,1.000
-9.251,-9.163,-9.750,-9.410,-9.382,-9.418,-9.646,-9.636,-0.057,0.879,-0.536,-6.714,0.000,0.671,73.333,39548.000,1.000
-6.701,-6.691,-7.265,-6.951,-7.029,-6.917,-7.058,-7.090,-0.057,0.882,-0.540,-7.050,0.031,0.488,73.333,39549.000,1.000
-4.777,-4.752,-5.286,-5.063,-5.191,-4.982,-5.036,-5.105,-0.058,0.884,-0.542,-7.141,0.031,0.549,73.333,39550.000,1.000
-4.376,-4.257,-4.720,-4.604,-4.727,-4.509,-4.511,-4.596,-0.059,0.883,-0.543,-7.324,-0.031,0.549,73.333,39551.000,1.000
-4.815,-4.559,-4.935,-4.883,-4.971,-4.812,-4.806,-4.910,-0.059,0.885,-0.542,-7.538,0.061,0.427,73.333,39552.000,1.000
-5.314,-4.933,-5.224,-5.159,-5.218,-5.135,-5.140,-5.292,-0.059,0.887,-0.542,-7.751,0.092,0.336,73.333,39553.000,1.000
-5.728,-5.289,-5.514,-5.360,-5.432,-5.399,-5.388,-5.620,-0.061,0.886,-0.541,-7.904,0.031,0.305,73.333,39554.000,1.000
-5.846,-5.431,-5.620,-5.348,-5.475,-5.449,-5.387,-5.692,-0.062,0.885,-0.540,-8.057,-0.122,0.275,73.333,39555.000,1.000
-4.986,-4.647,-4.820,-4.472,-4.659,-4.597,-4.482,-4.817,-0.065,0.885,-0.544,-8.209,-0.061,0.214,73.333,39556.000,1.000
-2.944,-2.690,-2.846,-2.519,-2.707,-2.594,-2.481,-2.770,-0.064,0.884,-0.543,-8.179,-0.031,0.244,73.333,39557.000,1.000
-0.833,-0.650,-0.769,-0.555,-0.653,-0.518,-0.483,-0.646,-0.065,0.883,-0.545,-8.118,-0.122,0.244,73.333,39558.000,1.000
-0.081,0.045,-0.003,0.043,0.103,0.205,0.125,0.115,-0.066,0.879,-0.544,-7.904,-0.153,0.183,73.333,39559.000,1.000
-0.820,-0.747,-0.692,-0.813,-0.606,-0.570,-0.739,-0.649,-0.065,0.878,-0.545,-7.599,-0.244,0.275,73.333,39560.000,1.000
-1.867,-1.850,-1.695,-1.927,-1.660,-1.670,-1.866,-1.782,-0.062,0.877,-0.541,-7.477,-0.305,0.366,73.333,39561.000,1.000
-2.331,-2.375,-2.170,-2.429,-2.211,-2.192,-2.379,-2.384,-0.061,0.874,-0.542,-7.233,-0.366,0.397,73.333,39562.000,1.000
-2.562,-2.673,-2.482,-2.707,-2.597,-2.453,-2.647,-2.770,-0.061,0.874,-0.542,-6.897,-0.427,0.336,73.333,39563.000,1.000
-3.178,-3.342,-3.215,-3.389,-3.379,-3.056,-3.284,-3.507,-0.062,0.872,-0.544,-6.470,-0.549,0.397,73.333,39564.000,1.000
-3.877,-4.070,-4.007,-4.155,-4.205,-3.729,-3.982,-4.264,-0.061,0.872,-0.544,-6.042,-0.610,0.488,73.333,39565.000,1.000
-3.760,-3.977,-3.929,-4.100,-4.150,-3.626,-3.860,-4.162,-0.061,0.869,-0.543,-5.676,-0.488,0.519,73.333,39566.000,1.000
-2.619,-2.869,-2.785,-3.009,-2.995,-2.539,-2.721,-3.022,-0.064,0.867,-0.544,-5.219,-0.580,0.580,73.333,39567.000,1.000
-1.359,-1.633,-1.503,-1.765,-1.644,-1.317,-1.466,-1.748,-0.064,0.866,-0.542,-4.730,-0.519,0.580,73.333,39568.000,1.000
-0.989,-1.249,-1.107,-1.351,-1.140,-0.922,-1.094,-1.329,-0.063,0.867,-0.539,-4.303,-0.610,0.610,73.333,39569.000,1.000
-1.627,-1.812,-1.722,-1.886,-1.661,-1.478,-1.721,-1.869,-0.064,0.866,-0.539,-3.784,-0.519,0.702,73.333,39570.000,1.000
-2.547,-2.608,-2.634,-2.663,-2.522,-2.315,-2.618,-2.641,-0.065,0.870,-0.542,-3.235,-0.580,0.763,73.333,39571.000,1.000
-3.019,-2.961,-3.126,-2.997,-3.001,-2.768,-3.065,-2.953,-0.064,0.869,-0.542,-2.930,-0.580,0.671,73.333,39572.000,1.000
-3.017,-2.907,-3.177,-2.927,-3.052,-2.847,-3.061,-2.853,-0.063,0.866,-0.538,-2.533,-0.641,0.824,73.333,39573.000,1.000
-3.077,-3.008,-3.314,-3.035,-3.181,-3.054,-3.151,-2.940,-0.064,0.864,-0.537,-1.953,-0.580,0.885,73.333,39574.000,1.000
-3.597,-3.624,-3.903,-3.714,-3.752,-3.699,-3.705,-3.596,-0.062,0.864,-0.535,-1.434,-0.671,0.977,73.333,39575.000,1.000
-4.270,-4.384,-4.594,-4.596,-4.435,-4.403,-4.375,-4.429,-0.062,0.865,-0.533,-1.068,-0.702,0.885,73.333,39576.000,1.000
-4.380,-4.519,-4.647,-4.862,-4.505,-4.442,-4.417,-4.625,-0.064,0.864,-0.533,-0.824,-0.763,0.885,73.333,39577.000,1.000
-3.735,-3.829,-3.899,-4.227,-3.781,-3.672,-3.646,-3.953,-0.062,0.864,-0.535,-0.427,-0.854,0.885,73.333,39578.000,1.000
-3.008,-3.003,-3.075,-3.334,-2.950,-2.821,-2.771,-3.111,-0.061,0.862,-0.535,-0.061,-0.885,0.793,73.333,39579.000,1.000
-2.946,-2.826,-2.977,-2.993,-2.778,-2.675,-2.587,-2.910,-0.062,0.862,-0.532,0.214,-0.854,0.732,73.333,39580.000,1.000
-3.271,-3.059,-3.345,-3.040,-3.019,-2.972,-2.856,-3.134,-0.062,0.860,-0.535,0.549,-0.916,0.671,73.333,39581.000,1.000
-2.782,-2.525,-2.932,-2.367,-2.501,-2.502,-2.379,-2.608,-0.063,0.863,-0.534,0.793,-0.885,0.549,73.333,39582.000,1.000
-0.828,-0.578,-1.016,-0.357,-0.587,-0.593,-0.478,-0.671,-0.063,0.861,-0.535,1.190,-0.946,0.549,73.333,39583.000,1.000
1.654,1.848,1.506,2.076,1.797,1.832,1.952,1.776,-0.063,0.859,-0.537,1.495,-0.946,0.488,73.333,39584.000,1.000
2.945,3.035,2.899,3.268,2.964,3.049,3.215,3.041,-0.063,0.860,-0.535,1.617,-0.916,0.458,73.333,39585.000,1.000
2.513,2.467,2.575,2.727,2.415,2.519,2.764,2.588,-0.061,0.859,-0.539,1.831,-0.885,0.458,73.333,39586.000,1.000
1.720,1.542,1.835,1.824,1.532,1.611,1.920,1.753,-0.062,0.858,-0.538,2.136,-0.946,0.366,73.333,39587.000,1.000
2.177,1.912,2.257,2.165,1.934,1.958,2.287,2.131,-0.060,0.857,-0.539,2.502,-0.854,0.244,73.333,39588.000,1.000
3.835,3.548,3.821,3.715,3.586,3.544,3.860,3.697,-0.061,0.858,-0.541,2.625,-0.824,0.214,73.333,39589.000,1.000
5.228,4.966,5.112,5.034,5.027,4.918,5.212,5.023,-0.059,0.860,-0.542,2.838,-0.793,0.214,73.333,39590.000,1.000
5.550,5.319,5.359,5.337,5.434,5.264,5.541,5.327,-0.062,0.860,-0.541,3.021,-0.702,0.214,73.333,39591.000,1.000
5.713,5.485,5.477,5.536,5.677,5.471,5.740,5.523,-0.060,0.861,-0.547,3.204,-0.793,0.153,73.333,39592.000,1.000
6.860,6.599,6.608,6.762,6.866,6.653,6.929,6.738,-0.060,0.860,-0.545,3.296,-0.763,0.031,73.333,39593.000,1.000
8.501,8.193,8.261,8.497,8.513,8.295,8.599,8.453,-0.058,0.857,-0.547,3.510,-0.702,0.000,73.333,39594.000,1.000
8.897,8.575,8.708,8.980,8.914,8.672,9.010,8.917,-0.058,0.858,-0.548,3.662,-0.671,0.031,73.333,39595.000,1.000
7.384,7.126,7.302,7.545,7.443,7.173,7.518,7.483,-0.058,0.859,-0.551,3.906,-0.488,0.061,73.333,39596.000,1.000
5.486,5.373,5.566,5.725,5.626,5.359,5.660,5.696,-0.056,0.858,-0.554,3.906,-0.488,0.092,73.333,39597.000,1.000
5.133,5.202,5.392,5.446,5.357,5.143,5.358,5.481,-0.057,0.859,-0.553,4.059,-0.366,0.122,73.333,39598.000,1.000
6.330,6.554,6.718,6.692,6.588,6.469,6.586,6.797,-0.058,0.859,-0.553,4.089,-0.305,0.092,73.333,39599.000,1.000
7.376,7.670,7.796,7.727,7.589,7.570,7.614,7.881,-0.060,0.860,-0.555,4.242,-0.183,0.153,73.333,39600.000,1.000
7.578,7.837,7.937,7.850,7.688,7.738,7.759,8.020,-0.062,0.857,-0.555,4.364,-0.214,0.214,73.333,39601.000,1.000
8.828,8.968,9.079,8.980,8.830,8.903,8.945,9.135,-0.063,0.858,-0.556,4.333,-0.153,0.153,73.333,39602.000,1.000
13.202,13.197,13.361,13.241,13.147,13.193,13.274,13.364,-0.062,0.858,-0.555,4.333,-0.183,0.244,73.333,39603.000,1.000
19.230,19.116,19.350,19.184,19.197,19.175,19.273,19.294,-0.063,0.860,-0.557,4.395,-0.092,0.153,73.333,39604.000,1.000
22.248,22.100,22.380,22.149,22.304,22.196,22.264,22.277,-0.063,0.861,-0.558,4.486,-0.183,0.275,73.333,39605.000,1.000
19.568,19.454,19.727,19.437,19.731,19.537,19.550,19.602,-0.063,0.864,-0.560,4.486,-0.153,0.336,73.333,39606.000,1.000
13.989,13.943,14.155,13.837,14.218,13.943,13.931,14.047,-0.063,0.865,-0.561,4.425,-0.244,0.366,73.333,39607.000,1.000
10.601,10.605,10.744,10.439,10.812,10.471,10.507,10.684,-0.064,0.866,-0.558,4.456,-0.183,0.366,73.333,39608.000,1.000
10.869,10.858,10.965,10.697,10.972,10.595,10.726,10.962,-0.064,0.866,-0.559,4.364,-0.183,0.427,73.333,39609.000,1.000
11.585,11.492,11.622,11.393,11.525,11.162,11.357,11.659,-0.063,0.866,-0.558,4.303,-0.183,0.336,73.333,39610.000,1.000
9.999,9.810,9.987,9.785,9.788,9.501,9.665,10.032,-0.063,0.865,-0.559,4.089,-0.122,0.305,73.333,39611.000,1.000
8.128,7.908,8.109,7.919,7.846,7.688,7.731,8.117,-0.063,0.865,-0.561,3.876,-0.183,0.275,73.333,39612.000,1.000
9.962,9.812,9.998,9.817,9.719,9.692,9.604,9.906,-0.063,0.866,-0.563,3.784,-0.122,0.244,73.333,39613.000,1.000
15.000,14.993,15.145,14.980,14.892,14.935,14.779,14.903,-0.063,0.865,-0.561,3.662,-0.153,0.305,73.333,39614.000,1.000
17.455,17.603,17.729,17.583,17.539,17.557,17.416,17.334,-0.063,0.864,-0.563,3.448,-0.092,0.397,73.333,39615.000,1.000
13.418,13.670,13.777,13.652,13.690,13.603,13.525,13.283,-0.062,0.862,-0.560,3.418,-0.092,0.427,73.333,39616.000,1.000
6.386,6.644,6.734,6.635,6.779,6.559,6.550,6.233,-0.063,0.862,-0.559,3.174,-0.031,0.275,73.333,39617.000,1.000
3.072,3.235,3.311,3.243,3.481,3.163,3.197,2.897,-0.064,0.864,-0.555,2.991,-0.061,0.336,73.333,39618.000,1.000
5.163,5.181,5.239,5.195,5.477,5.149,5.194,4.980,-0.061,0.862,-0.554,2.747,0.031,0.336,73.333,39619.000,1.000
7.983,7.867,7.893,7.867,8.105,7.874,7.915,7.814,-0.061,0.865,-0.554,2.441,-0.061,0.336,73.333,39620.000,1.000
7.246,7.039,7.020,7.018,7.105,7.070,7.099,7.097,-0.058,0.865,-0.556,2.167,-0.122,0.275,73.333,39621.000,1.000
4.300,4.044,3.976,4.018,3.871,4.086,4.082,4.149,-0.059,0.866,-0.554,1.923,-0.092,0.275,73.333,39622.000,1.000
3.241,2.968,2.850,2.956,2.575,3.023,2.951,3.055,-0.059,0.867,-0.553,1.526,-0.031,0.244,73.333,39623.000,1.000
4.979,4.703,4.537,4.711,4.199,4.772,4.627,4.729,-0.061,0.868,-0.550,1.251,-0.031,0.244,73.333,39624.000,1.000
6.441,6.165,5.959,6.172,5.693,6.221,6.056,6.110,-0.058,0.872,-0.547,0.732,0.000,0.214,73.333,39625.000,1.000
5.223,4.959,4.729,4.936,4.624,4.951,4.852,4.823,-0.060,0.875,-0.549,0.366,-0.031,0.244,73.333,39626.000,1.000
2.749,2.526,2.306,2.475,2.363,2.422,2.454,2.345,-0.060,0.882,-0.550,0.000,-0.061,0.214,73.333,39627.000,1.000
1.862,1.719,1.565,1.683,1.699,1.538,1.706,1.561,-0.059,0.889,-0.551,-0.549,-0.031,0.214,73.333,39628.000,1.000
2.870,2.835,2.817,2.873,2.909,2.646,2.902,2.764,-0.059,0.896,-0.551,-1.007,-0.122,0.397,73.333,39629.000,1.000
3.381,3.450,3.614,3.587,3.574,3.326,3.602,3.484,-0.059,0.903,-0.551,-1.709,-0.153,0.488,73.333,39630.000,1.000
1.615,1.745,2.073,1.952,1.876,1.719,1.965,1.859,-0.061,0.908,-0.547,-2.411,-0.336,0.458,73.333,39631.000,1.000
-1.546,-1.411,-1.010,-1.202,-1.326,-1.366,-1.173,-1.270,-0.063,0.910,-0.550,-3.174,-0.336,0.488,73.333,39632.000,1.000
-4.194,-4.094,-3.748,-3.955,-4.111,-4.044,-3.893,-3.991,-0.065,0.910,-0.548,-3.876,-0.458,0.549,73.333,39633.000,1.000
-5.864,-5.805,-5.613,-5.773,-5.949,-5.804,-5.672,-5.789,-0.065,0.906,-0.548,-4.547,-0.580,0.580,73.333,39634.000,1.000
-7.663,-7.622,-7.603,-7.674,-7.869,-7.678,-7.548,-7.694,-0.068,0.904,-0.547,-5.157,-0.763,0.641,73.333,39635.000,1.000
-10.454,-10.391,-10.489,-10.456,-10.677,-10.473,-10.342,-10.500,-0.071,0.898,-0.547,-5.707,-0.946,0.641,73.333,39636.000,1.000
-13.732,-13.609,-13.751,-13.626,-13.861,-13.682,-13.556,-13.687,-0.071,0.895,-0.551,-6.165,-1.190,0.641,73.333,39637.000,1.000
-16.333,-16.143,-16.291,-16.114,-16.318,-16.205,-16.093,-16.157,-0.072,0.890,-0.552,-6.378,-1.434,0.763,73.333,39638.000,1.000
-17.545,-17.315,-17.482,-17.303,-17.419,-17.391,-17.319,-17.285,-0.072,0.888,-0.547,-6.592,-1.740,0.732,73.333,39639.000,1.000
-17.493,-17.278,-17.487,-17.343,-17.342,-17.384,-17.392,-17.251,-0.071,0.884,-0.548,-6.714,-2.014,0.793,73.333,39640.000,1.000
-16.883,-16.741,-16.977,-16.888,-16.775,-16.863,-16.977,-16.757,-0.070,0.877,-0.543,-6.775,-2.228,0.824,73.333,39641.000,1.000
-16.522,-16.478,-16.697,-16.668,-16.466,-16.596,-16.804,-16.561,-0.068,0.871,-0.545,-6.775,-2.411,0.885,73.333,39642.000,1.000
-16.703,-16.724,-16.905,-16.916,-16.663,-16.833,-17.101,-16.896,-0.067,0.864,-0.548,-6.653,-2.533,0.824,73.333,39643.000,1.000
-16.603,-16.611,-16.778,-16.771,-16.540,-16.723,-17.020,-16.884,-0.066,0.859,-0.550,-6.470,-2.777,0.946,73.333,39644.000,1.000
-14.796,-14.723,-14.912,-14.823,-14.709,-14.838,-15.150,-15.074,-0.065,0.854,-0.550,-6.134,-2.960,0.885,73.333,39645.000,1.000
-10.834,-10.669,-10.886,-10.710,-10.766,-10.774,-11.089,-11.041,-0.065,0.847,-0.550,-5.615,-3.113,0.824,73.333,39646.000,1.000
-6.066,-5.854,-6.059,-5.878,-6.067,-5.937,-6.231,-6.184,-0.062,0.843,-0.552,-5.188,-3.235,0.885,73.333,39647.000,1.000
-2.356,-2.164,-2.295,-2.240,-2.453,-2.236,-2.479,-2.417,-0.059,0.843,-0.553,-4.639,-3.387,0.824,73.333,39648.000,1.000
0.017,0.145,0.124,-0.038,-0.166,0.059,-0.121,-0.035,-0.062,0.843,-0.549,-4.089,-3.479,0.732,73.333,39649.000,1.000
2.288,2.359,2.439,2.059,2.052,2.234,2.104,2.222,-0.059,0.843,-0.550,-3.448,-3.418,0.763,73.333,39650.000,1.000
4.906,4.966,5.113,4.607,4.659,4.798,4.707,4.840,-0.061,0.841,-0.551,-2.899,-3.418,0.732,73.333,39651.000,1.000
6.305,6.409,6.593,6.085,6.100,6.223,6.181,6.280,-0.066,0.841,-0.550,-2.289,-3.510,0.763,73.333,39652.000,1.000
4.735,4.908,5.104,4.685,4.622,4.755,4.782,4.783,-0.072,0.841,-0.551,-1.312,-3.601,0.366,73.333,39653.000,1.000
1.051,1.291,1.473,1.164,1.062,1.225,1.311,1.178,-0.075,0.837,-0.552,-0.732,-3.784,0.153,73.333,39654.000,1.000
-1.511,-1.222,-1.080,-1.309,-1.372,-1.178,-1.072,-1.316,-0.078,0.835,-0.551,-0.061,-3.906,-0.061,73.333,39655.000,1.000
-0.901,-0.578,-0.496,-0.680,-0.642,-0.447,-0.356,-0.649,-0.079,0.833,-0.551,0.580,-4.120,-0.397,73.333,39656.000,1.000
1.236,1.576,1.593,1.440,1.588,1.738,1.809,1.524,-0.076,0.833,-0.550,1.373,-4.395,-0.610,73.333,39657.000,1.000
1.534,1.860,1.822,1.707,1.926,1.987,2.074,1.826,-0.075,0.831,-0.558,1.953,-4.578,-0.885,73.333,39658.000,1.000
-0.840,-0.571,-0.633,-0.696,-0.469,-0.511,-0.367,-0.567,-0.074,0.834,-0.556,2.502,-4.700,-1.068,73.333,39659.000,1.000
-3.295,-3.127,-3.173,-3.174,-2.995,-3.107,-2.911,-3.059,-0.070,0.837,-0.555,3.052,-4.822,-1.282,73.333,39660.000,1.000
-3.435,-3.382,-3.392,-3.326,-3.228,-3.351,-3.168,-3.254,-0.068,0.840,-0.556,3.540,-4.852,-1.373,73.333,39661.000,1.000
-2.176,-2.205,-2.195,-2.078,-2.051,-2.138,-2.055,-2.067,-0.068,0.844,-0.554,3.906,-4.822,-1.495,73.333,39662.000,1.000
-2.366,-2.411,-2.423,-2.286,-2.293,-2.329,-2.386,-2.326,-0.067,0.845,-0.554,4.303,-4.822,-1.495,73.333,39663.000,1.000
-4.953,-4.954,-5.030,-4.898,-4.893,-4.893,-5.063,-4.959,-0.066,0.850,-0.557,4.547,-4.730,-1.465,73.333,39664.000,1.000
-7.978,-7.922,-8.084,-7.961,-7.896,-7.897,-8.117,-8.004,-0.064,0.850,-0.556,4.730,-4.669,-1.343,73.333,39665.000,1.000
-9.389,-9.319,-9.556,-9.432,-9.276,-9.305,-9.532,-9.433,-0.065,0.851,-0.557,4.944,-4.517,-1.221,73.333,39666.000,1.000
-9.563,-9.540,-9.803,-9.666,-9.429,-9.481,-9.715,-9.629,-0.062,0.852,-0.558,5.035,-4.242,-1.007,73.333,39667.000,1.000
-10.331,-10.393,-10.622,-10.450,-10.191,-10.238,-10.502,-10.406,-0.063,0.854,-0.560,5.005,-4.181,-0.763,73.333,39668.000,1.000
-12.163,-12.313,-12.464,-12.237,-12.029,-12.049,-12.356,-12.216,-0.062,0.855,-0.556,5.035,-3.998,-0.580,73.333,39669.000,1.000
-13.627,-13.844,-13.909,-13.613,-13.507,-13.501,-13.832,-13.629,-0.064,0.855,-0.558,5.035,-3.754,-0.366,73.333,39670.000,1.000
-13.565,-13.816,-13.812,-13.465,-13.463,-13.450,-13.764,-13.506,-0.063,0.854,-0.556,4.913,-3.540,-0.092,73.333,39671.000,1.000
-12.619,-12.878,-12.832,-12.476,-12.550,-12.544,-12.814,-12.521,-0.063,0.853,-0.557,4.761,-3.326,0.122,73.333,39672.000,1.000
-12.161,-12.411,-12.357,-12.030,-12.147,-12.150,-12.387,-12.058,-0.064,0.852,-0.557,4.639,-3.235,0.275,73.333,39673.000,1.000
-12.287,-12.507,-12.490,-12.195,-12.334,-12.342,-12.585,-12.194,-0.063,0.852,-0.563,4.456,-3.021,0.427,73.333,39674.000,1.000
-11.858,-12.022,-12.085,-11.793,-11.946,-11.962,-12.233,-11.761,-0.064,0.851,-0.562,4.272,-2.869,0.519,73.333,39675.000,1.000
-10.338,-10.423,-10.579,-10.258,-10.423,-10.455,-10.743,-10.214,-0.066,0.855,-0.561,4.120,-2.686,0.702,73.333,39676.000,1.000
-8.493,-8.506,-8.721,-8.372,-8.533,-8.580,-8.866,-8.335,-0.064,0.856,-0.563,3.967,-2.502,0.763,73.333,39677.000,1.000
-7.181,-7.164,-7.369,-7.020,-7.153,-7.200,-7.481,-7.001,-0.064,0.856,-0.562,3.723,-2.350,0.854,73.333,39678.000,1.000
-6.288,-6.296,-6.427,-6.114,-6.205,-6.223,-6.508,-6.112,-0.064,0.858,-0.563,3.479,-2.136,0.854,73.333,39679.000,1.000
-5.398,-5.463,-5.502,-5.260,-5.304,-5.264,-5.554,-5.261,-0.062,0.859,-0.564,3.204,-1.953,0.977,73.333,39680.000,1.000
-4.691,-4.800,-4.771,-4.632,-4.618,-4.513,-4.786,-4.613,-0.060,0.859,-0.565,2.838,-1.770,1.068,73.333,39681.000,1.000
-4.438,-4.548,-4.478,-4.457,-4.383,-4.236,-4.449,-4.403,-0.061,0.862,-0.565,2.625,-1.556,1.068,73.333,39682.000,1.000
-4.132,-4.198,-4.084,-4.168,-4.059,-3.921,-4.021,-4.080,-0.057,0.861,-0.565,2.167,-1.038,1.099,73.333,39683.000,1.000
-2.723,-2.710,-2.536,-2.688,-2.582,-2.512,-2.461,-2.578,-0.059,0.862,-0.567,1.801,-0.793,1.099,73.333,39684.000,1.000
0.076,0.171,0.400,0.226,0.312,0.276,0.472,0.348,-0.059,0.863,-0.570,1.434,-0.641,1.007,73.333,39685.000,1.000
3.095,3.224,3.484,3.321,3.395,3.269,3.543,3.460,-0.057,0.860,-0.569,1.129,-0.305,0.885,73.333,39686.000,1.000
4.697,4.773,5.035,4.894,4.968,4.822,5.069,5.058,-0.056,0.860,-0.571,0.793,-0.031,0.732,73.333,39687.000,1.000
4.307,4.257,4.508,4.377,4.447,4.373,4.493,4.563,-0.053,0.858,-0.572,0.702,0.336,0.793,73.333,39688.000,1.000
2.954,2.768,3.019,2.871,2.924,2.984,2.926,3.061,-0.055,0.857,-0.574,0.610,0.488,0.702,73.333,39689.000,1.000
2.193,1.923,2.190,2.002,2.034,2.220,2.012,2.182,-0.056,0.855,-0.576,0.488,0.763,0.610,73.333,39690.000,1.000
2.606,2.324,2.596,2.366,2.400,2.645,2.378,2.549,-0.057,0.854,-0.575,0.580,1.160,0.366,73.333,39691.000,1.000
3.565,3.318,3.552,3.293,3.371,3.606,3.373,3.518,-0.054,0.854,-0.576,0.488,1.495,0.275,73.333,39692.000,1.000
4.304,4.094,4.242,3.969,4.118,4.314,4.164,4.261,-0.055,0.855,-0.580,0.580,1.678,0.092,73.333,39693.000,1.000
5.028,4.818,4.883,4.596,4.800,4.963,4.899,4.929,-0.056,0.852,-0.578,0.549,1.984,-0.031,73.333,39694.000,1.000
6.528,6.289,6.316,6.020,6.213,6.353,6.361,6.315,-0.058,0.852,-0.578,0.580,2.350,-0.214,73.333,39695.000,1.000
8.807,8.563,8.580,8.313,8.435,8.528,8.587,8.487,-0.062,0.850,-0.578,0.763,2.502,-0.214,73.333,39696.000,1.000
10.794,10.619,10.601,10.424,10.474,10.460,10.547,10.449,-0.061,0.851,-0.579,0.946,2.686,-0.305,73.333,39697.000,1.000
11.575,11.546,11.453,11.394,11.430,11.262,11.349,11.314,-0.060,0.850,-0.581,1.099,2.899,-0.427,73.333,39698.000,1.000
11.614,11.757,11.594,11.615,11.693,11.389,11.454,11.510,-0.065,0.849,-0.580,1.221,2.899,-0.549,73.333,39699.000,1.000
12.242,12.516,12.348,12.370,12.486,12.128,12.166,12.308,-0.066,0.849,-0.581,1.404,3.021,-0.671,73.333,39700.000,1.000
14.007,14.324,14.245,14.197,14.298,13.971,13.998,14.196,-0.068,0.850,-0.579,1.495,2.991,-0.793,73.333,39701.000,1.000
16.007,16.292,16.350,16.211,16.239,15.994,16.035,16.231,-0.068,0.850,-0.578,1.617,3.052,-0.793,73.333,39702.000,1.000
17.013,17.236,17.394,17.200,17.135,16.980,17.060,17.177,-0.069,0.850,-0.581,1.587,3.021,-0.854,73.333,39703.000,1.000
17.168,17.341,17.510,17.320,17.192,17.103,17.247,17.208,-0.072,0.854,-0.577,1.709,3.082,-0.946,73.333,39704.000,1.000
17.947,18.113,18.216,18.068,17.932,17.878,18.100,17.868,-0.072,0.857,-0.577,1.740,3.021,-0.916,73.333,39705.000,1.000
20.111,20.325,20.324,20.219,20.127,20.078,20.369,19.971,-0.072,0.858,-0.577,1.740,3.021,-0.946,73.333,39706.000,1.000
22.246,22.540,22.438,22.353,22.339,22.266,22.589,22.113,-0.074,0.859,-0.574,1.678,2.808,-0.916,73.333,39707.000,1.000
21.990,22.352,22.188,22.098,22.174,22.044,22.349,21.901,-0.074,0.861,-0.575,1.465,2.686,-0.885,73.333,39708.000,1.000
18.790,19.178,19.012,18.910,19.057,18.847,19.101,18.747,-0.074,0.860,-0.573,1.404,2.533,-0.763,73.333,39709.000,1.000
14.696,15.077,14.934,14.845,15.014,14.735,14.945,14.672,-0.075,0.860,-0.573,1.312,2.380,-0.732,73.333,39710.000,1.000
12.182,12.538,12.379,12.349,12.492,12.188,12.398,12.130,-0.075,0.862,-0.568,1.160,2.258,-0.671,73.333,39711.000,1.000
11.769,12.077,11.841,11.897,12.000,11.728,11.993,11.641,-0.076,0.861,-0.568,1.038,2.197,-0.580,73.333,39712.000,1.000
12.102,12.320,11.989,12.109,12.197,12.001,12.350,11.871,-0.074,0.859,-0.566,0.763,1.984,-0.580,73.333,39713.000,1.000
12.039,12.121,11.743,11.872,11.976,11.873,12.294,11.712,-0.076,0.858,-0.562,0.458,1.770,-0.549,73.333,39714.000,1.000
11.825,11.760,11.402,11.497,11.614,11.598,12.044,11.446,-0.074,0.855,-0.562,0.305,1.495,-0.427,73.333,39715.000,1.000
12.168,11.982,11.698,11.750,11.822,11.880,12.298,11.797,-0.073,0.853,-0.565,0.092,1.404,-0.336,73.333,39716.000,1.000
12.938,12.679,12.505,12.527,12.469,12.588,12.953,12.639,-0.074,0.852,-0.567,-0.092,1.282,-0.122,73.333,39717.000,1.000
13.212,12.923,12.878,12.888,12.642,12.816,13.126,13.029,-0.070,0.852,-0.565,-0.153,1.099,-0.031,73.333,39718.000,1.000
12.358,12.061,12.131,12.152,11.733,11.958,12.208,12.289,-0.067,0.850,-0.569,-0.214,0.885,0.214,73.333,39719.000,1.000
10.434,10.139,10.273,10.317,9.825,10.083,10.262,10.438,-0.065,0.850,-0.568,-0.397,0.854,0.427,73.333,39720.000,1.000
7.761,7.485,7.619,7.679,7.245,7.500,7.598,7.782,-0.065,0.848,-0.566,-0.488,0.763,0.610,73.333,39721.000,1.000
4.821,4.588,4.684,4.740,4.455,4.662,4.691,4.812,-0.066,0.851,-0.563,-0.549,0.671,0.671,73.333,39722.000,1.000
2.325,2.157,2.202,2.252,2.120,2.245,2.247,2.256,-0.072,0.852,-0.561,-0.763,0.580,0.854,73.333,39723.000,1.000
0.837,0.738,0.735,0.804,0.762,0.787,0.819,0.706,-0.076,0.852,-0.560,-1.038,0.427,0.824,73.333,39724.000,1.000
0.177,0.128,0.081,0.188,0.180,0.113,0.195,-0.003,-0.079,0.852,-0.561,-1.251,0.183,0.916,73.333,39725.000,1.000
-0.452,-0.486,-0.557,-0.431,-0.413,-0.536,-0.444,-0.661,-0.081,0.854,-0.561,-1.495,-0.031,0.763,73.333,39726.000,1.000
-1.531,-1.582,-1.645,-1.540,-1.478,-1.606,-1.583,-1.744,-0.080,0.856,-0.565,-1.617,-0.336,0.702,73.333,39727.000,1.000
-2.826,-2.911,-2.929,-2.870,-2.761,-2.853,-2.959,-3.000,-0.081,0.857,-0.563,-1.740,-0.580,0.824,73.333,39728.000,1.000
-3.887,-4.014,-3.958,-3.927,-3.797,-3.850,-4.076,-3.977,-0.078,0.858,-0.560,-2.075,-0.885,0.763,73.333,39729.000,1.000
-4.785,-4.947,-4.815,-4.767,-4.650,-4.696,-4.970,-4.764,-0.077,0.860,-0.561,-2.167,-1.099,0.824,73.333,39730.000,1.000
-6.105,-6.282,-6.101,-6.002,-5.922,-6.000,-6.233,-5.988,-0.079,0.864,-0.558,-2.411,-1.373,0.671,73.333,39731.000,1.000
-8.161,-8.321,-8.140,-7.984,-7.956,-8.074,-8.215,-8.001,-0.077,0.867,-0.559,-2.625,-1.617,0.610,73.333,39732.000,1.000
-10.582,-10.680,-10.560,-10.369,-10.401,-10.525,-10.584,-10.449,-0.076,0.868,-0.559,-2.960,-1.740,0.519,73.333,39733.000,1.000
-12.650,-12.648,-12.642,-12.444,-12.537,-12.611,-12.639,-12.614,-0.075,0.867,-0.561,-3.235,-1.923,0.397,73.333,39734.000,1.000
-13.953,-13.849,-13.979,-13.791,-13.936,-13.918,-13.963,-14.071,-0.075,0.867,-0.562,-3.448,-2.167,0.458,73.333,39735.000,1.000
-14.681,-14.534,-14.748,-14.574,-14.760,-14.639,-14.714,-14.957,-0.073,0.867,-0.560,-3.723,-2.258,0.427,73.333,39736.000,1.000
-15.279,-15.188,-15.368,-15.200,-15.423,-15.215,-15.297,-15.644,-0.073,0.867,-0.561,-3.845,-2.289,0.580,73.333,39737.000,1.000
-15.982,-16.043,-16.071,-15.896,-16.152,-15.901,-15.937,-16.328,-0.072,0.866,-0.561,-4.028,-2.472,0.610,73.333,39738.000,1.000
-16.624,-16.892,-16.720,-16.521,-16.802,-16.557,-16.504,-16.870,-0.073,0.868,-0.561,-4.181,-2.686,0.519,73.333,39739.000,1.000
-16.948,-17.411,-17.077,-16.839,-17.140,-16.925,-16.787,-17.076,-0.072,0.867,-0.562,-4.272,-2.716,0.580,73.333,39740.000,1.000
-17.006,-17.586,-17.199,-16.911,-17.230,-17.025,-16.884,-17.063,-0.071,0.868,-0.560,-4.456,-2.747,0.549,73.333,39741.000,1.000
-17.094,-17.657,-17.371,-17.042,-17.361,-17.116,-17.110,-17.151,-0.071,0.867,-0.560,-4.547,-2.655,0.580,73.333,39742.000,1.000
-17.416,-17.827,-17.783,-17.441,-17.718,-17.390,-17.647,-17.535,-0.070,0.867,-0.560,-4.608,-2.686,0.549,73.333,39743.000,1.000
-17.812,-17.981,-18.240,-17.920,-18.113,-17.698,-18.266,-18.012,-0.072,0.867,-0.560,-4.669,-2.716,0.549,73.333,39744.000,1.000
-17.897,-17.817,-18.309,-18.043,-18.137,-17.682,-18.508,-18.138,-0.069,0.866,-0.563,-4.700,-2.777,0.610,73.333,39745.000,1.000
-17.536,-17.282,-17.834,-17.628,-17.655,-17.244,-18.187,-17.734,-0.069,0.865,-0.559,-4.669,-2.747,0.610,73.333,39746.000,1.000
-17.019,-16.704,-17.136,-16.964,-16.982,-16.701,-17.575,-17.094,-0.069,0.865,-0.563,-4.639,-2.716,0.641,73.333,39747.000,1.000
-16.775,-16.495,-16.701,-16.553,-16.597,-16.479,-17.129,-16.704,-0.070,0.867,-0.559,-4.669,-2.655,0.641,73.333,39748.000,1.000
-16.853,-16.652,-16.616,-16.539,-16.597,-16.596,-16.973,-16.683,-0.068,0.868,-0.554,-4.700,-2.655,0.610,73.333,39749.000,1.000
-16.883,-16.759,-16.528,-16.608,-16.623,-16.651,-16.821,-16.703,-0.068,0.868,-0.555,-4.761,-2.502,0.488,73.333,39750.000,1.000
-16.609,-16.537,-16.203,-16.483,-16.389,-16.394,-16.461,-16.510,-0.065,0.865,-0.553,-4.700,-2.472,0.610,73.333,39751.000,1.000
-16.208,-16.163,-15.828,-16.262,-16.022,-16.025,-16.062,-16.243,-0.067,0.866,-0.555,-4.700,-2.441,0.610,73.333,39752.000,1.000
-16.044,-16.015,-15.763,-16.242,-15.877,-15.941,-15.962,-16.210,-0.065,0.866,-0.555,-4.730,-2.472,0.519,73.333,39753.000,1.000
-16.093,-16.088,-15.965,-16.385,-15.955,-16.131,-16.113,-16.333,-0.066,0.863,-0.556,-4.730,-2.319,0.488,73.333,39754.000,1.000
-15.894,-15.926,-15.939,-16.247,-15.819,-16.109,-16.022,-16.128,-0.065,0.862,-0.558,-4.578,-2.228,0.427,73.333,39755.000,1.000
-15.168,-15.236,-15.353,-15.548,-15.190,-15.543,-15.372,-15.332,-0.064,0.861,-0.553,-4.456,-2.106,0.336,73.333,39756.000,1.000
-14.169,-14.259,-14.413,-14.512,-14.304,-14.632,-14.386,-14.243,-0.063,0.860,-0.553,-4.333,-1.923,0.275,73.333,39757.000,1.000
-13.362,-13.454,-13.569,-13.591,-13.586,-13.815,-13.524,-13.355,-0.065,0.857,-0.552,-4.150,-1.770,0.244,73.333,39758.000,1.000
-12.787,-12.862,-12.882,-12.857,-13.040,-13.138,-12.847,-12.702,-0.067,0.856,-0.554,-4.028,-1.617,0.244,73.333,39759.000,1.000
-11.994,-12.033,-11.938,-11.921,-12.203,-12.182,-11.934,-11.811,-0.065,0.858,-0.553,-3.845,-1.495,0.214,73.333,39760.000,1.000
-10.664,-10.641,-10.458,-10.499,-10.765,-10.655,-10.480,-10.354,-0.067,0.857,-0.554,-3.662,-1.434,0.214,73.333,39761.000,1.000
-8.989,-8.876,-8.672,-8.784,-8.951,-8.780,-8.697,-8.547,-0.066,0.857,-0.553,-3.540,-1.221,0.244,73.333,39762.000,1.000
-7.456,-7.234,-7.082,-7.231,-7.285,-7.072,-7.086,-6.907,-0.063,0.857,-0.553,-3.265,-1.160,0.092,73.333,39763.000,1.000
-6.227,-5.913,-5.840,-5.974,-5.954,-5.717,-5.832,-5.630,-0.063,0.858,-0.552,-3.143,-1.068,0.122,73.333,39764.000,1.000
-4.974,-4.630,-4.598,-4.694,-4.641,-4.413,-4.619,-4.403,-0.065,0.855,-0.552,-2.930,-1.007,0.031,73.333,39765.000,1.000
-3.379,-3.090,-3.022,-3.113,-3.035,-2.854,-3.129,-2.893,-0.066,0.854,-0.554,-2.838,-0.824,-0.031,73.333,39766.000,1.000
-1.548,-1.361,-1.202,-1.360,-1.234,-1.132,-1.435,-1.160,-0.066,0.855,-0.555,-2.563,-0.763,-0.061,73.333,39767.000,1.000
0.089,0.194,0.424,0.159,0.351,0.357,0.075,0.398,-0.065,0.852,-0.552,-2.350,-0.671,-0.031,73.333,39768.000,1.000
1.329,1.410,1.630,1.299,1.523,1.437,1.226,1.569,-0.064,0.854,-0.554,-2.045,-0.610,0.031,73.333,39769.000,1.000
2.470,2.576,2.693,2.393,2.568,2.420,2.323,2.625,-0.066,0.855,-0.558,-1.801,-0.488,0.092,73.333,39770.000,1.000
3.846,3.990,3.958,3.772,3.821,3.665,3.707,3.888,-0.067,0.855,-0.558,-1.648,-0.427,0.031,73.333,39771.000,1.000
5.320,5.487,5.332,5.286,5.183,5.070,5.250,5.252,-0.067,0.856,-0.552,-1.373,-0.336,0.092,73.333,39772.000,1.000
6.375,6.531,6.332,6.397,6.178,6.129,6.426,6.246,-0.068,0.856,-0.551,-1.251,-0.336,0.092,73.333,39773.000,1.000
6.770,6.886,6.718,6.826,6.572,6.581,6.954,6.657,-0.068,0.856,-0.552,-1.068,-0.153,0.092,73.333,39774.000,1.000
6.866,6.940,6.847,6.921,6.715,6.750,7.159,6.841,-0.068,0.857,-0.552,-0.885,-0.092,0.183,73.333,39775.000,1.000
7.158,7.209,7.206,7.189,7.081,7.087,7.523,7.259,-0.070,0.859,-0.552,-0.763,-0.061,0.122,73.333,39776.000,1.000
7.726,7.770,7.854,7.726,7.732,7.650,8.116,7.930,-0.073,0.857,-0.552,-0.702,-0.092,0.122,73.333,39777.000,1.000
8.213,8.242,8.410,8.176,8.296,8.095,8.580,8.441,-0.074,0.860,-0.551,-0.610,-0.183,0.092,73.333,39778.000,1.000
8.369,8.365,8.611,8.298,8.515,8.217,8.682,8.529,-0.074,0.860,-0.553,-0.519,-0.153,0.061,73.333,39779.000,1.000
8.387,8.334,8.638,8.292,8.559,8.236,8.647,8.416,-0.073,0.861,-0.552,-0.458,-0.214,0.061,73.333,39780.000,1.000
8.561,8.435,8.770,8.455,8.684,8.433,8.784,8.443,-0.071,0.859,-0.553,-0.366,-0.275,0.092,73.333,39781.000,1.000
8.877,8.663,9.001,8.772,8.873,8.765,9.083,8.663,-0.072,0.860,-0.554,-0.305,-0.305,0.153,73.333,39782.000,1.000
9.059,8.780,9.076,8.949,8.908,8.931,9.245,8.855,-0.070,0.859,-0.556,-0.153,-0.366,0.214,73.333,39783.000,1.000
9.042,8.764,8.956,8.898,8.805,8.871,9.172,8.957,-0.070,0.861,-0.557,-0.061,-0.366,0.275,73.333,39784.000,1.000
9.156,8.953,8.987,8.954,8.940,8.943,9.179,9.240,-0.069,0.860,-0.554,0.153,-0.214,0.305,73.333,39785.000,1.000
9.651,9.568,9.437,9.403,9.546,9.430,9.549,9.873,-0.067,0.861,-0.554,0.305,-0.214,0.397,73.333,39786.000,1.000
10.262,10.301,10.061,10.007,10.289,10.072,10.064,10.534,-0.068,0.862,-0.552,0.153,-0.092,0.366,73.333,39787.000,1.000
10.329,10.448,10.200,10.110,10.438,10.189,10.096,10.561,-0.068,0.860,-0.555,0.153,-0.122,0.366,73.333,39788.000,1.000
