EEG 1,EEG 2,EEG 3,EEG 4,EEG 5,EEG 6,EEG 7,EEG 8,Accelerometer X,Accelerometer Y,Accelerometer Z,Gyroscope X,Gyroscope Y,Gyroscope Z,Battery Level,Counter,Validation Indicator
-5.472,-5.585,-5.497,-5.489,-5.717,-5.863,-5.699,-5.383,-0.094,0.856,-0.556,-0.427,-0.092,0.824,73.333,24265.000,1.000
-4.616,-4.650,-4.571,-4.523,-4.720,-4.875,-4.768,-4.463,-0.093,0.859,-0.555,-0.488,0.061,0.793,73.333,24266.000,1.000
-3.334,-3.279,-3.255,-3.189,-3.309,-3.417,-3.453,-3.159,-0.093,0.860,-0.552,-0.519,0.092,0.916,73.333,24267.000,1.000
-1.952,-1.824,-1.901,-1.805,-1.850,-1.860,-2.088,-1.796,-0.097,0.861,-0.552,-0.580,0.153,0.854,73.333,24268.000,1.000
-0.648,-0.509,-0.683,-0.542,-0.547,-0.442,-0.829,-0.540,-0.101,0.861,-0.552,-0.488,0.122,0.793,73.333,24269.000,1.000
0.643,0.707,0.488,0.660,0.660,0.843,0.418,0.683,-0.105,0.860,-0.555,-0.763,0.092,0.763,73.333,24270.000,1.000
2.028,1.958,1.753,1.909,1.914,2.101,1.775,1.995,-0.109,0.859,-0.557,-0.702,-0.153,0.610,73.333,24271.000,1.000
3.459,3.265,3.089,3.193,3.225,3.356,3.195,3.361,-0.113,0.859,-0.555,-0.671,-0.275,0.488,73.333,24272.000,1.000
4.720,4.464,4.289,4.351,4.418,4.493,4.465,4.571,-0.115,0.861,-0.558,-0.763,-0.549,0.336,73.333,24273.000,1.000
5.340,5.092,4.890,4.945,5.030,5.100,5.123,5.160,-0.114,0.860,-0.556,-0.702,-0.946,0.153,73.333,24274.000,1.000
4.786,4.592,4.373,4.445,4.514,4.639,4.641,4.607,-0.115,0.859,-0.556,-0.702,-1.221,0.061,73.333,24275.000,1.000
2.921,2.798,2.618,2.704,2.713,2.929,2.883,2.802,-0.112,0.861,-0.556,-0.793,-1.404,-0.061,73.333,24276.000,1.000
0.302,0.249,0.159,0.245,0.160,0.459,0.383,0.293,-0.110,0.860,-0.558,-0.824,-1.556,-0.183,73.333,24277.000,1.000
-2.000,-2.000,-1.991,-1.917,-2.088,-1.755,-1.831,-1.903,-0.109,0.864,-0.554,-0.916,-1.678,-0.214,73.333,24278.000,1.000
-3.066,-3.030,-2.947,-2.891,-3.080,-2.804,-2.864,-2.911,-0.106,0.865,-0.553,-1.068,-1.953,-0.244,73.333,24279.000,1.000
-2.631,-2.572,-2.446,-2.410,-2.512,-2.401,-2.443,-2.473,-0.104,0.866,-0.555,-1.068,-1.923,-0.214,73.333,24280.000,1.000
-1.159,-1.074,-0.945,-0.929,-0.860,-0.993,-1.002,-1.049,-0.101,0.864,-0.553,-1.068,-2.106,-0.244,73.333,24281.000,1.000
0.511,0.635,0.732,0.729,0.975,0.592,0.657,0.542,-0.099,0.862,-0.553,-1.190,-2.014,-0.183,73.333,24282.000,1.000
1.716,1.886,1.938,1.913,2.261,1.709,1.879,1.670,-0.099,0.862,-0.554,-1.343,-1.923,0.031,73.333,24283.000,1.000
2.160,2.357,2.388,2.327,2.671,2.087,2.344,2.066,-0.096,0.862,-0.555,-1.129,-1.831,0.183,73.333,24284.000,1.000
1.883,2.053,2.112,1.992,2.259,1.769,2.050,1.757,-0.097,0.862,-0.555,-1.221,-1.709,0.214,73.333,24285.000,1.000
1.113,1.184,1.320,1.127,1.297,0.971,1.218,0.948,-0.095,0.861,-0.554,-1.190,-1.526,0.397,73.333,24286.000,1.000
0.151,0.068,0.313,0.051,0.149,-0.022,0.179,-0.060,-0.096,0.861,-0.554,-1.251,-1.495,0.549,73.333,24287.000,1.000
-0.656,-0.891,-0.542,-0.845,-0.783,-0.869,-0.682,-0.894,-0.098,0.859,-0.551,-1.373,-1.312,0.732,73.333,24288.000,1.000
-1.104,-1.418,-1.016,-1.312,-1.263,-1.350,-1.148,-1.316,-0.098,0.861,-0.552,-1.465,-1.312,0.854,73.333,24289.000,1.000
-1.221,-1.494,-1.128,-1.351,-1.318,-1.456,-1.248,-1.335,-0.099,0.859,-0.552,-1.404,-1.129,0.854,73.333,24290.000,1.000
-1.164,-1.288,-1.036,-1.123,-1.131,-1.311,-1.143,-1.108,-0.099,0.860,-0.554,-1.404,-1.099,0.854,73.333,24291.000,1.000
-1.042,-0.957,-0.840,-0.777,-0.847,-1.032,-0.947,-0.774,-0.099,0.859,-0.552,-1.373,-1.007,0.885,73.333,24292.000,1.000
-0.809,-0.512,-0.501,-0.335,-0.454,-0.628,-0.628,-0.346,-0.097,0.859,-0.551,-1.465,-0.885,1.007,73.333,24293.000,1.000
-0.424,0.037,-0.020,0.181,0.061,-0.126,-0.155,0.159,-0.097,0.859,-0.551,-1.465,-0.854,0.793,73.333,24294.000,1.000
0.094,0.630,0.524,0.724,0.645,0.418,0.431,0.696,-0.095,0.858,-0.554,-1.495,-0.671,0.793,73.333,24295.000,1.000
0.727,1.231,1.081,1.277,1.256,0.991,1.079,1.251,-0.095,0.858,-0.550,-1.495,-0.610,0.732,73.333,24296.000,1.000
1.514,1.904,1.706,1.910,1.940,1.674,1.814,1.898,-0.094,0.857,-0.553,-1.587,-0.366,0.793,73.333,24297.000,1.000
2.584,2.824,2.568,2.796,2.851,2.644,2.790,2.812,-0.091,0.857,-0.553,-1.526,-0.244,0.732,73.333,24298.000,1.000
3.932,4.028,3.705,3.973,4.027,3.934,4.051,4.028,-0.091,0.857,-0.555,-1.465,-0.092,0.763,73.333,24299.000,1.000
5.334,5.325,4.945,5.250,5.292,5.340,5.411,5.343,-0.091,0.857,-0.556,-1.404,0.122,0.732,73.333,24300.000,1.000
6.492,6.435,6.034,6.343,6.388,6.552,6.581,6.462,-0.091,0.858,-0.552,-1.404,0.366,0.641,73.333,24301.000,1.000
7.235,7.172,6.810,7.071,7.148,7.360,7.360,7.193,-0.089,0.857,-0.554,-1.465,0.549,0.641,73.333,24302.000,1.000
7.613,7.556,7.290,7.459,7.581,7.784,7.759,7.562,-0.090,0.855,-0.555,-1.434,0.732,0.519,73.333,24303.000,1.000
7.742,7.664,7.536,7.599,7.748,7.923,7.876,7.658,-0.090,0.855,-0.553,-1.312,0.946,0.610,73.333,24304.000,1.000
7.691,7.550,7.577,7.554,7.680,7.851,7.785,7.541,-0.089,0.857,-0.553,-1.312,1.221,0.519,73.333,24305.000,1.000
7.440,7.221,7.383,7.308,7.362,7.570,7.481,7.207,-0.091,0.857,-0.553,-1.282,1.312,0.580,73.333,24306.000,1.000
6.908,6.652,6.883,6.800,6.750,7.017,6.898,6.611,-0.089,0.854,-0.552,-1.251,1.465,0.458,73.333,24307.000,1.000
6.154,5.936,6.149,6.105,5.942,6.246,6.108,5.842,-0.091,0.856,-0.553,-1.251,1.678,0.336,73.333,24308.000,1.000
5.394,5.294,5.409,5.452,5.183,5.464,5.333,5.130,-0.094,0.857,-0.552,-1.129,1.740,0.275,73.333,24309.000,1.000
4.886,4.946,4.930,5.089,4.739,4.933,4.829,4.722,-0.096,0.861,-0.552,-1.129,1.892,0.244,73.333,24310.000,1.000
4.782,4.976,4.851,5.114,4.727,4.810,4.734,4.720,-0.099,0.858,-0.549,-1.160,1.892,0.183,73.333,24311.000,1.000
5.080,5.331,5.138,5.457,5.098,5.090,5.035,5.069,-0.099,0.860,-0.551,-1.160,1.831,0.031,73.333,24312.000,1.000
5.719,5.948,5.721,6.031,5.767,5.717,5.670,5.697,-0.101,0.859,-0.550,-1.129,1.831,-0.061,73.333,24313.000,1.000
6.503,6.670,6.433,6.671,6.537,6.502,6.459,6.445,-0.100,0.857,-0.553,-0.977,1.831,-0.122,73.333,24314.000,1.000
7.143,7.253,7.034,7.154,7.140,7.167,7.145,7.071,-0.102,0.858,-0.553,-1.007,1.678,-0.183,73.333,24315.000,1.000
7.467,7.545,7.371,7.358,7.430,7.529,7.567,7.409,-0.104,0.858,-0.551,-0.946,1.556,-0.153,73.333,24316.000,1.000
7.497,7.564,7.445,7.326,7.443,7.588,7.714,7.451,-0.104,0.859,-0.551,-0.824,1.495,-0.214,73.333,24317.000,1.000
7.374,7.440,7.367,7.198,7.320,7.462,7.675,7.312,-0.103,0.860,-0.551,-0.916,1.373,-0.153,73.333,24318.000,1.000
7.175,7.230,7.198,7.036,7.121,7.222,7.487,7.061,-0.103,0.859,-0.552,-0.793,1.251,-0.122,73.333,24319.000,1.000
6.891,6.917,6.932,6.806,6.832,6.878,7.133,6.703,-0.103,0.860,-0.554,-0.793,1.160,-0.183,73.333,24320.000,1.000
6.447,6.444,6.513,6.413,6.389,6.396,6.588,6.190,-0.103,0.860,-0.553,-0.763,0.946,-0.061,73.333,24321.000,1.000
5.722,5.712,5.836,5.734,5.690,5.683,5.802,5.431,-0.101,0.863,-0.551,-0.732,0.732,0.031,73.333,24322.000,1.000
4.716,4.736,4.902,4.776,4.734,4.741,4.818,4.443,-0.102,0.862,-0.556,-0.702,0.641,0.031,73.333,24323.000,1.000
3.548,3.629,3.802,3.650,3.612,3.656,3.728,3.329,-0.102,0.863,-0.553,-0.671,0.580,0.214,73.333,24324.000,1.000
2.338,2.476,2.591,2.444,2.411,2.492,2.579,2.166,-0.103,0.864,-0.552,-0.763,0.458,0.305,73.333,24325.000,1.000
1.083,1.243,1.235,1.135,1.124,1.219,1.313,0.917,-0.106,0.865,-0.555,-0.824,0.305,0.366,73.333,24326.000,1.000
-0.322,-0.190,-0.343,-0.367,-0.334,-0.259,-0.181,-0.531,-0.105,0.864,-0.555,-0.793,0.183,0.336,73.333,24327.000,1.000
-1.910,-1.836,-2.094,-2.055,-1.973,-1.938,-1.898,-2.188,-0.104,0.861,-0.551,-0.732,-0.031,0.366,73.333,24328.000,1.000
-3.558,-3.550,-3.824,-3.775,-3.667,-3.670,-3.666,-3.899,-0.104,0.862,-0.551,-0.671,-0.183,0.458,73.333,24329.000,1.000
-4.998,-5.036,-5.245,-5.255,-5.150,-5.174,-5.174,-5.362,-0.102,0.859,-0.551,-0.763,-0.397,0.519,73.333,24330.000,1.000
-5.979,-6.030,-6.140,-6.256,-6.170,-6.190,-6.158,-6.300,-0.103,0.856,-0.556,-0.732,-0.610,0.519,73.333,24331.000,1.000
-6.465,-6.502,-6.533,-6.744,-6.680,-6.669,-6.595,-6.682,-0.100,0.858,-0.553,-0.702,-0.610,0.671,73.333,24332.000,1.000
-6.586,-6.616,-6.609,-6.848,-6.811,-6.742,-6.643,-6.682,-0.098,0.858,-0.554,-0.793,-0.824,0.763,73.333,24333.000,1.000
-6.590,-6.643,-6.628,-6.812,-6.814,-6.675,-6.565,-6.592,-0.095,0.857,-0.552,-0.793,-0.854,0.854,73.333,24334.000,1.000
-6.708,-6.811,-6.784,-6.875,-6.927,-6.724,-6.602,-6.658,-0.094,0.858,-0.552,-0.641,-0.732,0.824,73.333,24335.000,1.000
-7.019,-7.168,-7.114,-7.122,-7.230,-6.988,-6.852,-6.948,-0.093,0.856,-0.552,-0.519,-0.793,1.007,73.333,24336.000,1.000
-7.395,-7.570,-7.479,-7.452,-7.602,-7.364,-7.226,-7.329,-0.095,0.854,-0.551,-0.458,-0.824,0.916,73.333,24337.000,1.000
-7.572,-7.756,-7.630,-7.637,-7.781,-7.601,-7.479,-7.542,-0.098,0.853,-0.554,-0.610,-0.824,0.854,73.333,24338.000,1.000
-7.482,-7.665,-7.509,-7.615,-7.687,-7.612,-7.505,-7.508,-0.101,0.856,-0.553,-0.519,-0.946,0.824,73.333,24339.000,1.000
-7.375,-7.541,-7.383,-7.594,-7.553,-7.606,-7.488,-7.446,-0.105,0.855,-0.555,-0.458,-1.099,0.641,73.333,24340.000,1.000
-7.617,-7.749,-7.640,-7.894,-7.741,-7.909,-7.762,-7.706,-0.109,0.853,-0.554,-0.488,-1.221,0.580,73.333,24341.000,1.000
-8.402,-8.500,-8.471,-8.694,-8.460,-8.699,-8.529,-8.482,-0.107,0.855,-0.555,-0.427,-1.251,0.336,73.333,24342.000,1.000
-9.493,-9.582,-9.603,-9.761,-9.492,-9.746,-9.577,-9.543,-0.102,0.856,-0.555,-0.336,-1.434,0.214,73.333,24343.000,1.000
-10.351,-10.459,-10.459,-10.556,-10.309,-10.539,-10.384,-10.349,-0.101,0.857,-0.555,-0.397,-1.465,0.183,73.333,24344.000,1.000
-10.496,-10.627,-10.539,-10.589,-10.424,-10.628,-10.487,-10.418,-0.096,0.857,-0.552,-0.427,-1.556,0.183,73.333,24345.000,1.000
-9.814,-9.948,-9.751,-9.760,-9.721,-9.920,-9.794,-9.650,-0.095,0.858,-0.556,-0.427,-1.556,0.183,73.333,24346.000,1.000
-8.617,-8.713,-8.452,-8.417,-8.502,-8.717,-8.624,-8.370,-0.094,0.859,-0.554,-0.549,-1.587,0.183,73.333,24347.000,1.000
-7.349,-7.357,-7.124,-7.043,-7.205,-7.428,-7.396,-7.017,-0.093,0.859,-0.552,-0.519,-1.373,0.000,73.333,24348.000,1.000
-6.411,-6.302,-6.172,-6.054,-6.234,-6.427,-6.475,-5.982,-0.092,0.858,-0.554,-0.702,-1.282,-0.061,73.333,24349.000,1.000
-6.090,-5.888,-5.874,-5.733,-5.894,-6.018,-6.132,-5.573,-0.093,0.858,-0.557,-0.763,-1.129,-0.092,73.333,24350.000,1.000
-6.514,-6.300,-6.341,-6.204,-6.330,-6.386,-6.519,-5.967,-0.093,0.859,-0.561,-0.732,-1.007,-0.153,73.333,24351.000,1.000
-7.546,-7.413,-7.414,-7.331,-7.407,-7.438,-7.543,-7.067,-0.094,0.860,-0.555,-0.763,-1.068,-0.031,73.333,24352.000,1.000
-8.680,-8.671,-8.567,-8.583,-8.596,-8.646,-8.720,-8.349,-0.097,0.860,-0.556,-0.763,-1.068,-0.031,73.333,24353.000,1.000
-9.307,-9.405,-9.206,-9.313,-9.261,-9.339,-9.450,-9.159,-0.097,0.862,-0.557,-0.763,-1.038,0.000,73.333,24354.000,1.000
-9.102,-9.255,-9.037,-9.171,-9.065,-9.140,-9.384,-9.118,-0.098,0.863,-0.553,-0.793,-0.977,0.092,73.333,24355.000,1.000
-8.169,-8.324,-8.172,-8.262,-8.112,-8.163,-8.573,-8.280,-0.098,0.862,-0.555,-0.885,-0.946,0.122,73.333,24356.000,1.000
-6.916,-7.027,-6.999,-6.995,-6.811,-6.849,-7.360,-7.020,-0.098,0.862,-0.552,-0.977,-0.854,0.092,73.333,24357.000,1.000
-5.698,-5.744,-5.848,-5.732,-5.528,-5.573,-6.080,-5.714,-0.098,0.860,-0.553,-1.099,-0.793,0.092,73.333,24358.000,1.000
-4.698,-4.682,-4.883,-4.673,-4.467,-4.520,-4.955,-4.607,-0.098,0.858,-0.552,-0.946,-0.793,0.183,73.333,24359.000,1.000
-3.942,-3.888,-4.119,-3.867,-3.685,-3.724,-4.075,-3.772,-0.098,0.856,-0.556,-1.129,-0.793,0.214,73.333,24360.000,1.000
-3.380,-3.323,-3.516,-3.283,-3.156,-3.145,-3.434,-3.159,-0.100,0.854,-0.558,-0.977,-0.763,0.305,73.333,24361.000,1.000
-2.942,-2.918,-3.031,-2.858,-2.808,-2.721,-2.980,-2.686,-0.099,0.856,-0.558,-0.977,-0.824,0.305,73.333,24362.000,1.000
-2.458,-2.485,-2.516,-2.416,-2.439,-2.286,-2.526,-2.189,-0.099,0.855,-0.558,-0.885,-0.793,0.305,73.333,24363.000,1.000
-1.788,-1.855,-1.828,-1.796,-1.865,-1.697,-1.894,-1.545,-0.098,0.857,-0.556,-0.854,-0.702,0.336,73.333,24364.000,1.000
-0.990,-1.063,-0.993,-1.023,-1.112,-0.998,-1.103,-0.810,-0.098,0.857,-0.555,-0.824,-0.732,0.458,73.333,24365.000,1.000
-0.279,-0.319,-0.192,-0.283,-0.395,-0.372,-0.357,-0.181,-0.099,0.858,-0.555,-0.793,-0.732,0.397,73.333,24366.000,1.000
0.180,0.188,0.381,0.255,0.088,0.034,0.142,0.190,-0.099,0.860,-0.555,-0.885,-0.732,0.488,73.333,24367.000,1.000
0.484,0.523,0.740,0.641,0.396,0.313,0.440,0.407,-0.100,0.861,-0.554,-0.977,-0.671,0.580,73.333,24368.000,1.000
0.872,0.897,1.056,1.052,0.749,0.678,0.761,0.710,-0.102,0.861,-0.552,-1.007,-0.732,0.580,73.333,24369.000,1.000
1.484,1.448,1.474,1.591,1.294,1.262,1.281,1.242,-0.099,0.860,-0.558,-1.068,-0.732,0.519,73.333,24370.000,1.000
2.242,2.125,1.992,2.203,1.978,2.010,1.980,1.940,-0.098,0.860,-0.557,-1.099,-0.732,0.519,73.333,24371.000,1.000
2.924,2.738,2.481,2.720,2.600,2.709,2.665,2.597,-0.098,0.862,-0.557,-1.160,-0.824,0.549,73.333,24372.000,1.000
3.412,3.195,2.889,3.091,3.053,3.232,3.204,3.097,-0.097,0.862,-0.554,-1.312,-0.763,0.519,73.333,24373.000,1.000
3.746,3.537,3.263,3.384,3.375,3.599,3.587,3.463,-0.095,0.863,-0.556,-1.373,-0.824,0.427,73.333,24374.000,1.000
4.008,3.835,3.642,3.667,3.642,3.880,3.855,3.759,-0.093,0.860,-0.555,-1.373,-0.732,0.458,73.333,24375.000,1.000
4.204,4.077,3.970,3.919,3.849,4.088,4.009,3.982,-0.095,0.858,-0.555,-1.465,-0.641,0.488,73.333,24376.000,1.000
4.242,4.150,4.106,4.026,3.895,4.148,3.990,4.046,-0.097,0.854,-0.555,-1.373,-0.610,0.427,73.333,24377.000,1.000
4.109,4.027,4.024,3.957,3.781,4.069,3.835,3.952,-0.100,0.854,-0.558,-1.251,-0.549,0.488,73.333,24378.000,1.000
3.909,3.825,3.856,3.810,3.656,3.981,3.692,3.823,-0.101,0.854,-0.556,-1.221,-0.519,0.427,73.333,24379.000,1.000
3.855,3.783,3.868,3.804,3.760,4.100,3.783,3.881,-0.099,0.851,-0.556,-1.129,-0.549,0.427,73.333,24380.000,1.000
4.189,4.158,4.325,4.189,4.293,4.626,4.303,4.351,-0.103,0.852,-0.553,-1.160,-0.641,0.305,73.333,24381.000,1.000
5.034,5.047,5.310,5.079,5.274,5.584,5.285,5.313,-0.103,0.854,-0.553,-1.007,-0.702,0.275,73.333,24382.000,1.000
6.329,6.368,6.701,6.402,6.585,6.843,6.606,6.663,-0.105,0.853,-0.550,-0.885,-0.732,0.214,73.333,24383.000,1.000
7.730,7.778,8.127,7.800,7.905,8.063,7.919,8.030,-0.103,0.853,-0.554,-0.793,-0.763,0.153,73.333,24384.000,1.000
8.770,8.807,9.125,8.796,8.834,8.840,8.800,8.945,-0.101,0.853,-0.556,-0.732,-0.854,0.153,73.333,24385.000,1.000
9.241,9.233,9.519,9.196,9.225,9.051,9.112,9.237,-0.101,0.854,-0.555,-0.671,-0.885,0.092,73.333,24386.000,1.000
9.310,9.214,9.522,9.195,9.270,8.940,9.097,9.134,-0.102,0.855,-0.555,-0.610,-0.854,0.061,73.333,24387.000,1.000
9.299,9.108,9.493,9.138,9.278,8.883,9.118,9.014,-0.103,0.856,-0.554,-0.610,-0.916,0.092,73.333,24388.000,1.000
9.289,9.055,9.494,9.106,9.290,8.964,9.224,8.983,-0.101,0.858,-0.554,-0.610,-1.007,0.183,73.333,24389.000,1.000
9.042,8.840,9.221,8.837,9.021,8.881,9.082,8.776,-0.103,0.859,-0.555,-0.580,-0.946,0.092,73.333,24390.000,1.000
8.234,8.105,8.303,7.994,8.139,8.223,8.301,8.024,-0.102,0.864,-0.554,-0.580,-1.129,0.031,73.333,24391.000,1.000
6.707,6.639,6.598,6.426,6.540,6.772,6.727,6.542,-0.102,0.864,-0.551,-0.732,-1.129,0.061,73.333,24392.000,1.000
4.647,4.595,4.348,4.335,4.471,4.714,4.596,4.516,-0.103,0.862,-0.552,-0.793,-1.190,0.061,73.333,24393.000,1.000
2.406,2.337,1.974,2.092,2.306,2.444,2.315,2.317,-0.105,0.865,-0.550,-0.916,-1.221,0.031,73.333,24394.000,1.000
0.301,0.231,-0.153,0.036,0.351,0.330,0.236,0.287,-0.104,0.865,-0.551,-1.007,-1.343,0.061,73.333,24395.000,1.000
-1.388,-1.404,-1.741,-1.538,-1.149,-1.331,-1.350,-1.291,-0.106,0.865,-0.553,-1.038,-1.373,0.122,73.333,24396.000,1.000
-2.404,-2.312,-2.572,-2.377,-1.984,-2.301,-2.208,-2.176,-0.104,0.865,-0.554,-1.160,-1.434,0.122,73.333,24397.000,1.000
-2.488,-2.285,-2.485,-2.265,-1.961,-2.373,-2.143,-2.155,-0.104,0.865,-0.552,-1.251,-1.434,0.122,73.333,24398.000,1.000
-1.632,-1.366,-1.557,-1.246,-1.120,-1.565,-1.201,-1.261,-0.101,0.866,-0.549,-1.343,-1.434,0.122,73.333,24399.000,1.000
-0.223,0.047,-0.194,0.271,0.169,-0.231,0.221,0.114,-0.102,0.866,-0.551,-1.495,-1.404,0.183,73.333,24400.000,1.000
1.156,1.408,1.073,1.712,1.398,1.122,1.562,1.409,-0.100,0.863,-0.554,-1.556,-1.465,0.214,73.333,24401.000,1.000
2.042,2.291,1.855,2.624,2.180,2.076,2.379,2.206,-0.100,0.861,-0.555,-1.648,-1.434,0.244,73.333,24402.000,1.000
2.343,2.607,2.119,2.915,2.452,2.518,2.602,2.470,-0.101,0.861,-0.555,-1.740,-1.373,0.336,73.333,24403.000,1.000
2.232,2.498,2.078,2.772,2.373,2.548,2.435,2.417,-0.101,0.859,-0.553,-1.709,-1.373,0.244,73.333,24404.000,1.000
1.958,2.195,1.968,2.461,2.163,2.339,2.141,2.274,-0.104,0.856,-0.550,-1.648,-1.282,0.275,73.333,24405.000,1.000
1.702,1.895,1.899,2.161,1.964,2.043,1.887,2.143,-0.104,0.855,-0.554,-1.587,-1.312,0.397,73.333,24406.000,1.000
1.451,1.618,1.780,1.850,1.743,1.681,1.628,1.931,-0.104,0.856,-0.554,-1.526,-1.190,0.488,73.333,24407.000,1.000
1.141,1.306,1.525,1.474,1.441,1.256,1.276,1.555,-0.103,0.855,-0.552,-1.526,-1.312,0.427,73.333,24408.000,1.000
0.795,0.964,1.179,1.077,1.097,0.836,0.858,1.080,-0.101,0.856,-0.555,-1.343,-1.373,0.641,73.333,24409.000,1.000
0.550,0.700,0.911,0.805,0.839,0.556,0.540,0.693,-0.100,0.857,-0.555,-1.190,-1.343,0.641,73.333,24410.000,1.000
0.540,0.639,0.870,0.776,0.777,0.535,0.487,0.561,-0.099,0.858,-0.556,-1.282,-1.251,0.580,73.333,24411.000,1.000
0.737,0.785,1.042,0.952,0.882,0.745,0.690,0.673,-0.098,0.860,-0.555,-1.251,-1.251,0.641,73.333,24412.000,1.000
1.054,1.088,1.330,1.238,1.095,1.087,1.058,0.945,-0.099,0.858,-0.555,-1.312,-1.068,0.641,73.333,24413.000,1.000
1.401,1.448,1.609,1.534,1.349,1.435,1.459,1.269,-0.098,0.860,-0.552,-1.343,-1.038,0.610,73.333,24414.000,1.000
1.681,1.723,1.767,1.749,1.561,1.679,1.741,1.529,-0.100,0.863,-0.552,-1.404,-0.885,0.702,73.333,24415.000,1.000
1.806,1.799,1.758,1.820,1.647,1.759,1.812,1.641,-0.100,0.861,-0.553,-1.343,-0.885,0.641,73.333,24416.000,1.000
1.701,1.622,1.577,1.688,1.538,1.648,1.649,1.539,-0.099,0.859,-0.554,-1.373,-0.793,0.580,73.333,24417.000,1.000
1.443,1.306,1.329,1.412,1.308,1.434,1.387,1.289,-0.100,0.860,-0.550,-1.434,-0.885,0.641,73.333,24418.000,1.000
1.205,1.055,1.173,1.152,1.117,1.261,1.211,1.052,-0.098,0.858,-0.551,-1.404,-0.732,0.549,73.333,24419.000,1.000
1.138,1.016,1.205,1.057,1.086,1.223,1.231,0.981,-0.097,0.859,-0.551,-1.373,-0.763,0.610,73.333,24420.000,1.000
1.320,1.247,1.446,1.206,1.270,1.360,1.467,1.158,-0.098,0.858,-0.552,-1.404,-0.671,0.519,73.333,24421.000,1.000
1.732,1.690,1.841,1.581,1.647,1.668,1.856,1.563,-0.097,0.859,-0.551,-1.312,-0.580,0.488,73.333,24422.000,1.000
2.348,2.295,2.368,2.174,2.210,2.190,2.367,2.176,-0.096,0.858,-0.550,-1.343,-0.549,0.488,73.333,24423.000,1.000
3.141,3.038,3.023,2.962,2.953,2.953,3.003,2.966,-0.097,0.858,-0.551,-1.434,-0.519,0.366,73.333,24424.000,1.000
4.058,3.896,3.785,3.876,3.837,3.898,3.769,3.866,-0.099,0.858,-0.553,-1.495,-0.519,0.366,73.333,24425.000,1.000
4.992,4.801,4.600,4.802,4.774,4.874,4.626,4.769,-0.100,0.856,-0.552,-1.434,-0.519,0.427,73.333,24426.000,1.000
5.788,5.624,5.378,5.599,5.623,5.684,5.457,5.548,-0.100,0.856,-0.551,-1.434,-0.397,0.458,73.333,24427.000,1.000
6.442,6.346,6.126,6.265,6.357,6.298,6.233,6.210,-0.101,0.859,-0.553,-1.373,-0.336,0.336,73.333,24428.000,1.000
7.069,7.042,6.902,6.884,7.042,6.832,6.989,6.853,-0.101,0.858,-0.551,-1.373,-0.336,0.336,73.333,24429.000,1.000
7.689,7.689,7.643,7.456,7.676,7.338,7.676,7.481,-0.099,0.858,-0.554,-1.282,-0.336,0.305,73.333,24430.000,1.000
8.131,8.107,8.142,7.838,8.123,7.704,8.120,7.942,-0.097,0.858,-0.555,-1.373,-0.366,0.305,73.333,24431.000,1.000
8.156,8.079,8.178,7.839,8.177,7.732,8.124,8.012,-0.096,0.857,-0.556,-1.373,-0.427,0.305,73.333,24432.000,1.000
7.737,7.624,7.790,7.468,7.817,7.395,7.723,7.663,-0.097,0.855,-0.555,-1.465,-0.366,0.458,73.333,24433.000,1.000
7.067,6.977,7.230,6.909,7.212,6.850,7.140,7.062,-0.098,0.853,-0.557,-1.312,-0.427,0.397,73.333,24434.000,1.000
6.348,6.341,6.692,6.320,6.540,6.257,6.554,6.388,-0.099,0.854,-0.554,-1.312,-0.305,0.366,73.333,24435.000,1.000
5.632,5.715,6.148,5.704,5.842,5.638,5.957,5.693,-0.098,0.854,-0.553,-1.251,-0.397,0.336,73.333,24436.000,1.000
4.795,4.911,5.386,4.922,4.988,4.850,5.174,4.867,-0.099,0.854,-0.556,-1.190,-0.366,0.427,73.333,24437.000,1.000
3.784,3.850,4.319,3.929,3.921,3.835,4.135,3.856,-0.098,0.856,-0.556,-1.099,-0.275,0.519,73.333,24438.000,1.000
2.722,2.677,3.111,2.858,2.774,2.741,2.985,2.772,-0.098,0.858,-0.556,-0.977,-0.244,0.549,73.333,24439.000,1.000
1.829,1.663,2.055,1.929,1.790,1.825,1.972,1.823,-0.098,0.860,-0.556,-0.916,-0.183,0.519,73.333,24440.000,1.000
1.259,1.030,1.374,1.294,1.146,1.277,1.283,1.181,-0.101,0.861,-0.556,-0.946,-0.183,0.549,73.333,24441.000,1.000
0.982,0.796,1.063,0.939,0.838,1.065,0.924,0.856,-0.101,0.862,-0.554,-1.038,-0.214,0.702,73.333,24442.000,1.000
0.913,0.869,1.027,0.816,0.809,1.076,0.846,0.799,-0.104,0.862,-0.551,-1.190,-0.183,0.824,73.333,24443.000,1.000
0.963,1.114,1.157,0.887,0.988,1.204,0.978,0.944,-0.104,0.864,-0.550,-1.404,-0.153,0.885,73.333,24444.000,1.000
1.026,1.357,1.308,1.040,1.231,1.340,1.185,1.167,-0.107,0.865,-0.549,-1.312,-0.275,0.946,73.333,24445.000,1.000
0.980,1.422,1.308,1.095,1.338,1.360,1.265,1.281,-0.107,0.866,-0.549,-1.465,-0.305,1.007,73.333,24446.000,1.000
0.723,1.174,1.010,0.872,1.129,1.142,1.026,1.099,-0.104,0.867,-0.550,-1.587,-0.427,1.068,73.333,24447.000,1.000
0.317,0.662,0.461,0.387,0.630,0.717,0.490,0.637,-0.107,0.867,-0.554,-1.740,-0.549,0.946,73.333,24448.000,1.000
-0.070,0.083,-0.141,-0.177,0.023,0.230,-0.127,0.089,-0.106,0.870,-0.552,-1.831,-0.519,0.916,73.333,24449.000,1.000
-0.319,-0.375,-0.609,-0.633,-0.505,-0.198,-0.602,-0.362,-0.105,0.868,-0.552,-1.953,-0.580,1.038,73.333,24450.000,1.000
-0.427,-0.630,-0.875,-0.900,-0.859,-0.521,-0.841,-0.653,-0.103,0.866,-0.549,-2.167,-0.610,0.946,73.333,24451.000,1.000
-0.543,-0.780,-1.046,-1.079,-1.111,-0.815,-0.973,-0.888,-0.101,0.866,-0.550,-2.319,-0.549,0.824,73.333,24452.000,1.000
-0.791,-0.945,-1.246,-1.280,-1.351,-1.133,-1.154,-1.160,-0.100,0.863,-0.549,-2.472,-0.488,0.793,73.333,24453.000,1.000
-1.176,-1.178,-1.505,-1.527,-1.603,-1.457,-1.429,-1.470,-0.097,0.861,-0.548,-2.625,-0.458,0.763,73.333,24454.000,1.000
-1.609,-1.483,-1.777,-1.780,-1.844,-1.740,-1.742,-1.769,-0.096,0.860,-0.552,-2.747,-0.427,0.610,73.333,24455.000,1.000
-1.995,-1.845,-2.023,-2.014,-2.058,-1.968,-2.023,-2.025,-0.096,0.855,-0.557,-2.655,-0.336,0.549,73.333,24456.000,1.000
-2.330,-2.272,-2.284,-2.266,-2.295,-2.195,-2.277,-2.278,-0.096,0.854,-0.553,-2.502,-0.336,0.580,73.333,24457.000,1.000
-2.627,-2.708,-2.576,-2.534,-2.565,-2.442,-2.513,-2.550,-0.096,0.854,-0.551,-2.380,-0.214,0.519,73.333,24458.000,1.000
-2.900,-3.067,-2.878,-2.790,-2.852,-2.708,-2.742,-2.828,-0.094,0.855,-0.555,-2.289,-0.244,0.427,73.333,24459.000,1.000
-3.173,-3.306,-3.178,-3.039,-3.156,-2.997,-3.000,-3.101,-0.097,0.856,-0.549,-2.197,-0.244,0.305,73.333,24460.000,1.000
-3.455,-3.456,-3.482,-3.305,-3.487,-3.320,-3.309,-3.367,-0.098,0.857,-0.546,-2.136,-0.061,0.214,73.333,24461.000,1.000
-3.809,-3.661,-3.875,-3.686,-3.904,-3.755,-3.733,-3.703,-0.096,0.858,-0.544,-2.167,-0.092,0.153,73.333,24462.000,1.000
-4.276,-4.044,-4.417,-4.239,-4.433,-4.344,-4.300,-4.171,-0.098,0.858,-0.545,-2.136,-0.031,0.031,73.333,24463.000,1.000
-4.853,-4.628,-5.083,-4.935,-5.043,-5.036,-4.974,-4.771,-0.099,0.859,-0.549,-2.045,0.122,-0.031,73.333,24464.000,1.000
-5.529,-5.370,-5.822,-5.709,-5.696,-5.757,-5.707,-5.475,-0.099,0.860,-0.548,-1.984,0.061,-0.092,73.333,24465.000,1.000
-6.318,-6.238,-6.625,-6.533,-6.408,-6.509,-6.488,-6.285,-0.102,0.859,-0.548,-1.953,0.092,-0.214,73.333,24466.000,1.000
-7.257,-7.245,-7.534,-7.439,-7.260,-7.385,-7.351,-7.238,-0.105,0.859,-0.551,-1.801,0.092,-0.153,73.333,24467.000,1.000
-8.256,-8.300,-8.480,-8.357,-8.222,-8.365,-8.233,-8.253,-0.106,0.860,-0.550,-1.740,0.031,-0.031,73.333,24468.000,1.000
-9.170,-9.265,-9.349,-9.164,-9.180,-9.326,-9.041,-9.184,-0.105,0.860,-0.548,-1.709,-0.153,-0.153,73.333,24469.000,1.000
-9.958,-10.099,-10.116,-9.835,-10.065,-10.195,-9.772,-9.977,-0.105,0.859,-0.548,-1.526,-0.153,-0.153,73.333,24470.000,1.000
-10.633,-10.800,-10.792,-10.409,-10.835,-10.930,-10.456,-10.633,-0.106,0.861,-0.546,-1.526,-0.122,-0.122,73.333,24471.000,1.000
-11.191,-11.342,-11.357,-10.923,-11.437,-11.481,-11.085,-11.145,-0.105,0.861,-0.544,-1.465,-0.244,-0.061,73.333,24472.000,1.000
-11.515,-11.600,-11.680,-11.292,-11.737,-11.717,-11.520,-11.417,-0.105,0.862,-0.544,-1.495,-0.305,0.000,73.333,24473.000,1.000
-11.457,-11.453,-11.598,-11.352,-11.597,-11.522,-11.580,-11.336,-0.104,0.863,-0.542,-1.434,-0.397,0.183,73.333,24474.000,1.000
-10.994,-10.929,-11.097,-11.029,-11.032,-10.938,-11.210,-10.906,-0.103,0.861,-0.546,-1.312,-0.458,0.275,73.333,24475.000,1.000
-10.334,-10.268,-10.396,-10.467,-10.297,-10.233,-10.593,-10.325,-0.101,0.861,-0.548,-1.373,-0.488,0.488,73.333,24476.000,1.000
-9.901,-9.866,-9.916,-10.048,-9.828,-9.821,-10.139,-9.974,-0.101,0.862,-0.551,-1.312,-0.610,0.519,73.333,24477.000,1.000
-9.991,-9.963,-9.952,-10.064,-9.895,-9.922,-10.151,-10.095,-0.101,0.861,-0.551,-1.160,-0.610,0.702,73.333,24478.000,1.000
-10.575,-10.504,-10.492,-10.527,-10.452,-10.445,-10.634,-10.642,-0.099,0.860,-0.548,-1.190,-0.702,0.763,73.333,24479.000,1.000
-11.365,-11.221,-11.268,-11.208,-11.221,-11.113,-11.346,-11.361,-0.100,0.860,-0.548,-1.038,-0.702,0.885,73.333,24480.000,1.000
-11.940,-11.743,-11.862,-11.724,-11.803,-11.576,-11.880,-11.889,-0.101,0.860,-0.551,-1.007,-0.580,1.038,73.333,24481.000,1.000
-11.923,-11.737,-11.886,-11.711,-11.848,-11.531,-11.864,-11.889,-0.102,0.860,-0.552,-0.916,-0.641,1.129,73.333,24482.000,1.000
-11.082,-10.979,-11.094,-10.923,-11.119,-10.773,-11.062,-11.122,-0.102,0.860,-0.553,-0.885,-0.641,1.038,73.333,24483.000,1.000
-9.468,-9.488,-9.532,-9.385,-9.627,-9.326,-9.507,-9.606,-0.102,0.860,-0.550,-0.824,-0.641,1.160,73.333,24484.000,1.000
-7.445,-7.583,-7.571,-7.449,-7.687,-7.504,-7.548,-7.677,-0.103,0.858,-0.544,-0.702,-0.732,1.099,73.333,24485.000,1.000
-5.504,-5.716,-5.705,-5.602,-5.769,-5.744,-5.678,-5.810,-0.102,0.856,-0.548,-0.671,-0.824,1.129,73.333,24486.000,1.000
-4.055,-4.279,-4.325,-4.242,-4.292,-4.419,-4.311,-4.414,-0.104,0.856,-0.550,-0.610,-0.885,1.129,73.333,24487.000,1.000
-3.175,-3.348,-3.470,-3.420,-3.352,-3.589,-3.501,-3.562,-0.103,0.857,-0.552,-0.488,-0.946,1.007,73.333,24488.000,1.000
-2.621,-2.703,-2.873,-2.877,-2.726,-3.007,-2.969,-3.003,-0.103,0.859,-0.549,-0.397,-1.068,0.854,73.333,24489.000,1.000
-2.072,-2.044,-2.208,-2.285,-2.094,-2.357,-2.363,-2.397,-0.100,0.859,-0.552,-0.275,-1.129,0.885,73.333,24490.000,1.000
-1.351,-1.204,-1.322,-1.453,-1.268,-1.478,-1.503,-1.551,-0.098,0.857,-0.551,-0.122,-1.038,0.732,73.333,24491.000,1.000
-0.547,-0.293,-0.346,-0.474,-0.346,-0.501,-0.519,-0.568,-0.095,0.855,-0.551,-0.183,-1.038,0.763,73.333,24492.000,1.000
0.205,0.509,0.528,0.460,0.490,0.367,0.381,0.353,-0.092,0.856,-0.550,-0.153,-1.007,0.671,73.333,24493.000,1.000
0.885,1.150,1.229,1.249,1.168,1.053,1.120,1.115,-0.091,0.855,-0.550,0.000,-0.885,0.732,73.333,24494.000,1.000
1.506,1.669,1.771,1.861,1.701,1.586,1.709,1.709,-0.092,0.854,-0.553,0.031,-0.916,0.702,73.333,24495.000,1.000
2.013,2.083,2.143,2.261,2.095,1.992,2.131,2.114,-0.093,0.854,-0.552,0.153,-0.793,0.549,73.333,24496.000,1.000
2.245,2.281,2.237,2.352,2.267,2.178,2.274,2.219,-0.093,0.857,-0.556,0.305,-0.671,0.427,73.333,24497.000,1.000
2.099,2.154,1.982,2.092,2.143,2.044,2.066,1.955,-0.092,0.861,-0.553,0.275,-0.641,0.397,73.333,24498.000,1.000
1.574,1.657,1.390,1.520,1.691,1.549,1.518,1.349,-0.092,0.863,-0.553,0.153,-0.519,0.397,73.333,24499.000,1.000
0.781,0.875,0.586,0.762,0.970,0.790,0.741,0.547,-0.095,0.863,-0.554,0.031,-0.427,0.458,73.333,24500.000,1.000
-0.017,0.058,-0.162,0.054,0.199,0.030,-0.014,-0.189,-0.097,0.865,-0.554,0.092,-0.366,0.397,73.333,24501.000,1.000
-0.570,-0.551,-0.624,-0.415,-0.393,-0.492,-0.510,-0.657,-0.102,0.866,-0.552,-0.061,-0.366,0.336,73.333,24502.000,1.000
-0.690,-0.755,-0.651,-0.510,-0.597,-0.616,-0.569,-0.725,-0.105,0.867,-0.552,-0.122,-0.366,0.214,73.333,24503.000,1.000
-0.289,-0.429,-0.191,-0.171,-0.270,-0.274,-0.118,-0.316,-0.109,0.866,-0.555,-0.092,-0.519,0.092,73.333,24504.000,1.000
0.512,0.344,0.621,0.490,0.510,0.423,0.698,0.479,-0.111,0.863,-0.556,-0.275,-0.702,-0.061,73.333,24505.000,1.000
1.363,1.219,1.447,1.168,1.392,1.176,1.513,1.338,-0.112,0.861,-0.555,-0.275,-0.885,-0.153,73.333,24506.000,1.000
1.812,1.712,1.870,1.471,1.883,1.581,1.888,1.816,-0.110,0.862,-0.552,-0.214,-1.068,-0.305,73.333,24507.000,1.000
1.659,1.579,1.718,1.247,1.729,1.448,1.660,1.696,-0.109,0.862,-0.550,-0.244,-1.282,-0.427,73.333,24508.000,1.000
1.078,0.960,1.158,0.665,1.074,0.912,1.018,1.112,-0.111,0.863,-0.550,-0.214,-1.495,-0.336,73.333,24509.000,1.000
0.413,0.199,0.510,0.035,0.278,0.275,0.298,0.391,-0.111,0.864,-0.553,-0.244,-1.556,-0.366,73.333,24510.000,1.000
-0.024,-0.346,0.067,-0.351,-0.301,-0.169,-0.197,-0.130,-0.107,0.863,-0.553,-0.214,-1.587,-0.336,73.333,24511.000,1.000
-0.083,-0.457,-0.019,-0.336,-0.464,-0.239,-0.304,-0.242,-0.104,0.863,-0.555,-0.336,-1.678,-0.336,73.333,24512.000,1.000
0.338,0.004,0.367,0.181,-0.070,0.203,0.090,0.200,-0.101,0.865,-0.555,-0.366,-1.740,-0.153,73.333,24513.000,1.000
1.264,1.045,1.267,1.211,0.927,1.198,1.013,1.230,-0.098,0.865,-0.556,-0.336,-1.801,-0.031,73.333,24514.000,1.000
2.523,2.437,2.517,2.555,2.341,2.551,2.274,2.619,-0.097,0.864,-0.554,-0.458,-1.740,0.092,73.333,24515.000,1.000
3.811,3.820,3.804,3.890,3.815,3.921,3.564,3.989,-0.095,0.864,-0.553,-0.458,-1.709,0.244,73.333,24516.000,1.000
4.876,4.899,4.853,4.960,5.027,5.017,4.634,5.045,-0.095,0.865,-0.552,-0.610,-1.617,0.458,73.333,24517.000,1.000
5.711,5.670,5.649,5.777,5.931,5.828,5.498,5.813,-0.095,0.863,-0.551,-0.610,-1.556,0.580,73.333,24518.000,1.000
6.429,6.286,6.312,6.481,6.642,6.492,6.276,6.468,-0.095,0.861,-0.554,-0.549,-1.465,0.702,73.333,24519.000,1.000
6.961,6.738,6.797,7.027,7.129,6.978,6.884,6.988,-0.096,0.861,-0.552,-0.702,-1.312,0.946,73.333,24520.000,1.000
7.060,6.812,6.869,7.164,7.182,7.063,7.040,7.122,-0.097,0.861,-0.550,-0.732,-1.160,1.068,73.333,24521.000,1.000
6.493,6.275,6.303,6.628,6.588,6.528,6.493,6.612,-0.097,0.858,-0.550,-0.702,-1.099,1.282,73.333,24522.000,1.000
5.362,5.210,5.201,5.487,5.459,5.473,5.359,5.537,-0.097,0.858,-0.546,-0.671,-1.068,1.282,73.333,24523.000,1.000
4.112,4.035,4.009,4.188,4.233,4.324,4.117,4.339,-0.096,0.858,-0.549,-0.671,-0.885,1.221,73.333,24524.000,1.000
3.221,3.195,3.197,3.243,3.367,3.514,3.264,3.504,-0.096,0.856,-0.550,-0.641,-0.854,1.221,73.333,24525.000,1.000
2.924,2.915,2.999,2.920,3.083,3.236,3.031,3.281,-0.095,0.858,-0.551,-0.732,-0.793,1.221,73.333,24526.000,1.000
3.124,3.120,3.315,3.137,3.290,3.391,3.298,3.578,-0.097,0.857,-0.548,-0.732,-0.763,1.282,73.333,24527.000,1.000
3.650,3.669,3.946,3.704,3.828,3.833,3.868,4.196,-0.094,0.858,-0.555,-0.824,-0.610,1.190,73.333,24528.000,1.000
4.447,4.512,4.791,4.539,4.646,4.549,4.674,5.027,-0.094,0.859,-0.557,-0.824,-0.519,1.221,73.333,24529.000,1.000
5.547,5.659,5.856,5.655,5.755,5.589,5.755,6.069,-0.091,0.859,-0.556,-0.793,-0.305,1.099,73.333,24530.000,1.000
6.930,7.068,7.155,7.039,7.109,6.933,7.117,7.329,-0.089,0.860,-0.553,-0.763,-0.153,1.068,73.333,24531.000,1.000
8.382,8.514,8.530,8.489,8.481,8.353,8.561,8.657,-0.089,0.859,-0.551,-0.854,0.000,0.916,73.333,24532.000,1.000
9.647,9.749,9.760,9.761,9.636,9.596,9.825,9.858,-0.091,0.858,-0.552,-0.885,0.122,0.763,73.333,24533.000,1.000
10.598,10.672,10.724,10.743,10.491,10.564,10.770,10.840,-0.091,0.860,-0.554,-0.946,0.305,0.488,73.333,24534.000,1.000
11.220,11.289,11.397,11.428,11.082,11.261,11.402,11.579,-0.092,0.860,-0.552,-1.038,0.488,0.488,73.333,24535.000,1.000
11.527,11.610,11.757,11.805,11.436,11.673,11.761,12.023,-0.094,0.859,-0.552,-1.038,0.732,0.488,73.333,24536.000,1.000
11.449,11.549,11.694,11.768,11.451,11.670,11.768,12.010,-0.094,0.859,-0.552,-1.038,0.671,0.336,73.333,24537.000,1.000
10.948,11.067,11.171,11.264,11.043,11.190,11.334,11.458,-0.095,0.858,-0.551,-1.038,0.854,0.183,73.333,24538.000,1.000
10.127,10.288,10.327,10.411,10.284,10.359,10.517,10.496,-0.094,0.860,-0.555,-1.068,1.068,0.092,73.333,24539.000,1.000
9.246,9.474,9.438,9.481,9.423,9.468,9.572,9.451,-0.095,0.862,-0.555,-1.099,1.160,0.031,73.333,24540.000,1.000
8.647,8.935,8.821,8.815,8.808,8.864,8.878,8.725,-0.095,0.862,-0.554,-0.885,1.221,-0.122,73.333,24541.000,1.000
8.461,8.754,8.574,8.547,8.587,8.655,8.608,8.475,-0.095,0.860,-0.552,-0.885,1.312,-0.153,73.333,24542.000,1.000
8.535,8.758,8.546,8.540,8.629,8.669,8.635,8.549,-0.095,0.859,-0.553,-0.854,1.312,-0.244,73.333,24543.000,1.000
8.608,8.715,8.509,8.546,8.689,8.643,8.707,8.661,-0.096,0.858,-0.553,-0.854,1.312,-0.275,73.333,24544.000,1.000
8.496,8.505,8.315,8.394,8.585,8.425,8.632,8.590,-0.100,0.861,-0.553,-0.854,1.343,-0.427,73.333,24545.000,1.000
8.165,8.145,7.939,8.061,8.280,8.026,8.350,8.276,-0.102,0.860,-0.552,-0.946,1.343,-0.336,73.333,24546.000,1.000
7.621,7.650,7.393,7.565,7.779,7.487,7.846,7.719,-0.102,0.861,-0.551,-0.854,1.251,-0.427,73.333,24547.000,1.000
6.933,7.059,6.744,6.971,7.139,6.870,7.166,6.991,-0.103,0.862,-0.552,-0.885,1.251,-0.458,73.333,24548.000,1.000
6.182,6.399,6.060,6.335,6.409,6.200,6.375,6.163,-0.104,0.861,-0.552,-0.885,1.190,-0.549,73.333,24549.000,1.000
5.356,5.600,5.310,5.597,5.544,5.408,5.463,5.216,-0.103,0.866,-0.552,-1.007,1.007,-0.427,73.333,24550.000,1.000
4.427,4.590,4.441,4.668,4.501,4.441,4.416,4.143,-0.103,0.865,-0.550,-1.038,1.038,-0.427,73.333,24551.000,1.000
3.368,3.361,3.402,3.503,3.297,3.311,3.239,2.973,-0.104,0.861,-0.552,-0.946,0.946,-0.366,73.333,24552.000,1.000
2.239,2.043,2.251,2.201,2.066,2.150,2.040,1.817,-0.106,0.862,-0.553,-1.038,0.824,-0.275,73.333,24553.000,1.000
1.194,0.861,1.157,0.984,0.997,1.167,1.005,0.832,-0.105,0.863,-0.553,-1.099,0.671,-0.275,73.333,24554.000,1.000
0.345,-0.044,0.261,0.023,0.171,0.461,0.236,0.084,-0.105,0.864,-0.551,-1.007,0.488,-0.244,73.333,24555.000,1.000
-0.359,-0.720,-0.451,-0.687,-0.491,-0.089,-0.376,-0.539,-0.104,0.864,-0.552,-1.007,0.305,-0.092,73.333,24556.000,1.000
-1.156,-1.430,-1.194,-1.376,-1.224,-0.801,-1.125,-1.312,-0.106,0.864,-0.551,-0.916,0.153,-0.061,73.333,24557.000,1.000
-2.210,-2.371,-2.148,-2.249,-2.195,-1.871,-2.191,-2.392,-0.107,0.860,-0.551,-1.007,0.000,0.000,73.333,24558.000,1.000
-3.454,-3.506,-3.301,-3.316,-3.374,-3.207,-3.491,-3.676,-0.105,0.859,-0.549,-0.977,-0.122,0.031,73.333,24559.000,1.000
-4.699,-4.657,-4.508,-4.448,-4.600,-4.563,-4.791,-4.931,-0.104,0.855,-0.551,-0.916,-0.153,0.092,73.333,24560.000,1.000
-5.711,-5.590,-5.538,-5.423,-5.635,-5.639,-5.817,-5.887,-0.103,0.855,-0.553,-0.916,-0.183,0.153,73.333,24561.000,1.000
-6.326,-6.158,-6.214,-6.073,-6.306,-6.243,-6.405,-6.395,-0.102,0.855,-0.554,-0.916,-0.275,0.336,73.333,24562.000,1.000
-6.523,-6.367,-6.498,-6.361,-6.589,-6.384,-6.573,-6.499,-0.098,0.857,-0.557,-0.793,-0.275,0.366,73.333,24563.000,1.000
-6.460,-6.394,-6.532,-6.412,-6.638,-6.283,-6.532,-6.429,-0.096,0.860,-0.557,-0.763,-0.336,0.427,73.333,24564.000,1.000
-6.368,-6.447,-6.530,-6.421,-6.655,-6.216,-6.541,-6.438,-0.094,0.862,-0.556,-0.824,-0.366,0.549,73.333,24565.000,1.000
-6.355,-6.576,-6.584,-6.475,-6.700,-6.291,-6.671,-6.580,-0.093,0.861,-0.554,-0.854,-0.336,0.580,73.333,24566.000,1.000
-6.422,-6.720,-6.677,-6.570,-6.753,-6.475,-6.830,-6.772,-0.091,0.861,-0.552,-0.946,-0.336,0.763,73.333,24567.000,1.000
-6.450,-6.738,-6.682,-6.588,-6.710,-6.612,-6.815,-6.840,-0.095,0.862,-0.552,-0.885,-0.214,0.702,73.333,24568.000,1.000
-6.291,-6.496,-6.447,-6.378,-6.445,-6.519,-6.471,-6.623,-0.100,0.859,-0.550,-0.854,-0.092,0.580,73.333,24569.000,1.000
-5.968,-6.054,-5.999,-5.970,-5.999,-6.200,-5.896,-6.174,-0.105,0.857,-0.550,-0.977,-0.183,0.488,73.333,24570.000,1.000
-5.690,-5.663,-5.577,-5.600,-5.611,-5.863,-5.410,-5.757,-0.105,0.856,-0.552,-0.885,-0.214,0.427,73.333,24571.000,1.000
-5.733,-5.625,-5.498,-5.575,-5.590,-5.804,-5.361,-5.701,-0.104,0.856,-0.553,-0.854,-0.275,0.397,73.333,24572.000,1.000
-6.202,-6.053,-5.900,-6.018,-6.053,-6.162,-5.859,-6.135,-0.104,0.855,-0.552,-0.824,-0.458,0.366,73.333,24573.000,1.000
-6.967,-6.807,-6.666,-6.795,-6.846,-6.843,-6.721,-6.916,-0.103,0.853,-0.553,-0.702,-0.549,0.366,73.333,24574.000,1.000
-7.738,-7.585,-7.504,-7.601,-7.646,-7.581,-7.595,-7.730,-0.100,0.856,-0.555,-0.671,-0.549,0.275,73.333,24575.000,1.000
-8.105,-7.961,-7.986,-8.022,-8.039,-7.971,-8.049,-8.155,-0.098,0.853,-0.558,-0.671,-0.641,0.183,73.333,24576.000,1.000
-7.752,-7.601,-7.763,-7.740,-7.719,-7.679,-7.771,-7.872,-0.097,0.853,-0.556,-0.488,-0.641,0.031,73.333,24577.000,1.000
-6.634,-6.460,-6.756,-6.695,-6.658,-6.641,-6.727,-6.831,-0.097,0.852,-0.555,-0.458,-0.610,-0.031,73.333,24578.000,1.000
-5.083,-4.906,-5.293,-5.220,-5.201,-5.189,-5.256,-5.358,-0.096,0.854,-0.556,-0.519,-0.549,-0.031,73.333,24579.000,1.000
-3.740,-3.619,-4.023,-3.960,-3.980,-3.962,-3.988,-4.077,-0.095,0.852,-0.556,-0.427,-0.549,0.000,73.333,24580.000,1.000
-3.158,-3.157,-3.507,-3.466,-3.517,-3.503,-3.453,-3.520,-0.095,0.855,-0.558,-0.366,-0.488,0.000,73.333,24581.000,1.000
-3.498,-3.634,-3.894,-3.872,-3.947,-3.938,-3.796,-3.833,-0.095,0.855,-0.557,-0.275,-0.397,0.122,73.333,24582.000,1.000
-4.437,-4.659,-4.836,-4.830,-4.931,-4.913,-4.693,-4.687,-0.095,0.855,-0.558,-0.305,-0.366,0.061,73.333,24583.000,1.000
-5.431,-5.634,-5.754,-5.774,-5.899,-5.856,-5.597,-5.547,-0.099,0.856,-0.558,-0.122,-0.275,0.092,73.333,24584.000,1.000
-6.111,-6.190,-6.270,-6.348,-6.447,-6.396,-6.138,-6.074,-0.102,0.861,-0.557,-0.214,-0.336,0.183,73.333,24585.000,1.000
-6.452,-6.356,-6.407,-6.564,-6.549,-6.538,-6.312,-6.286,-0.103,0.861,-0.554,-0.305,-0.366,0.122,73.333,24586.000,1.000
-6.722,-6.477,-6.514,-6.729,-6.530,-6.618,-6.431,-6.484,-0.103,0.862,-0.554,-0.366,-0.427,0.214,73.333,24587.000,1.000
-7.138,-6.815,-6.883,-7.085,-6.702,-6.926,-6.765,-6.894,-0.100,0.863,-0.554,-0.427,-0.458,0.214,73.333,24588.000,1.000
-7.650,-7.333,-7.481,-7.596,-7.102,-7.454,-7.310,-7.465,-0.098,0.864,-0.555,-0.519,-0.336,0.214,73.333,24589.000,1.000
-8.055,-7.810,-8.045,-8.046,-7.553,-7.972,-7.855,-7.972,-0.099,0.863,-0.554,-0.580,-0.336,0.275,73.333,24590.000,1.000
-8.117,-7.988,-8.242,-8.155,-7.773,-8.176,-8.107,-8.143,-0.098,0.864,-0.558,-0.641,-0.397,0.366,73.333,24591.000,1.000
-7.703,-7.711,-7.862,-7.750,-7.546,-7.870,-7.850,-7.797,-0.099,0.865,-0.559,-0.732,-0.397,0.366,73.333,24592.000,1.000
-6.782,-6.921,-6.863,-6.787,-6.777,-6.988,-6.996,-6.880,-0.096,0.865,-0.556,-0.885,-0.488,0.458,73.333,24593.000,1.000
-5.417,-5.670,-5.373,-5.365,-5.511,-5.603,-5.605,-5.474,-0.097,0.864,-0.557,-0.854,-0.427,0.427,73.333,24594.000,1.000
-3.761,-4.114,-3.636,-3.700,-3.924,-3.925,-3.878,-3.787,-0.099,0.862,-0.556,-1.007,-0.336,0.549,73.333,24595.000,1.000
-1.981,-2.414,-1.861,-1.983,-2.209,-2.170,-2.043,-2.030,-0.098,0.861,-0.555,-1.099,-0.244,0.610,73.333,24596.000,1.000
-0.314,-0.774,-0.257,-0.411,-0.598,-0.571,-0.374,-0.435,-0.100,0.862,-0.556,-1.129,-0.214,0.641,73.333,24597.000,1.000
0.988,0.586,0.976,0.829,0.690,0.673,0.883,0.779,-0.099,0.863,-0.559,-1.160,-0.305,0.671,73.333,24598.000,1.000
1.788,1.532,1.727,1.634,1.533,1.477,1.623,1.510,-0.098,0.864,-0.559,-1.099,-0.305,0.580,73.333,24599.000,1.000
2.150,2.100,2.057,2.051,1.967,1.920,1.940,1.840,-0.097,0.861,-0.554,-1.190,-0.305,0.519,73.333,24600.000,1.000
2.354,2.524,2.242,2.319,2.247,2.262,2.133,2.059,-0.097,0.861,-0.551,-1.160,-0.183,0.488,73.333,24601.000,1.000
2.693,3.025,2.569,2.676,2.653,2.745,2.484,2.438,-0.097,0.862,-0.552,-1.282,-0.214,0.519,73.333,24602.000,1.000
3.293,3.679,3.173,3.230,3.327,3.459,3.103,3.074,-0.097,0.860,-0.555,-1.221,-0.275,0.519,73.333,24603.000,1.000
4.077,4.419,4.002,3.942,4.202,4.326,3.914,3.888,-0.096,0.856,-0.556,-1.160,-0.275,0.519,73.333,24604.000,1.000
4.798,5.065,4.828,4.653,5.025,5.126,4.691,4.676,-0.101,0.854,-0.559,-1.068,-0.305,0.427,73.333,24605.000,1.000
5.231,5.458,5.400,5.191,5.541,5.645,5.224,5.244,-0.102,0.852,-0.559,-0.977,-0.305,0.427,73.333,24606.000,1.000
5.273,5.508,5.567,5.420,5.617,5.749,5.385,5.466,-0.101,0.850,-0.559,-0.824,-0.336,0.366,73.333,24607.000,1.000
4.997,5.250,5.366,5.322,5.317,5.463,5.198,5.343,-0.102,0.850,-0.559,-0.732,-0.336,0.427,73.333,24608.000,1.000
4.559,4.787,4.945,4.984,4.823,4.931,4.791,4.965,-0.101,0.850,-0.557,-0.580,-0.336,0.366,73.333,24609.000,1.000
4.043,4.174,4.400,4.475,4.257,4.283,4.253,4.396,-0.104,0.852,-0.555,-0.488,-0.397,0.275,73.333,24610.000,1.000
3.511,3.478,3.807,3.870,3.681,3.623,3.650,3.713,-0.102,0.852,-0.558,-0.397,-0.458,0.122,73.333,24611.000,1.000
3.017,2.792,3.227,3.239,3.112,3.017,3.036,3.020,-0.104,0.850,-0.556,-0.244,-0.488,0.183,73.333,24612.000,1.000
2.621,2.247,2.747,2.692,2.611,2.529,2.520,2.469,-0.101,0.853,-0.557,-0.183,-0.488,0.275,73.333,24613.000,1.000
2.379,1.960,2.459,2.347,2.286,2.229,2.233,2.199,-0.101,0.853,-0.555,-0.214,-0.580,0.153,73.333,24614.000,1.000
2.303,1.955,2.383,2.246,2.206,2.123,2.213,2.219,-0.104,0.854,-0.556,-0.031,-0.671,0.214,73.333,24615.000,1.000
2.356,2.142,2.453,2.322,2.338,2.152,2.368,2.415,-0.104,0.854,-0.555,-0.031,-0.702,0.153,73.333,24616.000,1.000
2.398,2.291,2.484,2.374,2.483,2.157,2.465,2.553,-0.103,0.856,-0.557,0.031,-0.763,0.122,73.333,24617.000,1.000
2.298,2.209,2.325,2.236,2.434,2.011,2.319,2.459,-0.105,0.855,-0.556,0.092,-0.793,0.244,73.333,24618.000,1.000
2.022,1.874,1.961,1.889,2.116,1.702,1.905,2.121,-0.106,0.856,-0.559,0.122,-0.854,0.061,73.333,24619.000,1.000
1.529,1.319,1.384,1.327,1.500,1.204,1.246,1.554,-0.108,0.858,-0.555,0.122,-0.977,0.092,73.333,24620.000,1.000
0.712,0.496,0.512,0.470,0.541,0.415,0.319,0.703,-0.107,0.862,-0.555,0.031,-1.160,0.122,73.333,24621.000,1.000
-0.563,-0.722,-0.776,-0.807,-0.812,-0.802,-0.951,-0.531,-0.105,0.863,-0.553,-0.092,-1.282,0.031,73.333,24622.000,1.000
-2.187,-2.273,-2.382,-2.418,-2.419,-2.364,-2.464,-2.060,-0.104,0.864,-0.554,-0.122,-1.343,0.092,73.333,24623.000,1.000
-3.776,-3.824,-3.930,-4.001,-3.933,-3.917,-3.892,-3.559,-0.104,0.865,-0.552,-0.336,-1.404,0.153,73.333,24624.000,1.000
-5.018,-5.087,-5.108,-5.233,-5.106,-5.167,-4.975,-4.763,-0.102,0.866,-0.557,-0.458,-1.495,0.092,73.333,24625.000,1.000
-5.839,-5.965,-5.848,-6.005,-5.893,-6.026,-5.680,-5.610,-0.103,0.868,-0.554,-0.488,-1.556,0.153,73.333,24626.000,1.000
-6.295,-6.460,-6.249,-6.369,-6.354,-6.516,-6.095,-6.143,-0.101,0.869,-0.554,-0.763,-1.556,0.244,73.333,24627.000,1.000
-6.357,-6.498,-6.334,-6.337,-6.459,-6.597,-6.204,-6.312,-0.101,0.868,-0.555,-0.916,-1.526,0.244,73.333,24628.000,1.000
-5.987,-6.027,-6.060,-5.914,-6.153,-6.238,-5.917,-6.023,-0.100,0.867,-0.556,-1.068,-1.343,0.183,73.333,24629.000,1.000
-5.368,-5.268,-5.547,-5.303,-5.586,-5.631,-5.348,-5.408,-0.101,0.867,-0.555,-1.282,-1.312,0.244,73.333,24630.000,1.000
-4.838,-4.618,-5.068,-4.827,-5.059,-5.097,-4.794,-4.798,-0.099,0.864,-0.556,-1.404,-1.251,0.183,73.333,24631.000,1.000
-4.644,-4.373,-4.845,-4.704,-4.809,-4.860,-4.520,-4.500,-0.096,0.863,-0.554,-1.495,-1.068,0.153,73.333,24632.000,1.000
-4.718,-4.482,-4.846,-4.834,-4.787,-4.846,-4.524,-4.525,-0.096,0.862,-0.556,-1.556,-1.129,0.153,73.333,24633.000,1.000
-4.759,-4.625,-4.823,-4.900,-4.738,-4.779,-4.577,-4.613,-0.097,0.859,-0.556,-1.556,-1.129,0.183,73.333,24634.000,1.000
-4.536,-4.513,-4.561,-4.660,-4.460,-4.451,-4.460,-4.497,-0.099,0.856,-0.556,-1.648,-1.068,0.214,73.333,24635.000,1.000
-4.011,-4.029,-3.984,-4.070,-3.907,-3.828,-4.068,-4.055,-0.102,0.850,-0.558,-1.465,-0.977,0.244,73.333,24636.000,1.000
-3.346,-3.288,-3.230,-3.309,-3.216,-3.087,-3.480,-3.396,-0.102,0.851,-0.555,-1.312,-1.007,0.244,73.333,24637.000,1.000
-2.726,-2.508,-2.505,-2.600,-2.555,-2.440,-2.845,-2.700,-0.104,0.849,-0.554,-1.190,-1.129,0.336,73.333,24638.000,1.000
-2.188,-1.824,-1.901,-2.017,-1.967,-1.930,-2.233,-2.045,-0.105,0.851,-0.552,-1.160,-0.977,0.397,73.333,24639.000,1.000
-1.624,-1.232,-1.350,-1.467,-1.377,-1.434,-1.609,-1.392,-0.107,0.852,-0.553,-1.099,-1.068,0.458,73.333,24640.000,1.000
-0.857,-0.591,-0.674,-0.766,-0.648,-0.760,-0.855,-0.624,-0.106,0.852,-0.553,-1.038,-1.068,0.458,73.333,24641.000,1.000
0.141,0.194,0.191,0.137,0.237,0.143,0.062,0.286,-0.106,0.854,-0.554,-1.007,-1.190,0.519,73.333,24642.000,1.000
1.230,1.095,1.149,1.124,1.178,1.157,1.052,1.243,-0.104,0.855,-0.553,-0.885,-1.129,0.580,73.333,24643.000,1.000
2.249,2.014,2.051,2.045,2.054,2.131,1.994,2.129,-0.103,0.854,-0.555,-0.702,-1.221,0.610,73.333,24644.000,1.000
3.068,2.802,2.751,2.765,2.740,2.906,2.758,2.822,-0.104,0.856,-0.556,-0.732,-1.251,0.641,73.333,24645.000,1.000
3.561,3.291,3.128,3.173,3.102,3.338,3.216,3.198,-0.103,0.860,-0.555,-0.702,-1.312,0.824,73.333,24646.000,1.000
3.564,3.290,3.066,3.137,2.991,3.279,3.226,3.101,-0.103,0.859,-0.555,-0.732,-1.312,0.824,73.333,24647.000,1.000
3.114,2.848,2.648,2.727,2.481,2.804,2.840,2.583,-0.102,0.860,-0.552,-0.763,-1.404,0.854,73.333,24648.000,1.000
2.594,2.377,2.248,2.325,1.982,2.317,2.413,2.047,-0.102,0.860,-0.553,-0.824,-1.373,0.885,73.333,24649.000,1.000
2.343,2.237,2.149,2.251,1.845,2.150,2.242,1.861,-0.102,0.862,-0.555,-0.854,-1.312,0.946,73.333,24650.000,1.000
2.323,2.381,2.247,2.440,2.018,2.235,2.282,1.997,-0.103,0.862,-0.555,-0.854,-1.282,0.946,73.333,24651.000,1.000
2.265,2.501,2.248,2.591,2.185,2.278,2.289,2.159,-0.103,0.863,-0.556,-0.946,-1.251,1.007,73.333,24652.000,1.000
2.132,2.510,2.146,2.623,2.259,2.235,2.232,2.267,-0.102,0.864,-0.556,-0.977,-1.312,0.977,73.333,24653.000,1.000
2.204,2.659,2.275,2.772,2.488,2.395,2.378,2.561,-0.102,0.864,-0.558,-0.916,-1.343,0.977,73.333,24654.000,1.000
2.721,3.191,2.885,3.252,3.098,2.994,2.951,3.243,-0.099,0.863,-0.555,-1.038,-1.190,0.977,73.333,24655.000,1.000
3.697,4.150,3.954,4.096,4.099,4.043,3.965,4.287,-0.098,0.860,-0.553,-1.160,-1.129,0.916,73.333,24656.000,1.000
4.968,5.380,5.269,5.195,5.340,5.373,5.258,5.504,-0.099,0.859,-0.555,-1.129,-1.160,0.885,73.333,24657.000,1.000
6.354,6.695,6.650,6.450,6.674,6.801,6.658,6.748,-0.100,0.857,-0.554,-1.190,-1.160,0.885,73.333,24658.000,1.000
7.748,7.989,8.022,7.804,8.033,8.205,8.073,7.983,-0.101,0.858,-0.556,-1.251,-1.038,0.793,73.333,24659.000,1.000
9.059,9.202,9.321,9.152,9.342,9.485,9.420,9.191,-0.099,0.858,-0.555,-1.129,-0.946,0.702,73.333,24660.000,1.000
10.197,10.280,10.468,10.357,10.505,10.573,10.602,10.317,-0.100,0.857,-0.551,-1.251,-0.916,0.732,73.333,24661.000,1.000
10.959,11.036,11.263,11.185,11.299,11.308,11.398,11.145,-0.100,0.857,-0.552,-1.068,-0.824,0.580,73.333,24662.000,1.000
11.106,11.210,11.444,11.392,11.476,11.473,11.563,11.384,-0.098,0.857,-0.553,-1.038,-0.763,0.458,73.333,24663.000,1.000
10.580,10.708,10.902,10.913,10.967,10.978,11.027,10.898,-0.098,0.857,-0.555,-1.038,-0.763,0.397,73.333,24664.000,1.000
9.539,9.653,9.754,9.882,9.908,9.928,9.928,9.790,-0.097,0.858,-0.555,-1.007,-0.641,0.336,73.333,24665.000,1.000
8.279,8.325,8.313,8.575,8.578,8.581,8.547,8.370,-0.094,0.860,-0.556,-1.038,-0.702,0.397,73.333,24666.000,1.000
7.038,6.977,6.871,7.231,7.224,7.179,7.134,6.948,-0.096,0.860,-0.557,-0.946,-0.580,0.366,73.333,24667.000,1.000
5.926,5.753,5.595,5.990,5.976,5.872,5.854,5.712,-0.096,0.861,-0.554,-1.007,-0.427,0.305,73.333,24668.000,1.000
4.971,4.711,4.550,4.903,4.883,4.752,4.797,4.712,-0.096,0.861,-0.552,-1.007,-0.336,0.275,73.333,24669.000,1.000
4.105,3.800,3.681,3.917,3.903,3.818,3.930,3.855,-0.098,0.860,-0.557,-1.068,-0.244,0.275,73.333,24670.000,1.000
3.224,2.925,2.867,2.942,2.963,3.003,3.132,3.001,-0.098,0.859,-0.553,-1.068,-0.122,0.275,73.333,24671.000,1.000
2.246,2.002,1.994,1.933,2.007,2.207,2.277,2.061,-0.098,0.858,-0.555,-1.129,0.000,0.336,73.333,24672.000,1.000
1.235,1.065,1.094,0.962,1.084,1.416,1.365,1.100,-0.100,0.858,-0.554,-1.068,-0.153,0.366,73.333,24673.000,1.000
0.341,0.223,0.292,0.152,0.312,0.684,0.508,0.263,-0.102,0.857,-0.552,-0.916,-0.092,0.366,73.333,24674.000,1.000
-0.361,-0.466,-0.355,-0.467,-0.277,0.020,-0.215,-0.390,-0.102,0.856,-0.556,-0.916,-0.061,0.336,73.333,24675.000,1.000
-0.811,-0.925,-0.798,-0.864,-0.650,-0.515,-0.713,-0.817,-0.103,0.857,-0.554,-0.763,-0.122,0.488,73.333,24676.000,1.000
-0.977,-1.082,-0.987,-1.010,-0.777,-0.824,-0.923,-0.983,-0.103,0.857,-0.553,-0.732,-0.031,0.458,73.333,24677.000,1.000
-0.910,-0.952,-0.927,-0.931,-0.689,-0.875,-0.871,-0.906,-0.104,0.857,-0.554,-0.702,-0.092,0.488,73.333,24678.000,1.000
-0.730,-0.639,-0.684,-0.706,-0.478,-0.725,-0.653,-0.664,-0.104,0.856,-0.553,-0.671,-0.153,0.580,73.333,24679.000,1.000
-0.583,-0.333,-0.406,-0.485,-0.301,-0.522,-0.433,-0.407,-0.107,0.856,-0.555,-0.702,-0.214,0.610,73.333,24680.000,1.000
-0.553,-0.192,-0.232,-0.387,-0.275,-0.411,-0.343,-0.252,-0.107,0.857,-0.555,-0.671,-0.336,0.641,73.333,24681.000,1.000
-0.667,-0.285,-0.257,-0.475,-0.446,-0.490,-0.448,-0.264,-0.107,0.857,-0.554,-0.641,-0.549,0.732,73.333,24682.000,1.000
-0.880,-0.564,-0.474,-0.715,-0.763,-0.749,-0.708,-0.441,-0.109,0.855,-0.556,-0.580,-0.702,0.732,73.333,24683.000,1.000
-1.073,-0.869,-0.766,-0.967,-1.075,-1.043,-0.980,-0.700,-0.109,0.856,-0.552,-0.458,-0.732,0.702,73.333,24684.000,1.000
-1.158,-1.063,-1.015,-1.103,-1.247,-1.221,-1.136,-0.944,-0.106,0.858,-0.551,-0.458,-0.885,0.763,73.333,24685.000,1.000
-1.106,-1.082,-1.150,-1.077,-1.220,-1.210,-1.132,-1.084,-0.108,0.860,-0.555,-0.397,-0.977,0.824,73.333,24686.000,1.000
-1.014,-1.015,-1.221,-1.003,-1.105,-1.108,-1.081,-1.149,-0.107,0.860,-0.556,-0.549,-1.038,0.824,73.333,24687.000,1.000
-1.011,-1.009,-1.326,-1.031,-1.081,-1.083,-1.143,-1.237,-0.103,0.860,-0.553,-0.580,-1.068,0.793,73.333,24688.000,1.000
-1.114,-1.110,-1.458,-1.173,-1.196,-1.193,-1.340,-1.367,-0.100,0.861,-0.554,-0.549,-1.251,0.763,73.333,24689.000,1.000
-1.277,-1.288,-1.556,-1.361,-1.393,-1.394,-1.589,-1.503,-0.100,0.860,-0.556,-0.580,-1.190,0.916,73.333,24690.000,1.000
-1.429,-1.477,-1.570,-1.514,-1.572,-1.595,-1.771,-1.589,-0.095,0.860,-0.555,-0.610,-1.251,0.977,73.333,24691.000,1.000
-1.526,-1.633,-1.526,-1.604,-1.676,-1.729,-1.826,-1.613,-0.096,0.861,-0.553,-0.732,-1.190,0.977,73.333,24692.000,1.000
-1.518,-1.700,-1.446,-1.592,-1.662,-1.738,-1.727,-1.555,-0.095,0.860,-0.551,-0.824,-1.038,0.977,73.333,24693.000,1.000
-1.335,-1.582,-1.283,-1.413,-1.478,-1.562,-1.442,-1.355,-0.094,0.858,-0.552,-0.854,-0.946,0.793,73.333,24694.000,1.000
-1.044,-1.322,-1.062,-1.126,-1.195,-1.277,-1.072,-1.070,-0.096,0.859,-0.554,-0.885,-0.854,0.763,73.333,24695.000,1.000
-0.905,-1.163,-0.982,-0.980,-1.049,-1.131,-0.888,-0.945,-0.096,0.858,-0.555,-0.916,-0.763,0.763,73.333,24696.000,1.000
-1.227,-1.419,-1.310,-1.274,-1.332,-1.420,-1.196,-1.277,-0.099,0.858,-0.555,-1.038,-0.763,0.702,73.333,24697.000,1.000
-2.029,-2.136,-2.072,-2.037,-2.086,-2.170,-2.011,-2.084,-0.099,0.859,-0.559,-1.007,-0.793,0.610,73.333,24698.000,1.000
-2.947,-2.985,-2.933,-2.928,-2.987,-3.021,-2.968,-3.009,-0.100,0.859,-0.557,-0.946,-0.854,0.519,73.333,24699.000,1.000
-3.540,-3.553,-3.476,-3.531,-3.614,-3.542,-3.628,-3.627,-0.102,0.859,-0.554,-1.038,-0.793,0.366,73.333,24700.000,1.000
-3.538,-3.593,-3.454,-3.582,-3.697,-3.489,-3.724,-3.681,-0.103,0.858,-0.552,-1.099,-0.885,0.427,73.333,24701.000,1.000
-3.013,-3.162,-2.950,-3.131,-3.274,-2.951,-3.305,-3.227,-0.103,0.857,-0.552,-1.251,-0.854,0.336,73.333,24702.000,1.000
-2.315,-2.559,-2.316,-2.503,-2.642,-2.279,-2.687,-2.578,-0.102,0.855,-0.555,-1.129,-0.824,0.305,73.333,24703.000,1.000
-1.832,-2.116,-1.917,-2.059,-2.138,-1.843,-2.219,-2.077,-0.102,0.855,-0.552,-1.099,-0.793,0.275,73.333,24704.000,1.000
-1.790,-2.029,-1.928,-1.998,-1.983,-1.851,-2.105,-1.925,-0.100,0.857,-0.557,-1.007,-0.824,0.122,73.333,24705.000,1.000
-2.130,-2.261,-2.250,-2.267,-2.163,-2.247,-2.307,-2.087,-0.097,0.857,-0.554,-1.068,-0.854,-0.031,73.333,24706.000,1.000
-2.683,-2.696,-2.725,-2.740,-2.562,-2.859,-2.717,-2.467,-0.096,0.857,-0.552,-1.007,-0.763,0.000,73.333,24707.000,1.000
-3.326,-3.263,-3.287,-3.345,-3.091,-3.538,-3.268,-3.009,-0.095,0.855,-0.552,-1.038,-0.702,0.153,73.333,24708.000,1.000
-3.951,-3.873,-3.875,-3.995,-3.658,-4.143,-3.867,-3.627,-0.096,0.854,-0.553,-1.129,-0.641,0.122,73.333,24709.000,1.000
-4.449,-4.410,-4.390,-4.564,-4.178,-4.577,-4.389,-4.195,-0.097,0.852,-0.553,-1.038,-0.610,0.275,73.333,24710.000,1.000
-4.711,-4.745,-4.705,-4.909,-4.567,-4.772,-4.703,-4.582,-0.099,0.851,-0.552,-1.038,-0.458,0.244,73.333,24711.000,1.000
-4.755,-4.881,-4.820,-5.034,-4.834,-4.795,-4.811,-4.788,-0.099,0.853,-0.557,-1.007,-0.427,0.305,73.333,24712.000,1.000
-4.774,-4.985,-4.902,-5.125,-5.102,-4.851,-4.887,-4.977,-0.101,0.858,-0.555,-0.916,-0.397,0.458,73.333,24713.000,1.000
-4.994,-5.259,-5.157,-5.402,-5.506,-5.150,-5.148,-5.331,-0.099,0.862,-0.553,-1.007,-0.366,0.488,73.333,24714.000,1.000
-5.543,-5.833,-5.712,-5.982,-6.120,-5.789,-5.718,-5.942,-0.097,0.862,-0.556,-1.007,-0.305,0.427,73.333,24715.000,1.000
-6.287,-6.580,-6.436,-6.698,-6.808,-6.600,-6.448,-6.660,-0.098,0.861,-0.554,-1.099,-0.336,0.610,73.333,24716.000,1.000
-6.841,-7.123,-6.938,-7.138,-7.230,-7.164,-6.925,-7.108,-0.098,0.863,-0.557,-1.251,-0.305,0.610,73.333,24717.000,1.000
-6.716,-6.989,-6.742,-6.835,-6.965,-6.989,-6.670,-6.851,-0.100,0.863,-0.557,-1.343,-0.397,0.549,73.333,24718.000,1.000
-5.589,-5.868,-5.569,-5.541,-5.744,-5.780,-5.423,-5.634,-0.103,0.863,-0.557,-1.373,-0.397,0.458,73.333,24719.000,1.000
-3.610,-3.926,-3.620,-3.501,-3.754,-3.741,-3.430,-3.662,-0.111,0.862,-0.558,-1.373,-0.549,0.427,73.333,24720.000,1.000
-1.405,-1.776,-1.519,-1.374,-1.608,-1.534,-1.353,-1.550,-0.113,0.861,-0.557,-1.404,-0.610,0.397,73.333,24721.000,1.000
0.207,-0.208,-0.028,0.071,-0.070,0.030,0.046,-0.057,-0.114,0.863,-0.557,-1.434,-0.885,0.214,73.333,24722.000,1.000
0.633,0.214,0.327,0.338,0.328,0.393,0.291,0.286,-0.114,0.864,-0.556,-1.404,-1.099,0.244,73.333,24723.000,1.000
-0.183,-0.574,-0.491,-0.552,-0.458,-0.478,-0.610,-0.569,-0.111,0.866,-0.557,-1.587,-1.282,0.183,73.333,24724.000,1.000
-1.847,-2.196,-2.106,-2.168,-2.059,-2.187,-2.268,-2.254,-0.109,0.865,-0.554,-1.648,-1.282,0.031,73.333,24725.000,1.000
-3.745,-4.033,-3.920,-3.900,-3.880,-4.103,-4.102,-4.158,-0.105,0.865,-0.554,-1.678,-1.465,0.000,73.333,24726.000,1.000
-5.309,-5.504,-5.372,-5.229,-5.356,-5.622,-5.578,-5.695,-0.105,0.862,-0.555,-1.648,-1.526,-0.031,73.333,24727.000,1.000
-6.080,-6.156,-6.021,-5.782,-6.040,-6.278,-6.262,-6.394,-0.100,0.865,-0.555,-1.740,-1.526,0.031,73.333,24728.000,1.000
-5.711,-5.663,-5.559,-5.294,-5.594,-5.754,-5.822,-5.918,-0.100,0.864,-0.557,-1.740,-1.526,0.031,73.333,24729.000,1.000
-4.200,-4.035,-4.009,-3.796,-4.011,-4.087,-4.269,-4.298,-0.097,0.864,-0.553,-1.740,-1.526,0.153,73.333,24730.000,1.000
-1.980,-1.713,-1.806,-1.694,-1.719,-1.745,-2.048,-2.011,-0.096,0.862,-0.552,-1.770,-1.404,0.153,73.333,24731.000,1.000
0.242,0.590,0.377,0.389,0.566,0.545,0.156,0.220,-0.095,0.861,-0.551,-1.892,-1.404,0.336,73.333,24732.000,1.000
1.874,2.275,1.995,1.952,2.236,2.190,1.800,1.839,-0.095,0.858,-0.551,-1.831,-1.221,0.427,73.333,24733.000,1.000
2.739,3.162,2.890,2.848,3.111,3.029,2.728,2.717,-0.097,0.859,-0.551,-1.862,-1.068,0.458,73.333,24734.000,1.000
3.008,3.425,3.209,3.207,3.371,3.254,3.084,3.053,-0.096,0.857,-0.550,-1.923,-0.916,0.671,73.333,24735.000,1.000
3.031,3.427,3.283,3.318,3.394,3.243,3.188,3.203,-0.097,0.854,-0.552,-1.770,-0.824,0.732,73.333,24736.000,1.000
3.117,3.479,3.412,3.447,3.500,3.320,3.337,3.448,-0.097,0.854,-0.550,-1.740,-0.702,0.763,73.333,24737.000,1.000
3.369,3.686,3.694,3.688,3.768,3.590,3.632,3.840,-0.098,0.854,-0.552,-1.740,-0.641,0.854,73.333,24738.000,1.000
3.667,3.950,4.007,3.944,4.051,3.938,3.961,4.218,-0.101,0.853,-0.550,-1.801,-0.549,0.854,73.333,24739.000,1.000
3.765,4.038,4.093,3.998,4.094,4.111,4.065,4.312,-0.101,0.853,-0.550,-1.709,-0.580,0.885,73.333,24740.000,1.000
3.520,3.794,3.798,3.727,3.770,3.933,3.792,3.979,-0.104,0.853,-0.554,-1.648,-0.488,0.885,73.333,24741.000,1.000
2.979,3.239,3.178,3.183,3.149,3.415,3.194,3.284,-0.105,0.855,-0.552,-1.556,-0.519,0.824,73.333,24742.000,1.000
2.363,2.595,2.500,2.585,2.478,2.764,2.529,2.492,-0.104,0.856,-0.550,-1.465,-0.519,0.916,73.333,24743.000,1.000
1.971,2.190,2.101,2.224,2.081,2.301,2.126,1.959,-0.102,0.857,-0.550,-1.495,-0.580,0.671,73.333,24744.000,1.000
1.915,2.164,2.103,2.212,2.091,2.189,2.106,1.837,-0.099,0.860,-0.549,-1.587,-0.610,0.671,73.333,24745.000,1.000
2.093,2.420,2.371,2.431,2.389,2.353,2.348,2.027,-0.098,0.860,-0.550,-1.556,-0.488,0.610,73.333,24746.000,1.000
2.306,2.733,2.658,2.648,2.716,2.579,2.617,2.300,-0.096,0.859,-0.553,-1.495,-0.397,0.549,73.333,24747.000,1.000
2.466,2.969,2.848,2.748,2.919,2.738,2.798,2.535,-0.095,0.861,-0.553,-1.526,-0.244,0.641,73.333,24748.000,1.000
2.732,3.266,3.100,2.918,3.152,2.976,3.064,2.888,-0.093,0.860,-0.550,-1.556,-0.122,0.549,73.333,24749.000,1.000
3.313,3.827,3.634,3.418,3.655,3.519,3.658,3.559,-0.093,0.860,-0.550,-1.526,-0.031,0.519,73.333,24750.000,1.000
4.212,4.651,4.456,4.271,4.462,4.388,4.595,4.529,-0.092,0.859,-0.551,-1.495,0.153,0.458,73.333,24751.000,1.000
5.141,5.449,5.281,5.160,5.294,5.286,5.546,5.480,-0.090,0.861,-0.550,-1.617,0.275,0.488,73.333,24752.000,1.000
5.732,5.872,5.767,5.680,5.795,5.829,6.086,6.034,-0.091,0.862,-0.553,-1.526,0.488,0.458,73.333,24753.000,1.000
5.847,5.820,5.809,5.696,5.837,5.878,6.059,6.067,-0.090,0.862,-0.552,-1.587,0.641,0.366,73.333,24754.000,1.000
5.551,5.402,5.496,5.329,5.496,5.518,5.584,5.679,-0.092,0.862,-0.552,-1.495,0.916,0.366,73.333,24755.000,1.000
5.026,4.817,5.000,4.810,4.957,4.942,4.922,5.086,-0.094,0.861,-0.552,-1.404,0.977,0.336,73.333,24756.000,1.000
4.486,4.269,4.506,4.347,4.423,4.374,4.325,4.508,-0.096,0.860,-0.554,-1.434,1.099,0.183,73.333,24757.000,1.000
4.128,3.940,4.187,4.086,4.077,4.018,3.967,4.120,-0.097,0.857,-0.557,-1.251,1.190,0.031,73.333,24758.000,1.000
4.103,3.966,4.173,4.125,4.045,4.023,3.969,4.046,-0.100,0.855,-0.555,-1.373,1.221,-0.031,73.333,24759.000,1.000
4.470,4.382,4.511,4.491,4.379,4.432,4.378,4.342,-0.102,0.856,-0.552,-1.251,1.312,-0.153,73.333,24760.000,1.000
5.267,5.209,5.236,5.229,5.142,5.274,5.237,5.074,-0.102,0.856,-0.550,-1.251,1.221,-0.214,73.333,24761.000,1.000
6.452,6.408,6.315,6.334,6.320,6.504,6.497,6.232,-0.104,0.856,-0.552,-1.129,1.190,-0.153,73.333,24762.000,1.000
7.825,7.802,7.559,7.640,7.718,7.915,7.938,7.631,-0.104,0.858,-0.550,-1.160,1.099,-0.183,73.333,24763.000,1.000
9.122,9.142,8.741,8.907,9.053,9.234,9.283,9.004,-0.103,0.857,-0.552,-0.977,1.160,-0.183,73.333,24764.000,1.000
10.054,10.141,9.641,9.878,10.031,10.179,10.270,10.065,-0.104,0.858,-0.553,-0.793,1.068,-0.092,73.333,24765.000,1.000
10.374,10.528,10.046,10.326,10.419,10.510,10.677,10.550,-0.105,0.859,-0.551,-0.824,0.977,0.000,73.333,24766.000,1.000
9.918,10.103,9.739,10.059,10.047,10.056,10.325,10.241,-0.105,0.859,-0.553,-0.885,0.916,0.092,73.333,24767.000,1.000
8.724,8.864,8.647,9.031,8.918,8.824,9.194,9.105,-0.104,0.859,-0.554,-0.702,0.793,0.122,73.333,24768.000,1.000
7.083,7.092,6.995,7.450,7.280,7.088,7.526,7.395,-0.104,0.858,-0.552,-0.702,0.610,0.214,73.333,24769.000,1.000
5.280,5.120,5.095,5.564,5.418,5.157,5.602,5.424,-0.105,0.861,-0.552,-0.519,0.549,0.305,73.333,24770.000,1.000
3.455,3.160,3.166,3.545,3.503,3.217,3.598,3.403,-0.104,0.862,-0.554,-0.549,0.488,0.366,73.333,24771.000,1.000
1.667,1.325,1.335,1.535,1.624,1.362,1.612,1.457,-0.104,0.864,-0.556,-0.580,0.458,0.427,73.333,24772.000,1.000
0.039,-0.257,-0.252,-0.240,-0.084,-0.275,-0.190,-0.252,-0.103,0.863,-0.555,-0.549,0.336,0.519,73.333,24773.000,1.000
-1.208,-1.414,-1.389,-1.508,-1.397,-1.480,-1.561,-1.504,-0.104,0.861,-0.551,-0.549,0.336,0.610,73.333,24774.000,1.000
-1.953,-2.083,-2.006,-2.176,-2.200,-2.158,-2.373,-2.201,-0.105,0.857,-0.551,-0.488,0.244,0.702,73.333,24775.000,1.000
-2.213,-2.302,-2.182,-2.336,-2.513,-2.360,-2.658,-2.391,-0.104,0.854,-0.552,-0.549,0.244,0.885,73.333,24776.000,1.000
-2.098,-2.162,-2.066,-2.158,-2.454,-2.220,-2.554,-2.216,-0.105,0.851,-0.551,-0.427,0.092,0.885,73.333,24777.000,1.000
-1.747,-1.771,-1.770,-1.785,-2.152,-1.875,-2.212,-1.820,-0.104,0.853,-0.551,-0.366,0.000,0.885,73.333,24778.000,1.000
-1.232,-1.179,-1.306,-1.247,-1.650,-1.357,-1.689,-1.259,-0.102,0.854,-0.554,-0.214,-0.153,0.854,73.333,24779.000,1.000
-0.597,-0.434,-0.676,-0.557,-0.972,-0.676,-1.013,-0.575,-0.101,0.855,-0.553,-0.122,-0.214,0.824,73.333,24780.000,1.000
0.111,0.378,0.059,0.220,-0.189,0.112,-0.239,0.163,-0.098,0.857,-0.553,-0.153,-0.244,1.068,73.333,24781.000,1.000
0.739,1.052,0.703,0.884,0.500,0.808,0.466,0.793,-0.098,0.860,-0.552,-0.122,-0.244,1.129,73.333,24782.000,1.000
1.026,1.287,0.969,1.138,0.810,1.101,0.825,1.071,-0.097,0.861,-0.552,-0.153,-0.183,1.190,73.333,24783.000,1.000
0.804,0.907,0.702,0.806,0.588,0.805,0.655,0.846,-0.100,0.862,-0.551,-0.214,-0.183,1.221,73.333,24784.000,1.000
0.035,-0.078,-0.103,-0.127,-0.181,-0.080,-0.094,0.076,-0.101,0.864,-0.552,-0.305,-0.183,1.129,73.333,24785.000,1.000
-1.295,-1.608,-1.432,-1.625,-1.499,-1.509,-1.435,-1.274,-0.103,0.865,-0.551,-0.488,-0.275,1.129,73.333,24786.000,1.000
-3.303,-3.726,-3.388,-3.732,-3.466,-3.555,-3.449,-3.315,-0.104,0.865,-0.551,-0.519,-0.275,0.946,73.333,24787.000,1.000
-6.054,-6.458,-6.046,-6.456,-6.131,-6.256,-6.175,-6.087,-0.101,0.866,-0.552,-0.549,-0.427,0.732,73.333,24788.000,1.000
-9.237,-9.522,-9.141,-9.502,-9.201,-9.323,-9.324,-9.274,-0.099,0.865,-0.552,-0.702,-0.397,0.641,73.333,24789.000,1.000
-12.206,-12.349,-12.075,-12.310,-12.091,-12.174,-12.299,-12.245,-0.095,0.865,-0.550,-0.732,-0.336,0.610,73.333,24790.000,1.000
-14.286,-14.333,-14.169,-14.285,-14.177,-14.195,-14.432,-14.323,-0.096,0.866,-0.549,-1.007,-0.427,0.549,73.333,24791.000,1.000
-15.108,-15.129,-15.008,-15.089,-15.079,-15.025,-15.316,-15.126,-0.095,0.865,-0.552,-1.038,-0.458,0.458,73.333,24792.000,1.000
-14.756,-14.803,-14.626,-14.770,-14.817,-14.703,-14.974,-14.728,-0.095,0.866,-0.550,-1.221,-0.336,0.336,73.333,24793.000,1.000
-13.643,-13.752,-13.449,-13.686,-13.754,-13.604,-13.793,-13.558,-0.095,0.861,-0.551,-1.404,-0.214,0.153,73.333,24794.000,1.000
-12.365,-12.554,-12.128,-12.394,-12.474,-12.327,-12.383,-12.233,-0.095,0.861,-0.551,-1.373,-0.122,-0.031,73.333,24795.000,1.000
-11.384,-11.652,-11.166,-11.358,-11.463,-11.350,-11.252,-11.234,-0.095,0.858,-0.555,-1.343,-0.061,0.031,73.333,24796.000,1.000
-10.811,-11.142,-10.672,-10.720,-10.855,-10.787,-10.564,-10.685,-0.094,0.859,-0.551,-1.495,-0.092,0.000,73.333,24797.000,1.000
-10.421,-10.794,-10.394,-10.285,-10.435,-10.402,-10.128,-10.355,-0.094,0.859,-0.552,-1.404,-0.061,-0.092,73.333,24798.000,1.000
-9.846,-10.238,-9.936,-9.699,-9.837,-9.823,-9.587,-9.857,-0.095,0.857,-0.553,-1.343,0.000,-0.244,73.333,24799.000,1.000
-8.939,-9.306,-9.126,-8.811,-8.908,-8.897,-8.769,-9.008,-0.097,0.856,-0.558,-1.282,0.061,-0.244,73.333,24800.000,1.000
-7.846,-8.114,-8.083,-7.755,-7.783,-7.766,-7.781,-7.925,-0.099,0.855,-0.554,-1.312,0.122,-0.244,73.333,24801.000,1.000
-6.845,-6.929,-7.064,-6.791,-6.728,-6.705,-6.865,-6.874,-0.101,0.856,-0.551,-1.282,0.061,-0.244,73.333,24802.000,1.000
-6.149,-5.997,-6.295,-6.115,-5.960,-5.938,-6.215,-6.078,-0.102,0.856,-0.551,-0.946,-0.031,-0.183,73.333,24803.000,1.000
-5.797,-5.432,-5.858,-5.767,-5.552,-5.544,-5.873,-5.611,-0.103,0.854,-0.547,-0.977,0.153,-0.183,73.333,24804.000,1.000
-5.775,-5.300,-5.763,-5.734,-5.526,-5.549,-5.840,-5.491,-0.099,0.854,-0.546,-0.854,0.092,-0.244,73.333,24805.000,1.000
-6.054,-5.602,-5.981,-5.994,-5.852,-5.932,-6.099,-5.724,-0.100,0.855,-0.550,-0.916,0.153,-0.214,73.333,24806.000,1.000
-6.586,-6.246,-6.463,-6.518,-6.449,-6.604,-6.609,-6.293,-0.098,0.855,-0.551,-0.854,0.092,-0.092,73.333,24807.000,1.000
-7.252,-7.024,-7.099,-7.195,-7.155,-7.389,-7.240,-7.084,-0.097,0.857,-0.550,-0.854,0.061,0.092,73.333,24808.000,1.000
-7.789,-7.597,-7.630,-7.752,-7.688,-7.972,-7.708,-7.793,-0.097,0.859,-0.552,-0.793,0.031,0.153,73.333,24809.000,1.000
-7.956,-7.717,-7.818,-7.921,-7.823,-8.088,-7.759,-8.102,-0.099,0.859,-0.551,-0.702,0.031,0.214,73.333,24810.000,1.000
-7.667,-7.350,-7.574,-7.603,-7.511,-7.661,-7.331,-7.859,-0.100,0.859,-0.551,-0.671,0.000,0.122,73.333,24811.000,1.000
-6.987,-6.644,-6.974,-6.882,-6.852,-6.829,-6.553,-7.129,-0.101,0.860,-0.552,-0.702,0.061,0.336,73.333,24812.000,1.000
-6.055,-5.773,-6.170,-5.921,-5.988,-5.814,-5.624,-6.101,-0.104,0.862,-0.551,-0.671,-0.092,0.336,73.333,24813.000,1.000
-4.949,-4.781,-5.222,-4.801,-4.974,-4.732,-4.630,-4.908,-0.104,0.862,-0.554,-0.549,-0.122,0.488,73.333,24814.000,1.000
-3.743,-3.680,-4.137,-3.569,-3.850,-3.623,-3.588,-3.650,-0.105,0.862,-0.550,-0.580,-0.397,0.519,73.333,24815.000,1.000
-2.522,-2.521,-2.934,-2.292,-2.670,-2.516,-2.492,-2.415,-0.105,0.862,-0.550,-0.702,-0.488,0.580,73.333,24816.000,1.000
-1.351,-1.373,-1.671,-1.050,-1.484,-1.428,-1.335,-1.253,-0.105,0.862,-0.551,-0.671,-0.610,0.519,73.333,24817.000,1.000
-0.210,-0.239,-0.374,0.137,-0.288,-0.320,-0.094,-0.124,-0.106,0.861,-0.552,-0.641,-0.610,0.488,73.333,24818.000,1.000
1.002,0.955,0.991,1.333,0.981,0.904,1.270,1.085,-0.104,0.859,-0.552,-0.732,-0.763,0.488,73.333,24819.000,1.000
2.265,2.180,2.355,2.510,2.277,2.207,2.652,2.355,-0.102,0.858,-0.552,-0.793,-0.854,0.397,73.333,24820.000,1.000
3.460,3.331,3.571,3.578,3.471,3.436,3.863,3.554,-0.103,0.857,-0.550,-0.702,-0.885,0.427,73.333,24821.000,1.000
4.492,4.326,4.541,4.475,4.466,4.462,4.776,4.564,-0.101,0.857,-0.551,-0.702,-0.977,0.458,73.333,24822.000,1.000
5.321,5.144,5.250,5.189,5.232,5.246,5.382,5.339,-0.101,0.856,-0.554,-0.610,-1.099,0.458,73.333,24823.000,1.000
6.035,5.882,5.838,5.814,5.891,5.903,5.852,5.975,-0.100,0.855,-0.551,-0.580,-1.007,0.336,73.333,24824.000,1.000
6.796,6.705,6.522,6.523,6.656,6.630,6.455,6.659,-0.101,0.855,-0.553,-0.488,-1.160,0.336,73.333,24825.000,1.000
7.736,7.730,7.447,7.459,7.682,7.579,7.373,7.548,-0.101,0.854,-0.552,-0.366,-1.160,0.397,73.333,24826.000,1.000
8.746,8.822,8.492,8.507,8.819,8.638,8.468,8.555,-0.101,0.854,-0.553,-0.397,-1.190,0.427,73.333,24827.000,1.000
9.484,9.603,9.295,9.289,9.650,9.439,9.319,9.331,-0.099,0.857,-0.555,-0.244,-1.221,0.397,73.333,24828.000,1.000
9.668,9.779,9.550,9.493,9.841,9.660,9.579,9.557,-0.098,0.857,-0.554,-0.366,-1.221,0.214,73.333,24829.000,1.000
9.224,9.289,9.153,9.037,9.321,9.209,9.142,9.123,-0.098,0.859,-0.555,-0.305,-1.282,0.183,73.333,24830.000,1.000
8.331,8.326,8.267,8.108,8.317,8.272,8.197,8.195,-0.100,0.857,-0.554,-0.214,-1.373,0.275,73.333,24831.000,1.000
7.299,7.210,7.231,7.045,7.200,7.193,7.108,7.111,-0.098,0.857,-0.554,-0.061,-1.251,0.183,73.333,24832.000,1.000
6.367,6.186,6.326,6.130,6.243,6.233,6.172,6.142,-0.099,0.858,-0.552,0.031,-1.282,0.153,73.333,24833.000,1.000
5.600,5.344,5.629,5.457,5.523,5.454,5.465,5.360,-0.099,0.858,-0.553,0.000,-1.312,0.061,73.333,24834.000,1.000
4.857,4.592,4.967,4.876,4.888,4.721,4.818,4.625,-0.098,0.856,-0.556,-0.031,-1.251,0.122,73.333,24835.000,1.000
3.984,3.807,4.141,4.177,4.150,3.892,4.045,3.777,-0.099,0.857,-0.553,0.031,-1.282,0.061,73.333,24836.000,1.000
2.950,2.940,3.097,3.257,3.231,2.925,3.092,2.781,-0.099,0.858,-0.554,0.122,-1.221,0.031,73.333,24837.000,1.000
1.850,2.015,1.945,2.172,2.181,1.874,2.030,1.721,-0.100,0.859,-0.549,0.092,-1.221,-0.122,73.333,24838.000,1.000
0.940,1.207,0.980,1.182,1.236,0.949,1.094,0.837,-0.101,0.855,-0.553,0.092,-1.190,-0.122,73.333,24839.000,1.000
0.490,0.733,0.496,0.589,0.663,0.403,0.546,0.388,-0.103,0.855,-0.555,0.214,-1.190,-0.214,73.333,24840.000,1.000
0.575,0.669,0.562,0.523,0.561,0.333,0.472,0.445,-0.104,0.857,-0.555,0.183,-1.282,-0.366,73.333,24841.000,1.000
0.979,0.861,0.955,0.836,0.780,0.599,0.698,0.803,-0.103,0.858,-0.554,0.183,-1.343,-0.336,73.333,24842.000,1.000
1.374,1.070,1.350,1.237,1.071,0.951,0.957,1.161,-0.104,0.859,-0.556,0.183,-1.282,-0.397,73.333,24843.000,1.000
1.592,1.190,1.588,1.523,1.300,1.243,1.126,1.374,-0.103,0.860,-0.554,0.275,-1.251,-0.427,73.333,24844.000,1.000
1.571,1.167,1.610,1.567,1.369,1.362,1.141,1.383,-0.101,0.860,-0.556,0.153,-1.312,-0.366,73.333,24845.000,1.000
1.231,0.896,1.339,1.245,1.136,1.161,0.889,1.101,-0.104,0.859,-0.554,0.153,-1.312,-0.397,73.333,24846.000,1.000
0.474,0.244,0.664,0.455,0.461,0.496,0.226,0.413,-0.103,0.860,-0.554,0.000,-1.343,-0.336,73.333,24847.000,1.000
-0.678,-0.805,-0.422,-0.763,-0.650,-0.627,-0.854,-0.671,-0.103,0.860,-0.554,0.061,-1.434,-0.397,73.333,24848.000,1.000
-1.921,-1.999,-1.659,-2.087,-1.901,-1.896,-2.051,-1.873,-0.103,0.860,-0.553,-0.183,-1.373,-0.244,73.333,24849.000,1.000
-2.908,-3.013,-2.712,-3.142,-2.941,-2.943,-3.004,-2.874,-0.104,0.859,-0.553,-0.214,-1.404,-0.244,73.333,24850.000,1.000
-3.529,-3.707,-3.429,-3.780,-3.641,-3.632,-3.591,-3.566,-0.102,0.860,-0.555,-0.366,-1.282,-0.244,73.333,24851.000,1.000
-3.929,-4.168,-3.888,-4.133,-4.122,-4.078,-3.956,-4.052,-0.101,0.862,-0.557,-0.397,-1.251,-0.092,73.333,24852.000,1.000
-4.265,-4.500,-4.206,-4.385,-4.516,-4.406,-4.261,-4.436,-0.101,0.862,-0.556,-0.427,-1.282,-0.031,73.333,24853.000,1.000
-4.456,-4.602,-4.312,-4.489,-4.715,-4.522,-4.418,-4.604,-0.101,0.861,-0.556,-0.519,-1.190,-0.061,73.333,24854.000,1.000
-4.324,-4.320,-4.058,-4.284,-4.523,-4.277,-4.239,-4.381,-0.100,0.859,-0.557,-0.580,-1.160,0.000,73.333,24855.000,1.000
-3.782,-3.650,-3.405,-3.689,-3.863,-3.650,-3.663,-3.722,-0.098,0.860,-0.552,-0.671,-1.099,0.122,73.333,24856.000,1.000
-2.902,-2.744,-2.477,-2.791,-2.846,-2.765,-2.801,-2.758,-0.099,0.859,-0.554,-0.702,-1.099,0.153,73.333,24857.000,1.000
-1.883,-1.822,-1.496,-1.791,-1.720,-1.815,-1.861,-1.728,-0.100,0.859,-0.554,-0.763,-1.007,0.275,73.333,24858.000,1.000
-0.872,-0.992,-0.604,-0.827,-0.670,-0.905,-0.963,-0.787,-0.101,0.858,-0.557,-0.763,-0.916,0.336,73.333,24859.000,1.000
0.084,-0.230,0.183,0.074,0.256,-0.041,-0.115,0.051,-0.101,0.857,-0.557,-0.793,-0.916,0.336,73.333,24860.000,1.000
1.032,0.588,0.961,0.970,1.131,0.843,0.766,0.889,-0.103,0.855,-0.558,-0.885,-0.916,0.366,73.333,24861.000,1.000
1.993,1.527,1.802,1.881,2.013,1.761,1.725,1.797,-0.103,0.854,-0.557,-0.793,-0.946,0.336,73.333,24862.000,1.000
2.844,2.471,2.622,2.699,2.806,2.592,2.646,2.681,-0.104,0.852,-0.557,-0.671,-1.068,0.427,73.333,24863.000,1.000
3.438,3.242,3.282,3.302,3.372,3.206,3.368,3.385,-0.102,0.852,-0.555,-0.580,-0.885,0.488,73.333,24864.000,1.000
3.722,3.737,3.682,3.634,3.647,3.555,3.790,3.807,-0.102,0.854,-0.554,-0.580,-0.824,0.488,73.333,24865.000,1.000
3.795,4.008,3.855,3.762,3.718,3.730,3.967,3.994,-0.101,0.853,-0.556,-0.458,-0.793,0.427,73.333,24866.000,1.000
3.829,4.205,3.944,3.837,3.765,3.897,4.069,4.098,-0.102,0.855,-0.555,-0.580,-0.824,0.488,73.333,24867.000,1.000
3.952,4.437,4.092,3.994,3.925,4.171,4.242,4.262,-0.101,0.854,-0.557,-0.519,-0.793,0.427,73.333,24868.000,1.000
4.271,4.791,4.430,4.336,4.288,4.609,4.578,4.597,-0.104,0.856,-0.556,-0.427,-0.702,0.397,73.333,24869.000,1.000
4.804,5.275,4.977,4.861,4.838,5.192,5.069,5.112,-0.101,0.857,-0.555,-0.488,-0.671,0.488,73.333,24870.000,1.000
5.417,5.780,5.590,5.431,5.432,5.806,5.591,5.667,-0.100,0.857,-0.557,-0.488,-0.702,0.488,73.333,24871.000,1.000
5.830,6.075,5.971,5.792,5.811,6.216,5.903,5.990,-0.101,0.860,-0.556,-0.458,-0.671,0.427,73.333,24872.000,1.000
5.829,5.991,5.889,5.759,5.792,6.214,5.828,5.884,-0.099,0.861,-0.558,-0.488,-0.641,0.427,73.333,24873.000,1.000
5.530,5.670,5.466,5.451,5.510,5.893,5.504,5.500,-0.099,0.863,-0.558,-0.458,-0.519,0.336,73.333,24874.000,1.000
5.172,5.348,4.978,5.102,5.214,5.485,5.182,5.116,-0.097,0.863,-0.555,-0.519,-0.488,0.397,73.333,24875.000,1.000
4.891,5.120,4.592,4.843,5.017,5.141,4.978,4.870,-0.099,0.862,-0.556,-0.549,-0.458,0.427,73.333,24876.000,1.000
4.729,4.984,4.374,4.725,4.919,4.929,4.903,4.769,-0.098,0.862,-0.557,-0.641,-0.366,0.366,73.333,24877.000,1.000
4.727,4.965,4.372,4.788,4.922,4.904,4.975,4.813,-0.098,0.861,-0.559,-0.671,-0.275,0.305,73.333,24878.000,1.000
4.998,5.192,4.697,5.120,5.134,5.174,5.290,5.098,-0.100,0.861,-0.554,-0.732,-0.275,0.366,73.333,24879.000,1.000
5.599,5.742,5.400,5.736,5.636,5.783,5.893,5.687,-0.101,0.857,-0.558,-0.854,-0.336,0.305,73.333,24880.000,1.000
6.407,6.505,6.348,6.492,6.336,6.591,6.663,6.466,-0.103,0.854,-0.557,-0.854,-0.336,0.305,73.333,24881.000,1.000
7.154,7.208,7.236,7.123,6.979,7.303,7.332,7.153,-0.103,0.853,-0.558,-0.885,-0.305,0.275,73.333,24882.000,1.000
7.570,7.576,7.756,7.392,7.322,7.648,7.623,7.468,-0.104,0.853,-0.559,-0.854,-0.366,0.275,73.333,24883.000,1.000
7.586,7.561,7.828,7.290,7.335,7.593,7.487,7.386,-0.105,0.850,-0.558,-0.763,-0.458,0.153,73.333,24884.000,1.000
7.321,7.315,7.592,6.987,7.165,7.314,7.108,7.091,-0.106,0.846,-0.561,-0.641,-0.427,0.153,73.333,24885.000,1.000
7.011,7.077,7.292,6.726,7.036,7.073,6.787,6.854,-0.107,0.844,-0.561,-0.427,-0.549,0.092,73.333,24886.000,1.000
6.815,6.969,7.072,6.634,7.055,7.000,6.693,6.814,-0.107,0.846,-0.557,-0.214,-0.549,0.031,73.333,24887.000,1.000
6.625,6.841,6.815,6.556,7.043,6.924,6.659,6.796,-0.105,0.847,-0.556,0.031,-0.610,-0.061,73.333,24888.000,1.000
6.272,6.510,6.372,6.285,6.761,6.616,6.443,6.557,-0.103,0.848,-0.557,0.122,-0.641,-0.092,73.333,24889.000,1.000
5.730,5.964,5.758,5.782,6.150,6.027,5.970,6.032,-0.100,0.850,-0.558,0.275,-0.671,-0.061,73.333,24890.000,1.000
5.074,5.306,5.078,5.131,5.309,5.267,5.311,5.316,-0.103,0.851,-0.557,0.336,-0.702,-0.031,73.333,24891.000,1.000
4.310,4.563,4.337,4.362,4.325,4.404,4.510,4.467,-0.100,0.853,-0.556,0.458,-0.519,-0.031,73.333,24892.000,1.000
3.371,3.665,3.442,3.432,3.223,3.415,3.543,3.467,-0.101,0.855,-0.556,0.610,-0.488,-0.031,73.333,24893.000,1.000
2.309,2.630,2.409,2.399,2.110,2.355,2.480,2.391,-0.102,0.856,-0.559,0.641,-0.488,-0.061,73.333,24894.000,1.000
1.263,1.567,1.356,1.388,1.117,1.339,1.430,1.370,-0.103,0.856,-0.560,0.702,-0.458,0.000,73.333,24895.000,1.000
0.367,0.609,0.415,0.515,0.315,0.468,0.483,0.513,-0.102,0.859,-0.556,0.732,-0.427,0.061,73.333,24896.000,1.000
-0.321,-0.153,-0.337,-0.178,-0.307,-0.236,-0.325,-0.145,-0.105,0.859,-0.555,0.763,-0.488,0.092,73.333,24897.000,1.000
-0.880,-0.769,-0.951,-0.768,-0.852,-0.864,-1.042,-0.698,-0.107,0.861,-0.555,0.702,-0.427,0.183,73.333,24898.000,1.000
-1.419,-1.329,-1.503,-1.338,-1.401,-1.491,-1.699,-1.251,-0.109,0.864,-0.551,0.763,-0.519,0.366,73.333,24899.000,1.000
-2.002,-1.914,-2.055,-1.936,-1.996,-2.150,-2.301,-1.854,-0.109,0.863,-0.554,0.641,-0.519,0.336,73.333,24900.000,1.000
-2.618,-2.545,-2.616,-2.554,-2.625,-2.813,-2.841,-2.489,-0.108,0.865,-0.553,0.610,-0.610,0.397,73.333,24901.000,1.000
-3.213,-3.186,-3.156,-3.156,-3.242,-3.421,-3.311,-3.090,-0.107,0.866,-0.553,0.488,-0.732,0.397,73.333,24902.000,1.000
-3.719,-3.765,-3.630,-3.686,-3.788,-3.897,-3.699,-3.581,-0.105,0.866,-0.556,0.366,-0.793,0.305,73.333,24903.000,1.000
-3.963,-4.097,-3.897,-3.979,-4.086,-4.082,-3.870,-3.800,-0.106,0.867,-0.555,0.183,-0.793,0.275,73.333,24904.000,1.000
-3.771,-4.002,-3.820,-3.858,-3.946,-3.849,-3.675,-3.616,-0.105,0.866,-0.553,0.031,-0.824,0.397,73.333,24905.000,1.000
-3.127,-3.458,-3.383,-3.284,-3.334,-3.231,-3.097,-3.048,-0.101,0.867,-0.554,-0.122,-0.824,0.366,73.333,24906.000,1.000
-2.244,-2.660,-2.741,-2.444,-2.449,-2.450,-2.321,-2.305,-0.100,0.865,-0.556,-0.275,-0.854,0.305,73.333,24907.000,1.000
-1.503,-1.969,-2.174,-1.704,-1.681,-1.832,-1.680,-1.726,-0.098,0.864,-0.556,-0.458,-0.671,0.305,73.333,24908.000,1.000
-1.207,-1.666,-1.889,-1.361,-1.340,-1.596,-1.425,-1.538,-0.097,0.862,-0.560,-0.610,-0.732,0.336,73.333,24909.000,1.000
-1.431,-1.818,-1.942,-1.488,-1.504,-1.777,-1.594,-1.763,-0.098,0.859,-0.561,-0.641,-0.549,0.305,73.333,24910.000,1.000
-2.016,-2.273,-2.246,-1.940,-2.010,-2.240,-2.029,-2.240,-0.099,0.858,-0.559,-0.641,-0.488,0.305,73.333,24911.000,1.000
-2.731,-2.832,-2.704,-2.534,-2.658,-2.833,-2.560,-2.798,-0.099,0.857,-0.562,-0.732,-0.397,0.488,73.333,24912.000,1.000
-3.424,-3.390,-3.282,-3.179,-3.342,-3.466,-3.126,-3.358,-0.100,0.858,-0.563,-0.824,-0.427,0.397,73.333,24913.000,1.000
-3.920,-3.819,-3.845,-3.736,-3.909,-3.981,-3.630,-3.800,-0.103,0.856,-0.561,-0.763,-0.397,0.397,73.333,24914.000,1.000
-4.095,-4.017,-4.204,-4.049,-4.200,-4.210,-3.945,-4.001,-0.101,0.855,-0.558,-0.854,-0.366,0.427,73.333,24915.000,1.000
-3.931,-3.956,-4.223,-4.026,-4.141,-4.089,-3.979,-3.903,-0.103,0.853,-0.556,-0.854,-0.397,0.397,73.333,24916.000,1.000
-3.458,-3.627,-3.835,-3.620,-3.718,-3.621,-3.653,-3.488,-0.106,0.854,-0.555,-1.007,-0.397,0.366,73.333,24917.000,1.000
-2.716,-3.026,-3.050,-2.849,-2.972,-2.863,-2.932,-2.777,-0.104,0.853,-0.553,-1.129,-0.366,0.427,73.333,24918.000,1.000
-1.781,-2.182,-1.969,-1.808,-1.988,-1.909,-1.889,-1.850,-0.104,0.853,-0.558,-1.251,-0.427,0.366,73.333,24919.000,1.000
-0.871,-1.286,-0.870,-0.755,-0.989,-0.995,-0.808,-0.936,-0.100,0.852,-0.559,-1.190,-0.427,0.366,73.333,24920.000,1.000
-0.296,-0.657,-0.135,-0.041,-0.304,-0.437,-0.087,-0.351,-0.101,0.851,-0.562,-1.160,-0.427,0.305,73.333,24921.000,1.000
-0.288,-0.577,-0.049,0.056,-0.219,-0.465,-0.021,-0.345,-0.100,0.850,-0.561,-1.099,-0.397,0.427,73.333,24922.000,1.000
-0.879,-1.117,-0.633,-0.501,-0.805,-1.082,-0.642,-0.957,-0.099,0.851,-0.560,-1.038,-0.488,0.458,73.333,24923.000,1.000
-1.780,-1.991,-1.554,-1.392,-1.761,-1.961,-1.617,-1.884,-0.100,0.848,-0.557,-1.038,-0.549,0.549,73.333,24924.000,1.000
-2.587,-2.784,-2.382,-2.189,-2.639,-2.684,-2.506,-2.712,-0.101,0.849,-0.558,-1.038,-0.458,0.610,73.333,24925.000,1.000
-3.084,-3.270,-2.903,-2.685,-3.175,-3.053,-3.076,-3.221,-0.100,0.851,-0.560,-1.068,-0.397,0.580,73.333,24926.000,1.000
-3.343,-3.514,-3.195,-2.974,-3.411,-3.178,-3.390,-3.481,-0.099,0.855,-0.561,-1.129,-0.275,0.702,73.333,24927.000,1.000
-3.596,-3.745,-3.480,-3.291,-3.578,-3.329,-3.666,-3.720,-0.099,0.856,-0.559,-1.129,-0.305,0.824,73.333,24928.000,1.000
-3.927,-4.058,-3.839,-3.711,-3.806,-3.618,-3.984,-4.026,-0.096,0.857,-0.558,-1.221,-0.214,0.824,73.333,24929.000,1.000
-4.232,-4.352,-4.155,-4.115,-4.042,-3.940,-4.253,-4.306,-0.098,0.859,-0.563,-1.312,-0.214,0.885,73.333,24930.000,1.000
-4.305,-4.406,-4.203,-4.265,-4.101,-4.050,-4.281,-4.362,-0.100,0.862,-0.558,-1.404,-0.122,0.916,73.333,24931.000,1.000
-3.953,-4.005,-3.786,-3.930,-3.762,-3.706,-3.886,-4.000,-0.102,0.867,-0.559,-1.526,-0.122,0.916,73.333,24932.000,1.000
-3.140,-3.117,-2.901,-3.073,-2.948,-2.866,-3.050,-3.187,-0.106,0.867,-0.560,-1.709,-0.244,0.702,73.333,24933.000,1.000
-2.032,-1.929,-1.749,-1.897,-1.798,-1.727,-1.948,-2.080,-0.108,0.870,-0.561,-1.831,-0.275,0.732,73.333,24934.000,1.000
-1.023,-0.859,-0.721,-0.840,-0.707,-0.713,-0.960,-1.052,-0.110,0.871,-0.558,-1.984,-0.366,0.488,73.333,24935.000,1.000
-0.555,-0.353,-0.232,-0.373,-0.161,-0.277,-0.511,-0.533,-0.112,0.869,-0.561,-2.167,-0.702,0.336,73.333,24936.000,1.000
-0.865,-0.641,-0.509,-0.738,-0.441,-0.652,-0.828,-0.771,-0.111,0.866,-0.558,-2.350,-0.763,0.153,73.333,24937.000,1.000
-1.906,-1.676,-1.528,-1.861,-1.500,-1.771,-1.867,-1.757,-0.111,0.864,-0.556,-2.594,-0.916,-0.031,73.333,24938.000,1.000
-3.278,-3.065,-2.931,-3.304,-2.901,-3.214,-3.235,-3.130,-0.110,0.862,-0.562,-2.594,-1.099,-0.092,73.333,24939.000,1.000
-4.386,-4.217,-4.142,-4.442,-4.018,-4.370,-4.349,-4.300,-0.107,0.860,-0.560,-2.625,-1.068,-0.183,73.333,24940.000,1.000
-4.709,-4.586,-4.595,-4.738,-4.321,-4.701,-4.682,-4.697,-0.107,0.858,-0.559,-2.686,-1.221,-0.397,73.333,24941.000,1.000
-3.998,-3.894,-3.956,-3.954,-3.583,-3.959,-3.965,-4.012,-0.104,0.857,-0.559,-2.716,-1.221,-0.458,73.333,24942.000,1.000
-2.363,-2.248,-2.297,-2.243,-1.961,-2.285,-2.307,-2.339,-0.104,0.857,-0.558,-2.747,-1.251,-0.427,73.333,24943.000,1.000
-0.176,-0.054,-0.049,-0.037,0.123,-0.094,-0.113,-0.100,-0.102,0.858,-0.555,-2.747,-1.190,-0.488,73.333,24944.000,1.000
1.926,2.019,2.054,1.990,2.033,1.956,1.947,1.999,-0.100,0.857,-0.557,-2.747,-1.099,-0.366,73.333,24945.000,1.000
3.234,3.268,3.264,3.154,3.114,3.177,3.169,3.230,-0.099,0.856,-0.557,-2.747,-1.038,-0.305,73.333,24946.000,1.000
3.390,3.364,3.274,3.170,3.094,3.251,3.229,3.280,-0.100,0.857,-0.560,-2.777,-1.099,-0.214,73.333,24947.000,1.000
2.579,2.516,2.336,2.277,2.211,2.383,2.339,2.391,-0.098,0.855,-0.557,-2.655,-0.916,-0.092,73.333,24948.000,1.000
1.365,1.289,1.045,1.033,1.017,1.125,1.064,1.146,-0.101,0.854,-0.554,-2.594,-0.916,0.092,73.333,24949.000,1.000
0.246,0.166,-0.102,-0.097,-0.038,-0.029,-0.106,0.026,-0.103,0.853,-0.554,-2.563,-0.824,0.153,73.333,24950.000,1.000
-0.600,-0.695,-0.933,-0.946,-0.810,-0.882,-0.990,-0.808,-0.103,0.856,-0.552,-2.411,-0.671,0.214,73.333,24951.000,1.000
-1.306,-1.428,-1.596,-1.633,-1.435,-1.554,-1.696,-1.491,-0.104,0.857,-0.549,-2.319,-0.641,0.366,73.333,24952.000,1.000
-2.161,-2.294,-2.408,-2.433,-2.199,-2.349,-2.507,-2.306,-0.105,0.858,-0.548,-2.411,-0.671,0.336,73.333,24953.000,1.000
-3.297,-3.380,-3.516,-3.478,-3.245,-3.412,-3.581,-3.373,-0.107,0.860,-0.549,-2.472,-0.732,0.488,73.333,24954.000,1.000
-4.601,-4.560,-4.800,-4.673,-4.490,-4.638,-4.850,-4.589,-0.105,0.861,-0.548,-2.533,-0.702,0.641,73.333,24955.000,1.000
-5.818,-5.625,-5.988,-5.796,-5.698,-5.792,-6.086,-5.729,-0.107,0.860,-0.549,-2.563,-0.671,0.641,73.333,24956.000,1.000
-6.694,-6.397,-6.832,-6.623,-6.613,-6.654,-7.023,-6.572,-0.104,0.859,-0.550,-2.563,-0.671,0.671,73.333,24957.000,1.000
-7.079,-6.776,-7.196,-7.003,-7.060,-7.087,-7.465,-6.976,-0.100,0.855,-0.554,-2.502,-0.610,0.702,73.333,24958.000,1.000
-6.862,-6.631,-6.951,-6.793,-6.901,-6.945,-7.232,-6.799,-0.101,0.857,-0.551,-2.411,-0.580,0.702,73.333,24959.000,1.000
-6.030,-5.885,-6.069,-5.962,-6.110,-6.171,-6.284,-6.005,-0.099,0.858,-0.548,-2.228,-0.488,0.763,73.333,24960.000,1.000
-4.704,-4.617,-4.704,-4.653,-4.819,-4.864,-4.791,-4.724,-0.096,0.856,-0.546,-2.045,-0.397,0.793,73.333,24961.000,1.000
-3.071,-3.013,-3.077,-3.088,-3.220,-3.215,-3.021,-3.151,-0.096,0.856,-0.551,-2.197,-0.183,0.885,73.333,24962.000,1.000
-1.355,-1.315,-1.411,-1.499,-1.533,-1.464,-1.254,-1.504,-0.096,0.856,-0.553,-2.106,-0.061,0.885,73.333,24963.000,1.000
0.284,0.315,0.171,-0.004,0.099,0.214,0.352,0.085,-0.096,0.853,-0.550,-1.892,0.031,1.007,73.333,24964.000,1.000
1.758,1.787,1.608,1.373,1.600,1.714,1.754,1.556,-0.097,0.853,-0.553,-1.831,0.183,0.916,73.333,24965.000,1.000
3.022,3.039,2.853,2.615,2.922,2.967,2.957,2.859,-0.096,0.853,-0.553,-1.648,0.214,0.946,73.333,24966.000,1.000
3.997,3.995,3.824,3.637,3.975,3.904,3.919,3.887,-0.096,0.851,-0.554,-1.434,0.397,0.916,73.333,24967.000,1.000
4.515,4.496,4.359,4.235,4.561,4.400,4.468,4.436,-0.097,0.852,-0.552,-1.343,0.488,0.885,73.333,24968.000,1.000
4.456,4.432,4.350,4.262,4.530,4.381,4.468,4.379,-0.099,0.851,-0.552,-1.221,0.610,0.854,73.333,24969.000,1.000
3.871,3.849,3.844,3.750,3.914,3.900,3.955,3.794,-0.101,0.854,-0.555,-1.099,0.732,0.885,73.333,24970.000,1.000
3.047,3.031,3.108,2.978,3.011,3.208,3.207,3.005,-0.100,0.855,-0.555,-1.068,0.732,0.854,73.333,24971.000,1.000
2.400,2.389,2.527,2.374,2.262,2.670,2.619,2.446,-0.101,0.854,-0.556,-0.946,0.763,0.702,73.333,24972.000,1.000
2.163,2.149,2.311,2.189,1.931,2.470,2.405,2.327,-0.103,0.856,-0.556,-0.854,0.916,0.580,73.333,24973.000,1.000
2.317,2.309,2.458,2.421,2.039,2.581,2.557,2.589,-0.101,0.859,-0.556,-0.916,0.916,0.519,73.333,24974.000,1.000
2.704,2.753,2.853,2.909,2.460,2.888,2.960,3.040,-0.102,0.860,-0.552,-0.854,0.732,0.519,73.333,24975.000,1.000
3.203,3.378,3.392,3.484,3.065,3.325,3.507,3.539,-0.099,0.862,-0.556,-1.007,0.702,0.397,73.333,24976.000,1.000
3.753,4.079,3.974,4.018,3.746,3.854,4.099,4.026,-0.100,0.864,-0.553,-1.038,0.641,0.275,73.333,24977.000,1.000
4.209,4.633,4.411,4.350,4.302,4.314,4.532,4.384,-0.103,0.864,-0.553,-1.160,0.641,0.275,73.333,24978.000,1.000
4.437,4.848,4.562,4.389,4.563,4.541,4.650,4.512,-0.104,0.864,-0.553,-1.251,0.671,0.183,73.333,24979.000,1.000
4.409,4.701,4.431,4.189,4.500,4.487,4.454,4.413,-0.102,0.863,-0.553,-1.373,0.641,0.122,73.333,24980.000,1.000
4.172,4.304,4.117,3.879,4.200,4.206,4.059,4.147,-0.102,0.865,-0.554,-1.343,0.580,0.122,73.333,24981.000,1.000
3.780,3.781,3.712,3.554,3.765,3.781,3.589,3.764,-0.102,0.863,-0.554,-1.404,0.641,0.153,73.333,24982.000,1.000
3.256,3.183,3.227,3.194,3.226,3.255,3.094,3.261,-0.099,0.864,-0.554,-1.434,0.671,0.122,73.333,24983.000,1.000
2.682,2.572,2.683,2.765,2.635,2.700,2.609,2.679,-0.100,0.864,-0.552,-1.526,0.671,0.122,73.333,24984.000,1.000
2.111,1.975,2.080,2.215,2.018,2.125,2.108,2.041,-0.103,0.862,-0.554,-1.587,0.641,0.214,73.333,24985.000,1.000
1.523,1.374,1.404,1.506,1.365,1.478,1.519,1.340,-0.105,0.860,-0.556,-1.617,0.671,0.183,73.333,24986.000,1.000
0.934,0.803,0.728,0.731,0.731,0.792,0.871,0.657,-0.106,0.861,-0.556,-1.617,0.610,0.244,73.333,24987.000,1.000
0.430,0.354,0.207,0.090,0.225,0.210,0.305,0.144,-0.107,0.862,-0.557,-1.678,0.458,0.366,73.333,24988.000,1.000
0.156,0.147,0.010,-0.199,-0.012,-0.066,0.023,-0.036,-0.106,0.862,-0.554,-1.862,0.427,0.275,73.333,24989.000,1.000
0.143,0.161,0.112,-0.122,0.001,-0.008,0.058,0.086,-0.104,0.861,-0.555,-1.801,0.397,0.336,73.333,24990.000,1.000
0.202,0.181,0.250,0.052,0.038,0.139,0.178,0.231,-0.104,0.859,-0.555,-1.770,0.305,0.458,73.333,24991.000,1.000
0.080,-0.020,0.132,0.000,-0.138,0.057,0.077,0.095,-0.103,0.856,-0.552,-1.892,0.336,0.641,73.333,24992.000,1.000
-0.361,-0.518,-0.355,-0.426,-0.608,-0.407,-0.386,-0.425,-0.104,0.856,-0.554,-1.801,0.244,0.763,73.333,24993.000,1.000
-0.989,-1.143,-1.029,-1.050,-1.199,-1.080,-1.029,-1.106,-0.104,0.857,-0.555,-1.678,0.153,0.702,73.333,24994.000,1.000
-1.551,-1.654,-1.604,-1.578,-1.663,-1.652,-1.547,-1.617,-0.102,0.856,-0.554,-1.587,0.122,0.854,73.333,24995.000,1.000
-1.905,-1.945,-1.939,-1.857,-1.898,-1.958,-1.804,-1.817,-0.100,0.858,-0.552,-1.587,0.214,0.977,73.333,24996.000,1.000
-2.087,-2.075,-2.089,-1.953,-1.993,-2.059,-1.899,-1.817,-0.099,0.858,-0.555,-1.617,0.244,1.129,73.333,24997.000,1.000
-2.227,-2.180,-2.192,-2.025,-2.112,-2.132,-2.020,-1.844,-0.094,0.856,-0.555,-1.556,0.183,1.221,73.333,24998.000,1.000
-2.305,-2.241,-2.220,-2.058,-2.228,-2.196,-2.153,-1.932,-0.093,0.858,-0.553,-1.465,0.275,1.282,73.333,24999.000,1.000
-2.179,-2.124,-2.036,-1.906,-2.174,-2.113,-2.113,-1.935,-0.097,0.861,-0.549,-1.343,0.458,1.404,73.333,25000.000,1.000
-1.805,-1.795,-1.615,-1.521,-1.872,-1.809,-1.806,-1.741,-0.099,0.861,-0.549,-1.526,0.427,1.495,73.333,25001.000,1.000
-1.353,-1.411,-1.155,-1.076,-1.460,-1.405,-1.383,-1.425,-0.100,0.861,-0.549,-1.495,0.519,1.495,73.333,25002.000,1.000
-1.145,-1.264,-0.995,-0.903,-1.243,-1.200,-1.182,-1.254,-0.103,0.862,-0.550,-1.617,0.549,1.465,73.333,25003.000,1.000
-1.356,-1.503,-1.297,-1.189,-1.409,-1.385,-1.395,-1.421,-0.101,0.865,-0.554,-1.678,0.549,1.373,73.333,25004.000,1.000
-1.927,-2.069,-1.950,-1.865,-1.930,-1.948,-1.975,-1.927,-0.100,0.865,-0.550,-1.740,0.336,1.221,73.333,25005.000,1.000
-2.632,-2.756,-2.665,-2.656,-2.602,-2.683,-2.690,-2.578,-0.100,0.865,-0.550,-1.770,0.427,1.129,73.333,25006.000,1.000
-3.093,-3.203,-3.042,-3.136,-3.048,-3.179,-3.139,-2.985,-0.098,0.861,-0.551,-1.862,0.488,1.129,73.333,25007.000,1.000
-2.929,-3.025,-2.752,-2.920,-2.872,-3.006,-2.914,-2.751,-0.096,0.859,-0.552,-1.892,0.427,1.099,73.333,25008.000,1.000
-1.939,-2.009,-1.689,-1.843,-1.857,-1.950,-1.817,-1.688,-0.097,0.856,-0.551,-1.862,0.488,1.038,73.333,25009.000,1.000
-0.324,-0.369,-0.134,-0.148,-0.211,-0.242,-0.097,-0.034,-0.097,0.853,-0.554,-1.770,0.519,0.916,73.333,25010.000,1.000
1.349,1.298,1.334,1.561,1.476,1.514,1.633,1.610,-0.098,0.850,-0.551,-1.556,0.580,0.824,73.333,25011.000,1.000
2.519,2.422,2.237,2.705,2.619,2.735,2.803,2.684,-0.100,0.850,-0.552,-1.343,0.519,0.732,73.333,25012.000,1.000
2.952,2.788,2.459,3.063,2.981,3.166,3.190,2.981,-0.101,0.850,-0.552,-1.282,0.549,0.732,73.333,25013.000,1.000
2.857,2.633,2.298,2.877,2.803,3.006,3.013,2.758,-0.102,0.850,-0.550,-1.068,0.397,0.671,73.333,25014.000,1.000
2.638,2.384,2.187,2.603,2.537,2.691,2.712,2.474,-0.104,0.850,-0.554,-1.007,0.397,0.641,73.333,25015.000,1.000
2.596,2.351,2.378,2.561,2.496,2.567,2.635,2.449,-0.104,0.851,-0.551,-0.885,0.214,0.549,73.333,25016.000,1.000
2.778,2.573,2.816,2.776,2.701,2.704,2.848,2.689,-0.104,0.852,-0.552,-0.763,0.092,0.580,73.333,25017.000,1.000
2.988,2.834,3.199,3.006,2.941,2.906,3.123,2.931,-0.105,0.855,-0.554,-0.732,-0.061,0.641,73.333,25018.000,1.000
3.070,2.973,3.330,3.069,3.067,3.006,3.252,2.993,-0.104,0.856,-0.552,-0.702,-0.092,0.671,73.333,25019.000,1.000
3.011,2.983,3.228,2.960,3.062,2.984,3.192,2.893,-0.105,0.859,-0.553,-0.702,-0.153,0.580,73.333,25020.000,1.000
2.840,2.889,2.978,2.732,2.929,2.859,2.977,2.701,-0.103,0.861,-0.556,-0.610,-0.275,0.580,73.333,25021.000,1.000
2.531,2.638,2.585,2.371,2.615,2.590,2.598,2.398,-0.103,0.860,-0.557,-0.671,-0.366,0.610,73.333,25022.000,1.000
1.899,2.025,1.885,1.710,1.950,1.988,1.896,1.795,-0.101,0.864,-0.555,-0.702,-0.488,0.702,73.333,25023.000,1.000
0.761,0.876,0.724,0.595,0.796,0.868,0.717,0.721,-0.100,0.863,-0.557,-0.641,-0.549,0.610,73.333,25024.000,1.000
-0.904,-0.810,-0.908,-0.981,-0.825,-0.804,-0.948,-0.851,-0.100,0.863,-0.553,-0.763,-0.580,0.732,73.333,25025.000,1.000
-2.907,-2.818,-2.844,-2.848,-2.731,-2.850,-2.915,-2.770,-0.100,0.864,-0.554,-0.916,-0.793,0.702,73.333,25026.000,1.000
-4.891,-4.782,-4.776,-4.702,-4.626,-4.906,-4.860,-4.732,-0.099,0.861,-0.552,-0.946,-0.671,0.732,73.333,25027.000,1.000
-6.533,-6.387,-6.416,-6.278,-6.260,-6.632,-6.490,-6.434,-0.099,0.861,-0.552,-1.007,-0.824,0.793,73.333,25028.000,1.000
-7.610,-7.432,-7.534,-7.378,-7.427,-7.785,-7.584,-7.623,-0.099,0.860,-0.553,-1.099,-0.824,0.763,73.333,25029.000,1.000
-8.041,-7.855,-8.018,-7.894,-7.996,-8.267,-8.044,-8.163,-0.099,0.860,-0.552,-1.068,-0.824,0.885,73.333,25030.000,1.000
-7.911,-7.742,-7.902,-7.842,-7.960,-8.143,-7.920,-8.079,-0.099,0.860,-0.552,-1.007,-0.854,0.824,73.333,25031.000,1.000
-7.405,-7.258,-7.333,-7.338,-7.443,-7.580,-7.372,-7.528,-0.098,0.860,-0.556,-0.946,-0.885,0.854,73.333,25032.000,1.000
-6.742,-6.593,-6.530,-6.576,-6.677,-6.791,-6.611,-6.744,-0.099,0.861,-0.555,-1.038,-1.007,0.824,73.333,25033.000,1.000
-6.031,-5.825,-5.637,-5.696,-5.829,-5.901,-5.765,-5.875,-0.098,0.861,-0.552,-1.068,-0.977,0.793,73.333,25034.000,1.000
-5.276,-4.959,-4.718,-4.773,-4.968,-4.965,-4.895,-4.975,-0.100,0.861,-0.553,-1.129,-0.946,0.671,73.333,25035.000,1.000
-4.440,-3.992,-3.793,-3.840,-4.094,-4.012,-4.025,-4.052,-0.101,0.860,-0.550,-1.129,-0.916,0.641,73.333,25036.000,1.000
-3.466,-2.927,-2.838,-2.875,-3.155,-3.031,-3.118,-3.069,-0.097,0.858,-0.554,-1.068,-0.946,0.610,73.333,25037.000,1.000
-2.413,-1.880,-1.916,-1.933,-2.169,-2.077,-2.206,-2.077,-0.096,0.857,-0.554,-1.068,-1.129,0.549,73.333,25038.000,1.000
-1.453,-1.040,-1.177,-1.156,-1.256,-1.270,-1.423,-1.222,-0.098,0.857,-0.555,-1.038,-1.099,0.458,73.333,25039.000,1.000
-0.862,-0.640,-0.840,-0.761,-0.662,-0.816,-1.003,-0.744,-0.099,0.856,-0.554,-0.916,-1.129,0.427,73.333,25040.000,1.000
-0.920,-0.887,-1.111,-0.956,-0.684,-0.953,-1.178,-0.890,-0.097,0.857,-0.556,-0.946,-1.068,0.366,73.333,25041.000,1.000
-1.707,-1.805,-2.015,-1.775,-1.456,-1.768,-1.987,-1.723,-0.101,0.857,-0.558,-0.854,-1.068,0.305,73.333,25042.000,1.000
-3.055,-3.221,-3.384,-3.077,-2.848,-3.139,-3.268,-3.083,-0.100,0.856,-0.555,-0.824,-1.099,0.305,73.333,25043.000,1.000
-4.547,-4.750,-4.850,-4.520,-4.435,-4.681,-4.660,-4.576,-0.101,0.858,-0.552,-0.763,-1.129,0.061,73.333,25044.000,1.000
-5.689,-5.941,-5.983,-5.690,-5.697,-5.905,-5.750,-5.744,-0.100,0.857,-0.552,-0.702,-1.129,0.000,73.333,25045.000,1.000
-6.185,-6.504,-6.512,-6.308,-6.302,-6.482,-6.291,-6.318,-0.101,0.858,-0.551,-0.793,-1.282,-0.153,73.333,25046.000,1.000
-6.066,-6.433,-6.437,-6.337,-6.239,-6.392,-6.291,-6.311,-0.100,0.859,-0.556,-0.702,-1.282,0.000,73.333,25047.000,1.000
-5.608,-5.975,-5.972,-5.946,-5.766,-5.886,-5.944,-5.947,-0.097,0.859,-0.556,-0.793,-1.099,-0.122,73.333,25048.000,1.000
-4.998,-5.332,-5.278,-5.277,-5.106,-5.184,-5.373,-5.370,-0.099,0.859,-0.556,-0.671,-1.129,-0.183,73.333,25049.000,1.000
-4.278,-4.575,-4.431,-4.407,-4.340,-4.379,-4.600,-4.610,-0.096,0.858,-0.555,-0.671,-1.221,-0.122,73.333,25050.000,1.000
-3.512,-3.788,-3.556,-3.500,-3.547,-3.563,-3.729,-3.759,-0.097,0.860,-0.555,-0.671,-1.129,-0.061,73.333,25051.000,1.000
-2.854,-3.135,-2.856,-2.801,-2.870,-2.887,-2.984,-3.024,-0.097,0.859,-0.550,-0.671,-1.129,-0.122,73.333,25052.000,1.000
-2.481,-2.795,-2.516,-2.511,-2.495,-2.513,-2.601,-2.625,-0.098,0.860,-0.552,-0.641,-1.068,-0.153,73.333,25053.000,1.000
-2.387,-2.751,-2.493,-2.569,-2.429,-2.424,-2.571,-2.561,-0.098,0.858,-0.553,-0.732,-1.007,-0.122,73.333,25054.000,1.000
-2.443,-2.838,-2.607,-2.761,-2.542,-2.492,-2.698,-2.671,-0.100,0.858,-0.554,-0.793,-1.007,-0.122,73.333,25055.000,1.000
-2.591,-2.971,-2.767,-2.972,-2.749,-2.668,-2.864,-2.859,-0.101,0.858,-0.555,-0.854,-0.916,-0.092,73.333,25056.000,1.000
-2.846,-3.161,-2.985,-3.211,-3.030,-2.963,-3.071,-3.116,-0.101,0.857,-0.554,-0.702,-0.977,-0.092,73.333,25057.000,1.000
-3.226,-3.431,-3.279,-3.491,-3.381,-3.362,-3.362,-3.446,-0.103,0.860,-0.553,-0.793,-1.007,-0.092,73.333,25058.000,1.000
-3.567,-3.627,-3.495,-3.662,-3.653,-3.673,-3.609,-3.687,-0.104,0.859,-0.556,-0.824,-1.099,-0.122,73.333,25059.000,1.000
-3.564,-3.472,-3.362,-3.473,-3.588,-3.601,-3.550,-3.561,-0.103,0.860,-0.552,-0.824,-1.129,-0.061,73.333,25060.000,1.000
-3.040,-2.832,-2.747,-2.816,-3.044,-3.003,-3.023,-2.918,-0.103,0.862,-0.551,-0.824,-1.251,-0.031,73.333,25061.000,1.000
-2.112,-1.847,-1.793,-1.847,-2.142,-2.015,-2.117,-1.895,-0.102,0.862,-0.551,-0.916,-1.190,-0.122,73.333,25062.000,1.000
-1.134,-0.869,-0.851,-0.913,-1.211,-0.995,-1.143,-0.858,-0.103,0.862,-0.550,-1.068,-1.282,-0.153,73.333,25063.000,1.000
-0.376,-0.149,-0.175,-0.247,-0.486,-0.210,-0.351,-0.088,-0.103,0.861,-0.552,-1.068,-1.343,-0.122,73.333,25064.000,1.000
0.083,0.259,0.175,0.118,-0.023,0.268,0.168,0.334,-0.102,0.860,-0.552,-1.129,-1.312,0.000,73.333,25065.000,1.000
0.260,0.400,0.248,0.239,0.202,0.468,0.413,0.453,-0.104,0.857,-0.553,-1.129,-1.282,-0.122,73.333,25066.000,1.000
0.235,0.361,0.156,0.212,0.258,0.471,0.442,0.394,-0.103,0.858,-0.553,-1.038,-1.312,0.031,73.333,25067.000,1.000
0.119,0.251,0.016,0.127,0.227,0.362,0.331,0.287,-0.105,0.859,-0.554,-0.946,-1.343,0.000,73.333,25068.000,1.000
0.129,0.291,0.027,0.164,0.288,0.338,0.282,0.332,-0.104,0.857,-0.556,-0.916,-1.312,0.061,73.333,25069.000,1.000
0.508,0.714,0.406,0.540,0.648,0.647,0.560,0.734,-0.104,0.857,-0.553,-0.977,-1.282,0.092,73.333,25070.000,1.000
1.309,1.549,1.185,1.302,1.362,1.379,1.261,1.524,-0.103,0.858,-0.555,-1.038,-1.282,0.275,73.333,25071.000,1.000
2.360,2.601,2.174,2.269,2.293,2.385,2.239,2.516,-0.102,0.858,-0.554,-1.038,-1.282,0.305,73.333,25072.000,1.000
3.383,3.591,3.102,3.158,3.223,3.394,3.221,3.436,-0.102,0.858,-0.551,-0.977,-1.190,0.427,73.333,25073.000,1.000
4.238,4.396,3.872,3.864,4.068,4.280,4.073,4.163,-0.101,0.859,-0.552,-1.068,-1.160,0.336,73.333,25074.000,1.000
4.906,5.015,4.512,4.438,4.820,5.030,4.784,4.713,-0.103,0.861,-0.553,-1.038,-1.251,0.488,73.333,25075.000,1.000
5.331,5.400,4.978,4.870,5.365,5.560,5.280,5.065,-0.102,0.860,-0.553,-1.099,-1.221,0.519,73.333,25076.000,1.000
5.443,5.476,5.179,5.081,5.547,5.742,5.457,5.164,-0.102,0.860,-0.552,-1.129,-1.251,0.519,73.333,25077.000,1.000
5.237,5.217,5.069,5.005,5.304,5.525,5.277,4.997,-0.102,0.860,-0.554,-1.007,-1.190,0.427,73.333,25078.000,1.000
4.895,4.797,4.789,4.760,4.828,5.099,4.920,4.725,-0.100,0.859,-0.554,-1.099,-1.190,0.641,73.333,25079.000,1.000
4.688,4.504,4.589,4.588,4.461,4.783,4.676,4.592,-0.101,0.861,-0.552,-1.160,-1.190,0.610,73.333,25080.000,1.000
4.753,4.509,4.622,4.647,4.429,4.755,4.710,4.711,-0.102,0.864,-0.551,-1.251,-1.099,0.580,73.333,25081.000,1.000
5.062,4.803,4.891,4.939,4.742,4.998,5.012,5.035,-0.102,0.863,-0.552,-1.373,-0.946,0.610,73.333,25082.000,1.000
5.485,5.251,5.290,5.341,5.241,5.376,5.452,5.434,-0.100,0.863,-0.551,-1.404,-0.885,0.519,73.333,25083.000,1.000
5.948,5.778,5.763,5.781,5.796,5.814,5.958,5.866,-0.100,0.863,-0.555,-1.434,-0.824,0.549,73.333,25084.000,1.000
6.445,6.376,6.320,6.257,6.363,6.312,6.514,6.368,-0.101,0.862,-0.555,-1.434,-0.793,0.580,73.333,25085.000,1.000
6.946,6.994,6.915,6.737,6.898,6.824,7.070,6.924,-0.099,0.858,-0.557,-1.495,-0.671,0.519,73.333,25086.000,1.000
7.359,7.503,7.408,7.130,7.317,7.232,7.516,7.420,-0.100,0.855,-0.555,-1.587,-0.641,0.488,73.333,25087.000,1.000
7.552,7.738,7.617,7.311,7.506,7.382,7.702,7.680,-0.099,0.856,-0.552,-1.373,-0.580,0.488,73.333,25088.000,1.000
7.544,7.707,7.568,7.306,7.503,7.305,7.638,7.695,-0.099,0.856,-0.551,-1.312,-0.397,0.458,73.333,25089.000,1.000
7.522,7.617,7.493,7.306,7.498,7.223,7.516,7.643,-0.101,0.855,-0.554,-1.190,-0.366,0.458,73.333,25090.000,1.000
7.661,7.676,7.603,7.487,7.663,7.348,7.540,7.713,-0.102,0.856,-0.555,-1.190,-0.458,0.519,73.333,25091.000,1.000
7.999,7.948,7.944,7.877,8.039,7.732,7.786,7.982,-0.101,0.854,-0.552,-1.099,-0.366,0.519,73.333,25092.000,1.000
8.396,8.324,8.374,8.322,8.483,8.228,8.158,8.354,-0.103,0.854,-0.552,-1.007,-0.366,0.488,73.333,25093.000,1.000
8.752,8.712,8.785,8.708,8.876,8.699,8.569,8.732,-0.105,0.854,-0.554,-0.946,-0.336,0.397,73.333,25094.000,1.000
9.087,9.098,9.169,9.053,9.213,9.115,9.011,9.104,-0.105,0.854,-0.552,-0.885,-0.336,0.458,73.333,25095.000,1.000
9.423,9.461,9.535,9.399,9.529,9.477,9.465,9.463,-0.106,0.855,-0.553,-0.763,-0.427,0.366,73.333,25096.000,1.000
9.746,9.781,9.875,9.756,9.851,9.788,9.884,9.797,-0.107,0.856,-0.553,-0.702,-0.336,0.275,73.333,25097.000,1.000
9.949,9.958,10.086,10.023,10.097,9.976,10.137,9.998,-0.104,0.858,-0.554,-0.580,-0.427,0.305,73.333,25098.000,1.000
9.906,9.866,10.028,10.043,10.115,9.933,10.087,9.933,-0.103,0.861,-0.554,-0.610,-0.397,0.336,73.333,25099.000,1.000
9.561,9.439,9.628,9.721,9.786,9.584,9.671,9.534,-0.102,0.863,-0.555,-0.580,-0.458,0.244,73.333,25100.000,1.000
8.941,8.723,8.928,9.072,9.099,8.937,8.928,8.841,-0.100,0.864,-0.553,-0.671,-0.458,0.244,73.333,25101.000,1.000
8.150,7.855,8.062,8.220,8.172,8.095,8.001,7.981,-0.099,0.866,-0.552,-0.732,-0.366,0.244,73.333,25102.000,1.000
7.273,6.941,7.147,7.286,7.152,7.161,7.025,7.060,-0.098,0.865,-0.555,-0.824,-0.427,0.275,73.333,25103.000,1.000
6.457,6.121,6.345,6.449,6.245,6.294,6.180,6.225,-0.098,0.865,-0.553,-0.946,-0.214,0.275,73.333,25104.000,1.000
5.845,5.533,5.804,5.861,5.623,5.647,5.612,5.617,-0.097,0.865,-0.551,-0.977,-0.244,0.336,73.333,25105.000,1.000
5.411,5.149,5.482,5.473,5.239,5.195,5.266,5.206,-0.098,0.864,-0.549,-1.038,-0.183,0.336,73.333,25106.000,1.000
5.044,4.845,5.230,5.140,4.921,4.812,4.974,4.869,-0.098,0.862,-0.552,-1.099,-0.122,0.366,73.333,25107.000,1.000
4.651,4.517,4.916,4.763,4.529,4.397,4.601,4.511,-0.099,0.861,-0.554,-1.129,0.031,0.397,73.333,25108.000,1.000
4.225,4.153,4.519,4.362,4.072,3.958,4.142,4.139,-0.102,0.860,-0.552,-1.160,0.000,0.336,73.333,25109.000,1.000
3.798,3.794,4.097,3.992,3.651,3.552,3.675,3.789,-0.101,0.855,-0.553,-1.007,0.000,0.366,73.333,25110.000,1.000
3.412,3.473,3.726,3.676,3.352,3.238,3.290,3.477,-0.103,0.856,-0.556,-0.885,0.000,0.336,73.333,25111.000,1.000
3.139,3.233,3.474,3.427,3.214,3.066,3.062,3.224,-0.107,0.855,-0.553,-0.763,-0.122,0.336,73.333,25112.000,1.000
3.001,3.075,3.329,3.233,3.175,2.997,2.979,3.025,-0.109,0.854,-0.552,-0.793,-0.244,0.305,73.333,25113.000,1.000
2.999,3.013,3.274,3.119,3.172,2.993,3.012,2.919,-0.111,0.854,-0.553,-0.763,-0.244,0.305,73.333,25114.000,1.000
3.098,3.055,3.292,3.117,3.176,3.030,3.122,2.937,-0.112,0.853,-0.553,-0.732,-0.397,0.305,73.333,25115.000,1.000
3.220,3.162,3.335,3.199,3.166,3.079,3.239,3.033,-0.110,0.852,-0.552,-0.763,-0.458,0.336,73.333,25116.000,1.000
3.304,3.288,3.377,3.319,3.149,3.122,3.311,3.131,-0.109,0.854,-0.554,-0.671,-0.549,0.214,73.333,25117.000,1.000
3.230,3.307,3.309,3.336,3.049,3.064,3.217,3.089,-0.108,0.854,-0.553,-0.671,-0.763,0.183,73.333,25118.000,1.000
2.874,3.061,2.966,3.062,2.735,2.765,2.816,2.762,-0.105,0.855,-0.551,-0.641,-0.885,0.214,73.333,25119.000,1.000
2.158,2.422,2.223,2.361,2.089,2.115,2.026,2.061,-0.104,0.856,-0.554,-0.671,-1.007,0.397,73.333,25120.000,1.000
1.053,1.321,1.045,1.199,1.032,1.062,0.850,0.960,-0.103,0.855,-0.552,-0.580,-1.099,0.519,73.333,25121.000,1.000
-0.403,-0.202,-0.489,-0.334,-0.419,-0.361,-0.618,-0.488,-0.101,0.858,-0.554,-0.488,-1.007,0.519,73.333,25122.000,1.000
-2.138,-2.041,-2.264,-2.115,-2.173,-2.082,-2.271,-2.202,-0.100,0.859,-0.556,-0.458,-1.160,0.610,73.333,25123.000,1.000
-3.931,-3.931,-4.047,-3.916,-3.968,-3.879,-3.920,-3.962,-0.100,0.860,-0.554,-0.549,-1.038,0.610,73.333,25124.000,1.000
-5.439,-5.494,-5.517,-5.423,-5.441,-5.403,-5.294,-5.440,-0.102,0.861,-0.557,-0.519,-0.946,0.763,73.333,25125.000,1.000
-6.434,-6.487,-6.470,-6.438,-6.384,-6.418,-6.220,-6.416,-0.098,0.860,-0.555,-0.488,-0.854,0.732,73.333,25126.000,1.000
-6.910,-6.919,-6.915,-6.963,-6.837,-6.909,-6.701,-6.887,-0.097,0.860,-0.556,-0.549,-0.824,0.793,73.333,25127.000,1.000
-7.062,-7.008,-7.047,-7.179,-7.030,-7.055,-6.912,-7.051,-0.099,0.861,-0.555,-0.702,-0.885,0.946,73.333,25128.000,1.000
-7.076,-6.957,-7.046,-7.253,-7.148,-7.038,-7.009,-7.095,-0.100,0.861,-0.556,-0.732,-0.702,0.946,73.333,25129.000,1.000
-7.024,-6.839,-6.967,-7.218,-7.202,-6.927,-7.024,-7.060,-0.100,0.861,-0.556,-0.702,-0.671,0.885,73.333,25130.000,1.000
-6.864,-6.599,-6.767,-6.991,-7.078,-6.679,-6.879,-6.852,-0.099,0.864,-0.556,-0.732,-0.732,1.038,73.333,25131.000,1.000
-6.483,-6.103,-6.328,-6.431,-6.613,-6.173,-6.438,-6.319,-0.099,0.863,-0.556,-0.824,-0.641,0.916,73.333,25132.000,1.000
-5.888,-5.364,-5.642,-5.570,-5.830,-5.426,-5.711,-5.495,-0.098,0.864,-0.554,-0.824,-0.519,0.763,73.333,25133.000,1.000
-5.227,-4.586,-4.871,-4.638,-4.950,-4.624,-4.889,-4.633,-0.098,0.862,-0.551,-0.946,-0.427,0.824,73.333,25134.000,1.000
-4.702,-4.035,-4.258,-3.942,-4.258,-4.025,-4.244,-4.040,-0.097,0.858,-0.553,-1.007,-0.427,0.793,73.333,25135.000,1.000
-4.479,-3.908,-4.022,-3.730,-3.976,-3.848,-4.022,-3.919,-0.097,0.854,-0.555,-1.038,-0.305,0.732,73.333,25136.000,1.000
-4.560,-4.187,-4.188,-4.029,-4.120,-4.116,-4.256,-4.227,-0.097,0.851,-0.558,-0.977,-0.214,0.732,73.333,25137.000,1.000
-4.835,-4.691,-4.642,-4.670,-4.553,-4.670,-4.794,-4.775,-0.098,0.849,-0.556,-0.946,-0.122,0.702,73.333,25138.000,1.000
-5.151,-5.177,-5.185,-5.368,-5.051,-5.241,-5.369,-5.327,-0.096,0.850,-0.557,-0.824,-0.122,0.732,73.333,25139.000,1.000
-5.373,-5.467,-5.619,-5.855,-5.409,-5.599,-5.737,-5.694,-0.096,0.854,-0.559,-0.824,0.031,0.671,73.333,25140.000,1.000
-5.438,-5.513,-5.815,-5.997,-5.523,-5.657,-5.781,-5.792,-0.096,0.855,-0.557,-0.763,0.061,0.610,73.333,25141.000,1.000
-5.321,-5.346,-5.714,-5.791,-5.379,-5.435,-5.507,-5.613,-0.096,0.856,-0.555,-0.763,0.092,0.702,73.333,25142.000,1.000
-5.063,-5.058,-5.365,-5.359,-5.061,-5.046,-5.044,-5.240,-0.094,0.860,-0.556,-0.885,0.183,0.702,73.333,25143.000,1.000
-4.645,-4.657,-4.798,-4.772,-4.603,-4.548,-4.465,-4.699,-0.098,0.861,-0.555,-1.007,0.244,0.702,73.333,25144.000,1.000
-3.974,-4.031,-3.978,-3.983,-3.935,-3.884,-3.726,-3.913,-0.101,0.861,-0.555,-1.007,0.305,0.702,73.333,25145.000,1.000
-3.056,-3.152,-2.953,-2.991,-3.048,-3.035,-2.821,-2.890,-0.103,0.865,-0.558,-1.160,0.305,0.519,73.333,25146.000,1.000
-2.089,-2.187,-1.929,-1.959,-2.097,-2.135,-1.891,-1.822,-0.106,0.867,-0.553,-1.190,0.275,0.488,73.333,25147.000,1.000
-1.457,-1.521,-1.280,-1.260,-1.451,-1.532,-1.276,-1.100,-0.108,0.867,-0.555,-1.312,0.000,0.275,73.333,25148.000,1.000
-1.523,-1.549,-1.365,-1.288,-1.504,-1.598,-1.343,-1.117,-0.109,0.867,-0.552,-1.343,-0.153,0.305,73.333,25149.000,1.000
-2.413,-2.442,-2.316,-2.201,-2.435,-2.487,-2.246,-2.022,-0.111,0.866,-0.552,-1.556,-0.336,0.092,73.333,25150.000,1.000
-3.927,-4.024,-3.932,-3.805,-4.059,-4.012,-3.804,-3.620,-0.109,0.865,-0.557,-1.709,-0.519,0.031,73.333,25151.000,1.000
-5.545,-5.758,-5.663,-5.554,-5.809,-5.650,-5.495,-5.369,-0.107,0.862,-0.554,-1.770,-0.671,0.031,73.333,25152.000,1.000
-6.654,-6.973,-6.844,-6.782,-6.994,-6.771,-6.676,-6.608,-0.107,0.864,-0.554,-1.831,-0.824,-0.092,73.333,25153.000,1.000
-6.725,-7.088,-6.910,-6.915,-7.035,-6.826,-6.782,-6.752,-0.107,0.862,-0.556,-1.831,-0.916,-0.214,73.333,25154.000,1.000
-5.521,-5.848,-5.639,-5.713,-5.713,-5.587,-5.566,-5.553,-0.106,0.861,-0.551,-1.862,-0.946,-0.275,73.333,25155.000,1.000
-3.320,-3.550,-3.364,-3.482,-3.369,-3.355,-3.342,-3.330,-0.104,0.860,-0.553,-1.862,-1.038,-0.122,73.333,25156.000,1.000
-0.835,-0.955,-0.845,-0.954,-0.779,-0.861,-0.860,-0.847,-0.105,0.859,-0.556,-1.770,-1.099,-0.061,73.333,25157.000,1.000
1.080,1.023,1.059,1.014,1.174,1.046,1.024,1.021,-0.103,0.859,-0.555,-1.862,-1.068,0.031,73.333,25158.000,1.000
1.895,1.820,1.853,1.893,1.979,1.866,1.822,1.772,-0.101,0.858,-0.554,-1.770,-1.068,0.092,73.333,25159.000,1.000
1.637,1.488,1.606,1.705,1.704,1.658,1.595,1.480,-0.102,0.857,-0.554,-1.709,-1.221,0.275,73.333,25160.000,1.000
0.711,0.493,0.734,0.839,0.777,0.822,0.740,0.581,-0.102,0.858,-0.553,-1.770,-1.251,0.397,73.333,25161.000,1.000
-0.426,-0.652,-0.324,-0.257,-0.346,-0.218,-0.313,-0.464,-0.102,0.856,-0.554,-1.587,-1.129,0.488,73.333,25162.000,1.000
-1.553,-1.724,-1.386,-1.370,-1.459,-1.281,-1.373,-1.469,-0.102,0.857,-0.553,-1.678,-1.160,0.641,73.333,25163.000,1.000
-2.658,-2.733,-2.467,-2.477,-2.546,-2.370,-2.438,-2.458,-0.102,0.859,-0.551,-1.678,-1.190,0.763,73.333,25164.000,1.000
-3.764,-3.735,-3.587,-3.580,-3.613,-3.503,-3.523,-3.478,-0.103,0.860,-0.551,-1.587,-1.129,0.977,73.333,25165.000,1.000
-4.861,-4.760,-4.713,-4.653,-4.656,-4.657,-4.603,-4.525,-0.104,0.861,-0.551,-1.587,-1.068,0.977,73.333,25166.000,1.000
-5.901,-5.783,-5.782,-5.642,-5.654,-5.769,-5.624,-5.555,-0.102,0.862,-0.549,-1.678,-1.068,1.038,73.333,25167.000,1.000
-6.875,-6.788,-6.796,-6.552,-6.620,-6.811,-6.586,-6.565,-0.100,0.863,-0.545,-1.770,-1.038,1.099,73.333,25168.000,1.000
-7.720,-7.676,-7.703,-7.342,-7.489,-7.696,-7.446,-7.484,-0.098,0.864,-0.546,-1.770,-1.038,1.160,73.333,25169.000,1.000
-8.252,-8.227,-8.310,-7.852,-8.063,-8.227,-8.026,-8.101,-0.098,0.866,-0.550,-1.923,-0.854,1.068,73.333,25170.000,1.000
-8.289,-8.253,-8.420,-7.926,-8.147,-8.226,-8.140,-8.210,-0.096,0.866,-0.549,-2.045,-0.732,1.099,73.333,25171.000,1.000
-7.770,-7.716,-7.959,-7.515,-7.665,-7.650,-7.700,-7.736,-0.094,0.864,-0.551,-2.014,-0.580,1.129,73.333,25172.000,1.000
-6.822,-6.771,-7.058,-6.726,-6.737,-6.655,-6.810,-6.807,-0.091,0.860,-0.550,-2.045,-0.519,1.129,73.333,25173.000,1.000
-5.581,-5.561,-5.854,-5.637,-5.515,-5.404,-5.597,-5.571,-0.092,0.859,-0.549,-1.953,-0.275,1.068,73.333,25174.000,1.000
-4.091,-4.115,-4.390,-4.238,-4.064,-3.950,-4.118,-4.095,-0.091,0.856,-0.549,-1.862,-0.092,0.977,73.333,25175.000,1.000
-2.447,-2.499,-2.756,-2.597,-2.473,-2.375,-2.481,-2.483,-0.091,0.855,-0.548,-1.770,0.092,0.916,73.333,25176.000,1.000
-0.799,-0.838,-1.109,-0.886,-0.873,-0.801,-0.839,-0.874,-0.089,0.853,-0.548,-1.648,0.214,0.824,73.333,25177.000,1.000
0.734,0.744,0.414,0.715,0.620,0.676,0.682,0.626,-0.091,0.850,-0.552,-1.526,0.458,0.732,73.333,25178.000,1.000
2.202,2.253,1.848,2.189,2.056,2.120,2.120,2.066,-0.095,0.850,-0.553,-1.434,0.610,0.702,73.333,25179.000,1.000
3.695,3.731,3.292,3.599,3.522,3.618,3.568,3.533,-0.095,0.850,-0.554,-1.221,0.732,0.580,73.333,25180.000,1.000
5.076,5.021,4.647,4.837,4.880,5.009,4.905,4.898,-0.097,0.850,-0.554,-1.099,0.824,0.519,73.333,25181.000,1.000
6.066,5.882,5.670,5.696,5.861,5.993,5.870,5.898,-0.098,0.854,-0.552,-1.007,0.854,0.458,73.333,25182.000,1.000
6.467,6.188,6.162,6.041,6.286,6.369,6.270,6.341,-0.098,0.854,-0.553,-0.854,0.854,0.397,73.333,25183.000,1.000
6.360,6.073,6.171,5.957,6.241,6.224,6.178,6.297,-0.099,0.856,-0.553,-0.671,0.854,0.366,73.333,25184.000,1.000
6.083,5.868,5.990,5.733,6.035,5.905,5.919,6.071,-0.098,0.858,-0.552,-0.610,0.885,0.336,73.333,25185.000,1.000
6.022,5.912,5.968,5.690,6.010,5.807,5.859,6.002,-0.097,0.860,-0.553,-0.580,0.946,0.183,73.333,25186.000,1.000
6.462,6.458,6.390,6.097,6.436,6.229,6.285,6.362,-0.100,0.862,-0.552,-0.519,0.946,0.092,73.333,25187.000,1.000
7.416,7.500,7.304,7.006,7.346,7.188,7.234,7.208,-0.100,0.866,-0.553,-0.580,0.916,0.153,73.333,25188.000,1.000
8.589,8.726,8.472,8.174,8.491,8.381,8.442,8.310,-0.102,0.866,-0.553,-0.641,0.916,0.183,73.333,25189.000,1.000
9.505,9.643,9.445,9.138,9.425,9.322,9.429,9.224,-0.100,0.865,-0.552,-0.580,0.885,0.092,73.333,25190.000,1.000
9.731,9.802,9.767,9.437,9.699,9.567,9.717,9.509,-0.101,0.868,-0.552,-0.702,0.824,0.092,73.333,25191.000,1.000
9.128,9.066,9.246,8.906,9.129,8.983,9.127,9.002,-0.101,0.867,-0.549,-0.854,0.732,-0.031,73.333,25192.000,1.000
7.817,7.596,7.955,7.664,7.819,7.700,7.783,7.790,-0.102,0.869,-0.549,-0.824,0.702,-0.153,73.333,25193.000,1.000
6.082,5.743,6.167,6.015,6.072,6.004,6.006,6.128,-0.103,0.868,-0.550,-0.854,0.610,-0.092,73.333,25194.000,1.000
4.269,3.918,4.268,4.319,4.264,4.232,4.181,4.356,-0.104,0.867,-0.552,-1.007,0.458,-0.031,73.333,25195.000,1.000
2.674,2.438,2.618,2.853,2.713,2.677,2.606,2.785,-0.108,0.865,-0.555,-1.099,0.336,0.000,73.333,25196.000,1.000
1.549,1.512,1.505,1.818,1.675,1.591,1.505,1.664,-0.109,0.866,-0.551,-1.129,0.214,-0.031,73.333,25197.000,1.000
1.045,1.208,1.071,1.324,1.279,1.123,0.998,1.135,-0.111,0.866,-0.548,-1.221,0.000,0.092,73.333,25198.000,1.000
1.207,1.500,1.324,1.420,1.528,1.306,1.134,1.250,-0.114,0.865,-0.548,-1.312,-0.305,0.153,73.333,25199.000,1.000
1.952,2.281,2.140,2.068,2.295,2.044,1.862,1.953,-0.114,0.865,-0.551,-1.312,-0.488,0.183,73.333,25200.000,1.000
3.009,3.312,3.229,3.057,3.310,3.076,2.953,3.008,-0.112,0.865,-0.549,-1.282,-0.702,0.275,73.333,25201.000,1.000
4.036,4.298,4.243,4.074,4.255,4.081,4.054,4.073,-0.110,0.863,-0.549,-1.221,-1.007,0.305,73.333,25202.000,1.000
4.710,4.937,4.853,4.765,4.819,4.733,4.782,4.776,-0.109,0.862,-0.549,-1.160,-1.312,0.397,73.333,25203.000,1.000
4.851,5.035,4.905,4.911,4.845,4.848,4.918,4.898,-0.107,0.861,-0.552,-1.190,-1.556,0.488,73.333,25204.000,1.000
4.482,4.598,4.463,4.521,4.388,4.457,4.496,4.461,-0.104,0.856,-0.555,-1.038,-1.648,0.580,73.333,25205.000,1.000
3.710,3.747,3.664,3.723,3.578,3.687,3.666,3.600,-0.103,0.854,-0.551,-1.007,-1.648,0.671,73.333,25206.000,1.000
2.673,2.646,2.641,2.666,2.546,2.669,2.595,2.474,-0.100,0.852,-0.553,-0.885,-1.801,0.702,73.333,25207.000,1.000
1.453,1.398,1.460,1.428,1.349,1.464,1.359,1.198,-0.097,0.851,-0.556,-0.702,-1.862,0.854,73.333,25208.000,1.000
0.121,0.069,0.173,0.066,0.033,0.130,0.014,-0.128,-0.095,0.853,-0.557,-0.397,-1.862,0.977,73.333,25209.000,1.000
-1.213,-1.233,-1.131,-1.299,-1.299,-1.210,-1.325,-1.391,-0.093,0.855,-0.551,-0.366,-1.831,1.099,73.333,25210.000,1.000
-2.451,-2.421,-2.374,-2.535,-2.547,-2.436,-2.537,-2.533,-0.093,0.855,-0.552,-0.244,-1.770,1.099,73.333,25211.000,1.000
-3.458,-3.393,-3.434,-3.486,-3.568,-3.412,-3.487,-3.470,-0.089,0.854,-0.553,-0.183,-1.648,1.251,73.333,25212.000,1.000
-4.060,-4.021,-4.137,-4.005,-4.189,-4.006,-4.041,-4.061,-0.092,0.853,-0.549,-0.244,-1.495,1.221,73.333,25213.000,1.000
-4.074,-4.135,-4.280,-3.967,-4.234,-4.080,-4.066,-4.132,-0.094,0.854,-0.552,-0.183,-1.404,1.129,73.333,25214.000,1.000
-3.482,-3.672,-3.815,-3.401,-3.682,-3.624,-3.566,-3.647,-0.100,0.854,-0.550,-0.183,-1.434,1.068,73.333,25215.000,1.000
-2.641,-2.919,-3.062,-2.662,-2.865,-2.962,-2.860,-2.923,-0.103,0.854,-0.553,-0.061,-1.282,1.038,73.333,25216.000,1.000
-2.146,-2.430,-2.569,-2.303,-2.356,-2.630,-2.462,-2.505,-0.102,0.855,-0.553,-0.031,-1.282,0.885,73.333,25217.000,1.000
-2.480,-2.697,-2.803,-2.753,-2.645,-3.050,-2.795,-2.850,-0.099,0.858,-0.549,0.031,-1.373,0.671,73.333,25218.000,1.000
-3.610,-3.731,-3.766,-3.944,-3.725,-4.147,-3.824,-3.929,-0.097,0.859,-0.552,-0.031,-1.373,0.549,73.333,25219.000,1.000
-4.930,-4.968,-4.933,-5.273,-5.012,-5.338,-4.994,-5.165,-0.095,0.860,-0.554,-0.061,-1.312,0.366,73.333,25220.000,1.000
-5.725,-5.713,-5.660,-6.049,-5.792,-5.986,-5.654,-5.882,-0.095,0.860,-0.552,-0.153,-1.160,0.244,73.333,25221.000,1.000
-5.654,-5.610,-5.627,-5.933,-5.715,-5.822,-5.506,-5.754,-0.093,0.861,-0.551,-0.214,-1.038,0.244,73.333,25222.000,1.000
-4.954,-4.869,-5.021,-5.145,-5.007,-5.089,-4.789,-4.999,-0.092,0.861,-0.553,-0.397,-0.946,0.092,73.333,25223.000,1.000
-4.193,-4.044,-4.335,-4.257,-4.245,-4.314,-4.055,-4.182,-0.093,0.862,-0.553,-0.458,-0.824,-0.031,73.333,25224.000,1.000
-3.894,-3.674,-4.038,-3.829,-3.976,-3.991,-3.807,-3.860,-0.093,0.863,-0.554,-0.549,-0.671,-0.183,73.333,25225.000,1.000
-4.303,-4.028,-4.360,-4.131,-4.455,-4.355,-4.258,-4.303,-0.093,0.863,-0.553,-0.610,-0.427,-0.122,73.333,25226.000,1.000
-5.220,-4.925,-5.123,-4.968,-5.458,-5.208,-5.181,-5.288,-0.091,0.861,-0.555,-0.641,-0.214,-0.183,73.333,25227.000,1.000
-6.180,-5.887,-5.892,-5.859,-6.456,-6.075,-6.096,-6.284,-0.092,0.861,-0.553,-0.549,-0.092,-0.183,73.333,25228.000,1.000
-6.707,-6.417,-6.229,-6.331,-6.928,-6.489,-6.551,-6.770,-0.094,0.862,-0.552,-0.671,0.061,-0.122,73.333,25229.000,1.000
-6.559,-6.270,-5.941,-6.169,-6.643,-6.223,-6.356,-6.510,-0.095,0.862,-0.552,-0.641,0.214,-0.061,73.333,25230.000,1.000
-5.907,-5.641,-5.234,-5.572,-5.833,-5.456,-5.722,-5.724,-0.096,0.863,-0.554,-0.671,0.366,-0.061,73.333,25231.000,1.000
-5.198,-5.001,-4.558,-4.986,-5.005,-4.647,-5.085,-4.913,-0.099,0.864,-0.552,-0.824,0.458,0.000,73.333,25232.000,1.000
-4.866,-4.778,-4.316,-4.801,-4.626,-4.264,-4.835,-4.552,-0.096,0.863,-0.554,-1.007,0.488,0.000,73.333,25233.000,1.000
-4.999,-5.023,-4.566,-5.044,-4.782,-4.440,-5.024,-4.744,-0.099,0.862,-0.555,-0.977,0.458,0.061,73.333,25234.000,1.000
-5.266,-5.376,-4.955,-5.343,-5.125,-4.854,-5.313,-5.142,-0.100,0.860,-0.556,-0.977,0.610,0.061,73.333,25235.000,1.000
-5.220,-5.374,-5.005,-5.247,-5.167,-5.004,-5.259,-5.238,-0.099,0.859,-0.556,-0.946,0.671,0.122,73.333,25236.000,1.000
-4.570,-4.723,-4.387,-4.496,-4.567,-4.511,-4.564,-4.654,-0.100,0.859,-0.557,-0.854,0.763,0.244,73.333,25237.000,1.000
-3.320,-3.438,-3.097,-3.159,-3.307,-3.328,-3.229,-3.346,-0.100,0.856,-0.556,-0.824,0.854,0.305,73.333,25238.000,1.000
-1.659,-1.719,-1.365,-1.473,-1.584,-1.649,-1.463,-1.537,-0.098,0.858,-0.557,-0.793,0.854,0.458,73.333,25239.000,1.000
0.205,0.224,0.540,0.360,0.361,0.274,0.496,0.480,-0.100,0.859,-0.557,-0.732,0.946,0.458,73.333,25240.000,1.000
2.067,2.167,2.374,2.180,2.281,2.174,2.423,2.426,-0.100,0.860,-0.556,-0.610,0.885,0.549,73.333,25241.000,1.000
3.761,3.903,3.966,3.851,3.973,3.843,4.138,4.102,-0.104,0.861,-0.553,-0.702,0.916,0.580,73.333,25242.000,1.000
5.133,5.249,5.181,5.212,5.273,5.127,5.467,5.363,-0.103,0.859,-0.553,-0.702,0.977,0.580,73.333,25243.000,1.000
6.081,6.119,5.968,6.146,6.104,5.961,6.303,6.159,-0.103,0.859,-0.555,-0.610,0.885,0.610,73.333,25244.000,1.000
6.584,6.537,6.367,6.631,6.492,6.365,6.652,6.551,-0.102,0.859,-0.556,-0.671,0.763,0.549,73.333,25245.000,1.000
6.662,6.541,6.419,6.679,6.482,6.379,6.569,6.591,-0.102,0.860,-0.554,-0.610,0.702,0.580,73.333,25246.000,1.000
6.420,6.245,6.205,6.387,6.192,6.119,6.189,6.351,-0.103,0.862,-0.554,-0.580,0.702,0.580,73.333,25247.000,1.000
5.971,5.780,5.808,5.882,5.745,5.717,5.663,5.888,-0.102,0.862,-0.551,-0.458,0.610,0.519,73.333,25248.000,1.000
5.366,5.215,5.273,5.247,5.198,5.231,5.074,5.226,-0.103,0.861,-0.550,-0.610,0.549,0.519,73.333,25249.000,1.000
4.646,4.578,4.646,4.540,4.582,4.678,4.461,4.422,-0.101,0.861,-0.552,-0.732,0.458,0.549,73.333,25250.000,1.000
3.854,3.879,3.969,3.790,3.925,4.056,3.817,3.574,-0.103,0.862,-0.554,-0.854,0.366,0.488,73.333,25251.000,1.000
3.066,3.156,3.283,3.035,3.270,3.393,3.151,2.807,-0.102,0.864,-0.556,-0.824,0.183,0.488,73.333,25252.000,1.000
2.335,2.436,2.599,2.308,2.625,2.707,2.471,2.191,-0.101,0.862,-0.553,-0.824,0.092,0.519,73.333,25253.000,1.000
1.702,1.755,1.941,1.656,1.995,2.021,1.810,1.741,-0.101,0.860,-0.549,-0.946,0.092,0.549,73.333,25254.000,1.000
1.179,1.144,1.346,1.108,1.391,1.354,1.199,1.411,-0.102,0.858,-0.552,-1.038,0.031,0.488,73.333,25255.000,1.000
0.712,0.588,0.814,0.622,0.792,0.701,0.631,1.087,-0.103,0.859,-0.550,-1.038,0.000,0.366,73.333,25256.000,1.000
0.299,0.126,0.390,0.202,0.248,0.132,0.154,0.731,-0.102,0.856,-0.554,-1.068,-0.031,0.244,73.333,25257.000,1.000
-0.028,-0.211,0.108,-0.127,-0.175,-0.277,-0.177,0.353,-0.103,0.854,-0.557,-0.946,0.000,0.305,73.333,25258.000,1.000
-0.264,-0.445,-0.069,-0.359,-0.457,-0.513,-0.364,-0.022,-0.101,0.851,-0.556,-0.854,-0.153,0.336,73.333,25259.000,1.000
-0.411,-0.609,-0.204,-0.488,-0.608,-0.597,-0.425,-0.343,-0.104,0.850,-0.554,-0.763,-0.183,0.397,73.333,25260.000,1.000
-0.507,-0.737,-0.356,-0.547,-0.678,-0.591,-0.419,-0.577,-0.104,0.853,-0.553,-0.793,-0.244,0.519,73.333,25261.000,1.000
-0.571,-0.819,-0.510,-0.557,-0.701,-0.545,-0.393,-0.700,-0.103,0.855,-0.557,-0.671,-0.305,0.458,73.333,25262.000,1.000
-0.653,-0.875,-0.675,-0.582,-0.738,-0.547,-0.429,-0.763,-0.102,0.857,-0.553,-0.580,-0.458,0.366,73.333,25263.000,1.000
-0.838,-1.000,-0.936,-0.741,-0.889,-0.712,-0.643,-0.898,-0.105,0.855,-0.551,-0.610,-0.488,0.458,73.333,25264.000,1.000
-1.183,-1.291,-1.382,-1.128,-1.229,-1.103,-1.096,-1.228,-0.104,0.854,-0.552,-0.519,-0.580,0.519,73.333,25265.000,1.000
-1.715,-1.805,-2.053,-1.779,-1.798,-1.739,-1.789,-1.828,-0.104,0.855,-0.555,-0.549,-0.763,0.580,73.333,25266.000,1.000
-2.402,-2.511,-2.882,-2.623,-2.555,-2.567,-2.633,-2.648,-0.105,0.857,-0.557,-0.580,-0.793,0.519,73.333,25267.000,1.000
-3.200,-3.341,-3.752,-3.532,-3.414,-3.497,-3.506,-3.564,-0.103,0.858,-0.557,-0.549,-0.946,0.580,73.333,25268.000,1.000
-4.009,-4.168,-4.513,-4.338,-4.227,-4.366,-4.272,-4.383,-0.104,0.863,-0.553,-0.549,-1.129,0.549,73.333,25269.000,1.000
-4.681,-4.834,-5.028,-4.891,-4.825,-4.989,-4.813,-4.920,-0.104,0.864,-0.552,-0.519,-1.312,0.580,73.333,25270.000,1.000
-5.213,-5.339,-5.364,-5.248,-5.225,-5.372,-5.211,-5.222,-0.106,0.862,-0.553,-0.580,-1.373,0.519,73.333,25271.000,1.000
-5.747,-5.847,-5.757,-5.632,-5.616,-5.718,-5.690,-5.548,-0.106,0.862,-0.552,-0.671,-1.434,0.458,73.333,25272.000,1.000
-6.435,-6.526,-6.406,-6.244,-6.199,-6.251,-6.427,-6.140,-0.104,0.864,-0.555,-0.763,-1.617,0.458,73.333,25273.000,1.000
-7.258,-7.358,-7.274,-7.069,-6.971,-7.002,-7.359,-6.982,-0.104,0.865,-0.556,-0.885,-1.740,0.458,73.333,25274.000,1.000
-7.991,-8.106,-8.088,-7.840,-7.696,-7.751,-8.198,-7.783,-0.102,0.864,-0.555,-0.946,-1.801,0.366,73.333,25275.000,1.000
-8.413,-8.539,-8.583,-8.283,-8.136,-8.249,-8.687,-8.246,-0.101,0.863,-0.552,-0.946,-1.923,0.305,73.333,25276.000,1.000
-8.435,-8.555,-8.649,-8.308,-8.204,-8.372,-8.746,-8.259,-0.100,0.862,-0.554,-1.007,-1.953,0.366,73.333,25277.000,1.000
-8.125,-8.209,-8.352,-8.018,-7.970,-8.158,-8.468,-7.920,-0.099,0.861,-0.554,-1.099,-1.923,0.244,73.333,25278.000,1.000
-7.573,-7.587,-7.778,-7.518,-7.512,-7.670,-7.939,-7.370,-0.101,0.856,-0.554,-1.221,-1.892,0.336,73.333,25279.000,1.000
-6.803,-6.724,-6.952,-6.801,-6.825,-6.906,-7.150,-6.658,-0.104,0.855,-0.553,-1.221,-1.892,0.244,73.333,25280.000,1.000
-5.885,-5.720,-5.968,-5.904,-5.957,-5.928,-6.147,-5.826,-0.104,0.855,-0.555,-1.129,-1.862,0.305,73.333,25281.000,1.000
-4.962,-4.757,-5.021,-4.985,-5.050,-4.906,-5.095,-4.978,-0.106,0.854,-0.555,-1.007,-1.862,0.336,73.333,25282.000,1.000
-4.252,-4.072,-4.365,-4.286,-4.340,-4.094,-4.259,-4.303,-0.102,0.854,-0.556,-0.916,-2.014,0.397,73.333,25283.000,1.000
-3.903,-3.787,-4.116,-3.949,-3.980,-3.671,-3.828,-3.944,-0.102,0.854,-0.554,-0.824,-2.045,0.549,73.333,25284.000,1.000
-3.826,-3.761,-4.114,-3.868,-3.871,-3.572,-3.740,-3.829,-0.101,0.854,-0.558,-0.702,-2.167,0.580,73.333,25285.000,1.000
-3.817,-3.751,-4.099,-3.845,-3.805,-3.607,-3.791,-3.796,-0.102,0.853,-0.555,-0.671,-2.045,0.549,73.333,25286.000,1.000
-3.750,-3.627,-3.943,-3.769,-3.673,-3.637,-3.823,-3.760,-0.101,0.854,-0.557,-0.610,-2.075,0.549,73.333,25287.000,1.000
-3.698,-3.494,-3.752,-3.700,-3.567,-3.678,-3.855,-3.789,-0.102,0.855,-0.555,-0.641,-2.167,0.763,73.333,25288.000,1.000
-3.772,-3.515,-3.684,-3.734,-3.607,-3.785,-3.953,-3.941,-0.101,0.858,-0.555,-0.610,-2.136,0.580,73.333,25289.000,1.000
-3.943,-3.695,-3.734,-3.839,-3.755,-3.919,-4.072,-4.128,-0.102,0.860,-0.555,-0.549,-2.167,0.641,73.333,25290.000,1.000
-4.133,-3.951,-3.827,-3.938,-3.924,-4.042,-4.147,-4.248,-0.103,0.863,-0.555,-0.702,-2.045,0.641,73.333,25291.000,1.000
-4.282,-4.173,-3.897,-3.968,-4.044,-4.139,-4.147,-4.248,-0.099,0.863,-0.552,-0.732,-1.984,0.702,73.333,25292.000,1.000
-4.341,-4.254,-3.901,-3.903,-4.067,-4.182,-4.056,-4.110,-0.100,0.864,-0.552,-0.732,-2.014,0.671,73.333,25293.000,1.000
-4.164,-4.035,-3.709,-3.660,-3.865,-4.027,-3.763,-3.751,-0.100,0.865,-0.557,-0.885,-1.953,0.641,73.333,25294.000,1.000
-3.511,-3.312,-3.098,-3.052,-3.224,-3.415,-3.052,-3.007,-0.100,0.866,-0.556,-1.038,-1.892,0.702,73.333,25295.000,1.000
-2.304,-2.062,-2.002,-2.001,-2.083,-2.248,-1.868,-1.853,-0.100,0.867,-0.554,-1.221,-1.923,0.671,73.333,25296.000,1.000
-0.750,-0.514,-0.601,-0.659,-0.629,-0.723,-0.418,-0.483,-0.101,0.868,-0.552,-1.404,-1.862,0.671,73.333,25297.000,1.000
0.770,0.969,0.777,0.670,0.787,0.783,0.952,0.798,-0.097,0.868,-0.552,-1.373,-1.770,0.671,73.333,25298.000,1.000
2.016,2.180,1.930,1.803,1.941,2.029,2.063,1.840,-0.095,0.865,-0.554,-1.495,-1.740,0.610,73.333,25299.000,1.000
3.079,3.232,2.945,2.840,2.932,3.101,3.047,2.781,-0.094,0.862,-0.550,-1.648,-1.587,0.671,73.333,25300.000,1.000
4.134,4.309,3.980,3.928,3.951,4.173,4.083,3.802,-0.094,0.859,-0.550,-1.678,-1.434,0.519,73.333,25301.000,1.000
5.205,5.427,5.048,5.061,5.035,5.257,5.176,4.908,-0.095,0.857,-0.553,-1.678,-1.312,0.519,73.333,25302.000,1.000
6.152,6.420,6.008,6.077,6.037,6.196,6.150,5.928,-0.095,0.855,-0.556,-1.709,-1.282,0.458,73.333,25303.000,1.000
6.882,7.174,6.759,6.862,6.844,6.902,6.875,6.739,-0.098,0.854,-0.554,-1.648,-1.099,0.458,73.333,25304.000,1.000
