EEG 1,EEG 2,EEG 3,EEG 4,EEG 5,EEG 6,EEG 7,EEG 8,Accelerometer X,Accelerometer Y,Accelerometer Z,Gyroscope X,Gyroscope Y,Gyroscope Z,Battery Level,Counter,Validation Indicator
5.196,5.374,5.385,5.475,5.218,5.361,5.188,5.179,-0.120,0.856,-0.557,-0.519,-0.580,0.488,73.333,51017.000,1.000
4.743,4.812,4.908,4.973,4.782,4.788,4.719,4.720,-0.121,0.855,-0.555,-0.610,-0.610,0.549,73.333,51018.000,1.000
4.223,4.175,4.315,4.353,4.272,4.138,4.208,4.199,-0.122,0.855,-0.556,-0.610,-0.427,0.549,73.333,51019.000,1.000
3.733,3.628,3.719,3.739,3.773,3.548,3.727,3.703,-0.121,0.855,-0.557,-0.641,-0.427,0.580,73.333,51020.000,1.000
3.324,3.249,3.198,3.199,3.337,3.087,3.304,3.287,-0.123,0.856,-0.556,-0.549,-0.580,0.519,73.333,51021.000,1.000
2.945,2.956,2.740,2.707,2.927,2.702,2.891,2.923,-0.123,0.858,-0.555,-0.610,-0.610,0.519,73.333,51022.000,1.000
2.429,2.530,2.217,2.136,2.392,2.213,2.349,2.464,-0.122,0.857,-0.556,-0.641,-0.671,0.610,73.333,51023.000,1.000
1.596,1.747,1.446,1.329,1.556,1.411,1.507,1.699,-0.122,0.856,-0.556,-0.671,-0.641,0.580,73.333,51024.000,1.000
0.482,0.623,0.425,0.299,0.451,0.306,0.385,0.597,-0.122,0.856,-0.559,-0.671,-0.763,0.671,73.333,51025.000,1.000
-0.680,-0.615,-0.662,-0.773,-0.712,-0.891,-0.811,-0.656,-0.121,0.855,-0.557,-0.702,-0.763,0.549,73.333,51026.000,1.000
-1.623,-1.682,-1.584,-1.669,-1.672,-1.904,-1.830,-1.772,-0.123,0.856,-0.557,-0.671,-0.854,0.610,73.333,51027.000,1.000
-2.218,-2.382,-2.194,-2.259,-2.265,-2.554,-2.503,-2.516,-0.122,0.855,-0.556,-0.732,-0.793,0.458,73.333,51028.000,1.000
-2.559,-2.744,-2.515,-2.581,-2.550,-2.873,-2.857,-2.859,-0.121,0.856,-0.557,-0.793,-0.732,0.519,73.333,51029.000,1.000
-2.794,-2.914,-2.647,-2.726,-2.689,-2.983,-3.002,-2.905,-0.122,0.855,-0.555,-0.763,-0.793,0.549,73.333,51030.000,1.000
-2.991,-3.029,-2.714,-2.787,-2.815,-2.996,-3.045,-2.807,-0.121,0.854,-0.554,-0.763,-0.702,0.488,73.333,51031.000,1.000
-3.172,-3.172,-2.833,-2.868,-2.992,-3.009,-3.079,-2.734,-0.121,0.854,-0.558,-0.793,-0.610,0.427,73.333,51032.000,1.000
-3.430,-3.441,-3.141,-3.123,-3.302,-3.176,-3.252,-2.888,-0.123,0.854,-0.557,-0.732,-0.732,0.519,73.333,51033.000,1.000
-3.926,-3.965,-3.779,-3.708,-3.873,-3.678,-3.747,-3.455,-0.121,0.856,-0.557,-0.732,-0.702,0.458,73.333,51034.000,1.000
-4.666,-4.731,-4.700,-4.576,-4.701,-4.514,-4.564,-4.389,-0.121,0.857,-0.556,-0.702,-0.702,0.427,73.333,51035.000,1.000
-5.500,-5.576,-5.682,-5.507,-5.619,-5.493,-5.516,-5.434,-0.119,0.857,-0.557,-0.763,-0.702,0.366,73.333,51036.000,1.000
-6.267,-6.314,-6.495,-6.280,-6.422,-6.377,-6.380,-6.321,-0.119,0.854,-0.561,-0.732,-0.641,0.397,73.333,51037.000,1.000
-6.883,-6.852,-7.035,-6.791,-6.978,-7.013,-7.030,-6.915,-0.118,0.855,-0.555,-0.702,-0.580,0.366,73.333,51038.000,1.000
-7.331,-7.191,-7.334,-7.056,-7.270,-7.366,-7.445,-7.235,-0.117,0.857,-0.557,-0.702,-0.488,0.397,73.333,51039.000,1.000
-7.543,-7.310,-7.415,-7.090,-7.292,-7.422,-7.595,-7.310,-0.116,0.857,-0.558,-0.641,-0.549,0.336,73.333,51040.000,1.000
-7.481,-7.211,-7.312,-6.948,-7.102,-7.234,-7.499,-7.202,-0.117,0.856,-0.557,-0.702,-0.549,0.397,73.333,51041.000,1.000
-7.200,-6.961,-7.099,-6.735,-6.818,-6.933,-7.257,-7.011,-0.117,0.855,-0.556,-0.671,-0.366,0.427,73.333,51042.000,1.000
-6.830,-6.670,-6.874,-6.561,-6.559,-6.658,-6.995,-6.826,-0.120,0.853,-0.557,-0.610,-0.580,0.397,73.333,51043.000,1.000
-6.547,-6.485,-6.737,-6.509,-6.413,-6.523,-6.824,-6.715,-0.118,0.852,-0.555,-0.549,-0.458,0.366,73.333,51044.000,1.000
-6.425,-6.457,-6.678,-6.540,-6.364,-6.526,-6.733,-6.656,-0.118,0.851,-0.555,-0.488,-0.488,0.397,73.333,51045.000,1.000
-6.397,-6.505,-6.594,-6.535,-6.314,-6.565,-6.610,-6.571,-0.117,0.849,-0.556,-0.458,-0.580,0.427,73.333,51046.000,1.000
-6.271,-6.423,-6.324,-6.329,-6.101,-6.453,-6.282,-6.331,-0.118,0.849,-0.554,-0.488,-0.488,0.549,73.333,51047.000,1.000
-5.814,-5.969,-5.709,-5.761,-5.558,-5.991,-5.593,-5.789,-0.119,0.850,-0.557,-0.366,-0.427,0.488,73.333,51048.000,1.000
-4.926,-5.040,-4.714,-4.786,-4.641,-5.108,-4.525,-4.878,-0.121,0.853,-0.558,-0.214,-0.427,0.488,73.333,51049.000,1.000
-3.678,-3.712,-3.432,-3.498,-3.436,-3.883,-3.195,-3.645,-0.117,0.850,-0.559,-0.244,-0.397,0.549,73.333,51050.000,1.000
-2.347,-2.283,-2.133,-2.172,-2.195,-2.577,-1.873,-2.318,-0.117,0.851,-0.558,-0.275,-0.336,0.488,73.333,51051.000,1.000
-1.298,-1.146,-1.151,-1.163,-1.236,-1.534,-0.882,-1.236,-0.118,0.853,-0.561,-0.336,-0.183,0.549,73.333,51052.000,1.000
-0.805,-0.591,-0.725,-0.723,-0.793,-1.024,-0.450,-0.687,-0.118,0.856,-0.557,-0.305,-0.214,0.580,73.333,51053.000,1.000
-0.958,-0.713,-0.926,-0.934,-0.945,-1.141,-0.653,-0.801,-0.118,0.856,-0.556,-0.275,-0.275,0.671,73.333,51054.000,1.000
-1.589,-1.348,-1.581,-1.633,-1.553,-1.715,-1.333,-1.438,-0.120,0.855,-0.557,-0.305,-0.427,0.671,73.333,51055.000,1.000
-2.397,-2.201,-2.393,-2.518,-2.352,-2.447,-2.187,-2.295,-0.121,0.854,-0.556,-0.397,-0.427,0.641,73.333,51056.000,1.000
-3.080,-2.975,-3.075,-3.281,-3.061,-3.060,-2.903,-3.062,-0.122,0.859,-0.556,-0.488,-0.336,0.519,73.333,51057.000,1.000
-3.398,-3.427,-3.411,-3.679,-3.434,-3.349,-3.248,-3.492,-0.122,0.858,-0.556,-0.580,-0.488,0.427,73.333,51058.000,1.000
-3.253,-3.446,-3.323,-3.613,-3.351,-3.232,-3.142,-3.466,-0.121,0.859,-0.556,-0.671,-0.427,0.427,73.333,51059.000,1.000
-2.690,-3.037,-2.847,-3.105,-2.834,-2.738,-2.642,-2.983,-0.120,0.858,-0.560,-0.763,-0.549,0.397,73.333,51060.000,1.000
-1.933,-2.371,-2.170,-2.351,-2.099,-2.061,-1.969,-2.237,-0.121,0.857,-0.560,-0.763,-0.458,0.366,73.333,51061.000,1.000
-1.274,-1.719,-1.543,-1.635,-1.444,-1.474,-1.403,-1.532,-0.121,0.857,-0.561,-0.763,-0.519,0.366,73.333,51062.000,1.000
-0.897,-1.290,-1.141,-1.164,-1.063,-1.145,-1.102,-1.073,-0.121,0.857,-0.561,-0.763,-0.549,0.214,73.333,51063.000,1.000
-0.838,-1.170,-1.022,-1.017,-0.991,-1.093,-1.078,-0.918,-0.120,0.855,-0.559,-0.854,-0.549,0.153,73.333,51064.000,1.000
-0.986,-1.276,-1.094,-1.108,-1.109,-1.200,-1.206,-0.976,-0.122,0.854,-0.555,-0.885,-0.549,0.153,73.333,51065.000,1.000
-1.182,-1.439,-1.211,-1.273,-1.255,-1.318,-1.347,-1.114,-0.120,0.856,-0.556,-0.916,-0.519,0.092,73.333,51066.000,1.000
-1.260,-1.472,-1.233,-1.333,-1.280,-1.314,-1.381,-1.181,-0.118,0.855,-0.558,-0.946,-0.519,0.092,73.333,51067.000,1.000
-1.075,-1.211,-1.039,-1.132,-1.056,-1.079,-1.194,-1.024,-0.115,0.853,-0.555,-0.854,-0.397,0.061,73.333,51068.000,1.000
-0.584,-0.611,-0.590,-0.620,-0.544,-0.588,-0.734,-0.580,-0.115,0.852,-0.560,-0.885,-0.305,0.031,73.333,51069.000,1.000
0.172,0.281,0.098,0.177,0.230,0.137,-0.008,0.122,-0.115,0.851,-0.558,-0.854,-0.305,0.000,73.333,51070.000,1.000
1.044,1.276,0.908,1.115,1.117,0.979,0.867,0.942,-0.116,0.851,-0.557,-0.916,-0.214,0.031,73.333,51071.000,1.000
1.807,2.102,1.645,1.959,1.878,1.736,1.690,1.677,-0.117,0.848,-0.555,-0.702,-0.244,0.153,73.333,51072.000,1.000
2.266,2.531,2.121,2.487,2.295,2.209,2.250,2.145,-0.117,0.850,-0.555,-0.671,-0.122,0.153,73.333,51073.000,1.000
2.319,2.483,2.209,2.571,2.260,2.289,2.393,2.237,-0.118,0.849,-0.557,-0.519,-0.183,0.244,73.333,51074.000,1.000
2.095,2.151,2.011,2.333,1.925,2.107,2.198,2.070,-0.119,0.849,-0.562,-0.427,-0.092,0.305,73.333,51075.000,1.000
1.876,1.882,1.808,2.076,1.631,1.962,1.950,1.925,-0.122,0.847,-0.559,-0.366,-0.092,0.427,73.333,51076.000,1.000
1.903,1.936,1.843,2.064,1.660,2.095,1.918,2.030,-0.122,0.844,-0.560,-0.366,-0.061,0.488,73.333,51077.000,1.000
2.242,2.346,2.159,2.361,2.063,2.540,2.192,2.408,-0.122,0.842,-0.560,-0.153,-0.244,0.641,73.333,51078.000,1.000
2.793,2.950,2.621,2.847,2.674,3.139,2.674,2.911,-0.125,0.842,-0.558,-0.153,-0.305,0.641,73.333,51079.000,1.000
3.453,3.604,3.123,3.402,3.350,3.748,3.268,3.434,-0.128,0.843,-0.561,-0.092,-0.366,0.671,73.333,51080.000,1.000
4.114,4.198,3.594,3.930,3.996,4.278,3.884,3.929,-0.129,0.845,-0.564,0.092,-0.458,0.549,73.333,51081.000,1.000
4.641,4.639,3.977,4.354,4.515,4.666,4.413,4.353,-0.127,0.847,-0.559,0.214,-0.580,0.549,73.333,51082.000,1.000
4.938,4.877,4.244,4.645,4.817,4.891,4.759,4.664,-0.124,0.847,-0.562,0.305,-0.702,0.549,73.333,51083.000,1.000
4.972,4.909,4.373,4.797,4.848,4.949,4.867,4.802,-0.122,0.849,-0.562,0.336,-0.732,0.671,73.333,51084.000,1.000
4.832,4.816,4.397,4.834,4.671,4.894,4.786,4.777,-0.122,0.850,-0.559,0.336,-0.916,0.641,73.333,51085.000,1.000
4.575,4.635,4.300,4.699,4.350,4.723,4.555,4.593,-0.119,0.848,-0.562,0.305,-0.885,0.671,73.333,51086.000,1.000
4.122,4.249,3.960,4.251,3.830,4.313,4.096,4.159,-0.120,0.848,-0.563,0.336,-0.885,0.793,73.333,51087.000,1.000
3.351,3.502,3.260,3.389,3.011,3.528,3.309,3.363,-0.116,0.849,-0.560,0.275,-0.824,0.732,73.333,51088.000,1.000
2.240,2.349,2.212,2.165,1.888,2.357,2.208,2.200,-0.114,0.850,-0.564,0.183,-0.824,0.702,73.333,51089.000,1.000
1.002,1.007,1.047,0.859,0.682,1.034,1.020,0.912,-0.114,0.854,-0.561,0.214,-0.732,0.671,73.333,51090.000,1.000
-0.039,-0.151,0.080,-0.167,-0.284,-0.092,0.053,-0.144,-0.115,0.857,-0.562,0.153,-0.732,0.732,73.333,51091.000,1.000
-0.672,-0.831,-0.496,-0.699,-0.805,-0.777,-0.517,-0.740,-0.115,0.859,-0.564,0.122,-0.702,0.763,73.333,51092.000,1.000
-0.905,-1.003,-0.702,-0.803,-0.924,-1.016,-0.737,-0.903,-0.122,0.859,-0.564,-0.031,-0.549,0.610,73.333,51093.000,1.000
-0.947,-0.914,-0.753,-0.776,-0.896,-1.031,-0.837,-0.884,-0.128,0.861,-0.563,-0.153,-0.610,0.458,73.333,51094.000,1.000
-1.051,-0.898,-0.899,-0.911,-0.998,-1.098,-1.046,-0.970,-0.129,0.862,-0.561,-0.244,-0.702,0.397,73.333,51095.000,1.000
-1.532,-1.332,-1.433,-1.476,-1.522,-1.539,-1.618,-1.478,-0.131,0.862,-0.559,-0.336,-0.763,0.183,73.333,51096.000,1.000
-2.732,-2.569,-2.662,-2.729,-2.760,-2.689,-2.824,-2.721,-0.131,0.864,-0.561,-0.458,-0.946,0.000,73.333,51097.000,1.000
-4.801,-4.714,-4.698,-4.763,-4.819,-4.680,-4.781,-4.809,-0.128,0.865,-0.556,-0.702,-1.038,-0.092,73.333,51098.000,1.000
-7.508,-7.470,-7.305,-7.350,-7.456,-7.264,-7.283,-7.475,-0.126,0.865,-0.561,-0.824,-1.190,-0.275,73.333,51099.000,1.000
-10.184,-10.124,-9.842,-9.865,-10.006,-9.781,-9.739,-10.043,-0.125,0.866,-0.563,-0.977,-1.251,-0.397,73.333,51100.000,1.000
-12.022,-11.875,-11.546,-11.555,-11.685,-11.459,-11.432,-11.740,-0.122,0.865,-0.560,-1.190,-1.312,-0.427,73.333,51101.000,1.000
-12.434,-12.187,-11.866,-11.879,-11.939,-11.768,-11.827,-12.044,-0.120,0.865,-0.560,-1.404,-1.190,-0.610,73.333,51102.000,1.000
-11.280,-10.984,-10.680,-10.736,-10.678,-10.626,-10.774,-10.867,-0.118,0.864,-0.562,-1.617,-1.251,-0.793,73.333,51103.000,1.000
-9.007,-8.757,-8.438,-8.588,-8.395,-8.506,-8.663,-8.661,-0.116,0.864,-0.563,-1.740,-1.038,-0.793,73.333,51104.000,1.000
-6.466,-6.348,-5.981,-6.253,-5.958,-6.222,-6.290,-6.241,-0.112,0.867,-0.563,-1.892,-0.824,-0.885,73.333,51105.000,1.000
-4.489,-4.541,-4.130,-4.498,-4.180,-4.524,-4.460,-4.397,-0.108,0.865,-0.557,-2.197,-0.427,-0.854,73.333,51106.000,1.000
-3.387,-3.578,-3.169,-3.569,-3.317,-3.630,-3.473,-3.399,-0.103,0.863,-0.555,-2.441,-0.214,-0.702,73.333,51107.000,1.000
-2.814,-3.058,-2.720,-3.089,-2.947,-3.141,-2.968,-2.873,-0.104,0.864,-0.556,-2.533,0.153,-0.580,73.333,51108.000,1.000
-2.215,-2.409,-2.193,-2.507,-2.442,-2.491,-2.369,-2.253,-0.101,0.863,-0.551,-2.594,0.519,-0.519,73.333,51109.000,1.000
-1.263,-1.340,-1.245,-1.527,-1.447,-1.388,-1.363,-1.237,-0.101,0.862,-0.553,-2.777,0.916,-0.549,73.333,51110.000,1.000
-0.066,-0.021,0.006,-0.288,-0.113,0.003,-0.108,0.013,-0.104,0.858,-0.553,-2.777,1.312,-0.488,73.333,51111.000,1.000
1.023,1.120,1.155,0.825,1.115,1.248,0.978,1.094,-0.105,0.858,-0.553,-2.899,1.770,-0.458,73.333,51112.000,1.000
1.707,1.756,1.832,1.504,1.867,1.983,1.574,1.698,-0.109,0.859,-0.550,-2.991,2.014,-0.549,73.333,51113.000,1.000
1.855,1.787,1.866,1.615,1.988,2.059,1.579,1.711,-0.113,0.858,-0.550,-3.021,2.289,-0.641,73.333,51114.000,1.000
1.571,1.390,1.392,1.272,1.595,1.623,1.171,1.270,-0.114,0.856,-0.551,-3.204,2.563,-0.671,73.333,51115.000,1.000
1.153,0.916,0.796,0.789,1.029,1.042,0.714,0.722,-0.119,0.856,-0.549,-3.265,2.655,-0.641,73.333,51116.000,1.000
1.001,0.787,0.561,0.596,0.746,0.770,0.623,0.512,-0.120,0.853,-0.547,-3.296,2.838,-0.671,73.333,51117.000,1.000
1.453,1.330,1.060,1.058,1.134,1.159,1.198,1.001,-0.120,0.851,-0.546,-3.326,3.021,-0.732,73.333,51118.000,1.000
2.533,2.540,2.303,2.224,2.239,2.229,2.422,2.201,-0.121,0.849,-0.546,-3.296,3.052,-0.702,73.333,51119.000,1.000
3.983,4.100,3.976,3.826,3.765,3.703,4.005,3.820,-0.121,0.848,-0.548,-3.204,2.991,-0.763,73.333,51120.000,1.000
5.405,5.566,5.609,5.421,5.255,5.147,5.533,5.419,-0.122,0.846,-0.546,-3.082,3.052,-0.702,73.333,51121.000,1.000
6.448,6.588,6.800,6.599,6.327,6.188,6.655,6.613,-0.120,0.847,-0.548,-3.052,3.021,-0.702,73.333,51122.000,1.000
6.956,7.033,7.378,7.165,6.835,6.673,7.208,7.210,-0.119,0.846,-0.547,-2.960,3.082,-0.732,73.333,51123.000,1.000
6.964,6.958,7.376,7.141,6.846,6.654,7.205,7.214,-0.117,0.845,-0.547,-2.869,3.052,-0.671,73.333,51124.000,1.000
6.664,6.576,6.998,6.742,6.579,6.345,6.842,6.819,-0.116,0.845,-0.549,-2.655,3.174,-0.580,73.333,51125.000,1.000
6.213,6.063,6.430,6.170,6.192,5.907,6.327,6.224,-0.116,0.844,-0.548,-2.380,3.235,-0.397,73.333,51126.000,1.000
5.571,5.396,5.685,5.437,5.616,5.308,5.685,5.452,-0.119,0.842,-0.551,-2.167,3.174,-0.244,73.333,51127.000,1.000
4.574,4.407,4.642,4.408,4.646,4.392,4.765,4.397,-0.119,0.840,-0.552,-1.770,3.143,-0.061,73.333,51128.000,1.000
3.129,2.991,3.219,2.995,3.173,3.062,3.430,2.996,-0.119,0.842,-0.552,-1.556,3.052,0.153,73.333,51129.000,1.000
1.451,1.355,1.608,1.379,1.450,1.501,1.838,1.450,-0.121,0.845,-0.554,-1.251,2.991,0.366,73.333,51130.000,1.000
-0.052,-0.095,0.162,-0.083,-0.076,0.062,0.350,0.095,-0.122,0.845,-0.554,-1.007,2.869,0.488,73.333,51131.000,1.000
-1.010,-1.005,-0.810,-1.057,-1.030,-0.918,-0.684,-0.789,-0.123,0.848,-0.557,-0.763,2.777,0.824,73.333,51132.000,1.000
-1.173,-1.157,-1.085,-1.292,-1.194,-1.174,-1.007,-1.005,-0.125,0.849,-0.556,-0.488,2.655,1.007,73.333,51133.000,1.000
-0.486,-0.510,-0.580,-0.701,-0.535,-0.591,-0.519,-0.478,-0.127,0.850,-0.558,-0.305,2.380,1.129,73.333,51134.000,1.000
0.999,0.904,0.712,0.689,0.900,0.827,0.780,0.800,-0.125,0.852,-0.558,-0.061,2.075,1.312,73.333,51135.000,1.000
3.200,3.048,2.753,2.809,3.048,3.021,2.830,2.800,-0.126,0.855,-0.556,0.031,1.862,1.495,73.333,51136.000,1.000
5.998,5.830,5.446,5.542,5.817,5.867,5.506,5.447,-0.127,0.854,-0.560,0.275,1.495,1.617,73.333,51137.000,1.000
9.125,8.976,8.525,8.625,8.949,9.065,8.533,8.503,-0.127,0.854,-0.558,0.427,1.160,1.770,73.333,51138.000,1.000
12.057,11.931,11.454,11.532,11.898,12.039,11.388,11.436,-0.126,0.856,-0.557,0.580,0.885,1.831,73.333,51139.000,1.000
14.218,14.099,13.651,13.698,14.052,14.173,13.517,13.635,-0.124,0.854,-0.559,0.671,0.610,1.862,73.333,51140.000,1.000
15.233,15.099,14.746,14.770,15.021,15.105,14.571,14.708,-0.121,0.854,-0.558,0.763,0.305,1.953,73.333,51141.000,1.000
15.080,14.911,14.701,14.739,14.795,14.867,14.538,14.653,-0.118,0.854,-0.560,0.793,0.031,1.984,73.333,51142.000,1.000
14.048,13.826,13.754,13.873,13.690,13.794,13.674,13.766,-0.117,0.855,-0.561,0.977,-0.275,2.045,73.333,51143.000,1.000
12.490,12.219,12.211,12.473,12.095,12.249,12.273,12.367,-0.115,0.857,-0.561,1.068,-0.427,2.014,73.333,51144.000,1.000
10.718,10.434,10.385,10.800,10.349,10.517,10.602,10.721,-0.118,0.857,-0.559,1.129,-0.610,2.014,73.333,51145.000,1.000
8.956,8.729,8.559,9.070,8.685,8.798,8.884,9.043,-0.118,0.858,-0.559,1.190,-0.824,1.984,73.333,51146.000,1.000
7.425,7.336,7.018,7.539,7.308,7.303,7.374,7.578,-0.118,0.857,-0.565,1.190,-1.007,1.953,73.333,51147.000,1.000
6.414,6.517,6.079,6.537,6.484,6.329,6.402,6.635,-0.118,0.854,-0.565,1.251,-1.251,1.892,73.333,51148.000,1.000
6.103,6.382,5.898,6.265,6.359,6.065,6.149,6.385,-0.117,0.855,-0.563,1.404,-1.434,1.801,73.333,51149.000,1.000
6.440,6.801,6.384,6.666,6.835,6.452,6.533,6.747,-0.117,0.854,-0.559,1.434,-1.678,1.678,73.333,51150.000,1.000
7.138,7.457,7.226,7.442,7.589,7.196,7.237,7.424,-0.115,0.853,-0.562,1.678,-2.014,1.495,73.333,51151.000,1.000
7.840,8.028,8.050,8.212,8.261,7.936,7.903,8.085,-0.116,0.849,-0.560,1.678,-2.197,1.434,73.333,51152.000,1.000
8.296,8.341,8.594,8.701,8.636,8.414,8.305,8.524,-0.119,0.846,-0.563,1.678,-2.472,1.221,73.333,51153.000,1.000
8.382,8.350,8.745,8.779,8.640,8.501,8.344,8.649,-0.120,0.844,-0.561,1.770,-2.625,1.160,73.333,51154.000,1.000
8.126,8.108,8.544,8.492,8.317,8.224,8.055,8.473,-0.121,0.842,-0.563,1.831,-2.838,1.038,73.333,51155.000,1.000
7.533,7.593,7.997,7.875,7.669,7.600,7.445,7.960,-0.119,0.840,-0.560,1.862,-3.082,0.946,73.333,51156.000,1.000
6.446,6.601,6.929,6.784,6.545,6.484,6.366,6.916,-0.117,0.840,-0.561,1.984,-3.357,0.732,73.333,51157.000,1.000
4.651,4.884,5.116,5.003,4.756,4.670,4.623,5.126,-0.115,0.841,-0.562,1.862,-3.510,0.671,73.333,51158.000,1.000
2.049,2.316,2.454,2.410,2.208,2.054,2.114,2.504,-0.114,0.846,-0.565,1.953,-3.662,0.671,73.333,51159.000,1.000
-1.226,-0.970,-0.922,-0.884,-0.985,-1.224,-1.058,-0.807,-0.111,0.846,-0.563,2.045,-3.845,0.671,73.333,51160.000,1.000
-4.885,-4.669,-4.708,-4.609,-4.566,-4.876,-4.657,-4.528,-0.106,0.846,-0.562,2.014,-3.754,0.580,73.333,51161.000,1.000
-8.587,-8.422,-8.542,-8.443,-8.234,-8.570,-8.385,-8.336,-0.106,0.846,-0.565,2.014,-3.754,0.580,73.333,51162.000,1.000
-12.053,-11.939,-12.112,-12.082,-11.733,-12.035,-11.960,-11.951,-0.110,0.847,-0.568,2.075,-3.571,0.580,73.333,51163.000,1.000
-15.229,-15.162,-15.327,-15.402,-15.006,-15.202,-15.273,-15.275,-0.112,0.848,-0.566,2.014,-3.510,0.458,73.333,51164.000,1.000
-18.196,-18.181,-18.265,-18.426,-18.118,-18.154,-18.343,-18.340,-0.115,0.850,-0.566,1.953,-3.571,0.427,73.333,51165.000,1.000
-21.063,-21.111,-21.073,-21.269,-21.145,-21.010,-21.243,-21.239,-0.115,0.854,-0.564,1.862,-3.723,0.214,73.333,51166.000,1.000
-23.876,-24.002,-23.852,-24.044,-24.102,-23.843,-24.033,-24.047,-0.115,0.855,-0.564,1.709,-3.693,0.244,73.333,51167.000,1.000
-26.543,-26.745,-26.537,-26.715,-26.872,-26.561,-26.648,-26.705,-0.112,0.855,-0.565,1.495,-3.632,0.153,73.333,51168.000,1.000
-28.806,-29.054,-28.858,-29.024,-29.183,-28.891,-28.853,-28.964,-0.109,0.856,-0.565,1.343,-3.632,0.061,73.333,51169.000,1.000
-30.186,-30.429,-30.300,-30.437,-30.539,-30.318,-30.180,-30.331,-0.107,0.855,-0.567,1.038,-3.479,0.000,73.333,51170.000,1.000
-30.167,-30.361,-30.309,-30.389,-30.409,-30.292,-30.125,-30.287,-0.104,0.856,-0.564,0.854,-3.296,-0.092,73.333,51171.000,1.000
-28.575,-28.692,-28.683,-28.698,-28.636,-28.618,-28.510,-28.664,-0.104,0.855,-0.567,0.702,-3.143,-0.214,73.333,51172.000,1.000
-25.790,-25.818,-25.805,-25.770,-25.660,-25.695,-25.699,-25.858,-0.105,0.853,-0.568,0.549,-2.930,-0.305,73.333,51173.000,1.000
-22.617,-22.553,-22.512,-22.445,-22.340,-22.384,-22.485,-22.666,-0.106,0.855,-0.570,0.427,-2.716,-0.305,73.333,51174.000,1.000
-19.742,-19.605,-19.523,-19.430,-19.390,-19.426,-19.546,-19.740,-0.107,0.853,-0.568,0.305,-2.533,-0.397,73.333,51175.000,1.000
-17.392,-17.225,-17.080,-16.970,-17.027,-17.062,-17.107,-17.277,-0.109,0.854,-0.566,0.061,-2.411,-0.458,73.333,51176.000,1.000
-15.428,-15.286,-15.057,-14.952,-15.098,-15.136,-15.060,-15.165,-0.111,0.854,-0.570,0.031,-2.106,-0.488,73.333,51177.000,1.000
-13.658,-13.578,-13.280,-13.201,-13.397,-13.433,-13.257,-13.291,-0.111,0.855,-0.566,-0.153,-1.953,-0.519,73.333,51178.000,1.000
-12.064,-12.050,-11.735,-11.688,-11.886,-11.918,-11.689,-11.688,-0.112,0.855,-0.569,-0.336,-1.892,-0.549,73.333,51179.000,1.000
-10.629,-10.655,-10.392,-10.364,-10.507,-10.550,-10.309,-10.318,-0.112,0.856,-0.569,-0.336,-1.740,-0.641,73.333,51180.000,1.000
-9.189,-9.220,-9.062,-9.022,-9.061,-9.136,-8.912,-8.953,-0.112,0.857,-0.565,-0.305,-1.617,-0.671,73.333,51181.000,1.000
-7.539,-7.538,-7.499,-7.415,-7.333,-7.453,-7.270,-7.333,-0.112,0.858,-0.565,-0.458,-1.465,-0.671,73.333,51182.000,1.000
-5.626,-5.558,-5.601,-5.477,-5.298,-5.457,-5.342,-5.390,-0.112,0.857,-0.563,-0.641,-1.282,-0.824,73.333,51183.000,1.000
-3.668,-3.523,-3.586,-3.464,-3.236,-3.401,-3.390,-3.374,-0.115,0.857,-0.564,-0.854,-1.190,-0.763,73.333,51184.000,1.000
-1.983,-1.789,-1.824,-1.754,-1.532,-1.643,-1.763,-1.648,-0.116,0.857,-0.563,-0.977,-1.068,-0.732,73.333,51185.000,1.000
-0.784,-0.602,-0.594,-0.592,-0.434,-0.413,-0.663,-0.466,-0.114,0.856,-0.563,-1.099,-0.977,-0.824,73.333,51186.000,1.000
-0.037,0.072,0.110,0.065,0.123,0.323,-0.017,0.205,-0.114,0.855,-0.566,-1.190,-0.824,-0.854,73.333,51187.000,1.000
0.550,0.563,0.629,0.560,0.509,0.875,0.518,0.699,-0.115,0.854,-0.569,-1.251,-0.702,-0.793,73.333,51188.000,1.000
1.309,1.256,1.358,1.279,1.139,1.596,1.293,1.404,-0.114,0.854,-0.568,-1.221,-0.580,-0.702,73.333,51189.000,1.000
2.450,2.391,2.517,2.456,2.256,2.695,2.486,2.543,-0.117,0.855,-0.568,-1.343,-0.549,-0.671,73.333,51190.000,1.000
3.929,3.912,4.021,4.022,3.789,4.117,3.993,4.028,-0.116,0.856,-0.567,-1.526,-0.549,-0.641,73.333,51191.000,1.000
5.503,5.531,5.579,5.678,5.432,5.609,5.532,5.567,-0.118,0.854,-0.562,-1.617,-0.580,-0.671,73.333,51192.000,1.000
6.954,6.989,6.954,7.154,6.911,6.966,6.902,6.935,-0.120,0.855,-0.562,-1.617,-0.549,-0.610,73.333,51193.000,1.000
8.188,8.185,8.076,8.339,8.126,8.133,8.060,8.073,-0.120,0.853,-0.558,-1.648,-0.519,-0.610,73.333,51194.000,1.000
9.314,9.248,9.106,9.359,9.225,9.254,9.161,9.122,-0.121,0.854,-0.561,-1.709,-0.519,-0.671,73.333,51195.000,1.000
10.526,10.398,10.266,10.430,10.433,10.511,10.400,10.281,-0.120,0.852,-0.562,-1.740,-0.519,-0.641,73.333,51196.000,1.000
11.874,11.706,11.595,11.641,11.808,11.910,11.808,11.589,-0.120,0.849,-0.562,-1.770,-0.610,-0.671,73.333,51197.000,1.000
13.213,13.038,12.926,12.891,13.192,13.264,13.214,12.901,-0.122,0.848,-0.561,-1.740,-0.641,-0.732,73.333,51198.000,1.000
14.268,14.121,13.977,13.935,14.284,14.290,14.322,13.943,-0.122,0.847,-0.560,-1.801,-0.702,-0.610,73.333,51199.000,1.000
14.804,14.721,14.525,14.527,14.817,14.773,14.875,14.476,-0.124,0.845,-0.559,-1.831,-0.702,-0.610,73.333,51200.000,1.000
14.689,14.698,14.450,14.500,14.656,14.619,14.731,14.364,-0.127,0.844,-0.561,-1.740,-0.793,-0.580,73.333,51201.000,1.000
13.955,14.065,13.792,13.863,13.873,13.898,13.954,13.653,-0.126,0.844,-0.563,-1.587,-0.916,-0.549,73.333,51202.000,1.000
12.825,13.016,12.764,12.826,12.725,12.836,12.810,12.575,-0.129,0.844,-0.562,-1.556,-1.068,-0.610,73.333,51203.000,1.000
11.518,11.747,11.555,11.586,11.432,11.608,11.532,11.334,-0.127,0.844,-0.562,-1.465,-1.343,-0.610,73.333,51204.000,1.000
10.187,10.413,10.281,10.269,10.121,10.307,10.251,10.060,-0.131,0.844,-0.560,-1.373,-1.556,-0.671,73.333,51205.000,1.000
8.891,9.096,8.984,8.929,8.830,8.962,9.000,8.800,-0.128,0.845,-0.558,-1.221,-1.648,-0.763,73.333,51206.000,1.000
7.575,7.757,7.615,7.531,7.489,7.530,7.721,7.493,-0.128,0.844,-0.559,-1.068,-1.740,-0.793,73.333,51207.000,1.000
6.164,6.321,6.129,6.032,6.014,5.976,6.346,6.054,-0.131,0.845,-0.561,-1.068,-1.923,-0.793,73.333,51208.000,1.000
4.665,4.784,4.552,4.464,4.424,4.354,4.878,4.486,-0.132,0.847,-0.558,-0.977,-2.136,-0.824,73.333,51209.000,1.000
3.294,3.353,3.116,3.066,2.966,2.922,3.518,3.032,-0.132,0.849,-0.561,-0.885,-2.319,-0.885,73.333,51210.000,1.000
2.346,2.323,2.134,2.142,1.970,1.994,2.549,2.042,-0.133,0.851,-0.560,-0.916,-2.716,-0.854,73.333,51211.000,1.000
1.911,1.799,1.723,1.781,1.552,1.641,2.064,1.645,-0.134,0.853,-0.557,-0.946,-2.838,-0.854,73.333,51212.000,1.000
1.773,1.582,1.674,1.744,1.489,1.600,1.864,1.608,-0.134,0.854,-0.557,-0.916,-2.991,-0.824,73.333,51213.000,1.000
1.529,1.293,1.548,1.592,1.346,1.419,1.563,1.461,-0.133,0.852,-0.560,-0.977,-3.174,-0.793,73.333,51214.000,1.000
0.952,0.708,1.056,1.051,0.846,0.831,0.928,0.903,-0.133,0.855,-0.560,-1.007,-3.357,-0.793,73.333,51215.000,1.000
0.116,-0.112,0.238,0.173,0.035,-0.096,0.022,-0.005,-0.133,0.855,-0.561,-1.038,-3.448,-0.641,73.333,51216.000,1.000
-0.748,-0.952,-0.666,-0.798,-0.850,-1.094,-0.928,-0.977,-0.131,0.854,-0.560,-1.038,-3.540,-0.641,73.333,51217.000,1.000
-1.428,-1.602,-1.401,-1.600,-1.556,-1.875,-1.707,-1.722,-0.132,0.855,-0.560,-1.160,-3.662,-0.641,73.333,51218.000,1.000
-1.863,-1.997,-1.868,-2.127,-1.984,-2.315,-2.243,-2.132,-0.134,0.854,-0.563,-1.282,-3.754,-0.549,73.333,51219.000,1.000
-2.098,-2.172,-2.093,-2.389,-2.162,-2.434,-2.542,-2.253,-0.135,0.857,-0.562,-1.312,-3.967,-0.397,73.333,51220.000,1.000
-2.248,-2.240,-2.193,-2.477,-2.226,-2.375,-2.665,-2.228,-0.133,0.856,-0.563,-1.404,-3.998,-0.366,73.333,51221.000,1.000
-2.444,-2.353,-2.325,-2.530,-2.355,-2.342,-2.726,-2.237,-0.131,0.857,-0.559,-1.465,-4.211,-0.336,73.333,51222.000,1.000
-2.731,-2.593,-2.575,-2.639,-2.635,-2.458,-2.820,-2.390,-0.129,0.856,-0.558,-1.617,-4.211,-0.397,73.333,51223.000,1.000
-3.095,-2.953,-2.944,-2.848,-3.049,-2.754,-3.010,-2.708,-0.128,0.857,-0.560,-1.709,-4.150,-0.244,73.333,51224.000,1.000
-3.433,-3.305,-3.303,-3.095,-3.453,-3.132,-3.254,-3.077,-0.126,0.856,-0.560,-1.740,-4.059,-0.305,73.333,51225.000,1.000
-3.614,-3.497,-3.478,-3.259,-3.679,-3.431,-3.436,-3.334,-0.124,0.856,-0.559,-1.831,-3.937,-0.183,73.333,51226.000,1.000
-3.584,-3.492,-3.427,-3.287,-3.668,-3.559,-3.503,-3.423,-0.123,0.858,-0.556,-1.892,-3.845,-0.183,73.333,51227.000,1.000
-3.412,-3.388,-3.266,-3.243,-3.503,-3.540,-3.497,-3.421,-0.121,0.857,-0.557,-1.984,-3.632,-0.214,73.333,51228.000,1.000
-3.272,-3.356,-3.214,-3.284,-3.386,-3.515,-3.527,-3.485,-0.121,0.859,-0.559,-2.106,-3.418,-0.275,73.333,51229.000,1.000
-3.247,-3.444,-3.356,-3.457,-3.433,-3.564,-3.609,-3.653,-0.123,0.856,-0.556,-2.136,-3.174,-0.397,73.333,51230.000,1.000
-3.290,-3.541,-3.598,-3.661,-3.601,-3.650,-3.669,-3.836,-0.123,0.855,-0.560,-2.197,-3.052,-0.336,73.333,51231.000,1.000
-3.302,-3.515,-3.778,-3.760,-3.753,-3.684,-3.639,-3.918,-0.121,0.856,-0.562,-2.289,-2.808,-0.305,73.333,51232.000,1.000
-3.163,-3.263,-3.716,-3.622,-3.706,-3.537,-3.442,-3.768,-0.119,0.854,-0.560,-2.258,-2.655,-0.275,73.333,51233.000,1.000
-2.778,-2.750,-3.283,-3.164,-3.313,-3.099,-3.013,-3.287,-0.119,0.853,-0.559,-2.411,-2.441,-0.336,73.333,51234.000,1.000
-2.058,-1.953,-2.411,-2.329,-2.475,-2.284,-2.272,-2.411,-0.119,0.852,-0.557,-2.319,-2.258,-0.427,73.333,51235.000,1.000
-1.010,-0.922,-1.197,-1.183,-1.245,-1.133,-1.231,-1.208,-0.118,0.851,-0.559,-2.136,-1.953,-0.458,73.333,51236.000,1.000
0.182,0.162,0.077,0.035,0.117,0.119,-0.083,0.078,-0.119,0.849,-0.555,-2.045,-1.617,-0.488,73.333,51237.000,1.000
1.277,1.115,1.127,1.073,1.321,1.220,0.938,1.171,-0.120,0.851,-0.560,-2.075,-1.343,-0.610,73.333,51238.000,1.000
2.097,1.836,1.822,1.806,2.199,2.040,1.683,1.914,-0.119,0.851,-0.556,-2.045,-1.251,-0.671,73.333,51239.000,1.000
2.652,2.385,2.284,2.333,2.804,2.649,2.212,2.392,-0.119,0.851,-0.558,-1.923,-0.824,-0.641,73.333,51240.000,1.000
3.062,2.876,2.718,2.828,3.288,3.177,2.678,2.814,-0.116,0.851,-0.555,-1.862,-0.549,-0.641,73.333,51241.000,1.000
3.429,3.370,3.212,3.377,3.743,3.685,3.169,3.318,-0.116,0.853,-0.556,-1.862,-0.275,-0.763,73.333,51242.000,1.000
3.827,3.906,3.754,3.993,4.207,4.203,3.716,3.936,-0.116,0.852,-0.555,-1.770,-0.031,-0.671,73.333,51243.000,1.000
4.282,4.487,4.302,4.643,4.683,4.738,4.305,4.607,-0.117,0.851,-0.559,-1.740,0.244,-0.641,73.333,51244.000,1.000
4.860,5.159,4.916,5.351,5.237,5.368,4.976,5.329,-0.118,0.854,-0.555,-1.709,0.488,-0.732,73.333,51245.000,1.000
5.643,5.989,5.719,6.180,5.965,6.186,5.802,6.165,-0.121,0.852,-0.557,-1.740,0.641,-0.610,73.333,51246.000,1.000
6.643,6.979,6.761,7.141,6.898,7.188,6.794,7.145,-0.124,0.850,-0.556,-1.678,0.916,-0.549,73.333,51247.000,1.000
7.791,8.059,7.963,8.179,7.969,8.259,7.883,8.218,-0.125,0.851,-0.556,-1.648,1.129,-0.610,73.333,51248.000,1.000
8.894,9.047,9.096,9.127,8.967,9.183,8.897,9.222,-0.128,0.848,-0.561,-1.617,1.221,-0.488,73.333,51249.000,1.000
9.783,9.811,9.972,9.863,9.715,9.842,9.712,10.040,-0.128,0.849,-0.560,-1.495,1.343,-0.366,73.333,51250.000,1.000
10.428,10.363,10.581,10.413,10.213,10.299,10.362,10.683,-0.130,0.849,-0.563,-1.251,1.434,-0.366,73.333,51251.000,1.000
10.884,10.775,11.012,10.866,10.568,10.678,10.929,11.210,-0.130,0.849,-0.563,-1.190,1.465,-0.336,73.333,51252.000,1.000
11.223,11.100,11.368,11.282,10.897,11.054,11.453,11.654,-0.132,0.850,-0.561,-1.160,1.434,-0.244,73.333,51253.000,1.000
11.477,11.338,11.685,11.641,11.234,11.410,11.889,11.995,-0.133,0.852,-0.561,-1.099,1.495,-0.336,73.333,51254.000,1.000
11.749,11.576,12.027,11.972,11.648,11.777,12.254,12.286,-0.131,0.854,-0.560,-1.160,1.465,-0.153,73.333,51255.000,1.000
12.210,12.009,12.517,12.397,12.253,12.268,12.672,12.671,-0.130,0.853,-0.562,-1.129,1.465,-0.183,73.333,51256.000,1.000
12.963,12.785,13.256,13.046,13.113,12.982,13.275,13.278,-0.131,0.853,-0.560,-1.099,1.465,-0.092,73.333,51257.000,1.000
13.955,13.874,14.245,13.961,14.164,13.919,14.117,14.146,-0.133,0.852,-0.558,-1.190,1.343,-0.061,73.333,51258.000,1.000
14.942,15.013,15.275,14.974,15.176,14.898,15.054,15.109,-0.132,0.850,-0.560,-1.282,1.373,0.092,73.333,51259.000,1.000
15.640,15.868,16.030,15.770,15.871,15.663,15.818,15.878,-0.131,0.852,-0.563,-1.282,1.343,0.031,73.333,51260.000,1.000
15.844,16.183,16.235,16.045,16.032,15.991,16.130,16.170,-0.131,0.852,-0.563,-1.221,1.282,0.092,73.333,51261.000,1.000
15.490,15.864,15.803,15.665,15.597,15.767,15.839,15.848,-0.129,0.852,-0.558,-1.190,1.190,0.153,73.333,51262.000,1.000
14.714,15.045,14.899,14.774,14.713,15.055,15.038,15.024,-0.129,0.853,-0.557,-1.129,1.160,0.092,73.333,51263.000,1.000
13.696,13.918,13.751,13.618,13.581,13.980,13.920,13.905,-0.129,0.851,-0.554,-1.099,1.038,0.092,73.333,51264.000,1.000
12.558,12.629,12.512,12.395,12.354,12.663,12.663,12.659,-0.128,0.849,-0.556,-1.160,1.007,0.092,73.333,51265.000,1.000
11.385,11.289,11.264,11.229,11.151,11.241,11.410,11.405,-0.127,0.847,-0.555,-1.099,0.916,0.092,73.333,51266.000,1.000
10.291,10.058,10.114,10.228,10.099,9.917,10.297,10.277,-0.130,0.847,-0.558,-1.038,0.824,0.122,73.333,51267.000,1.000
9.439,9.152,9.225,9.514,9.344,8.930,9.474,9.434,-0.129,0.848,-0.557,-1.068,0.732,0.122,73.333,51268.000,1.000
8.909,8.675,8.681,9.096,8.928,8.378,8.995,8.926,-0.131,0.850,-0.561,-0.854,0.732,0.122,73.333,51269.000,1.000
8.655,8.556,8.422,8.860,8.764,8.181,8.784,8.660,-0.132,0.851,-0.561,-0.732,0.549,0.183,73.333,51270.000,1.000
8.440,8.497,8.194,8.552,8.597,8.051,8.584,8.373,-0.132,0.852,-0.561,-0.671,0.488,0.153,73.333,51271.000,1.000
7.908,8.095,7.640,7.859,8.090,7.619,8.031,7.729,-0.136,0.854,-0.557,-0.702,0.305,0.183,73.333,51272.000,1.000
6.883,7.151,6.587,6.670,7.094,6.711,6.944,6.602,-0.136,0.853,-0.557,-0.763,0.183,0.000,73.333,51273.000,1.000
5.444,5.734,5.117,5.118,5.697,5.387,5.418,5.113,-0.135,0.853,-0.553,-0.946,0.061,0.000,73.333,51274.000,1.000
3.799,4.053,3.453,3.455,4.098,3.829,3.707,3.490,-0.134,0.853,-0.556,-0.916,-0.061,-0.092,73.333,51275.000,1.000
2.079,2.254,1.759,1.824,2.404,2.161,1.988,1.854,-0.134,0.854,-0.556,-0.977,-0.275,-0.061,73.333,51276.000,1.000
0.330,0.422,0.096,0.241,0.632,0.440,0.305,0.213,-0.135,0.856,-0.559,-0.977,-0.458,-0.031,73.333,51277.000,1.000
-1.356,-1.319,-1.481,-1.282,-1.131,-1.236,-1.293,-1.390,-0.136,0.854,-0.561,-0.977,-0.488,-0.031,73.333,51278.000,1.000
-2.953,-2.948,-3.008,-2.797,-2.835,-2.849,-2.849,-2.979,-0.133,0.852,-0.560,-0.916,-0.732,-0.092,73.333,51279.000,1.000
-4.569,-4.598,-4.627,-4.428,-4.537,-4.498,-4.507,-4.674,-0.132,0.852,-0.557,-0.885,-0.824,-0.244,73.333,51280.000,1.000
-6.358,-6.437,-6.473,-6.294,-6.362,-6.311,-6.397,-6.595,-0.131,0.849,-0.558,-0.885,-1.007,-0.092,73.333,51281.000,1.000
-8.352,-8.486,-8.516,-8.380,-8.331,-8.286,-8.489,-8.703,-0.133,0.847,-0.563,-0.763,-1.007,0.000,73.333,51282.000,1.000
-10.320,-10.495,-10.464,-10.416,-10.218,-10.186,-10.505,-10.700,-0.133,0.845,-0.562,-0.580,-1.129,0.092,73.333,51283.000,1.000
-11.958,-12.152,-12.001,-12.090,-11.756,-11.741,-12.143,-12.261,-0.132,0.840,-0.562,-0.458,-1.221,0.092,73.333,51284.000,1.000
-13.141,-13.345,-13.051,-13.288,-12.875,-12.879,-13.306,-13.299,-0.135,0.838,-0.563,-0.305,-1.282,0.153,73.333,51285.000,1.000
-14.012,-14.218,-13.820,-14.156,-13.741,-13.767,-14.150,-14.012,-0.132,0.836,-0.563,-0.031,-1.343,0.305,73.333,51286.000,1.000
-14.786,-14.976,-14.551,-14.900,-14.547,-14.612,-14.878,-14.654,-0.133,0.833,-0.563,0.183,-1.404,0.366,73.333,51287.000,1.000
-15.478,-15.625,-15.246,-15.535,-15.272,-15.388,-15.486,-15.253,-0.134,0.832,-0.563,0.519,-1.556,0.519,73.333,51288.000,1.000
-15.954,-16.029,-15.726,-15.953,-15.762,-15.915,-15.841,-15.683,-0.136,0.831,-0.564,0.732,-1.648,0.580,73.333,51289.000,1.000
-16.112,-16.097,-15.848,-16.073,-15.908,-16.065,-15.862,-15.845,-0.136,0.830,-0.563,1.099,-1.709,0.763,73.333,51290.000,1.000
-16.007,-15.909,-15.674,-15.950,-15.784,-15.917,-15.645,-15.786,-0.138,0.831,-0.565,1.404,-1.984,0.885,73.333,51291.000,1.000
-15.805,-15.648,-15.426,-15.747,-15.585,-15.690,-15.396,-15.662,-0.140,0.833,-0.566,1.648,-2.136,1.007,73.333,51292.000,1.000
-15.593,-15.413,-15.242,-15.572,-15.423,-15.506,-15.233,-15.559,-0.141,0.832,-0.566,1.831,-2.289,1.251,73.333,51293.000,1.000
-15.366,-15.200,-15.115,-15.432,-15.289,-15.349,-15.146,-15.445,-0.141,0.837,-0.568,1.923,-2.533,1.343,73.333,51294.000,1.000
-15.078,-14.953,-14.944,-15.242,-15.097,-15.136,-15.039,-15.225,-0.145,0.841,-0.567,2.045,-2.747,1.404,73.333,51295.000,1.000
-14.776,-14.688,-14.709,-14.982,-14.837,-14.873,-14.878,-14.898,-0.144,0.845,-0.567,2.045,-3.052,1.495,73.333,51296.000,1.000
-14.641,-14.553,-14.563,-14.798,-14.666,-14.709,-14.782,-14.647,-0.144,0.849,-0.567,1.984,-3.235,1.526,73.333,51297.000,1.000
-14.842,-14.709,-14.692,-14.878,-14.773,-14.793,-14.914,-14.682,-0.144,0.853,-0.562,1.984,-3.387,1.526,73.333,51298.000,1.000
-15.447,-15.253,-15.212,-15.343,-15.269,-15.217,-15.396,-15.133,-0.141,0.857,-0.563,1.709,-3.632,1.556,73.333,51299.000,1.000
-16.309,-16.077,-16.039,-16.112,-16.050,-15.909,-16.164,-15.924,-0.140,0.863,-0.563,1.465,-3.784,1.648,73.333,51300.000,1.000
-17.114,-16.905,-16.902,-16.931,-16.832,-16.657,-16.966,-16.782,-0.138,0.867,-0.562,1.190,-3.784,1.526,73.333,51301.000,1.000
-17.623,-17.517,-17.556,-17.566,-17.391,-17.277,-17.569,-17.456,-0.135,0.868,-0.564,0.824,-3.906,1.526,73.333,51302.000,1.000
-17.848,-17.902,-17.951,-17.968,-17.725,-17.739,-17.932,-17.890,-0.132,0.869,-0.562,0.458,-3.937,1.495,73.333,51303.000,1.000
-18.049,-18.256,-18.273,-18.298,-18.057,-18.182,-18.247,-18.260,-0.129,0.871,-0.566,0.061,-3.906,1.373,73.333,51304.000,1.000
-18.396,-18.690,-18.644,-18.653,-18.512,-18.667,-18.646,-18.679,-0.127,0.871,-0.565,-0.488,-3.784,1.221,73.333,51305.000,1.000
-18.753,-19.061,-18.945,-18.909,-18.927,-19.031,-19.008,-19.019,-0.125,0.873,-0.563,-0.977,-3.693,1.190,73.333,51306.000,1.000
-18.870,-19.157,-18.978,-18.895,-19.049,-19.079,-19.109,-19.066,-0.124,0.873,-0.561,-1.312,-3.510,1.038,73.333,51307.000,1.000
-18.650,-18.926,-18.705,-18.585,-18.808,-18.796,-18.864,-18.767,-0.123,0.871,-0.563,-1.801,-3.235,0.885,73.333,51308.000,1.000
-18.254,-18.542,-18.299,-18.147,-18.391,-18.379,-18.422,-18.304,-0.120,0.867,-0.562,-2.197,-2.960,0.763,73.333,51309.000,1.000
-17.798,-18.099,-17.854,-17.683,-17.934,-17.924,-17.900,-17.802,-0.118,0.865,-0.565,-2.563,-2.686,0.641,73.333,51310.000,1.000
-17.168,-17.451,-17.229,-17.090,-17.333,-17.272,-17.222,-17.156,-0.117,0.861,-0.565,-2.869,-2.350,0.580,73.333,51311.000,1.000
-16.207,-16.413,-16.244,-16.216,-16.414,-16.245,-16.258,-16.210,-0.118,0.859,-0.562,-3.052,-1.984,0.580,73.333,51312.000,1.000
-14.872,-14.945,-14.856,-14.985,-15.095,-14.823,-14.961,-14.908,-0.117,0.859,-0.563,-3.235,-1.587,0.336,73.333,51313.000,1.000
-13.236,-13.157,-13.168,-13.429,-13.437,-13.142,-13.384,-13.312,-0.115,0.856,-0.563,-3.479,-1.190,0.305,73.333,51314.000,1.000
-11.293,-11.112,-11.217,-11.532,-11.463,-11.247,-11.513,-11.417,-0.116,0.856,-0.561,-3.601,-0.763,0.183,73.333,51315.000,1.000
-8.962,-8.778,-8.924,-9.204,-9.125,-9.046,-9.242,-9.143,-0.117,0.853,-0.560,-3.632,-0.336,0.183,73.333,51316.000,1.000
-6.306,-6.217,-6.316,-6.490,-6.476,-6.531,-6.582,-6.535,-0.115,0.851,-0.565,-3.723,0.031,0.214,73.333,51317.000,1.000
-3.595,-3.657,-3.645,-3.674,-3.758,-3.903,-3.782,-3.840,-0.115,0.852,-0.564,-3.723,0.397,0.092,73.333,51318.000,1.000
-1.183,-1.390,-1.264,-1.164,-1.303,-1.485,-1.235,-1.398,-0.117,0.851,-0.564,-3.723,0.763,0.305,73.333,51319.000,1.000
0.785,0.492,0.696,0.847,0.744,0.563,0.849,0.654,-0.118,0.853,-0.564,-3.754,1.160,0.336,73.333,51320.000,1.000
2.401,2.114,2.363,2.466,2.458,2.300,2.527,2.406,-0.120,0.851,-0.561,-3.815,1.648,0.427,73.333,51321.000,1.000
3.814,3.622,3.891,3.881,3.958,3.838,3.954,3.973,-0.120,0.853,-0.559,-3.784,1.862,0.488,73.333,51322.000,1.000
5.145,5.085,5.352,5.224,5.325,5.264,5.275,5.416,-0.122,0.853,-0.556,-3.662,2.167,0.610,73.333,51323.000,1.000
6.386,6.432,6.682,6.467,6.533,6.547,6.505,6.671,-0.123,0.851,-0.557,-3.510,2.350,0.732,73.333,51324.000,1.000
7.479,7.567,7.814,7.548,7.548,7.631,7.600,7.682,-0.123,0.851,-0.556,-3.448,2.625,0.885,73.333,51325.000,1.000
8.440,8.506,8.779,8.495,8.434,8.548,8.568,8.515,-0.123,0.848,-0.558,-3.296,2.655,0.977,73.333,51326.000,1.000
9.371,9.374,9.688,9.420,9.313,9.411,9.480,9.337,-0.125,0.846,-0.554,-3.235,2.808,1.160,73.333,51327.000,1.000
10.409,10.347,10.683,10.458,10.307,10.371,10.462,10.330,-0.125,0.841,-0.560,-3.082,2.991,1.373,73.333,51328.000,1.000
11.564,11.465,11.784,11.620,11.411,11.461,11.549,11.506,-0.124,0.839,-0.560,-2.869,3.113,1.556,73.333,51329.000,1.000
12.724,12.632,12.894,12.797,12.527,12.599,12.680,12.730,-0.124,0.839,-0.559,-2.563,3.174,1.709,73.333,51330.000,1.000
13.783,13.728,13.919,13.872,13.572,13.690,13.771,13.859,-0.124,0.838,-0.559,-2.411,3.113,2.045,73.333,51331.000,1.000
14.705,14.700,14.832,14.804,14.517,14.693,14.770,14.838,-0.124,0.841,-0.559,-2.228,3.143,2.197,73.333,51332.000,1.000
15.544,15.592,15.690,15.655,15.420,15.636,15.686,15.707,-0.123,0.843,-0.560,-1.862,3.174,2.441,73.333,51333.000,1.000
16.358,16.471,16.546,16.495,16.341,16.542,16.554,16.519,-0.123,0.845,-0.559,-1.678,3.082,2.655,73.333,51334.000,1.000
17.287,17.480,17.506,17.453,17.384,17.519,17.502,17.410,-0.125,0.848,-0.558,-1.678,3.021,2.655,73.333,51335.000,1.000
18.589,18.868,18.775,18.757,18.743,18.809,18.786,18.635,-0.128,0.851,-0.560,-1.465,2.930,2.777,73.333,51336.000,1.000
20.474,20.810,20.542,20.607,20.594,20.632,20.633,20.418,-0.135,0.853,-0.557,-1.343,2.808,2.991,73.333,51337.000,1.000
22.870,23.193,22.759,22.960,22.873,22.941,22.998,22.708,-0.137,0.856,-0.559,-1.343,2.625,3.052,73.333,51338.000,1.000
25.200,25.422,24.904,25.272,25.043,25.198,25.318,24.951,-0.140,0.859,-0.560,-1.373,2.289,2.899,73.333,51339.000,1.000
26.583,26.651,26.158,26.678,26.281,26.557,26.705,26.292,-0.140,0.862,-0.560,-1.312,1.953,2.899,73.333,51340.000,1.000
26.271,26.184,25.800,26.411,25.886,26.263,26.373,25.992,-0.139,0.861,-0.558,-1.221,1.526,2.777,73.333,51341.000,1.000
24.007,23.804,23.563,24.183,23.609,24.033,24.025,23.778,-0.137,0.860,-0.557,-1.312,1.160,2.625,73.333,51342.000,1.000
20.316,20.040,19.920,20.486,19.935,20.350,20.187,20.135,-0.135,0.860,-0.556,-1.221,0.763,2.411,73.333,51343.000,1.000
16.362,16.049,15.987,16.471,15.996,16.343,16.076,16.197,-0.134,0.860,-0.557,-1.404,0.336,2.258,73.333,51344.000,1.000
13.448,13.138,13.053,13.470,13.100,13.315,13.056,13.261,-0.130,0.860,-0.557,-1.404,0.061,2.167,73.333,51345.000,1.000
12.349,12.092,11.911,12.299,12.038,12.091,11.936,12.113,-0.129,0.859,-0.557,-1.373,-0.122,1.892,73.333,51346.000,1.000
12.955,12.800,12.475,12.872,12.699,12.633,12.593,12.669,-0.125,0.857,-0.559,-1.465,-0.366,1.648,73.333,51347.000,1.000
14.512,14.486,14.010,14.436,14.316,14.218,14.227,14.210,-0.124,0.857,-0.558,-1.465,-0.519,1.526,73.333,51348.000,1.000
16.057,16.156,15.575,16.031,15.917,15.862,15.850,15.806,-0.124,0.858,-0.559,-1.526,-0.610,1.465,73.333,51349.000,1.000
16.869,17.058,16.464,16.936,16.780,16.793,16.748,16.741,-0.123,0.856,-0.556,-1.740,-0.854,1.190,73.333,51350.000,1.000
16.652,16.865,16.367,16.816,16.604,16.661,16.617,16.659,-0.121,0.854,-0.557,-1.709,-0.946,1.221,73.333,51351.000,1.000
15.417,15.587,15.283,15.632,15.401,15.456,15.438,15.498,-0.119,0.854,-0.554,-1.617,-1.068,1.129,73.333,51352.000,1.000
13.370,13.458,13.401,13.557,13.383,13.394,13.383,13.427,-0.119,0.852,-0.555,-1.648,-0.977,0.977,73.333,51353.000,1.000
10.695,10.709,10.878,10.785,10.741,10.694,10.654,10.665,-0.118,0.850,-0.555,-1.617,-0.946,1.007,73.333,51354.000,1.000
7.518,7.504,7.793,7.493,7.602,7.505,7.431,7.406,-0.121,0.849,-0.557,-1.465,-1.038,0.977,73.333,51355.000,1.000
4.018,4.040,4.293,3.926,4.132,4.014,3.947,3.881,-0.121,0.850,-0.556,-1.404,-0.977,1.038,73.333,51356.000,1.000
0.513,0.619,0.709,0.443,0.627,0.519,0.522,0.417,-0.125,0.846,-0.556,-1.343,-1.038,0.977,73.333,51357.000,1.000
-2.580,-2.389,-2.500,-2.567,-2.515,-2.586,-2.484,-2.603,-0.125,0.848,-0.555,-1.282,-1.068,0.946,73.333,51358.000,1.000
-5.054,-4.825,-5.080,-4.966,-5.081,-5.111,-4.923,-5.015,-0.125,0.849,-0.556,-1.190,-1.129,0.824,73.333,51359.000,1.000
-7.056,-6.852,-7.130,-6.933,-7.182,-7.188,-6.949,-6.974,-0.124,0.848,-0.552,-1.190,-1.190,0.885,73.333,51360.000,1.000
-8.929,-8.794,-8.980,-8.800,-9.117,-9.129,-8.867,-8.810,-0.122,0.849,-0.554,-1.068,-1.190,0.854,73.333,51361.000,1.000
-10.970,-10.913,-10.966,-10.839,-11.153,-11.198,-10.928,-10.813,-0.121,0.850,-0.555,-1.038,-1.221,0.854,73.333,51362.000,1.000
-13.206,-13.206,-13.188,-13.072,-13.322,-13.417,-13.155,-13.035,-0.119,0.850,-0.556,-0.946,-1.129,0.885,73.333,51363.000,1.000
-15.445,-15.470,-15.497,-15.320,-15.481,-15.605,-15.384,-15.313,-0.117,0.848,-0.554,-0.916,-1.099,0.854,73.333,51364.000,1.000
-17.356,-17.373,-17.536,-17.262,-17.345,-17.439,-17.301,-17.311,-0.117,0.851,-0.552,-0.824,-1.038,0.977,73.333,51365.000,1.000
-18.574,-18.563,-18.870,-18.533,-18.561,-18.562,-18.535,-18.617,-0.117,0.851,-0.555,-0.854,-0.854,0.885,73.333,51366.000,1.000
-18.927,-18.899,-19.278,-18.959,-18.941,-18.840,-18.915,-19.016,-0.115,0.854,-0.555,-0.763,-0.793,0.732,73.333,51367.000,1.000
-18.603,-18.601,-18.950,-18.730,-18.648,-18.501,-18.647,-18.698,-0.116,0.853,-0.553,-0.763,-0.549,0.793,73.333,51368.000,1.000
-18.116,-18.183,-18.432,-18.370,-18.196,-18.076,-18.261,-18.223,-0.115,0.853,-0.555,-0.793,-0.427,0.977,73.333,51369.000,1.000
-17.920,-18.065,-18.200,-18.324,-18.049,-17.994,-18.203,-18.080,-0.114,0.855,-0.555,-0.854,-0.397,1.129,73.333,51370.000,1.000
-18.130,-18.313,-18.353,-18.652,-18.303,-18.308,-18.538,-18.356,-0.113,0.857,-0.554,-0.977,-0.244,1.099,73.333,51371.000,1.000
-18.628,-18.768,-18.742,-19.166,-18.796,-18.824,-19.069,-18.857,-0.114,0.857,-0.555,-1.038,-0.031,1.129,73.333,51372.000,1.000
-19.193,-19.214,-19.144,-19.618,-19.284,-19.293,-19.528,-19.316,-0.114,0.855,-0.557,-1.129,0.183,1.251,73.333,51373.000,1.000
-19.560,-19.426,-19.323,-19.775,-19.523,-19.479,-19.668,-19.486,-0.113,0.856,-0.555,-1.129,0.275,1.190,73.333,51374.000,1.000
-19.368,-19.101,-18.969,-19.354,-19.207,-19.089,-19.207,-19.083,-0.114,0.855,-0.558,-1.190,0.427,1.129,73.333,51375.000,1.000
-18.323,-17.994,-17.843,-18.158,-18.098,-17.898,-17.947,-17.903,-0.113,0.855,-0.557,-1.251,0.519,1.038,73.333,51376.000,1.000
-16.495,-16.187,-16.029,-16.314,-16.288,-16.030,-16.011,-16.064,-0.113,0.855,-0.559,-1.160,0.702,0.946,73.333,51377.000,1.000
-14.268,-14.036,-13.870,-14.185,-14.142,-13.880,-13.788,-13.928,-0.113,0.855,-0.557,-1.190,0.854,0.916,73.333,51378.000,1.000
-12.061,-11.901,-11.726,-12.105,-12.025,-11.816,-11.662,-11.847,-0.112,0.855,-0.557,-1.282,0.977,0.763,73.333,51379.000,1.000
-10.045,-9.911,-9.747,-10.159,-10.053,-9.922,-9.757,-9.928,-0.111,0.854,-0.557,-1.312,1.099,0.702,73.333,51380.000,1.000
-8.158,-8.007,-7.886,-8.260,-8.148,-8.087,-7.964,-8.086,-0.111,0.854,-0.556,-1.404,1.282,0.702,73.333,51381.000,1.000
-6.284,-6.115,-6.047,-6.326,-6.219,-6.214,-6.142,-6.221,-0.111,0.854,-0.557,-1.434,1.434,0.641,73.333,51382.000,1.000
-4.322,-4.176,-4.129,-4.300,-4.206,-4.262,-4.195,-4.254,-0.113,0.855,-0.559,-1.343,1.526,0.549,73.333,51383.000,1.000
-2.261,-2.198,-2.117,-2.189,-2.129,-2.258,-2.142,-2.189,-0.113,0.855,-0.563,-1.282,1.648,0.519,73.333,51384.000,1.000
-0.142,-0.214,-0.066,-0.046,-0.045,-0.247,-0.073,-0.084,-0.115,0.852,-0.561,-1.343,1.709,0.397,73.333,51385.000,1.000
1.894,1.665,1.868,1.963,1.911,1.662,1.846,1.891,-0.116,0.850,-0.561,-1.434,1.831,0.336,73.333,51386.000,1.000
3.508,3.165,3.366,3.482,3.428,3.179,3.302,3.391,-0.117,0.851,-0.560,-1.526,1.892,0.305,73.333,51387.000,1.000
4.353,4.004,4.149,4.192,4.200,4.013,4.022,4.112,-0.118,0.851,-0.560,-1.495,1.770,0.214,73.333,51388.000,1.000
4.333,4.104,4.173,4.058,4.164,4.082,3.963,4.017,-0.122,0.850,-0.560,-1.373,1.740,0.183,73.333,51389.000,1.000
3.736,3.703,3.721,3.417,3.623,3.632,3.416,3.436,-0.125,0.849,-0.555,-1.404,1.678,0.183,73.333,51390.000,1.000
3.053,3.214,3.226,2.766,3.059,3.094,2.847,2.858,-0.125,0.853,-0.559,-1.312,1.587,0.122,73.333,51391.000,1.000
2.663,2.941,2.978,2.442,2.806,2.792,2.586,2.609,-0.126,0.852,-0.561,-1.404,1.556,0.061,73.333,51392.000,1.000
2.757,3.042,3.104,2.600,3.013,2.897,2.783,2.805,-0.127,0.852,-0.558,-1.404,1.404,0.000,73.333,51393.000,1.000
3.360,3.551,3.614,3.241,3.684,3.439,3.439,3.418,-0.129,0.854,-0.559,-1.495,1.251,-0.153,73.333,51394.000,1.000
4.348,4.383,4.435,4.227,4.692,4.322,4.429,4.329,-0.134,0.856,-0.558,-1.556,1.007,-0.153,73.333,51395.000,1.000
5.445,5.324,5.372,5.284,5.768,5.320,5.491,5.310,-0.132,0.858,-0.562,-1.617,0.793,-0.092,73.333,51396.000,1.000
6.294,6.078,6.145,6.094,6.572,6.134,6.295,6.079,-0.132,0.859,-0.562,-1.709,0.580,-0.122,73.333,51397.000,1.000
6.660,6.438,6.541,6.465,6.892,6.567,6.640,6.455,-0.129,0.861,-0.557,-1.740,0.336,-0.061,73.333,51398.000,1.000
6.467,6.312,6.438,6.321,6.661,6.517,6.459,6.361,-0.129,0.859,-0.558,-1.801,0.214,-0.031,73.333,51399.000,1.000
5.815,5.764,5.860,5.723,5.970,6.007,5.824,5.839,-0.126,0.857,-0.560,-1.984,0.153,0.000,73.333,51400.000,1.000
4.919,4.969,4.970,4.848,5.026,5.184,4.907,5.044,-0.124,0.858,-0.556,-1.984,0.061,0.092,73.333,51401.000,1.000
3.888,4.003,3.894,3.820,3.941,4.141,3.808,4.052,-0.121,0.860,-0.556,-2.136,0.000,0.244,73.333,51402.000,1.000
2.644,2.772,2.613,2.600,2.650,2.840,2.488,2.793,-0.117,0.862,-0.559,-2.167,-0.092,0.336,73.333,51403.000,1.000
1.028,1.111,1.014,1.047,1.005,1.177,0.838,1.137,-0.115,0.863,-0.559,-2.380,-0.061,0.366,73.333,51404.000,1.000
-0.872,-0.881,-0.828,-0.773,-0.905,-0.739,-1.040,-0.807,-0.114,0.862,-0.558,-2.319,-0.031,0.488,73.333,51405.000,1.000
-2.582,-2.693,-2.492,-2.421,-2.609,-2.454,-2.688,-2.559,-0.112,0.859,-0.558,-2.441,0.092,0.519,73.333,51406.000,1.000
-3.532,-3.715,-3.465,-3.353,-3.543,-3.432,-3.556,-3.547,-0.110,0.860,-0.555,-2.563,0.305,0.519,73.333,51407.000,1.000
-3.451,-3.665,-3.500,-3.326,-3.448,-3.419,-3.411,-3.504,-0.112,0.860,-0.552,-2.747,0.458,0.488,73.333,51408.000,1.000
-2.641,-2.858,-2.857,-2.644,-2.625,-2.696,-2.582,-2.734,-0.115,0.860,-0.553,-2.808,0.580,0.458,73.333,51409.000,1.000
-1.776,-1.990,-2.123,-1.944,-1.746,-1.902,-1.747,-1.907,-0.117,0.859,-0.554,-2.991,0.610,0.336,73.333,51410.000,1.000
-1.479,-1.707,-1.842,-1.783,-1.443,-1.630,-1.498,-1.626,-0.118,0.857,-0.555,-3.113,0.763,0.244,73.333,51411.000,1.000
-2.007,-2.278,-2.250,-2.369,-1.985,-2.138,-2.060,-2.130,-0.119,0.859,-0.554,-3.235,0.763,0.031,73.333,51412.000,1.000
-3.082,-3.396,-3.115,-3.416,-3.087,-3.167,-3.125,-3.137,-0.117,0.862,-0.553,-3.296,0.763,0.000,73.333,51413.000,1.000
-4.040,-4.351,-3.871,-4.287,-4.059,-4.080,-4.020,-3.982,-0.114,0.859,-0.556,-3.387,0.793,-0.244,73.333,51414.000,1.000
-4.179,-4.420,-3.902,-4.311,-4.175,-4.212,-4.064,-3.974,-0.114,0.859,-0.555,-3.479,0.854,-0.397,73.333,51415.000,1.000
-3.139,-3.264,-2.872,-3.133,-3.075,-3.217,-2.925,-2.774,-0.113,0.857,-0.552,-3.571,1.038,-0.610,73.333,51416.000,1.000
-1.085,-1.096,-0.914,-0.916,-0.965,-1.240,-0.802,-0.595,-0.114,0.857,-0.551,-3.632,1.160,-0.793,73.333,51417.000,1.000
1.432,1.506,1.497,1.775,1.568,1.219,1.743,1.973,-0.114,0.857,-0.553,-3.632,1.221,-0.793,73.333,51418.000,1.000
3.744,3.873,3.761,4.234,3.849,3.525,4.043,4.257,-0.114,0.859,-0.553,-3.601,1.282,-0.916,73.333,51419.000,1.000
5.439,5.609,5.491,6.008,5.490,5.265,5.699,5.874,-0.115,0.860,-0.552,-3.632,1.373,-1.068,73.333,51420.000,1.000
6.523,6.732,6.660,7.089,6.535,6.417,6.738,6.878,-0.116,0.857,-0.550,-3.723,1.465,-1.099,73.333,51421.000,1.000
7.174,7.425,7.398,7.680,7.202,7.133,7.372,7.496,-0.115,0.856,-0.549,-3.754,1.556,-1.221,73.333,51422.000,1.000
7.495,7.788,7.778,7.925,7.621,7.509,7.718,7.848,-0.116,0.857,-0.549,-3.662,1.587,-1.190,73.333,51423.000,1.000
7.428,7.756,7.735,7.789,7.713,7.498,7.695,7.836,-0.117,0.856,-0.548,-3.601,1.587,-1.190,73.333,51424.000,1.000
6.948,7.300,7.249,7.267,7.392,7.093,7.250,7.369,-0.117,0.856,-0.547,-3.418,1.556,-1.190,73.333,51425.000,1.000
6.219,6.573,6.497,6.539,6.756,6.458,6.543,6.580,-0.119,0.855,-0.546,-3.326,1.556,-1.129,73.333,51426.000,1.000
5.535,5.835,5.771,5.871,6.050,5.850,5.857,5.774,-0.116,0.856,-0.543,-3.296,1.709,-1.068,73.333,51427.000,1.000
5.204,5.375,5.365,5.519,5.590,5.533,5.476,5.299,-0.119,0.858,-0.544,-3.143,1.678,-0.854,73.333,51428.000,1.000
5.341,5.320,5.367,5.558,5.528,5.596,5.494,5.303,-0.119,0.859,-0.549,-3.113,1.740,-0.702,73.333,51429.000,1.000
5.774,5.547,5.605,5.825,5.743,5.881,5.740,5.634,-0.119,0.858,-0.552,-2.991,1.740,-0.580,73.333,51430.000,1.000
6.173,5.784,5.799,6.041,5.958,6.120,5.923,5.969,-0.120,0.856,-0.554,-2.869,1.770,-0.519,73.333,51431.000,1.000
6.287,5.832,5.769,6.011,5.973,6.140,5.850,6.057,-0.121,0.856,-0.551,-2.716,1.709,-0.336,73.333,51432.000,1.000
6.181,5.773,5.622,5.842,5.874,6.040,5.639,5.967,-0.121,0.855,-0.549,-2.502,1.587,-0.275,73.333,51433.000,1.000
6.146,5.866,5.643,5.850,5.924,6.077,5.610,5.997,-0.122,0.854,-0.549,-2.350,1.556,-0.092,73.333,51434.000,1.000
6.439,6.313,6.056,6.283,6.329,6.451,6.012,6.394,-0.124,0.854,-0.548,-2.167,1.434,0.061,73.333,51435.000,1.000
7.111,7.115,6.866,7.139,7.099,7.180,6.857,7.185,-0.125,0.853,-0.549,-1.984,1.373,0.153,73.333,51436.000,1.000
8.076,8.162,7.933,8.258,8.122,8.170,7.993,8.237,-0.125,0.852,-0.546,-1.801,1.221,0.244,73.333,51437.000,1.000
9.289,9.411,9.182,9.541,9.339,9.380,9.327,9.468,-0.125,0.851,-0.551,-1.587,1.129,0.214,73.333,51438.000,1.000
10.643,10.778,10.527,10.882,10.642,10.721,10.741,10.770,-0.124,0.851,-0.551,-1.282,0.916,0.214,73.333,51439.000,1.000
11.876,12.021,11.761,12.055,11.792,11.966,11.991,11.923,-0.123,0.852,-0.551,-1.312,0.824,0.183,73.333,51440.000,1.000
12.682,12.832,12.604,12.796,12.512,12.829,12.783,12.657,-0.123,0.853,-0.550,-1.038,0.732,0.214,73.333,51441.000,1.000
12.928,13.057,12.891,12.994,12.684,13.159,12.973,12.845,-0.123,0.850,-0.550,-0.946,0.641,0.214,73.333,51442.000,1.000
12.818,12.889,12.779,12.854,12.515,13.126,12.767,12.679,-0.124,0.851,-0.550,-0.732,0.488,0.031,73.333,51443.000,1.000
12.648,12.634,12.546,12.665,12.315,13.000,12.493,12.458,-0.124,0.851,-0.551,-0.549,0.305,0.031,73.333,51444.000,1.000
12.494,12.391,12.297,12.499,12.182,12.848,12.268,12.266,-0.122,0.850,-0.551,-0.427,0.275,-0.061,73.333,51445.000,1.000
12.166,11.996,11.889,12.161,11.935,12.479,11.908,11.904,-0.124,0.850,-0.549,-0.183,0.244,-0.122,73.333,51446.000,1.000
11.400,11.204,11.090,11.374,11.303,11.634,11.133,11.096,-0.123,0.850,-0.546,-0.061,0.092,-0.183,73.333,51447.000,1.000
10.150,9.969,9.866,10.090,10.208,10.283,9.892,9.807,-0.122,0.849,-0.547,0.214,-0.153,-0.305,73.333,51448.000,1.000
8.566,8.421,8.353,8.455,8.725,8.603,8.346,8.207,-0.120,0.848,-0.544,0.458,-0.244,-0.366,73.333,51449.000,1.000
6.787,6.667,6.664,6.612,6.927,6.747,6.642,6.445,-0.121,0.848,-0.546,0.519,-0.183,-0.458,73.333,51450.000,1.000
4.826,4.705,4.790,4.590,4.829,4.724,4.781,4.527,-0.121,0.849,-0.548,0.458,-0.336,-0.549,73.333,51451.000,1.000
2.613,2.477,2.652,2.348,2.456,2.462,2.675,2.373,-0.117,0.850,-0.547,0.580,-0.275,-0.702,73.333,51452.000,1.000
0.220,0.081,0.336,0.001,-0.017,0.049,0.391,0.058,-0.116,0.853,-0.549,0.641,-0.366,-0.732,73.333,51453.000,1.000
-2.072,-2.200,-1.872,-2.156,-2.273,-2.227,-1.816,-2.141,-0.118,0.854,-0.548,0.671,-0.305,-0.732,73.333,51454.000,1.000
-3.921,-4.034,-3.643,-3.832,-4.005,-4.038,-3.640,-3.904,-0.115,0.856,-0.549,0.793,-0.336,-0.702,73.333,51455.000,1.000
-5.161,-5.256,-4.847,-4.943,-5.114,-5.242,-4.935,-5.100,-0.117,0.853,-0.548,0.885,-0.214,-0.671,73.333,51456.000,1.000
-5.965,-6.030,-5.686,-5.720,-5.835,-6.036,-5.842,-5.918,-0.117,0.852,-0.549,0.946,-0.092,-0.580,73.333,51457.000,1.000
-6.757,-6.772,-6.577,-6.564,-6.614,-6.854,-6.725,-6.754,-0.119,0.849,-0.549,1.038,0.092,-0.641,73.333,51458.000,1.000
-7.997,-7.954,-7.938,-7.877,-7.897,-8.152,-8.000,-8.019,-0.120,0.848,-0.552,1.221,0.061,-0.549,73.333,51459.000,1.000
-9.842,-9.752,-9.870,-9.772,-9.800,-10.062,-9.819,-9.852,-0.123,0.848,-0.555,1.373,0.031,-0.458,73.333,51460.000,1.000
-11.977,-11.867,-12.008,-11.927,-11.968,-12.235,-11.895,-11.957,-0.126,0.849,-0.556,1.465,-0.031,-0.244,73.333,51461.000,1.000
-13.879,-13.781,-13.816,-13.839,-13.863,-14.129,-13.756,-13.836,-0.127,0.849,-0.556,1.556,0.000,-0.061,73.333,51462.000,1.000
-15.152,-15.086,-14.932,-15.142,-15.100,-15.361,-15.057,-15.103,-0.128,0.848,-0.557,1.648,-0.153,0.183,73.333,51463.000,1.000
-15.744,-15.713,-15.374,-15.799,-15.653,-15.912,-15.754,-15.716,-0.132,0.848,-0.558,1.770,-0.336,0.275,73.333,51464.000,1.000
-15.842,-15.836,-15.388,-15.975,-15.726,-15.987,-15.975,-15.857,-0.136,0.849,-0.559,1.801,-0.549,0.427,73.333,51465.000,1.000
-15.614,-15.611,-15.150,-15.780,-15.492,-15.743,-15.794,-15.657,-0.138,0.849,-0.557,1.862,-0.763,0.610,73.333,51466.000,1.000
-15.117,-15.082,-14.698,-15.237,-15.010,-15.226,-15.224,-15.143,-0.138,0.850,-0.556,1.892,-1.007,0.824,73.333,51467.000,1.000
-14.359,-14.249,-14.019,-14.377,-14.289,-14.446,-14.308,-14.323,-0.139,0.852,-0.559,1.984,-1.282,0.977,73.333,51468.000,1.000
-13.467,-13.254,-13.225,-13.398,-13.439,-13.546,-13.247,-13.362,-0.138,0.852,-0.559,1.984,-1.587,1.190,73.333,51469.000,1.000
-12.616,-12.312,-12.479,-12.541,-12.614,-12.722,-12.288,-12.480,-0.136,0.852,-0.560,2.014,-1.892,1.373,73.333,51470.000,1.000
-11.891,-11.553,-11.849,-11.892,-11.887,-12.062,-11.549,-11.779,-0.136,0.853,-0.562,2.014,-2.106,1.556,73.333,51471.000,1.000
-11.369,-11.072,-11.399,-11.467,-11.338,-11.610,-11.088,-11.327,-0.136,0.857,-0.562,1.953,-2.441,1.678,73.333,51472.000,1.000
-11.128,-10.932,-11.192,-11.258,-11.054,-11.384,-10.934,-11.180,-0.136,0.859,-0.562,1.831,-2.625,1.831,73.333,51473.000,1.000
-11.176,-11.096,-11.221,-11.235,-11.056,-11.353,-11.035,-11.306,-0.134,0.861,-0.559,1.831,-2.869,1.984,73.333,51474.000,1.000
-11.362,-11.361,-11.338,-11.285,-11.232,-11.384,-11.207,-11.509,-0.130,0.862,-0.563,1.678,-2.991,2.014,73.333,51475.000,1.000
-11.435,-11.448,-11.326,-11.262,-11.384,-11.305,-11.228,-11.536,-0.126,0.862,-0.562,1.556,-3.174,2.197,73.333,51476.000,1.000
-11.276,-11.248,-11.110,-11.127,-11.395,-11.072,-11.037,-11.312,-0.124,0.863,-0.563,1.343,-3.174,2.411,73.333,51477.000,1.000
-10.927,-10.841,-10.767,-10.920,-11.243,-10.757,-10.723,-10.925,-0.123,0.862,-0.562,1.068,-3.296,2.441,73.333,51478.000,1.000
-10.522,-10.391,-10.427,-10.686,-10.970,-10.454,-10.425,-10.528,-0.121,0.862,-0.563,0.793,-3.235,2.563,73.333,51479.000,1.000
-10.122,-9.960,-10.124,-10.390,-10.578,-10.151,-10.173,-10.177,-0.119,0.863,-0.563,0.671,-3.204,2.563,73.333,51480.000,1.000
-9.601,-9.435,-9.720,-9.889,-9.965,-9.691,-9.807,-9.733,-0.120,0.862,-0.564,0.580,-3.174,2.533,73.333,51481.000,1.000
-8.803,-8.675,-9.050,-9.070,-9.047,-8.931,-9.148,-9.020,-0.117,0.860,-0.561,0.336,-3.204,2.502,73.333,51482.000,1.000
-7.671,-7.618,-8.039,-7.927,-7.825,-7.837,-8.115,-7.960,-0.118,0.858,-0.564,0.000,-3.143,2.472,73.333,51483.000,1.000
-6.297,-6.317,-6.740,-6.553,-6.388,-6.495,-6.761,-6.608,-0.116,0.857,-0.563,-0.061,-3.021,2.350,73.333,51484.000,1.000
-4.781,-4.832,-5.225,-5.021,-4.811,-4.974,-5.171,-5.035,-0.115,0.858,-0.560,-0.244,-2.899,2.258,73.333,51485.000,1.000
-3.155,-3.178,-3.517,-3.335,-3.124,-3.288,-3.400,-3.270,-0.115,0.858,-0.557,-0.275,-2.869,2.197,73.333,51486.000,1.000
-1.509,-1.453,-1.719,-1.589,-1.447,-1.546,-1.595,-1.445,-0.116,0.855,-0.559,-0.458,-2.686,2.045,73.333,51487.000,1.000
-0.038,0.125,-0.057,-0.016,0.006,0.022,-0.005,0.186,-0.115,0.854,-0.557,-0.702,-2.533,1.923,73.333,51488.000,1.000
1.029,1.286,1.168,1.094,1.008,1.149,1.099,1.333,-0.116,0.854,-0.559,-0.854,-2.472,1.770,73.333,51489.000,1.000
1.614,1.916,1.803,1.625,1.513,1.739,1.629,1.878,-0.117,0.855,-0.559,-1.038,-2.289,1.648,73.333,51490.000,1.000
1.835,2.118,1.952,1.722,1.676,1.911,1.746,1.960,-0.118,0.852,-0.556,-1.190,-2.167,1.617,73.333,51491.000,1.000
1.797,2.009,1.784,1.569,1.627,1.800,1.624,1.759,-0.120,0.851,-0.559,-1.251,-2.075,1.556,73.333,51492.000,1.000
1.522,1.625,1.399,1.254,1.378,1.460,1.320,1.371,-0.117,0.853,-0.558,-1.312,-1.862,1.434,73.333,51493.000,1.000
0.940,0.905,0.756,0.712,0.827,0.844,0.742,0.753,-0.116,0.852,-0.559,-1.343,-1.709,1.404,73.333,51494.000,1.000
0.007,-0.180,-0.211,-0.143,-0.100,-0.095,-0.202,-0.159,-0.116,0.853,-0.559,-1.373,-1.587,1.251,73.333,51495.000,1.000
-1.149,-1.476,-1.408,-1.246,-1.281,-1.244,-1.417,-1.287,-0.116,0.854,-0.559,-1.465,-1.312,1.160,73.333,51496.000,1.000
-2.314,-2.745,-2.625,-2.423,-2.489,-2.414,-2.665,-2.458,-0.115,0.856,-0.558,-1.587,-1.190,1.099,73.333,51497.000,1.000
-3.290,-3.775,-3.638,-3.464,-3.502,-3.418,-3.687,-3.473,-0.111,0.855,-0.562,-1.556,-0.916,0.977,73.333,51498.000,1.000
-3.916,-4.393,-4.243,-4.144,-4.124,-4.078,-4.270,-4.130,-0.110,0.856,-0.563,-1.740,-0.671,0.916,73.333,51499.000,1.000
-4.038,-4.433,-4.257,-4.240,-4.175,-4.208,-4.260,-4.227,-0.109,0.856,-0.562,-1.892,-0.427,0.916,73.333,51500.000,1.000
-3.569,-3.820,-3.618,-3.637,-3.580,-3.702,-3.617,-3.657,-0.108,0.859,-0.565,-1.892,-0.122,0.977,73.333,51501.000,1.000
-2.559,-2.641,-2.438,-2.415,-2.430,-2.608,-2.447,-2.488,-0.109,0.859,-0.563,-2.045,0.183,1.007,73.333,51502.000,1.000
-1.078,-1.019,-0.845,-0.720,-0.850,-1.017,-0.859,-0.843,-0.107,0.857,-0.561,-1.984,0.397,0.916,73.333,51503.000,1.000
0.739,0.868,1.009,1.232,0.990,0.898,1.011,1.084,-0.111,0.856,-0.561,-2.106,0.641,0.946,73.333,51504.000,1.000
2.673,2.788,2.921,3.177,2.883,2.882,2.961,3.032,-0.109,0.855,-0.564,-2.106,0.916,0.916,73.333,51505.000,1.000
4.559,4.596,4.743,4.962,4.699,4.759,4.837,4.827,-0.110,0.856,-0.563,-2.106,1.068,0.977,73.333,51506.000,1.000
6.313,6.252,6.410,6.559,6.378,6.458,6.547,6.416,-0.110,0.855,-0.563,-1.984,1.312,0.916,73.333,51507.000,1.000
7.905,7.759,7.912,7.995,7.883,7.968,8.042,7.824,-0.109,0.856,-0.560,-1.923,1.556,0.793,73.333,51508.000,1.000
9.266,9.058,9.196,9.233,9.140,9.237,9.253,9.022,-0.110,0.856,-0.561,-2.045,1.831,0.793,73.333,51509.000,1.000
10.335,10.091,10.217,10.223,10.119,10.223,10.155,9.974,-0.111,0.854,-0.561,-1.984,1.984,0.702,73.333,51510.000,1.000
11.154,10.904,11.024,11.007,10.919,10.998,10.849,10.754,-0.115,0.853,-0.557,-1.984,2.075,0.702,73.333,51511.000,1.000
11.784,11.556,11.666,11.643,11.618,11.638,11.426,11.446,-0.114,0.854,-0.560,-1.831,2.197,0.610,73.333,51512.000,1.000
12.283,12.103,12.189,12.179,12.239,12.190,11.944,12.097,-0.114,0.851,-0.561,-1.740,2.258,0.519,73.333,51513.000,1.000
12.737,12.630,12.675,12.690,12.806,12.713,12.469,12.742,-0.115,0.854,-0.560,-1.709,2.319,0.397,73.333,51514.000,1.000
13.244,13.241,13.246,13.279,13.388,13.296,13.097,13.433,-0.116,0.854,-0.561,-1.678,2.258,0.366,73.333,51515.000,1.000
13.854,13.986,13.969,14.010,14.054,14.001,13.890,14.206,-0.117,0.855,-0.559,-1.526,2.258,0.397,73.333,51516.000,1.000
14.549,14.842,14.813,14.852,14.817,14.821,14.813,15.030,-0.120,0.854,-0.560,-1.404,2.258,0.244,73.333,51517.000,1.000
15.409,15.852,15.794,15.824,15.756,15.799,15.868,15.933,-0.118,0.852,-0.558,-1.434,2.167,0.214,73.333,51518.000,1.000
16.575,17.102,16.981,16.996,16.973,17.016,17.108,16.997,-0.120,0.849,-0.555,-1.343,2.014,0.122,73.333,51519.000,1.000
18.078,18.587,18.384,18.392,18.462,18.477,18.533,18.273,-0.121,0.849,-0.556,-1.160,1.923,0.031,73.333,51520.000,1.000
19.732,20.137,19.869,19.886,20.034,20.024,20.010,19.684,-0.122,0.849,-0.554,-1.129,1.770,0.000,73.333,51521.000,1.000
21.139,21.411,21.125,21.161,21.332,21.316,21.239,20.960,-0.122,0.848,-0.558,-0.885,1.678,-0.122,73.333,51522.000,1.000
21.930,22.099,21.852,21.905,22.040,22.041,21.938,21.784,-0.121,0.848,-0.558,-0.732,1.404,-0.183,73.333,51523.000,1.000
21.928,22.038,21.874,21.953,22.009,22.050,21.950,21.924,-0.120,0.849,-0.559,-0.641,1.282,-0.183,73.333,51524.000,1.000
21.165,21.235,21.162,21.301,21.254,21.357,21.252,21.296,-0.122,0.851,-0.556,-0.488,1.129,-0.244,73.333,51525.000,1.000
19.807,19.836,19.807,20.049,19.902,20.074,19.942,19.979,-0.123,0.850,-0.554,-0.458,1.007,-0.305,73.333,51526.000,1.000
18.006,17.992,17.947,18.291,18.077,18.308,18.151,18.115,-0.123,0.850,-0.553,-0.519,0.885,-0.305,73.333,51527.000,1.000
15.902,15.859,15.775,16.161,15.934,16.193,16.038,15.904,-0.123,0.849,-0.555,-0.458,0.580,-0.275,73.333,51528.000,1.000
13.617,13.560,13.467,13.801,13.614,13.860,13.746,13.538,-0.125,0.849,-0.557,-0.397,0.427,-0.183,73.333,51529.000,1.000
11.240,11.161,11.127,11.325,11.214,11.404,11.373,11.144,-0.123,0.849,-0.561,-0.336,0.092,-0.061,73.333,51530.000,1.000
8.840,8.720,8.805,8.836,8.813,8.911,8.995,8.787,-0.123,0.848,-0.560,-0.275,0.000,-0.061,73.333,51531.000,1.000
6.433,6.263,6.483,6.376,6.432,6.425,6.623,6.456,-0.123,0.849,-0.558,-0.122,-0.122,-0.092,73.333,51532.000,1.000
4.016,3.807,4.124,3.950,4.066,3.965,4.216,4.117,-0.124,0.851,-0.558,-0.061,-0.275,-0.122,73.333,51533.000,1.000
1.575,1.340,1.684,1.532,1.682,1.517,1.714,1.731,-0.123,0.852,-0.556,0.000,-0.458,-0.122,73.333,51534.000,1.000
-0.845,-1.108,-0.793,-0.858,-0.695,-0.894,-0.846,-0.671,-0.125,0.853,-0.555,0.000,-0.610,-0.092,73.333,51535.000,1.000
-3.081,-3.377,-3.110,-3.090,-2.925,-3.126,-3.249,-2.921,-0.124,0.854,-0.555,0.000,-0.885,-0.031,73.333,51536.000,1.000
-4.954,-5.266,-5.036,-4.993,-4.828,-5.001,-5.231,-4.826,-0.125,0.854,-0.556,-0.031,-0.977,-0.031,73.333,51537.000,1.000
-6.313,-6.595,-6.379,-6.385,-6.232,-6.351,-6.576,-6.213,-0.124,0.853,-0.555,0.000,-1.099,0.000,73.333,51538.000,1.000
-7.160,-7.365,-7.147,-7.238,-7.114,-7.173,-7.286,-7.063,-0.125,0.852,-0.553,-0.031,-1.343,0.031,73.333,51539.000,1.000
-7.731,-7.840,-7.623,-7.789,-7.699,-7.727,-7.666,-7.613,-0.125,0.852,-0.554,-0.061,-1.526,0.122,73.333,51540.000,1.000
-8.343,-8.388,-8.187,-8.381,-8.305,-8.352,-8.128,-8.202,-0.125,0.852,-0.559,0.000,-1.709,0.214,73.333,51541.000,1.000
-9.193,-9.260,-9.087,-9.250,-9.148,-9.261,-8.953,-9.063,-0.122,0.853,-0.558,0.092,-1.831,0.122,73.333,51542.000,1.000
-10.280,-10.462,-10.321,-10.413,-10.242,-10.442,-10.154,-10.214,-0.121,0.854,-0.558,-0.092,-2.075,0.183,73.333,51543.000,1.000
-11.546,-11.860,-11.763,-11.787,-11.528,-11.777,-11.608,-11.575,-0.121,0.854,-0.554,-0.183,-2.014,0.244,73.333,51544.000,1.000
-12.908,-13.268,-13.240,-13.231,-12.901,-13.107,-13.133,-13.012,-0.120,0.855,-0.559,-0.122,-2.197,0.397,73.333,51545.000,1.000
-14.157,-14.442,-14.496,-14.489,-14.135,-14.200,-14.449,-14.269,-0.120,0.856,-0.561,-0.183,-2.228,0.397,73.333,51546.000,1.000
-15.069,-15.221,-15.328,-15.329,-15.011,-14.900,-15.321,-15.127,-0.119,0.858,-0.557,-0.275,-2.167,0.427,73.333,51547.000,1.000
-15.594,-15.650,-15.741,-15.741,-15.509,-15.272,-15.730,-15.574,-0.119,0.857,-0.555,-0.305,-2.350,0.397,73.333,51548.000,1.000
-15.897,-15.943,-15.954,-15.941,-15.828,-15.556,-15.886,-15.803,-0.120,0.855,-0.555,-0.427,-2.289,0.427,73.333,51549.000,1.000
-16.101,-16.197,-16.114,-16.086,-16.100,-15.869,-15.949,-15.940,-0.119,0.860,-0.556,-0.519,-2.289,0.366,73.333,51550.000,1.000
-16.103,-16.242,-16.104,-16.070,-16.196,-16.045,-15.848,-15.890,-0.119,0.859,-0.556,-0.671,-2.411,0.427,73.333,51551.000,1.000
-15.746,-15.880,-15.756,-15.720,-15.917,-15.861,-15.462,-15.531,-0.121,0.859,-0.558,-0.793,-2.441,0.458,73.333,51552.000,1.000
-14.964,-15.053,-15.003,-14.967,-15.163,-15.217,-14.741,-14.819,-0.121,0.860,-0.560,-0.885,-2.441,0.397,73.333,51553.000,1.000
-13.845,-13.878,-13.925,-13.899,-14.015,-14.186,-13.740,-13.813,-0.120,0.858,-0.555,-0.977,-2.350,0.336,73.333,51554.000,1.000
-12.534,-12.512,-12.641,-12.641,-12.645,-12.908,-12.540,-12.609,-0.119,0.858,-0.554,-1.160,-2.350,0.336,73.333,51555.000,1.000
-11.080,-11.000,-11.177,-11.209,-11.132,-11.425,-11.153,-11.230,-0.119,0.858,-0.558,-1.343,-2.350,0.336,73.333,51556.000,1.000
-9.500,-9.349,-9.544,-9.599,-9.504,-9.748,-9.597,-9.693,-0.119,0.860,-0.556,-1.465,-2.319,0.305,73.333,51557.000,1.000
-7.913,-7.665,-7.871,-7.924,-7.860,-8.010,-8.004,-8.109,-0.120,0.858,-0.559,-1.526,-2.258,0.214,73.333,51558.000,1.000
-6.612,-6.248,-6.476,-6.501,-6.484,-6.562,-6.678,-6.765,-0.118,0.859,-0.556,-1.617,-2.258,0.153,73.333,51559.000,1.000
-5.870,-5.406,-5.668,-5.664,-5.675,-5.755,-5.921,-5.947,-0.118,0.859,-0.556,-1.709,-2.075,0.122,73.333,51560.000,1.000
-5.632,-5.135,-5.428,-5.418,-5.430,-5.575,-5.713,-5.646,-0.118,0.857,-0.557,-1.801,-2.014,0.000,73.333,51561.000,1.000
-5.590,-5.152,-5.456,-5.459,-5.469,-5.677,-5.747,-5.599,-0.118,0.856,-0.557,-1.801,-1.923,0.031,73.333,51562.000,1.000
-5.491,-5.186,-5.459,-5.481,-5.510,-5.706,-5.713,-5.555,-0.117,0.854,-0.559,-1.770,-1.892,0.000,73.333,51563.000,1.000
-5.335,-5.185,-5.368,-5.410,-5.482,-5.568,-5.538,-5.471,-0.117,0.853,-0.559,-1.740,-1.770,0.031,73.333,51564.000,1.000
-5.213,-5.174,-5.233,-5.291,-5.413,-5.332,-5.285,-5.384,-0.116,0.854,-0.556,-1.740,-1.678,-0.031,73.333,51565.000,1.000
-5.091,-5.091,-5.040,-5.114,-5.260,-5.032,-4.976,-5.240,-0.117,0.855,-0.555,-1.770,-1.587,-0.153,73.333,51566.000,1.000
-4.889,-4.870,-4.766,-4.859,-4.982,-4.683,-4.622,-4.967,-0.115,0.853,-0.558,-1.740,-1.465,-0.122,73.333,51567.000,1.000
-4.532,-4.465,-4.374,-4.476,-4.544,-4.267,-4.199,-4.508,-0.115,0.853,-0.560,-1.740,-1.434,-0.092,73.333,51568.000,1.000
-3.992,-3.872,-3.847,-3.919,-3.948,-3.758,-3.684,-3.856,-0.116,0.853,-0.559,-1.740,-1.282,-0.153,73.333,51569.000,1.000
-3.314,-3.154,-3.214,-3.207,-3.254,-3.166,-3.097,-3.090,-0.115,0.853,-0.559,-1.648,-1.190,-0.122,73.333,51570.000,1.000
-2.595,-2.416,-2.541,-2.430,-2.559,-2.541,-2.491,-2.349,-0.114,0.853,-0.558,-1.587,-1.068,-0.092,73.333,51571.000,1.000
-1.994,-1.800,-1.937,-1.747,-1.985,-1.985,-1.955,-1.798,-0.114,0.852,-0.560,-1.556,-0.885,-0.092,73.333,51572.000,1.000
-1.574,-1.348,-1.438,-1.232,-1.541,-1.518,-1.504,-1.450,-0.116,0.852,-0.559,-1.373,-0.885,0.000,73.333,51573.000,1.000
-1.249,-0.985,-1.000,-0.836,-1.138,-1.076,-1.080,-1.168,-0.116,0.854,-0.560,-1.190,-0.824,0.092,73.333,51574.000,1.000
-0.906,-0.636,-0.567,-0.482,-0.725,-0.623,-0.646,-0.821,-0.117,0.853,-0.557,-1.251,-0.671,0.000,73.333,51575.000,1.000
-0.512,-0.284,-0.137,-0.146,-0.337,-0.200,-0.235,-0.397,-0.114,0.854,-0.556,-1.129,-0.610,-0.031,73.333,51576.000,1.000
-0.184,-0.017,0.182,0.077,-0.104,0.059,0.040,-0.036,-0.113,0.853,-0.555,-1.068,-0.549,0.061,73.333,51577.000,1.000
-0.012,0.111,0.293,0.111,-0.095,0.093,0.134,0.154,-0.114,0.850,-0.552,-1.038,-0.366,-0.031,73.333,51578.000,1.000
0.064,0.170,0.262,0.034,-0.198,0.018,0.144,0.217,-0.113,0.847,-0.553,-1.068,-0.275,0.092,73.333,51579.000,1.000
0.199,0.294,0.277,0.043,-0.201,0.037,0.233,0.293,-0.115,0.847,-0.558,-0.916,-0.214,0.183,73.333,51580.000,1.000
0.487,0.556,0.493,0.279,0.036,0.276,0.491,0.501,-0.114,0.847,-0.560,-0.763,-0.122,0.305,73.333,51581.000,1.000
0.867,0.892,0.880,0.687,0.465,0.681,0.861,0.832,-0.115,0.847,-0.558,-0.763,-0.061,0.244,73.333,51582.000,1.000
1.266,1.237,1.334,1.147,0.989,1.149,1.250,1.232,-0.115,0.847,-0.556,-0.641,0.000,0.244,73.333,51583.000,1.000
1.697,1.615,1.811,1.621,1.577,1.646,1.657,1.682,-0.115,0.848,-0.555,-0.641,-0.092,0.275,73.333,51584.000,1.000
2.284,2.158,2.405,2.210,2.308,2.266,2.219,2.272,-0.113,0.850,-0.559,-0.610,-0.031,0.458,73.333,51585.000,1.000
3.234,3.078,3.329,3.135,3.364,3.212,3.172,3.207,-0.115,0.852,-0.560,-0.641,0.061,0.488,73.333,51586.000,1.000
4.660,4.499,4.721,4.553,4.862,4.619,4.629,4.627,-0.118,0.853,-0.559,-0.641,0.061,0.458,73.333,51587.000,1.000
6.500,6.363,6.537,6.442,6.744,6.449,6.499,6.490,-0.125,0.855,-0.558,-0.641,-0.061,0.366,73.333,51588.000,1.000
8.448,8.349,8.469,8.481,8.683,8.403,8.448,8.480,-0.130,0.860,-0.556,-0.610,-0.214,0.427,73.333,51589.000,1.000
9.958,9.898,9.969,10.077,10.126,9.924,9.925,10.029,-0.132,0.861,-0.556,-0.580,-0.458,0.397,73.333,51590.000,1.000
10.462,10.422,10.457,10.606,10.520,10.411,10.371,10.541,-0.135,0.864,-0.558,-0.671,-0.732,0.183,73.333,51591.000,1.000
9.587,9.534,9.545,9.670,9.516,9.457,9.429,9.620,-0.133,0.866,-0.559,-0.854,-1.129,0.000,73.333,51592.000,1.000
7.375,7.271,7.272,7.321,7.179,7.101,7.154,7.306,-0.133,0.863,-0.559,-0.916,-1.373,-0.031,73.333,51593.000,1.000
4.331,4.167,4.160,4.116,4.053,3.900,4.061,4.133,-0.130,0.860,-0.557,-0.916,-1.556,-0.122,73.333,51594.000,1.000
1.358,1.158,1.125,1.022,1.069,0.836,1.050,1.046,-0.127,0.861,-0.554,-1.129,-1.678,-0.336,73.333,51595.000,1.000
-0.528,-0.724,-0.821,-0.914,-0.771,-1.017,-0.874,-0.915,-0.126,0.861,-0.552,-1.282,-1.740,-0.275,73.333,51596.000,1.000
-0.753,-0.916,-1.096,-1.126,-0.938,-1.093,-1.141,-1.173,-0.124,0.859,-0.556,-1.343,-1.892,-0.336,73.333,51597.000,1.000
0.564,0.445,0.199,0.230,0.404,0.415,0.135,0.130,-0.123,0.858,-0.557,-1.343,-2.045,-0.366,73.333,51598.000,1.000
2.796,2.720,2.453,2.495,2.623,2.801,2.338,2.349,-0.122,0.860,-0.556,-1.404,-2.045,-0.427,73.333,51599.000,1.000
5.223,5.168,4.945,4.938,5.030,5.298,4.764,4.768,-0.122,0.860,-0.556,-1.434,-2.106,-0.488,73.333,51600.000,1.000
7.321,7.253,7.135,7.042,7.150,7.384,6.901,6.889,-0.121,0.860,-0.555,-1.495,-2.075,-0.519,73.333,51601.000,1.000
8.745,8.635,8.651,8.472,8.658,8.745,8.391,8.383,-0.119,0.860,-0.554,-1.526,-2.167,-0.366,73.333,51602.000,1.000
9.314,9.156,9.285,9.050,9.333,9.245,9.035,9.048,-0.118,0.857,-0.553,-1.526,-2.075,-0.305,73.333,51603.000,1.000
8.962,8.783,8.972,8.725,9.057,8.867,8.768,8.788,-0.119,0.855,-0.556,-1.495,-2.014,-0.336,73.333,51604.000,1.000
7.716,7.569,7.761,7.549,7.833,7.675,7.632,7.610,-0.118,0.854,-0.553,-1.404,-1.984,-0.244,73.333,51605.000,1.000
5.771,5.697,5.842,5.698,5.868,5.846,5.801,5.689,-0.118,0.852,-0.554,-1.343,-1.953,-0.153,73.333,51606.000,1.000
3.452,3.441,3.519,3.430,3.507,3.646,3.535,3.341,-0.122,0.847,-0.554,-1.312,-1.923,0.061,73.333,51607.000,1.000
1.171,1.163,1.187,1.105,1.177,1.419,1.193,0.993,-0.121,0.843,-0.555,-1.190,-1.862,0.153,73.333,51608.000,1.000
-0.712,-0.784,-0.785,-0.901,-0.745,-0.504,-0.847,-0.956,-0.123,0.840,-0.558,-0.946,-1.892,0.275,73.333,51609.000,1.000
-2.029,-2.190,-2.203,-2.352,-2.073,-1.931,-2.338,-2.313,-0.123,0.839,-0.561,-0.793,-1.892,0.336,73.333,51610.000,1.000
-2.847,-3.056,-3.098,-3.247,-2.858,-2.867,-3.249,-3.131,-0.123,0.836,-0.559,-0.519,-1.892,0.458,73.333,51611.000,1.000
-3.395,-3.578,-3.670,-3.774,-3.331,-3.474,-3.764,-3.647,-0.121,0.836,-0.558,-0.366,-1.770,0.580,73.333,51612.000,1.000
-3.778,-3.882,-4.014,-4.035,-3.631,-3.834,-4.012,-3.991,-0.121,0.836,-0.560,-0.061,-1.801,0.610,73.333,51613.000,1.000
-3.884,-3.902,-4.028,-3.964,-3.688,-3.857,-3.945,-4.059,-0.122,0.835,-0.561,0.092,-1.770,0.854,73.333,51614.000,1.000
-3.549,-3.509,-3.574,-3.466,-3.362,-3.415,-3.458,-3.664,-0.121,0.835,-0.558,0.488,-1.740,0.977,73.333,51615.000,1.000
-2.666,-2.615,-2.582,-2.477,-2.548,-2.443,-2.493,-2.679,-0.120,0.837,-0.559,0.549,-1.740,1.038,73.333,51616.000,1.000
-1.269,-1.248,-1.110,-1.027,-1.252,-1.010,-1.099,-1.148,-0.121,0.838,-0.559,0.824,-1.678,1.251,73.333,51617.000,1.000
0.469,0.443,0.664,0.732,0.401,0.689,0.578,0.721,-0.121,0.838,-0.558,0.977,-1.648,1.343,73.333,51618.000,1.000
2.231,2.168,2.422,2.485,2.140,2.347,2.266,2.568,-0.122,0.840,-0.562,1.160,-1.648,1.373,73.333,51619.000,1.000
3.651,3.564,3.788,3.853,3.609,3.632,3.626,3.998,-0.124,0.843,-0.559,1.251,-1.587,1.556,73.333,51620.000,1.000
4.487,4.386,4.518,4.597,4.525,4.343,4.430,4.768,-0.123,0.846,-0.561,1.312,-1.648,1.617,73.333,51621.000,1.000
4.650,4.536,4.535,4.652,4.734,4.415,4.595,4.817,-0.124,0.848,-0.563,1.251,-1.678,1.648,73.333,51622.000,1.000
4.199,4.086,3.933,4.114,4.266,3.931,4.192,4.246,-0.124,0.852,-0.560,1.343,-1.678,1.617,73.333,51623.000,1.000
3.275,3.197,2.893,3.132,3.277,3.034,3.352,3.239,-0.123,0.854,-0.560,1.251,-1.678,1.617,73.333,51624.000,1.000
2.041,2.051,1.628,1.871,1.984,1.875,2.214,1.982,-0.123,0.856,-0.558,1.068,-1.770,1.495,73.333,51625.000,1.000
0.742,0.868,0.403,0.584,0.668,0.677,0.998,0.707,-0.124,0.860,-0.562,0.763,-1.740,1.373,73.333,51626.000,1.000
-0.377,-0.163,-0.565,-0.484,-0.433,-0.341,-0.085,-0.375,-0.125,0.862,-0.559,0.641,-1.740,1.251,73.333,51627.000,1.000
-1.162,-0.941,-1.191,-1.203,-1.210,-1.058,-0.915,-1.144,-0.123,0.865,-0.562,0.336,-1.770,1.160,73.333,51628.000,1.000
-1.599,-1.449,-1.516,-1.577,-1.670,-1.468,-1.476,-1.603,-0.121,0.868,-0.559,-0.031,-1.648,1.068,73.333,51629.000,1.000
-1.692,-1.627,-1.545,-1.611,-1.801,-1.560,-1.701,-1.736,-0.119,0.870,-0.557,-0.275,-1.617,0.885,73.333,51630.000,1.000
-1.321,-1.273,-1.141,-1.187,-1.450,-1.190,-1.374,-1.386,-0.119,0.870,-0.559,-0.580,-1.465,0.641,73.333,51631.000,1.000
-0.415,-0.285,-0.219,-0.248,-0.531,-0.277,-0.382,-0.462,-0.118,0.871,-0.558,-1.038,-1.495,0.458,73.333,51632.000,1.000
0.871,1.127,1.069,1.046,0.784,1.016,1.065,0.868,-0.118,0.872,-0.559,-1.434,-1.343,0.214,73.333,51633.000,1.000
2.171,2.507,2.356,2.328,2.110,2.308,2.495,2.208,-0.116,0.875,-0.560,-1.770,-1.129,0.061,73.333,51634.000,1.000
3.165,3.472,3.311,3.275,3.109,3.268,3.508,3.206,-0.116,0.875,-0.559,-2.106,-1.007,-0.122,73.333,51635.000,1.000
3.816,3.983,3.884,3.847,3.732,3.862,4.060,3.808,-0.115,0.876,-0.559,-2.472,-0.916,-0.305,73.333,51636.000,1.000
4.249,4.217,4.193,4.179,4.099,4.233,4.340,4.166,-0.114,0.873,-0.559,-2.838,-0.610,-0.366,73.333,51637.000,1.000
4.563,4.349,4.364,4.394,4.331,4.499,4.529,4.432,-0.113,0.873,-0.561,-3.204,-0.397,-0.488,73.333,51638.000,1.000
4.715,4.395,4.401,4.473,4.430,4.629,4.626,4.591,-0.113,0.872,-0.559,-3.540,-0.305,-0.610,73.333,51639.000,1.000
4.560,4.231,4.197,4.295,4.286,4.485,4.468,4.483,-0.114,0.867,-0.559,-3.723,-0.092,-0.580,73.333,51640.000,1.000
3.980,3.727,3.656,3.761,3.800,3.963,3.913,3.969,-0.114,0.866,-0.559,-3.967,0.153,-0.610,73.333,51641.000,1.000
2.885,2.777,2.698,2.788,2.879,2.981,2.883,2.973,-0.113,0.865,-0.557,-4.089,0.305,-0.671,73.333,51642.000,1.000
1.299,1.387,1.326,1.393,1.506,1.539,1.425,1.527,-0.114,0.863,-0.554,-4.272,0.427,-0.641,73.333,51643.000,1.000
-0.542,-0.259,-0.297,-0.233,-0.165,-0.190,-0.240,-0.169,-0.114,0.862,-0.554,-4.395,0.732,-0.610,73.333,51644.000,1.000
-2.183,-1.793,-1.817,-1.715,-1.747,-1.816,-1.738,-1.732,-0.115,0.858,-0.556,-4.425,0.885,-0.580,73.333,51645.000,1.000
-3.086,-2.736,-2.759,-2.583,-2.709,-2.819,-2.619,-2.674,-0.119,0.856,-0.556,-4.303,1.007,-0.458,73.333,51646.000,1.000
-2.982,-2.789,-2.818,-2.559,-2.715,-2.880,-2.624,-2.700,-0.119,0.852,-0.556,-4.181,1.160,-0.305,73.333,51647.000,1.000
-1.981,-1.962,-2.001,-1.666,-1.796,-2.021,-1.792,-1.845,-0.122,0.848,-0.553,-4.120,1.190,-0.183,73.333,51648.000,1.000
-0.405,-0.494,-0.547,-0.140,-0.240,-0.516,-0.350,-0.365,-0.125,0.845,-0.551,-3.967,1.251,-0.122,73.333,51649.000,1.000
1.411,1.307,1.247,1.716,1.603,1.288,1.422,1.436,-0.127,0.844,-0.550,-3.784,1.282,0.000,73.333,51650.000,1.000
3.236,3.198,3.152,3.648,3.475,3.118,3.291,3.333,-0.127,0.842,-0.548,-3.540,1.251,0.092,73.333,51651.000,1.000
4.942,5.008,5.005,5.455,5.207,4.806,5.077,5.163,-0.127,0.844,-0.550,-3.296,1.282,0.214,73.333,51652.000,1.000
6.554,6.705,6.759,7.077,6.794,6.374,6.746,6.875,-0.126,0.842,-0.552,-3.113,1.190,0.488,73.333,51653.000,1.000
8.183,8.361,8.460,8.592,8.350,7.967,8.388,8.516,-0.125,0.844,-0.552,-2.899,1.160,0.519,73.333,51654.000,1.000
9.819,9.972,10.090,10.048,9.905,9.615,10.020,10.079,-0.124,0.844,-0.552,-2.747,1.129,0.824,73.333,51655.000,1.000
11.224,11.332,11.446,11.306,11.257,11.087,11.437,11.383,-0.121,0.842,-0.551,-2.533,1.129,1.068,73.333,51656.000,1.000
11.989,12.059,12.174,12.026,12.027,11.956,12.242,12.083,-0.120,0.841,-0.549,-2.258,0.946,1.251,73.333,51657.000,1.000
11.927,11.968,12.119,12.025,12.032,12.004,12.234,12.025,-0.119,0.843,-0.551,-2.014,0.977,1.556,73.333,51658.000,1.000
11.264,11.270,11.491,11.457,11.468,11.420,11.592,11.420,-0.125,0.843,-0.547,-1.740,1.007,1.648,73.333,51659.000,1.000
10.340,10.293,10.575,10.563,10.618,10.520,10.616,10.561,-0.132,0.844,-0.551,-1.617,0.916,1.556,73.333,51660.000,1.000
9.287,9.173,9.457,9.428,9.573,9.433,9.432,9.533,-0.134,0.846,-0.546,-1.343,0.641,1.678,73.333,51661.000,1.000
7.948,7.776,7.994,7.936,8.176,8.028,7.940,8.173,-0.135,0.848,-0.545,-1.190,0.488,1.556,73.333,51662.000,1.000
6.174,5.967,6.089,6.036,6.301,6.183,6.059,6.372,-0.132,0.853,-0.551,-1.099,0.092,1.556,73.333,51663.000,1.000
4.093,3.870,3.925,3.928,4.098,4.031,3.953,4.305,-0.129,0.852,-0.556,-0.916,-0.092,1.495,73.333,51664.000,1.000
2.104,1.872,1.919,2.012,1.977,1.957,1.989,2.376,-0.127,0.854,-0.553,-0.885,-0.244,1.404,73.333,51665.000,1.000
0.672,0.449,0.515,0.680,0.426,0.426,0.566,1.009,-0.124,0.853,-0.551,-0.732,-0.397,1.312,73.333,51666.000,1.000
0.025,-0.149,-0.091,0.082,-0.297,-0.300,-0.117,0.375,-0.123,0.853,-0.552,-0.580,-0.549,1.312,73.333,51667.000,1.000
0.064,-0.010,-0.010,0.104,-0.273,-0.269,-0.123,0.362,-0.121,0.855,-0.553,-0.580,-0.549,1.038,73.333,51668.000,1.000
0.430,0.499,0.413,0.435,0.143,0.199,0.253,0.657,-0.125,0.857,-0.555,-0.458,-0.671,0.916,73.333,51669.000,1.000
0.706,0.933,0.778,0.707,0.529,0.683,0.621,0.908,-0.125,0.855,-0.557,-0.519,-0.885,0.763,73.333,51670.000,1.000
0.688,1.022,0.863,0.717,0.654,0.897,0.735,0.927,-0.125,0.855,-0.554,-0.671,-0.946,0.610,73.333,51671.000,1.000
0.369,0.705,0.620,0.445,0.475,0.729,0.518,0.668,-0.125,0.856,-0.556,-0.488,-1.038,0.519,73.333,51672.000,1.000
-0.180,0.048,0.084,-0.048,0.031,0.189,-0.010,0.151,-0.123,0.856,-0.555,-0.549,-1.099,0.305,73.333,51673.000,1.000
-0.988,-0.917,-0.771,-0.786,-0.720,-0.724,-0.860,-0.667,-0.121,0.857,-0.553,-0.580,-1.190,0.214,73.333,51674.000,1.000
-2.194,-2.259,-2.055,-1.916,-1.933,-2.081,-2.117,-1.912,-0.122,0.855,-0.556,-0.397,-1.312,0.214,73.333,51675.000,1.000
-3.810,-3.962,-3.747,-3.492,-3.642,-3.851,-3.758,-3.594,-0.122,0.855,-0.554,-0.244,-1.343,0.122,73.333,51676.000,1.000
-5.644,-5.849,-5.649,-5.377,-5.645,-5.820,-5.602,-5.533,-0.124,0.857,-0.557,-0.214,-1.404,0.183,73.333,51677.000,1.000
-7.399,-7.623,-7.477,-7.296,-7.579,-7.667,-7.380,-7.437,-0.123,0.856,-0.557,-0.214,-1.526,0.092,73.333,51678.000,1.000
-8.869,-9.057,-9.037,-9.000,-9.154,-9.163,-8.906,-9.076,-0.123,0.856,-0.557,-0.183,-1.648,0.183,73.333,51679.000,1.000
-10.061,-10.143,-10.314,-10.396,-10.335,-10.302,-10.176,-10.399,-0.126,0.856,-0.557,-0.153,-1.678,0.244,73.333,51680.000,1.000
-11.067,-11.004,-11.370,-11.494,-11.249,-11.200,-11.258,-11.450,-0.126,0.855,-0.557,-0.061,-1.709,0.214,73.333,51681.000,1.000
-11.961,-11.769,-12.257,-12.355,-12.034,-11.982,-12.209,-12.299,-0.126,0.853,-0.558,-0.122,-1.801,0.214,73.333,51682.000,1.000
-12.703,-12.451,-12.942,-13.016,-12.706,-12.665,-12.996,-12.953,-0.126,0.856,-0.557,-0.031,-1.740,0.214,73.333,51683.000,1.000
-13.191,-12.972,-13.346,-13.486,-13.188,-13.175,-13.533,-13.384,-0.126,0.857,-0.554,-0.122,-1.892,0.244,73.333,51684.000,1.000
-13.347,-13.232,-13.424,-13.723,-13.396,-13.410,-13.737,-13.557,-0.127,0.857,-0.549,-0.153,-1.984,0.305,73.333,51685.000,1.000
-13.096,-13.099,-13.127,-13.587,-13.218,-13.234,-13.505,-13.379,-0.128,0.856,-0.552,-0.153,-1.953,0.336,73.333,51686.000,1.000
-12.457,-12.542,-12.495,-13.001,-12.631,-12.624,-12.836,-12.823,-0.129,0.854,-0.556,-0.183,-2.045,0.427,73.333,51687.000,1.000
-11.621,-11.741,-11.716,-12.114,-11.815,-11.770,-11.928,-12.038,-0.127,0.853,-0.557,-0.092,-2.106,0.458,73.333,51688.000,1.000
-10.925,-11.044,-11.091,-11.280,-11.117,-11.034,-11.145,-11.336,-0.126,0.855,-0.557,-0.122,-2.106,0.610,73.333,51689.000,1.000
-10.664,-10.764,-10.862,-10.834,-10.842,-10.734,-10.809,-11.013,-0.126,0.854,-0.555,-0.061,-2.258,0.641,73.333,51690.000,1.000
-10.847,-10.923,-11.007,-10.842,-10.996,-10.890,-10.944,-11.106,-0.124,0.852,-0.558,0.031,-2.228,0.702,73.333,51691.000,1.000
-11.266,-11.328,-11.343,-11.162,-11.377,-11.303,-11.356,-11.457,-0.121,0.851,-0.554,0.122,-2.075,0.824,73.333,51692.000,1.000
-11.718,-11.784,-11.725,-11.632,-11.804,-11.768,-11.841,-11.900,-0.122,0.852,-0.556,0.061,-1.923,0.885,73.333,51693.000,1.000
-12.130,-12.217,-12.128,-12.162,-12.218,-12.191,-12.302,-12.373,-0.119,0.851,-0.554,0.031,-1.923,0.977,73.333,51694.000,1.000
-12.477,-12.596,-12.524,-12.664,-12.594,-12.520,-12.680,-12.825,-0.120,0.850,-0.557,0.122,-1.892,0.916,73.333,51695.000,1.000
-12.635,-12.776,-12.745,-12.940,-12.788,-12.615,-12.823,-13.081,-0.118,0.850,-0.558,0.092,-1.862,0.885,73.333,51696.000,1.000
-12.502,-12.639,-12.648,-12.844,-12.672,-12.385,-12.630,-12.984,-0.119,0.849,-0.558,0.214,-1.801,0.977,73.333,51697.000,1.000
-12.106,-12.210,-12.253,-12.402,-12.255,-11.890,-12.160,-12.546,-0.122,0.849,-0.561,0.366,-1.678,0.885,73.333,51698.000,1.000
-11.574,-11.626,-11.698,-11.763,-11.660,-11.297,-11.574,-11.914,-0.122,0.849,-0.559,0.336,-1.556,0.763,73.333,51699.000,1.000
-10.999,-10.995,-11.091,-11.051,-10.990,-10.722,-10.966,-11.236,-0.121,0.849,-0.562,0.336,-1.434,0.793,73.333,51700.000,1.000
-10.348,-10.288,-10.396,-10.267,-10.225,-10.120,-10.275,-10.517,-0.121,0.850,-0.562,0.305,-1.373,0.641,73.333,51701.000,1.000
-9.577,-9.477,-9.565,-9.399,-9.354,-9.416,-9.453,-9.725,-0.117,0.851,-0.557,0.336,-1.190,0.549,73.333,51702.000,1.000
-8.684,-8.587,-8.621,-8.476,-8.420,-8.595,-8.542,-8.852,-0.116,0.852,-0.558,0.275,-1.038,0.397,73.333,51703.000,1.000
-7.675,-7.638,-7.608,-7.532,-7.464,-7.679,-7.603,-7.892,-0.118,0.854,-0.558,0.305,-1.007,0.366,73.333,51704.000,1.000
-6.529,-6.589,-6.511,-6.535,-6.453,-6.657,-6.604,-6.801,-0.117,0.855,-0.561,0.183,-0.854,0.275,73.333,51705.000,1.000
-5.196,-5.341,-5.230,-5.368,-5.273,-5.458,-5.410,-5.491,-0.116,0.855,-0.559,0.122,-0.671,0.153,73.333,51706.000,1.000
-3.771,-3.936,-3.798,-4.042,-3.957,-4.122,-4.033,-4.032,-0.117,0.855,-0.559,0.092,-0.702,0.122,73.333,51707.000,1.000
-2.510,-2.605,-2.435,-2.750,-2.727,-2.845,-2.699,-2.664,-0.115,0.855,-0.558,-0.031,-0.427,-0.092,73.333,51708.000,1.000
-1.652,-1.623,-1.410,-1.742,-1.836,-1.854,-1.689,-1.646,-0.116,0.857,-0.559,0.031,-0.336,-0.153,73.333,51709.000,1.000
-1.229,-1.103,-0.843,-1.126,-1.370,-1.242,-1.129,-1.064,-0.117,0.856,-0.558,-0.092,-0.275,-0.214,73.333,51710.000,1.000
-0.948,-0.825,-0.522,-0.699,-1.091,-0.822,-0.817,-0.688,-0.119,0.857,-0.559,-0.214,-0.214,-0.244,73.333,51711.000,1.000
-0.378,-0.353,-0.027,-0.089,-0.588,-0.250,-0.348,-0.120,-0.120,0.857,-0.558,-0.275,-0.061,-0.244,73.333,51712.000,1.000
0.735,0.646,0.952,0.949,0.434,0.726,0.593,0.908,-0.120,0.856,-0.558,-0.336,0.061,-0.214,73.333,51713.000,1.000
2.262,2.128,2.365,2.325,1.919,2.056,1.966,2.317,-0.122,0.857,-0.561,-0.427,0.061,-0.336,73.333,51714.000,1.000
3.795,3.725,3.854,3.703,3.523,3.453,3.436,3.765,-0.123,0.857,-0.561,-0.519,0.214,-0.275,73.333,51715.000,1.000
5.006,5.089,5.092,4.827,4.926,4.672,4.706,4.966,-0.124,0.855,-0.563,-0.580,0.214,-0.275,73.333,51716.000,1.000
5.773,6.040,5.919,5.615,5.951,5.596,5.640,5.797,-0.124,0.854,-0.562,-0.641,0.183,-0.244,73.333,51717.000,1.000
6.178,6.594,6.378,6.140,6.604,6.241,6.254,6.302,-0.125,0.855,-0.561,-0.732,0.153,-0.275,73.333,51718.000,1.000
6.404,6.902,6.649,6.542,7.015,6.699,6.653,6.633,-0.127,0.852,-0.561,-0.763,0.183,-0.183,73.333,51719.000,1.000
6.619,7.123,6.903,6.927,7.324,7.057,6.946,6.931,-0.128,0.854,-0.562,-0.824,0.244,-0.153,73.333,51720.000,1.000
6.971,7.413,7.279,7.377,7.664,7.429,7.269,7.328,-0.128,0.855,-0.560,-1.007,0.244,-0.153,73.333,51721.000,1.000
7.510,7.856,7.818,7.911,8.103,7.895,7.725,7.876,-0.128,0.856,-0.557,-0.977,0.214,-0.153,73.333,51722.000,1.000
8.197,8.456,8.497,8.524,8.651,8.473,8.351,8.558,-0.125,0.855,-0.557,-1.007,0.092,-0.122,73.333,51723.000,1.000
8.936,9.145,9.247,9.189,9.274,9.113,9.104,9.298,-0.124,0.855,-0.556,-1.038,0.031,-0.122,73.333,51724.000,1.000
9.555,9.748,9.905,9.771,9.827,9.666,9.793,9.919,-0.124,0.853,-0.559,-1.068,0.092,0.061,73.333,51725.000,1.000
9.895,10.068,10.273,10.078,10.121,9.967,10.178,10.225,-0.123,0.851,-0.560,-1.099,0.183,0.153,73.333,51726.000,1.000
9.881,9.997,10.223,9.982,10.036,9.919,10.113,10.113,-0.124,0.849,-0.559,-1.129,0.153,0.214,73.333,51727.000,1.000
9.600,9.615,9.816,9.555,9.644,9.580,9.683,9.673,-0.125,0.847,-0.558,-1.129,0.244,0.122,73.333,51728.000,1.000
9.199,9.084,9.216,8.975,9.111,9.093,9.091,9.095,-0.123,0.850,-0.553,-1.068,0.153,0.153,73.333,51729.000,1.000
8.682,8.439,8.477,8.295,8.474,8.497,8.412,8.437,-0.124,0.849,-0.554,-1.068,0.153,0.275,73.333,51730.000,1.000
7.954,7.616,7.567,7.467,7.673,7.752,7.601,7.639,-0.125,0.851,-0.558,-1.160,0.153,0.244,73.333,51731.000,1.000
6.972,6.604,6.502,6.481,6.692,6.850,6.634,6.677,-0.125,0.850,-0.556,-1.129,0.153,0.244,73.333,51732.000,1.000
5.879,5.552,5.449,5.476,5.676,5.908,5.638,5.672,-0.127,0.852,-0.555,-1.129,0.061,0.244,73.333,51733.000,1.000
4.891,4.650,4.598,4.626,4.808,5.064,4.793,4.793,-0.129,0.853,-0.556,-1.129,0.000,0.244,73.333,51734.000,1.000
4.126,3.970,3.991,3.993,4.153,4.357,4.157,4.110,-0.130,0.855,-0.557,-1.221,-0.092,0.061,73.333,51735.000,1.000
3.616,3.523,3.590,3.573,3.707,3.813,3.712,3.642,-0.128,0.855,-0.556,-1.312,-0.092,0.031,73.333,51736.000,1.000
3.326,3.275,3.333,3.344,3.437,3.464,3.416,3.378,-0.126,0.855,-0.557,-1.404,-0.214,0.061,73.333,51737.000,1.000
3.224,3.199,3.215,3.315,3.342,3.356,3.279,3.319,-0.124,0.856,-0.557,-1.526,-0.153,-0.092,73.333,51738.000,1.000
3.313,3.308,3.278,3.506,3.468,3.513,3.360,3.484,-0.124,0.857,-0.554,-1.526,-0.122,-0.092,73.333,51739.000,1.000
3.570,3.589,3.522,3.864,3.806,3.868,3.664,3.828,-0.123,0.859,-0.555,-1.678,-0.153,-0.244,73.333,51740.000,1.000
3.952,3.996,3.883,4.293,4.266,4.300,4.131,4.246,-0.121,0.860,-0.556,-1.831,-0.061,-0.305,73.333,51741.000,1.000
4.344,4.390,4.216,4.640,4.654,4.626,4.589,4.569,-0.120,0.862,-0.553,-1.984,0.000,-0.305,73.333,51742.000,1.000
4.613,4.611,4.381,4.778,4.786,4.706,4.846,4.663,-0.119,0.861,-0.555,-2.136,-0.061,-0.366,73.333,51743.000,1.000
4.629,4.538,4.301,4.636,4.580,4.498,4.772,4.477,-0.119,0.861,-0.554,-2.228,0.153,-0.336,73.333,51744.000,1.000
4.278,4.100,3.941,4.178,4.040,4.009,4.331,3.999,-0.118,0.859,-0.557,-2.258,0.305,-0.305,73.333,51745.000,1.000
3.620,3.409,3.403,3.517,3.328,3.365,3.670,3.351,-0.119,0.858,-0.556,-2.136,0.427,-0.458,73.333,51746.000,1.000
2.893,2.728,2.893,2.900,2.697,2.772,3.053,2.759,-0.122,0.856,-0.554,-2.258,0.488,-0.519,73.333,51747.000,1.000
2.367,2.306,2.581,2.554,2.345,2.419,2.687,2.421,-0.122,0.855,-0.556,-2.319,0.549,-0.427,73.333,51748.000,1.000
2.163,2.203,2.473,2.520,2.280,2.343,2.589,2.366,-0.123,0.853,-0.555,-2.319,0.641,-0.488,73.333,51749.000,1.000
2.214,2.289,2.438,2.655,2.344,2.411,2.616,2.460,-0.125,0.852,-0.555,-2.350,0.702,-0.641,73.333,51750.000,1.000
2.428,2.449,2.408,2.833,2.433,2.527,2.670,2.601,-0.125,0.852,-0.557,-2.289,0.702,-0.641,73.333,51751.000,1.000
2.713,2.611,2.397,2.980,2.529,2.665,2.720,2.747,-0.125,0.851,-0.560,-2.228,0.641,-0.549,73.333,51752.000,1.000
2.987,2.750,2.457,3.079,2.651,2.833,2.779,2.895,-0.125,0.850,-0.556,-2.197,0.702,-0.549,73.333,51753.000,1.000
3.236,2.913,2.663,3.185,2.843,3.066,2.908,3.088,-0.124,0.853,-0.559,-2.045,0.732,-0.549,73.333,51754.000,1.000
3.500,3.177,3.061,3.397,3.151,3.401,3.177,3.388,-0.125,0.853,-0.557,-1.984,0.702,-0.671,73.333,51755.000,1.000
3.864,3.614,3.658,3.819,3.632,3.874,3.642,3.855,-0.125,0.859,-0.556,-1.984,0.671,-0.671,73.333,51756.000,1.000
4.331,4.183,4.353,4.427,4.249,4.440,4.243,4.445,-0.122,0.859,-0.552,-2.045,0.763,-0.671,73.333,51757.000,1.000
4.841,4.771,5.003,5.086,4.883,4.996,4.849,5.037,-0.122,0.861,-0.551,-2.106,0.885,-0.671,73.333,51758.000,1.000
5.352,5.307,5.534,5.671,5.426,5.475,5.375,5.539,-0.123,0.860,-0.550,-2.197,1.038,-0.671,73.333,51759.000,1.000
5.838,5.768,5.942,6.112,5.819,5.860,5.797,5.910,-0.121,0.860,-0.549,-2.136,1.129,-0.641,73.333,51760.000,1.000
6.259,6.148,6.249,6.393,6.063,6.160,6.124,6.162,-0.118,0.860,-0.550,-2.197,1.160,-0.580,73.333,51761.000,1.000
6.474,6.341,6.380,6.441,6.105,6.302,6.291,6.237,-0.119,0.859,-0.550,-2.258,1.282,-0.641,73.333,51762.000,1.000
6.325,6.202,6.209,6.175,5.866,6.170,6.187,6.047,-0.119,0.856,-0.551,-2.167,1.312,-0.458,73.333,51763.000,1.000
5.748,5.648,5.670,5.571,5.315,5.691,5.740,5.538,-0.119,0.856,-0.552,-2.075,1.465,-0.488,73.333,51764.000,1.000
4.740,4.654,4.741,4.621,4.437,4.823,4.903,4.674,-0.119,0.854,-0.550,-2.014,1.495,-0.366,73.333,51765.000,1.000
3.424,3.344,3.514,3.402,3.300,3.645,3.737,3.509,-0.120,0.854,-0.553,-1.862,1.495,-0.305,73.333,51766.000,1.000
2.020,1.953,2.163,2.071,2.053,2.326,2.407,2.186,-0.123,0.852,-0.552,-1.862,1.709,-0.153,73.333,51767.000,1.000
0.776,0.739,0.899,0.826,0.892,1.086,1.128,0.903,-0.122,0.848,-0.553,-1.617,1.709,-0.031,73.333,51768.000,1.000
-0.102,-0.102,-0.068,-0.132,0.012,0.141,0.111,-0.110,-0.122,0.849,-0.554,-1.404,1.740,0.153,73.333,51769.000,1.000
-0.548,-0.516,-0.626,-0.688,-0.492,-0.399,-0.535,-0.703,-0.122,0.849,-0.552,-1.282,1.770,0.153,73.333,51770.000,1.000
-0.654,-0.604,-0.811,-0.880,-0.669,-0.588,-0.833,-0.880,-0.121,0.847,-0.550,-1.068,1.709,0.336,73.333,51771.000,1.000
-0.640,-0.601,-0.806,-0.891,-0.710,-0.629,-0.940,-0.824,-0.123,0.846,-0.551,-0.885,1.648,0.580,73.333,51772.000,1.000
-0.641,-0.655,-0.757,-0.862,-0.755,-0.655,-0.961,-0.699,-0.125,0.844,-0.558,-0.702,1.556,0.793,73.333,51773.000,1.000
-0.614,-0.720,-0.676,-0.792,-0.793,-0.643,-0.885,-0.550,-0.127,0.847,-0.553,-0.549,1.587,0.824,73.333,51774.000,1.000
-0.504,-0.701,-0.554,-0.655,-0.767,-0.555,-0.708,-0.395,-0.126,0.849,-0.556,-0.366,1.617,0.946,73.333,51775.000,1.000
-0.333,-0.568,-0.413,-0.482,-0.650,-0.419,-0.492,-0.258,-0.124,0.850,-0.555,-0.061,1.343,1.221,73.333,51776.000,1.000
-0.271,-0.465,-0.375,-0.432,-0.555,-0.388,-0.411,-0.263,-0.122,0.850,-0.558,0.122,1.251,1.343,73.333,51777.000,1.000
-0.528,-0.612,-0.603,-0.688,-0.686,-0.645,-0.651,-0.566,-0.119,0.851,-0.557,0.183,1.221,1.495,73.333,51778.000,1.000
-1.178,-1.125,-1.162,-1.300,-1.164,-1.243,-1.255,-1.211,-0.119,0.853,-0.559,0.305,1.190,1.587,73.333,51779.000,1.000
-2.123,-1.945,-1.978,-2.162,-1.954,-2.098,-2.099,-2.090,-0.117,0.852,-0.560,0.488,1.038,1.801,73.333,51780.000,1.000
-3.108,-2.850,-2.843,-3.051,-2.854,-3.011,-2.940,-2.972,-0.116,0.853,-0.560,0.610,1.038,1.953,73.333,51781.000,1.000
-3.902,-3.637,-3.585,-3.788,-3.648,-3.812,-3.601,-3.677,-0.117,0.853,-0.559,0.732,0.854,2.014,73.333,51782.000,1.000
-4.444,-4.238,-4.169,-4.334,-4.254,-4.461,-4.085,-4.198,-0.117,0.852,-0.558,0.885,0.702,2.075,73.333,51783.000,1.000
-4.833,-4.705,-4.682,-4.772,-4.732,-5.027,-4.526,-4.657,-0.119,0.854,-0.557,1.038,0.610,2.136,73.333,51784.000,1.000
-5.151,-5.075,-5.169,-5.167,-5.137,-5.532,-5.001,-5.123,-0.117,0.853,-0.556,1.129,0.458,2.167,73.333,51785.000,1.000
-5.294,-5.231,-5.472,-5.404,-5.346,-5.802,-5.353,-5.435,-0.119,0.853,-0.557,1.190,0.336,2.228,73.333,51786.000,1.000
-5.140,-5.063,-5.409,-5.346,-5.223,-5.675,-5.373,-5.403,-0.120,0.851,-0.561,1.221,0.183,2.136,73.333,51787.000,1.000
-4.676,-4.575,-4.930,-4.978,-4.744,-5.143,-4.961,-4.964,-0.124,0.849,-0.562,1.343,0.061,1.984,73.333,51788.000,1.000
-3.979,-3.833,-4.113,-4.359,-3.982,-4.312,-4.142,-4.184,-0.125,0.847,-0.561,1.434,-0.092,1.923,73.333,51789.000,1.000
-3.213,-2.977,-3.161,-3.607,-3.108,-3.375,-3.096,-3.254,-0.127,0.845,-0.561,1.495,-0.458,1.892,73.333,51790.000,1.000
-2.517,-2.152,-2.270,-2.824,-2.295,-2.512,-2.060,-2.368,-0.128,0.845,-0.558,1.617,-0.824,1.678,73.333,51791.000,1.000
-1.897,-1.416,-1.514,-2.039,-1.597,-1.788,-1.190,-1.603,-0.131,0.844,-0.559,1.770,-1.038,1.495,73.333,51792.000,1.000
-1.149,-0.637,-0.749,-1.134,-0.857,-1.051,-0.401,-0.823,-0.129,0.844,-0.558,1.831,-1.343,1.312,73.333,51793.000,1.000
-0.021,0.402,0.258,0.058,0.164,-0.043,0.532,0.212,-0.128,0.843,-0.558,1.892,-1.526,1.221,73.333,51794.000,1.000
1.452,1.682,1.513,1.469,1.465,1.265,1.657,1.511,-0.127,0.842,-0.559,1.923,-1.862,1.160,73.333,51795.000,1.000
2.874,2.867,2.707,2.730,2.715,2.553,2.721,2.747,-0.126,0.841,-0.558,1.923,-2.167,1.129,73.333,51796.000,1.000
3.677,3.465,3.370,3.343,3.419,3.310,3.282,3.419,-0.125,0.843,-0.559,1.984,-2.411,0.977,73.333,51797.000,1.000
3.498,3.178,3.200,3.037,3.254,3.179,3.032,3.210,-0.125,0.846,-0.562,2.014,-2.594,0.854,73.333,51798.000,1.000
2.341,2.022,2.174,1.869,2.199,2.107,1.939,2.117,-0.122,0.849,-0.561,1.923,-2.747,0.916,73.333,51799.000,1.000
0.370,0.117,0.355,-0.007,0.334,0.178,0.077,0.242,-0.121,0.849,-0.561,1.953,-2.808,0.946,73.333,51800.000,1.000
-2.238,-2.420,-2.183,-2.460,-2.234,-2.461,-2.462,-2.316,-0.119,0.851,-0.562,1.831,-2.991,0.946,73.333,51801.000,1.000
-5.324,-5.451,-5.313,-5.374,-5.341,-5.605,-5.535,-5.421,-0.115,0.854,-0.561,1.740,-3.052,0.885,73.333,51802.000,1.000
-8.651,-8.736,-8.761,-8.552,-8.701,-8.954,-8.862,-8.808,-0.113,0.856,-0.562,1.495,-2.991,0.977,73.333,51803.000,1.000
-11.916,-11.978,-12.151,-11.742,-11.976,-12.186,-12.093,-12.134,-0.112,0.857,-0.563,1.465,-2.960,1.038,73.333,51804.000,1.000
-14.848,-14.922,-15.150,-14.696,-14.901,-15.053,-14.948,-15.106,-0.115,0.861,-0.562,1.465,-2.930,1.129,73.333,51805.000,1.000
-17.171,-17.284,-17.459,-17.115,-17.218,-17.315,-17.172,-17.440,-0.113,0.858,-0.562,1.190,-2.869,1.129,73.333,51806.000,1.000
-18.679,-18.815,-18.882,-18.733,-18.718,-18.792,-18.584,-18.930,-0.113,0.857,-0.561,1.007,-2.777,1.190,73.333,51807.000,1.000
-19.337,-19.443,-19.418,-19.461,-19.340,-19.441,-19.168,-19.554,-0.112,0.856,-0.567,0.793,-2.686,1.221,73.333,51808.000,1.000
-19.332,-19.353,-19.284,-19.455,-19.244,-19.410,-19.123,-19.510,-0.113,0.854,-0.565,0.641,-2.533,1.129,73.333,51809.000,1.000
-19.002,-18.929,-18.854,-19.067,-18.782,-19.023,-18.804,-19.145,-0.115,0.857,-0.562,0.488,-2.319,1.221,73.333,51810.000,1.000
-18.593,-18.465,-18.403,-18.571,-18.244,-18.540,-18.458,-18.701,-0.115,0.858,-0.563,0.275,-2.258,1.068,73.333,51811.000,1.000
-18.180,-18.043,-18.000,-18.060,-17.754,-18.049,-18.136,-18.238,-0.114,0.860,-0.565,0.153,-2.197,1.007,73.333,51812.000,1.000
-17.736,-17.603,-17.592,-17.519,-17.298,-17.522,-17.765,-17.712,-0.112,0.858,-0.565,0.031,-2.167,0.977,73.333,51813.000,1.000
-17.254,-17.102,-17.148,-16.965,-16.836,-16.947,-17.295,-17.119,-0.110,0.857,-0.568,-0.031,-1.984,0.916,73.333,51814.000,1.000
-16.755,-16.554,-16.680,-16.442,-16.344,-16.356,-16.743,-16.506,-0.107,0.855,-0.568,-0.244,-1.801,0.854,73.333,51815.000,1.000
-16.105,-15.854,-16.039,-15.806,-15.679,-15.640,-16.020,-15.772,-0.108,0.852,-0.565,-0.336,-1.526,0.763,73.333,51816.000,1.000
-15.073,-14.809,-14.978,-14.791,-14.651,-14.586,-14.953,-14.706,-0.108,0.850,-0.568,-0.488,-1.343,0.793,73.333,51817.000,1.000
-13.550,-13.332,-13.402,-13.278,-13.203,-13.106,-13.487,-13.219,-0.105,0.847,-0.568,-0.519,-1.099,0.702,73.333,51818.000,1.000
-11.725,-11.601,-11.550,-11.483,-11.537,-11.397,-11.817,-11.497,-0.106,0.848,-0.565,-0.610,-0.793,0.610,73.333,51819.000,1.000
-10.028,-10.011,-9.887,-9.857,-10.035,-9.870,-10.316,-9.938,-0.106,0.849,-0.565,-0.641,-0.519,0.580,73.333,51820.000,1.000
-8.728,-8.793,-8.667,-8.643,-8.892,-8.749,-9.159,-8.756,-0.106,0.852,-0.565,-0.702,-0.275,0.458,73.333,51821.000,1.000
-7.711,-7.815,-7.738,-7.695,-7.953,-7.875,-8.173,-7.790,-0.108,0.853,-0.568,-0.671,-0.305,0.519,73.333,51822.000,1.000
-6.587,-6.678,-6.681,-6.608,-6.834,-6.823,-6.978,-6.641,-0.109,0.855,-0.570,-0.763,-0.092,0.366,73.333,51823.000,1.000
-4.954,-4.979,-5.076,-4.975,-5.154,-5.167,-5.220,-4.942,-0.117,0.856,-0.570,-0.885,0.092,0.122,73.333,51824.000,1.000
-2.676,-2.599,-2.774,-2.641,-2.796,-2.771,-2.807,-2.606,-0.125,0.857,-0.563,-0.946,-0.031,-0.092,73.333,51825.000,1.000
0.074,0.254,0.041,0.217,0.027,0.144,0.064,0.167,-0.129,0.857,-0.561,-1.007,-0.061,-0.336,73.333,51826.000,1.000
2.896,3.134,2.928,3.153,2.855,3.099,2.975,2.972,-0.131,0.857,-0.564,-1.160,-0.153,-0.458,73.333,51827.000,1.000
5.331,5.557,5.390,5.645,5.205,5.571,5.460,5.363,-0.130,0.859,-0.565,-1.343,-0.305,-0.641,73.333,51828.000,1.000
6.978,7.120,7.021,7.263,6.716,7.138,7.121,6.956,-0.129,0.860,-0.568,-1.434,-0.427,-0.946,73.333,51829.000,1.000
7.559,7.575,7.556,7.746,7.175,7.557,7.681,7.483,-0.127,0.859,-0.563,-1.648,-0.580,-1.007,73.333,51830.000,1.000
7.159,7.046,7.089,7.223,6.707,6.975,7.214,7.033,-0.124,0.860,-0.560,-1.709,-0.702,-1.129,73.333,51831.000,1.000
6.301,6.107,6.158,6.281,5.853,5.993,6.254,6.145,-0.124,0.859,-0.559,-1.801,-0.732,-1.282,73.333,51832.000,1.000
5.708,5.514,5.522,5.702,5.342,5.389,5.571,5.573,-0.123,0.858,-0.559,-1.892,-0.763,-1.312,73.333,51833.000,1.000
5.832,5.721,5.671,5.950,5.621,5.620,5.673,5.789,-0.120,0.859,-0.563,-2.106,-0.763,-1.434,73.333,51834.000,1.000
6.585,6.606,6.528,6.887,6.570,6.558,6.493,6.696,-0.117,0.858,-0.560,-2.228,-0.732,-1.373,73.333,51835.000,1.000
7.618,7.770,7.715,8.066,7.786,7.797,7.644,7.894,-0.116,0.858,-0.558,-2.380,-0.732,-1.343,73.333,51836.000,1.000
8.586,8.833,8.824,9.061,8.878,8.945,8.723,8.980,-0.114,0.857,-0.558,-2.411,-0.641,-1.190,73.333,51837.000,1.000
9.272,9.541,9.563,9.634,9.600,9.744,9.463,9.693,-0.115,0.855,-0.559,-2.380,-0.641,-1.160,73.333,51838.000,1.000
9.637,9.834,9.874,9.793,9.899,10.136,9.812,9.984,-0.116,0.853,-0.559,-2.502,-0.549,-1.129,73.333,51839.000,1.000
9.809,9.853,9.931,9.762,9.923,10.252,9.925,10.016,-0.119,0.850,-0.557,-2.533,-0.427,-0.916,73.333,51840.000,1.000
10.016,9.882,10.052,9.861,9.977,10.352,10.087,10.084,-0.123,0.849,-0.559,-2.594,-0.427,-0.732,73.333,51841.000,1.000
10.321,10.055,10.367,10.210,10.224,10.554,10.410,10.328,-0.123,0.849,-0.559,-2.686,-0.458,-0.610,73.333,51842.000,1.000
10.507,10.211,10.665,10.586,10.494,10.696,10.681,10.561,-0.126,0.850,-0.559,-2.563,-0.519,-0.549,73.333,51843.000,1.000
10.284,10.074,10.578,10.619,10.447,10.508,10.566,10.458,-0.127,0.848,-0.559,-2.625,-0.458,-0.397,73.333,51844.000,1.000
9.573,9.529,9.928,10.094,9.892,9.879,9.913,9.852,-0.129,0.846,-0.556,-2.655,-0.519,-0.305,73.333,51845.000,1.000
8.679,8.805,8.968,9.203,9.046,9.064,8.974,8.970,-0.131,0.846,-0.554,-2.594,-0.763,-0.214,73.333,51846.000,1.000
8.052,8.260,8.175,8.379,8.334,8.466,8.204,8.243,-0.130,0.847,-0.553,-2.563,-0.854,-0.092,73.333,51847.000,1.000
7.924,8.084,7.868,7.964,8.035,8.294,7.910,7.972,-0.130,0.844,-0.559,-2.502,-1.068,-0.122,73.333,51848.000,1.000
8.148,8.159,7.986,7.972,8.083,8.403,8.034,8.108,-0.128,0.844,-0.556,-2.411,-1.099,-0.061,73.333,51849.000,1.000
8.305,8.154,8.154,8.091,8.133,8.419,8.195,8.276,-0.129,0.845,-0.556,-2.319,-1.190,-0.031,73.333,51850.000,1.000
8.115,7.881,8.073,8.036,7.941,8.126,8.085,8.159,-0.129,0.847,-0.554,-2.319,-1.282,0.031,73.333,51851.000,1.000
7.573,7.368,7.670,7.701,7.499,7.556,7.629,7.666,-0.129,0.850,-0.556,-2.228,-1.404,0.061,73.333,51852.000,1.000
6.807,6.703,6.984,7.071,6.887,6.812,6.877,6.857,-0.128,0.851,-0.558,-2.167,-1.465,0.031,73.333,51853.000,1.000
5.982,5.984,6.150,6.225,6.211,6.019,5.978,5.916,-0.126,0.849,-0.557,-2.136,-1.556,0.031,73.333,51854.000,1.000
5.301,5.374,5.415,5.388,5.641,5.367,5.198,5.136,-0.128,0.849,-0.559,-2.167,-1.678,0.061,73.333,51855.000,1.000
4.985,5.096,5.069,4.887,5.392,5.087,4.854,4.815,-0.127,0.849,-0.556,-2.167,-1.709,0.153,73.333,51856.000,1.000
5.078,5.202,5.196,4.871,5.498,5.225,5.033,4.994,-0.125,0.852,-0.554,-2.106,-1.678,0.275,73.333,51857.000,1.000
5.394,5.502,5.597,5.192,5.760,5.579,5.514,5.420,-0.123,0.853,-0.554,-1.984,-1.678,0.336,73.333,51858.000,1.000
5.669,5.728,5.973,5.558,5.934,5.886,5.947,5.772,-0.123,0.855,-0.555,-1.953,-1.831,0.366,73.333,51859.000,1.000
5.756,5.750,6.128,5.757,5.916,5.995,6.106,5.875,-0.122,0.856,-0.559,-2.045,-1.801,0.305,73.333,51860.000,1.000
5.801,5.741,6.154,5.852,5.882,6.021,6.103,5.866,-0.123,0.858,-0.559,-2.045,-1.801,0.366,73.333,51861.000,1.000
6.102,6.012,6.334,6.102,6.133,6.235,6.264,6.055,-0.123,0.858,-0.556,-2.075,-1.709,0.336,73.333,51862.000,1.000
6.878,6.770,6.924,6.753,6.882,6.870,6.873,6.698,-0.121,0.859,-0.553,-2.136,-1.709,0.305,73.333,51863.000,1.000
8.126,7.985,7.999,7.862,8.124,7.965,7.985,7.827,-0.121,0.859,-0.553,-2.136,-1.556,0.244,73.333,51864.000,1.000
9.580,9.382,9.364,9.222,9.589,9.307,9.370,9.212,-0.121,0.859,-0.556,-2.228,-1.373,0.153,73.333,51865.000,1.000
10.939,10.684,10.743,10.570,10.969,10.630,10.731,10.588,-0.120,0.859,-0.557,-2.136,-1.282,0.244,73.333,51866.000,1.000
12.018,11.734,11.902,11.711,12.051,11.735,11.860,11.767,-0.120,0.857,-0.557,-2.197,-1.160,0.244,73.333,51867.000,1.000
12.720,12.465,12.675,12.511,12.725,12.487,12.635,12.606,-0.118,0.856,-0.556,-2.228,-1.068,0.153,73.333,51868.000,1.000
12.984,12.827,12.964,12.879,12.944,12.794,12.985,12.990,-0.116,0.858,-0.555,-2.167,-1.007,0.092,73.333,51869.000,1.000
12.758,12.737,12.720,12.749,12.691,12.599,12.859,12.838,-0.119,0.857,-0.558,-2.197,-0.977,0.153,73.333,51870.000,1.000
12.128,12.232,12.059,12.198,12.081,12.006,12.321,12.221,-0.120,0.857,-0.558,-2.014,-0.824,0.061,73.333,51871.000,1.000
11.319,11.498,11.241,11.427,11.332,11.248,11.558,11.363,-0.120,0.857,-0.554,-1.984,-0.641,-0.031,73.333,51872.000,1.000
10.577,10.774,10.537,10.669,10.645,10.554,10.781,10.533,-0.120,0.855,-0.556,-1.923,-0.580,-0.153,73.333,51873.000,1.000
10.049,10.226,10.101,10.082,10.118,10.047,10.133,9.929,-0.123,0.855,-0.558,-1.862,-0.580,-0.122,73.333,51874.000,1.000
9.696,9.837,9.861,9.657,9.695,9.680,9.612,9.558,-0.125,0.856,-0.561,-1.862,-0.519,-0.122,73.333,51875.000,1.000
9.380,9.482,9.600,9.271,9.268,9.326,9.131,9.282,-0.125,0.855,-0.558,-1.862,-0.458,-0.305,73.333,51876.000,1.000
8.934,8.992,9.072,8.753,8.706,8.829,8.559,8.885,-0.124,0.854,-0.559,-1.678,-0.488,-0.397,73.333,51877.000,1.000
8.307,8.317,8.236,8.059,7.984,8.148,7.864,8.276,-0.124,0.855,-0.558,-1.678,-0.549,-0.366,73.333,51878.000,1.000
7.654,7.597,7.340,7.354,7.257,7.432,7.198,7.596,-0.124,0.854,-0.557,-1.526,-0.458,-0.397,73.333,51879.000,1.000
7.076,6.925,6.586,6.742,6.632,6.771,6.634,6.971,-0.123,0.852,-0.555,-1.556,-0.244,-0.458,73.333,51880.000,1.000
6.432,6.178,5.892,6.085,5.983,6.028,6.015,6.300,-0.123,0.851,-0.556,-1.312,-0.336,-0.427,73.333,51881.000,1.000
5.424,5.111,4.958,5.085,5.028,4.943,5.047,5.315,-0.123,0.851,-0.556,-1.160,-0.214,-0.427,73.333,51882.000,1.000
3.941,3.656,3.615,3.620,3.650,3.445,3.622,3.886,-0.124,0.850,-0.557,-0.946,-0.244,-0.549,73.333,51883.000,1.000
2.216,2.055,2.037,1.931,2.064,1.794,1.967,2.220,-0.125,0.848,-0.557,-0.854,-0.214,-0.519,73.333,51884.000,1.000
0.587,0.597,0.528,0.369,0.577,0.303,0.409,0.636,-0.125,0.846,-0.557,-0.763,-0.122,-0.458,73.333,51885.000,1.000
-0.762,-0.619,-0.739,-0.892,-0.672,-0.913,-0.877,-0.683,-0.126,0.843,-0.556,-0.458,-0.153,-0.427,73.333,51886.000,1.000
-1.913,-1.760,-1.858,-1.973,-1.800,-1.995,-1.998,-1.825,-0.126,0.844,-0.556,-0.244,-0.122,-0.397,73.333,51887.000,1.000
-3.047,-3.022,-3.023,-3.097,-2.987,-3.136,-3.160,-2.988,-0.122,0.843,-0.557,-0.153,-0.061,-0.214,73.333,51888.000,1.000
-4.208,-4.362,-4.256,-4.304,-4.222,-4.332,-4.393,-4.218,-0.120,0.842,-0.556,0.061,0.000,-0.183,73.333,51889.000,1.000
-5.229,-5.491,-5.343,-5.394,-5.295,-5.359,-5.485,-5.336,-0.121,0.841,-0.556,0.275,0.061,0.031,73.333,51890.000,1.000
-5.728,-5.964,-5.861,-5.944,-5.819,-5.821,-6.011,-5.919,-0.119,0.842,-0.555,0.458,0.153,0.183,73.333,51891.000,1.000
-5.335,-5.444,-5.448,-5.558,-5.448,-5.373,-5.589,-5.544,-0.120,0.844,-0.554,0.641,0.183,0.214,73.333,51892.000,1.000
-4.006,-3.963,-4.091,-4.177,-4.150,-3.997,-4.169,-4.135,-0.127,0.844,-0.554,0.763,0.061,0.244,73.333,51893.000,1.000
-2.156,-2.006,-2.236,-2.212,-2.340,-2.123,-2.183,-2.131,-0.132,0.848,-0.555,0.885,0.061,0.275,73.333,51894.000,1.000
-0.558,-0.374,-0.660,-0.458,-0.794,-0.529,-0.443,-0.378,-0.136,0.851,-0.555,0.885,0.031,0.214,73.333,51895.000,1.000
0.071,0.229,-0.058,0.319,-0.214,0.079,0.291,0.340,-0.136,0.855,-0.555,0.763,-0.061,0.092,73.333,51896.000,1.000
-0.615,-0.493,-0.737,-0.276,-0.912,-0.617,-0.346,-0.337,-0.134,0.859,-0.556,0.763,-0.244,0.000,73.333,51897.000,1.000
-2.428,-2.303,-2.484,-2.077,-2.678,-2.416,-2.148,-2.177,-0.129,0.862,-0.554,0.671,-0.427,0.031,73.333,51898.000,1.000
-4.673,-4.497,-4.627,-4.374,-4.828,-4.642,-4.393,-4.436,-0.126,0.862,-0.552,0.427,-0.397,0.000,73.333,51899.000,1.000
-6.506,-6.277,-6.391,-6.309,-6.554,-6.492,-6.233,-6.270,-0.122,0.860,-0.552,0.275,-0.397,0.031,73.333,51900.000,1.000
-7.349,-7.123,-7.251,-7.281,-7.315,-7.402,-7.107,-7.134,-0.124,0.860,-0.553,0.061,-0.366,0.092,73.333,51901.000,1.000
-7.223,-7.080,-7.215,-7.282,-7.159,-7.373,-7.049,-7.078,-0.123,0.861,-0.555,-0.061,-0.427,0.031,73.333,51902.000,1.000
-6.712,-6.698,-6.798,-6.856,-6.659,-6.944,-6.615,-6.668,-0.120,0.860,-0.552,-0.153,-0.458,0.061,73.333,51903.000,1.000
-6.516,-6.623,-6.645,-6.690,-6.486,-6.779,-6.457,-6.557,-0.120,0.860,-0.556,-0.366,-0.458,0.122,73.333,51904.000,1.000
-6.994,-7.186,-7.115,-7.172,-6.992,-7.241,-6.920,-7.075,-0.120,0.862,-0.554,-0.458,-0.305,0.092,73.333,51905.000,1.000
-7.931,-8.170,-8.032,-8.131,-7.992,-8.154,-7.822,-8.021,-0.120,0.861,-0.555,-0.610,-0.244,0.153,73.333,51906.000,1.000
-8.799,-9.054,-8.900,-9.051,-8.977,-9.028,-8.690,-8.913,-0.124,0.861,-0.551,-0.793,-0.214,0.061,73.333,51907.000,1.000
-9.158,-9.409,-9.298,-9.477,-9.478,-9.429,-9.122,-9.335,-0.124,0.863,-0.555,-0.916,-0.183,0.031,73.333,51908.000,1.000
-8.861,-9.094,-9.082,-9.232,-9.285,-9.174,-8.951,-9.127,-0.124,0.862,-0.553,-1.038,-0.183,0.031,73.333,51909.000,1.000
-8.096,-8.286,-8.407,-8.469,-8.525,-8.392,-8.292,-8.437,-0.124,0.862,-0.556,-1.221,-0.183,0.031,73.333,51910.000,1.000
-7.197,-7.294,-7.540,-7.485,-7.503,-7.376,-7.393,-7.551,-0.125,0.861,-0.555,-1.343,-0.153,-0.031,73.333,51911.000,1.000
-6.446,-6.411,-6.721,-6.566,-6.540,-6.443,-6.507,-6.725,-0.124,0.863,-0.557,-1.251,-0.183,0.000,73.333,51912.000,1.000
-5.969,-5.818,-6.092,-5.889,-5.842,-5.795,-5.807,-6.095,-0.123,0.861,-0.557,-1.434,-0.183,0.000,73.333,51913.000,1.000
-5.766,-5.577,-5.719,-5.532,-5.480,-5.482,-5.387,-5.709,-0.123,0.860,-0.555,-1.526,-0.275,0.000,73.333,51914.000,1.000
-5.827,-5.692,-5.677,-5.549,-5.468,-5.498,-5.333,-5.640,-0.126,0.859,-0.553,-1.495,-0.366,0.092,73.333,51915.000,1.000
-6.075,-6.032,-5.929,-5.858,-5.699,-5.737,-5.595,-5.862,-0.124,0.856,-0.555,-1.556,-0.336,0.092,73.333,51916.000,1.000
-6.371,-6.380,-6.298,-6.233,-5.979,-6.018,-5.979,-6.216,-0.124,0.853,-0.555,-1.526,-0.336,0.092,73.333,51917.000,1.000
-6.556,-6.550,-6.562,-6.425,-6.134,-6.171,-6.255,-6.487,-0.121,0.855,-0.556,-1.465,-0.275,0.183,73.333,51918.000,1.000
-6.507,-6.464,-6.575,-6.302,-6.092,-6.113,-6.277,-6.529,-0.119,0.854,-0.559,-1.434,-0.275,0.336,73.333,51919.000,1.000
-6.248,-6.222,-6.380,-5.962,-5.933,-5.930,-6.094,-6.370,-0.118,0.850,-0.555,-1.282,-0.366,0.519,73.333,51920.000,1.000
-5.862,-5.944,-6.071,-5.570,-5.726,-5.720,-5.807,-6.081,-0.118,0.849,-0.556,-1.099,-0.275,0.580,73.333,51921.000,1.000
-5.391,-5.621,-5.671,-5.184,-5.412,-5.450,-5.434,-5.665,-0.116,0.845,-0.559,-0.824,-0.275,0.702,73.333,51922.000,1.000
-4.791,-5.106,-5.101,-4.716,-4.846,-4.972,-4.880,-5.057,-0.118,0.844,-0.561,-0.702,-0.305,0.793,73.333,51923.000,1.000
-3.992,-4.269,-4.270,-4.040,-3.949,-4.165,-4.054,-4.214,-0.122,0.841,-0.559,-0.488,-0.244,0.946,73.333,51924.000,1.000
-3.059,-3.193,-3.251,-3.186,-2.871,-3.115,-3.051,-3.238,-0.122,0.837,-0.559,-0.153,-0.275,1.190,73.333,51925.000,1.000
-2.126,-2.092,-2.209,-2.270,-1.856,-2.022,-2.047,-2.274,-0.125,0.835,-0.561,0.214,-0.427,1.190,73.333,51926.000,1.000
-1.265,-1.128,-1.252,-1.371,-1.040,-1.043,-1.149,-1.390,-0.124,0.832,-0.563,0.610,-0.458,1.343,73.333,51927.000,1.000
-0.380,-0.259,-0.315,-0.426,-0.315,-0.155,-0.291,-0.490,-0.125,0.829,-0.562,1.007,-0.549,1.343,73.333,51928.000,1.000
0.736,0.737,0.783,0.725,0.602,0.842,0.722,0.625,-0.127,0.828,-0.561,1.404,-0.793,1.373,73.333,51929.000,1.000
2.092,1.947,2.063,2.077,1.828,2.036,1.933,1.982,-0.129,0.826,-0.563,1.770,-0.946,1.404,73.333,51930.000,1.000
3.406,3.165,3.288,3.350,3.149,3.253,3.134,3.315,-0.132,0.825,-0.564,2.136,-1.221,1.343,73.333,51931.000,1.000
4.259,4.010,4.101,4.141,4.138,4.140,3.961,4.211,-0.134,0.825,-0.563,2.594,-1.495,1.434,73.333,51932.000,1.000
4.423,4.240,4.315,4.248,4.498,4.453,4.188,4.429,-0.136,0.827,-0.567,2.960,-1.770,1.465,73.333,51933.000,1.000
4.023,3.945,4.063,3.839,4.273,4.242,3.902,4.092,-0.137,0.828,-0.562,3.265,-2.045,1.526,73.333,51934.000,1.000
3.357,3.393,3.599,3.244,3.690,3.716,3.349,3.495,-0.136,0.833,-0.565,3.448,-2.411,1.404,73.333,51935.000,1.000
2.690,2.832,3.116,2.714,2.989,3.077,2.746,2.878,-0.136,0.835,-0.569,3.693,-2.808,1.373,73.333,51936.000,1.000
2.070,2.308,2.596,2.238,2.243,2.361,2.124,2.250,-0.137,0.838,-0.566,3.845,-3.143,1.343,73.333,51937.000,1.000
1.360,1.687,1.878,1.611,1.375,1.482,1.372,1.456,-0.137,0.841,-0.566,3.906,-3.387,1.190,73.333,51938.000,1.000
0.443,0.851,0.885,0.695,0.342,0.417,0.435,0.429,-0.137,0.844,-0.567,3.937,-3.845,1.221,73.333,51939.000,1.000
-0.718,-0.246,-0.334,-0.494,-0.834,-0.794,-0.675,-0.778,-0.135,0.850,-0.567,3.906,-4.211,1.099,73.333,51940.000,1.000
-2.069,-1.586,-1.683,-1.842,-2.099,-2.092,-1.929,-2.077,-0.134,0.850,-0.567,3.845,-4.547,1.038,73.333,51941.000,1.000
-3.611,-3.187,-3.186,-3.334,-3.507,-3.534,-3.390,-3.505,-0.133,0.856,-0.568,3.693,-4.730,0.977,73.333,51942.000,1.000
-5.465,-5.149,-5.015,-5.113,-5.254,-5.292,-5.210,-5.245,-0.133,0.859,-0.568,3.510,-5.035,0.916,73.333,51943.000,1.000
-7.718,-7.519,-7.282,-7.302,-7.480,-7.477,-7.460,-7.426,-0.132,0.863,-0.567,3.174,-5.157,0.793,73.333,51944.000,1.000
-10.265,-10.156,-9.873,-9.834,-10.093,-9.997,-10.016,-9.965,-0.131,0.865,-0.566,2.991,-5.371,0.671,73.333,51945.000,1.000
-12.736,-12.660,-12.384,-12.350,-12.680,-12.478,-12.507,-12.471,-0.131,0.866,-0.569,2.686,-5.432,0.549,73.333,51946.000,1.000
-14.717,-14.609,-14.384,-14.421,-14.766,-14.493,-14.534,-14.496,-0.131,0.866,-0.570,2.258,-5.463,0.397,73.333,51947.000,1.000
-16.019,-15.851,-15.702,-15.827,-16.123,-15.839,-15.920,-15.828,-0.129,0.867,-0.567,1.892,-5.554,0.305,73.333,51948.000,1.000
-16.732,-16.515,-16.449,-16.625,-16.835,-16.600,-16.746,-16.553,-0.128,0.866,-0.565,1.495,-5.707,0.122,73.333,51949.000,1.000
-17.105,-16.871,-16.867,-17.043,-17.175,-17.017,-17.231,-16.917,-0.127,0.866,-0.566,1.068,-5.646,-0.092,73.333,51950.000,1.000
-17.261,-17.042,-17.051,-17.204,-17.302,-17.214,-17.466,-17.043,-0.125,0.865,-0.566,0.549,-5.524,-0.305,73.333,51951.000,1.000
-17.210,-17.033,-16.993,-17.137,-17.242,-17.206,-17.443,-16.968,-0.124,0.864,-0.566,0.275,-5.463,-0.519,73.333,51952.000,1.000
-17.007,-16.893,-16.770,-16.932,-17.042,-17.053,-17.230,-16.788,-0.125,0.863,-0.567,-0.153,-5.463,-0.610,73.333,51953.000,1.000
-16.739,-16.691,-16.509,-16.692,-16.771,-16.844,-16.938,-16.613,-0.124,0.863,-0.568,-0.458,-5.310,-0.793,73.333,51954.000,1.000
-16.468,-16.476,-16.305,-16.470,-16.480,-16.640,-16.647,-16.488,-0.123,0.861,-0.566,-0.854,-5.157,-0.916,73.333,51955.000,1.000
-16.170,-16.215,-16.119,-16.216,-16.145,-16.400,-16.324,-16.341,-0.121,0.862,-0.562,-1.099,-4.974,-1.068,73.333,51956.000,1.000
-15.832,-15.891,-15.893,-15.900,-15.770,-16.088,-15.937,-16.104,-0.120,0.862,-0.562,-1.404,-4.791,-1.068,73.333,51957.000,1.000
-15.567,-15.608,-15.701,-15.644,-15.490,-15.809,-15.608,-15.853,-0.119,0.858,-0.563,-1.709,-4.517,-1.099,73.333,51958.000,1.000
-15.573,-15.562,-15.730,-15.657,-15.513,-15.772,-15.572,-15.781,-0.118,0.860,-0.563,-1.953,-4.211,-1.068,73.333,51959.000,1.000
-15.982,-15.921,-16.125,-16.083,-15.967,-16.120,-15.995,-16.057,-0.116,0.859,-0.561,-2.228,-3.815,-1.068,73.333,51960.000,1.000
-16.633,-16.567,-16.743,-16.753,-16.672,-16.691,-16.699,-16.571,-0.115,0.859,-0.560,-2.563,-3.571,-1.007,73.333,51961.000,1.000
-17.137,-17.127,-17.211,-17.262,-17.222,-17.092,-17.253,-16.970,-0.114,0.856,-0.562,-2.777,-3.204,-1.068,73.333,51962.000,1.000
-17.201,-17.275,-17.239,-17.306,-17.305,-17.037,-17.330,-16.962,-0.118,0.855,-0.563,-2.960,-2.808,-0.946,73.333,51963.000,1.000
-16.832,-16.955,-16.823,-16.897,-16.913,-16.546,-16.922,-16.539,-0.120,0.856,-0.566,-3.204,-2.472,-0.824,73.333,51964.000,1.000
-16.246,-16.333,-16.188,-16.272,-16.259,-15.858,-16.250,-15.922,-0.119,0.854,-0.563,-3.296,-2.106,-0.641,73.333,51965.000,1.000
-15.478,-15.458,-15.404,-15.489,-15.405,-15.055,-15.372,-15.169,-0.121,0.854,-0.563,-3.357,-1.892,-0.610,73.333,51966.000,1.000
-14.270,-14.162,-14.241,-14.304,-14.158,-13.931,-14.064,-14.041,-0.121,0.853,-0.561,-3.418,-1.495,-0.427,73.333,51967.000,1.000
-12.326,-12.222,-12.381,-12.401,-12.269,-12.197,-12.063,-12.231,-0.122,0.853,-0.559,-3.540,-1.251,-0.275,73.333,51968.000,1.000
-9.562,-9.540,-9.691,-9.648,-9.649,-9.720,-9.297,-9.606,-0.125,0.853,-0.555,-3.571,-0.977,-0.214,73.333,51969.000,1.000
-6.186,-6.249,-6.335,-6.223,-6.441,-6.615,-5.960,-6.318,-0.125,0.853,-0.556,-3.601,-0.793,0.092,73.333,51970.000,1.000
-2.489,-2.577,-2.613,-2.437,-2.854,-3.088,-2.311,-2.622,-0.126,0.852,-0.559,-3.693,-0.549,0.183,73.333,51971.000,1.000
1.253,1.194,1.160,1.374,0.877,0.628,1.389,1.188,-0.126,0.849,-0.559,-3.662,-0.427,0.305,73.333,51972.000,1.000
4.754,4.719,4.653,4.863,4.447,4.231,4.833,4.762,-0.126,0.851,-0.560,-3.601,-0.122,0.458,73.333,51973.000,1.000
7.800,7.719,7.625,7.796,7.589,7.433,7.781,7.815,-0.126,0.848,-0.560,-3.662,-0.031,0.641,73.333,51974.000,1.000
10.355,10.142,10.040,10.183,10.218,10.114,10.206,10.288,-0.128,0.846,-0.562,-3.662,0.061,0.732,73.333,51975.000,1.000
12.642,12.270,12.164,12.341,12.543,12.463,12.388,12.449,-0.128,0.847,-0.562,-3.510,0.092,0.824,73.333,51976.000,1.000
14.942,14.475,14.345,14.621,14.865,14.785,14.659,14.651,-0.128,0.848,-0.560,-3.326,0.244,0.946,73.333,51977.000,1.000
17.335,16.897,16.716,17.101,17.301,17.196,17.102,17.019,-0.128,0.848,-0.561,-3.235,0.275,1.129,73.333,51978.000,1.000
19.686,19.377,19.132,19.576,19.718,19.563,19.521,19.401,-0.128,0.847,-0.557,-3.143,0.397,1.129,73.333,51979.000,1.000
21.737,21.576,21.280,21.709,21.832,21.608,21.596,21.491,-0.127,0.846,-0.555,-3.021,0.458,1.282,73.333,51980.000,1.000
23.343,23.280,22.970,23.337,23.473,23.187,23.169,23.121,-0.127,0.846,-0.557,-2.899,0.519,1.282,73.333,51981.000,1.000
24.564,24.543,24.269,24.565,24.714,24.404,24.351,24.372,-0.126,0.847,-0.560,-2.808,0.580,1.404,73.333,51982.000,1.000
25.596,25.606,25.408,25.653,25.788,25.513,25.400,25.484,-0.128,0.848,-0.560,-2.686,0.580,1.434,73.333,51983.000,1.000
26.648,26.713,26.617,26.828,26.931,26.738,26.547,26.685,-0.127,0.847,-0.560,-2.655,0.641,1.434,73.333,51984.000,1.000
27.825,27.961,27.968,28.145,28.223,28.125,27.869,28.046,-0.126,0.848,-0.559,-2.594,0.732,1.434,73.333,51985.000,1.000
29.209,29.386,29.472,29.602,29.673,29.655,29.382,29.570,-0.126,0.847,-0.562,-2.319,0.671,1.434,73.333,51986.000,1.000
30.831,30.979,31.098,31.180,31.244,31.276,31.039,31.216,-0.127,0.848,-0.559,-2.197,0.549,1.404,73.333,51987.000,1.000
32.568,32.605,32.719,32.764,32.802,32.857,32.673,32.831,-0.127,0.850,-0.558,-2.045,0.641,1.312,73.333,51988.000,1.000
34.173,34.048,34.155,34.177,34.160,34.238,34.078,34.221,-0.125,0.853,-0.556,-1.984,0.519,1.221,73.333,51989.000,1.000
35.360,35.084,35.207,35.210,35.117,35.245,35.067,35.195,-0.127,0.854,-0.558,-1.923,0.488,1.190,73.333,51990.000,1.000
35.937,35.575,35.735,35.708,35.542,35.736,35.519,35.639,-0.127,0.854,-0.555,-1.892,0.519,0.946,73.333,51991.000,1.000
35.801,35.435,35.632,35.556,35.352,35.581,35.351,35.474,-0.128,0.853,-0.555,-1.984,0.427,0.885,73.333,51992.000,1.000
34.973,34.663,34.888,34.751,34.567,34.753,34.578,34.696,-0.131,0.855,-0.559,-1.953,0.366,0.732,73.333,51993.000,1.000
33.660,33.414,33.667,33.478,33.361,33.438,33.373,33.455,-0.132,0.853,-0.557,-1.923,0.336,0.580,73.333,51994.000,1.000
32.047,31.836,32.115,31.903,31.876,31.826,31.862,31.884,-0.132,0.854,-0.557,-1.862,0.183,0.488,73.333,51995.000,1.000
30.153,29.940,30.232,30.028,30.096,29.955,30.003,29.991,-0.131,0.854,-0.558,-1.892,0.061,0.366,73.333,51996.000,1.000
27.867,27.640,27.925,27.747,27.892,27.739,27.677,27.705,-0.128,0.852,-0.557,-1.831,-0.122,0.214,73.333,51997.000,1.000
25.171,24.941,25.200,25.069,25.241,25.163,24.916,25.063,-0.127,0.851,-0.557,-1.862,-0.183,0.092,73.333,51998.000,1.000
22.293,22.077,22.281,22.228,22.372,22.418,22.009,22.291,-0.126,0.850,-0.559,-1.740,-0.183,0.122,73.333,51999.000,1.000
19.473,19.288,19.386,19.437,19.537,19.689,19.216,19.567,-0.128,0.849,-0.558,-1.709,-0.275,0.061,73.333,52000.000,1.000
16.782,16.649,16.594,16.737,16.823,17.020,16.595,16.910,-0.128,0.849,-0.559,-1.678,-0.183,-0.061,73.333,52001.000,1.000
14.129,14.070,13.863,14.043,14.149,14.332,14.034,14.234,-0.128,0.849,-0.557,-1.678,-0.275,-0.061,73.333,52002.000,1.000
11.427,11.440,11.149,11.301,11.415,11.566,11.428,11.486,-0.126,0.849,-0.559,-1.526,-0.214,0.000,73.333,52003.000,1.000
8.728,8.782,8.517,8.584,8.659,8.800,8.808,8.750,-0.126,0.849,-0.560,-1.343,-0.214,-0.031,73.333,52004.000,1.000
6.145,6.208,6.067,6.005,6.007,6.167,6.271,6.152,-0.127,0.850,-0.557,-1.343,-0.275,-0.031,73.333,52005.000,1.000
3.833,3.883,3.911,3.690,3.643,3.825,3.954,3.832,-0.127,0.847,-0.558,-1.221,-0.244,0.092,73.333,52006.000,1.000
1.914,1.925,2.102,1.718,1.692,1.874,1.966,1.877,-0.126,0.847,-0.561,-1.160,-0.336,0.092,73.333,52007.000,1.000
0.384,0.323,0.579,0.078,0.124,0.289,0.322,0.270,-0.130,0.846,-0.559,-1.038,-0.458,0.183,73.333,52008.000,1.000
-0.877,-1.017,-0.769,-1.305,-1.194,-1.038,-1.031,-1.071,-0.131,0.847,-0.557,-0.946,-0.397,0.214,73.333,52009.000,1.000
-2.110,-2.291,-2.117,-2.595,-2.477,-2.295,-2.272,-2.329,-0.132,0.847,-0.559,-0.854,-0.366,0.183,73.333,52010.000,1.000
-3.563,-3.715,-3.648,-3.984,-3.934,-3.685,-3.641,-3.724,-0.133,0.846,-0.560,-0.702,-0.610,0.366,73.333,52011.000,1.000
-5.375,-5.441,-5.488,-5.620,-5.700,-5.364,-5.329,-5.415,-0.132,0.847,-0.561,-0.610,-0.702,0.458,73.333,52012.000,1.000
-7.494,-7.461,-7.598,-7.520,-7.751,-7.350,-7.346,-7.403,-0.131,0.848,-0.561,-0.488,-0.763,0.488,73.333,52013.000,1.000
-9.676,-9.559,-9.729,-9.502,-9.864,-9.459,-9.486,-9.479,-0.131,0.849,-0.558,-0.458,-0.885,0.519,73.333,52014.000,1.000
-11.662,-11.485,-11.607,-11.332,-11.788,-11.435,-11.479,-11.394,-0.133,0.848,-0.557,-0.397,-0.885,0.427,73.333,52015.000,1.000
-13.272,-13.043,-13.043,-12.813,-13.333,-13.051,-13.089,-12.964,-0.132,0.850,-0.557,-0.458,-0.946,0.610,73.333,52016.000,1.000
-14.444,-14.148,-14.003,-13.877,-14.426,-14.208,-14.201,-14.129,-0.134,0.850,-0.559,-0.336,-0.977,0.671,73.333,52017.000,1.000
-15.221,-14.834,-14.598,-14.600,-15.116,-14.959,-14.851,-14.936,-0.132,0.849,-0.560,-0.366,-1.038,0.702,73.333,52018.000,1.000
-15.661,-15.190,-14.965,-15.099,-15.495,-15.400,-15.150,-15.438,-0.132,0.850,-0.556,-0.275,-1.007,0.641,73.333,52019.000,1.000
-15.873,-15.374,-15.237,-15.492,-15.710,-15.662,-15.272,-15.728,-0.129,0.851,-0.557,-0.336,-1.007,0.702,73.333,52020.000,1.000
-15.956,-15.499,-15.466,-15.808,-15.853,-15.827,-15.350,-15.876,-0.125,0.852,-0.559,-0.275,-0.977,0.763,73.333,52021.000,1.000
-15.941,-15.566,-15.612,-15.978,-15.904,-15.876,-15.407,-15.903,-0.125,0.855,-0.561,-0.275,-0.916,0.885,73.333,52022.000,1.000
-15.806,-15.507,-15.599,-15.921,-15.785,-15.742,-15.396,-15.800,-0.124,0.856,-0.557,-0.366,-0.854,0.824,73.333,52023.000,1.000
-15.547,-15.301,-15.422,-15.652,-15.485,-15.416,-15.293,-15.585,-0.121,0.857,-0.559,-0.366,-0.671,0.885,73.333,52024.000,1.000
-15.292,-15.091,-15.233,-15.360,-15.160,-15.064,-15.207,-15.388,-0.124,0.857,-0.560,-0.427,-0.519,0.916,73.333,52025.000,1.000
-15.187,-15.046,-15.207,-15.247,-14.991,-14.888,-15.258,-15.337,-0.122,0.855,-0.561,-0.519,-0.427,0.916,73.333,52026.000,1.000
-15.314,-15.247,-15.430,-15.408,-15.075,-14.990,-15.506,-15.493,-0.121,0.854,-0.560,-0.549,-0.305,1.068,73.333,52027.000,1.000
-15.684,-15.677,-15.895,-15.830,-15.422,-15.369,-15.950,-15.854,-0.122,0.855,-0.563,-0.610,-0.122,1.068,73.333,52028.000,1.000
-16.187,-16.192,-16.449,-16.362,-15.906,-15.895,-16.461,-16.314,-0.121,0.853,-0.559,-0.671,-0.061,1.099,73.333,52029.000,1.000
-16.611,-16.592,-16.844,-16.773,-16.309,-16.361,-16.822,-16.688,-0.120,0.851,-0.560,-0.732,-0.031,1.099,73.333,52030.000,1.000
-16.675,-16.635,-16.797,-16.788,-16.348,-16.494,-16.772,-16.717,-0.123,0.851,-0.560,-0.641,0.031,1.068,73.333,52031.000,1.000
-16.196,-16.155,-16.158,-16.226,-15.827,-16.088,-16.155,-16.207,-0.122,0.848,-0.560,-0.641,0.122,1.007,73.333,52032.000,1.000
-15.210,-15.179,-15.017,-15.129,-14.771,-15.133,-15.027,-15.169,-0.125,0.851,-0.562,-0.793,0.244,0.916,73.333,52033.000,1.000
-13.856,-13.839,-13.574,-13.674,-13.338,-13.762,-13.561,-13.759,-0.129,0.852,-0.561,-0.763,0.305,0.916,73.333,52034.000,1.000
-12.283,-12.277,-12.007,-12.061,-11.720,-12.166,-11.945,-12.159,-0.128,0.854,-0.562,-0.732,0.336,0.854,73.333,52035.000,1.000
-10.560,-10.556,-10.375,-10.384,-10.024,-10.463,-10.252,-10.450,-0.127,0.852,-0.561,-0.641,0.275,0.793,73.333,52036.000,1.000
-8.748,-8.728,-8.703,-8.687,-8.312,-8.715,-8.508,-8.679,-0.127,0.850,-0.560,-0.763,0.397,0.824,73.333,52037.000,1.000
