EEG 1,EEG 2,EEG 3,EEG 4,EEG 5,EEG 6,EEG 7,EEG 8,Accelerometer X,Accelerometer Y,Accelerometer Z,Gyroscope X,Gyroscope Y,Gyroscope Z,Battery Level,Counter,Validation Indicator
-1.372,-1.535,-1.318,-1.351,-1.310,-1.442,-1.459,-1.384,-0.113,0.873,-0.522,-0.732,-0.336,0.702,73.333,13033.000,1.000
-1.359,-1.535,-1.324,-1.494,-1.390,-1.410,-1.476,-1.332,-0.114,0.873,-0.523,-0.641,-0.244,0.824,73.333,13034.000,1.000
-1.086,-1.229,-1.085,-1.306,-1.220,-1.118,-1.243,-1.030,-0.117,0.871,-0.519,-0.671,-0.183,0.793,73.333,13035.000,1.000
-0.439,-0.507,-0.451,-0.625,-0.626,-0.433,-0.600,-0.363,-0.120,0.872,-0.518,-0.610,-0.275,0.732,73.333,13036.000,1.000
0.383,0.410,0.392,0.310,0.220,0.446,0.266,0.464,-0.123,0.873,-0.518,-0.580,-0.427,0.702,73.333,13037.000,1.000
0.864,0.967,0.916,0.895,0.788,0.976,0.816,0.931,-0.122,0.873,-0.522,-0.610,-0.641,0.488,73.333,13038.000,1.000
0.418,0.541,0.510,0.485,0.454,0.546,0.431,0.452,-0.120,0.872,-0.521,-0.610,-0.824,0.427,73.333,13039.000,1.000
-1.146,-1.067,-1.039,-1.105,-1.017,-1.050,-1.105,-1.166,-0.118,0.873,-0.522,-0.549,-0.854,0.336,73.333,13040.000,1.000
-3.472,-3.467,-3.380,-3.471,-3.302,-3.437,-3.438,-3.556,-0.119,0.873,-0.522,-0.610,-0.916,0.336,73.333,13041.000,1.000
-5.945,-6.007,-5.889,-5.958,-5.798,-5.973,-5.944,-6.086,-0.115,0.872,-0.523,-0.549,-0.885,0.183,73.333,13042.000,1.000
-8.044,-8.141,-8.021,-8.044,-7.961,-8.109,-8.083,-8.222,-0.115,0.872,-0.524,-0.397,-0.793,0.092,73.333,13043.000,1.000
-9.448,-9.542,-9.425,-9.436,-9.435,-9.518,-9.516,-9.635,-0.113,0.876,-0.521,-0.427,-0.793,0.153,73.333,13044.000,1.000
-9.877,-9.946,-9.821,-9.891,-9.932,-9.934,-9.963,-10.053,-0.111,0.874,-0.521,-0.458,-0.671,0.031,73.333,13045.000,1.000
-9.158,-9.203,-9.065,-9.247,-9.292,-9.198,-9.265,-9.321,-0.113,0.875,-0.523,-0.397,-0.732,-0.031,73.333,13046.000,1.000
-7.443,-7.479,-7.358,-7.626,-7.669,-7.478,-7.592,-7.615,-0.115,0.872,-0.524,-0.488,-0.549,-0.061,73.333,13047.000,1.000
-5.215,-5.260,-5.207,-5.460,-5.537,-5.268,-5.425,-5.430,-0.115,0.871,-0.527,-0.519,-0.610,-0.031,73.333,13048.000,1.000
-3.125,-3.186,-3.244,-3.362,-3.537,-3.220,-3.388,-3.391,-0.117,0.870,-0.525,-0.458,-0.580,-0.031,73.333,13049.000,1.000
-1.721,-1.780,-1.959,-1.875,-2.202,-1.865,-1.993,-1.999,-0.118,0.871,-0.521,-0.366,-0.488,0.000,73.333,13050.000,1.000
-1.262,-1.288,-1.553,-1.283,-1.782,-1.438,-1.477,-1.475,-0.118,0.871,-0.520,-0.336,-0.488,0.031,73.333,13051.000,1.000
-1.619,-1.598,-1.859,-1.500,-2.137,-1.800,-1.731,-1.698,-0.115,0.874,-0.521,-0.366,-0.519,0.122,73.333,13052.000,1.000
-2.328,-2.268,-2.419,-2.104,-2.789,-2.485,-2.334,-2.253,-0.116,0.874,-0.523,-0.305,-0.458,0.092,73.333,13053.000,1.000
-2.893,-2.820,-2.800,-2.631,-3.243,-3.002,-2.828,-2.710,-0.116,0.875,-0.523,-0.366,-0.488,0.214,73.333,13054.000,1.000
-3.062,-2.998,-2.833,-2.836,-3.275,-3.101,-2.976,-2.861,-0.116,0.875,-0.525,-0.458,-0.427,0.214,73.333,13055.000,1.000
-2.962,-2.935,-2.697,-2.836,-3.081,-2.937,-2.897,-2.831,-0.115,0.876,-0.519,-0.488,-0.427,0.214,73.333,13056.000,1.000
-2.972,-3.004,-2.758,-2.975,-3.084,-2.919,-2.932,-2.954,-0.118,0.875,-0.519,-0.488,-0.488,0.153,73.333,13057.000,1.000
-3.350,-3.433,-3.217,-3.456,-3.524,-3.314,-3.307,-3.434,-0.115,0.874,-0.523,-0.427,-0.458,0.275,73.333,13058.000,1.000
-4.023,-4.121,-3.945,-4.161,-4.266,-4.023,-3.947,-4.163,-0.117,0.873,-0.521,-0.397,-0.458,0.397,73.333,13059.000,1.000
-4.593,-4.680,-4.519,-4.681,-4.845,-4.609,-4.470,-4.728,-0.115,0.875,-0.522,-0.336,-0.397,0.458,73.333,13060.000,1.000
-4.623,-4.700,-4.505,-4.597,-4.801,-4.607,-4.451,-4.698,-0.115,0.876,-0.521,-0.427,-0.336,0.427,73.333,13061.000,1.000
-3.944,-4.021,-3.758,-3.768,-3.991,-3.846,-3.731,-3.924,-0.115,0.877,-0.525,-0.488,-0.305,0.397,73.333,13062.000,1.000
-2.691,-2.773,-2.462,-2.368,-2.623,-2.500,-2.468,-2.573,-0.114,0.876,-0.524,-0.488,-0.183,0.519,73.333,13063.000,1.000
-1.176,-1.266,-0.982,-0.763,-1.078,-0.941,-0.999,-0.991,-0.115,0.878,-0.522,-0.610,-0.153,0.488,73.333,13064.000,1.000
0.356,0.250,0.413,0.756,0.383,0.543,0.416,0.552,-0.117,0.878,-0.523,-0.702,-0.153,0.580,73.333,13065.000,1.000
1.778,1.645,1.623,2.051,1.679,1.838,1.667,1.929,-0.115,0.877,-0.522,-0.732,-0.122,0.519,73.333,13066.000,1.000
2.982,2.820,2.625,3.057,2.780,2.894,2.707,3.062,-0.116,0.875,-0.524,-0.793,-0.214,0.610,73.333,13067.000,1.000
3.838,3.654,3.371,3.712,3.603,3.638,3.475,3.848,-0.116,0.874,-0.524,-0.824,-0.153,0.519,73.333,13068.000,1.000
4.172,3.968,3.719,3.907,3.980,3.920,3.827,4.122,-0.115,0.875,-0.523,-0.671,-0.153,0.580,73.333,13069.000,1.000
3.913,3.678,3.568,3.608,3.810,3.667,3.666,3.819,-0.115,0.873,-0.522,-0.702,-0.183,0.488,73.333,13070.000,1.000
3.178,2.899,2.981,2.920,3.175,2.986,3.054,3.076,-0.113,0.872,-0.524,-0.641,-0.153,0.519,73.333,13071.000,1.000
2.241,1.921,2.183,2.061,2.313,2.127,2.221,2.181,-0.113,0.874,-0.524,-0.793,-0.092,0.519,73.333,13072.000,1.000
1.458,1.122,1.495,1.331,1.554,1.413,1.506,1.482,-0.113,0.874,-0.524,-0.671,-0.122,0.488,73.333,13073.000,1.000
1.076,0.774,1.156,0.960,1.141,1.073,1.172,1.199,-0.115,0.874,-0.529,-0.641,-0.061,0.549,73.333,13074.000,1.000
1.167,0.959,1.247,1.046,1.175,1.188,1.307,1.378,-0.116,0.873,-0.527,-0.610,-0.092,0.397,73.333,13075.000,1.000
1.613,1.531,1.668,1.496,1.583,1.659,1.781,1.863,-0.116,0.875,-0.526,-0.580,0.031,0.397,73.333,13076.000,1.000
2.148,2.174,2.171,2.061,2.135,2.240,2.298,2.353,-0.118,0.875,-0.523,-0.580,0.153,0.214,73.333,13077.000,1.000
2.532,2.609,2.536,2.512,2.600,2.712,2.612,2.626,-0.117,0.874,-0.524,-0.580,-0.031,0.214,73.333,13078.000,1.000
2.659,2.723,2.674,2.731,2.849,2.966,2.653,2.651,-0.115,0.874,-0.523,-0.519,0.031,0.183,73.333,13079.000,1.000
2.613,2.622,2.654,2.758,2.928,3.040,2.546,2.564,-0.117,0.874,-0.525,-0.580,-0.031,0.153,73.333,13080.000,1.000
2.533,2.473,2.562,2.682,2.930,3.000,2.440,2.487,-0.117,0.875,-0.523,-0.488,-0.031,0.122,73.333,13081.000,1.000
2.448,2.334,2.392,2.525,2.846,2.834,2.354,2.407,-0.117,0.875,-0.523,-0.519,-0.061,0.061,73.333,13082.000,1.000
2.284,2.148,2.111,2.257,2.589,2.502,2.218,2.243,-0.117,0.875,-0.523,-0.580,-0.092,0.122,73.333,13083.000,1.000
1.936,1.806,1.698,1.829,2.079,1.989,1.922,1.907,-0.117,0.876,-0.526,-0.488,-0.092,-0.031,73.333,13084.000,1.000
1.405,1.293,1.207,1.264,1.371,1.378,1.440,1.399,-0.118,0.875,-0.524,-0.488,-0.153,0.000,73.333,13085.000,1.000
0.806,0.715,0.729,0.670,0.640,0.808,0.863,0.811,-0.116,0.875,-0.524,-0.488,-0.122,-0.031,73.333,13086.000,1.000
0.270,0.211,0.332,0.162,0.070,0.377,0.330,0.266,-0.116,0.875,-0.524,-0.488,-0.122,0.000,73.333,13087.000,1.000
-0.101,-0.108,0.051,-0.167,-0.223,0.122,-0.037,-0.109,-0.116,0.876,-0.523,-0.427,-0.214,-0.031,73.333,13088.000,1.000
-0.270,-0.215,-0.119,-0.295,-0.239,0.022,-0.207,-0.262,-0.117,0.874,-0.521,-0.519,-0.092,0.000,73.333,13089.000,1.000
-0.180,-0.061,-0.112,-0.166,0.025,0.114,-0.139,-0.140,-0.116,0.873,-0.523,-0.488,-0.153,-0.061,73.333,13090.000,1.000
0.216,0.397,0.173,0.274,0.556,0.457,0.205,0.297,-0.116,0.873,-0.525,-0.397,-0.214,-0.061,73.333,13091.000,1.000
0.811,1.042,0.687,0.920,1.200,0.967,0.744,0.926,-0.117,0.873,-0.525,-0.488,-0.244,-0.122,73.333,13092.000,1.000
1.382,1.623,1.216,1.524,1.714,1.434,1.275,1.489,-0.118,0.873,-0.524,-0.610,-0.366,-0.061,73.333,13093.000,1.000
1.702,1.895,1.516,1.818,1.891,1.635,1.574,1.737,-0.118,0.871,-0.527,-0.458,-0.397,0.000,73.333,13094.000,1.000
1.734,1.844,1.532,1.775,1.747,1.555,1.600,1.667,-0.119,0.870,-0.524,-0.397,-0.397,-0.061,73.333,13095.000,1.000
1.653,1.700,1.442,1.641,1.516,1.413,1.548,1.536,-0.121,0.872,-0.524,-0.366,-0.427,0.000,73.333,13096.000,1.000
1.698,1.741,1.501,1.720,1.479,1.482,1.679,1.640,-0.121,0.874,-0.524,-0.366,-0.519,-0.031,73.333,13097.000,1.000
2.014,2.093,1.837,2.144,1.779,1.876,2.105,2.075,-0.119,0.876,-0.522,-0.336,-0.519,-0.031,73.333,13098.000,1.000
2.454,2.558,2.259,2.676,2.239,2.370,2.613,2.578,-0.115,0.874,-0.523,-0.366,-0.671,0.092,73.333,13099.000,1.000
2.717,2.803,2.439,2.930,2.527,2.615,2.858,2.771,-0.116,0.873,-0.524,-0.305,-0.671,0.031,73.333,13100.000,1.000
2.654,2.689,2.262,2.739,2.479,2.489,2.711,2.529,-0.115,0.875,-0.525,-0.275,-0.641,0.092,73.333,13101.000,1.000
2.356,2.355,1.905,2.261,2.200,2.151,2.322,2.053,-0.116,0.873,-0.522,-0.366,-0.580,0.153,73.333,13102.000,1.000
1.999,2.001,1.608,1.757,1.884,1.814,1.913,1.618,-0.114,0.874,-0.521,-0.397,-0.580,0.214,73.333,13103.000,1.000
1.582,1.624,1.379,1.293,1.535,1.464,1.509,1.263,-0.115,0.873,-0.523,-0.427,-0.549,0.244,73.333,13104.000,1.000
0.994,1.095,1.052,0.774,1.020,0.952,1.000,0.841,-0.117,0.873,-0.524,-0.397,-0.580,0.336,73.333,13105.000,1.000
0.186,0.348,0.472,0.104,0.255,0.194,0.296,0.219,-0.117,0.876,-0.524,-0.397,-0.610,0.366,73.333,13106.000,1.000
-0.784,-0.566,-0.403,-0.743,-0.718,-0.765,-0.603,-0.628,-0.118,0.873,-0.525,-0.488,-0.610,0.366,73.333,13107.000,1.000
-1.752,-1.487,-1.435,-1.670,-1.723,-1.747,-1.575,-1.578,-0.117,0.873,-0.526,-0.610,-0.610,0.458,73.333,13108.000,1.000
-2.525,-2.212,-2.359,-2.477,-2.532,-2.527,-2.416,-2.419,-0.118,0.875,-0.525,-0.641,-0.671,0.397,73.333,13109.000,1.000
-2.884,-2.517,-2.850,-2.897,-2.893,-2.860,-2.865,-2.873,-0.119,0.875,-0.523,-0.610,-0.580,0.458,73.333,13110.000,1.000
-2.703,-2.306,-2.720,-2.772,-2.662,-2.635,-2.758,-2.767,-0.120,0.875,-0.524,-0.732,-0.641,0.549,73.333,13111.000,1.000
-2.087,-1.747,-2.090,-2.197,-1.976,-2.009,-2.181,-2.200,-0.120,0.873,-0.528,-0.702,-0.793,0.427,73.333,13112.000,1.000
-1.324,-1.150,-1.302,-1.456,-1.178,-1.312,-1.434,-1.477,-0.121,0.871,-0.527,-0.702,-0.824,0.427,73.333,13113.000,1.000
-0.773,-0.808,-0.755,-0.901,-0.653,-0.888,-0.892,-0.962,-0.121,0.871,-0.523,-0.793,-0.824,0.305,73.333,13114.000,1.000
-0.611,-0.786,-0.617,-0.699,-0.548,-0.853,-0.728,-0.804,-0.121,0.873,-0.522,-0.763,-0.793,0.366,73.333,13115.000,1.000
-0.704,-0.874,-0.715,-0.711,-0.678,-1.010,-0.779,-0.839,-0.117,0.875,-0.526,-0.732,-0.946,0.244,73.333,13116.000,1.000
-0.755,-0.776,-0.725,-0.653,-0.724,-1.041,-0.738,-0.784,-0.116,0.873,-0.525,-0.732,-0.854,0.244,73.333,13117.000,1.000
-0.512,-0.312,-0.408,-0.308,-0.440,-0.709,-0.385,-0.431,-0.115,0.873,-0.526,-0.763,-0.793,0.275,73.333,13118.000,1.000
0.052,0.441,0.217,0.299,0.180,-0.026,0.247,0.206,-0.114,0.875,-0.525,-0.702,-0.732,0.336,73.333,13119.000,1.000
0.783,1.221,0.946,0.962,0.942,0.780,0.946,0.937,-0.112,0.876,-0.526,-0.732,-0.671,0.397,73.333,13120.000,1.000
1.426,1.737,1.516,1.429,1.559,1.399,1.455,1.501,-0.112,0.877,-0.525,-0.732,-0.732,0.366,73.333,13121.000,1.000
1.736,1.809,1.726,1.521,1.797,1.603,1.584,1.694,-0.113,0.875,-0.524,-0.854,-0.610,0.427,73.333,13122.000,1.000
1.659,1.519,1.593,1.290,1.658,1.434,1.379,1.543,-0.114,0.879,-0.520,-0.946,-0.458,0.336,73.333,13123.000,1.000
1.358,1.136,1.340,0.981,1.358,1.143,1.079,1.277,-0.115,0.879,-0.525,-0.916,-0.458,0.366,73.333,13124.000,1.000
1.118,0.959,1.248,0.882,1.185,1.019,0.974,1.165,-0.115,0.878,-0.525,-1.038,-0.366,0.336,73.333,13125.000,1.000
1.109,1.074,1.401,1.073,1.257,1.139,1.157,1.274,-0.117,0.878,-0.524,-1.038,-0.366,0.305,73.333,13126.000,1.000
1.187,1.244,1.573,1.299,1.370,1.267,1.395,1.376,-0.117,0.879,-0.525,-1.099,-0.275,0.275,73.333,13127.000,1.000
1.052,1.121,1.436,1.197,1.196,1.089,1.337,1.164,-0.115,0.879,-0.523,-1.099,-0.305,0.244,73.333,13128.000,1.000
0.524,0.541,0.841,0.602,0.577,0.491,0.798,0.515,-0.116,0.879,-0.523,-1.129,-0.153,0.244,73.333,13129.000,1.000
-0.223,-0.289,0.004,-0.251,-0.268,-0.285,-0.029,-0.341,-0.116,0.876,-0.522,-1.129,0.000,0.244,73.333,13130.000,1.000
-0.751,-0.894,-0.610,-0.871,-0.863,-0.777,-0.692,-0.936,-0.115,0.875,-0.524,-1.190,0.000,0.153,73.333,13131.000,1.000
-0.707,-0.890,-0.636,-0.877,-0.831,-0.657,-0.801,-0.911,-0.114,0.873,-0.522,-1.129,0.061,0.153,73.333,13132.000,1.000
-0.065,-0.238,-0.037,-0.230,-0.149,0.047,-0.266,-0.247,-0.114,0.873,-0.522,-1.038,0.153,0.214,73.333,13133.000,1.000
0.845,0.711,0.866,0.740,0.824,0.959,0.649,0.711,-0.115,0.872,-0.522,-0.946,0.244,0.183,73.333,13134.000,1.000
1.638,1.536,1.688,1.635,1.663,1.687,1.567,1.555,-0.112,0.872,-0.523,-1.007,0.397,0.214,73.333,13135.000,1.000
2.116,2.025,2.226,2.237,2.147,2.090,2.237,2.076,-0.109,0.875,-0.525,-0.977,0.549,0.214,73.333,13136.000,1.000
2.223,2.133,2.408,2.453,2.226,2.180,2.518,2.221,-0.107,0.874,-0.526,-0.885,0.702,0.244,73.333,13137.000,1.000
1.947,1.860,2.182,2.227,1.911,1.963,2.327,1.978,-0.106,0.875,-0.526,-0.916,0.763,0.214,73.333,13138.000,1.000
1.317,1.226,1.528,1.557,1.243,1.411,1.663,1.362,-0.105,0.873,-0.531,-0.885,0.946,0.183,73.333,13139.000,1.000
0.534,0.416,0.624,0.647,0.418,0.642,0.752,0.570,-0.104,0.873,-0.530,-0.702,1.221,0.244,73.333,13140.000,1.000
-0.131,-0.299,-0.216,-0.190,-0.291,-0.110,-0.078,-0.115,-0.102,0.873,-0.528,-0.519,1.373,0.397,73.333,13141.000,1.000
-0.586,-0.796,-0.819,-0.800,-0.779,-0.718,-0.682,-0.593,-0.103,0.870,-0.527,-0.427,1.526,0.488,73.333,13142.000,1.000
-0.925,-1.134,-1.221,-1.216,-1.132,-1.202,-1.140,-0.958,-0.103,0.866,-0.526,-0.244,1.587,0.549,73.333,13143.000,1.000
-1.280,-1.429,-1.548,-1.543,-1.482,-1.626,-1.587,-1.333,-0.105,0.865,-0.529,0.000,1.801,0.519,73.333,13144.000,1.000
-1.595,-1.648,-1.773,-1.732,-1.777,-1.894,-1.957,-1.639,-0.109,0.861,-0.530,0.244,1.923,0.580,73.333,13145.000,1.000
-1.627,-1.611,-1.701,-1.589,-1.785,-1.784,-1.999,-1.635,-0.111,0.857,-0.531,0.488,1.862,0.519,73.333,13146.000,1.000
-1.260,-1.250,-1.259,-1.063,-1.403,-1.257,-1.599,-1.235,-0.116,0.856,-0.531,0.671,1.831,0.549,73.333,13147.000,1.000
-0.661,-0.728,-0.638,-0.386,-0.815,-0.561,-0.952,-0.646,-0.120,0.854,-0.531,1.038,1.617,0.549,73.333,13148.000,1.000
-0.117,-0.267,-0.111,0.117,-0.317,-0.016,-0.367,-0.157,-0.126,0.853,-0.528,1.251,1.312,0.397,73.333,13149.000,1.000
0.396,0.233,0.373,0.482,0.132,0.431,0.170,0.283,-0.130,0.851,-0.528,1.495,1.068,0.427,73.333,13150.000,1.000
1.330,1.245,1.279,1.218,1.023,1.291,1.115,1.163,-0.135,0.850,-0.526,1.770,0.580,0.366,73.333,13151.000,1.000
3.180,3.216,3.086,2.891,2.884,3.097,2.959,3.000,-0.139,0.851,-0.528,1.953,0.061,0.214,73.333,13152.000,1.000
6.077,6.202,5.904,5.678,5.844,5.988,5.838,5.929,-0.144,0.854,-0.528,2.167,-0.549,0.061,73.333,13153.000,1.000
9.681,9.809,9.409,9.260,9.539,9.617,9.441,9.600,-0.148,0.856,-0.527,2.167,-1.129,-0.031,73.333,13154.000,1.000
13.493,13.532,13.139,13.124,13.434,13.462,13.284,13.487,-0.150,0.856,-0.527,2.136,-1.465,-0.092,73.333,13155.000,1.000
17.089,17.003,16.698,16.812,17.079,17.087,16.926,17.138,-0.150,0.861,-0.527,2.197,-2.167,-0.244,73.333,13156.000,1.000
20.107,19.939,19.721,19.929,20.109,20.132,19.981,20.179,-0.149,0.865,-0.527,2.106,-2.777,-0.305,73.333,13157.000,1.000
22.270,22.113,21.910,22.177,22.270,22.330,22.173,22.348,-0.146,0.872,-0.527,1.953,-3.326,-0.305,73.333,13158.000,1.000
23.406,23.340,23.084,23.368,23.437,23.511,23.356,23.488,-0.141,0.878,-0.526,1.770,-3.937,-0.488,73.333,13159.000,1.000
23.423,23.467,23.157,23.393,23.554,23.577,23.459,23.505,-0.132,0.888,-0.526,1.099,-4.395,-0.519,73.333,13160.000,1.000
22.213,22.316,22.022,22.142,22.502,22.409,22.365,22.282,-0.122,0.893,-0.524,0.732,-4.608,-0.427,73.333,13161.000,1.000
19.630,19.698,19.519,19.490,20.073,19.842,19.880,19.675,-0.114,0.899,-0.525,0.244,-4.669,-0.366,73.333,13162.000,1.000
15.586,15.530,15.540,15.376,16.116,15.772,15.868,15.602,-0.107,0.901,-0.522,-0.275,-4.669,-0.214,73.333,13163.000,1.000
10.043,9.828,10.043,9.782,10.554,10.171,10.281,10.028,-0.100,0.902,-0.526,-0.885,-4.395,-0.153,73.333,13164.000,1.000
3.096,2.768,3.134,2.819,3.482,3.175,3.256,3.063,-0.095,0.902,-0.525,-1.282,-4.089,0.031,73.333,13165.000,1.000
-4.932,-5.258,-4.839,-5.164,-4.731,-4.853,-4.813,-4.944,-0.091,0.899,-0.523,-1.740,-3.693,0.153,73.333,13166.000,1.000
-13.549,-13.739,-13.359,-13.661,-13.511,-13.415,-13.397,-13.493,-0.092,0.896,-0.526,-2.106,-3.204,0.183,73.333,13167.000,1.000
-22.168,-22.151,-21.843,-22.107,-22.204,-21.964,-21.934,-22.030,-0.090,0.891,-0.527,-2.441,-2.808,0.366,73.333,13168.000,1.000
-30.197,-30.004,-29.734,-29.970,-30.211,-29.961,-29.888,-30.000,-0.093,0.886,-0.527,-2.655,-2.319,0.397,73.333,13169.000,1.000
-37.010,-36.739,-36.452,-36.681,-36.940,-36.806,-36.672,-36.786,-0.097,0.878,-0.531,-2.777,-1.831,0.366,73.333,13170.000,1.000
-41.965,-41.714,-41.380,-41.613,-41.800,-41.835,-41.645,-41.726,-0.101,0.872,-0.531,-2.808,-1.404,0.458,73.333,13171.000,1.000
-44.605,-44.422,-44.048,-44.281,-44.374,-44.534,-44.328,-44.348,-0.106,0.866,-0.532,-2.960,-1.099,0.336,73.333,13172.000,1.000
-44.817,-44.699,-44.319,-44.531,-44.559,-44.752,-44.589,-44.535,-0.112,0.866,-0.531,-2.808,-0.793,0.244,73.333,13173.000,1.000
-42.820,-42.728,-42.384,-42.535,-42.561,-42.705,-42.639,-42.501,-0.113,0.861,-0.529,-2.808,-0.580,0.214,73.333,13174.000,1.000
-38.844,-38.739,-38.464,-38.510,-38.601,-38.662,-38.704,-38.490,-0.114,0.858,-0.532,-2.686,-0.366,0.092,73.333,13175.000,1.000
-32.933,-32.807,-32.622,-32.550,-32.724,-32.718,-32.827,-32.585,-0.114,0.855,-0.534,-2.533,-0.214,0.061,73.333,13176.000,1.000
-25.134,-25.010,-24.907,-24.760,-24.964,-24.944,-25.041,-24.841,-0.114,0.854,-0.534,-2.350,-0.122,0.000,73.333,13177.000,1.000
-15.750,-15.653,-15.584,-15.427,-15.591,-15.608,-15.618,-15.504,-0.117,0.851,-0.534,-2.167,0.061,0.061,73.333,13178.000,1.000
-5.457,-5.386,-5.293,-5.148,-5.265,-5.328,-5.234,-5.193,-0.119,0.850,-0.535,-1.831,0.031,0.000,73.333,13179.000,1.000
4.810,4.890,5.018,5.185,5.057,4.976,5.131,5.147,-0.119,0.852,-0.539,-1.556,0.153,0.153,73.333,13180.000,1.000
13.987,14.110,14.234,14.468,14.270,14.188,14.349,14.382,-0.120,0.856,-0.536,-1.404,0.214,0.214,73.333,13181.000,1.000
21.069,21.242,21.317,21.612,21.351,21.256,21.397,21.448,-0.117,0.860,-0.533,-1.160,0.214,0.183,73.333,13182.000,1.000
25.521,25.697,25.713,26.005,25.746,25.623,25.752,25.788,-0.119,0.864,-0.533,-0.824,0.275,0.275,73.333,13183.000,1.000
27.402,27.499,27.471,27.690,27.501,27.361,27.493,27.489,-0.122,0.868,-0.531,-0.793,0.427,0.427,73.333,13184.000,1.000
27.151,27.106,27.024,27.156,27.076,26.941,27.071,27.040,-0.124,0.872,-0.530,-0.732,0.366,0.488,73.333,13185.000,1.000
25.247,25.074,24.882,24.987,25.008,24.892,24.998,24.984,-0.127,0.874,-0.528,-0.641,0.305,0.580,73.333,13186.000,1.000
22.021,21.804,21.437,21.597,21.684,21.586,21.648,21.695,-0.132,0.875,-0.529,-0.702,0.122,0.549,73.333,13187.000,1.000
17.664,17.498,16.933,17.195,17.311,17.224,17.238,17.364,-0.135,0.880,-0.528,-0.763,-0.031,0.610,73.333,13188.000,1.000
12.230,12.156,11.449,11.795,11.925,11.838,11.827,11.999,-0.139,0.883,-0.527,-0.854,-0.366,0.580,73.333,13189.000,1.000
5.791,5.791,5.061,5.421,5.559,5.464,5.481,5.615,-0.137,0.883,-0.528,-0.977,-0.580,0.488,73.333,13190.000,1.000
-1.330,-1.293,-1.917,-1.625,-1.509,-1.599,-1.497,-1.488,-0.134,0.885,-0.525,-1.190,-0.854,0.397,73.333,13191.000,1.000
-8.480,-8.429,-8.867,-8.682,-8.655,-8.708,-8.476,-8.634,-0.131,0.884,-0.525,-1.312,-1.068,0.275,73.333,13192.000,1.000
-14.766,-14.697,-14.952,-14.847,-14.979,-14.969,-14.593,-14.892,-0.126,0.885,-0.525,-1.495,-1.007,0.244,73.333,13193.000,1.000
-19.377,-19.269,-19.419,-19.319,-19.638,-19.566,-19.072,-19.441,-0.122,0.886,-0.524,-1.770,-1.129,0.244,73.333,13194.000,1.000
-21.854,-21.695,-21.820,-21.659,-22.137,-22.019,-21.483,-21.836,-0.119,0.885,-0.525,-1.892,-1.038,0.275,73.333,13195.000,1.000
-22.205,-22.022,-22.136,-21.905,-22.463,-22.314,-21.832,-22.100,-0.115,0.886,-0.523,-1.953,-0.946,0.275,73.333,13196.000,1.000
-20.768,-20.614,-20.682,-20.428,-20.960,-20.781,-20.442,-20.589,-0.112,0.886,-0.521,-2.045,-0.824,0.305,73.333,13197.000,1.000
-17.834,-17.768,-17.765,-17.557,-17.960,-17.745,-17.602,-17.640,-0.109,0.884,-0.523,-2.228,-0.549,0.275,73.333,13198.000,1.000
-13.590,-13.656,-13.591,-13.499,-13.696,-13.443,-13.492,-13.483,-0.107,0.884,-0.523,-2.441,-0.366,0.244,73.333,13199.000,1.000
-8.336,-8.553,-8.442,-8.523,-8.480,-8.198,-8.382,-8.401,-0.106,0.880,-0.521,-2.502,0.000,0.275,73.333,13200.000,1.000
-2.640,-2.995,-2.838,-3.103,-2.846,-2.546,-2.810,-2.879,-0.106,0.877,-0.519,-2.655,0.305,0.305,73.333,13201.000,1.000
2.734,2.294,2.498,2.132,2.493,2.803,2.488,2.410,-0.106,0.877,-0.522,-2.594,0.671,0.305,73.333,13202.000,1.000
7.045,6.611,6.853,6.530,6.832,7.144,6.800,6.766,-0.107,0.875,-0.522,-2.625,0.793,0.305,73.333,13203.000,1.000
9.683,9.364,9.628,9.454,9.566,9.864,9.523,9.552,-0.108,0.874,-0.522,-2.655,1.007,0.305,73.333,13204.000,1.000
10.349,10.225,10.490,10.476,10.357,10.615,10.317,10.399,-0.111,0.874,-0.520,-2.594,1.312,0.305,73.333,13205.000,1.000
9.183,9.251,9.499,9.587,9.283,9.469,9.255,9.374,-0.112,0.871,-0.518,-2.716,1.526,0.122,73.333,13206.000,1.000
6.703,6.866,7.091,7.207,6.811,6.903,6.803,6.941,-0.114,0.870,-0.521,-2.716,1.709,0.031,73.333,13207.000,1.000
3.679,3.790,3.994,4.084,3.691,3.693,3.703,3.843,-0.114,0.871,-0.523,-2.563,1.892,0.092,73.333,13208.000,1.000
0.812,0.768,0.949,0.994,0.673,0.603,0.678,0.815,-0.114,0.872,-0.521,-2.533,2.045,-0.092,73.333,13209.000,1.000
-1.464,-1.652,-1.512,-1.506,-1.729,-1.837,-1.770,-1.622,-0.114,0.871,-0.517,-2.411,2.136,-0.183,73.333,13210.000,1.000
-2.956,-3.164,-3.100,-3.110,-3.251,-3.346,-3.370,-3.183,-0.114,0.872,-0.518,-2.319,2.258,-0.275,73.333,13211.000,1.000
-3.610,-3.684,-3.719,-3.725,-3.825,-3.835,-4.021,-3.783,-0.116,0.872,-0.517,-2.228,2.319,-0.305,73.333,13212.000,1.000
-3.443,-3.295,-3.407,-3.401,-3.494,-3.366,-3.740,-3.477,-0.115,0.872,-0.516,-2.228,2.380,-0.305,73.333,13213.000,1.000
-2.597,-2.249,-2.382,-2.351,-2.448,-2.193,-2.716,-2.474,-0.115,0.872,-0.517,-2.106,2.563,-0.183,73.333,13214.000,1.000
-1.292,-0.833,-0.954,-0.876,-0.971,-0.656,-1.232,-1.049,-0.113,0.873,-0.518,-1.953,2.747,-0.031,73.333,13215.000,1.000
0.329,0.805,0.688,0.817,0.730,1.031,0.505,0.626,-0.114,0.873,-0.518,-1.831,2.838,0.000,73.333,13216.000,1.000
2.283,2.713,2.578,2.719,2.643,2.881,2.476,2.565,-0.114,0.872,-0.521,-1.740,2.869,0.061,73.333,13217.000,1.000
4.732,5.083,4.915,5.010,4.953,5.096,4.844,4.936,-0.111,0.871,-0.517,-1.617,3.021,0.214,73.333,13218.000,1.000
7.670,7.937,7.734,7.757,7.730,7.762,7.654,7.765,-0.112,0.873,-0.521,-1.343,2.960,0.488,73.333,13219.000,1.000
10.678,10.871,10.656,10.646,10.642,10.571,10.557,10.674,-0.115,0.870,-0.522,-1.129,3.021,0.610,73.333,13220.000,1.000
13.057,13.189,13.009,13.034,13.038,12.890,12.888,12.986,-0.115,0.869,-0.522,-0.977,3.052,0.702,73.333,13221.000,1.000
14.243,14.334,14.238,14.331,14.340,14.143,14.075,14.139,-0.115,0.868,-0.519,-0.671,3.021,0.854,73.333,13222.000,1.000
14.205,14.295,14.298,14.433,14.446,14.228,14.058,14.084,-0.116,0.866,-0.521,-0.519,2.899,1.129,73.333,13223.000,1.000
13.339,13.482,13.543,13.666,13.674,13.457,13.207,13.203,-0.118,0.866,-0.522,-0.183,2.838,1.282,73.333,13224.000,1.000
12.060,12.289,12.338,12.409,12.410,12.192,11.930,11.906,-0.121,0.864,-0.522,0.061,2.655,1.251,73.333,13225.000,1.000
10.544,10.842,10.827,10.840,10.848,10.615,10.418,10.377,-0.124,0.861,-0.522,0.214,2.594,1.434,73.333,13226.000,1.000
8.836,9.148,9.060,9.045,9.077,8.832,8.739,8.673,-0.124,0.863,-0.523,0.458,2.380,1.495,73.333,13227.000,1.000
7.149,7.415,7.293,7.305,7.354,7.133,7.124,7.026,-0.124,0.861,-0.521,0.702,2.014,1.526,73.333,13228.000,1.000
5.813,5.994,5.910,5.991,6.028,5.878,5.910,5.769,-0.125,0.861,-0.522,0.854,1.770,1.648,73.333,13229.000,1.000
5.000,5.085,5.092,5.250,5.248,5.188,5.240,5.042,-0.123,0.865,-0.526,1.038,1.587,1.678,73.333,13230.000,1.000
4.592,4.575,4.680,4.883,4.856,4.854,4.934,4.670,-0.122,0.865,-0.524,1.221,1.129,1.862,73.333,13231.000,1.000
4.283,4.157,4.328,4.526,4.526,4.501,4.640,4.321,-0.120,0.866,-0.528,1.221,0.885,1.770,73.333,13232.000,1.000
3.845,3.632,3.812,3.944,4.036,3.905,4.129,3.791,-0.119,0.867,-0.530,1.434,0.641,1.770,73.333,13233.000,1.000
3.270,3.028,3.154,3.166,3.395,3.121,3.425,3.111,-0.121,0.867,-0.530,1.648,0.366,1.740,73.333,13234.000,1.000
2.812,2.597,2.630,2.502,2.870,2.476,2.815,2.542,-0.121,0.868,-0.530,1.770,-0.061,1.709,73.333,13235.000,1.000
2.838,2.659,2.613,2.380,2.847,2.384,2.704,2.443,-0.121,0.871,-0.531,1.801,-0.305,1.709,73.333,13236.000,1.000
3.553,3.383,3.310,3.056,3.559,3.059,3.348,3.033,-0.121,0.872,-0.532,1.740,-0.549,1.617,73.333,13237.000,1.000
4.927,4.733,4.699,4.503,4.972,4.462,4.752,4.330,-0.122,0.873,-0.532,1.770,-0.916,1.587,73.333,13238.000,1.000
6.641,6.420,6.460,6.354,6.717,6.255,6.569,6.054,-0.121,0.873,-0.528,1.740,-1.099,1.556,73.333,13239.000,1.000
8.121,7.912,8.022,7.977,8.173,7.854,8.164,7.646,-0.124,0.875,-0.528,1.709,-1.495,1.526,73.333,13240.000,1.000
8.838,8.710,8.860,8.822,8.814,8.732,8.967,8.572,-0.124,0.873,-0.528,1.526,-1.740,1.434,73.333,13241.000,1.000
8.658,8.671,8.828,8.752,8.556,8.744,8.838,8.660,-0.122,0.874,-0.528,1.556,-2.014,1.343,73.333,13242.000,1.000
7.901,8.059,8.198,8.060,7.763,8.157,8.088,8.142,-0.120,0.875,-0.531,1.495,-2.197,1.190,73.333,13243.000,1.000
6.987,7.209,7.321,7.117,6.856,7.317,7.115,7.334,-0.117,0.877,-0.530,1.282,-2.533,1.160,73.333,13244.000,1.000
6.147,6.302,6.397,6.131,6.037,6.420,6.137,6.415,-0.114,0.880,-0.533,1.190,-2.625,1.099,73.333,13245.000,1.000
5.338,5.319,5.415,5.099,5.218,5.451,5.133,5.386,-0.110,0.879,-0.531,1.068,-2.747,1.007,73.333,13246.000,1.000
4.252,4.042,4.155,3.802,4.072,4.184,3.858,4.051,-0.106,0.880,-0.534,0.916,-2.747,0.946,73.333,13247.000,1.000
2.620,2.281,2.411,2.043,2.344,2.430,2.102,2.247,-0.101,0.879,-0.534,0.793,-2.747,0.916,73.333,13248.000,1.000
0.511,0.119,0.257,-0.095,0.141,0.287,-0.038,0.090,-0.100,0.877,-0.533,0.580,-2.594,0.854,73.333,13249.000,1.000
-1.666,-2.074,-1.947,-2.232,-2.096,-1.870,-2.160,-2.041,-0.100,0.874,-0.532,0.519,-2.563,0.885,73.333,13250.000,1.000
-3.497,-3.924,-3.831,-3.991,-3.949,-3.691,-3.881,-3.796,-0.101,0.873,-0.529,0.366,-2.441,0.885,73.333,13251.000,1.000
-4.944,-5.400,-5.355,-5.369,-5.392,-5.177,-5.217,-5.193,-0.105,0.871,-0.530,0.244,-2.197,0.916,73.333,13252.000,1.000
-6.373,-6.847,-6.840,-6.756,-6.797,-6.667,-6.570,-6.602,-0.108,0.873,-0.530,0.183,-2.167,0.671,73.333,13253.000,1.000
-8.279,-8.737,-8.737,-8.647,-8.653,-8.596,-8.440,-8.484,-0.107,0.871,-0.533,0.092,-2.136,0.641,73.333,13254.000,1.000
-10.856,-11.261,-11.243,-11.204,-11.150,-11.133,-11.006,-11.014,-0.106,0.871,-0.532,0.000,-2.136,0.458,73.333,13255.000,1.000
-13.801,-14.140,-14.101,-14.103,-14.010,-14.006,-13.956,-13.911,-0.107,0.869,-0.530,0.061,-2.014,0.336,73.333,13256.000,1.000
-16.573,-16.852,-16.824,-16.813,-16.730,-16.726,-16.739,-16.667,-0.109,0.863,-0.533,0.031,-2.014,0.244,73.333,13257.000,1.000
-18.713,-18.929,-18.981,-18.908,-18.873,-18.852,-18.878,-18.823,-0.109,0.862,-0.531,0.183,-1.953,0.214,73.333,13258.000,1.000
-20.003,-20.133,-20.330,-20.188,-20.202,-20.144,-20.137,-20.137,-0.110,0.864,-0.531,0.122,-1.831,0.122,73.333,13259.000,1.000
-20.328,-20.363,-20.691,-20.534,-20.560,-20.454,-20.402,-20.461,-0.113,0.865,-0.533,0.031,-1.831,0.092,73.333,13260.000,1.000
-19.482,-19.460,-19.811,-19.726,-19.711,-19.575,-19.493,-19.572,-0.114,0.866,-0.532,0.153,-1.831,-0.092,73.333,13261.000,1.000
-17.263,-17.259,-17.502,-17.548,-17.456,-17.333,-17.251,-17.294,-0.114,0.866,-0.526,0.153,-1.862,-0.183,73.333,13262.000,1.000
-13.733,-13.809,-13.871,-14.043,-13.869,-13.814,-13.758,-13.731,-0.114,0.866,-0.532,0.092,-1.801,-0.183,73.333,13263.000,1.000
-9.414,-9.570,-9.472,-9.707,-9.473,-9.535,-9.498,-9.412,-0.114,0.868,-0.533,0.031,-1.831,-0.214,73.333,13264.000,1.000
-5.059,-5.233,-5.048,-5.277,-5.018,-5.217,-5.155,-5.042,-0.116,0.868,-0.533,0.000,-1.984,-0.183,73.333,13265.000,1.000
-1.226,-1.340,-1.142,-1.324,-1.079,-1.393,-1.250,-1.134,-0.116,0.868,-0.532,0.031,-1.923,-0.183,73.333,13266.000,1.000
1.858,1.841,2.016,1.893,2.088,1.716,1.954,2.082,-0.113,0.870,-0.533,-0.031,-1.984,-0.244,73.333,13267.000,1.000
4.222,4.276,4.418,4.366,4.468,4.128,4.416,4.577,-0.113,0.870,-0.532,-0.092,-1.953,-0.122,73.333,13268.000,1.000
5.906,5.977,6.083,6.114,6.084,5.874,6.124,6.327,-0.114,0.872,-0.531,-0.153,-1.923,-0.153,73.333,13269.000,1.000
6.822,6.881,6.939,7.040,6.878,6.850,6.993,7.224,-0.112,0.875,-0.532,-0.153,-1.862,-0.061,73.333,13270.000,1.000
6.822,6.877,6.878,6.994,6.756,6.888,6.916,7.138,-0.111,0.878,-0.528,-0.366,-1.801,-0.061,73.333,13271.000,1.000
5.780,5.861,5.799,5.860,5.629,5.849,5.809,5.978,-0.111,0.879,-0.530,-0.580,-1.709,-0.061,73.333,13272.000,1.000
3.747,3.861,3.753,3.712,3.558,3.780,3.740,3.829,-0.111,0.879,-0.528,-0.702,-1.617,-0.061,73.333,13273.000,1.000
1.047,1.183,1.066,0.938,0.879,1.049,1.045,1.076,-0.111,0.877,-0.526,-1.038,-1.434,0.031,73.333,13274.000,1.000
-1.720,-1.558,-1.646,-1.789,-1.788,-1.683,-1.665,-1.631,-0.112,0.876,-0.531,-1.068,-1.221,0.031,73.333,13275.000,1.000
-3.953,-3.738,-3.780,-3.862,-3.861,-3.805,-3.804,-3.716,-0.110,0.875,-0.528,-1.190,-1.160,0.153,73.333,13276.000,1.000
-5.468,-5.174,-5.172,-5.159,-5.224,-5.201,-5.219,-5.080,-0.112,0.876,-0.526,-1.312,-1.129,0.122,73.333,13277.000,1.000
-6.485,-6.117,-6.072,-5.985,-6.165,-6.183,-6.161,-6.020,-0.112,0.876,-0.529,-1.404,-0.977,0.122,73.333,13278.000,1.000
-7.253,-6.866,-6.772,-6.661,-6.952,-7.033,-6.910,-6.820,-0.113,0.875,-0.529,-1.404,-0.854,0.122,73.333,13279.000,1.000
-7.692,-7.366,-7.227,-7.137,-7.478,-7.623,-7.389,-7.376,-0.113,0.874,-0.529,-1.648,-0.763,0.061,73.333,13280.000,1.000
-7.460,-7.241,-7.102,-7.039,-7.357,-7.516,-7.211,-7.267,-0.116,0.873,-0.525,-1.740,-0.824,0.000,73.333,13281.000,1.000
-6.372,-6.241,-6.184,-6.115,-6.367,-6.464,-6.132,-6.232,-0.116,0.873,-0.527,-1.892,-0.763,-0.061,73.333,13282.000,1.000
-4.569,-4.470,-4.573,-4.459,-4.627,-4.621,-4.284,-4.409,-0.115,0.871,-0.531,-1.892,-0.702,-0.061,73.333,13283.000,1.000
-2.333,-2.220,-2.519,-2.343,-2.419,-2.323,-2.004,-2.140,-0.115,0.872,-0.531,-1.892,-0.732,-0.061,73.333,13284.000,1.000
0.224,0.357,-0.107,0.117,0.131,0.279,0.536,0.398,-0.118,0.871,-0.531,-1.923,-0.824,-0.122,73.333,13285.000,1.000
3.174,3.292,2.742,2.992,3.081,3.240,3.388,3.258,-0.118,0.871,-0.530,-1.953,-0.763,-0.183,73.333,13286.000,1.000
6.355,6.414,5.879,6.139,6.269,6.411,6.432,6.320,-0.119,0.871,-0.530,-1.953,-0.641,-0.214,73.333,13287.000,1.000
9.219,9.198,8.780,9.043,9.153,9.265,9.207,9.124,-0.119,0.873,-0.527,-1.953,-0.732,-0.305,73.333,13288.000,1.000
11.139,11.055,10.824,11.088,11.105,11.193,11.151,11.105,-0.117,0.875,-0.527,-1.984,-0.732,-0.305,73.333,13289.000,1.000
11.869,11.782,11.745,11.997,11.877,11.962,12.021,12.006,-0.116,0.875,-0.527,-2.167,-0.732,-0.275,73.333,13290.000,1.000
11.690,11.690,11.778,11.998,11.767,11.866,12.032,12.042,-0.117,0.876,-0.525,-2.106,-0.702,-0.244,73.333,13291.000,1.000
11.062,11.230,11.332,11.506,11.255,11.372,11.569,11.605,-0.117,0.877,-0.525,-2.136,-0.702,-0.214,73.333,13292.000,1.000
10.264,10.607,10.636,10.781,10.589,10.722,10.846,10.919,-0.119,0.876,-0.524,-2.319,-0.610,-0.214,73.333,13293.000,1.000
9.262,9.691,9.623,9.767,9.659,9.799,9.788,9.909,-0.118,0.875,-0.524,-2.411,-0.610,-0.305,73.333,13294.000,1.000
7.894,8.275,8.133,8.288,8.242,8.368,8.248,8.403,-0.118,0.873,-0.526,-2.411,-0.610,-0.275,73.333,13295.000,1.000
6.111,6.346,6.161,6.312,6.308,6.387,6.250,6.399,-0.119,0.876,-0.529,-2.441,-0.458,-0.214,73.333,13296.000,1.000
3.984,4.050,3.848,3.963,4.013,4.018,3.948,4.049,-0.116,0.875,-0.525,-2.350,-0.549,-0.061,73.333,13297.000,1.000
1.651,1.592,1.401,1.451,1.575,1.518,1.521,1.566,-0.117,0.875,-0.524,-2.411,-0.427,0.031,73.333,13298.000,1.000
-0.720,-0.826,-0.954,-0.986,-0.813,-0.879,-0.859,-0.842,-0.118,0.876,-0.525,-2.350,-0.366,0.000,73.333,13299.000,1.000
-2.836,-2.924,-2.925,-3.030,-2.894,-2.904,-2.920,-2.891,-0.115,0.877,-0.527,-2.350,-0.336,-0.031,73.333,13300.000,1.000
-4.291,-4.345,-4.177,-4.314,-4.319,-4.227,-4.301,-4.226,-0.115,0.876,-0.528,-2.319,-0.275,-0.092,73.333,13301.000,1.000
-4.853,-4.900,-4.575,-4.690,-4.887,-4.683,-4.815,-4.683,-0.117,0.875,-0.527,-2.350,-0.275,-0.061,73.333,13302.000,1.000
-4.641,-4.707,-4.294,-4.358,-4.697,-4.415,-4.606,-4.428,-0.116,0.875,-0.523,-2.472,-0.336,-0.061,73.333,13303.000,1.000
-4.043,-4.106,-3.717,-3.741,-4.093,-3.813,-4.066,-3.867,-0.115,0.874,-0.528,-2.350,-0.305,0.061,73.333,13304.000,1.000
-3.381,-3.386,-3.131,-3.140,-3.380,-3.203,-3.500,-3.306,-0.115,0.871,-0.527,-2.289,-0.214,0.000,73.333,13305.000,1.000
-2.639,-2.540,-2.483,-2.505,-2.568,-2.566,-2.862,-2.687,-0.117,0.872,-0.525,-2.167,-0.061,0.061,73.333,13306.000,1.000
-1.584,-1.383,-1.520,-1.582,-1.457,-1.645,-1.883,-1.731,-0.118,0.869,-0.524,-2.136,-0.092,0.153,73.333,13307.000,1.000
-0.037,0.210,-0.057,-0.171,0.115,-0.217,-0.366,-0.239,-0.119,0.870,-0.526,-2.045,-0.122,0.092,73.333,13308.000,1.000
1.901,2.113,1.811,1.651,2.052,1.667,1.582,1.675,-0.120,0.867,-0.528,-1.984,-0.183,0.122,73.333,13309.000,1.000
3.867,3.986,3.740,3.557,4.013,3.680,3.594,3.629,-0.120,0.869,-0.524,-1.892,-0.244,0.122,73.333,13310.000,1.000
5.452,5.478,5.333,5.165,5.603,5.411,5.263,5.211,-0.122,0.867,-0.527,-1.678,-0.366,0.122,73.333,13311.000,1.000
6.346,6.337,6.280,6.170,6.507,6.511,6.262,6.113,-0.123,0.868,-0.522,-1.648,-0.275,0.061,73.333,13312.000,1.000
6.460,6.493,6.488,6.450,6.624,6.818,6.471,6.260,-0.122,0.867,-0.523,-1.587,-0.366,0.122,73.333,13313.000,1.000
5.894,6.024,6.042,6.047,6.060,6.373,5.966,5.770,-0.123,0.869,-0.525,-1.465,-0.427,0.122,73.333,13314.000,1.000
4.878,5.105,5.131,5.118,5.057,5.372,4.960,4.860,-0.124,0.870,-0.521,-1.312,-0.488,0.092,73.333,13315.000,1.000
3.719,3.990,4.016,3.926,3.912,4.109,3.746,3.776,-0.123,0.869,-0.524,-1.160,-0.549,0.153,73.333,13316.000,1.000
2.638,2.871,2.895,2.701,2.824,2.817,2.552,2.678,-0.121,0.871,-0.523,-1.160,-0.641,0.122,73.333,13317.000,1.000
1.703,1.826,1.842,1.577,1.849,1.612,1.487,1.623,-0.120,0.871,-0.523,-1.160,-0.732,0.092,73.333,13318.000,1.000
0.857,0.838,0.834,0.587,0.945,0.518,0.549,0.610,-0.119,0.873,-0.524,-1.160,-0.793,0.122,73.333,13319.000,1.000
0.034,-0.107,-0.131,-0.275,0.077,-0.455,-0.290,-0.341,-0.117,0.874,-0.524,-1.068,-0.732,0.092,73.333,13320.000,1.000
-0.687,-0.903,-0.902,-0.923,-0.645,-1.192,-0.936,-1.092,-0.115,0.875,-0.522,-1.068,-0.732,0.183,73.333,13321.000,1.000
-1.142,-1.389,-1.273,-1.228,-1.057,-1.551,-1.241,-1.472,-0.115,0.876,-0.522,-1.007,-0.641,0.305,73.333,13322.000,1.000
-1.289,-1.541,-1.226,-1.204,-1.153,-1.560,-1.214,-1.473,-0.117,0.875,-0.526,-1.007,-0.580,0.244,73.333,13323.000,1.000
-1.363,-1.608,-1.083,-1.142,-1.210,-1.524,-1.149,-1.384,-0.116,0.877,-0.527,-0.916,-0.549,0.397,73.333,13324.000,1.000
-1.646,-1.888,-1.229,-1.367,-1.538,-1.770,-1.378,-1.555,-0.113,0.875,-0.526,-0.916,-0.488,0.488,73.333,13325.000,1.000
-2.169,-2.421,-1.758,-1.926,-2.169,-2.334,-1.954,-2.071,-0.113,0.874,-0.527,-0.916,-0.336,0.427,73.333,13326.000,1.000
-2.817,-3.085,-2.536,-2.679,-2.951,-3.066,-2.742,-2.812,-0.114,0.873,-0.528,-0.977,-0.305,0.458,73.333,13327.000,1.000
-3.493,-3.761,-3.386,-3.471,-3.723,-3.799,-3.570,-3.615,-0.115,0.871,-0.526,-0.977,-0.122,0.519,73.333,13328.000,1.000
-4.101,-4.336,-4.131,-4.152,-4.344,-4.387,-4.265,-4.316,-0.114,0.871,-0.526,-0.916,-0.183,0.549,73.333,13329.000,1.000
-4.494,-4.661,-4.592,-4.564,-4.668,-4.687,-4.643,-4.740,-0.115,0.871,-0.525,-0.763,-0.061,0.519,73.333,13330.000,1.000
-4.558,-4.636,-4.655,-4.608,-4.615,-4.626,-4.614,-4.772,-0.115,0.869,-0.527,-0.732,0.031,0.549,73.333,13331.000,1.000
-4.352,-4.340,-4.393,-4.366,-4.283,-4.307,-4.291,-4.486,-0.115,0.869,-0.529,-0.580,0.031,0.519,73.333,13332.000,1.000
-3.985,-3.905,-3.940,-3.971,-3.820,-3.863,-3.838,-4.015,-0.117,0.869,-0.527,-0.458,0.061,0.549,73.333,13333.000,1.000
-3.517,-3.402,-3.388,-3.499,-3.318,-3.366,-3.348,-3.462,-0.119,0.870,-0.526,-0.427,0.183,0.549,73.333,13334.000,1.000
-2.994,-2.875,-2.801,-2.976,-2.816,-2.855,-2.857,-2.901,-0.119,0.864,-0.526,-0.366,0.061,0.488,73.333,13335.000,1.000
-2.423,-2.319,-2.207,-2.381,-2.288,-2.319,-2.340,-2.343,-0.119,0.864,-0.526,-0.183,0.061,0.549,73.333,13336.000,1.000
-1.790,-1.705,-1.611,-1.700,-1.698,-1.736,-1.750,-1.768,-0.122,0.865,-0.529,-0.153,-0.031,0.580,73.333,13337.000,1.000
-1.093,-1.007,-0.998,-0.943,-1.040,-1.096,-1.055,-1.146,-0.122,0.865,-0.529,0.000,-0.183,0.458,73.333,13338.000,1.000
-0.389,-0.275,-0.379,-0.176,-0.387,-0.443,-0.298,-0.488,-0.125,0.865,-0.531,0.122,-0.214,0.458,73.333,13339.000,1.000
0.255,0.406,0.234,0.530,0.190,0.171,0.446,0.178,-0.125,0.867,-0.532,0.244,-0.305,0.397,73.333,13340.000,1.000
0.870,1.050,0.886,1.193,0.749,0.786,1.171,0.883,-0.125,0.867,-0.529,0.336,-0.397,0.275,73.333,13341.000,1.000
1.520,1.718,1.607,1.861,1.385,1.474,1.894,1.649,-0.124,0.866,-0.529,0.458,-0.580,0.275,73.333,13342.000,1.000
2.247,2.457,2.390,2.571,2.164,2.273,2.637,2.469,-0.126,0.868,-0.527,0.549,-0.793,0.244,73.333,13343.000,1.000
3.040,3.237,3.193,3.324,3.053,3.143,3.390,3.295,-0.126,0.870,-0.530,0.610,-0.977,0.244,73.333,13344.000,1.000
3.807,3.936,3.910,4.033,3.906,3.964,4.060,4.016,-0.125,0.871,-0.529,0.671,-1.129,0.244,73.333,13345.000,1.000
4.405,4.390,4.404,4.552,4.515,4.578,4.500,4.489,-0.125,0.872,-0.531,0.671,-1.221,0.305,73.333,13346.000,1.000
4.633,4.432,4.504,4.689,4.666,4.780,4.528,4.548,-0.124,0.874,-0.530,0.519,-1.282,0.336,73.333,13347.000,1.000
4.340,3.991,4.102,4.320,4.255,4.432,4.060,4.113,-0.120,0.880,-0.526,0.397,-1.343,0.366,73.333,13348.000,1.000
3.526,3.141,3.219,3.468,3.350,3.554,3.159,3.245,-0.119,0.883,-0.525,0.214,-1.343,0.458,73.333,13349.000,1.000
2.373,2.062,2.028,2.306,2.157,2.354,2.014,2.131,-0.116,0.882,-0.524,0.031,-1.282,0.397,73.333,13350.000,1.000
1.198,1.010,0.823,1.119,0.976,1.164,0.886,1.033,-0.114,0.885,-0.528,-0.122,-1.221,0.519,73.333,13351.000,1.000
0.211,0.125,-0.196,0.094,-0.005,0.184,-0.081,0.096,-0.110,0.885,-0.530,-0.244,-1.160,0.549,73.333,13352.000,1.000
-0.680,-0.724,-1.112,-0.851,-0.885,-0.694,-1.003,-0.794,-0.107,0.884,-0.528,-0.397,-1.038,0.580,73.333,13353.000,1.000
-1.841,-1.899,-2.262,-2.047,-2.027,-1.850,-2.211,-1.973,-0.105,0.884,-0.529,-0.519,-0.977,0.702,73.333,13354.000,1.000
-3.557,-3.647,-3.900,-3.762,-3.721,-3.594,-3.941,-3.683,-0.102,0.881,-0.531,-0.641,-0.824,0.763,73.333,13355.000,1.000
-5.678,-5.793,-5.876,-5.868,-5.838,-5.796,-6.028,-5.770,-0.100,0.879,-0.533,-0.641,-0.549,0.793,73.333,13356.000,1.000
-7.784,-7.918,-7.818,-7.973,-7.978,-8.018,-8.079,-7.848,-0.100,0.875,-0.538,-0.763,-0.366,0.916,73.333,13357.000,1.000
-9.548,-9.702,-9.486,-9.772,-9.813,-9.872,-9.814,-9.635,-0.101,0.870,-0.535,-0.671,-0.061,0.977,73.333,13358.000,1.000
-10.887,-11.065,-10.856,-11.190,-11.230,-11.220,-11.179,-11.058,-0.102,0.867,-0.535,-0.610,0.244,0.977,73.333,13359.000,1.000
-11.750,-11.950,-11.865,-12.153,-12.129,-11.996,-12.108,-12.026,-0.103,0.866,-0.534,-0.580,0.397,0.946,73.333,13360.000,1.000
-11.892,-12.104,-12.191,-12.369,-12.224,-11.971,-12.302,-12.222,-0.103,0.865,-0.538,-0.427,0.641,1.129,73.333,13361.000,1.000
-11.125,-11.336,-11.549,-11.622,-11.330,-10.999,-11.526,-11.426,-0.105,0.861,-0.537,-0.122,0.763,1.099,73.333,13362.000,1.000
-9.608,-9.819,-10.030,-10.091,-9.665,-9.305,-9.927,-9.831,-0.099,0.861,-0.550,-0.305,1.221,0.824,73.333,13363.000,1.000
-7.698,-7.929,-7.996,-8.163,-7.653,-7.309,-7.896,-7.858,-0.099,0.855,-0.551,-0.641,2.594,0.275,73.333,13364.000,1.000
-5.506,-5.769,-5.632,-5.967,-5.442,-5.139,-5.601,-5.652,-0.115,0.852,-0.535,-0.061,2.411,0.214,73.333,13365.000,1.000
-2.805,-3.075,-2.793,-3.286,-2.798,-2.540,-2.856,-2.966,-0.125,0.852,-0.530,0.885,1.038,0.854,73.333,13366.000,1.000
0.514,0.299,0.597,-0.004,0.434,0.652,0.459,0.353,-0.121,0.855,-0.527,1.099,0.549,0.732,73.333,13367.000,1.000
4.124,4.021,4.242,3.595,3.992,4.160,4.065,4.020,-0.121,0.860,-0.528,1.251,0.458,0.580,73.333,13368.000,1.000
7.409,7.433,7.571,6.948,7.306,7.410,7.390,7.423,-0.126,0.863,-0.527,1.129,0.305,0.366,73.333,13369.000,1.000
9.916,10.048,10.149,9.625,9.910,9.959,9.995,10.077,-0.133,0.860,-0.531,0.885,-0.153,0.305,73.333,13370.000,1.000
11.671,11.883,11.982,11.628,11.771,11.807,11.880,11.959,-0.141,0.858,-0.531,0.885,-0.824,0.183,73.333,13371.000,1.000
12.963,13.215,13.322,13.183,13.112,13.184,13.289,13.318,-0.144,0.860,-0.532,1.068,-1.373,0.092,73.333,13372.000,1.000
14.005,14.242,14.338,14.402,14.115,14.245,14.377,14.331,-0.145,0.864,-0.531,1.038,-1.770,-0.153,73.333,13373.000,1.000
14.805,14.976,15.018,15.212,14.804,14.970,15.119,14.999,-0.147,0.869,-0.528,1.007,-2.380,-0.305,73.333,13374.000,1.000
15.327,15.408,15.352,15.576,15.193,15.344,15.491,15.319,-0.146,0.873,-0.521,0.793,-2.899,-0.458,73.333,13375.000,1.000
15.650,15.648,15.491,15.664,15.431,15.513,15.634,15.453,-0.140,0.881,-0.523,0.458,-3.265,-0.671,73.333,13376.000,1.000
15.819,15.756,15.550,15.635,15.611,15.584,15.655,15.514,-0.133,0.887,-0.525,-0.031,-3.723,-0.641,73.333,13377.000,1.000
15.696,15.591,15.413,15.406,15.579,15.420,15.434,15.378,-0.125,0.895,-0.525,-0.519,-3.845,-0.641,73.333,13378.000,1.000
14.986,14.852,14.752,14.671,14.968,14.684,14.655,14.713,-0.118,0.901,-0.523,-1.007,-4.028,-0.641,73.333,13379.000,1.000
13.418,13.282,13.254,13.125,13.459,13.088,13.047,13.212,-0.111,0.902,-0.522,-1.587,-4.028,-0.641,73.333,13380.000,1.000
10.958,10.866,10.863,10.732,11.021,10.631,10.609,10.826,-0.104,0.904,-0.524,-2.197,-3.906,-0.549,73.333,13381.000,1.000
7.779,7.764,7.736,7.661,7.844,7.510,7.524,7.720,-0.097,0.902,-0.524,-2.716,-3.601,-0.488,73.333,13382.000,1.000
4.092,4.152,4.063,4.103,4.146,3.920,3.963,4.090,-0.093,0.900,-0.526,-3.113,-3.174,-0.397,73.333,13383.000,1.000
-0.026,0.084,-0.080,0.102,0.009,-0.099,-0.047,0.003,-0.088,0.896,-0.527,-3.448,-2.716,-0.244,73.333,13384.000,1.000
-4.612,-4.478,-4.712,-4.404,-4.603,-4.612,-4.558,-4.569,-0.086,0.893,-0.529,-3.632,-2.441,-0.183,73.333,13385.000,1.000
-9.613,-9.478,-9.750,-9.376,-9.638,-9.588,-9.502,-9.555,-0.085,0.885,-0.529,-3.906,-1.862,-0.031,73.333,13386.000,1.000
-14.857,-14.744,-14.991,-14.646,-14.923,-14.862,-14.703,-14.778,-0.085,0.878,-0.531,-3.998,-1.343,0.122,73.333,13387.000,1.000
-20.071,-19.996,-20.154,-19.939,-20.179,-20.143,-19.901,-19.978,-0.090,0.868,-0.534,-4.028,-0.793,0.031,73.333,13388.000,1.000
-24.887,-24.854,-24.899,-24.874,-25.029,-25.031,-24.746,-24.806,-0.095,0.861,-0.535,-3.998,-0.275,0.214,73.333,13389.000,1.000
-28.840,-28.847,-28.807,-28.957,-29.009,-29.052,-28.774,-28.806,-0.107,0.856,-0.534,-3.601,0.244,0.244,73.333,13390.000,1.000
-31.373,-31.425,-31.345,-31.589,-31.567,-31.658,-31.413,-31.416,-0.114,0.854,-0.531,-3.235,0.519,0.092,73.333,13391.000,1.000
-31.973,-32.071,-31.988,-32.213,-32.199,-32.333,-32.115,-32.086,-0.121,0.852,-0.530,-2.930,0.671,-0.031,73.333,13392.000,1.000
-30.246,-30.376,-30.307,-30.417,-30.506,-30.644,-30.447,-30.371,-0.124,0.852,-0.531,-2.625,0.671,-0.031,73.333,13393.000,1.000
-25.974,-26.104,-26.052,-26.002,-26.253,-26.335,-26.168,-26.024,-0.126,0.852,-0.532,-2.380,0.610,-0.183,73.333,13394.000,1.000
-19.266,-19.364,-19.304,-19.127,-19.524,-19.504,-19.386,-19.170,-0.128,0.854,-0.535,-2.136,0.580,-0.336,73.333,13395.000,1.000
-10.659,-10.704,-10.598,-10.377,-10.846,-10.722,-10.657,-10.384,-0.127,0.854,-0.535,-1.801,0.458,-0.427,73.333,13396.000,1.000
-1.041,-1.027,-0.863,-0.675,-1.118,-0.941,-0.908,-0.597,-0.127,0.854,-0.531,-1.465,0.336,-0.427,73.333,13397.000,1.000
8.663,8.737,8.931,9.049,8.712,8.859,8.903,9.225,-0.126,0.854,-0.533,-1.221,0.183,-0.305,73.333,13398.000,1.000
17.664,17.795,17.982,18.019,17.826,17.872,17.980,18.255,-0.125,0.853,-0.534,-0.916,0.061,-0.183,73.333,13399.000,1.000
25.223,25.395,25.567,25.528,25.466,25.383,25.592,25.748,-0.121,0.856,-0.532,-0.549,-0.031,-0.031,73.333,13400.000,1.000
30.673,30.856,31.031,30.932,30.953,30.760,31.068,31.074,-0.121,0.859,-0.535,-0.214,-0.122,0.183,73.333,13401.000,1.000
33.604,33.766,33.951,33.825,33.867,33.634,33.996,33.880,-0.121,0.863,-0.535,-0.031,-0.092,0.366,73.333,13402.000,1.000
34.120,34.242,34.408,34.304,34.316,34.144,34.500,34.318,-0.118,0.867,-0.533,0.183,-0.244,0.488,73.333,13403.000,1.000
32.704,32.796,32.883,32.857,32.821,32.786,33.098,32.892,-0.117,0.872,-0.534,0.244,-0.366,0.702,73.333,13404.000,1.000
29.776,29.870,29.826,29.909,29.854,29.947,30.213,30.012,-0.115,0.876,-0.529,0.275,-0.366,0.977,73.333,13405.000,1.000
25.580,25.711,25.514,25.701,25.673,25.825,26.055,25.886,-0.118,0.879,-0.529,0.275,-0.305,1.160,73.333,13406.000,1.000
20.409,20.589,20.261,20.517,20.540,20.686,20.872,20.755,-0.124,0.880,-0.530,0.153,-0.397,1.282,73.333,13407.000,1.000
14.769,14.971,14.577,14.868,14.917,15.027,15.150,15.086,-0.127,0.882,-0.529,0.031,-0.488,1.251,73.333,13408.000,1.000
9.087,9.253,8.897,9.197,9.217,9.286,9.335,9.310,-0.132,0.886,-0.528,-0.122,-0.641,1.251,73.333,13409.000,1.000
3.391,3.469,3.250,3.528,3.480,3.515,3.497,3.493,-0.135,0.886,-0.528,-0.305,-0.916,1.221,73.333,13410.000,1.000
-2.519,-2.548,-2.585,-2.365,-2.480,-2.459,-2.528,-2.537,-0.135,0.886,-0.527,-0.519,-1.190,1.068,73.333,13411.000,1.000
-8.719,-8.818,-8.712,-8.582,-8.703,-8.695,-8.782,-8.826,-0.136,0.885,-0.525,-0.763,-1.373,0.824,73.333,13412.000,1.000
-14.938,-15.031,-14.877,-14.850,-14.877,-14.909,-14.971,-15.072,-0.134,0.884,-0.524,-1.038,-1.617,0.641,73.333,13413.000,1.000
-20.632,-20.631,-20.539,-20.592,-20.436,-20.549,-20.559,-20.707,-0.129,0.881,-0.524,-1.190,-1.801,0.458,73.333,13414.000,1.000
-25.177,-25.030,-25.070,-25.152,-24.787,-24.998,-24.960,-25.134,-0.124,0.881,-0.527,-1.404,-1.862,0.275,73.333,13415.000,1.000
-28.041,-27.755,-27.936,-27.989,-27.467,-27.744,-27.688,-27.883,-0.122,0.880,-0.526,-1.434,-1.892,0.153,73.333,13416.000,1.000
-28.914,-28.548,-28.820,-28.810,-28.244,-28.511,-28.479,-28.701,-0.119,0.879,-0.526,-1.709,-1.923,0.031,73.333,13417.000,1.000
-27.610,-27.242,-27.513,-27.452,-26.979,-27.145,-27.175,-27.409,-0.115,0.881,-0.524,-2.075,-1.984,-0.214,73.333,13418.000,1.000
-24.039,-23.736,-23.908,-23.838,-23.572,-23.571,-23.684,-23.875,-0.113,0.882,-0.522,-2.258,-1.862,-0.366,73.333,13419.000,1.000
-18.413,-18.225,-18.237,-18.188,-18.181,-18.001,-18.202,-18.281,-0.110,0.885,-0.521,-2.472,-1.617,-0.519,73.333,13420.000,1.000
-11.373,-11.330,-11.182,-11.147,-11.375,-11.058,-11.340,-11.268,-0.107,0.886,-0.519,-2.716,-1.312,-0.641,73.333,13421.000,1.000
-3.915,-4.020,-3.769,-3.714,-4.094,-3.719,-4.056,-3.862,-0.106,0.887,-0.523,-3.052,-0.977,-0.641,73.333,13422.000,1.000
2.921,2.699,2.970,3.091,2.642,2.997,2.651,2.874,-0.103,0.887,-0.522,-3.296,-0.641,-0.732,73.333,13423.000,1.000
8.264,7.970,8.192,8.408,7.952,8.227,7.919,8.072,-0.100,0.887,-0.523,-3.510,-0.244,-0.732,73.333,13424.000,1.000
11.424,11.104,11.241,11.546,11.119,11.283,11.037,11.081,-0.100,0.885,-0.523,-3.754,0.153,-0.885,73.333,13425.000,1.000
12.006,11.704,11.761,12.109,11.723,11.778,11.601,11.563,-0.101,0.883,-0.523,-3.876,0.519,-0.793,73.333,13426.000,1.000
10.054,9.813,9.824,10.155,9.811,9.786,9.673,9.604,-0.103,0.883,-0.523,-3.906,0.916,-0.702,73.333,13427.000,1.000
6.155,5.995,5.995,6.262,5.985,5.911,5.842,5.775,-0.102,0.879,-0.521,-3.845,1.160,-0.763,73.333,13428.000,1.000
1.252,1.155,1.154,1.345,1.190,1.067,1.014,0.958,-0.105,0.876,-0.518,-3.723,1.526,-0.732,73.333,13429.000,1.000
-3.807,-3.885,-3.901,-3.753,-3.742,-3.951,-4.011,-4.043,-0.104,0.875,-0.519,-3.754,1.862,-0.671,73.333,13430.000,1.000
-8.495,-8.591,-8.640,-8.473,-8.306,-8.656,-8.714,-8.687,-0.104,0.870,-0.518,-3.693,2.197,-0.519,73.333,13431.000,1.000
-12.469,-12.593,-12.680,-12.434,-12.182,-12.702,-12.723,-12.601,-0.109,0.869,-0.517,-3.418,2.380,-0.488,73.333,13432.000,1.000
-15.294,-15.429,-15.543,-15.208,-14.975,-15.606,-15.549,-15.348,-0.109,0.868,-0.520,-3.387,2.563,-0.519,73.333,13433.000,1.000
-16.497,-16.607,-16.731,-16.367,-16.235,-16.835,-16.677,-16.478,-0.111,0.863,-0.520,-3.082,2.838,-0.336,73.333,13434.000,1.000
-15.866,-15.917,-16.039,-15.757,-15.739,-16.144,-15.900,-15.809,-0.115,0.862,-0.521,-2.899,3.021,-0.183,73.333,13435.000,1.000
-13.594,-13.566,-13.697,-13.583,-13.615,-13.731,-13.467,-13.542,-0.120,0.863,-0.518,-2.594,3.143,-0.092,73.333,13436.000,1.000
-10.180,-10.059,-10.235,-10.305,-10.288,-10.130,-9.947,-10.158,-0.120,0.859,-0.519,-2.228,3.113,0.061,73.333,13437.000,1.000
-6.105,-5.879,-6.132,-6.326,-6.198,-5.878,-5.853,-6.098,-0.120,0.859,-0.516,-1.984,3.113,0.153,73.333,13438.000,1.000
-1.675,-1.345,-1.663,-1.889,-1.674,-1.334,-1.465,-1.638,-0.124,0.858,-0.518,-1.617,3.082,0.397,73.333,13439.000,1.000
2.829,3.239,2.916,2.734,2.933,3.202,2.993,2.934,-0.126,0.856,-0.519,-1.190,2.930,0.549,73.333,13440.000,1.000
7.074,7.519,7.270,7.156,7.239,7.417,7.237,7.250,-0.126,0.856,-0.522,-0.763,2.747,0.702,73.333,13441.000,1.000
10.770,11.195,11.083,11.009,10.951,11.061,10.973,10.985,-0.126,0.854,-0.523,-0.397,2.625,0.946,73.333,13442.000,1.000
13.897,14.248,14.296,14.225,14.077,14.144,14.150,14.103,-0.127,0.856,-0.524,-0.092,2.350,1.160,73.333,13443.000,1.000
16.677,16.904,17.094,17.009,16.853,16.894,16.950,16.817,-0.129,0.857,-0.524,0.244,1.984,1.312,73.333,13444.000,1.000
19.192,19.269,19.538,19.439,19.351,19.380,19.424,19.199,-0.128,0.857,-0.528,0.519,1.801,1.587,73.333,13445.000,1.000
21.174,21.119,21.374,21.268,21.298,21.327,21.305,21.001,-0.128,0.857,-0.529,0.793,1.373,1.801,73.333,13446.000,1.000
22.169,22.035,22.194,22.093,22.257,22.275,22.173,21.829,-0.127,0.859,-0.527,1.221,1.068,1.953,73.333,13447.000,1.000
21.886,21.735,21.761,21.676,21.955,21.931,21.778,21.456,-0.126,0.861,-0.527,1.465,0.824,2.197,73.333,13448.000,1.000
20.311,20.184,20.099,20.024,20.379,20.295,20.127,19.893,-0.125,0.862,-0.525,1.617,0.427,2.258,73.333,13449.000,1.000
17.603,17.512,17.387,17.292,17.677,17.547,17.385,17.279,-0.124,0.864,-0.529,1.801,0.092,2.350,73.333,13450.000,1.000
14.080,14.020,13.935,13.790,14.163,14.023,13.882,13.891,-0.125,0.868,-0.531,2.045,-0.183,2.502,73.333,13451.000,1.000
10.102,10.071,10.068,9.866,10.202,10.070,9.981,10.046,-0.123,0.866,-0.535,2.228,-0.610,2.441,73.333,13452.000,1.000
5.943,5.963,6.018,5.773,6.076,5.922,5.929,5.989,-0.122,0.870,-0.537,2.289,-0.916,2.533,73.333,13453.000,1.000
1.774,1.878,1.919,1.656,1.953,1.723,1.837,1.876,-0.123,0.871,-0.532,2.319,-1.282,2.655,73.333,13454.000,1.000
-2.218,-2.027,-2.060,-2.317,-2.005,-2.332,-2.155,-2.107,-0.122,0.873,-0.532,2.319,-1.526,2.655,73.333,13455.000,1.000
-5.680,-5.454,-5.558,-5.794,-5.481,-5.861,-5.685,-5.606,-0.120,0.876,-0.531,2.380,-1.770,2.594,73.333,13456.000,1.000
-8.221,-8.037,-8.146,-8.367,-8.100,-8.445,-8.308,-8.217,-0.121,0.877,-0.532,2.258,-2.045,2.441,73.333,13457.000,1.000
-9.575,-9.475,-9.513,-9.751,-9.566,-9.797,-9.708,-9.648,-0.121,0.876,-0.534,2.136,-2.319,2.228,73.333,13458.000,1.000
-9.659,-9.619,-9.552,-9.845,-9.731,-9.821,-9.785,-9.772,-0.124,0.875,-0.537,2.014,-2.411,2.136,73.333,13459.000,1.000
-8.564,-8.512,-8.365,-8.726,-8.641,-8.616,-8.629,-8.647,-0.119,0.876,-0.535,1.923,-2.625,2.014,73.333,13460.000,1.000
-6.459,-6.323,-6.150,-6.566,-6.476,-6.385,-6.416,-6.431,-0.117,0.879,-0.537,1.831,-2.686,1.770,73.333,13461.000,1.000
-3.617,-3.365,-3.219,-3.671,-3.566,-3.460,-3.450,-3.423,-0.117,0.881,-0.537,1.740,-2.960,1.678,73.333,13462.000,1.000
-0.421,-0.083,-0.003,-0.474,-0.358,-0.277,-0.170,-0.074,-0.115,0.879,-0.534,1.556,-3.082,1.404,73.333,13463.000,1.000
2.704,3.042,3.035,2.576,2.700,2.727,2.943,3.117,-0.116,0.877,-0.537,1.343,-3.174,1.221,73.333,13464.000,1.000
5.350,5.579,5.497,5.096,5.230,5.190,5.472,5.716,-0.115,0.877,-0.537,1.160,-3.174,1.038,73.333,13465.000,1.000
7.177,7.219,7.102,6.814,6.954,6.846,7.117,7.413,-0.115,0.875,-0.535,0.977,-3.326,0.854,73.333,13466.000,1.000
7.875,7.716,7.617,7.479,7.602,7.447,7.630,7.949,-0.114,0.874,-0.537,0.793,-3.387,0.610,73.333,13467.000,1.000
7.235,6.915,6.894,6.900,6.960,6.806,6.864,7.150,-0.112,0.874,-0.539,0.549,-3.357,0.458,73.333,13468.000,1.000
5.287,4.885,4.993,5.095,5.045,4.953,4.906,5.091,-0.109,0.873,-0.538,0.366,-3.296,0.366,73.333,13469.000,1.000
2.422,2.040,2.275,2.413,2.234,2.251,2.151,2.195,-0.106,0.875,-0.541,0.305,-3.326,0.214,73.333,13470.000,1.000
-0.602,-0.881,-0.602,-0.461,-0.735,-0.603,-0.714,-0.793,-0.104,0.872,-0.536,0.214,-3.326,0.153,73.333,13471.000,1.000
-3.039,-3.190,-2.981,-2.843,-3.145,-2.924,-3.030,-3.168,-0.103,0.872,-0.536,0.061,-3.082,-0.031,73.333,13472.000,1.000
-4.544,-4.610,-4.534,-4.391,-4.667,-4.394,-4.487,-4.620,-0.104,0.872,-0.537,0.000,-2.899,-0.122,73.333,13473.000,1.000
-5.211,-5.275,-5.314,-5.160,-5.390,-5.108,-5.164,-5.258,-0.107,0.872,-0.531,-0.061,-2.716,-0.183,73.333,13474.000,1.000
-5.374,-5.509,-5.593,-5.439,-5.631,-5.374,-5.364,-5.417,-0.110,0.871,-0.531,-0.153,-2.533,-0.214,73.333,13475.000,1.000
-5.419,-5.648,-5.695,-5.562,-5.739,-5.532,-5.443,-5.458,-0.113,0.870,-0.534,-0.244,-2.350,-0.275,73.333,13476.000,1.000
-5.815,-6.105,-6.062,-5.967,-6.148,-6.004,-5.854,-5.837,-0.115,0.870,-0.531,-0.427,-2.350,-0.397,73.333,13477.000,1.000
-7.022,-7.324,-7.180,-7.128,-7.304,-7.233,-7.070,-7.029,-0.114,0.870,-0.530,-0.610,-2.228,-0.580,73.333,13478.000,1.000
-9.224,-9.513,-9.294,-9.278,-9.422,-9.422,-9.307,-9.256,-0.113,0.868,-0.531,-0.671,-2.167,-0.641,73.333,13479.000,1.000
-12.112,-12.395,-12.154,-12.155,-12.239,-12.293,-12.264,-12.225,-0.110,0.867,-0.531,-0.732,-2.045,-0.702,73.333,13480.000,1.000
-14.862,-15.160,-14.960,-14.941,-14.966,-15.031,-15.090,-15.075,-0.107,0.867,-0.531,-0.885,-1.953,-0.732,73.333,13481.000,1.000
-16.592,-16.907,-16.791,-16.718,-16.714,-16.747,-16.846,-16.850,-0.107,0.866,-0.532,-0.946,-1.770,-0.763,73.333,13482.000,1.000
-16.897,-17.208,-17.176,-17.038,-17.052,-17.025,-17.095,-17.095,-0.106,0.865,-0.531,-0.885,-1.587,-0.732,73.333,13483.000,1.000
-15.948,-16.220,-16.244,-16.047,-16.123,-16.030,-16.016,-16.000,-0.108,0.865,-0.531,-1.038,-1.404,-0.763,73.333,13484.000,1.000
-14.080,-14.285,-14.341,-14.103,-14.256,-14.115,-14.001,-13.994,-0.110,0.865,-0.532,-1.007,-1.129,-0.793,73.333,13485.000,1.000
-11.362,-11.482,-11.571,-11.327,-11.526,-11.380,-11.192,-11.242,-0.110,0.867,-0.533,-1.007,-0.916,-0.702,73.333,13486.000,1.000
-7.722,-7.757,-7.908,-7.701,-7.875,-7.764,-7.568,-7.704,-0.110,0.871,-0.531,-1.099,-0.793,-0.580,73.333,13487.000,1.000
-3.333,-3.304,-3.550,-3.402,-3.478,-3.409,-3.303,-3.485,-0.109,0.872,-0.530,-1.129,-0.610,-0.580,73.333,13488.000,1.000
1.246,1.295,0.968,1.076,1.116,1.160,1.094,0.974,-0.112,0.872,-0.533,-1.251,-0.458,-0.397,73.333,13489.000,1.000
5.279,5.299,4.977,5.077,5.185,5.209,4.964,5.017,-0.113,0.872,-0.530,-1.282,-0.275,-0.366,73.333,13490.000,1.000
8.272,8.219,8.018,8.130,8.218,8.214,7.867,8.123,-0.116,0.873,-0.529,-1.312,-0.336,-0.244,73.333,13491.000,1.000
10.036,9.876,9.870,9.987,9.987,9.957,9.622,10.012,-0.118,0.874,-0.528,-1.495,-0.122,-0.183,73.333,13492.000,1.000
10.551,10.278,10.456,10.549,10.445,10.407,10.179,10.586,-0.118,0.873,-0.530,-1.495,-0.092,-0.122,73.333,13493.000,1.000
9.925,9.581,9.868,9.897,9.720,9.690,9.622,9.942,-0.119,0.873,-0.529,-1.617,-0.092,-0.092,73.333,13494.000,1.000
8.448,8.118,8.431,8.360,8.166,8.141,8.241,8.407,-0.122,0.873,-0.528,-1.740,-0.122,0.061,73.333,13495.000,1.000
6.632,6.403,6.692,6.511,6.350,6.310,6.549,6.530,-0.121,0.873,-0.529,-1.709,-0.061,0.153,73.333,13496.000,1.000
4.969,4.879,5.132,4.884,4.764,4.694,5.016,4.819,-0.122,0.873,-0.529,-1.831,-0.122,0.366,73.333,13497.000,1.000
3.665,3.694,3.907,3.684,3.573,3.472,3.813,3.485,-0.119,0.874,-0.529,-1.740,-0.092,0.427,73.333,13498.000,1.000
2.649,2.744,2.893,2.786,2.657,2.540,2.832,2.463,-0.118,0.874,-0.530,-1.831,-0.244,0.488,73.333,13499.000,1.000
1.779,1.898,1.945,1.990,1.852,1.746,1.927,1.625,-0.120,0.874,-0.529,-1.923,-0.275,0.519,73.333,13500.000,1.000
1.085,1.214,1.149,1.308,1.190,1.124,1.167,1.026,-0.119,0.876,-0.527,-2.014,-0.336,0.641,73.333,13501.000,1.000
0.735,0.889,0.743,0.931,0.863,0.855,0.771,0.832,-0.120,0.876,-0.527,-2.075,-0.397,0.671,73.333,13502.000,1.000
0.867,1.075,0.890,1.031,1.027,1.071,0.908,1.134,-0.120,0.876,-0.528,-2.167,-0.427,0.702,73.333,13503.000,1.000
1.415,1.690,1.494,1.561,1.599,1.679,1.509,1.799,-0.122,0.875,-0.528,-2.289,-0.488,0.732,73.333,13504.000,1.000
2.068,2.401,2.216,2.221,2.252,2.351,2.245,2.482,-0.120,0.874,-0.529,-2.350,-0.458,0.732,73.333,13505.000,1.000
2.586,2.946,2.814,2.768,2.750,2.852,2.841,2.956,-0.118,0.874,-0.528,-2.441,-0.580,0.763,73.333,13506.000,1.000
2.943,3.285,3.263,3.171,3.096,3.183,3.229,3.243,-0.119,0.874,-0.524,-2.319,-0.519,0.671,73.333,13507.000,1.000
3.187,3.467,3.591,3.466,3.350,3.416,3.434,3.432,-0.119,0.874,-0.525,-2.319,-0.458,0.671,73.333,13508.000,1.000
3.312,3.504,3.760,3.639,3.495,3.561,3.479,3.531,-0.119,0.873,-0.527,-2.289,-0.519,0.641,73.333,13509.000,1.000
3.357,3.445,3.781,3.706,3.535,3.638,3.448,3.548,-0.116,0.871,-0.526,-2.258,-0.549,0.671,73.333,13510.000,1.000
3.532,3.512,3.863,3.859,3.665,3.828,3.585,3.665,-0.115,0.872,-0.531,-2.258,-0.580,0.641,73.333,13511.000,1.000
3.994,3.871,4.195,4.249,4.054,4.268,4.051,4.054,-0.115,0.872,-0.531,-2.258,-0.641,0.610,73.333,13512.000,1.000
4.598,4.392,4.678,4.754,4.598,4.822,4.695,4.621,-0.116,0.873,-0.527,-2.228,-0.549,0.519,73.333,13513.000,1.000
4.995,4.749,5.001,5.064,4.984,5.172,5.147,5.051,-0.117,0.872,-0.528,-2.197,-0.488,0.427,73.333,13514.000,1.000
4.862,4.644,4.853,4.890,4.906,5.035,5.048,5.003,-0.119,0.871,-0.531,-2.136,-0.580,0.427,73.333,13515.000,1.000
4.101,3.977,4.112,4.135,4.245,4.328,4.262,4.315,-0.121,0.870,-0.531,-2.045,-0.519,0.366,73.333,13516.000,1.000
2.815,2.819,2.842,2.875,3.049,3.126,2.887,3.026,-0.122,0.868,-0.528,-1.953,-0.610,0.244,73.333,13517.000,1.000
1.269,1.384,1.287,1.341,1.539,1.653,1.230,1.384,-0.123,0.868,-0.525,-1.801,-0.824,0.183,73.333,13518.000,1.000
-0.197,-0.036,-0.219,-0.151,0.056,0.217,-0.315,-0.233,-0.125,0.869,-0.522,-1.740,-0.916,0.061,73.333,13519.000,1.000
-1.350,-1.228,-1.443,-1.374,-1.134,-0.964,-1.484,-1.522,-0.124,0.870,-0.523,-1.770,-1.068,0.031,73.333,13520.000,1.000
-2.092,-2.061,-2.266,-2.215,-1.904,-1.785,-2.181,-2.332,-0.124,0.870,-0.527,-1.556,-1.068,-0.092,73.333,13521.000,1.000
-2.471,-2.517,-2.699,-2.688,-2.302,-2.262,-2.491,-2.705,-0.120,0.870,-0.526,-1.495,-1.038,-0.092,73.333,13522.000,1.000
-2.663,-2.714,-2.873,-2.922,-2.513,-2.531,-2.643,-2.850,-0.121,0.870,-0.526,-1.404,-1.099,-0.092,73.333,13523.000,1.000
-2.842,-2.816,-2.952,-3.058,-2.723,-2.747,-2.851,-2.969,-0.121,0.873,-0.527,-1.343,-1.190,-0.214,73.333,13524.000,1.000
-3.057,-2.913,-3.018,-3.153,-2.972,-2.973,-3.154,-3.113,-0.118,0.874,-0.527,-1.465,-1.190,-0.153,73.333,13525.000,1.000
-3.157,-2.928,-2.988,-3.117,-3.096,-3.085,-3.344,-3.138,-0.119,0.874,-0.525,-1.373,-1.251,-0.092,73.333,13526.000,1.000
-2.991,-2.756,-2.762,-2.859,-2.928,-2.943,-3.198,-2.904,-0.119,0.874,-0.523,-1.343,-1.190,-0.092,73.333,13527.000,1.000
-2.602,-2.422,-2.383,-2.444,-2.515,-2.590,-2.737,-2.465,-0.118,0.874,-0.522,-1.282,-1.160,-0.061,73.333,13528.000,1.000
-2.255,-2.132,-2.076,-2.128,-2.153,-2.285,-2.269,-2.079,-0.117,0.873,-0.523,-1.282,-1.099,0.061,73.333,13529.000,1.000
-2.340,-2.218,-2.172,-2.257,-2.251,-2.401,-2.228,-2.109,-0.117,0.873,-0.522,-1.282,-0.946,0.092,73.333,13530.000,1.000
-3.059,-2.863,-2.847,-2.980,-3.003,-3.112,-2.838,-2.748,-0.117,0.871,-0.526,-1.282,-0.885,0.031,73.333,13531.000,1.000
-4.284,-3.987,-4.007,-4.147,-4.271,-4.291,-3.994,-3.903,-0.116,0.871,-0.525,-1.282,-0.824,0.092,73.333,13532.000,1.000
-5.653,-5.304,-5.342,-5.427,-5.698,-5.608,-5.362,-5.261,-0.118,0.871,-0.526,-1.343,-0.763,0.092,73.333,13533.000,1.000
-6.739,-6.432,-6.447,-6.447,-6.862,-6.670,-6.521,-6.407,-0.117,0.870,-0.523,-1.160,-0.732,0.000,73.333,13534.000,1.000
-7.242,-7.053,-7.008,-6.934,-7.452,-7.192,-7.139,-7.001,-0.119,0.868,-0.525,-1.038,-0.671,0.000,73.333,13535.000,1.000
-7.053,-7.003,-6.880,-6.761,-7.334,-7.056,-7.060,-6.887,-0.118,0.867,-0.527,-1.007,-0.549,0.183,73.333,13536.000,1.000
-6.274,-6.346,-6.145,-6.015,-6.592,-6.345,-6.357,-6.158,-0.119,0.867,-0.529,-1.007,-0.397,0.000,73.333,13537.000,1.000
-5.143,-5.308,-5.046,-4.941,-5.456,-5.272,-5.262,-5.078,-0.118,0.867,-0.527,-0.977,-0.427,0.122,73.333,13538.000,1.000
-3.912,-4.131,-3.840,-3.789,-4.179,-4.067,-4.033,-3.908,-0.117,0.868,-0.526,-0.946,-0.275,0.153,73.333,13539.000,1.000
-2.737,-2.964,-2.695,-2.698,-2.934,-2.886,-2.839,-2.799,-0.117,0.869,-0.533,-0.763,-0.336,0.183,73.333,13540.000,1.000
-1.546,-1.743,-1.545,-1.578,-1.678,-1.678,-1.633,-1.667,-0.118,0.869,-0.530,-0.763,-0.244,0.183,73.333,13541.000,1.000
-0.169,-0.318,-0.226,-0.251,-0.265,-0.289,-0.268,-0.330,-0.118,0.869,-0.527,-0.732,-0.183,0.244,73.333,13542.000,1.000
1.455,1.346,1.322,1.346,1.364,1.346,1.321,1.276,-0.119,0.870,-0.526,-0.641,-0.214,0.305,73.333,13543.000,1.000
3.211,3.108,2.982,3.076,3.098,3.107,3.038,3.014,-0.120,0.869,-0.526,-0.610,-0.214,0.336,73.333,13544.000,1.000
4.813,4.667,4.469,4.627,4.657,4.695,4.610,4.571,-0.120,0.871,-0.528,-0.671,-0.092,0.336,73.333,13545.000,1.000
6.005,5.782,5.547,5.733,5.795,5.840,5.770,5.694,-0.120,0.869,-0.527,-0.580,-0.153,0.397,73.333,13546.000,1.000
6.686,6.382,6.148,6.309,6.435,6.447,6.396,6.306,-0.120,0.867,-0.528,-0.488,-0.122,0.458,73.333,13547.000,1.000
6.864,6.519,6.319,6.408,6.613,6.549,6.508,6.448,-0.122,0.867,-0.530,-0.458,-0.061,0.458,73.333,13548.000,1.000
6.605,6.282,6.134,6.133,6.400,6.238,6.222,6.201,-0.123,0.868,-0.525,-0.397,-0.183,0.519,73.333,13549.000,1.000
6.021,5.777,5.674,5.593,5.881,5.639,5.696,5.670,-0.122,0.870,-0.522,-0.366,-0.275,0.641,73.333,13550.000,1.000
5.324,5.172,5.079,4.948,5.220,4.960,5.126,5.033,-0.120,0.866,-0.525,-0.336,-0.244,0.580,73.333,13551.000,1.000
4.684,4.598,4.468,4.328,4.567,4.359,4.621,4.432,-0.120,0.866,-0.527,-0.275,-0.275,0.549,73.333,13552.000,1.000
4.142,4.089,3.885,3.778,3.978,3.873,4.182,3.906,-0.122,0.867,-0.531,-0.153,-0.366,0.763,73.333,13553.000,1.000
3.674,3.639,3.354,3.310,3.466,3.473,3.790,3.451,-0.124,0.869,-0.528,-0.061,-0.305,0.702,73.333,13554.000,1.000
3.253,3.241,2.893,2.921,3.026,3.114,3.419,3.051,-0.121,0.871,-0.531,-0.092,-0.458,0.824,73.333,13555.000,1.000
2.900,2.921,2.551,2.638,2.686,2.796,3.080,2.723,-0.123,0.871,-0.531,-0.092,-0.488,0.763,73.333,13556.000,1.000
2.588,2.647,2.307,2.428,2.424,2.478,2.753,2.437,-0.124,0.869,-0.530,0.000,-0.580,0.824,73.333,13557.000,1.000
2.195,2.286,2.038,2.151,2.123,2.055,2.350,2.081,-0.122,0.870,-0.525,-0.122,-0.580,0.854,73.333,13558.000,1.000
1.646,1.747,1.639,1.701,1.705,1.491,1.809,1.583,-0.122,0.873,-0.527,-0.153,-0.549,0.763,73.333,13559.000,1.000
0.996,1.093,1.116,1.110,1.213,0.883,1.183,1.005,-0.121,0.873,-0.531,-0.153,-0.488,0.824,73.333,13560.000,1.000
0.459,0.555,0.652,0.601,0.826,0.453,0.697,0.561,-0.120,0.874,-0.530,-0.183,-0.549,0.763,73.333,13561.000,1.000
0.259,0.375,0.476,0.433,0.726,0.391,0.594,0.475,-0.120,0.873,-0.533,-0.214,-0.580,0.732,73.333,13562.000,1.000
0.482,0.647,0.693,0.722,0.982,0.726,0.945,0.813,-0.119,0.875,-0.532,-0.366,-0.671,0.732,73.333,13563.000,1.000
0.983,1.204,1.151,1.299,1.457,1.264,1.536,1.380,-0.120,0.874,-0.531,-0.427,-0.763,0.641,73.333,13564.000,1.000
1.378,1.621,1.450,1.732,1.778,1.613,1.908,1.752,-0.119,0.877,-0.529,-0.458,-0.671,0.671,73.333,13565.000,1.000
1.335,1.544,1.269,1.664,1.629,1.479,1.719,1.612,-0.116,0.880,-0.530,-0.580,-0.610,0.641,73.333,13566.000,1.000
0.785,0.921,0.578,1.036,0.965,0.842,0.971,0.950,-0.112,0.879,-0.526,-0.702,-0.610,0.641,73.333,13567.000,1.000
-0.120,-0.058,-0.420,0.033,-0.018,-0.107,-0.085,-0.026,-0.112,0.881,-0.528,-0.946,-0.458,0.580,73.333,13568.000,1.000
-1.149,-1.140,-1.454,-1.080,-1.064,-1.127,-1.162,-1.071,-0.110,0.882,-0.531,-1.129,-0.183,0.488,73.333,13569.000,1.000
-2.151,-2.163,-2.352,-2.119,-2.019,-2.083,-2.120,-2.065,-0.105,0.883,-0.530,-1.282,-0.061,0.458,73.333,13570.000,1.000
-3.060,-3.052,-3.078,-3.004,-2.828,-2.926,-2.951,-2.974,-0.105,0.880,-0.529,-1.404,0.000,0.427,73.333,13571.000,1.000
-3.933,-3.855,-3.755,-3.797,-3.562,-3.731,-3.775,-3.858,-0.101,0.880,-0.533,-1.587,0.275,0.519,73.333,13572.000,1.000
-4.904,-4.732,-4.598,-4.672,-4.402,-4.660,-4.761,-4.840,-0.100,0.879,-0.534,-1.648,0.610,0.519,73.333,13573.000,1.000
-6.094,-5.852,-5.778,-5.806,-5.525,-5.857,-6.019,-6.032,-0.098,0.876,-0.533,-1.709,0.916,0.519,73.333,13574.000,1.000
-7.527,-7.262,-7.300,-7.242,-6.983,-7.328,-7.526,-7.451,-0.098,0.874,-0.532,-1.740,1.129,0.488,73.333,13575.000,1.000
-8.906,-8.650,-8.791,-8.657,-8.469,-8.739,-8.930,-8.798,-0.101,0.872,-0.531,-1.740,1.373,0.580,73.333,13576.000,1.000
-9.747,-9.494,-9.687,-9.543,-9.470,-9.582,-9.725,-9.605,-0.104,0.869,-0.529,-1.678,1.617,0.580,73.333,13577.000,1.000
-9.846,-9.564,-9.756,-9.701,-9.738,-9.662,-9.727,-9.689,-0.107,0.865,-0.532,-1.587,1.801,0.580,73.333,13578.000,1.000
-9.418,-9.086,-9.250,-9.354,-9.437,-9.224,-9.201,-9.287,-0.105,0.861,-0.535,-1.465,1.892,0.488,73.333,13579.000,1.000
-8.759,-8.414,-8.527,-8.789,-8.839,-8.597,-8.491,-8.693,-0.110,0.858,-0.537,-1.221,1.923,0.610,73.333,13580.000,1.000
-7.823,-7.565,-7.587,-7.952,-7.923,-7.748,-7.569,-7.838,-0.113,0.854,-0.535,-1.007,1.801,0.580,73.333,13581.000,1.000
-6.344,-6.271,-6.160,-6.547,-6.446,-6.371,-6.136,-6.420,-0.115,0.849,-0.536,-0.702,1.709,0.549,73.333,13582.000,1.000
-4.236,-4.365,-4.108,-4.447,-4.324,-4.304,-4.056,-4.331,-0.121,0.844,-0.538,-0.305,1.526,0.671,73.333,13583.000,1.000
-1.717,-1.985,-1.609,-1.855,-1.783,-1.729,-1.532,-1.805,-0.126,0.844,-0.533,0.000,1.251,0.671,73.333,13584.000,1.000
0.907,0.597,1.029,0.890,0.852,1.015,1.107,0.824,-0.131,0.847,-0.533,0.366,1.068,0.641,73.333,13585.000,1.000
3.609,3.332,3.741,3.700,3.546,3.833,3.806,3.506,-0.135,0.847,-0.534,0.702,0.610,0.519,73.333,13586.000,1.000
6.579,6.357,6.683,6.714,6.499,6.861,6.741,6.429,-0.139,0.848,-0.533,0.946,0.153,0.488,73.333,13587.000,1.000
9.847,9.665,9.885,9.954,9.747,10.106,9.947,9.640,-0.145,0.854,-0.533,1.129,-0.336,0.366,73.333,13588.000,1.000
13.085,12.937,13.063,13.128,12.970,13.262,13.119,12.849,-0.145,0.859,-0.528,1.251,-0.885,0.275,73.333,13589.000,1.000
15.790,15.706,15.759,15.774,15.677,15.874,15.778,15.586,-0.146,0.865,-0.525,1.190,-1.526,0.122,73.333,13590.000,1.000
17.688,17.713,17.698,17.634,17.600,17.704,17.644,17.577,-0.143,0.873,-0.524,1.099,-2.106,0.061,73.333,13591.000,1.000
18.809,18.950,18.867,18.731,18.761,18.798,18.722,18.809,-0.141,0.876,-0.517,0.916,-2.563,-0.031,73.333,13592.000,1.000
19.268,19.466,19.339,19.169,19.249,19.272,19.121,19.350,-0.136,0.881,-0.519,0.458,-2.991,-0.153,73.333,13593.000,1.000
19.078,19.233,19.117,18.950,19.045,19.124,18.869,19.178,-0.130,0.887,-0.521,0.061,-3.357,-0.183,73.333,13594.000,1.000
18.065,18.100,18.054,17.898,17.967,18.152,17.807,18.108,-0.125,0.890,-0.523,-0.275,-3.540,-0.183,73.333,13595.000,1.000
16.039,15.930,15.989,15.828,15.849,16.134,15.732,15.968,-0.119,0.892,-0.524,-0.702,-3.693,-0.122,73.333,13596.000,1.000
12.915,12.679,12.838,12.655,12.637,12.959,12.542,12.714,-0.114,0.895,-0.522,-1.129,-3.723,-0.122,73.333,13597.000,1.000
8.754,8.434,8.657,8.457,8.420,8.700,8.310,8.456,-0.111,0.898,-0.524,-1.495,-3.784,-0.092,73.333,13598.000,1.000
3.816,3.456,3.718,3.516,3.465,3.647,3.331,3.480,-0.109,0.899,-0.521,-1.984,-3.632,-0.122,73.333,13599.000,1.000
-1.527,-1.892,-1.599,-1.790,-1.863,-1.796,-2.002,-1.853,-0.105,0.897,-0.525,-2.258,-3.357,0.092,73.333,13600.000,1.000
-6.887,-7.229,-6.911,-7.084,-7.180,-7.211,-7.293,-7.183,-0.101,0.894,-0.524,-2.686,-3.174,-0.031,73.333,13601.000,1.000
-11.999,-12.288,-11.965,-12.117,-12.221,-12.309,-12.289,-12.253,-0.097,0.887,-0.530,-2.960,-2.869,0.000,73.333,13602.000,1.000
-16.781,-17.005,-16.706,-16.833,-16.913,-17.022,-16.940,-16.986,-0.099,0.882,-0.528,-3.143,-2.472,0.092,73.333,13603.000,1.000
-21.213,-21.390,-21.150,-21.247,-21.280,-21.387,-21.273,-21.383,-0.101,0.875,-0.530,-3.357,-2.106,0.061,73.333,13604.000,1.000
-25.153,-25.331,-25.187,-25.238,-25.225,-25.324,-25.188,-25.332,-0.104,0.868,-0.530,-3.235,-1.862,0.061,73.333,13605.000,1.000
-28.181,-28.399,-28.383,-28.366,-28.338,-28.424,-28.274,-28.408,-0.108,0.862,-0.529,-3.265,-1.556,0.061,73.333,13606.000,1.000
-29.761,-30.027,-30.136,-30.063,-30.053,-30.118,-29.970,-30.034,-0.113,0.858,-0.529,-3.113,-1.343,0.031,73.333,13607.000,1.000
-29.565,-29.831,-30.044,-29.969,-29.973,-30.005,-29.905,-29.829,-0.119,0.854,-0.531,-2.930,-1.251,-0.031,73.333,13608.000,1.000
-27.581,-27.759,-28.062,-28.038,-28.012,-27.999,-28.024,-27.764,-0.125,0.851,-0.529,-2.594,-1.190,-0.122,73.333,13609.000,1.000
-24.023,-24.028,-24.409,-24.455,-24.344,-24.293,-24.508,-24.084,-0.126,0.851,-0.531,-2.350,-1.129,-0.061,73.333,13610.000,1.000
-19.096,-18.908,-19.314,-19.422,-19.197,-19.148,-19.562,-19.048,-0.128,0.852,-0.533,-2.045,-1.190,-0.092,73.333,13611.000,1.000
-12.947,-12.623,-12.968,-13.114,-12.799,-12.816,-13.361,-12.839,-0.128,0.853,-0.531,-1.709,-1.221,-0.092,73.333,13612.000,1.000
-5.741,-5.386,-5.603,-5.750,-5.418,-5.558,-6.097,-5.624,-0.128,0.857,-0.533,-1.526,-1.282,-0.061,73.333,13613.000,1.000
2.289,2.585,2.491,2.397,2.658,2.383,2.003,2.401,-0.124,0.862,-0.530,-1.251,-1.282,0.061,73.333,13614.000,1.000
10.720,10.929,10.888,10.898,11.021,10.656,10.530,10.844,-0.124,0.866,-0.531,-1.099,-1.312,0.183,73.333,13615.000,1.000
18.859,19.016,18.946,19.082,19.038,18.670,18.789,19.027,-0.120,0.870,-0.532,-0.946,-1.343,0.183,73.333,13616.000,1.000
25.812,25.972,25.845,26.077,25.868,25.579,25.864,26.041,-0.121,0.872,-0.532,-0.885,-1.312,0.244,73.333,13617.000,1.000
30.782,30.964,30.829,31.087,30.744,30.566,30.931,31.059,-0.117,0.875,-0.530,-0.671,-1.190,0.366,73.333,13618.000,1.000
33.368,33.528,33.479,33.691,33.266,33.168,33.559,33.645,-0.117,0.877,-0.531,-0.549,-0.977,0.427,73.333,13619.000,1.000
33.505,33.565,33.677,33.800,33.361,33.294,33.677,33.724,-0.115,0.877,-0.532,-0.519,-0.916,0.549,73.333,13620.000,1.000
31.312,31.217,31.503,31.527,31.151,31.091,31.436,31.440,-0.112,0.878,-0.528,-0.610,-0.916,0.549,73.333,13621.000,1.000
27.000,26.746,27.151,27.103,26.837,26.794,27.069,27.030,-0.110,0.876,-0.527,-0.549,-0.671,0.641,73.333,13622.000,1.000
20.913,20.545,20.979,20.916,20.747,20.740,20.916,20.857,-0.108,0.872,-0.525,-0.641,-0.427,0.824,73.333,13623.000,1.000
13.602,13.197,13.578,13.570,13.427,13.465,13.519,13.492,-0.108,0.868,-0.528,-0.641,-0.214,0.916,73.333,13624.000,1.000
5.690,5.337,5.619,5.719,5.510,5.587,5.523,5.587,-0.109,0.867,-0.529,-0.458,-0.031,0.885,73.333,13625.000,1.000
-2.186,-2.412,-2.239,-2.034,-2.353,-2.262,-2.394,-2.214,-0.110,0.864,-0.531,-0.275,0.092,0.916,73.333,13626.000,1.000
-9.416,-9.474,-9.395,-9.156,-9.544,-9.473,-9.589,-9.330,-0.111,0.866,-0.529,-0.275,0.244,0.977,73.333,13627.000,1.000
-15.488,-15.372,-15.351,-15.193,-15.541,-15.503,-15.548,-15.286,-0.114,0.866,-0.525,-0.214,0.336,0.885,73.333,13628.000,1.000
-19.983,-19.728,-19.710,-19.731,-19.918,-19.906,-19.882,-19.693,-0.115,0.866,-0.528,-0.244,0.488,0.763,73.333,13629.000,1.000
-22.592,-22.266,-22.199,-22.422,-22.377,-22.389,-22.330,-22.252,-0.117,0.867,-0.531,-0.305,0.580,0.641,73.333,13630.000,1.000
-23.149,-22.815,-22.684,-23.033,-22.783,-22.822,-22.764,-22.788,-0.120,0.867,-0.531,-0.183,0.641,0.549,73.333,13631.000,1.000
-21.767,-21.454,-21.290,-21.638,-21.307,-21.351,-21.322,-21.409,-0.125,0.870,-0.529,-0.366,0.610,0.336,73.333,13632.000,1.000
-18.881,-18.579,-18.439,-18.687,-18.420,-18.430,-18.444,-18.549,-0.132,0.872,-0.528,-0.458,0.549,0.092,73.333,13633.000,1.000
-15.073,-14.769,-14.702,-14.823,-14.701,-14.653,-14.705,-14.790,-0.134,0.873,-0.529,-0.610,0.397,-0.153,73.333,13634.000,1.000
-10.977,-10.685,-10.701,-10.733,-10.740,-10.651,-10.724,-10.751,-0.136,0.879,-0.529,-0.610,0.153,-0.519,73.333,13635.000,1.000
-7.126,-6.898,-6.970,-6.973,-7.022,-6.946,-7.012,-6.967,-0.133,0.882,-0.528,-0.793,-0.153,-0.793,73.333,13636.000,1.000
-3.822,-3.722,-3.814,-3.825,-3.808,-3.815,-3.837,-3.757,-0.131,0.884,-0.525,-1.068,-0.275,-1.038,73.333,13637.000,1.000
-1.061,-1.107,-1.211,-1.221,-1.068,-1.200,-1.152,-1.104,-0.129,0.886,-0.527,-1.282,-0.458,-1.221,73.333,13638.000,1.000
1.409,1.275,1.135,1.150,1.445,1.208,1.315,1.280,-0.122,0.886,-0.525,-1.556,-0.549,-1.343,73.333,13639.000,1.000
3.708,3.589,3.393,3.425,3.813,3.543,3.673,3.539,-0.120,0.886,-0.528,-1.892,-0.397,-1.495,73.333,13640.000,1.000
5.621,5.605,5.378,5.377,5.777,5.553,5.670,5.464,-0.118,0.886,-0.525,-2.136,-0.366,-1.556,73.333,13641.000,1.000
6.780,6.894,6.697,6.626,6.941,6.818,6.903,6.682,-0.117,0.887,-0.525,-2.319,-0.275,-1.678,73.333,13642.000,1.000
7.025,7.234,7.123,6.989,7.151,7.139,7.193,7.021,-0.115,0.887,-0.524,-2.319,-0.244,-1.617,73.333,13643.000,1.000
6.589,6.824,6.817,6.664,6.676,6.739,6.768,6.691,-0.113,0.886,-0.524,-2.563,-0.061,-1.526,73.333,13644.000,1.000
5.880,6.075,6.145,6.022,5.953,6.030,6.039,6.077,-0.113,0.885,-0.523,-2.655,0.122,-1.434,73.333,13645.000,1.000
5.162,5.281,5.371,5.306,5.238,5.278,5.269,5.420,-0.113,0.883,-0.522,-2.869,0.275,-1.251,73.333,13646.000,1.000
4.333,4.361,4.421,4.414,4.383,4.378,4.360,4.596,-0.117,0.879,-0.521,-3.052,0.458,-1.129,73.333,13647.000,1.000
3.029,2.963,2.974,3.008,3.001,2.978,2.965,3.238,-0.117,0.876,-0.520,-2.991,0.641,-0.916,73.333,13648.000,1.000
0.992,0.842,0.802,0.863,0.857,0.862,0.842,1.102,-0.114,0.875,-0.521,-3.082,0.854,-0.763,73.333,13649.000,1.000
-1.787,-2.000,-2.093,-2.013,-2.009,-1.940,-2.014,-1.808,-0.116,0.875,-0.520,-3.082,0.977,-0.641,73.333,13650.000,1.000
-5.100,-5.353,-5.507,-5.406,-5.351,-5.215,-5.387,-5.265,-0.117,0.875,-0.522,-3.143,1.038,-0.488,73.333,13651.000,1.000
-8.605,-8.883,-9.095,-8.963,-8.817,-8.650,-8.925,-8.895,-0.119,0.873,-0.523,-3.021,1.251,-0.214,73.333,13652.000,1.000
-11.844,-12.135,-12.379,-12.200,-11.967,-11.828,-12.161,-12.198,-0.118,0.870,-0.521,-3.021,1.312,0.061,73.333,13653.000,1.000
-14.310,-14.611,-14.823,-14.592,-14.341,-14.273,-14.579,-14.631,-0.119,0.869,-0.517,-2.991,1.404,0.214,73.333,13654.000,1.000
-15.667,-15.977,-16.064,-15.802,-15.640,-15.639,-15.831,-15.841,-0.118,0.868,-0.517,-2.869,1.556,0.275,73.333,13655.000,1.000
-15.714,-16.019,-15.909,-15.671,-15.668,-15.690,-15.732,-15.676,-0.116,0.867,-0.521,-2.747,1.678,0.580,73.333,13656.000,1.000
-14.305,-14.580,-14.269,-14.135,-14.248,-14.253,-14.188,-14.081,-0.116,0.867,-0.521,-2.625,1.770,0.732,73.333,13657.000,1.000
-11.406,-11.632,-11.195,-11.225,-11.325,-11.305,-11.221,-11.106,-0.114,0.864,-0.524,-2.472,1.862,0.916,73.333,13658.000,1.000
-7.201,-7.367,-6.923,-7.115,-7.093,-7.071,-7.021,-6.953,-0.113,0.862,-0.524,-2.197,1.923,1.068,73.333,13659.000,1.000
-2.246,-2.343,-1.986,-2.274,-2.124,-2.127,-2.095,-2.117,-0.115,0.862,-0.522,-1.984,1.892,1.312,73.333,13660.000,1.000
2.609,2.594,2.821,2.528,2.726,2.698,2.757,2.636,-0.119,0.860,-0.522,-1.556,1.953,1.465,73.333,13661.000,1.000
6.514,6.583,6.690,6.468,6.616,6.594,6.697,6.502,-0.121,0.859,-0.521,-1.312,1.984,1.617,73.333,13662.000,1.000
8.999,9.136,9.157,9.045,9.079,9.110,9.225,8.995,-0.123,0.858,-0.521,-1.038,1.862,1.709,73.333,13663.000,1.000
10.171,10.342,10.321,10.318,10.214,10.333,10.410,10.180,-0.124,0.855,-0.524,-0.916,1.740,1.770,73.333,13664.000,1.000
10.485,10.644,10.612,10.695,10.472,10.666,10.681,10.469,-0.126,0.857,-0.523,-0.641,1.587,1.892,73.333,13665.000,1.000
10.395,10.500,10.474,10.611,10.323,10.517,10.515,10.309,-0.129,0.857,-0.527,-0.275,1.373,1.984,73.333,13666.000,1.000
10.132,10.153,10.148,10.316,10.024,10.123,10.182,9.964,-0.127,0.856,-0.529,-0.031,1.190,2.014,73.333,13667.000,1.000
9.740,9.663,9.690,9.877,9.624,9.581,9.749,9.515,-0.127,0.859,-0.529,0.305,0.824,2.045,73.333,13668.000,1.000
9.240,9.078,9.136,9.343,9.143,8.981,9.238,9.016,-0.125,0.860,-0.531,0.610,0.610,2.075,73.333,13669.000,1.000
8.641,8.445,8.528,8.756,8.591,8.388,8.664,8.499,-0.125,0.862,-0.531,0.793,0.336,1.984,73.333,13670.000,1.000
7.984,7.820,7.922,8.162,8.007,7.846,8.073,7.993,-0.124,0.863,-0.533,0.916,0.153,2.075,73.333,13671.000,1.000
7.352,7.268,7.381,7.613,7.466,7.392,7.542,7.534,-0.119,0.864,-0.528,1.190,-0.061,2.106,73.333,13672.000,1.000
6.831,6.842,6.952,7.142,7.030,7.032,7.130,7.153,-0.118,0.865,-0.532,1.282,-0.305,2.106,73.333,13673.000,1.000
6.538,6.633,6.715,6.829,6.787,6.820,6.919,6.924,-0.120,0.868,-0.532,1.373,-0.427,2.136,73.333,13674.000,1.000
6.571,6.709,6.732,6.765,6.814,6.834,6.964,6.924,-0.122,0.868,-0.534,1.343,-0.610,2.045,73.333,13675.000,1.000
6.946,7.063,7.003,7.006,7.117,7.119,7.258,7.182,-0.121,0.868,-0.536,1.617,-0.793,1.923,73.333,13676.000,1.000
7.548,7.593,7.446,7.512,7.595,7.613,7.709,7.631,-0.122,0.867,-0.538,1.617,-0.977,1.862,73.333,13677.000,1.000
8.218,8.189,7.987,8.186,8.141,8.223,8.226,8.171,-0.122,0.869,-0.534,1.648,-1.190,1.831,73.333,13678.000,1.000
8.905,8.837,8.639,8.970,8.759,8.929,8.816,8.778,-0.118,0.871,-0.533,1.648,-1.312,1.709,73.333,13679.000,1.000
9.559,9.491,9.349,9.750,9.421,9.666,9.453,9.401,-0.119,0.872,-0.531,1.740,-1.617,1.648,73.333,13680.000,1.000
10.062,10.027,9.958,10.347,9.990,10.278,10.012,9.907,-0.119,0.875,-0.531,1.740,-1.801,1.434,73.333,13681.000,1.000
10.263,10.298,10.279,10.589,10.284,10.581,10.301,10.128,-0.119,0.876,-0.531,1.648,-1.831,1.251,73.333,13682.000,1.000
10.076,10.212,10.209,10.391,10.189,10.460,10.181,9.959,-0.120,0.876,-0.532,1.434,-1.984,1.160,73.333,13683.000,1.000
9.578,9.810,9.817,9.834,9.758,9.960,9.692,9.466,-0.120,0.878,-0.533,1.404,-2.167,1.007,73.333,13684.000,1.000
8.913,9.192,9.228,9.073,9.108,9.211,8.973,8.790,-0.119,0.878,-0.537,1.190,-2.319,0.763,73.333,13685.000,1.000
8.203,8.462,8.540,8.242,8.343,8.355,8.172,8.051,-0.118,0.878,-0.534,1.068,-2.441,0.610,73.333,13686.000,1.000
7.475,7.665,7.760,7.375,7.500,7.464,7.355,7.281,-0.116,0.877,-0.536,1.068,-2.502,0.519,73.333,13687.000,1.000
6.631,6.739,6.792,6.385,6.518,6.497,6.465,6.408,-0.113,0.876,-0.533,0.824,-2.533,0.397,73.333,13688.000,1.000
5.534,5.598,5.545,5.177,5.316,5.365,5.395,5.331,-0.113,0.874,-0.537,0.732,-2.594,0.244,73.333,13689.000,1.000
4.066,4.143,3.951,3.666,3.817,3.952,4.016,3.943,-0.110,0.875,-0.537,0.580,-2.472,0.092,73.333,13690.000,1.000
2.192,2.319,2.018,1.837,2.006,2.184,2.263,2.207,-0.108,0.874,-0.536,0.488,-2.441,0.153,73.333,13691.000,1.000
-0.030,0.142,-0.185,-0.260,-0.073,0.073,0.170,0.156,-0.107,0.874,-0.536,0.305,-2.350,0.061,73.333,13692.000,1.000
-2.530,-2.344,-2.605,-2.594,-2.399,-2.352,-2.209,-2.193,-0.104,0.874,-0.533,0.275,-2.228,0.153,73.333,13693.000,1.000
-5.255,-5.097,-5.225,-5.179,-4.989,-5.066,-4.848,-4.849,-0.102,0.873,-0.533,0.122,-2.075,0.092,73.333,13694.000,1.000
-8.146,-8.051,-8.029,-8.016,-7.843,-8.015,-7.735,-7.778,-0.101,0.873,-0.534,0.031,-1.831,0.000,73.333,13695.000,1.000
-10.909,-10.901,-10.766,-10.844,-10.697,-10.894,-10.623,-10.675,-0.100,0.868,-0.536,-0.061,-1.648,0.122,73.333,13696.000,1.000
-12.993,-13.075,-12.902,-13.091,-12.976,-13.124,-12.957,-12.933,-0.104,0.866,-0.535,-0.031,-1.282,0.214,73.333,13697.000,1.000
-13.909,-14.060,-13.935,-14.208,-14.113,-14.186,-14.175,-14.007,-0.110,0.865,-0.535,-0.183,-1.068,0.244,73.333,13698.000,1.000
-13.562,-13.736,-13.729,-14.017,-13.906,-13.948,-14.070,-13.764,-0.115,0.864,-0.532,-0.061,-1.099,0.214,73.333,13699.000,1.000
-12.320,-12.465,-12.605,-12.822,-12.661,-12.750,-12.918,-12.559,-0.121,0.865,-0.533,-0.061,-0.885,0.214,73.333,13700.000,1.000
-10.658,-10.729,-10.993,-11.075,-10.865,-11.055,-11.166,-10.864,-0.125,0.865,-0.533,-0.153,-1.068,0.122,73.333,13701.000,1.000
-8.818,-8.810,-9.128,-9.076,-8.850,-9.129,-9.111,-8.951,-0.126,0.865,-0.531,-0.214,-1.068,-0.031,73.333,13702.000,1.000
-6.884,-6.842,-7.132,-7.001,-6.813,-7.106,-6.948,-6.953,-0.125,0.865,-0.533,-0.183,-1.129,-0.061,73.333,13703.000,1.000
-4.926,-4.913,-5.130,-4.988,-4.886,-5.097,-4.851,-4.977,-0.123,0.866,-0.532,-0.305,-1.190,-0.214,73.333,13704.000,1.000
-3.007,-3.068,-3.212,-3.103,-3.102,-3.183,-2.922,-3.094,-0.122,0.868,-0.533,-0.427,-1.434,-0.275,73.333,13705.000,1.000
-1.067,-1.213,-1.322,-1.247,-1.319,-1.297,-1.070,-1.232,-0.120,0.870,-0.531,-0.458,-1.526,-0.214,73.333,13706.000,1.000
0.952,0.744,0.616,0.690,0.585,0.643,0.833,0.693,-0.119,0.870,-0.532,-0.519,-1.434,-0.336,73.333,13707.000,1.000
2.904,2.689,2.489,2.602,2.483,2.529,2.706,2.563,-0.119,0.874,-0.534,-0.763,-1.526,-0.366,73.333,13708.000,1.000
4.536,4.395,4.090,4.255,4.121,4.159,4.336,4.161,-0.119,0.874,-0.529,-0.824,-1.556,-0.397,73.333,13709.000,1.000
5.692,5.713,5.309,5.492,5.344,5.421,5.586,5.371,-0.120,0.876,-0.527,-1.038,-1.495,-0.427,73.333,13710.000,1.000
6.451,6.688,6.225,6.364,6.218,6.380,6.514,6.276,-0.119,0.879,-0.530,-1.312,-1.587,-0.397,73.333,13711.000,1.000
6.954,7.395,6.927,6.970,6.849,7.109,7.200,6.961,-0.119,0.878,-0.527,-1.465,-1.556,-0.397,73.333,13712.000,1.000
7.088,7.658,7.230,7.179,7.095,7.418,7.463,7.232,-0.119,0.881,-0.527,-1.801,-1.434,-0.275,73.333,13713.000,1.000
6.527,7.102,6.756,6.679,6.610,6.930,6.940,6.716,-0.115,0.879,-0.531,-2.014,-1.404,-0.214,73.333,13714.000,1.000
4.999,5.453,5.218,5.209,5.116,5.359,5.366,5.144,-0.115,0.880,-0.528,-2.197,-1.404,0.000,73.333,13715.000,1.000
2.621,2.877,2.742,2.870,2.727,2.850,2.878,2.648,-0.113,0.881,-0.526,-2.380,-1.312,0.000,73.333,13716.000,1.000
-0.136,-0.064,-0.158,0.120,-0.064,-0.062,-0.023,-0.262,-0.111,0.878,-0.528,-2.533,-1.190,0.092,73.333,13717.000,1.000
-2.908,-2.916,-3.032,-2.650,-2.844,-2.933,-2.924,-3.145,-0.111,0.878,-0.530,-2.563,-0.916,0.183,73.333,13718.000,1.000
-5.705,-5.653,-5.813,-5.409,-5.589,-5.731,-5.792,-5.934,-0.109,0.876,-0.529,-2.747,-0.763,0.305,73.333,13719.000,1.000
-8.687,-8.480,-8.659,-8.317,-8.467,-8.638,-8.778,-8.787,-0.112,0.874,-0.533,-2.808,-0.671,0.366,73.333,13720.000,1.000
-11.674,-11.323,-11.467,-11.236,-11.345,-11.534,-11.729,-11.605,-0.112,0.873,-0.530,-2.899,-0.549,0.427,73.333,13721.000,1.000
-14.103,-13.707,-13.749,-13.628,-13.704,-13.900,-14.101,-13.905,-0.116,0.870,-0.532,-2.899,-0.366,0.427,73.333,13722.000,1.000
-15.407,-15.096,-14.992,-14.931,-15.020,-15.191,-15.357,-15.175,-0.118,0.868,-0.533,-2.930,-0.336,0.519,73.333,13723.000,1.000
-15.320,-15.187,-14.952,-14.888,-15.047,-15.136,-15.268,-15.170,-0.117,0.867,-0.530,-2.869,-0.153,0.458,73.333,13724.000,1.000
-13.946,-14.012,-13.731,-13.626,-13.874,-13.822,-13.969,-13.978,-0.122,0.867,-0.530,-2.747,-0.275,0.458,73.333,13725.000,1.000
-11.552,-11.768,-11.547,-11.414,-11.700,-11.487,-11.712,-11.793,-0.124,0.866,-0.529,-2.808,-0.336,0.427,73.333,13726.000,1.000
-8.393,-8.685,-8.580,-8.471,-8.697,-8.372,-8.698,-8.775,-0.128,0.868,-0.528,-2.655,-0.336,0.519,73.333,13727.000,1.000
-4.763,-5.082,-5.076,-5.036,-5.122,-4.794,-5.168,-5.168,-0.129,0.867,-0.525,-2.655,-0.458,0.397,73.333,13728.000,1.000
-1.027,-1.360,-1.390,-1.418,-1.370,-1.152,-1.466,-1.362,-0.126,0.868,-0.527,-2.625,-0.641,0.336,73.333,13729.000,1.000
2.420,2.081,2.082,2.030,2.129,2.165,2.005,2.199,-0.125,0.870,-0.525,-2.502,-0.702,0.305,73.333,13730.000,1.000
5.330,5.008,5.088,5.058,5.110,4.965,4.971,5.228,-0.126,0.871,-0.525,-2.563,-0.763,0.244,73.333,13731.000,1.000
7.661,7.392,7.570,7.588,7.542,7.271,7.364,7.667,-0.123,0.871,-0.524,-2.594,-0.916,0.153,73.333,13732.000,1.000
9.463,9.263,9.541,9.606,9.478,9.155,9.215,9.562,-0.120,0.874,-0.527,-2.533,-0.916,0.061,73.333,13733.000,1.000
10.771,10.599,10.973,11.065,10.903,10.607,10.553,10.930,-0.122,0.876,-0.525,-2.625,-0.854,0.092,73.333,13734.000,1.000
11.486,11.271,11.730,11.807,11.649,11.463,11.297,11.660,-0.118,0.878,-0.525,-2.502,-0.977,0.092,73.333,13735.000,1.000
11.466,11.169,11.693,11.692,11.548,11.534,11.333,11.614,-0.117,0.877,-0.524,-2.686,-0.824,0.122,73.333,13736.000,1.000
10.630,10.294,10.846,10.714,10.573,10.729,10.595,10.739,-0.114,0.878,-0.523,-2.716,-0.824,0.183,73.333,13737.000,1.000
8.966,8.682,9.205,8.947,8.798,9.055,9.040,9.050,-0.112,0.877,-0.524,-2.808,-0.732,0.153,73.333,13738.000,1.000
6.586,6.418,6.847,6.539,6.399,6.636,6.723,6.657,-0.111,0.875,-0.522,-2.747,-0.610,0.214,73.333,13739.000,1.000
3.696,3.653,3.939,3.674,3.591,3.698,3.809,3.759,-0.112,0.877,-0.524,-2.777,-0.519,0.275,73.333,13740.000,1.000
0.571,0.614,0.751,0.588,0.604,0.534,0.574,0.643,-0.112,0.872,-0.523,-2.777,-0.366,0.336,73.333,13741.000,1.000
-2.529,-2.464,-2.441,-2.498,-2.374,-2.590,-2.684,-2.412,-0.112,0.871,-0.525,-2.686,-0.244,0.427,73.333,13742.000,1.000
-5.496,-5.473,-5.519,-5.494,-5.286,-5.566,-5.798,-5.301,-0.115,0.868,-0.525,-2.533,-0.214,0.336,73.333,13743.000,1.000
-8.326,-8.380,-8.461,-8.380,-8.123,-8.383,-8.707,-8.047,-0.117,0.869,-0.525,-2.441,-0.214,0.275,73.333,13744.000,1.000
-10.954,-11.083,-11.172,-11.046,-10.795,-10.972,-11.323,-10.626,-0.118,0.869,-0.525,-2.502,-0.122,0.366,73.333,13745.000,1.000
-13.055,-13.247,-13.317,-13.152,-12.972,-13.043,-13.349,-12.756,-0.119,0.870,-0.526,-2.350,-0.092,0.305,73.333,13746.000,1.000
-14.127,-14.391,-14.395,-14.229,-14.155,-14.147,-14.347,-13.955,-0.120,0.870,-0.524,-2.228,-0.031,0.153,73.333,13747.000,1.000
-13.808,-14.168,-14.046,-13.954,-13.964,-13.945,-13.998,-13.831,-0.122,0.870,-0.522,-2.045,-0.061,0.153,73.333,13748.000,1.000
-12.075,-12.531,-12.243,-12.294,-12.326,-12.371,-12.278,-12.271,-0.122,0.866,-0.523,-2.014,-0.092,0.031,73.333,13749.000,1.000
-9.297,-9.806,-9.370,-9.560,-9.565,-9.709,-9.515,-9.557,-0.122,0.869,-0.524,-1.892,-0.183,0.122,73.333,13750.000,1.000
-6.030,-6.519,-6.015,-6.252,-6.223,-6.443,-6.217,-6.218,-0.122,0.869,-0.526,-1.770,-0.183,0.122,73.333,13751.000,1.000
-2.734,-3.122,-2.670,-2.836,-2.780,-3.023,-2.815,-2.770,-0.124,0.869,-0.524,-1.709,-0.244,0.092,73.333,13752.000,1.000
0.317,0.095,0.387,0.353,0.446,0.235,0.386,0.427,-0.126,0.868,-0.522,-1.526,-0.427,0.000,73.333,13753.000,1.000
2.985,2.941,3.022,3.092,3.259,3.126,3.174,3.175,-0.126,0.869,-0.522,-1.465,-0.397,-0.031,73.333,13754.000,1.000
5.110,5.202,5.091,5.191,5.454,5.423,5.337,5.309,-0.127,0.870,-0.524,-1.434,-0.458,-0.183,73.333,13755.000,1.000
6.561,6.729,6.496,6.565,6.887,6.948,6.748,6.732,-0.127,0.872,-0.520,-1.312,-0.702,-0.214,73.333,13756.000,1.000
7.327,7.533,7.263,7.285,7.573,7.681,7.448,7.485,-0.127,0.870,-0.519,-1.221,-0.702,-0.183,73.333,13757.000,1.000
7.451,7.687,7.445,7.450,7.600,7.695,7.537,7.634,-0.125,0.870,-0.521,-1.099,-0.885,-0.183,73.333,13758.000,1.000
6.994,7.263,7.093,7.106,7.070,7.100,7.106,7.219,-0.125,0.870,-0.521,-0.946,-0.854,-0.183,73.333,13759.000,1.000
5.995,6.298,6.224,6.225,6.058,5.993,6.184,6.252,-0.125,0.871,-0.522,-0.946,-0.916,-0.092,73.333,13760.000,1.000
4.514,4.848,4.863,4.794,4.639,4.480,4.792,4.790,-0.122,0.871,-0.522,-0.946,-0.946,0.000,73.333,13761.000,1.000
2.699,3.050,3.124,2.938,2.944,2.721,3.036,3.002,-0.119,0.873,-0.526,-0.854,-0.885,0.031,73.333,13762.000,1.000
0.774,1.117,1.211,0.910,1.142,0.904,1.119,1.113,-0.117,0.872,-0.525,-0.824,-0.854,0.061,73.333,13763.000,1.000
-1.019,-0.708,-0.633,-0.999,-0.587,-0.800,-0.694,-0.658,-0.116,0.872,-0.524,-0.732,-0.824,0.092,73.333,13764.000,1.000
-2.525,-2.260,-2.232,-2.592,-2.120,-2.299,-2.213,-2.200,-0.116,0.872,-0.525,-0.732,-0.732,0.244,73.333,13765.000,1.000
-3.668,-3.460,-3.485,-3.768,-3.360,-3.531,-3.346,-3.460,-0.116,0.870,-0.524,-0.641,-0.671,0.397,73.333,13766.000,1.000
-4.437,-4.303,-4.368,-4.528,-4.249,-4.449,-4.106,-4.420,-0.114,0.870,-0.525,-0.488,-0.610,0.610,73.333,13767.000,1.000
-4.930,-4.890,-4.971,-5.014,-4.857,-5.088,-4.626,-5.138,-0.115,0.870,-0.528,-0.458,-0.458,0.580,73.333,13768.000,1.000
-5.241,-5.295,-5.361,-5.359,-5.260,-5.479,-4.998,-5.641,-0.117,0.871,-0.526,-0.519,-0.397,0.610,73.333,13769.000,1.000
-5.341,-5.462,-5.491,-5.546,-5.430,-5.566,-5.175,-5.839,-0.118,0.869,-0.526,-0.366,-0.336,0.641,73.333,13770.000,1.000
-5.068,-5.211,-5.202,-5.376,-5.204,-5.208,-4.969,-5.534,-0.119,0.868,-0.526,-0.305,-0.366,0.641,73.333,13771.000,1.000
-4.261,-4.378,-4.342,-4.619,-4.432,-4.286,-4.204,-4.574,-0.120,0.868,-0.527,-0.214,-0.305,0.702,73.333,13772.000,1.000
-2.986,-3.036,-2.979,-3.294,-3.187,-2.894,-2.939,-3.064,-0.122,0.868,-0.528,-0.244,-0.305,0.763,73.333,13773.000,1.000
-1.545,-1.509,-1.427,-1.720,-1.760,-1.349,-1.493,-1.370,-0.121,0.868,-0.530,-0.153,-0.336,0.732,73.333,13774.000,1.000
-0.277,-0.164,-0.059,-0.314,-0.473,-0.017,-0.234,0.080,-0.121,0.868,-0.526,-0.031,-0.366,0.824,73.333,13775.000,1.000
0.745,0.904,1.010,0.778,0.604,1.005,0.753,1.143,-0.125,0.867,-0.528,0.000,-0.458,0.824,73.333,13776.000,1.000
1.720,1.890,1.964,1.730,1.649,1.916,1.692,2.017,-0.126,0.867,-0.527,0.031,-0.519,0.793,73.333,13777.000,1.000
2.798,2.951,2.970,2.723,2.781,2.887,2.772,2.918,-0.128,0.868,-0.528,0.000,-0.580,0.702,73.333,13778.000,1.000
3.920,4.037,4.012,3.750,3.920,3.897,3.953,3.874,-0.129,0.868,-0.528,0.061,-0.610,0.671,73.333,13779.000,1.000
4.899,4.959,4.933,4.657,4.867,4.783,5.010,4.733,-0.127,0.868,-0.526,0.061,-0.732,0.641,73.333,13780.000,1.000
5.610,5.592,5.612,5.329,5.501,5.434,5.746,5.355,-0.127,0.873,-0.526,-0.031,-0.824,0.580,73.333,13781.000,1.000
6.034,5.936,6.025,5.741,5.828,5.835,6.105,5.701,-0.125,0.873,-0.528,-0.061,-0.977,0.641,73.333,13782.000,1.000
6.130,5.986,6.125,5.848,5.841,5.940,6.083,5.742,-0.121,0.876,-0.529,-0.031,-0.916,0.610,73.333,13783.000,1.000
5.841,5.721,5.856,5.606,5.512,5.685,5.703,5.455,-0.121,0.877,-0.526,-0.153,-0.977,0.580,73.333,13784.000,1.000
5.138,5.113,5.173,4.988,4.820,5.028,4.988,4.828,-0.119,0.878,-0.528,-0.214,-1.068,0.488,73.333,13785.000,1.000
4.106,4.204,4.134,4.049,3.836,4.040,4.022,3.916,-0.120,0.878,-0.526,-0.275,-0.946,0.519,73.333,13786.000,1.000
2.958,3.150,2.920,2.954,2.751,2.933,2.970,2.868,-0.121,0.878,-0.525,-0.458,-0.946,0.488,73.333,13787.000,1.000
1.867,2.087,1.703,1.847,1.714,1.884,1.934,1.802,-0.121,0.877,-0.526,-0.580,-0.885,0.610,73.333,13788.000,1.000
0.838,1.010,0.525,0.747,0.714,0.891,0.868,0.712,-0.120,0.877,-0.525,-0.732,-0.702,0.641,73.333,13789.000,1.000
-0.293,-0.220,-0.710,-0.464,-0.413,-0.233,-0.385,-0.529,-0.121,0.879,-0.525,-0.854,-0.702,0.549,73.333,13790.000,1.000
-1.630,-1.665,-2.062,-1.841,-1.750,-1.613,-1.870,-1.956,-0.116,0.880,-0.523,-1.007,-0.610,0.519,73.333,13791.000,1.000
-3.031,-3.146,-3.409,-3.224,-3.126,-3.101,-3.380,-3.374,-0.114,0.878,-0.525,-1.160,-0.488,0.519,73.333,13792.000,1.000
-4.240,-4.387,-4.560,-4.377,-4.277,-4.408,-4.621,-4.523,-0.113,0.878,-0.529,-1.282,-0.366,0.519,73.333,13793.000,1.000
-5.087,-5.211,-5.396,-5.166,-5.052,-5.338,-5.440,-5.284,-0.112,0.875,-0.528,-1.312,-0.305,0.610,73.333,13794.000,1.000
-5.583,-5.637,-5.918,-5.626,-5.506,-5.888,-5.902,-5.721,-0.110,0.877,-0.527,-1.312,-0.061,0.671,73.333,13795.000,1.000
-5.759,-5.722,-6.100,-5.792,-5.702,-6.077,-6.077,-5.883,-0.107,0.878,-0.530,-1.434,0.061,0.641,73.333,13796.000,1.000
-5.528,-5.407,-5.797,-5.560,-5.538,-5.801,-5.868,-5.660,-0.106,0.876,-0.529,-1.404,0.366,0.610,73.333,13797.000,1.000
-4.824,-4.645,-4.930,-4.832,-4.889,-4.987,-5.156,-4.930,-0.107,0.878,-0.529,-1.404,0.488,0.732,73.333,13798.000,1.000
-3.746,-3.554,-3.644,-3.699,-3.814,-3.757,-3.999,-3.755,-0.107,0.875,-0.529,-1.373,0.763,0.793,73.333,13799.000,1.000
-2.616,-2.472,-2.335,-2.501,-2.644,-2.478,-2.717,-2.473,-0.108,0.873,-0.529,-1.373,1.007,0.885,73.333,13800.000,1.000
-1.768,-1.704,-1.379,-1.591,-1.741,-1.515,-1.671,-1.462,-0.109,0.871,-0.531,-1.434,1.099,0.885,73.333,13801.000,1.000
-1.276,-1.270,-0.848,-1.051,-1.201,-0.955,-1.002,-0.844,-0.110,0.867,-0.530,-1.190,1.251,0.885,73.333,13802.000,1.000
-1.037,-1.044,-0.630,-0.788,-0.936,-0.705,-0.690,-0.554,-0.111,0.865,-0.532,-1.038,1.312,0.916,73.333,13803.000,1.000
-0.948,-0.960,-0.631,-0.720,-0.848,-0.678,-0.683,-0.519,-0.112,0.863,-0.536,-0.885,1.434,1.038,73.333,13804.000,1.000
-0.982,-1.038,-0.813,-0.809,-0.895,-0.821,-0.905,-0.684,-0.111,0.860,-0.533,-0.702,1.465,1.099,73.333,13805.000,1.000
-1.031,-1.179,-1.020,-0.918,-0.949,-0.962,-1.132,-0.879,-0.112,0.859,-0.534,-0.427,1.404,1.068,73.333,13806.000,1.000
-0.829,-1.097,-0.935,-0.767,-0.747,-0.794,-1.015,-0.794,-0.117,0.859,-0.533,-0.092,1.312,1.129,73.333,13807.000,1.000
-0.167,-0.545,-0.337,-0.154,-0.093,-0.118,-0.342,-0.225,-0.121,0.858,-0.529,-0.061,1.282,1.038,73.333,13808.000,1.000
0.945,0.527,0.756,0.927,1.008,1.039,0.838,0.816,-0.124,0.858,-0.532,0.183,1.068,0.946,73.333,13809.000,1.000
2.323,1.969,2.141,2.319,2.393,2.487,2.293,2.160,-0.128,0.856,-0.528,0.427,0.763,0.946,73.333,13810.000,1.000
3.835,3.619,3.660,3.898,3.936,4.075,3.846,3.698,-0.133,0.858,-0.526,0.458,0.458,0.885,73.333,13811.000,1.000
5.522,5.442,5.331,5.672,5.665,5.818,5.519,5.458,-0.136,0.858,-0.530,0.580,0.183,0.732,73.333,13812.000,1.000
7.437,7.431,7.205,7.645,7.599,7.747,7.368,7.440,-0.141,0.859,-0.527,0.702,-0.244,0.671,73.333,13813.000,1.000
9.493,9.485,9.222,9.703,9.632,9.776,9.340,9.511,-0.145,0.863,-0.527,0.671,-0.824,0.519,73.333,13814.000,1.000
11.490,11.429,11.207,11.658,11.566,11.701,11.278,11.461,-0.146,0.866,-0.525,0.641,-1.251,0.458,73.333,13815.000,1.000
13.313,13.189,13.063,13.449,13.310,13.417,13.125,13.212,-0.141,0.869,-0.523,0.610,-1.709,0.427,73.333,13816.000,1.000
15.003,14.834,14.833,15.158,14.942,15.003,14.953,14.851,-0.138,0.874,-0.526,0.305,-2.167,0.214,73.333,13817.000,1.000
16.514,16.323,16.444,16.727,16.433,16.455,16.678,16.353,-0.135,0.879,-0.525,0.061,-2.625,0.153,73.333,13818.000,1.000
17.566,17.375,17.579,17.836,17.488,17.499,17.923,17.435,-0.131,0.881,-0.521,-0.153,-3.021,0.153,73.333,13819.000,1.000
17.732,17.569,17.794,18.032,17.654,17.686,18.176,17.669,-0.125,0.888,-0.521,-0.519,-3.265,0.061,73.333,13820.000,1.000
16.682,16.578,16.762,16.978,16.592,16.653,17.080,16.706,-0.121,0.892,-0.521,-0.824,-3.418,-0.031,73.333,13821.000,1.000
14.347,14.312,14.416,14.599,14.239,14.311,14.598,14.430,-0.117,0.895,-0.522,-1.282,-3.296,-0.061,73.333,13822.000,1.000
10.874,10.891,10.901,11.034,10.750,10.812,10.953,10.942,-0.111,0.896,-0.521,-1.740,-3.174,-0.031,73.333,13823.000,1.000
6.567,6.607,6.540,6.605,6.430,6.485,6.550,6.551,-0.105,0.895,-0.523,-2.228,-3.021,0.000,73.333,13824.000,1.000
1.776,1.807,1.718,1.706,1.626,1.706,1.794,1.655,-0.100,0.892,-0.523,-2.686,-2.777,0.061,73.333,13825.000,1.000
-3.193,-3.188,-3.225,-3.311,-3.351,-3.222,-3.032,-3.382,-0.098,0.889,-0.523,-3.052,-2.380,0.092,73.333,13826.000,1.000
-8.098,-8.099,-8.029,-8.177,-8.240,-8.080,-7.755,-8.276,-0.098,0.880,-0.529,-3.235,-1.953,0.153,73.333,13827.000,1.000
-12.799,-12.738,-12.565,-12.758,-12.882,-12.751,-12.295,-12.868,-0.099,0.875,-0.530,-3.204,-1.587,0.183,73.333,13828.000,1.000
-17.211,-17.014,-16.806,-17.023,-17.195,-17.159,-16.607,-17.108,-0.100,0.870,-0.534,-3.204,-1.282,0.244,73.333,13829.000,1.000
-21.254,-20.892,-20.757,-20.961,-21.122,-21.216,-20.633,-21.000,-0.101,0.865,-0.531,-3.113,-0.977,0.305,73.333,13830.000,1.000
-24.734,-24.243,-24.269,-24.415,-24.499,-24.698,-24.182,-24.414,-0.107,0.864,-0.532,-3.052,-0.519,0.336,73.333,13831.000,1.000
-27.277,-26.734,-26.937,-26.998,-26.981,-27.209,-26.853,-26.965,-0.111,0.864,-0.531,-2.838,-0.305,0.397,73.333,13832.000,1.000
-28.471,-27.960,-28.269,-28.248,-28.169,-28.343,-28.186,-28.181,-0.116,0.859,-0.529,-2.655,-0.061,0.305,73.333,13833.000,1.000
-27.970,-27.549,-27.845,-27.773,-27.706,-27.770,-27.793,-27.668,-0.120,0.857,-0.529,-2.502,0.000,0.275,73.333,13834.000,1.000
-25.555,-25.247,-25.433,-25.360,-25.341,-25.287,-25.457,-25.226,-0.124,0.855,-0.531,-2.289,0.000,0.214,73.333,13835.000,1.000
-21.166,-20.973,-21.017,-20.999,-20.998,-20.847,-21.147,-20.855,-0.127,0.857,-0.533,-2.106,0.000,0.153,73.333,13836.000,1.000
-14.964,-14.882,-14.817,-14.883,-14.836,-14.635,-15.046,-14.765,-0.130,0.861,-0.531,-1.770,-0.061,0.244,73.333,13837.000,1.000
-7.381,-7.403,-7.292,-7.427,-7.291,-7.089,-7.583,-7.371,-0.127,0.861,-0.531,-1.617,-0.183,0.275,73.333,13838.000,1.000
1.002,0.900,1.003,0.832,1.074,1.226,0.689,0.824,-0.125,0.862,-0.528,-1.434,-0.214,0.275,73.333,13839.000,1.000
9.492,9.359,9.428,9.238,9.583,9.635,9.102,9.207,-0.122,0.862,-0.532,-1.221,-0.214,0.427,73.333,13840.000,1.000
17.249,17.148,17.181,16.967,17.378,17.304,16.834,16.971,-0.118,0.864,-0.533,-1.007,-0.153,0.458,73.333,13841.000,1.000
23.383,23.372,23.387,23.133,23.523,23.342,23.016,23.215,-0.118,0.866,-0.532,-0.854,-0.183,0.580,73.333,13842.000,1.000
27.188,27.285,27.307,27.021,27.280,27.043,26.941,27.190,-0.118,0.867,-0.533,-0.702,-0.214,0.671,73.333,13843.000,1.000
28.384,28.541,28.591,28.331,28.378,28.142,28.288,28.543,-0.121,0.871,-0.532,-0.641,-0.214,0.885,73.333,13844.000,1.000
27.064,27.197,27.257,27.122,26.967,26.764,27.096,27.304,-0.119,0.872,-0.529,-0.580,-0.153,0.946,73.333,13845.000,1.000
23.543,23.586,23.596,23.674,23.410,23.249,23.641,23.761,-0.117,0.876,-0.530,-0.549,-0.214,1.190,73.333,13846.000,1.000
18.279,18.206,18.107,18.429,18.171,18.049,18.364,18.399,-0.117,0.881,-0.531,-0.458,-0.092,1.343,73.333,13847.000,1.000
11.848,11.668,11.462,11.968,11.791,11.700,11.858,11.852,-0.120,0.883,-0.528,-0.580,-0.214,1.434,73.333,13848.000,1.000
5.055,4.791,4.554,5.114,5.027,4.955,4.979,4.973,-0.124,0.882,-0.528,-0.671,-0.183,1.587,73.333,13849.000,1.000
-1.171,-1.494,-1.646,-1.182,-1.209,-1.280,-1.275,-1.284,-0.128,0.880,-0.525,-0.885,-0.305,1.526,73.333,13850.000,1.000
-6.147,-6.500,-6.482,-6.216,-6.221,-6.301,-6.190,-6.238,-0.131,0.883,-0.525,-0.946,-0.397,1.373,73.333,13851.000,1.000
-9.763,-10.106,-9.910,-9.868,-9.863,-9.952,-9.688,-9.795,-0.132,0.882,-0.525,-1.160,-0.519,1.312,73.333,13852.000,1.000
-12.437,-12.722,-12.425,-12.563,-12.537,-12.628,-12.277,-12.411,-0.132,0.881,-0.525,-1.282,-0.702,1.221,73.333,13853.000,1.000
-14.688,-14.872,-14.586,-14.828,-14.764,-14.855,-14.550,-14.636,-0.129,0.882,-0.527,-1.434,-0.946,0.977,73.333,13854.000,1.000
-16.795,-16.851,-16.669,-16.943,-16.840,-16.933,-16.779,-16.756,-0.128,0.883,-0.528,-1.526,-1.160,0.702,73.333,13855.000,1.000
-18.678,-18.595,-18.567,-18.836,-18.704,-18.791,-18.809,-18.677,-0.123,0.882,-0.527,-1.648,-1.129,0.488,73.333,13856.000,1.000
-19.945,-19.735,-19.859,-20.113,-19.970,-20.040,-20.171,-19.991,-0.122,0.880,-0.527,-1.740,-1.251,0.305,73.333,13857.000,1.000
-20.146,-19.857,-20.064,-20.304,-20.170,-20.228,-20.382,-20.235,-0.118,0.880,-0.525,-1.923,-1.160,0.153,73.333,13858.000,1.000
-19.005,-18.718,-18.889,-19.120,-19.009,-19.086,-19.187,-19.120,-0.116,0.881,-0.522,-2.045,-1.068,-0.061,73.333,13859.000,1.000
-16.581,-16.369,-16.404,-16.615,-16.545,-16.680,-16.684,-16.687,-0.114,0.884,-0.526,-2.228,-1.007,-0.214,73.333,13860.000,1.000
-13.149,-13.041,-12.925,-13.084,-13.074,-13.288,-13.187,-13.208,-0.110,0.884,-0.522,-2.472,-0.763,-0.458,73.333,13861.000,1.000
-8.915,-8.882,-8.690,-8.770,-8.822,-9.113,-8.924,-8.915,-0.107,0.886,-0.520,-2.747,-0.641,-0.519,73.333,13862.000,1.000
-3.902,-3.883,-3.728,-3.735,-3.825,-4.162,-3.917,-3.875,-0.103,0.885,-0.522,-2.960,-0.305,-0.580,73.333,13863.000,1.000
1.898,1.973,2.003,2.028,1.933,1.606,1.864,1.902,-0.101,0.884,-0.521,-3.113,0.000,-0.610,73.333,13864.000,1.000
8.091,8.270,8.143,8.159,8.077,7.820,8.054,8.053,-0.099,0.884,-0.519,-3.357,0.427,-0.641,73.333,13865.000,1.000
13.636,13.925,13.661,13.652,13.580,13.438,13.620,13.587,-0.100,0.882,-0.521,-3.510,0.793,-0.702,73.333,13866.000,1.000
17.230,17.584,17.234,17.217,17.143,17.125,17.237,17.214,-0.099,0.882,-0.521,-3.601,1.068,-0.793,73.333,13867.000,1.000
17.972,18.340,17.957,17.975,17.889,17.969,17.996,18.024,-0.100,0.881,-0.520,-3.723,1.434,-0.732,73.333,13868.000,1.000
15.847,16.203,15.836,15.924,15.824,15.955,15.889,15.979,-0.101,0.880,-0.515,-3.754,1.770,-0.641,73.333,13869.000,1.000
11.598,11.929,11.626,11.764,11.672,11.804,11.655,11.780,-0.102,0.876,-0.516,-3.662,2.014,-0.671,73.333,13870.000,1.000
6.210,6.484,6.301,6.404,6.360,6.446,6.251,6.378,-0.106,0.874,-0.517,-3.754,2.441,-0.549,73.333,13871.000,1.000
0.486,0.668,0.645,0.612,0.655,0.657,0.468,0.583,-0.109,0.872,-0.515,-3.601,2.655,-0.580,73.333,13872.000,1.000
-5.015,-4.937,-4.808,-5.016,-4.880,-4.976,-5.120,-5.004,-0.112,0.869,-0.519,-3.601,2.960,-0.458,73.333,13873.000,1.000
-9.725,-9.729,-9.514,-9.858,-9.653,-9.814,-9.920,-9.773,-0.116,0.865,-0.518,-3.510,2.991,-0.488,73.333,13874.000,1.000
-13.036,-13.089,-12.880,-13.265,-13.026,-13.182,-13.313,-13.098,-0.117,0.860,-0.517,-3.265,3.052,-0.397,73.333,13875.000,1.000
-14.487,-14.554,-14.434,-14.749,-14.501,-14.591,-14.835,-14.526,-0.115,0.857,-0.517,-2.838,3.174,-0.183,73.333,13876.000,1.000
-13.883,-13.946,-13.955,-14.107,-13.862,-13.890,-14.283,-13.897,-0.115,0.855,-0.521,-2.563,3.113,-0.061,73.333,13877.000,1.000
-11.381,-11.462,-11.579,-11.521,-11.285,-11.307,-11.791,-11.401,-0.117,0.853,-0.520,-2.167,3.082,0.122,73.333,13878.000,1.000
-7.414,-7.559,-7.714,-7.467,-7.247,-7.310,-7.771,-7.478,-0.119,0.852,-0.521,-1.862,3.113,0.366,73.333,13879.000,1.000
-2.560,-2.801,-2.908,-2.555,-2.372,-2.461,-2.815,-2.677,-0.123,0.852,-0.519,-1.617,3.082,0.549,73.333,13880.000,1.000
2.624,2.280,2.291,2.650,2.751,2.694,2.476,2.475,-0.126,0.853,-0.518,-1.160,2.838,0.641,73.333,13881.000,1.000
7.733,7.310,7.465,7.755,7.717,7.757,7.665,7.590,-0.128,0.855,-0.518,-0.824,2.594,0.763,73.333,13882.000,1.000
12.497,12.045,12.320,12.505,12.299,12.463,12.479,12.405,-0.129,0.856,-0.521,-0.458,2.380,0.946,73.333,13883.000,1.000
16.775,16.351,16.696,16.758,16.419,16.683,16.786,16.770,-0.131,0.857,-0.524,-0.183,2.045,1.160,73.333,13884.000,1.000
20.407,20.055,20.418,20.363,19.974,20.275,20.440,20.489,-0.131,0.859,-0.524,0.092,1.709,1.373,73.333,13885.000,1.000
23.087,22.819,23.166,23.029,22.680,22.956,23.154,23.220,-0.131,0.863,-0.526,0.336,1.373,1.465,73.333,13886.000,1.000
24.516,24.308,24.622,24.459,24.211,24.433,24.645,24.647,-0.129,0.864,-0.521,0.549,1.068,1.587,73.333,13887.000,1.000
24.612,24.420,24.699,24.558,24.430,24.602,24.823,24.697,-0.128,0.867,-0.523,0.702,0.793,1.709,73.333,13888.000,1.000
23.583,23.380,23.627,23.525,23.507,23.646,23.871,23.603,-0.128,0.870,-0.523,0.885,0.488,1.923,73.333,13889.000,1.000
21.742,21.517,21.752,21.666,21.740,21.839,22.067,21.712,-0.126,0.873,-0.530,0.916,0.153,1.892,73.333,13890.000,1.000
19.305,19.045,19.309,19.193,19.348,19.378,19.611,19.260,-0.125,0.877,-0.525,1.129,-0.214,2.014,73.333,13891.000,1.000
16.385,16.073,16.393,16.210,16.433,16.383,16.618,16.350,-0.125,0.878,-0.526,1.099,-0.488,2.167,73.333,13892.000,1.000
13.027,12.659,13.003,12.766,13.023,12.925,13.148,13.000,-0.123,0.877,-0.525,1.160,-0.671,2.258,73.333,13893.000,1.000
9.328,8.938,9.218,8.994,9.225,9.135,9.330,9.305,-0.122,0.877,-0.527,1.282,-0.885,2.319,73.333,13894.000,1.000
5.476,5.126,5.245,5.129,5.272,5.239,5.384,5.467,-0.121,0.875,-0.527,1.282,-1.068,2.197,73.333,13895.000,1.000
1.684,1.425,1.344,1.398,1.428,1.468,1.532,1.694,-0.122,0.874,-0.531,1.282,-1.373,2.289,73.333,13896.000,1.000
-1.826,-1.979,-2.212,-1.999,-2.059,-1.960,-2.002,-1.805,-0.121,0.872,-0.531,1.343,-1.556,2.319,73.333,13897.000,1.000
-4.794,-4.872,-5.137,-4.838,-4.945,-4.818,-4.946,-4.764,-0.121,0.872,-0.534,1.404,-1.770,2.228,73.333,13898.000,1.000
-6.861,-6.912,-7.081,-6.793,-6.920,-6.788,-6.926,-6.808,-0.120,0.874,-0.531,1.434,-1.984,2.136,73.333,13899.000,1.000
-7.696,-7.754,-7.766,-7.583,-7.707,-7.581,-7.640,-7.623,-0.121,0.873,-0.529,1.434,-2.167,2.045,73.333,13900.000,1.000
-7.203,-7.255,-7.173,-7.157,-7.229,-7.118,-7.053,-7.156,-0.122,0.874,-0.531,1.312,-2.380,1.862,73.333,13901.000,1.000
-5.545,-5.539,-5.503,-5.672,-5.621,-5.535,-5.373,-5.587,-0.120,0.875,-0.532,1.282,-2.594,1.709,73.333,13902.000,1.000
-3.123,-3.013,-3.138,-3.451,-3.236,-3.184,-2.996,-3.286,-0.118,0.873,-0.532,1.282,-2.686,1.404,73.333,13903.000,1.000
-0.439,-0.226,-0.529,-0.900,-0.547,-0.535,-0.389,-0.694,-0.120,0.871,-0.531,1.190,-2.869,1.434,73.333,13904.000,1.000
2.080,2.353,1.941,1.617,2.010,1.984,2.063,1.816,-0.118,0.871,-0.531,1.160,-2.960,1.160,73.333,13905.000,1.000
4.203,4.490,4.068,3.874,4.184,4.134,4.175,4.042,-0.115,0.874,-0.531,1.068,-3.113,0.946,73.333,13906.000,1.000
5.877,6.155,5.821,5.782,5.913,5.867,5.930,5.915,-0.115,0.875,-0.531,0.885,-3.052,0.793,73.333,13907.000,1.000
7.050,7.302,7.134,7.212,7.143,7.127,7.243,7.311,-0.111,0.876,-0.534,0.763,-3.021,0.732,73.333,13908.000,1.000
7.606,7.793,7.825,7.963,7.734,7.755,7.913,8.008,-0.110,0.876,-0.533,0.732,-2.899,0.549,73.333,13909.000,1.000
7.352,7.436,7.626,7.796,7.470,7.522,7.684,7.740,-0.105,0.878,-0.538,0.641,-2.777,0.458,73.333,13910.000,1.000
6.109,6.098,6.349,6.563,6.197,6.267,6.390,6.357,-0.104,0.876,-0.533,0.458,-2.655,0.336,73.333,13911.000,1.000
3.939,3.888,4.097,4.380,4.031,4.107,4.142,4.022,-0.104,0.878,-0.532,0.275,-2.411,0.397,73.333,13912.000,1.000
1.124,1.113,1.214,1.559,1.294,1.366,1.274,1.113,-0.104,0.876,-0.531,0.183,-2.136,0.244,73.333,13913.000,1.000
-2.016,-1.928,-1.943,-1.601,-1.717,-1.658,-1.873,-2.011,-0.107,0.876,-0.530,-0.031,-1.953,0.122,73.333,13914.000,1.000
-5.345,-5.155,-5.240,-4.985,-4.932,-4.896,-5.165,-5.229,-0.112,0.875,-0.530,-0.092,-1.862,0.061,73.333,13915.000,1.000
-8.921,-8.676,-8.763,-8.638,-8.467,-8.453,-8.681,-8.653,-0.114,0.874,-0.532,-0.336,-1.709,-0.092,73.333,13916.000,1.000
-12.802,-12.563,-12.608,-12.579,-12.391,-12.391,-12.516,-12.417,-0.112,0.876,-0.528,-0.488,-1.556,-0.214,73.333,13917.000,1.000
-16.955,-16.759,-16.760,-16.750,-16.641,-16.645,-16.669,-16.547,-0.111,0.877,-0.532,-0.610,-1.373,-0.305,73.333,13918.000,1.000
-21.184,-21.028,-21.032,-20.981,-20.976,-20.983,-20.960,-20.873,-0.112,0.876,-0.530,-0.824,-1.343,-0.336,73.333,13919.000,1.000
-25.077,-24.939,-25.014,-24.911,-24.959,-24.972,-24.965,-24.968,-0.109,0.875,-0.530,-0.946,-1.068,-0.427,73.333,13920.000,1.000
-28.001,-27.862,-28.047,-27.923,-27.952,-27.969,-28.002,-28.130,-0.109,0.875,-0.529,-1.038,-0.977,-0.488,73.333,13921.000,1.000
-29.262,-29.117,-29.388,-29.294,-29.266,-29.269,-29.326,-29.565,-0.109,0.875,-0.525,-1.038,-0.793,-0.488,73.333,13922.000,1.000
-28.507,-28.365,-28.672,-28.633,-28.560,-28.513,-28.576,-28.857,-0.109,0.875,-0.525,-1.129,-0.488,-0.427,73.333,13923.000,1.000
-25.920,-25.786,-26.101,-26.099,-26.009,-25.888,-25.953,-26.199,-0.107,0.875,-0.528,-1.282,-0.305,-0.427,73.333,13924.000,1.000
-22.037,-21.908,-22.226,-22.213,-22.126,-21.941,-22.015,-22.190,-0.106,0.874,-0.525,-1.556,0.000,-0.488,73.333,13925.000,1.000
-17.387,-17.254,-17.569,-17.514,-17.433,-17.215,-17.321,-17.422,-0.105,0.874,-0.528,-1.770,0.153,-0.336,73.333,13926.000,1.000
-12.269,-12.127,-12.425,-12.341,-12.246,-12.031,-12.207,-12.227,-0.107,0.872,-0.531,-1.862,0.397,-0.244,73.333,13927.000,1.000
-6.986,-6.822,-7.107,-7.026,-6.886,-6.712,-6.968,-6.906,-0.109,0.871,-0.529,-1.923,0.580,-0.153,73.333,13928.000,1.000
-2.083,-1.875,-2.180,-2.108,-1.903,-1.813,-2.098,-1.998,-0.111,0.870,-0.527,-1.923,0.793,-0.092,73.333,13929.000,1.000
1.733,1.992,1.638,1.730,1.984,1.961,1.727,1.786,-0.115,0.871,-0.527,-1.923,0.916,-0.061,73.333,13930.000,1.000
4.023,4.307,3.906,4.055,4.312,4.175,4.053,4.000,-0.117,0.874,-0.526,-1.892,0.977,0.061,73.333,13931.000,1.000
4.955,5.210,4.801,5.002,5.219,5.015,5.015,4.818,-0.117,0.875,-0.523,-1.831,1.007,0.153,73.333,13932.000,1.000
4.985,5.164,4.811,4.989,5.161,4.971,5.056,4.725,-0.119,0.875,-0.523,-1.923,1.038,0.244,73.333,13933.000,1.000
4.376,4.456,4.220,4.274,4.416,4.332,4.432,4.017,-0.119,0.877,-0.525,-2.075,1.007,0.305,73.333,13934.000,1.000
3.101,3.077,2.999,2.873,2.990,3.057,3.113,2.700,-0.118,0.874,-0.525,-2.075,1.007,0.275,73.333,13935.000,1.000
1.183,1.067,1.147,0.871,0.956,1.127,1.129,0.805,-0.121,0.875,-0.524,-2.197,1.038,0.305,73.333,13936.000,1.000
-0.970,-1.152,-0.969,-1.290,-1.246,-1.088,-1.108,-1.285,-0.119,0.875,-0.525,-2.197,1.007,0.305,73.333,13937.000,1.000
-2.763,-2.974,-2.770,-3.009,-3.003,-2.980,-2.986,-3.007,-0.120,0.874,-0.522,-2.289,1.007,0.336,73.333,13938.000,1.000
-3.796,-3.990,-3.835,-3.902,-3.930,-4.105,-4.072,-3.971,-0.118,0.875,-0.525,-2.258,0.916,0.488,73.333,13939.000,1.000
-4.029,-4.175,-4.103,-3.984,-4.039,-4.381,-4.309,-4.147,-0.119,0.876,-0.524,-2.197,0.824,0.488,73.333,13940.000,1.000
-3.602,-3.705,-3.710,-3.461,-3.535,-3.929,-3.859,-3.695,-0.119,0.874,-0.523,-2.197,0.732,0.488,73.333,13941.000,1.000
-2.590,-2.680,-2.725,-2.433,-2.539,-2.833,-2.834,-2.705,-0.118,0.876,-0.523,-2.106,0.763,0.549,73.333,13942.000,1.000
-1.081,-1.183,-1.222,-0.971,-1.125,-1.214,-1.335,-1.257,-0.122,0.877,-0.523,-2.228,0.671,0.641,73.333,13943.000,1.000
0.751,0.631,0.624,0.777,0.584,0.707,0.478,0.495,-0.119,0.878,-0.521,-2.319,0.671,0.702,73.333,13944.000,1.000
2.713,2.565,2.605,2.632,2.437,2.694,2.428,2.381,-0.118,0.876,-0.526,-2.350,0.549,0.671,73.333,13945.000,1.000
4.688,4.493,4.604,4.489,4.340,4.615,4.408,4.319,-0.117,0.878,-0.527,-2.411,0.549,0.702,73.333,13946.000,1.000
6.631,6.378,6.589,6.330,6.264,6.444,6.377,6.292,-0.117,0.877,-0.525,-2.411,0.458,0.671,73.333,13947.000,1.000
8.366,8.062,8.385,7.994,8.041,8.058,8.152,8.116,-0.115,0.877,-0.527,-2.472,0.427,0.641,73.333,13948.000,1.000
9.552,9.211,9.617,9.145,9.317,9.180,9.368,9.397,-0.116,0.875,-0.527,-2.441,0.305,0.641,73.333,13949.000,1.000
9.879,9.518,9.955,9.486,9.760,9.543,9.704,9.792,-0.115,0.877,-0.523,-2.411,0.275,0.519,73.333,13950.000,1.000
9.305,8.943,9.368,8.995,9.292,9.088,9.119,9.264,-0.113,0.874,-0.523,-2.411,0.244,0.519,73.333,13951.000,1.000
8.136,7.792,8.180,7.971,8.177,8.053,7.919,8.131,-0.115,0.875,-0.523,-2.319,0.214,0.519,73.333,13952.000,1.000
6.780,6.489,6.814,6.788,6.803,6.791,6.526,6.804,-0.113,0.874,-0.523,-2.197,0.336,0.458,73.333,13953.000,1.000
5.537,5.350,5.598,5.711,5.506,5.596,5.270,5.595,-0.114,0.874,-0.525,-2.106,0.244,0.366,73.333,13954.000,1.000
4.556,4.524,4.718,4.876,4.505,4.659,4.338,4.675,-0.114,0.873,-0.527,-2.075,0.153,0.366,73.333,13955.000,1.000
3.892,4.034,4.235,4.342,3.909,4.079,3.799,4.103,-0.116,0.870,-0.528,-1.984,0.122,0.305,73.333,13956.000,1.000
3.551,3.819,4.087,4.100,3.699,3.852,3.625,3.843,-0.116,0.867,-0.530,-1.801,0.031,0.305,73.333,13957.000,1.000
3.390,3.664,4.020,3.983,3.648,3.770,3.592,3.705,-0.116,0.868,-0.529,-1.526,-0.061,0.275,73.333,13958.000,1.000
3.198,3.345,3.752,3.769,3.472,3.566,3.419,3.476,-0.119,0.868,-0.527,-1.343,-0.061,0.183,73.333,13959.000,1.000
2.864,2.832,3.209,3.368,3.075,3.131,3.012,3.091,-0.120,0.869,-0.525,-1.160,-0.061,0.153,73.333,13960.000,1.000
2.450,2.308,2.563,2.858,2.586,2.587,2.518,2.657,-0.120,0.868,-0.523,-1.038,-0.336,0.000,73.333,13961.000,1.000
2.146,2.045,2.114,2.441,2.252,2.192,2.206,2.383,-0.120,0.867,-0.522,-0.854,-0.458,0.061,73.333,13962.000,1.000
2.096,2.170,2.045,2.264,2.218,2.107,2.218,2.383,-0.120,0.869,-0.522,-0.671,-0.580,0.031,73.333,13963.000,1.000
2.314,2.600,2.336,2.354,2.465,2.316,2.502,2.619,-0.119,0.868,-0.521,-0.671,-0.641,-0.061,73.333,13964.000,1.000
2.712,3.141,2.823,2.637,2.873,2.693,2.910,2.968,-0.119,0.866,-0.522,-0.519,-0.671,-0.092,73.333,13965.000,1.000
3.209,3.660,3.368,3.054,3.362,3.142,3.355,3.355,-0.119,0.868,-0.523,-0.427,-0.885,-0.122,73.333,13966.000,1.000
3.885,4.243,4.032,3.694,4.028,3.739,3.943,3.891,-0.120,0.870,-0.522,-0.336,-1.038,-0.214,73.333,13967.000,1.000
4.788,4.984,4.883,4.602,4.932,4.538,4.754,4.661,-0.122,0.874,-0.523,-0.275,-1.099,-0.183,73.333,13968.000,1.000
5.708,5.728,5.743,5.557,5.849,5.333,5.592,5.488,-0.124,0.875,-0.525,-0.183,-1.129,-0.244,73.333,13969.000,1.000
6.192,6.081,6.176,6.093,6.296,5.692,6.006,5.946,-0.122,0.875,-0.522,-0.092,-1.251,-0.275,73.333,13970.000,1.000
5.802,5.646,5.750,5.754,5.833,5.211,5.546,5.603,-0.124,0.876,-0.525,-0.214,-1.343,-0.244,73.333,13971.000,1.000
4.409,4.294,4.326,4.390,4.358,3.778,4.078,4.310,-0.122,0.876,-0.521,-0.183,-1.465,-0.183,73.333,13972.000,1.000
2.198,2.172,2.086,2.180,2.085,1.584,1.808,2.218,-0.119,0.875,-0.524,-0.244,-1.495,-0.153,73.333,13973.000,1.000
-0.449,-0.385,-0.572,-0.484,-0.599,-0.986,-0.854,-0.335,-0.120,0.875,-0.525,-0.366,-1.526,-0.153,73.333,13974.000,1.000
-3.147,-3.016,-3.243,-3.199,-3.318,-3.546,-3.514,-3.001,-0.118,0.875,-0.525,-0.366,-1.526,-0.061,73.333,13975.000,1.000
-5.629,-5.472,-5.682,-5.708,-5.823,-5.859,-5.941,-5.560,-0.117,0.875,-0.521,-0.397,-1.495,0.000,73.333,13976.000,1.000
-7.725,-7.586,-7.772,-7.856,-7.962,-7.800,-8.003,-7.846,-0.113,0.875,-0.522,-0.275,-1.404,0.061,73.333,13977.000,1.000
-9.414,-9.326,-9.532,-9.629,-9.731,-9.396,-9.691,-9.784,-0.115,0.873,-0.522,-0.305,-1.373,0.153,73.333,13978.000,1.000
-10.806,-10.781,-11.044,-11.117,-11.231,-10.769,-11.092,-11.381,-0.114,0.872,-0.523,-0.244,-1.404,0.153,73.333,13979.000,1.000
-11.965,-12.005,-12.306,-12.351,-12.493,-11.956,-12.232,-12.620,-0.115,0.872,-0.525,-0.183,-1.343,0.214,73.333,13980.000,1.000
-12.752,-12.854,-13.125,-13.142,-13.330,-12.772,-12.938,-13.337,-0.115,0.872,-0.528,-0.275,-1.373,0.183,73.333,13981.000,1.000
-12.798,-12.953,-13.117,-13.089,-13.344,-12.822,-12.838,-13.200,-0.115,0.872,-0.521,-0.275,-1.343,0.275,73.333,13982.000,1.000
-11.795,-11.985,-11.987,-11.897,-12.229,-11.795,-11.665,-11.974,-0.117,0.870,-0.525,-0.122,-1.373,0.305,73.333,13983.000,1.000
-9.754,-9.956,-9.787,-9.649,-10.032,-9.720,-9.504,-9.747,-0.117,0.870,-0.523,-0.183,-1.312,0.305,73.333,13984.000,1.000
-7.064,-7.252,-6.954,-6.819,-7.187,-7.008,-6.804,-6.953,-0.119,0.870,-0.521,-0.031,-1.221,0.336,73.333,13985.000,1.000
-4.314,-4.469,-4.113,-4.049,-4.326,-4.278,-4.153,-4.185,-0.119,0.867,-0.521,0.000,-1.160,0.397,73.333,13986.000,1.000
-1.938,-2.049,-1.695,-1.760,-1.894,-1.960,-1.921,-1.837,-0.119,0.865,-0.525,0.122,-1.160,0.366,73.333,13987.000,1.000
-0.033,-0.098,0.217,0.018,0.036,-0.110,-0.119,0.048,-0.118,0.867,-0.523,0.183,-1.312,0.336,73.333,13988.000,1.000
1.557,1.537,1.792,1.521,1.648,1.475,1.467,1.655,-0.119,0.868,-0.524,0.244,-1.190,0.427,73.333,13989.000,1.000
2.964,2.975,3.154,2.909,3.051,2.925,2.955,3.099,-0.119,0.869,-0.527,0.214,-1.160,0.488,73.333,13990.000,1.000
4.091,4.101,4.192,4.058,4.103,4.106,4.186,4.254,-0.118,0.870,-0.529,0.153,-1.221,0.336,73.333,13991.000,1.000
4.752,4.712,4.718,4.725,4.607,4.788,4.909,4.913,-0.117,0.871,-0.528,0.183,-1.282,0.366,73.333,13992.000,1.000
4.830,4.713,4.643,4.760,4.504,4.846,4.984,4.955,-0.119,0.873,-0.526,0.183,-1.343,0.427,73.333,13993.000,1.000
4.388,4.220,4.081,4.236,3.949,4.373,4.497,4.457,-0.118,0.876,-0.529,0.214,-1.251,0.549,73.333,13994.000,1.000
3.628,3.481,3.277,3.397,3.209,3.620,3.694,3.652,-0.118,0.876,-0.527,0.244,-1.343,0.519,73.333,13995.000,1.000
2.724,2.671,2.416,2.456,2.464,2.788,2.781,2.743,-0.118,0.878,-0.525,0.214,-1.312,0.641,73.333,13996.000,1.000
1.776,1.846,1.571,1.532,1.752,1.961,1.861,1.828,-0.116,0.876,-0.528,0.183,-1.251,0.580,73.333,13997.000,1.000
0.768,0.934,0.694,0.607,0.974,1.076,0.907,0.879,-0.116,0.876,-0.527,0.000,-1.129,0.702,73.333,13998.000,1.000
-0.381,-0.188,-0.323,-0.423,-0.011,0.010,-0.174,-0.194,-0.115,0.876,-0.526,-0.153,-1.099,0.671,73.333,13999.000,1.000
-1.725,-1.569,-1.549,-1.659,-1.271,-1.316,-1.450,-1.448,-0.114,0.875,-0.530,-0.092,-1.099,0.580,73.333,14000.000,1.000
-3.217,-3.121,-2.957,-3.091,-2.754,-2.859,-2.894,-2.839,-0.117,0.875,-0.528,-0.183,-1.038,0.580,73.333,14001.000,1.000
-4.622,-4.563,-4.331,-4.486,-4.216,-4.367,-4.286,-4.142,-0.117,0.873,-0.529,-0.122,-1.007,0.671,73.333,14002.000,1.000
-5.637,-5.563,-5.368,-5.502,-5.324,-5.488,-5.319,-5.065,-0.117,0.872,-0.530,-0.153,-0.946,0.580,73.333,14003.000,1.000
-6.045,-5.909,-5.825,-5.885,-5.832,-5.955,-5.762,-5.417,-0.115,0.872,-0.531,-0.061,-0.854,0.671,73.333,14004.000,1.000
-5.804,-5.591,-5.624,-5.584,-5.681,-5.706,-5.550,-5.185,-0.116,0.872,-0.532,-0.092,-0.824,0.641,73.333,14005.000,1.000
-5.009,-4.740,-4.843,-4.718,-4.960,-4.839,-4.760,-4.479,-0.116,0.871,-0.530,-0.122,-0.824,0.610,73.333,14006.000,1.000
-3.759,-3.474,-3.579,-3.422,-3.752,-3.474,-3.481,-3.374,-0.118,0.872,-0.531,-0.061,-0.916,0.580,73.333,14007.000,1.000
-2.187,-1.926,-1.971,-1.853,-2.160,-1.777,-1.858,-1.946,-0.118,0.870,-0.531,-0.031,-0.885,0.549,73.333,14008.000,1.000
-0.420,-0.218,-0.165,-0.123,-0.302,0.073,-0.043,-0.269,-0.118,0.870,-0.532,-0.122,-0.854,0.580,73.333,14009.000,1.000
1.532,1.656,1.799,1.786,1.782,2.022,1.921,1.652,-0.121,0.869,-0.530,0.000,-0.977,0.519,73.333,14010.000,1.000
3.737,3.783,3.972,3.962,4.105,4.130,4.080,3.853,-0.121,0.868,-0.532,-0.031,-1.129,0.427,73.333,14011.000,1.000
6.216,6.214,6.397,6.439,6.649,6.463,6.469,6.320,-0.121,0.868,-0.533,0.031,-1.068,0.549,73.333,14012.000,1.000
8.779,8.778,8.914,9.019,9.205,8.886,8.933,8.852,-0.120,0.866,-0.533,0.031,-1.160,0.488,73.333,14013.000,1.000
11.021,11.064,11.114,11.256,11.372,11.022,11.086,11.038,-0.122,0.868,-0.531,-0.061,-1.190,0.519,73.333,14014.000,1.000
12.486,12.592,12.513,12.642,12.722,12.426,12.476,12.426,-0.122,0.870,-0.530,0.000,-1.251,0.519,73.333,14015.000,1.000
12.915,13.066,12.843,12.903,13.040,12.841,12.849,12.775,-0.123,0.874,-0.527,-0.183,-1.282,0.427,73.333,14016.000,1.000
12.467,12.614,12.283,12.240,12.512,12.403,12.369,12.268,-0.120,0.875,-0.528,-0.275,-1.282,0.305,73.333,14017.000,1.000
11.564,11.653,11.294,11.150,11.560,11.502,11.463,11.352,-0.119,0.881,-0.527,-0.549,-1.373,0.336,73.333,14018.000,1.000
10.580,10.601,10.300,10.098,10.552,10.516,10.515,10.426,-0.118,0.883,-0.528,-0.824,-1.251,0.336,73.333,14019.000,1.000
9.646,9.631,9.458,9.263,9.617,9.598,9.659,9.626,-0.116,0.885,-0.526,-1.007,-1.312,0.366,73.333,14020.000,1.000
8.648,8.640,8.626,8.503,8.640,8.645,8.764,8.796,-0.113,0.885,-0.527,-1.099,-1.099,0.305,73.333,14021.000,1.000
7.462,7.493,7.617,7.601,7.497,7.523,7.679,7.740,-0.112,0.887,-0.526,-1.221,-0.946,0.244,73.333,14022.000,1.000
6.050,6.130,6.327,6.404,6.133,6.175,6.338,6.365,-0.108,0.885,-0.526,-1.465,-0.671,0.153,73.333,14023.000,1.000
4.406,4.518,4.706,4.823,4.508,4.569,4.715,4.653,-0.106,0.885,-0.529,-1.495,-0.488,0.214,73.333,14024.000,1.000
2.479,2.584,2.700,2.796,2.550,2.632,2.751,2.588,-0.103,0.885,-0.527,-1.923,-0.275,0.183,73.333,14025.000,1.000
0.240,0.290,0.321,0.366,0.244,0.331,0.411,0.198,-0.104,0.883,-0.529,-2.045,0.031,0.122,73.333,14026.000,1.000
-2.127,-2.164,-2.189,-2.171,-2.195,-2.132,-2.111,-2.292,-0.103,0.881,-0.530,-2.167,0.336,0.214,73.333,14027.000,1.000
-4.301,-4.427,-4.475,-4.430,-4.436,-4.417,-4.468,-4.553,-0.104,0.879,-0.528,-2.106,0.549,0.214,73.333,14028.000,1.000
-6.046,-6.231,-6.292,-6.188,-6.243,-6.264,-6.372,-6.359,-0.105,0.877,-0.529,-2.167,0.824,0.244,73.333,14029.000,1.000
-7.334,-7.524,-7.603,-7.452,-7.567,-7.616,-7.725,-7.664,-0.104,0.873,-0.532,-2.075,1.068,0.214,73.333,14030.000,1.000
-8.238,-8.376,-8.479,-8.319,-8.453,-8.527,-8.565,-8.514,-0.105,0.868,-0.533,-2.136,1.373,0.153,73.333,14031.000,1.000
-8.674,-8.728,-8.850,-8.704,-8.806,-8.907,-8.836,-8.823,-0.104,0.865,-0.536,-2.075,1.556,0.244,73.333,14032.000,1.000
-8.452,-8.424,-8.547,-8.414,-8.440,-8.569,-8.412,-8.439,-0.106,0.861,-0.536,-1.770,1.801,0.183,73.333,14033.000,1.000
-7.509,-7.425,-7.528,-7.398,-7.323,-7.474,-7.296,-7.359,-0.108,0.856,-0.534,-1.465,2.014,0.183,73.333,14034.000,1.000
-5.962,-5.858,-5.942,-5.800,-5.641,-5.797,-5.671,-5.767,-0.112,0.850,-0.537,-1.221,2.106,0.183,73.333,14035.000,1.000
-3.958,-3.865,-3.956,-3.790,-3.603,-3.742,-3.711,-3.836,-0.115,0.847,-0.535,-0.824,2.167,0.214,73.333,14036.000,1.000
-1.487,-1.430,-1.545,-1.358,-1.222,-1.311,-1.374,-1.518,-0.117,0.844,-0.544,-0.519,2.502,0.092,73.333,14037.000,1.000
1.445,1.460,1.328,1.525,1.546,1.539,1.402,1.277,-0.122,0.841,-0.543,-0.458,2.960,-0.122,73.333,14038.000,1.000
4.622,4.602,4.476,4.686,4.577,4.651,4.465,4.411,-0.131,0.838,-0.535,0.214,2.686,-0.031,73.333,14039.000,1.000
7.699,7.640,7.553,7.799,7.608,7.716,7.493,7.544,-0.139,0.839,-0.531,0.916,1.892,0.153,73.333,14040.000,1.000
10.444,10.326,10.306,10.605,10.424,10.500,10.236,10.392,-0.142,0.843,-0.531,1.373,1.251,0.305,73.333,14041.000,1.000
12.902,12.712,12.772,13.096,13.015,13.027,12.708,12.938,-0.145,0.850,-0.530,1.617,0.671,0.275,73.333,14042.000,1.000
15.231,14.982,15.116,15.401,15.454,15.421,15.063,15.309,-0.149,0.854,-0.529,1.648,0.122,0.336,73.333,14043.000,1.000
17.520,17.238,17.424,17.609,17.755,17.729,17.393,17.588,-0.152,0.857,-0.526,1.617,-0.519,0.305,73.333,14044.000,1.000
19.724,19.427,19.639,19.704,19.848,19.881,19.646,19.738,-0.154,0.862,-0.527,1.465,-1.068,0.244,73.333,14045.000,1.000
21.637,21.333,21.538,21.508,21.564,21.676,21.596,21.572,-0.153,0.868,-0.525,1.404,-1.770,0.183,73.333,14046.000,1.000
22.956,22.643,22.806,22.724,22.672,22.840,22.912,22.810,-0.150,0.876,-0.521,1.312,-2.380,0.214,73.333,14047.000,1.000
23.347,23.004,23.112,23.010,22.904,23.080,23.251,23.125,-0.143,0.887,-0.523,1.038,-2.808,0.214,73.333,14048.000,1.000
22.617,22.211,22.286,22.168,22.093,22.233,22.432,22.317,-0.134,0.892,-0.522,0.641,-3.021,0.183,73.333,14049.000,1.000
20.797,20.313,20.393,20.244,20.267,20.360,20.526,20.424,-0.125,0.894,-0.523,0.061,-3.296,0.244,73.333,14050.000,1.000
17.990,17.472,17.566,17.381,17.519,17.599,17.694,17.587,-0.118,0.895,-0.522,-0.610,-3.326,0.397,73.333,14051.000,1.000
14.276,13.802,13.894,13.697,13.907,14.023,14.053,13.925,-0.111,0.897,-0.528,-1.129,-3.174,0.519,73.333,14052.000,1.000
9.647,9.276,9.362,9.182,9.391,9.564,9.578,9.434,-0.103,0.901,-0.525,-1.678,-2.930,0.610,73.333,14053.000,1.000
4.056,3.792,3.888,3.740,3.890,4.082,4.146,4.019,-0.096,0.901,-0.529,-2.167,-2.594,0.763,73.333,14054.000,1.000
-2.516,-2.709,-2.570,-2.690,-2.635,-2.496,-2.329,-2.399,-0.094,0.899,-0.531,-2.594,-2.258,0.854,73.333,14055.000,1.000
-9.947,-10.097,-9.897,-9.991,-10.049,-10.026,-9.735,-9.733,-0.090,0.896,-0.532,-3.082,-1.740,0.946,73.333,14056.000,1.000
-17.769,-17.863,-17.627,-17.696,-17.841,-17.962,-17.578,-17.524,-0.088,0.892,-0.529,-3.510,-1.129,1.068,73.333,14057.000,1.000
-25.292,-25.298,-25.084,-25.134,-25.299,-25.542,-25.154,-25.077,-0.088,0.887,-0.527,-3.876,-0.519,1.190,73.333,14058.000,1.000
