EEG 1,EEG 2,EEG 3,EEG 4,EEG 5,EEG 6,EEG 7,EEG 8,Accelerometer X,Accelerometer Y,Accelerometer Z,Gyroscope X,Gyroscope Y,Gyroscope Z,Battery Level,Counter,Validation Indicator
0.817,0.618,1.026,0.898,0.637,0.977,0.661,0.893,-0.134,0.845,-0.563,-0.916,-0.458,0.763,73.333,36145.000,1.000
0.896,0.747,1.069,0.998,0.860,1.092,0.734,0.951,-0.137,0.845,-0.563,-0.854,-0.671,0.763,73.333,36146.000,1.000
1.102,0.973,1.215,1.179,1.142,1.261,0.940,1.079,-0.139,0.846,-0.565,-0.763,-0.763,0.671,73.333,36147.000,1.000
1.273,1.105,1.338,1.289,1.326,1.379,1.146,1.187,-0.141,0.844,-0.565,-0.671,-0.977,0.519,73.333,36148.000,1.000
1.257,1.020,1.306,1.217,1.296,1.346,1.218,1.181,-0.138,0.845,-0.565,-0.671,-1.099,0.275,73.333,36149.000,1.000
0.956,0.681,0.994,0.909,0.988,1.076,1.039,0.962,-0.135,0.846,-0.566,-0.580,-1.190,0.305,73.333,36150.000,1.000
0.336,0.087,0.340,0.355,0.374,0.505,0.518,0.441,-0.133,0.845,-0.563,-0.549,-1.251,0.214,73.333,36151.000,1.000
-0.525,-0.682,-0.573,-0.387,-0.468,-0.319,-0.320,-0.366,-0.130,0.843,-0.564,-0.641,-1.282,0.244,73.333,36152.000,1.000
-1.304,-1.331,-1.383,-1.050,-1.219,-1.090,-1.151,-1.162,-0.131,0.844,-0.566,-0.488,-1.343,0.214,73.333,36153.000,1.000
-1.440,-1.344,-1.508,-1.134,-1.337,-1.266,-1.363,-1.367,-0.131,0.843,-0.567,-0.488,-1.495,0.275,73.333,36154.000,1.000
-0.396,-0.227,-0.427,-0.107,-0.307,-0.309,-0.381,-0.412,-0.132,0.845,-0.567,-0.366,-1.526,0.153,73.333,36155.000,1.000
1.837,2.032,1.844,2.085,1.893,1.837,1.814,1.735,-0.132,0.844,-0.563,-0.336,-1.434,0.122,73.333,36156.000,1.000
4.517,4.726,4.535,4.738,4.556,4.480,4.474,4.344,-0.132,0.847,-0.565,-0.336,-1.495,0.153,73.333,36157.000,1.000
6.456,6.689,6.442,6.658,6.509,6.425,6.394,6.228,-0.131,0.848,-0.565,-0.275,-1.556,0.153,73.333,36158.000,1.000
6.599,6.853,6.518,6.762,6.667,6.562,6.505,6.326,-0.131,0.849,-0.570,-0.305,-1.434,0.183,73.333,36159.000,1.000
4.674,4.921,4.527,4.775,4.732,4.580,4.539,4.368,-0.131,0.850,-0.567,-0.336,-1.343,0.336,73.333,36160.000,1.000
1.351,1.548,1.188,1.393,1.380,1.165,1.188,1.048,-0.129,0.848,-0.566,-0.366,-1.282,0.336,73.333,36161.000,1.000
-2.229,-2.113,-2.333,-2.212,-2.211,-2.491,-2.381,-2.473,-0.131,0.850,-0.566,-0.305,-1.282,0.458,73.333,36162.000,1.000
-5.099,-5.064,-5.100,-5.069,-5.044,-5.368,-5.189,-5.223,-0.132,0.849,-0.567,-0.244,-1.129,0.488,73.333,36163.000,1.000
-6.882,-6.897,-6.791,-6.799,-6.741,-7.059,-6.869,-6.844,-0.132,0.848,-0.564,-0.214,-1.068,0.610,73.333,36164.000,1.000
-7.678,-7.697,-7.537,-7.509,-7.432,-7.670,-7.541,-7.468,-0.131,0.846,-0.565,-0.305,-1.068,0.641,73.333,36165.000,1.000
-7.784,-7.774,-7.642,-7.535,-7.461,-7.558,-7.533,-7.451,-0.130,0.847,-0.567,-0.244,-0.946,0.702,73.333,36166.000,1.000
-7.522,-7.489,-7.430,-7.261,-7.191,-7.144,-7.200,-7.177,-0.129,0.847,-0.564,-0.214,-1.038,0.732,73.333,36167.000,1.000
-7.168,-7.138,-7.172,-6.988,-6.901,-6.773,-6.829,-6.940,-0.130,0.848,-0.571,-0.153,-0.977,0.702,73.333,36168.000,1.000
-6.948,-6.936,-7.073,-6.913,-6.781,-6.668,-6.644,-6.918,-0.127,0.847,-0.569,-0.244,-0.824,0.885,73.333,36169.000,1.000
-6.933,-6.938,-7.168,-7.060,-6.866,-6.832,-6.709,-7.094,-0.127,0.849,-0.569,-0.244,-0.702,0.946,73.333,36170.000,1.000
-7.063,-7.085,-7.344,-7.334,-7.076,-7.121,-6.954,-7.328,-0.127,0.849,-0.566,-0.305,-0.610,0.977,73.333,36171.000,1.000
-7.269,-7.323,-7.506,-7.633,-7.343,-7.421,-7.303,-7.516,-0.126,0.850,-0.567,-0.366,-0.488,1.099,73.333,36172.000,1.000
-7.482,-7.579,-7.601,-7.862,-7.594,-7.662,-7.659,-7.613,-0.128,0.849,-0.568,-0.519,-0.427,1.068,73.333,36173.000,1.000
-7.557,-7.689,-7.541,-7.883,-7.679,-7.721,-7.844,-7.550,-0.127,0.849,-0.567,-0.427,-0.397,0.946,73.333,36174.000,1.000
-7.218,-7.368,-7.103,-7.448,-7.320,-7.334,-7.563,-7.134,-0.128,0.848,-0.565,-0.519,-0.305,0.977,73.333,36175.000,1.000
-6.239,-6.393,-6.088,-6.363,-6.305,-6.289,-6.589,-6.184,-0.129,0.848,-0.564,-0.488,-0.214,0.946,73.333,36176.000,1.000
-4.644,-4.784,-4.511,-4.665,-4.682,-4.631,-4.945,-4.691,-0.128,0.848,-0.564,-0.580,-0.214,0.916,73.333,36177.000,1.000
-2.654,-2.751,-2.555,-2.573,-2.681,-2.591,-2.846,-2.795,-0.128,0.845,-0.565,-0.580,-0.153,1.068,73.333,36178.000,1.000
-0.606,-0.626,-0.512,-0.429,-0.610,-0.487,-0.630,-0.761,-0.126,0.847,-0.567,-0.671,-0.092,0.946,73.333,36179.000,1.000
1.219,1.300,1.354,1.461,1.279,1.411,1.400,1.158,-0.126,0.846,-0.566,-0.671,-0.061,0.793,73.333,36180.000,1.000
2.678,2.850,2.865,2.921,2.835,2.938,3.052,2.793,-0.128,0.848,-0.566,-0.610,-0.092,0.732,73.333,36181.000,1.000
3.708,3.914,3.896,3.872,3.937,3.988,4.193,4.002,-0.129,0.846,-0.566,-0.671,0.092,0.763,73.333,36182.000,1.000
4.268,4.422,4.377,4.298,4.492,4.501,4.732,4.662,-0.129,0.845,-0.567,-0.641,0.122,0.610,73.333,36183.000,1.000
4.307,4.351,4.306,4.207,4.455,4.452,4.638,4.694,-0.129,0.845,-0.567,-0.610,0.061,0.671,73.333,36184.000,1.000
3.871,3.818,3.806,3.707,3.927,3.936,4.033,4.182,-0.131,0.845,-0.566,-0.702,0.031,0.641,73.333,36185.000,1.000
3.113,3.039,3.060,2.966,3.110,3.141,3.138,3.331,-0.131,0.845,-0.565,-0.793,-0.031,0.580,73.333,36186.000,1.000
2.186,2.181,2.213,2.118,2.175,2.226,2.135,2.326,-0.132,0.844,-0.567,-0.854,-0.061,0.580,73.333,36187.000,1.000
1.208,1.341,1.361,1.259,1.227,1.283,1.139,1.305,-0.132,0.844,-0.566,-0.824,-0.061,0.519,73.333,36188.000,1.000
0.259,0.547,0.540,0.436,0.311,0.343,0.211,0.353,-0.130,0.843,-0.567,-0.732,-0.031,0.427,73.333,36189.000,1.000
-0.553,-0.159,-0.218,-0.300,-0.504,-0.533,-0.569,-0.452,-0.131,0.842,-0.568,-0.671,-0.031,0.366,73.333,36190.000,1.000
-1.148,-0.736,-0.887,-0.904,-1.157,-1.274,-1.140,-1.078,-0.130,0.844,-0.565,-0.641,-0.061,0.305,73.333,36191.000,1.000
-1.544,-1.188,-1.457,-1.370,-1.641,-1.844,-1.514,-1.556,-0.131,0.844,-0.566,-0.641,-0.244,0.214,73.333,36192.000,1.000
-1.778,-1.510,-1.885,-1.675,-1.942,-2.193,-1.718,-1.896,-0.129,0.845,-0.567,-0.732,-0.214,0.244,73.333,36193.000,1.000
-1.874,-1.693,-2.126,-1.820,-2.063,-2.292,-1.800,-2.083,-0.132,0.847,-0.566,-0.671,-0.275,0.183,73.333,36194.000,1.000
-1.802,-1.694,-2.127,-1.806,-1.996,-2.145,-1.775,-2.081,-0.133,0.849,-0.566,-0.610,-0.305,0.183,73.333,36195.000,1.000
-1.490,-1.439,-1.832,-1.596,-1.711,-1.767,-1.598,-1.838,-0.133,0.851,-0.570,-0.641,-0.488,0.244,73.333,36196.000,1.000
-0.911,-0.891,-1.237,-1.147,-1.196,-1.185,-1.207,-1.344,-0.132,0.850,-0.570,-0.641,-0.488,0.305,73.333,36197.000,1.000
-0.150,-0.124,-0.441,-0.491,-0.503,-0.465,-0.610,-0.667,-0.132,0.850,-0.565,-0.763,-0.580,0.305,73.333,36198.000,1.000
0.570,0.631,0.343,0.205,0.202,0.225,0.041,0.005,-0.133,0.850,-0.565,-0.732,-0.671,0.305,73.333,36199.000,1.000
1.070,1.182,0.955,0.789,0.779,0.753,0.598,0.517,-0.134,0.849,-0.568,-0.793,-0.824,0.336,73.333,36200.000,1.000
1.361,1.516,1.397,1.248,1.222,1.131,1.049,0.871,-0.134,0.849,-0.569,-0.885,-0.916,0.336,73.333,36201.000,1.000
1.583,1.748,1.762,1.656,1.604,1.465,1.475,1.179,-0.135,0.850,-0.568,-0.854,-0.977,0.244,73.333,36202.000,1.000
1.897,2.015,2.151,2.096,2.011,1.866,1.967,1.578,-0.136,0.851,-0.568,-1.038,-1.038,0.305,73.333,36203.000,1.000
2.369,2.378,2.598,2.592,2.474,2.366,2.539,2.126,-0.137,0.851,-0.570,-1.129,-1.160,0.336,73.333,36204.000,1.000
2.974,2.832,3.103,3.122,2.990,2.943,3.147,2.798,-0.135,0.852,-0.564,-1.190,-1.251,0.427,73.333,36205.000,1.000
3.551,3.263,3.555,3.563,3.449,3.457,3.642,3.435,-0.135,0.853,-0.567,-1.282,-1.221,0.397,73.333,36206.000,1.000
3.822,3.449,3.714,3.675,3.623,3.646,3.774,3.757,-0.133,0.854,-0.566,-1.312,-1.282,0.519,73.333,36207.000,1.000
3.585,3.221,3.401,3.301,3.347,3.327,3.384,3.565,-0.133,0.853,-0.566,-1.404,-1.343,0.610,73.333,36208.000,1.000
2.805,2.532,2.600,2.449,2.590,2.483,2.492,2.821,-0.131,0.848,-0.562,-1.465,-1.404,0.610,73.333,36209.000,1.000
1.653,1.512,1.491,1.314,1.505,1.312,1.319,1.694,-0.130,0.847,-0.563,-1.495,-1.373,0.580,73.333,36210.000,1.000
0.444,0.428,0.370,0.198,0.383,0.144,0.195,0.505,-0.129,0.848,-0.561,-1.556,-1.404,0.671,73.333,36211.000,1.000
-0.541,-0.466,-0.511,-0.665,-0.510,-0.735,-0.631,-0.456,-0.130,0.848,-0.566,-1.495,-1.343,0.793,73.333,36212.000,1.000
-1.192,-1.074,-1.074,-1.221,-1.084,-1.239,-1.119,-1.083,-0.128,0.847,-0.568,-1.434,-1.312,0.793,73.333,36213.000,1.000
-1.642,-1.544,-1.479,-1.641,-1.490,-1.553,-1.460,-1.530,-0.127,0.844,-0.566,-1.648,-1.221,0.824,73.333,36214.000,1.000
-2.099,-2.079,-1.943,-2.136,-1.947,-1.948,-1.886,-2.022,-0.127,0.844,-0.567,-1.587,-1.129,0.854,73.333,36215.000,1.000
-2.705,-2.800,-2.595,-2.828,-2.588,-2.598,-2.528,-2.690,-0.127,0.845,-0.569,-1.587,-1.099,0.885,73.333,36216.000,1.000
-3.533,-3.745,-3.481,-3.750,-3.471,-3.552,-3.439,-3.577,-0.127,0.845,-0.569,-1.587,-0.977,0.854,73.333,36217.000,1.000
-4.534,-4.839,-4.536,-4.823,-4.532,-4.702,-4.541,-4.619,-0.128,0.843,-0.566,-1.587,-0.854,0.885,73.333,36218.000,1.000
-5.537,-5.899,-5.591,-5.864,-5.601,-5.819,-5.641,-5.652,-0.129,0.844,-0.564,-1.495,-0.763,0.824,73.333,36219.000,1.000
-6.296,-6.673,-6.407,-6.631,-6.431,-6.620,-6.475,-6.427,-0.130,0.846,-0.564,-1.404,-0.824,0.824,73.333,36220.000,1.000
-6.608,-6.960,-6.772,-6.915,-6.806,-6.889,-6.809,-6.727,-0.130,0.848,-0.563,-1.495,-0.732,0.702,73.333,36221.000,1.000
-6.367,-6.660,-6.562,-6.607,-6.587,-6.534,-6.511,-6.438,-0.126,0.848,-0.564,-1.434,-0.610,0.671,73.333,36222.000,1.000
-5.518,-5.733,-5.714,-5.674,-5.697,-5.539,-5.541,-5.529,-0.125,0.847,-0.563,-1.343,-0.549,0.580,73.333,36223.000,1.000
-4.178,-4.305,-4.338,-4.259,-4.250,-4.063,-4.068,-4.153,-0.125,0.846,-0.564,-1.373,-0.427,0.702,73.333,36224.000,1.000
-2.668,-2.690,-2.746,-2.683,-2.587,-2.434,-2.459,-2.636,-0.124,0.847,-0.563,-1.404,-0.336,0.610,73.333,36225.000,1.000
-1.336,-1.224,-1.284,-1.276,-1.079,-0.983,-1.079,-1.292,-0.124,0.848,-0.562,-1.312,-0.275,0.610,73.333,36226.000,1.000
-0.356,-0.094,-0.150,-0.195,0.071,0.137,-0.089,-0.255,-0.125,0.847,-0.564,-1.312,-0.122,0.610,73.333,36227.000,1.000
0.320,0.706,0.646,0.593,0.857,0.948,0.579,0.522,-0.126,0.844,-0.564,-1.251,0.000,0.549,73.333,36228.000,1.000
0.782,1.220,1.148,1.145,1.315,1.480,1.040,1.098,-0.127,0.844,-0.566,-1.251,-0.031,0.519,73.333,36229.000,1.000
1.133,1.538,1.456,1.535,1.540,1.791,1.413,1.528,-0.128,0.844,-0.568,-1.160,0.000,0.488,73.333,36230.000,1.000
1.477,1.797,1.723,1.866,1.700,2.003,1.805,1.895,-0.130,0.844,-0.566,-1.038,0.153,0.519,73.333,36231.000,1.000
1.833,2.074,2.040,2.176,1.910,2.200,2.223,2.232,-0.130,0.843,-0.566,-1.160,0.244,0.519,73.333,36232.000,1.000
2.142,2.348,2.390,2.420,2.185,2.392,2.584,2.520,-0.131,0.843,-0.564,-1.007,0.183,0.519,73.333,36233.000,1.000
2.339,2.548,2.694,2.551,2.457,2.548,2.801,2.719,-0.132,0.843,-0.567,-0.885,0.153,0.458,73.333,36234.000,1.000
2.499,2.712,2.967,2.657,2.733,2.733,2.944,2.909,-0.129,0.844,-0.566,-0.824,0.122,0.488,73.333,36235.000,1.000
2.805,2.973,3.319,2.922,3.098,3.092,3.200,3.241,-0.130,0.842,-0.566,-0.824,0.122,0.427,73.333,36236.000,1.000
3.316,3.369,3.766,3.397,3.550,3.646,3.637,3.725,-0.130,0.844,-0.568,-0.793,0.122,0.366,73.333,36237.000,1.000
3.916,3.807,4.188,3.974,3.983,4.244,4.148,4.215,-0.128,0.846,-0.569,-0.763,0.092,0.549,73.333,36238.000,1.000
4.422,4.153,4.436,4.475,4.284,4.682,4.553,4.547,-0.127,0.845,-0.566,-0.763,0.183,0.641,73.333,36239.000,1.000
4.752,4.373,4.496,4.818,4.453,4.898,4.777,4.699,-0.129,0.848,-0.565,-0.732,0.031,0.610,73.333,36240.000,1.000
4.909,4.503,4.430,4.988,4.540,4.941,4.820,4.722,-0.130,0.848,-0.566,-0.641,0.031,0.671,73.333,36241.000,1.000
4.855,4.512,4.242,4.930,4.511,4.822,4.661,4.607,-0.132,0.847,-0.566,-0.641,0.000,0.671,73.333,36242.000,1.000
4.597,4.369,3.962,4.642,4.339,4.561,4.334,4.371,-0.134,0.848,-0.568,-0.702,-0.061,0.641,73.333,36243.000,1.000
4.229,4.100,3.675,4.205,4.067,4.229,3.956,4.090,-0.132,0.847,-0.564,-0.763,-0.031,0.671,73.333,36244.000,1.000
3.921,3.833,3.495,3.787,3.826,3.957,3.691,3.882,-0.132,0.849,-0.564,-0.824,-0.183,0.671,73.333,36245.000,1.000
3.834,3.736,3.520,3.577,3.758,3.879,3.685,3.860,-0.133,0.850,-0.562,-0.854,-0.214,0.732,73.333,36246.000,1.000
4.004,3.882,3.758,3.663,3.907,4.020,3.947,4.047,-0.134,0.850,-0.568,-0.977,-0.244,0.702,73.333,36247.000,1.000
4.278,4.165,4.066,3.934,4.145,4.236,4.292,4.302,-0.133,0.850,-0.567,-1.038,-0.244,0.671,73.333,36248.000,1.000
4.323,4.269,4.131,4.063,4.171,4.215,4.371,4.315,-0.134,0.851,-0.569,-0.916,-0.458,0.641,73.333,36249.000,1.000
3.911,3.936,3.736,3.786,3.775,3.748,3.960,3.873,-0.134,0.850,-0.566,-0.977,-0.580,0.580,73.333,36250.000,1.000
3.150,3.223,2.967,3.155,3.051,2.940,3.171,3.072,-0.134,0.849,-0.567,-1.038,-0.671,0.610,73.333,36251.000,1.000
2.350,2.412,2.111,2.426,2.286,2.083,2.310,2.202,-0.132,0.849,-0.567,-1.038,-0.732,0.580,73.333,36252.000,1.000
1.763,1.763,1.425,1.824,1.708,1.424,1.622,1.515,-0.132,0.849,-0.567,-1.007,-0.885,0.519,73.333,36253.000,1.000
1.376,1.310,0.961,1.358,1.313,0.977,1.121,1.039,-0.134,0.848,-0.566,-1.038,-0.977,0.397,73.333,36254.000,1.000
1.053,0.951,0.657,0.954,0.982,0.634,0.706,0.688,-0.133,0.849,-0.563,-1.038,-1.007,0.397,73.333,36255.000,1.000
0.730,0.621,0.466,0.603,0.665,0.327,0.342,0.415,-0.131,0.848,-0.564,-1.038,-1.068,0.275,73.333,36256.000,1.000
0.425,0.307,0.355,0.333,0.380,0.055,0.058,0.214,-0.131,0.846,-0.567,-1.068,-1.068,0.397,73.333,36257.000,1.000
0.187,0.048,0.309,0.168,0.171,-0.133,-0.096,0.089,-0.130,0.846,-0.567,-1.129,-1.129,0.336,73.333,36258.000,1.000
0.027,-0.119,0.289,0.085,0.040,-0.216,-0.140,0.021,-0.129,0.847,-0.565,-1.190,-1.160,0.336,73.333,36259.000,1.000
-0.061,-0.169,0.261,0.056,-0.016,-0.201,-0.132,-0.002,-0.129,0.848,-0.565,-1.221,-1.190,0.366,73.333,36260.000,1.000
-0.100,-0.131,0.198,0.040,-0.019,-0.134,-0.150,-0.009,-0.130,0.847,-0.567,-1.221,-1.129,0.397,73.333,36261.000,1.000
-0.164,-0.116,0.057,-0.051,-0.038,-0.130,-0.281,-0.083,-0.129,0.848,-0.563,-1.221,-1.099,0.305,73.333,36262.000,1.000
-0.311,-0.207,-0.166,-0.256,-0.129,-0.261,-0.529,-0.263,-0.127,0.849,-0.562,-1.190,-1.099,0.366,73.333,36263.000,1.000
-0.563,-0.425,-0.447,-0.549,-0.308,-0.526,-0.833,-0.528,-0.128,0.848,-0.563,-1.221,-0.946,0.366,73.333,36264.000,1.000
-0.857,-0.703,-0.714,-0.823,-0.526,-0.825,-1.081,-0.789,-0.127,0.849,-0.565,-1.251,-0.885,0.397,73.333,36265.000,1.000
-1.072,-0.922,-0.867,-0.949,-0.699,-1.020,-1.161,-0.940,-0.129,0.849,-0.564,-1.251,-0.824,0.458,73.333,36266.000,1.000
-1.160,-1.039,-0.885,-0.902,-0.821,-1.079,-1.077,-0.973,-0.128,0.849,-0.560,-1.343,-0.702,0.427,73.333,36267.000,1.000
-1.176,-1.094,-0.840,-0.764,-0.948,-1.082,-0.955,-0.975,-0.127,0.850,-0.559,-1.373,-0.641,0.397,73.333,36268.000,1.000
-1.244,-1.175,-0.883,-0.699,-1.161,-1.157,-0.980,-1.078,-0.128,0.851,-0.563,-1.404,-0.641,0.366,73.333,36269.000,1.000
-1.421,-1.327,-1.103,-0.820,-1.473,-1.363,-1.236,-1.327,-0.129,0.850,-0.563,-1.434,-0.641,0.366,73.333,36270.000,1.000
-1.665,-1.528,-1.446,-1.123,-1.814,-1.658,-1.643,-1.647,-0.130,0.848,-0.562,-1.404,-0.702,0.427,73.333,36271.000,1.000
-1.921,-1.757,-1.804,-1.534,-2.112,-1.974,-2.050,-1.940,-0.132,0.848,-0.563,-1.526,-0.641,0.427,73.333,36272.000,1.000
-2.125,-1.982,-2.074,-1.933,-2.311,-2.232,-2.307,-2.121,-0.133,0.844,-0.563,-1.434,-0.580,0.519,73.333,36273.000,1.000
-2.227,-2.170,-2.211,-2.216,-2.385,-2.388,-2.345,-2.161,-0.134,0.844,-0.564,-1.434,-0.580,0.549,73.333,36274.000,1.000
-2.155,-2.239,-2.172,-2.280,-2.287,-2.384,-2.151,-2.044,-0.134,0.844,-0.562,-1.404,-0.549,0.610,73.333,36275.000,1.000
-1.814,-2.058,-1.888,-2.019,-1.928,-2.121,-1.717,-1.708,-0.133,0.844,-0.564,-1.343,-0.488,0.488,73.333,36276.000,1.000
-1.180,-1.559,-1.332,-1.404,-1.281,-1.540,-1.063,-1.123,-0.131,0.844,-0.564,-1.312,-0.519,0.458,73.333,36277.000,1.000
-0.352,-0.816,-0.584,-0.546,-0.458,-0.716,-0.279,-0.358,-0.129,0.845,-0.563,-1.312,-0.488,0.427,73.333,36278.000,1.000
0.432,-0.064,0.144,0.286,0.284,0.106,0.436,0.374,-0.130,0.846,-0.563,-1.221,-0.580,0.366,73.333,36279.000,1.000
0.954,0.495,0.658,0.850,0.741,0.696,0.899,0.880,-0.130,0.846,-0.567,-1.129,-0.458,0.427,73.333,36280.000,1.000
1.161,0.809,0.913,1.080,0.893,0.996,1.060,1.112,-0.128,0.847,-0.565,-1.160,-0.519,0.488,73.333,36281.000,1.000
1.146,0.946,0.979,1.073,0.860,1.102,1.001,1.144,-0.129,0.846,-0.565,-1.099,-0.427,0.488,73.333,36282.000,1.000
1.130,1.082,1.042,1.065,0.868,1.227,0.933,1.169,-0.130,0.847,-0.564,-1.007,-0.366,0.641,73.333,36283.000,1.000
1.348,1.410,1.300,1.291,1.131,1.567,1.087,1.410,-0.130,0.847,-0.566,-1.007,-0.336,0.610,73.333,36284.000,1.000
1.935,2.059,1.885,1.881,1.766,2.218,1.611,2.027,-0.129,0.849,-0.567,-1.007,-0.275,0.641,73.333,36285.000,1.000
2.786,2.948,2.733,2.741,2.658,3.075,2.446,2.943,-0.129,0.853,-0.565,-0.977,-0.244,0.580,73.333,36286.000,1.000
3.525,3.709,3.509,3.501,3.417,3.778,3.248,3.765,-0.128,0.853,-0.565,-0.977,-0.153,0.488,73.333,36287.000,1.000
3.757,3.946,3.814,3.748,3.641,3.953,3.611,4.042,-0.128,0.855,-0.563,-1.190,-0.031,0.427,73.333,36288.000,1.000
3.283,3.450,3.401,3.258,3.138,3.414,3.304,3.522,-0.128,0.856,-0.563,-1.282,0.061,0.366,73.333,36289.000,1.000
2.133,2.260,2.259,2.063,1.960,2.210,2.330,2.249,-0.125,0.856,-0.563,-1.404,0.122,0.275,73.333,36290.000,1.000
0.472,0.554,0.544,0.341,0.285,0.520,0.824,0.456,-0.125,0.854,-0.565,-1.434,0.214,0.244,73.333,36291.000,1.000
-1.518,-1.467,-1.535,-1.710,-1.712,-1.471,-1.069,-1.603,-0.123,0.852,-0.565,-1.526,0.458,0.336,73.333,36292.000,1.000
-3.603,-3.552,-3.710,-3.850,-3.804,-3.549,-3.147,-3.664,-0.121,0.846,-0.564,-1.465,0.519,0.305,73.333,36293.000,1.000
-5.487,-5.397,-5.649,-5.783,-5.685,-5.433,-5.121,-5.470,-0.122,0.842,-0.563,-1.556,0.610,0.336,73.333,36294.000,1.000
-6.814,-6.649,-6.968,-7.141,-6.973,-6.765,-6.598,-6.730,-0.123,0.840,-0.561,-1.465,0.702,0.397,73.333,36295.000,1.000
-7.275,-7.029,-7.359,-7.596,-7.345,-7.224,-7.210,-7.178,-0.125,0.840,-0.563,-1.312,0.854,0.275,73.333,36296.000,1.000
-6.816,-6.517,-6.805,-7.085,-6.755,-6.755,-6.854,-6.749,-0.126,0.841,-0.566,-1.068,0.916,0.305,73.333,36297.000,1.000
-5.687,-5.374,-5.598,-5.862,-5.482,-5.613,-5.766,-5.663,-0.123,0.842,-0.566,-0.977,0.946,0.397,73.333,36298.000,1.000
-4.324,-4.021,-4.186,-4.376,-3.989,-4.238,-4.387,-4.330,-0.121,0.845,-0.563,-0.977,0.977,0.366,73.333,36299.000,1.000
-3.037,-2.751,-2.866,-2.954,-2.585,-2.935,-3.043,-3.043,-0.121,0.847,-0.565,-0.885,0.977,0.366,73.333,36300.000,1.000
-1.809,-1.556,-1.620,-1.614,-1.257,-1.690,-1.746,-1.795,-0.123,0.849,-0.565,-0.793,0.977,0.427,73.333,36301.000,1.000
-0.479,-0.292,-0.292,-0.235,0.134,-0.355,-0.374,-0.452,-0.129,0.852,-0.564,-0.824,1.068,0.427,73.333,36302.000,1.000
1.006,1.098,1.170,1.232,1.617,1.115,1.110,1.024,-0.135,0.853,-0.568,-0.793,0.977,0.488,73.333,36303.000,1.000
2.435,2.426,2.579,2.610,2.978,2.521,2.516,2.421,-0.142,0.854,-0.568,-0.793,0.854,0.519,73.333,36304.000,1.000
3.436,3.350,3.588,3.561,3.861,3.502,3.507,3.367,-0.145,0.855,-0.563,-0.763,0.580,0.336,73.333,36305.000,1.000
3.719,3.602,3.898,3.803,4.007,3.768,3.813,3.575,-0.147,0.856,-0.566,-0.946,0.305,0.275,73.333,36306.000,1.000
3.246,3.143,3.429,3.275,3.412,3.268,3.378,3.014,-0.146,0.855,-0.565,-1.099,0.031,0.153,73.333,36307.000,1.000
2.223,2.164,2.375,2.185,2.325,2.219,2.380,1.926,-0.142,0.854,-0.564,-1.099,-0.275,0.092,73.333,36308.000,1.000
0.902,0.904,1.022,0.823,1.029,0.916,1.059,0.611,-0.139,0.851,-0.564,-1.068,-0.580,-0.031,73.333,36309.000,1.000
-0.537,-0.470,-0.406,-0.589,-0.305,-0.425,-0.390,-0.732,-0.136,0.847,-0.562,-0.977,-0.824,0.061,73.333,36310.000,1.000
-1.987,-1.845,-1.779,-1.921,-1.618,-1.703,-1.840,-2.005,-0.134,0.845,-0.564,-0.946,-0.916,0.000,73.333,36311.000,1.000
-3.312,-3.088,-2.994,-3.056,-2.834,-2.850,-3.161,-3.112,-0.133,0.845,-0.563,-0.824,-1.068,-0.031,73.333,36312.000,1.000
-4.206,-3.916,-3.820,-3.755,-3.693,-3.651,-4.077,-3.808,-0.133,0.848,-0.568,-0.793,-1.221,-0.031,73.333,36313.000,1.000
-4.303,-4.005,-3.957,-3.741,-3.857,-3.794,-4.249,-3.802,-0.131,0.848,-0.568,-0.763,-1.282,0.122,73.333,36314.000,1.000
-3.372,-3.157,-3.200,-2.839,-3.097,-3.026,-3.455,-2.920,-0.131,0.851,-0.567,-0.885,-1.312,0.275,73.333,36315.000,1.000
-1.491,-1.435,-1.586,-1.116,-1.450,-1.347,-1.753,-1.237,-0.129,0.848,-0.565,-0.671,-1.373,0.336,73.333,36316.000,1.000
0.883,0.757,0.511,1.023,0.690,0.856,0.442,0.848,-0.128,0.844,-0.566,-0.610,-1.465,0.549,73.333,36317.000,1.000
3.088,2.820,2.512,2.983,2.727,2.965,2.520,2.764,-0.128,0.844,-0.569,-0.427,-1.526,0.732,73.333,36318.000,1.000
4.503,4.154,3.829,4.198,4.066,4.359,3.888,3.962,-0.131,0.845,-0.563,-0.427,-1.617,0.793,73.333,36319.000,1.000
4.756,4.389,4.081,4.335,4.329,4.633,4.170,4.120,-0.130,0.844,-0.565,-0.397,-1.709,0.977,73.333,36320.000,1.000
3.836,3.516,3.239,3.406,3.488,3.736,3.339,3.238,-0.134,0.845,-0.565,-0.305,-1.862,1.160,73.333,36321.000,1.000
2.083,1.879,1.632,1.752,1.852,1.982,1.721,1.630,-0.135,0.844,-0.566,-0.244,-1.984,1.160,73.333,36322.000,1.000
0.079,0.048,-0.170,-0.068,-0.033,-0.033,-0.109,-0.171,-0.137,0.846,-0.563,-0.336,-2.136,1.190,73.333,36323.000,1.000
-1.662,-1.513,-1.686,-1.599,-1.695,-1.764,-1.649,-1.710,-0.135,0.848,-0.566,-0.305,-2.167,1.251,73.333,36324.000,1.000
-2.914,-2.650,-2.743,-2.690,-2.934,-2.982,-2.701,-2.815,-0.133,0.846,-0.562,-0.275,-2.289,1.282,73.333,36325.000,1.000
-3.724,-3.458,-3.438,-3.442,-3.795,-3.758,-3.349,-3.569,-0.131,0.850,-0.563,-0.366,-2.289,1.190,73.333,36326.000,1.000
-4.257,-4.083,-3.940,-4.026,-4.398,-4.264,-3.782,-4.129,-0.130,0.849,-0.566,-0.366,-2.350,1.099,73.333,36327.000,1.000
-4.590,-4.537,-4.293,-4.474,-4.758,-4.559,-4.076,-4.534,-0.128,0.848,-0.566,-0.427,-2.350,1.099,73.333,36328.000,1.000
-4.755,-4.798,-4.493,-4.752,-4.887,-4.664,-4.250,-4.780,-0.123,0.848,-0.563,-0.580,-2.258,1.038,73.333,36329.000,1.000
-4.855,-4.938,-4.626,-4.898,-4.907,-4.690,-4.375,-4.933,-0.124,0.846,-0.565,-0.641,-2.258,0.946,73.333,36330.000,1.000
-5.048,-5.107,-4.859,-5.048,-5.000,-4.821,-4.581,-5.125,-0.122,0.847,-0.565,-0.580,-2.167,1.007,73.333,36331.000,1.000
-5.453,-5.435,-5.326,-5.361,-5.299,-5.196,-4.973,-5.462,-0.121,0.847,-0.567,-0.610,-2.075,1.007,73.333,36332.000,1.000
-5.997,-5.869,-5.943,-5.821,-5.739,-5.744,-5.475,-5.883,-0.122,0.847,-0.566,-0.580,-1.953,0.977,73.333,36333.000,1.000
-6.455,-6.218,-6.448,-6.245,-6.121,-6.234,-5.878,-6.203,-0.121,0.845,-0.568,-0.641,-1.831,0.824,73.333,36334.000,1.000
-6.570,-6.267,-6.557,-6.390,-6.225,-6.406,-5.981,-6.218,-0.120,0.844,-0.566,-0.702,-1.740,0.763,73.333,36335.000,1.000
-6.191,-5.897,-6.132,-6.096,-5.930,-6.112,-5.692,-5.827,-0.118,0.845,-0.570,-0.610,-1.556,0.702,73.333,36336.000,1.000
-5.412,-5.212,-5.303,-5.433,-5.318,-5.442,-5.122,-5.147,-0.118,0.843,-0.569,-0.519,-1.251,0.488,73.333,36337.000,1.000
-4.474,-4.433,-4.349,-4.616,-4.568,-4.626,-4.475,-4.406,-0.117,0.844,-0.569,-0.458,-1.099,0.519,73.333,36338.000,1.000
-3.556,-3.695,-3.482,-3.816,-3.802,-3.827,-3.867,-3.733,-0.120,0.845,-0.569,-0.427,-0.916,0.519,73.333,36339.000,1.000
-2.624,-2.914,-2.677,-3.011,-2.971,-2.989,-3.208,-3.033,-0.121,0.847,-0.567,-0.519,-0.702,0.305,73.333,36340.000,1.000
-1.545,-1.927,-1.769,-2.062,-1.950,-1.956,-2.316,-2.123,-0.120,0.848,-0.569,-0.519,-0.641,0.153,73.333,36341.000,1.000
-0.352,-0.766,-0.727,-0.958,-0.771,-0.738,-1.180,-0.992,-0.123,0.848,-0.566,-0.519,-0.519,0.153,73.333,36342.000,1.000
0.764,0.363,0.318,0.164,0.382,0.471,0.027,0.210,-0.124,0.848,-0.569,-0.519,-0.336,0.122,73.333,36343.000,1.000
1.616,1.265,1.216,1.142,1.326,1.450,1.086,1.296,-0.125,0.850,-0.568,-0.610,-0.183,0.000,73.333,36344.000,1.000
2.193,1.927,1.954,1.951,2.051,2.147,1.922,2.189,-0.126,0.851,-0.565,-0.641,-0.122,-0.031,73.333,36345.000,1.000
2.706,2.553,2.688,2.742,2.743,2.753,2.695,3.008,-0.126,0.851,-0.568,-0.580,-0.031,-0.183,73.333,36346.000,1.000
3.412,3.372,3.587,3.687,3.589,3.511,3.624,3.935,-0.127,0.854,-0.566,-0.702,0.000,-0.244,73.333,36347.000,1.000
4.415,4.453,4.686,4.822,4.626,4.520,4.776,5.035,-0.126,0.853,-0.568,-0.702,0.031,-0.275,73.333,36348.000,1.000
5.549,5.614,5.806,5.969,5.683,5.621,5.965,6.146,-0.127,0.854,-0.567,-0.946,-0.061,-0.244,73.333,36349.000,1.000
6.488,6.549,6.669,6.845,6.502,6.512,6.897,6.992,-0.126,0.853,-0.564,-1.129,0.153,-0.183,73.333,36350.000,1.000
6.935,7.006,7.061,7.228,6.883,6.938,7.343,7.340,-0.126,0.854,-0.566,-1.129,0.183,-0.275,73.333,36351.000,1.000
6.750,6.872,6.892,7.023,6.738,6.791,7.199,7.072,-0.126,0.854,-0.564,-1.221,0.153,-0.336,73.333,36352.000,1.000
6.067,6.262,6.267,6.337,6.166,6.183,6.554,6.275,-0.127,0.855,-0.565,-1.373,0.214,-0.183,73.333,36353.000,1.000
5.186,5.430,5.417,5.414,5.391,5.357,5.619,5.208,-0.127,0.856,-0.565,-1.373,0.275,-0.153,73.333,36354.000,1.000
4.374,4.619,4.595,4.510,4.632,4.550,4.647,4.178,-0.130,0.852,-0.567,-1.526,0.214,-0.092,73.333,36355.000,1.000
3.749,3.957,3.965,3.803,4.006,3.899,3.840,3.421,-0.131,0.852,-0.569,-1.556,0.275,-0.031,73.333,36356.000,1.000
3.257,3.413,3.509,3.294,3.473,3.379,3.242,2.962,-0.132,0.851,-0.570,-1.587,0.153,-0.092,73.333,36357.000,1.000
2.796,2.897,3.096,2.877,2.935,2.894,2.782,2.663,-0.129,0.852,-0.568,-1.709,0.122,0.000,73.333,36358.000,1.000
2.275,2.328,2.572,2.412,2.302,2.345,2.331,2.321,-0.129,0.851,-0.567,-1.617,0.153,0.031,73.333,36359.000,1.000
1.721,1.721,1.909,1.869,1.609,1.741,1.833,1.837,-0.132,0.848,-0.563,-1.648,0.092,0.000,73.333,36360.000,1.000
1.335,1.263,1.312,1.414,1.080,1.271,1.412,1.351,-0.130,0.847,-0.562,-1.648,0.061,0.000,73.333,36361.000,1.000
1.293,1.137,1.047,1.248,0.937,1.135,1.234,1.096,-0.130,0.845,-0.564,-1.648,0.000,0.092,73.333,36362.000,1.000
1.567,1.340,1.197,1.403,1.193,1.353,1.334,1.172,-0.130,0.847,-0.565,-1.587,-0.092,0.153,73.333,36363.000,1.000
1.911,1.650,1.556,1.683,1.604,1.710,1.554,1.452,-0.129,0.848,-0.565,-1.495,0.000,0.244,73.333,36364.000,1.000
2.055,1.801,1.815,1.834,1.863,1.927,1.687,1.712,-0.128,0.847,-0.565,-1.495,-0.122,0.305,73.333,36365.000,1.000
1.898,1.687,1.796,1.724,1.818,1.864,1.629,1.791,-0.128,0.846,-0.566,-1.465,-0.122,0.336,73.333,36366.000,1.000
1.527,1.379,1.511,1.373,1.518,1.555,1.398,1.644,-0.125,0.845,-0.565,-1.373,-0.153,0.397,73.333,36367.000,1.000
1.167,1.094,1.160,0.972,1.188,1.200,1.147,1.389,-0.125,0.844,-0.565,-1.251,-0.122,0.458,73.333,36368.000,1.000
1.018,1.025,0.971,0.759,1.062,1.011,1.045,1.215,-0.127,0.845,-0.567,-1.160,-0.122,0.458,73.333,36369.000,1.000
1.153,1.241,1.065,0.883,1.242,1.102,1.172,1.249,-0.130,0.844,-0.563,-1.160,-0.214,0.458,73.333,36370.000,1.000
1.513,1.662,1.394,1.315,1.653,1.438,1.475,1.484,-0.135,0.846,-0.563,-1.129,-0.336,0.458,73.333,36371.000,1.000
1.876,2.025,1.709,1.784,2.020,1.781,1.726,1.717,-0.135,0.845,-0.565,-1.068,-0.519,0.397,73.333,36372.000,1.000
1.992,2.052,1.738,1.959,2.043,1.848,1.689,1.705,-0.136,0.845,-0.564,-1.190,-0.580,0.366,73.333,36373.000,1.000
1.756,1.664,1.393,1.693,1.629,1.519,1.311,1.380,-0.137,0.847,-0.564,-1.129,-0.793,0.336,73.333,36374.000,1.000
1.311,1.077,0.864,1.151,0.992,0.973,0.795,0.928,-0.135,0.847,-0.565,-1.099,-0.946,0.244,73.333,36375.000,1.000
0.961,0.668,0.503,0.699,0.512,0.572,0.474,0.663,-0.134,0.847,-0.561,-1.099,-1.068,0.122,73.333,36376.000,1.000
0.881,0.634,0.495,0.571,0.398,0.524,0.516,0.719,-0.131,0.845,-0.562,-1.038,-1.221,0.031,73.333,36377.000,1.000
0.973,0.846,0.712,0.691,0.547,0.713,0.792,0.944,-0.131,0.844,-0.563,-1.007,-1.221,0.061,73.333,36378.000,1.000
1.000,1.001,0.866,0.793,0.680,0.844,1.005,1.047,-0.130,0.844,-0.565,-1.007,-1.190,0.092,73.333,36379.000,1.000
0.892,0.972,0.855,0.757,0.681,0.791,1.020,0.932,-0.128,0.844,-0.567,-1.007,-1.251,0.122,73.333,36380.000,1.000
0.869,0.954,0.889,0.757,0.736,0.748,1.018,0.835,-0.128,0.848,-0.570,-0.946,-1.221,0.122,73.333,36381.000,1.000
1.153,1.180,1.194,1.014,1.055,0.954,1.230,1.030,-0.128,0.848,-0.563,-0.824,-1.251,0.061,73.333,36382.000,1.000
1.698,1.638,1.734,1.521,1.596,1.412,1.662,1.529,-0.130,0.847,-0.562,-0.977,-1.312,0.092,73.333,36383.000,1.000
2.135,1.990,2.135,1.951,1.997,1.803,1.995,1.991,-0.127,0.847,-0.560,-0.885,-1.282,0.122,73.333,36384.000,1.000
2.012,1.812,1.936,1.857,1.818,1.687,1.801,1.940,-0.126,0.848,-0.564,-1.038,-1.282,0.092,73.333,36385.000,1.000
1.151,0.931,0.954,1.029,0.888,0.852,0.893,1.136,-0.130,0.846,-0.563,-1.038,-1.251,0.061,73.333,36386.000,1.000
-0.282,-0.500,-0.625,-0.393,-0.607,-0.559,-0.584,-0.297,-0.131,0.846,-0.564,-1.129,-1.373,0.092,73.333,36387.000,1.000
-1.915,-2.112,-2.376,-2.024,-2.257,-2.156,-2.250,-1.969,-0.131,0.849,-0.563,-1.251,-1.434,0.031,73.333,36388.000,1.000
-3.372,-3.528,-3.863,-3.463,-3.667,-3.534,-3.701,-3.456,-0.131,0.851,-0.563,-1.190,-1.404,0.122,73.333,36389.000,1.000
-4.336,-4.454,-4.759,-4.415,-4.546,-4.390,-4.606,-4.423,-0.129,0.850,-0.564,-1.007,-1.526,0.031,73.333,36390.000,1.000
-4.595,-4.714,-4.888,-4.708,-4.730,-4.560,-4.775,-4.672,-0.127,0.851,-0.562,-1.160,-1.556,-0.031,73.333,36391.000,1.000
-4.238,-4.398,-4.386,-4.424,-4.321,-4.169,-4.330,-4.303,-0.129,0.851,-0.564,-1.068,-1.495,0.183,73.333,36392.000,1.000
-3.631,-3.842,-3.655,-3.871,-3.674,-3.592,-3.661,-3.673,-0.129,0.849,-0.563,-1.190,-1.434,0.183,73.333,36393.000,1.000
-3.155,-3.404,-3.097,-3.382,-3.160,-3.189,-3.158,-3.157,-0.130,0.849,-0.562,-1.221,-1.373,0.214,73.333,36394.000,1.000
-2.935,-3.200,-2.846,-3.091,-2.894,-3.040,-2.944,-2.890,-0.130,0.851,-0.565,-1.221,-1.373,0.122,73.333,36395.000,1.000
-2.818,-3.072,-2.745,-2.888,-2.713,-2.953,-2.857,-2.739,-0.132,0.849,-0.565,-1.190,-1.404,0.183,73.333,36396.000,1.000
-2.607,-2.824,-2.574,-2.611,-2.411,-2.718,-2.687,-2.515,-0.132,0.849,-0.565,-1.190,-1.343,0.305,73.333,36397.000,1.000
-2.208,-2.369,-2.205,-2.167,-1.906,-2.252,-2.319,-2.113,-0.132,0.848,-0.563,-1.129,-1.434,0.275,73.333,36398.000,1.000
-1.714,-1.814,-1.706,-1.638,-1.329,-1.670,-1.830,-1.609,-0.131,0.850,-0.565,-1.038,-1.465,0.244,73.333,36399.000,1.000
-1.334,-1.383,-1.269,-1.230,-0.926,-1.203,-1.419,-1.197,-0.131,0.849,-0.565,-0.977,-1.495,0.305,73.333,36400.000,1.000
-1.146,-1.158,-0.972,-1.023,-0.785,-0.948,-1.163,-0.945,-0.130,0.848,-0.564,-1.068,-1.648,0.214,73.333,36401.000,1.000
-1.041,-1.012,-0.731,-0.911,-0.767,-0.801,-0.961,-0.751,-0.130,0.848,-0.564,-1.068,-1.526,0.183,73.333,36402.000,1.000
-0.865,-0.767,-0.434,-0.735,-0.673,-0.603,-0.677,-0.492,-0.130,0.846,-0.562,-1.007,-1.556,0.275,73.333,36403.000,1.000
-0.590,-0.378,-0.087,-0.455,-0.429,-0.321,-0.306,-0.187,-0.127,0.846,-0.562,-0.916,-1.526,0.336,73.333,36404.000,1.000
-0.243,0.110,0.275,-0.083,-0.049,0.010,0.092,0.101,-0.126,0.847,-0.565,-0.946,-1.556,0.275,73.333,36405.000,1.000
0.195,0.666,0.686,0.415,0.456,0.405,0.523,0.410,-0.127,0.847,-0.565,-0.885,-1.495,0.214,73.333,36406.000,1.000
0.687,1.202,1.117,0.989,1.003,0.840,0.966,0.768,-0.129,0.847,-0.565,-0.885,-1.404,0.305,73.333,36407.000,1.000
1.111,1.578,1.452,1.472,1.436,1.215,1.318,1.120,-0.131,0.846,-0.563,-0.793,-1.312,0.275,73.333,36408.000,1.000
1.341,1.692,1.573,1.694,1.622,1.420,1.465,1.374,-0.133,0.843,-0.565,-0.671,-1.495,0.244,73.333,36409.000,1.000
1.359,1.574,1.486,1.628,1.556,1.438,1.391,1.481,-0.133,0.844,-0.563,-0.519,-1.526,0.275,73.333,36410.000,1.000
1.219,1.325,1.279,1.366,1.327,1.318,1.175,1.418,-0.131,0.845,-0.563,-0.488,-1.526,0.336,73.333,36411.000,1.000
0.915,0.971,0.965,0.957,0.963,1.048,0.839,1.113,-0.131,0.845,-0.566,-0.366,-1.526,0.305,73.333,36412.000,1.000
0.447,0.522,0.545,0.456,0.488,0.624,0.403,0.569,-0.130,0.846,-0.567,-0.397,-1.404,0.244,73.333,36413.000,1.000
-0.072,0.061,0.107,-0.001,0.013,0.144,-0.024,-0.050,-0.131,0.846,-0.567,-0.366,-1.312,0.183,73.333,36414.000,1.000
-0.439,-0.258,-0.199,-0.237,-0.299,-0.215,-0.272,-0.494,-0.129,0.847,-0.571,-0.244,-1.282,0.183,73.333,36415.000,1.000
-0.484,-0.289,-0.246,-0.136,-0.329,-0.308,-0.225,-0.573,-0.131,0.845,-0.567,-0.275,-1.343,0.153,73.333,36416.000,1.000
-0.239,-0.051,-0.063,0.207,-0.131,-0.168,0.034,-0.325,-0.131,0.846,-0.567,-0.305,-1.373,0.183,73.333,36417.000,1.000
0.104,0.289,0.192,0.558,0.116,0.040,0.295,0.028,-0.130,0.847,-0.566,-0.214,-1.251,0.153,73.333,36418.000,1.000
0.335,0.525,0.350,0.701,0.240,0.159,0.380,0.240,-0.130,0.847,-0.565,-0.275,-1.373,0.153,73.333,36419.000,1.000
0.367,0.565,0.345,0.592,0.196,0.162,0.273,0.214,-0.133,0.845,-0.566,-0.275,-1.373,0.122,73.333,36420.000,1.000
0.287,0.487,0.271,0.384,0.106,0.154,0.120,0.071,-0.134,0.845,-0.566,-0.366,-1.312,0.092,73.333,36421.000,1.000
0.207,0.387,0.233,0.243,0.078,0.209,0.043,-0.033,-0.136,0.845,-0.566,-0.336,-1.221,0.000,73.333,36422.000,1.000
0.153,0.278,0.246,0.204,0.098,0.287,0.033,-0.069,-0.136,0.847,-0.563,-0.214,-1.343,-0.031,73.333,36423.000,1.000
0.060,0.105,0.229,0.166,0.056,0.281,-0.022,-0.128,-0.137,0.848,-0.566,-0.305,-1.465,0.031,73.333,36424.000,1.000
-0.104,-0.145,0.118,0.043,-0.108,0.137,-0.189,-0.273,-0.138,0.848,-0.566,-0.275,-1.526,0.000,73.333,36425.000,1.000
-0.269,-0.394,-0.057,-0.133,-0.315,-0.072,-0.406,-0.440,-0.138,0.848,-0.565,-0.427,-1.648,0.092,73.333,36426.000,1.000
-0.384,-0.586,-0.251,-0.301,-0.471,-0.265,-0.591,-0.570,-0.137,0.850,-0.567,-0.549,-1.709,0.092,73.333,36427.000,1.000
-0.443,-0.694,-0.417,-0.407,-0.520,-0.386,-0.675,-0.641,-0.137,0.849,-0.565,-0.580,-1.770,-0.031,73.333,36428.000,1.000
-0.435,-0.668,-0.476,-0.393,-0.430,-0.377,-0.587,-0.614,-0.137,0.853,-0.567,-0.641,-1.831,0.061,73.333,36429.000,1.000
-0.289,-0.410,-0.318,-0.175,-0.145,-0.151,-0.256,-0.383,-0.135,0.851,-0.569,-0.610,-1.862,0.122,73.333,36430.000,1.000
0.079,0.155,0.143,0.304,0.381,0.354,0.339,0.161,-0.136,0.852,-0.569,-0.610,-1.862,0.214,73.333,36431.000,1.000
0.547,0.846,0.749,0.882,0.976,0.971,0.997,0.870,-0.134,0.851,-0.565,-0.732,-1.953,0.153,73.333,36432.000,1.000
0.756,1.220,1.093,1.156,1.234,1.275,1.291,1.306,-0.134,0.851,-0.565,-0.793,-1.862,0.092,73.333,36433.000,1.000
0.350,0.856,0.777,0.732,0.786,0.865,0.839,1.024,-0.133,0.851,-0.565,-0.885,-1.862,0.122,73.333,36434.000,1.000
-0.693,-0.270,-0.235,-0.406,-0.353,-0.283,-0.351,-0.045,-0.132,0.851,-0.567,-0.916,-1.831,0.000,73.333,36435.000,1.000
-2.036,-1.755,-1.593,-1.864,-1.778,-1.783,-1.854,-1.531,-0.130,0.850,-0.564,-0.946,-1.770,0.092,73.333,36436.000,1.000
-3.328,-3.174,-2.927,-3.228,-3.104,-3.226,-3.249,-3.004,-0.130,0.850,-0.566,-1.007,-1.648,0.183,73.333,36437.000,1.000
-4.400,-4.326,-4.061,-4.320,-4.174,-4.409,-4.354,-4.231,-0.129,0.850,-0.567,-1.038,-1.495,0.122,73.333,36438.000,1.000
-5.232,-5.209,-4.976,-5.157,-4.994,-5.310,-5.178,-5.158,-0.131,0.847,-0.568,-0.977,-1.526,0.183,73.333,36439.000,1.000
-5.834,-5.856,-5.669,-5.791,-5.592,-5.943,-5.766,-5.787,-0.132,0.848,-0.566,-1.099,-1.312,0.153,73.333,36440.000,1.000
-6.118,-6.182,-6.038,-6.151,-5.887,-6.222,-6.058,-6.051,-0.133,0.846,-0.566,-1.129,-1.312,0.183,73.333,36441.000,1.000
-5.931,-6.025,-5.927,-6.069,-5.724,-6.000,-5.899,-5.833,-0.134,0.843,-0.564,-1.099,-1.251,0.183,73.333,36442.000,1.000
-5.158,-5.263,-5.221,-5.377,-4.980,-5.174,-5.155,-5.042,-0.135,0.843,-0.561,-1.099,-1.312,0.183,73.333,36443.000,1.000
-3.874,-3.968,-3.980,-4.086,-3.721,-3.837,-3.877,-3.741,-0.136,0.844,-0.564,-0.977,-1.312,0.153,73.333,36444.000,1.000
-2.322,-2.376,-2.428,-2.411,-2.180,-2.261,-2.297,-2.147,-0.138,0.842,-0.566,-1.007,-1.343,0.092,73.333,36445.000,1.000
-0.721,-0.711,-0.780,-0.612,-0.578,-0.679,-0.635,-0.473,-0.140,0.843,-0.563,-1.068,-1.373,0.092,73.333,36446.000,1.000
0.786,0.873,0.800,1.075,0.928,0.788,0.952,1.104,-0.139,0.844,-0.565,-1.099,-1.404,0.092,73.333,36447.000,1.000
2.119,2.270,2.199,2.490,2.235,2.096,2.351,2.448,-0.138,0.845,-0.564,-1.038,-1.434,0.061,73.333,36448.000,1.000
3.185,3.367,3.295,3.510,3.233,3.170,3.435,3.426,-0.137,0.845,-0.566,-1.099,-1.495,0.061,73.333,36449.000,1.000
3.906,4.062,3.987,4.075,3.843,3.924,4.110,3.969,-0.135,0.848,-0.566,-1.129,-1.465,-0.031,73.333,36450.000,1.000
4.379,4.443,4.365,4.335,4.185,4.432,4.483,4.226,-0.135,0.849,-0.560,-1.099,-1.465,-0.061,73.333,36451.000,1.000
4.829,4.763,4.666,4.575,4.519,4.894,4.808,4.491,-0.134,0.852,-0.563,-1.251,-1.343,0.000,73.333,36452.000,1.000
5.389,5.215,5.061,4.983,5.019,5.421,5.253,4.957,-0.133,0.852,-0.565,-1.190,-1.312,-0.031,73.333,36453.000,1.000
5.946,5.743,5.495,5.487,5.592,5.899,5.754,5.544,-0.131,0.855,-0.566,-1.282,-1.282,-0.031,73.333,36454.000,1.000
6.283,6.132,5.790,5.874,5.990,6.126,6.125,6.012,-0.131,0.853,-0.564,-1.465,-1.129,-0.031,73.333,36455.000,1.000
6.300,6.240,5.842,6.008,6.050,6.040,6.248,6.191,-0.131,0.852,-0.562,-1.587,-1.038,0.000,73.333,36456.000,1.000
5.983,5.994,5.591,5.815,5.705,5.663,6.047,5.996,-0.127,0.851,-0.564,-1.617,-0.824,0.031,73.333,36457.000,1.000
5.308,5.336,4.968,5.221,4.935,4.996,5.449,5.370,-0.127,0.853,-0.564,-1.770,-0.763,0.031,73.333,36458.000,1.000
4.203,4.205,3.887,4.139,3.726,3.974,4.378,4.258,-0.130,0.852,-0.564,-1.862,-0.519,0.061,73.333,36459.000,1.000
2.647,2.619,2.335,2.575,2.137,2.558,2.831,2.677,-0.128,0.852,-0.567,-1.801,-0.305,0.031,73.333,36460.000,1.000
0.790,0.761,0.475,0.708,0.347,0.858,0.970,0.801,-0.128,0.848,-0.566,-1.740,-0.122,0.031,73.333,36461.000,1.000
-1.154,-1.161,-1.471,-1.241,-1.461,-0.974,-0.995,-1.149,-0.130,0.847,-0.566,-1.740,0.000,-0.031,73.333,36462.000,1.000
-2.969,-2.974,-3.287,-3.067,-3.122,-2.771,-2.858,-2.961,-0.131,0.842,-0.561,-1.617,0.061,-0.061,73.333,36463.000,1.000
-4.433,-4.486,-4.763,-4.559,-4.449,-4.321,-4.405,-4.418,-0.136,0.840,-0.560,-1.617,0.153,-0.092,73.333,36464.000,1.000
-5.325,-5.466,-5.676,-5.493,-5.240,-5.369,-5.410,-5.317,-0.140,0.838,-0.563,-1.556,0.214,0.061,73.333,36465.000,1.000
-5.446,-5.674,-5.804,-5.662,-5.317,-5.655,-5.651,-5.477,-0.142,0.839,-0.565,-1.404,0.214,-0.061,73.333,36466.000,1.000
-4.742,-5.027,-5.066,-5.003,-4.645,-5.067,-5.033,-4.855,-0.144,0.836,-0.563,-1.312,0.031,0.000,73.333,36467.000,1.000
-3.325,-3.617,-3.572,-3.621,-3.324,-3.687,-3.628,-3.540,-0.145,0.837,-0.564,-1.129,-0.153,-0.122,73.333,36468.000,1.000
-1.415,-1.661,-1.581,-1.730,-1.537,-1.745,-1.654,-1.717,-0.146,0.840,-0.565,-1.007,-0.244,-0.092,73.333,36469.000,1.000
0.778,0.605,0.641,0.464,0.558,0.507,0.641,0.427,-0.146,0.843,-0.564,-0.854,-0.427,-0.092,73.333,36470.000,1.000
3.189,3.063,3.014,2.900,2.947,2.965,3.144,2.836,-0.145,0.845,-0.564,-0.793,-0.610,-0.061,73.333,36471.000,1.000
5.784,5.643,5.553,5.544,5.627,5.583,5.794,5.479,-0.144,0.846,-0.568,-0.916,-0.702,-0.183,73.333,36472.000,1.000
8.439,8.237,8.198,8.269,8.458,8.254,8.459,8.238,-0.143,0.851,-0.569,-0.885,-0.793,-0.092,73.333,36473.000,1.000
10.925,10.664,10.742,10.826,11.135,10.764,10.910,10.867,-0.143,0.851,-0.564,-0.854,-0.885,-0.061,73.333,36474.000,1.000
12.955,12.683,12.881,12.905,13.296,12.841,12.878,13.049,-0.139,0.853,-0.563,-0.977,-0.916,0.061,73.333,36475.000,1.000
14.293,14.074,14.339,14.268,14.675,14.247,14.171,14.520,-0.136,0.854,-0.562,-1.038,-1.038,0.031,73.333,36476.000,1.000
14.776,14.644,14.905,14.758,15.115,14.803,14.653,15.099,-0.133,0.857,-0.561,-1.160,-1.007,0.031,73.333,36477.000,1.000
14.375,14.327,14.524,14.346,14.619,14.453,14.292,14.740,-0.131,0.858,-0.559,-1.312,-0.885,-0.031,73.333,36478.000,1.000
13.216,13.223,13.324,13.156,13.346,13.302,13.199,13.569,-0.131,0.859,-0.560,-1.434,-0.824,0.061,73.333,36479.000,1.000
11.498,11.522,11.528,11.391,11.523,11.556,11.562,11.806,-0.128,0.857,-0.561,-1.465,-0.763,0.214,73.333,36480.000,1.000
9.383,9.391,9.323,9.222,9.337,9.402,9.529,9.632,-0.127,0.858,-0.563,-1.709,-0.702,0.275,73.333,36481.000,1.000
6.869,6.850,6.732,6.662,6.798,6.862,7.081,7.052,-0.125,0.858,-0.560,-1.892,-0.549,0.305,73.333,36482.000,1.000
3.855,3.820,3.682,3.631,3.790,3.833,4.097,3.961,-0.124,0.856,-0.559,-1.862,-0.275,0.458,73.333,36483.000,1.000
0.284,0.239,0.126,0.086,0.222,0.238,0.508,0.293,-0.124,0.852,-0.563,-2.014,0.031,0.366,73.333,36484.000,1.000
-3.742,-3.810,-3.844,-3.881,-3.826,-3.841,-3.589,-3.848,-0.124,0.852,-0.561,-2.014,0.214,0.427,73.333,36485.000,1.000
-7.843,-7.945,-7.870,-7.917,-7.967,-8.022,-7.799,-8.051,-0.125,0.848,-0.563,-2.075,0.336,0.397,73.333,36486.000,1.000
-11.436,-11.559,-11.391,-11.471,-11.598,-11.701,-11.514,-11.699,-0.125,0.844,-0.564,-2.045,0.610,0.275,73.333,36487.000,1.000
-13.991,-14.107,-13.890,-14.023,-14.166,-14.315,-14.178,-14.240,-0.126,0.843,-0.567,-2.106,0.793,0.336,73.333,36488.000,1.000
-15.320,-15.424,-15.196,-15.385,-15.486,-15.644,-15.594,-15.500,-0.128,0.842,-0.564,-1.923,0.793,0.244,73.333,36489.000,1.000
-15.640,-15.746,-15.533,-15.760,-15.789,-15.889,-15.977,-15.738,-0.132,0.839,-0.564,-1.862,0.885,0.244,73.333,36490.000,1.000
-15.321,-15.438,-15.268,-15.497,-15.462,-15.446,-15.701,-15.378,-0.133,0.836,-0.565,-1.648,0.946,0.244,73.333,36491.000,1.000
-14.684,-14.793,-14.690,-14.893,-14.830,-14.695,-15.080,-14.761,-0.139,0.836,-0.568,-1.495,0.946,0.122,73.333,36492.000,1.000
-13.825,-13.891,-13.852,-14.033,-13.982,-13.778,-14.199,-13.958,-0.144,0.835,-0.569,-1.282,0.885,0.031,73.333,36493.000,1.000
-12.608,-12.605,-12.605,-12.799,-12.780,-12.572,-12.931,-12.790,-0.146,0.835,-0.566,-1.160,0.702,0.031,73.333,36494.000,1.000
-10.861,-10.780,-10.797,-11.037,-11.041,-10.873,-11.127,-11.059,-0.148,0.838,-0.563,-0.946,0.549,0.000,73.333,36495.000,1.000
-8.469,-8.319,-8.339,-8.624,-8.632,-8.511,-8.684,-8.651,-0.150,0.841,-0.564,-0.824,0.214,-0.061,73.333,36496.000,1.000
-5.368,-5.173,-5.180,-5.472,-5.476,-5.375,-5.536,-5.523,-0.149,0.845,-0.568,-0.732,0.031,-0.122,73.333,36497.000,1.000
-1.536,-1.326,-1.308,-1.554,-1.545,-1.443,-1.657,-1.673,-0.147,0.847,-0.563,-0.702,-0.183,-0.031,73.333,36498.000,1.000
2.888,3.088,3.121,2.976,3.006,3.098,2.802,2.740,-0.147,0.848,-0.562,-0.610,-0.397,-0.092,73.333,36499.000,1.000
7.514,7.700,7.722,7.710,7.754,7.792,7.451,7.338,-0.143,0.852,-0.561,-0.671,-0.488,-0.092,73.333,36500.000,1.000
11.816,12.009,11.990,12.106,12.136,12.081,11.775,11.637,-0.140,0.853,-0.560,-0.671,-0.549,0.000,73.333,36501.000,1.000
15.273,15.498,15.413,15.623,15.610,15.468,15.266,15.156,-0.135,0.856,-0.560,-0.732,-0.641,0.122,73.333,36502.000,1.000
17.593,17.856,17.682,17.942,17.878,17.716,17.627,17.582,-0.134,0.854,-0.563,-0.854,-0.671,0.275,73.333,36503.000,1.000
18.759,19.036,18.770,19.033,18.933,18.851,18.823,18.831,-0.130,0.853,-0.562,-0.885,-0.702,0.397,73.333,36504.000,1.000
18.790,19.030,18.708,18.932,18.814,18.897,18.851,18.866,-0.130,0.853,-0.562,-0.977,-0.610,0.488,73.333,36505.000,1.000
17.572,17.732,17.406,17.566,17.438,17.712,17.588,17.569,-0.131,0.851,-0.562,-0.977,-0.519,0.641,73.333,36506.000,1.000
14.930,14.996,14.705,14.796,14.661,15.076,14.867,14.799,-0.127,0.850,-0.563,-0.946,-0.488,0.793,73.333,36507.000,1.000
10.901,10.902,10.645,10.685,10.546,11.006,10.759,10.639,-0.127,0.850,-0.564,-0.916,-0.366,0.916,73.333,36508.000,1.000
5.865,5.841,5.591,5.612,5.479,5.896,5.672,5.502,-0.129,0.846,-0.563,-0.824,-0.305,1.007,73.333,36509.000,1.000
0.414,0.381,0.124,0.154,0.044,0.374,0.210,-0.001,-0.129,0.844,-0.564,-0.793,-0.153,1.160,73.333,36510.000,1.000
-4.793,-4.852,-5.090,-5.043,-5.111,-4.886,-4.977,-5.212,-0.131,0.842,-0.566,-0.763,0.031,1.099,73.333,36511.000,1.000
-9.242,-9.347,-9.514,-9.452,-9.470,-9.355,-9.384,-9.610,-0.132,0.840,-0.563,-0.610,0.061,1.129,73.333,36512.000,1.000
-12.645,-12.791,-12.842,-12.773,-12.757,-12.730,-12.725,-12.906,-0.134,0.841,-0.565,-0.427,0.061,1.068,73.333,36513.000,1.000
-14.942,-15.092,-15.020,-14.955,-14.944,-14.958,-14.945,-15.052,-0.132,0.841,-0.565,-0.305,0.122,1.038,73.333,36514.000,1.000
-16.263,-16.362,-16.197,-16.152,-16.193,-16.200,-16.188,-16.204,-0.132,0.838,-0.565,-0.183,0.031,0.977,73.333,36515.000,1.000
-16.813,-16.821,-16.613,-16.605,-16.731,-16.706,-16.690,-16.605,-0.129,0.836,-0.568,0.031,0.061,1.099,73.333,36516.000,1.000
-16.800,-16.728,-16.520,-16.552,-16.779,-16.716,-16.694,-16.516,-0.127,0.833,-0.567,0.031,0.183,1.068,73.333,36517.000,1.000
-16.307,-16.220,-16.034,-16.086,-16.409,-16.312,-16.286,-16.058,-0.125,0.833,-0.566,0.183,0.183,1.007,73.333,36518.000,1.000
-15.284,-15.254,-15.107,-15.150,-15.518,-15.402,-15.377,-15.168,-0.130,0.835,-0.570,0.336,0.305,1.068,73.333,36519.000,1.000
-13.722,-13.780,-13.682,-13.698,-14.015,-13.906,-13.898,-13.763,-0.131,0.838,-0.572,0.519,0.275,1.190,73.333,36520.000,1.000
-11.692,-11.816,-11.760,-11.749,-11.938,-11.847,-11.874,-11.826,-0.133,0.841,-0.571,0.549,0.214,1.221,73.333,36521.000,1.000
-9.288,-9.438,-9.393,-9.362,-9.420,-9.341,-9.389,-9.428,-0.135,0.845,-0.571,0.763,0.244,1.190,73.333,36522.000,1.000
-6.527,-6.680,-6.607,-6.570,-6.550,-6.476,-6.496,-6.638,-0.136,0.847,-0.569,0.793,0.122,1.099,73.333,36523.000,1.000
-3.419,-3.569,-3.434,-3.419,-3.383,-3.314,-3.259,-3.523,-0.137,0.850,-0.568,0.793,0.061,1.190,73.333,36524.000,1.000
-0.064,-0.223,-0.005,-0.048,-0.039,0.025,0.164,-0.210,-0.138,0.852,-0.565,0.671,-0.092,1.221,73.333,36525.000,1.000
3.374,3.188,3.489,3.369,3.336,3.395,3.594,3.158,-0.144,0.852,-0.569,0.610,-0.275,1.129,73.333,36526.000,1.000
6.641,6.423,6.778,6.599,6.527,6.573,6.808,6.374,-0.145,0.853,-0.571,0.549,-0.519,1.038,73.333,36527.000,1.000
9.365,9.129,9.492,9.306,9.203,9.218,9.474,9.107,-0.147,0.853,-0.569,0.427,-0.763,1.007,73.333,36528.000,1.000
11.084,10.847,11.191,11.053,10.924,10.888,11.150,10.889,-0.148,0.854,-0.569,0.275,-1.099,0.916,73.333,36529.000,1.000
11.398,11.174,11.508,11.445,11.285,11.207,11.441,11.285,-0.146,0.854,-0.568,0.183,-1.343,0.702,73.333,36530.000,1.000
10.225,10.031,10.373,10.382,10.177,10.109,10.272,10.179,-0.144,0.852,-0.568,0.061,-1.678,0.641,73.333,36531.000,1.000
7.805,7.668,8.018,8.073,7.823,7.831,7.890,7.807,-0.142,0.853,-0.568,-0.122,-1.801,0.549,73.333,36532.000,1.000
4.577,4.521,4.853,4.927,4.654,4.765,4.726,4.623,-0.138,0.852,-0.571,-0.244,-1.984,0.458,73.333,36533.000,1.000
1.015,1.050,1.329,1.407,1.153,1.313,1.238,1.111,-0.136,0.854,-0.568,-0.397,-2.045,0.397,73.333,36534.000,1.000
-2.471,-2.351,-2.160,-2.066,-2.280,-2.168,-2.181,-2.336,-0.132,0.855,-0.566,-0.458,-2.106,0.244,73.333,36535.000,1.000
-5.500,-5.314,-5.237,-5.100,-5.291,-5.294,-5.173,-5.362,-0.130,0.856,-0.567,-0.549,-2.106,0.244,73.333,36536.000,1.000
-7.780,-7.562,-7.598,-7.410,-7.604,-7.708,-7.471,-7.688,-0.129,0.856,-0.568,-0.763,-1.984,0.305,73.333,36537.000,1.000
-9.160,-8.943,-9.060,-8.842,-9.044,-9.183,-8.934,-9.134,-0.127,0.858,-0.567,-0.854,-1.923,0.336,73.333,36538.000,1.000
-9.632,-9.438,-9.585,-9.371,-9.560,-9.680,-9.535,-9.643,-0.127,0.856,-0.568,-1.099,-1.801,0.519,73.333,36539.000,1.000
-9.312,-9.148,-9.276,-9.088,-9.243,-9.322,-9.333,-9.295,-0.124,0.854,-0.567,-1.190,-1.648,0.458,73.333,36540.000,1.000
-8.332,-8.208,-8.290,-8.129,-8.240,-8.283,-8.412,-8.240,-0.124,0.848,-0.568,-1.312,-1.434,0.580,73.333,36541.000,1.000
-6.948,-6.872,-6.914,-6.757,-6.826,-6.860,-6.999,-6.766,-0.124,0.848,-0.566,-1.434,-1.373,0.671,73.333,36542.000,1.000
-5.610,-5.569,-5.599,-5.424,-5.457,-5.516,-5.557,-5.336,-0.124,0.847,-0.565,-1.526,-1.190,0.793,73.333,36543.000,1.000
-4.792,-4.751,-4.800,-4.601,-4.602,-4.706,-4.615,-4.435,-0.128,0.844,-0.568,-1.556,-1.129,0.763,73.333,36544.000,1.000
-4.724,-4.645,-4.722,-4.519,-4.479,-4.626,-4.468,-4.313,-0.127,0.843,-0.568,-1.556,-0.916,0.916,73.333,36545.000,1.000
-5.276,-5.142,-5.218,-5.049,-4.957,-5.136,-5.014,-4.852,-0.129,0.842,-0.564,-1.465,-0.793,0.977,73.333,36546.000,1.000
-6.146,-5.978,-6.000,-5.899,-5.764,-5.959,-5.945,-5.747,-0.130,0.844,-0.561,-1.587,-0.671,1.007,73.333,36547.000,1.000
-7.020,-6.879,-6.804,-6.782,-6.634,-6.819,-6.937,-6.683,-0.130,0.844,-0.563,-1.617,-0.671,0.946,73.333,36548.000,1.000
-7.623,-7.582,-7.403,-7.443,-7.319,-7.468,-7.699,-7.387,-0.129,0.844,-0.564,-1.617,-0.641,1.068,73.333,36549.000,1.000
-7.699,-7.800,-7.551,-7.620,-7.542,-7.665,-7.932,-7.590,-0.130,0.843,-0.563,-1.678,-0.580,0.977,73.333,36550.000,1.000
-6.939,-7.180,-6.908,-6.978,-6.931,-7.100,-7.282,-6.964,-0.130,0.843,-0.563,-1.801,-0.488,1.007,73.333,36551.000,1.000
-5.118,-5.451,-5.200,-5.241,-5.195,-5.493,-5.493,-5.253,-0.130,0.844,-0.562,-1.831,-0.397,0.977,73.333,36552.000,1.000
-2.273,-2.625,-2.428,-2.400,-2.350,-2.783,-2.599,-2.460,-0.128,0.848,-0.563,-1.892,-0.214,0.885,73.333,36553.000,1.000
1.186,0.896,1.014,1.131,1.168,0.700,0.980,1.031,-0.126,0.849,-0.567,-1.801,-0.183,0.824,73.333,36554.000,1.000
4.580,4.417,4.431,4.607,4.614,4.266,4.525,4.521,-0.124,0.851,-0.566,-1.892,-0.061,0.793,73.333,36555.000,1.000
7.290,7.277,7.184,7.336,7.318,7.206,7.360,7.350,-0.125,0.850,-0.565,-1.953,0.000,0.854,73.333,36556.000,1.000
8.963,9.069,8.920,8.952,8.919,9.060,9.090,9.126,-0.121,0.849,-0.565,-2.197,0.122,0.824,73.333,36557.000,1.000
9.528,9.693,9.585,9.444,9.400,9.704,9.655,9.769,-0.122,0.849,-0.565,-2.197,0.275,0.671,73.333,36558.000,1.000
9.091,9.257,9.283,8.987,8.934,9.261,9.209,9.394,-0.122,0.846,-0.566,-2.258,0.458,0.610,73.333,36559.000,1.000
7.849,7.992,8.175,7.803,7.751,7.979,7.999,8.210,-0.122,0.846,-0.564,-2.319,0.610,0.610,73.333,36560.000,1.000
6.167,6.295,6.559,6.214,6.187,6.263,6.383,6.559,-0.124,0.845,-0.562,-2.228,0.793,0.488,73.333,36561.000,1.000
4.450,4.581,4.801,4.552,4.582,4.531,4.706,4.799,-0.125,0.847,-0.564,-2.197,0.854,0.397,73.333,36562.000,1.000
2.957,3.098,3.181,3.029,3.139,3.040,3.175,3.175,-0.125,0.846,-0.566,-2.350,1.007,0.275,73.333,36563.000,1.000
1.793,1.924,1.856,1.758,1.936,1.897,1.901,1.838,-0.124,0.846,-0.563,-2.258,1.068,0.214,73.333,36564.000,1.000
1.049,1.136,0.964,0.888,1.092,1.194,1.039,0.954,-0.127,0.846,-0.566,-2.167,1.129,0.214,73.333,36565.000,1.000
0.885,0.915,0.707,0.654,0.834,1.095,0.814,0.743,-0.129,0.845,-0.568,-2.258,1.160,0.153,73.333,36566.000,1.000
1.322,1.330,1.146,1.119,1.251,1.616,1.275,1.251,-0.130,0.847,-0.568,-2.228,1.251,0.000,73.333,36567.000,1.000
2.145,2.191,2.062,2.042,2.141,2.506,2.188,2.236,-0.131,0.849,-0.567,-2.228,1.343,-0.092,73.333,36568.000,1.000
3.013,3.133,3.062,3.014,3.116,3.379,3.159,3.294,-0.133,0.847,-0.564,-2.167,1.251,-0.153,73.333,36569.000,1.000
3.633,3.808,3.784,3.687,3.813,3.928,3.846,4.055,-0.134,0.848,-0.567,-2.167,1.099,-0.214,73.333,36570.000,1.000
3.962,4.119,4.132,3.997,4.149,4.131,4.169,4.410,-0.135,0.848,-0.563,-2.075,0.977,-0.275,73.333,36571.000,1.000
4.148,4.203,4.229,4.101,4.271,4.169,4.267,4.470,-0.134,0.849,-0.564,-2.167,0.885,-0.458,73.333,36572.000,1.000
4.367,4.271,4.259,4.204,4.382,4.235,4.338,4.434,-0.136,0.850,-0.562,-2.014,0.854,-0.458,73.333,36573.000,1.000
4.754,4.514,4.420,4.493,4.656,4.487,4.558,4.523,-0.134,0.850,-0.563,-2.014,0.763,-0.519,73.333,36574.000,1.000
5.416,5.096,4.906,5.127,5.227,5.073,5.076,4.962,-0.133,0.851,-0.564,-2.106,0.641,-0.519,73.333,36575.000,1.000
6.446,6.136,5.867,6.207,6.196,6.137,6.016,5.922,-0.136,0.853,-0.562,-2.045,0.549,-0.610,73.333,36576.000,1.000
7.774,7.570,7.244,7.635,7.513,7.625,7.342,7.346,-0.135,0.854,-0.563,-1.984,0.488,-0.519,73.333,36577.000,1.000
9.140,9.107,8.744,9.103,8.943,9.227,8.817,8.922,-0.135,0.854,-0.560,-2.106,0.366,-0.397,73.333,36578.000,1.000
10.220,10.375,10.004,10.264,10.174,10.521,10.106,10.247,-0.133,0.853,-0.559,-2.014,0.214,-0.305,73.333,36579.000,1.000
10.788,11.093,10.770,10.897,10.945,11.202,10.919,11.015,-0.134,0.852,-0.560,-2.045,0.092,-0.336,73.333,36580.000,1.000
10.818,11.206,10.994,10.998,11.167,11.237,11.152,11.148,-0.134,0.853,-0.564,-2.106,0.092,-0.244,73.333,36581.000,1.000
10.409,10.818,10.747,10.678,10.894,10.778,10.862,10.741,-0.135,0.850,-0.560,-2.045,-0.031,-0.183,73.333,36582.000,1.000
9.764,10.162,10.212,10.127,10.316,10.091,10.259,10.037,-0.135,0.848,-0.559,-1.923,-0.153,-0.183,73.333,36583.000,1.000
9.151,9.539,9.640,9.578,9.710,9.477,9.636,9.350,-0.135,0.844,-0.560,-1.801,-0.214,0.031,73.333,36584.000,1.000
8.694,9.084,9.139,9.113,9.211,9.042,9.123,8.827,-0.135,0.844,-0.561,-1.831,-0.336,0.153,73.333,36585.000,1.000
8.232,8.618,8.550,8.551,8.674,8.586,8.559,8.313,-0.136,0.844,-0.563,-1.709,-0.458,0.214,73.333,36586.000,1.000
7.350,7.700,7.494,7.504,7.701,7.666,7.552,7.397,-0.133,0.845,-0.562,-1.648,-0.488,0.305,73.333,36587.000,1.000
5.708,5.986,5.686,5.701,5.971,5.957,5.800,5.735,-0.131,0.847,-0.562,-1.495,-0.549,0.336,73.333,36588.000,1.000
3.367,3.556,3.240,3.273,3.547,3.546,3.392,3.387,-0.130,0.846,-0.565,-1.434,-0.610,0.519,73.333,36589.000,1.000
0.755,0.859,0.613,0.666,0.867,0.866,0.774,0.794,-0.129,0.846,-0.561,-1.404,-0.580,0.488,73.333,36590.000,1.000
-1.529,-1.491,-1.614,-1.556,-1.455,-1.486,-1.453,-1.429,-0.131,0.846,-0.561,-1.343,-0.580,0.549,73.333,36591.000,1.000
-3.023,-3.019,-3.039,-2.984,-2.961,-3.045,-2.850,-2.829,-0.134,0.844,-0.563,-1.251,-0.519,0.580,73.333,36592.000,1.000
-3.605,-3.603,-3.600,-3.538,-3.556,-3.682,-3.348,-3.336,-0.136,0.846,-0.562,-1.099,-0.580,0.488,73.333,36593.000,1.000
-3.539,-3.504,-3.568,-3.489,-3.516,-3.644,-3.266,-3.270,-0.137,0.847,-0.562,-1.068,-0.610,0.488,73.333,36594.000,1.000
-3.332,-3.236,-3.418,-3.325,-3.328,-3.429,-3.121,-3.150,-0.139,0.847,-0.559,-1.099,-0.793,0.366,73.333,36595.000,1.000
-3.374,-3.219,-3.491,-3.412,-3.356,-3.428,-3.270,-3.316,-0.136,0.846,-0.562,-0.916,-0.885,0.336,73.333,36596.000,1.000
-3.772,-3.610,-3.863,-3.838,-3.723,-3.779,-3.767,-3.813,-0.133,0.846,-0.563,-0.916,-0.916,0.275,73.333,36597.000,1.000
-4.464,-4.373,-4.477,-4.532,-4.406,-4.467,-4.509,-4.548,-0.131,0.843,-0.563,-0.763,-0.977,0.244,73.333,36598.000,1.000
-5.379,-5.412,-5.302,-5.419,-5.358,-5.449,-5.418,-5.462,-0.130,0.843,-0.561,-0.702,-0.977,0.214,73.333,36599.000,1.000
-6.403,-6.553,-6.266,-6.395,-6.449,-6.583,-6.395,-6.464,-0.128,0.844,-0.562,-0.702,-0.824,0.061,73.333,36600.000,1.000
-7.208,-7.414,-7.076,-7.158,-7.322,-7.480,-7.150,-7.247,-0.127,0.843,-0.564,-0.641,-0.854,-0.031,73.333,36601.000,1.000
-7.453,-7.619,-7.393,-7.384,-7.608,-7.750,-7.372,-7.485,-0.127,0.844,-0.565,-0.610,-0.732,-0.092,73.333,36602.000,1.000
-7.009,-7.054,-7.064,-6.955,-7.173,-7.265,-6.943,-7.053,-0.129,0.844,-0.566,-0.488,-0.671,-0.153,73.333,36603.000,1.000
-5.925,-5.840,-6.104,-5.923,-6.096,-6.127,-5.904,-5.998,-0.128,0.845,-0.563,-0.427,-0.580,-0.061,73.333,36604.000,1.000
-4.384,-4.245,-4.655,-4.463,-4.588,-4.578,-4.423,-4.490,-0.131,0.845,-0.564,-0.275,-0.580,0.000,73.333,36605.000,1.000
-2.653,-2.566,-2.957,-2.817,-2.904,-2.898,-2.765,-2.781,-0.132,0.844,-0.561,-0.183,-0.549,-0.031,73.333,36606.000,1.000
-1.043,-1.074,-1.312,-1.275,-1.314,-1.368,-1.246,-1.168,-0.132,0.845,-0.559,-0.153,-0.488,0.031,73.333,36607.000,1.000
0.164,0.025,-0.012,-0.103,-0.073,-0.224,-0.137,0.073,-0.132,0.847,-0.562,-0.092,-0.427,0.031,73.333,36608.000,1.000
0.776,0.590,0.714,0.504,0.615,0.372,0.406,0.738,-0.132,0.846,-0.563,-0.092,-0.519,0.031,73.333,36609.000,1.000
0.730,0.572,0.751,0.476,0.651,0.377,0.345,0.733,-0.132,0.849,-0.563,-0.122,-0.549,0.031,73.333,36610.000,1.000
0.208,0.124,0.245,-0.014,0.177,-0.042,-0.151,0.213,-0.135,0.852,-0.561,-0.092,-0.641,0.031,73.333,36611.000,1.000
-0.461,-0.479,-0.456,-0.645,-0.502,-0.597,-0.795,-0.498,-0.135,0.852,-0.563,-0.092,-0.580,0.061,73.333,36612.000,1.000
-0.990,-0.991,-1.023,-1.138,-1.095,-1.045,-1.337,-1.086,-0.133,0.851,-0.562,-0.214,-0.610,0.153,73.333,36613.000,1.000
-1.265,-1.295,-1.310,-1.370,-1.447,-1.288,-1.659,-1.394,-0.133,0.850,-0.563,-0.183,-0.610,0.153,73.333,36614.000,1.000
-1.341,-1.404,-1.352,-1.372,-1.563,-1.368,-1.756,-1.422,-0.133,0.850,-0.565,-0.244,-0.641,0.183,73.333,36615.000,1.000
-1.216,-1.293,-1.159,-1.153,-1.436,-1.277,-1.560,-1.161,-0.134,0.848,-0.565,-0.305,-0.671,0.275,73.333,36616.000,1.000
-0.811,-0.894,-0.702,-0.695,-1.024,-0.936,-1.000,-0.611,-0.137,0.850,-0.564,-0.153,-0.763,0.336,73.333,36617.000,1.000
-0.131,-0.239,-0.046,-0.084,-0.362,-0.339,-0.167,0.102,-0.135,0.847,-0.562,-0.183,-0.732,0.397,73.333,36618.000,1.000
0.630,0.461,0.608,0.464,0.365,0.348,0.659,0.724,-0.136,0.848,-0.564,-0.153,-0.916,0.488,73.333,36619.000,1.000
1.158,0.903,0.996,0.702,0.873,0.842,1.133,0.978,-0.137,0.848,-0.567,-0.214,-0.946,0.549,73.333,36620.000,1.000
1.253,0.929,0.990,0.559,0.985,0.963,1.090,0.787,-0.136,0.845,-0.562,-0.153,-1.007,0.641,73.333,36621.000,1.000
0.888,0.546,0.594,0.118,0.667,0.680,0.563,0.249,-0.138,0.844,-0.563,-0.183,-1.068,0.641,73.333,36622.000,1.000
0.133,-0.177,-0.141,-0.533,-0.042,0.030,-0.320,-0.503,-0.138,0.844,-0.560,-0.122,-1.221,0.641,73.333,36623.000,1.000
-0.861,-1.124,-1.106,-1.322,-1.018,-0.879,-1.378,-1.357,-0.139,0.845,-0.561,-0.092,-1.312,0.671,73.333,36624.000,1.000
-1.839,-2.075,-2.077,-2.124,-2.015,-1.841,-2.367,-2.175,-0.139,0.846,-0.560,-0.153,-1.465,0.793,73.333,36625.000,1.000
-2.425,-2.654,-2.681,-2.656,-2.643,-2.496,-2.941,-2.683,-0.137,0.844,-0.565,-0.092,-1.495,0.702,73.333,36626.000,1.000
-2.342,-2.556,-2.604,-2.651,-2.599,-2.536,-2.844,-2.623,-0.137,0.847,-0.566,-0.031,-1.678,0.671,73.333,36627.000,1.000
-1.624,-1.790,-1.826,-2.064,-1.895,-1.922,-2.098,-1.959,-0.135,0.847,-0.568,-0.122,-1.709,0.610,73.333,36628.000,1.000
-0.512,-0.606,-0.572,-1.035,-0.773,-0.830,-0.919,-0.861,-0.133,0.848,-0.569,-0.061,-1.770,0.580,73.333,36629.000,1.000
0.772,0.735,0.882,0.260,0.516,0.523,0.475,0.450,-0.131,0.850,-0.567,-0.153,-1.770,0.488,73.333,36630.000,1.000
2.077,2.050,2.313,1.657,1.806,1.950,1.921,1.784,-0.128,0.851,-0.567,-0.122,-1.770,0.397,73.333,36631.000,1.000
3.153,3.075,3.426,2.866,2.857,3.142,3.144,2.870,-0.124,0.851,-0.567,-0.214,-1.556,0.397,73.333,36632.000,1.000
3.619,3.454,3.850,3.468,3.321,3.685,3.738,3.347,-0.127,0.850,-0.565,-0.214,-1.434,0.366,73.333,36633.000,1.000
3.159,2.922,3.314,3.114,2.902,3.269,3.370,2.934,-0.126,0.849,-0.566,-0.305,-1.404,0.366,73.333,36634.000,1.000
1.721,1.460,1.804,1.721,1.539,1.853,1.973,1.583,-0.127,0.847,-0.568,-0.336,-1.373,0.214,73.333,36635.000,1.000
-0.369,-0.620,-0.347,-0.397,-0.475,-0.234,-0.127,-0.408,-0.128,0.849,-0.564,-0.397,-1.251,0.122,73.333,36636.000,1.000
-2.652,-2.894,-2.687,-2.757,-2.713,-2.536,-2.452,-2.614,-0.129,0.846,-0.565,-0.427,-1.251,0.031,73.333,36637.000,1.000
-4.870,-5.129,-4.970,-5.044,-4.927,-4.797,-4.719,-4.794,-0.130,0.844,-0.567,-0.397,-1.129,0.000,73.333,36638.000,1.000
-7.022,-7.310,-7.191,-7.206,-7.096,-7.006,-6.915,-6.940,-0.129,0.845,-0.566,-0.366,-1.068,-0.214,73.333,36639.000,1.000
-9.152,-9.454,-9.384,-9.271,-9.231,-9.191,-9.089,-9.081,-0.128,0.844,-0.570,-0.336,-0.977,-0.244,73.333,36640.000,1.000
-11.045,-11.331,-11.314,-11.045,-11.089,-11.131,-11.034,-10.997,-0.130,0.845,-0.567,-0.305,-1.007,-0.214,73.333,36641.000,1.000
-12.280,-12.516,-12.542,-12.151,-12.243,-12.400,-12.314,-12.264,-0.134,0.844,-0.565,-0.183,-0.916,-0.397,73.333,36642.000,1.000
-12.525,-12.686,-12.736,-12.300,-12.383,-12.645,-12.567,-12.537,-0.134,0.845,-0.566,-0.153,-0.885,-0.366,73.333,36643.000,1.000
-11.729,-11.811,-11.856,-11.456,-11.494,-11.802,-11.726,-11.755,-0.133,0.846,-0.563,-0.122,-0.916,-0.366,73.333,36644.000,1.000
-10.141,-10.155,-10.163,-9.853,-9.848,-10.125,-10.057,-10.156,-0.134,0.845,-0.566,-0.153,-1.099,-0.488,73.333,36645.000,1.000
-8.112,-8.067,-8.018,-7.816,-7.800,-8.002,-7.945,-8.088,-0.138,0.845,-0.567,-0.244,-1.190,-0.549,73.333,36646.000,1.000
-5.966,-5.864,-5.773,-5.659,-5.670,-5.796,-5.743,-5.889,-0.140,0.845,-0.563,-0.183,-1.221,-0.519,73.333,36647.000,1.000
-3.946,-3.796,-3.703,-3.628,-3.693,-3.769,-3.701,-3.825,-0.140,0.847,-0.564,-0.153,-1.160,-0.580,73.333,36648.000,1.000
-2.152,-1.976,-1.926,-1.832,-1.959,-2.007,-1.917,-2.008,-0.140,0.849,-0.564,-0.275,-1.343,-0.549,73.333,36649.000,1.000
-0.521,-0.332,-0.359,-0.208,-0.380,-0.407,-0.312,-0.371,-0.137,0.849,-0.564,-0.214,-1.343,-0.488,73.333,36650.000,1.000
1.135,1.347,1.233,1.444,1.258,1.256,1.332,1.286,-0.138,0.851,-0.569,-0.275,-1.465,-0.458,73.333,36651.000,1.000
2.904,3.164,2.986,3.228,3.058,3.080,3.132,3.070,-0.136,0.851,-0.568,-0.427,-1.556,-0.397,73.333,36652.000,1.000
4.707,5.012,4.828,5.060,4.920,4.963,4.991,4.901,-0.134,0.853,-0.566,-0.458,-1.495,-0.305,73.333,36653.000,1.000
6.390,6.684,6.564,6.758,6.653,6.703,6.697,6.597,-0.133,0.853,-0.563,-0.641,-1.465,-0.214,73.333,36654.000,1.000
7.741,7.937,7.928,8.084,8.014,8.042,7.993,7.926,-0.133,0.851,-0.563,-0.610,-1.465,-0.122,73.333,36655.000,1.000
8.611,8.636,8.743,8.884,8.837,8.820,8.735,8.737,-0.132,0.851,-0.562,-0.702,-1.312,-0.092,73.333,36656.000,1.000
8.964,8.791,8.979,9.145,9.088,9.018,8.942,9.001,-0.132,0.851,-0.564,-0.763,-1.343,-0.031,73.333,36657.000,1.000
8.766,8.428,8.647,8.881,8.767,8.646,8.659,8.702,-0.132,0.849,-0.566,-0.793,-1.190,0.061,73.333,36658.000,1.000
7.899,7.483,7.681,8.003,7.800,7.633,7.807,7.747,-0.134,0.846,-0.569,-0.763,-1.129,0.183,73.333,36659.000,1.000
6.176,5.785,5.921,6.321,6.024,5.834,6.172,5.970,-0.134,0.846,-0.570,-0.824,-1.038,0.275,73.333,36660.000,1.000
3.562,3.271,3.328,3.770,3.407,3.231,3.661,3.342,-0.136,0.845,-0.566,-0.763,-0.977,0.305,73.333,36661.000,1.000
0.332,0.158,0.139,0.586,0.206,0.076,0.491,0.113,-0.137,0.844,-0.565,-0.885,-0.946,0.305,73.333,36662.000,1.000
-2.961,-3.046,-3.138,-2.712,-3.048,-3.129,-2.816,-3.198,-0.138,0.843,-0.566,-0.824,-0.977,0.366,73.333,36663.000,1.000
-5.696,-5.729,-5.909,-5.523,-5.753,-5.822,-5.642,-5.991,-0.136,0.843,-0.564,-0.916,-1.038,0.244,73.333,36664.000,1.000
-7.503,-7.490,-7.780,-7.438,-7.537,-7.652,-7.565,-7.869,-0.136,0.842,-0.563,-0.824,-1.099,0.305,73.333,36665.000,1.000
-8.293,-8.214,-8.608,-8.305,-8.301,-8.498,-8.425,-8.688,-0.137,0.841,-0.564,-0.763,-1.068,0.336,73.333,36666.000,1.000
-8.179,-8.022,-8.461,-8.193,-8.161,-8.422,-8.304,-8.529,-0.138,0.841,-0.565,-0.641,-1.068,0.214,73.333,36667.000,1.000
-7.380,-7.160,-7.547,-7.324,-7.350,-7.608,-7.448,-7.612,-0.140,0.841,-0.567,-0.519,-1.160,0.244,73.333,36668.000,1.000
-6.125,-5.879,-6.135,-5.970,-6.118,-6.286,-6.145,-6.205,-0.142,0.842,-0.566,-0.458,-1.282,0.244,73.333,36669.000,1.000
-4.583,-4.367,-4.459,-4.351,-4.645,-4.663,-4.610,-4.532,-0.140,0.843,-0.565,-0.427,-1.282,0.214,73.333,36670.000,1.000
-2.757,-2.630,-2.566,-2.511,-2.916,-2.790,-2.846,-2.631,-0.138,0.847,-0.563,-0.427,-1.373,0.214,73.333,36671.000,1.000
-0.606,-0.585,-0.399,-0.415,-0.840,-0.642,-0.766,-0.461,-0.138,0.850,-0.565,-0.427,-1.465,0.092,73.333,36672.000,1.000
1.806,1.773,2.026,1.901,1.554,1.742,1.626,1.938,-0.137,0.852,-0.567,-0.549,-1.434,0.061,73.333,36673.000,1.000
4.321,4.320,4.570,4.314,4.095,4.231,4.190,4.416,-0.137,0.853,-0.563,-0.671,-1.434,-0.031,73.333,36674.000,1.000
6.675,6.762,6.945,6.596,6.490,6.571,6.630,6.713,-0.137,0.853,-0.564,-0.763,-1.465,-0.092,73.333,36675.000,1.000
8.563,8.732,8.807,8.467,8.422,8.460,8.593,8.549,-0.134,0.853,-0.564,-0.916,-1.343,-0.153,73.333,36676.000,1.000
9.742,9.947,9.901,9.701,9.665,9.669,9.814,9.721,-0.133,0.852,-0.562,-0.946,-1.221,-0.244,73.333,36677.000,1.000
10.134,10.344,10.191,10.220,10.161,10.136,10.233,10.168,-0.132,0.851,-0.564,-1.160,-1.190,-0.183,73.333,36678.000,1.000
9.793,10.013,9.802,10.060,9.951,9.917,9.937,9.923,-0.132,0.853,-0.567,-1.190,-1.099,-0.214,73.333,36679.000,1.000
8.765,9.025,8.824,9.223,9.043,9.034,8.988,8.995,-0.134,0.853,-0.566,-1.312,-0.977,-0.275,73.333,36680.000,1.000
7.176,7.501,7.360,7.759,7.529,7.570,7.489,7.474,-0.131,0.852,-0.565,-1.343,-0.854,-0.214,73.333,36681.000,1.000
5.247,5.644,5.565,5.828,5.626,5.718,5.631,5.558,-0.133,0.852,-0.563,-1.526,-0.641,-0.092,73.333,36682.000,1.000
3.187,3.636,3.574,3.621,3.553,3.672,3.603,3.461,-0.130,0.852,-0.563,-1.465,-0.519,-0.153,73.333,36683.000,1.000
1.117,1.575,1.464,1.306,1.447,1.569,1.536,1.336,-0.130,0.851,-0.562,-1.587,-0.244,-0.153,73.333,36684.000,1.000
-0.936,-0.535,-0.725,-0.997,-0.658,-0.539,-0.520,-0.750,-0.129,0.851,-0.563,-1.648,-0.153,-0.183,73.333,36685.000,1.000
-2.912,-2.632,-2.885,-3.133,-2.724,-2.565,-2.498,-2.721,-0.130,0.848,-0.566,-1.831,0.122,-0.214,73.333,36686.000,1.000
-4.686,-4.564,-4.825,-4.936,-4.637,-4.382,-4.305,-4.468,-0.130,0.846,-0.566,-1.801,0.397,-0.153,73.333,36687.000,1.000
-6.130,-6.154,-6.354,-6.294,-6.218,-5.869,-5.831,-5.888,-0.132,0.845,-0.569,-1.709,0.458,-0.092,73.333,36688.000,1.000
-7.165,-7.279,-7.354,-7.177,-7.303,-6.937,-6.966,-6.909,-0.131,0.845,-0.569,-1.617,0.549,-0.092,73.333,36689.000,1.000
-7.803,-7.937,-7.842,-7.654,-7.870,-7.584,-7.680,-7.539,-0.134,0.843,-0.566,-1.465,0.610,0.000,73.333,36690.000,1.000
-8.026,-8.128,-7.864,-7.762,-7.952,-7.797,-7.949,-7.756,-0.136,0.844,-0.568,-1.373,0.702,0.031,73.333,36691.000,1.000
-7.745,-7.791,-7.419,-7.448,-7.554,-7.506,-7.704,-7.477,-0.140,0.847,-0.566,-1.404,0.793,0.031,73.333,36692.000,1.000
-6.872,-6.846,-6.472,-6.617,-6.645,-6.638,-6.866,-6.617,-0.142,0.844,-0.562,-1.312,0.732,0.031,73.333,36693.000,1.000
-5.403,-5.294,-5.015,-5.228,-5.212,-5.198,-5.417,-5.163,-0.143,0.843,-0.563,-1.160,0.641,0.122,73.333,36694.000,1.000
-3.513,-3.323,-3.195,-3.421,-3.375,-3.358,-3.528,-3.286,-0.143,0.843,-0.562,-1.129,0.641,0.122,73.333,36695.000,1.000
-1.476,-1.223,-1.258,-1.457,-1.352,-1.379,-1.480,-1.270,-0.144,0.844,-0.561,-1.038,0.580,0.244,73.333,36696.000,1.000
0.492,0.778,0.598,0.450,0.650,0.537,0.497,0.648,-0.142,0.846,-0.561,-1.038,0.458,0.244,73.333,36697.000,1.000
2.373,2.642,2.380,2.292,2.568,2.372,2.374,2.438,-0.139,0.846,-0.563,-0.946,0.366,0.305,73.333,36698.000,1.000
4.326,4.529,4.288,4.257,4.527,4.292,4.312,4.292,-0.141,0.849,-0.566,-0.916,0.336,0.488,73.333,36699.000,1.000
6.416,6.546,6.423,6.441,6.605,6.391,6.409,6.350,-0.138,0.852,-0.564,-0.946,0.275,0.549,73.333,36700.000,1.000
8.463,8.560,8.597,8.644,8.655,8.508,8.518,8.478,-0.134,0.850,-0.564,-1.038,0.275,0.610,73.333,36701.000,1.000
10.037,10.167,10.312,10.371,10.263,10.199,10.208,10.218,-0.134,0.848,-0.561,-1.129,0.244,0.793,73.333,36702.000,1.000
10.659,10.870,11.013,11.068,10.941,10.946,10.947,11.014,-0.134,0.850,-0.562,-1.129,0.275,0.854,73.333,36703.000,1.000
10.145,10.440,10.472,10.501,10.479,10.521,10.473,10.607,-0.134,0.850,-0.563,-1.099,0.458,0.946,73.333,36704.000,1.000
8.701,9.031,8.901,8.865,9.055,9.097,8.932,9.162,-0.133,0.848,-0.563,-1.068,0.336,0.977,73.333,36705.000,1.000
6.746,7.036,6.757,6.614,7.053,7.066,6.740,7.089,-0.135,0.846,-0.562,-0.946,0.336,0.977,73.333,36706.000,1.000
4.595,4.773,4.403,4.146,4.759,4.736,4.262,4.730,-0.135,0.843,-0.561,-0.946,0.427,1.099,73.333,36707.000,1.000
2.346,2.363,1.974,1.648,2.285,2.238,1.676,2.238,-0.137,0.844,-0.563,-0.854,0.336,1.129,73.333,36708.000,1.000
-0.003,-0.153,-0.510,-0.830,-0.309,-0.356,-0.929,-0.328,-0.138,0.845,-0.565,-0.824,0.122,1.160,73.333,36709.000,1.000
-2.486,-2.750,-3.050,-3.311,-2.968,-2.990,-3.500,-2.954,-0.142,0.846,-0.560,-0.793,0.122,1.160,73.333,36710.000,1.000
-5.061,-5.347,-5.571,-5.765,-5.581,-5.555,-5.957,-5.571,-0.141,0.844,-0.563,-0.671,0.000,1.099,73.333,36711.000,1.000
-7.498,-7.743,-7.853,-8.021,-7.926,-7.831,-8.126,-7.954,-0.139,0.844,-0.565,-0.641,0.000,1.038,73.333,36712.000,1.000
-9.342,-9.535,-9.506,-9.701,-9.613,-9.443,-9.672,-9.670,-0.139,0.844,-0.565,-0.488,-0.031,0.916,73.333,36713.000,1.000
-10.058,-10.219,-10.080,-10.333,-10.190,-9.954,-10.172,-10.225,-0.141,0.843,-0.566,-0.427,-0.336,0.946,73.333,36714.000,1.000
-9.387,-9.542,-9.367,-9.665,-9.459,-9.181,-9.414,-9.417,-0.138,0.842,-0.565,-0.336,-0.397,0.916,73.333,36715.000,1.000
-7.491,-7.673,-7.524,-7.828,-7.600,-7.312,-7.553,-7.464,-0.137,0.842,-0.568,-0.153,-0.427,0.946,73.333,36716.000,1.000
-4.902,-5.145,-5.029,-5.317,-5.113,-4.853,-5.080,-4.920,-0.140,0.840,-0.570,0.031,-0.671,0.824,73.333,36717.000,1.000
-2.240,-2.557,-2.446,-2.734,-2.566,-2.359,-2.547,-2.381,-0.138,0.840,-0.567,0.092,-0.824,0.824,73.333,36718.000,1.000
0.105,-0.253,-0.117,-0.451,-0.298,-0.158,-0.271,-0.175,-0.137,0.841,-0.565,0.092,-0.793,0.793,73.333,36719.000,1.000
1.987,1.643,1.822,1.412,1.563,1.637,1.630,1.610,-0.136,0.845,-0.565,0.183,-0.885,0.824,73.333,36720.000,1.000
3.423,3.149,3.375,2.902,3.041,3.049,3.146,3.035,-0.135,0.843,-0.568,0.366,-0.946,0.916,73.333,36721.000,1.000
4.505,4.346,4.598,4.124,4.233,4.174,4.334,4.209,-0.133,0.842,-0.568,0.305,-0.916,0.854,73.333,36722.000,1.000
5.323,5.304,5.547,5.151,5.217,5.101,5.255,5.205,-0.135,0.842,-0.566,0.397,-0.916,0.763,73.333,36723.000,1.000
5.931,6.037,6.244,5.982,5.997,5.855,5.941,6.009,-0.136,0.843,-0.567,0.519,-0.977,0.793,73.333,36724.000,1.000
6.313,6.494,6.643,6.516,6.489,6.362,6.367,6.509,-0.137,0.844,-0.568,0.580,-1.007,0.702,73.333,36725.000,1.000
6.455,6.666,6.737,6.705,6.660,6.571,6.543,6.651,-0.138,0.847,-0.567,0.549,-1.099,0.793,73.333,36726.000,1.000
6.353,6.572,6.561,6.583,6.546,6.483,6.487,6.472,-0.140,0.846,-0.568,0.458,-1.221,0.824,73.333,36727.000,1.000
5.975,6.181,6.117,6.186,6.165,6.084,6.163,6.013,-0.139,0.847,-0.563,0.366,-1.190,0.763,73.333,36728.000,1.000
5.296,5.448,5.388,5.527,5.514,5.369,5.532,5.305,-0.138,0.850,-0.568,0.366,-1.312,0.610,73.333,36729.000,1.000
4.313,4.369,4.360,4.587,4.574,4.347,4.577,4.360,-0.138,0.853,-0.569,0.214,-1.312,0.488,73.333,36730.000,1.000
3.077,3.036,3.089,3.388,3.365,3.090,3.343,3.208,-0.134,0.855,-0.564,0.092,-1.282,0.549,73.333,36731.000,1.000
1.623,1.514,1.624,1.944,1.897,1.641,1.870,1.845,-0.131,0.855,-0.563,-0.092,-1.190,0.580,73.333,36732.000,1.000
-0.077,-0.232,-0.068,0.218,0.130,-0.041,0.144,0.201,-0.128,0.853,-0.564,-0.244,-1.160,0.610,73.333,36733.000,1.000
-2.041,-2.229,-2.012,-1.783,-1.924,-1.980,-1.827,-1.748,-0.124,0.849,-0.565,-0.336,-0.946,0.641,73.333,36734.000,1.000
-4.202,-4.408,-4.145,-3.953,-4.146,-4.104,-3.969,-3.923,-0.123,0.845,-0.566,-0.519,-0.824,0.702,73.333,36735.000,1.000
-6.285,-6.480,-6.194,-6.001,-6.228,-6.134,-6.017,-6.042,-0.125,0.842,-0.567,-0.458,-0.671,0.763,73.333,36736.000,1.000
-7.894,-8.036,-7.765,-7.552,-7.773,-7.670,-7.581,-7.704,-0.127,0.842,-0.565,-0.549,-0.580,0.946,73.333,36737.000,1.000
-8.791,-8.849,-8.642,-8.420,-8.585,-8.496,-8.445,-8.674,-0.128,0.842,-0.569,-0.519,-0.458,0.977,73.333,36738.000,1.000
-9.047,-9.017,-8.913,-8.720,-8.788,-8.725,-8.721,-9.020,-0.127,0.843,-0.572,-0.580,-0.366,1.099,73.333,36739.000,1.000
-8.934,-8.845,-8.857,-8.728,-8.700,-8.666,-8.713,-9.001,-0.128,0.845,-0.571,-0.519,-0.214,1.007,73.333,36740.000,1.000
-8.612,-8.513,-8.620,-8.557,-8.483,-8.466,-8.551,-8.759,-0.128,0.847,-0.571,-0.427,-0.122,1.160,73.333,36741.000,1.000
-8.030,-7.961,-8.126,-8.091,-8.039,-8.014,-8.109,-8.224,-0.131,0.848,-0.569,-0.549,-0.122,1.129,73.333,36742.000,1.000
-7.079,-7.057,-7.233,-7.176,-7.191,-7.143,-7.219,-7.281,-0.136,0.851,-0.568,-0.641,-0.061,1.160,73.333,36743.000,1.000
-5.684,-5.723,-5.849,-5.742,-5.829,-5.771,-5.811,-5.859,-0.140,0.850,-0.566,-0.702,-0.153,1.099,73.333,36744.000,1.000
-3.845,-3.974,-3.984,-3.829,-3.963,-3.926,-3.931,-3.964,-0.145,0.848,-0.568,-0.793,-0.275,1.007,73.333,36745.000,1.000
-1.640,-1.898,-1.758,-1.568,-1.712,-1.722,-1.700,-1.686,-0.147,0.848,-0.568,-0.946,-0.458,0.916,73.333,36746.000,1.000
0.650,0.259,0.521,0.730,0.619,0.549,0.585,0.675,-0.148,0.849,-0.571,-0.885,-0.702,0.671,73.333,36747.000,1.000
2.586,2.118,2.410,2.623,2.594,2.465,2.491,2.652,-0.146,0.850,-0.570,-0.916,-0.854,0.580,73.333,36748.000,1.000
3.883,3.440,3.635,3.850,3.926,3.766,3.743,3.943,-0.143,0.848,-0.570,-1.038,-1.038,0.549,73.333,36749.000,1.000
4.571,4.259,4.244,4.461,4.630,4.482,4.385,4.582,-0.142,0.847,-0.567,-1.129,-1.190,0.366,73.333,36750.000,1.000
4.952,4.840,4.565,4.766,4.999,4.892,4.742,4.896,-0.140,0.846,-0.568,-1.099,-1.282,0.397,73.333,36751.000,1.000
5.342,5.418,4.945,5.096,5.355,5.294,5.154,5.242,-0.137,0.846,-0.569,-1.160,-1.404,0.336,73.333,36752.000,1.000
5.803,5.982,5.470,5.533,5.768,5.748,5.697,5.714,-0.135,0.848,-0.571,-1.251,-1.373,0.397,73.333,36753.000,1.000
6.141,6.316,5.929,5.899,6.048,6.060,6.165,6.120,-0.135,0.847,-0.568,-1.312,-1.312,0.458,73.333,36754.000,1.000
6.121,6.226,6.037,5.960,5.963,6.003,6.285,6.190,-0.131,0.850,-0.568,-1.373,-1.404,0.366,73.333,36755.000,1.000
5.813,5.837,5.811,5.768,5.583,5.665,6.074,5.945,-0.130,0.851,-0.565,-1.373,-1.465,0.458,73.333,36756.000,1.000
5.589,5.544,5.601,5.649,5.281,5.424,5.868,5.735,-0.131,0.851,-0.563,-1.465,-1.282,0.519,73.333,36757.000,1.000
5.753,5.646,5.729,5.872,5.377,5.569,5.989,5.877,-0.129,0.852,-0.564,-1.526,-1.221,0.610,73.333,36758.000,1.000
6.247,6.066,6.170,6.369,5.839,6.019,6.423,6.322,-0.130,0.852,-0.566,-1.648,-1.190,0.732,73.333,36759.000,1.000
6.607,6.347,6.486,6.684,6.220,6.314,6.739,6.613,-0.132,0.852,-0.565,-1.801,-1.068,0.793,73.333,36760.000,1.000
6.313,6.002,6.187,6.314,6.001,5.970,6.430,6.245,-0.131,0.850,-0.563,-1.801,-1.068,0.885,73.333,36761.000,1.000
5.142,4.849,5.067,5.066,4.941,4.789,5.270,5.026,-0.133,0.850,-0.565,-1.984,-0.977,0.946,73.333,36762.000,1.000
3.184,2.978,3.207,3.072,3.100,2.863,3.342,3.074,-0.131,0.847,-0.563,-2.075,-0.946,0.977,73.333,36763.000,1.000
0.678,0.577,0.795,0.575,0.678,0.410,0.862,0.621,-0.133,0.847,-0.561,-2.045,-0.885,0.946,73.333,36764.000,1.000
-2.131,-2.169,-1.975,-2.208,-2.108,-2.351,-1.950,-2.121,-0.135,0.847,-0.562,-2.045,-0.763,0.885,73.333,36765.000,1.000
-4.864,-4.901,-4.746,-4.921,-4.879,-5.057,-4.717,-4.805,-0.136,0.847,-0.561,-2.045,-0.763,0.916,73.333,36766.000,1.000
-6.970,-7.037,-6.941,-7.013,-7.056,-7.144,-6.859,-6.881,-0.132,0.846,-0.564,-2.136,-0.793,0.854,73.333,36767.000,1.000
-7.995,-8.076,-8.074,-8.030,-8.156,-8.140,-7.906,-7.892,-0.133,0.848,-0.562,-2.197,-0.702,0.702,73.333,36768.000,1.000
-7.885,-7.922,-8.062,-7.926,-8.108,-7.970,-7.803,-7.786,-0.131,0.846,-0.563,-2.136,-0.671,0.702,73.333,36769.000,1.000
-7.003,-6.939,-7.246,-7.057,-7.263,-7.005,-6.922,-6.930,-0.132,0.846,-0.565,-2.228,-0.519,0.824,73.333,36770.000,1.000
-5.798,-5.619,-6.067,-5.855,-6.057,-5.738,-5.714,-5.771,-0.130,0.847,-0.567,-2.319,-0.488,0.793,73.333,36771.000,1.000
-4.577,-4.330,-4.841,-4.620,-4.794,-4.526,-4.493,-4.618,-0.128,0.846,-0.563,-2.350,-0.397,0.641,73.333,36772.000,1.000
-3.506,-3.276,-3.753,-3.531,-3.660,-3.537,-3.436,-3.645,-0.129,0.845,-0.564,-2.289,-0.305,0.671,73.333,36773.000,1.000
-2.645,-2.504,-2.868,-2.665,-2.740,-2.769,-2.600,-2.895,-0.132,0.843,-0.566,-2.258,-0.092,0.702,73.333,36774.000,1.000
-2.002,-1.969,-2.180,-2.029,-2.045,-2.145,-1.977,-2.328,-0.129,0.843,-0.565,-2.136,0.000,0.641,73.333,36775.000,1.000
-1.448,-1.484,-1.558,-1.479,-1.443,-1.505,-1.429,-1.779,-0.129,0.842,-0.568,-2.136,0.153,0.610,73.333,36776.000,1.000
-0.780,-0.810,-0.807,-0.800,-0.738,-0.690,-0.767,-1.046,-0.128,0.842,-0.565,-2.075,0.214,0.488,73.333,36777.000,1.000
0.059,0.109,0.127,0.062,0.117,0.277,0.054,-0.099,-0.128,0.841,-0.566,-1.984,0.305,0.488,73.333,36778.000,1.000
0.944,1.097,1.120,0.970,0.990,1.202,0.913,0.900,-0.128,0.843,-0.563,-1.862,0.458,0.458,73.333,36779.000,1.000
1.666,1.889,1.948,1.703,1.680,1.862,1.620,1.709,-0.127,0.845,-0.563,-1.892,0.519,0.305,73.333,36780.000,1.000
2.114,2.323,2.457,2.136,2.088,2.166,2.066,2.187,-0.128,0.847,-0.560,-1.831,0.641,0.427,73.333,36781.000,1.000
2.305,2.404,2.624,2.273,2.242,2.183,2.245,2.332,-0.131,0.848,-0.561,-1.801,0.763,0.427,73.333,36782.000,1.000
2.350,2.272,2.558,2.228,2.253,2.084,2.238,2.259,-0.134,0.848,-0.561,-1.770,0.885,0.214,73.333,36783.000,1.000
2.411,2.171,2.462,2.192,2.290,2.083,2.201,2.169,-0.134,0.847,-0.560,-1.801,0.885,0.244,73.333,36784.000,1.000
2.543,2.239,2.452,2.270,2.436,2.257,2.215,2.184,-0.134,0.845,-0.561,-1.801,0.793,0.244,73.333,36785.000,1.000
2.694,2.455,2.532,2.444,2.663,2.530,2.278,2.308,-0.135,0.848,-0.564,-1.678,0.793,0.183,73.333,36786.000,1.000
2.796,2.731,2.654,2.659,2.895,2.782,2.364,2.483,-0.135,0.851,-0.562,-1.678,0.885,0.092,73.333,36787.000,1.000
2.810,2.971,2.748,2.860,3.054,2.916,2.434,2.634,-0.135,0.852,-0.562,-1.617,0.916,0.031,73.333,36788.000,1.000
2.753,3.117,2.781,3.013,3.112,2.914,2.464,2.728,-0.134,0.852,-0.563,-1.709,0.916,0.092,73.333,36789.000,1.000
2.664,3.144,2.766,3.088,3.085,2.823,2.458,2.770,-0.133,0.852,-0.563,-1.740,0.946,0.183,73.333,36790.000,1.000
2.652,3.121,2.808,3.123,3.076,2.789,2.501,2.839,-0.133,0.853,-0.561,-1.801,1.007,0.092,73.333,36791.000,1.000
2.783,3.125,2.977,3.168,3.157,2.917,2.655,2.995,-0.132,0.850,-0.562,-1.862,1.038,0.031,73.333,36792.000,1.000
2.936,3.093,3.151,3.140,3.227,3.094,2.803,3.126,-0.133,0.851,-0.563,-1.923,0.854,0.000,73.333,36793.000,1.000
2.913,2.904,3.127,2.921,3.117,3.101,2.767,3.058,-0.134,0.850,-0.563,-1.831,0.824,0.061,73.333,36794.000,1.000
2.619,2.520,2.806,2.484,2.764,2.809,2.472,2.724,-0.135,0.850,-0.567,-1.678,0.854,-0.092,73.333,36795.000,1.000
2.185,2.080,2.308,1.984,2.305,2.340,2.053,2.258,-0.134,0.850,-0.566,-1.648,0.824,-0.122,73.333,36796.000,1.000
1.881,1.825,1.900,1.672,1.984,1.970,1.760,1.908,-0.135,0.849,-0.562,-1.678,0.732,-0.031,73.333,36797.000,1.000
1.878,1.880,1.776,1.690,1.937,1.873,1.752,1.829,-0.137,0.849,-0.561,-1.648,0.549,-0.031,73.333,36798.000,1.000
2.122,2.158,1.920,1.963,2.100,2.010,1.983,1.973,-0.137,0.851,-0.561,-1.617,0.519,0.122,73.333,36799.000,1.000
2.369,2.409,2.132,2.248,2.254,2.176,2.227,2.125,-0.136,0.848,-0.564,-1.587,0.427,0.031,73.333,36800.000,1.000
2.458,2.502,2.275,2.388,2.279,2.252,2.332,2.159,-0.138,0.847,-0.563,-1.526,0.366,0.031,73.333,36801.000,1.000
2.410,2.513,2.368,2.397,2.234,2.276,2.333,2.135,-0.137,0.847,-0.562,-1.495,0.244,0.183,73.333,36802.000,1.000
2.290,2.532,2.438,2.321,2.186,2.298,2.303,2.137,-0.134,0.846,-0.562,-1.495,0.183,0.183,73.333,36803.000,1.000
2.127,2.549,2.457,2.180,2.149,2.315,2.266,2.180,-0.133,0.846,-0.564,-1.373,0.214,0.214,73.333,36804.000,1.000
1.910,2.466,2.353,1.967,2.073,2.258,2.171,2.177,-0.134,0.845,-0.565,-1.373,0.183,0.336,73.333,36805.000,1.000
1.631,2.208,2.084,1.682,1.897,2.059,1.961,2.029,-0.132,0.846,-0.565,-1.282,0.153,0.366,73.333,36806.000,1.000
1.263,1.742,1.634,1.307,1.558,1.670,1.580,1.669,-0.130,0.846,-0.567,-1.190,0.244,0.427,73.333,36807.000,1.000
0.768,1.083,1.014,0.828,1.019,1.085,1.013,1.099,-0.132,0.844,-0.565,-0.977,0.183,0.458,73.333,36808.000,1.000
0.238,0.400,0.374,0.353,0.397,0.459,0.402,0.474,-0.137,0.843,-0.563,-0.793,0.092,0.580,73.333,36809.000,1.000
-0.152,-0.094,-0.091,0.041,-0.112,0.000,-0.045,-0.008,-0.139,0.845,-0.560,-0.702,-0.122,0.671,73.333,36810.000,1.000
-0.260,-0.288,-0.263,-0.025,-0.346,-0.163,-0.194,-0.215,-0.143,0.845,-0.563,-0.580,-0.153,0.641,73.333,36811.000,1.000
-0.093,-0.235,-0.182,0.106,-0.272,-0.042,-0.067,-0.165,-0.143,0.845,-0.561,-0.671,-0.275,0.610,73.333,36812.000,1.000
0.147,-0.138,-0.050,0.246,-0.058,0.175,0.124,-0.046,-0.143,0.846,-0.562,-0.580,-0.580,0.580,73.333,36813.000,1.000
0.170,-0.241,-0.112,0.165,0.007,0.217,0.094,-0.114,-0.142,0.846,-0.561,-0.549,-0.702,0.641,73.333,36814.000,1.000
-0.251,-0.733,-0.540,-0.312,-0.342,-0.154,-0.375,-0.560,-0.137,0.847,-0.562,-0.519,-0.916,0.519,73.333,36815.000,1.000
-1.091,-1.583,-1.287,-1.153,-1.131,-0.951,-1.258,-1.344,-0.133,0.847,-0.560,-0.366,-0.977,0.580,73.333,36816.000,1.000
-2.089,-2.551,-2.124,-2.131,-2.136,-1.955,-2.308,-2.233,-0.133,0.849,-0.562,-0.305,-1.007,0.580,73.333,36817.000,1.000
-3.014,-3.434,-2.889,-3.056,-3.116,-2.955,-3.301,-3.069,-0.130,0.848,-0.559,-0.214,-0.916,0.458,73.333,36818.000,1.000
-3.800,-4.181,-3.568,-3.868,-3.954,-3.856,-4.152,-3.842,-0.130,0.848,-0.561,-0.275,-0.793,0.549,73.333,36819.000,1.000
-4.469,-4.807,-4.214,-4.572,-4.642,-4.629,-4.851,-4.573,-0.128,0.845,-0.566,-0.336,-0.702,0.610,73.333,36820.000,1.000
-4.927,-5.187,-4.725,-5.044,-5.087,-5.135,-5.272,-5.102,-0.128,0.846,-0.565,-0.336,-0.671,0.549,73.333,36821.000,1.000
-4.954,-5.083,-4.843,-5.030,-5.081,-5.131,-5.187,-5.135,-0.127,0.847,-0.567,-0.244,-0.641,0.488,73.333,36822.000,1.000
-4.489,-4.452,-4.450,-4.465,-4.562,-4.574,-4.557,-4.569,-0.127,0.845,-0.566,-0.244,-0.458,0.641,73.333,36823.000,1.000
-3.805,-3.607,-3.777,-3.660,-3.788,-3.779,-3.702,-3.704,-0.130,0.846,-0.567,-0.092,-0.397,0.519,73.333,36824.000,1.000
-3.398,-3.077,-3.322,-3.175,-3.259,-3.287,-3.174,-3.108,-0.130,0.846,-0.566,-0.061,-0.397,0.580,73.333,36825.000,1.000
-3.622,-3.210,-3.458,-3.387,-3.348,-3.451,-3.345,-3.192,-0.133,0.844,-0.565,0.061,-0.488,0.641,73.333,36826.000,1.000
-4.449,-3.975,-4.192,-4.261,-4.064,-4.227,-4.173,-3.951,-0.135,0.844,-0.568,0.061,-0.458,0.610,73.333,36827.000,1.000
-5.560,-5.069,-5.252,-5.466,-5.136,-5.298,-5.318,-5.075,-0.136,0.845,-0.566,0.214,-0.427,0.580,73.333,36828.000,1.000
-6.534,-6.088,-6.249,-6.567,-6.167,-6.265,-6.340,-6.135,-0.137,0.844,-0.562,0.153,-0.458,0.641,73.333,36829.000,1.000
-7.051,-6.703,-6.847,-7.200,-6.816,-6.832,-6.895,-6.782,-0.135,0.845,-0.564,0.122,-0.488,0.549,73.333,36830.000,1.000
-6.935,-6.701,-6.825,-7.123,-6.847,-6.813,-6.775,-6.790,-0.136,0.846,-0.563,0.153,-0.549,0.610,73.333,36831.000,1.000
-6.139,-5.992,-6.100,-6.252,-6.153,-6.127,-5.928,-6.074,-0.136,0.846,-0.569,0.031,-0.610,0.519,73.333,36832.000,1.000
-4.782,-4.665,-4.782,-4.731,-4.825,-4.853,-4.495,-4.748,-0.135,0.848,-0.568,0.031,-0.641,0.488,73.333,36833.000,1.000
-3.099,-2.949,-3.119,-2.868,-3.106,-3.194,-2.744,-3.065,-0.135,0.849,-0.566,-0.061,-0.732,0.458,73.333,36834.000,1.000
-1.392,-1.176,-1.420,-1.039,-1.337,-1.446,-0.984,-1.340,-0.135,0.851,-0.565,-0.122,-0.671,0.427,73.333,36835.000,1.000
0.091,0.349,0.066,0.473,0.189,0.112,0.535,0.175,-0.134,0.851,-0.565,-0.122,-0.641,0.519,73.333,36836.000,1.000
1.253,1.482,1.231,1.574,1.347,1.336,1.697,1.369,-0.134,0.853,-0.562,-0.183,-0.580,0.549,73.333,36837.000,1.000
2.137,2.253,2.098,2.334,2.184,2.236,2.518,2.254,-0.131,0.854,-0.565,-0.305,-0.519,0.580,73.333,36838.000,1.000
2.841,2.781,2.757,2.886,2.808,2.895,3.086,2.912,-0.130,0.856,-0.564,-0.488,-0.610,0.641,73.333,36839.000,1.000
3.314,3.064,3.167,3.213,3.180,3.270,3.375,3.297,-0.130,0.856,-0.564,-0.519,-0.458,0.427,73.333,36840.000,1.000
3.380,2.972,3.161,3.161,3.139,3.212,3.258,3.256,-0.128,0.851,-0.567,-0.732,-0.397,0.549,73.333,36841.000,1.000
2.935,2.417,2.642,2.638,2.602,2.649,2.671,2.706,-0.128,0.850,-0.565,-0.763,-0.305,0.549,73.333,36842.000,1.000
2.007,1.425,1.668,1.683,1.628,1.641,1.678,1.703,-0.129,0.847,-0.564,-0.824,-0.214,0.610,73.333,36843.000,1.000
0.723,0.128,0.403,0.425,0.372,0.344,0.427,0.413,-0.128,0.846,-0.566,-0.854,-0.153,0.610,73.333,36844.000,1.000
-0.767,-1.299,-0.982,-0.988,-1.000,-1.077,-0.943,-0.984,-0.131,0.844,-0.565,-0.793,-0.153,0.671,73.333,36845.000,1.000
-2.211,-2.599,-2.255,-2.314,-2.249,-2.395,-2.231,-2.259,-0.134,0.842,-0.565,-0.702,-0.122,0.641,73.333,36846.000,1.000
-3.262,-3.450,-3.130,-3.231,-3.082,-3.321,-3.146,-3.125,-0.135,0.839,-0.567,-0.610,-0.092,0.610,73.333,36847.000,1.000
-3.673,-3.662,-3.440,-3.536,-3.335,-3.659,-3.481,-3.408,-0.135,0.840,-0.566,-0.549,-0.092,0.519,73.333,36848.000,1.000
-3.421,-3.276,-3.222,-3.260,-3.049,-3.399,-3.217,-3.140,-0.135,0.842,-0.566,-0.458,-0.122,0.549,73.333,36849.000,1.000
-2.720,-2.544,-2.685,-2.632,-2.443,-2.731,-2.550,-2.551,-0.137,0.842,-0.569,-0.366,-0.183,0.641,73.333,36850.000,1.000
-1.810,-1.690,-1.986,-1.846,-1.693,-1.859,-1.683,-1.824,-0.135,0.842,-0.568,-0.153,-0.336,0.671,73.333,36851.000,1.000
-0.754,-0.724,-1.078,-0.890,-0.783,-0.828,-0.650,-0.929,-0.135,0.844,-0.568,0.031,-0.366,0.519,73.333,36852.000,1.000
0.495,0.443,0.147,0.339,0.382,0.397,0.594,0.248,-0.134,0.844,-0.566,-0.092,-0.336,0.488,73.333,36853.000,1.000
2.002,1.876,1.733,1.904,1.868,1.860,2.081,1.766,-0.135,0.844,-0.569,-0.061,-0.488,0.549,73.333,36854.000,1.000
3.775,3.563,3.611,3.755,3.650,3.558,3.773,3.582,-0.135,0.846,-0.567,-0.092,-0.610,0.610,73.333,36855.000,1.000
5.708,5.404,5.614,5.735,5.592,5.411,5.558,5.544,-0.134,0.843,-0.566,-0.031,-0.641,0.549,73.333,36856.000,1.000
7.539,7.181,7.474,7.576,7.431,7.205,7.227,7.379,-0.133,0.844,-0.566,-0.061,-0.671,0.519,73.333,36857.000,1.000
8.895,8.568,8.853,8.950,8.812,8.602,8.489,8.741,-0.135,0.844,-0.567,-0.092,-0.702,0.549,73.333,36858.000,1.000
9.535,9.324,9.531,9.644,9.497,9.348,9.147,9.412,-0.134,0.847,-0.567,-0.031,-0.824,0.549,73.333,36859.000,1.000
9.448,9.381,9.478,9.627,9.455,9.381,9.161,9.373,-0.134,0.851,-0.566,0.031,-0.854,0.580,73.333,36860.000,1.000
8.754,8.787,8.771,8.965,8.787,8.772,8.573,8.711,-0.133,0.850,-0.569,-0.031,-0.946,0.427,73.333,36861.000,1.000
7.546,7.608,7.490,7.716,7.594,7.609,7.420,7.509,-0.132,0.850,-0.568,-0.031,-1.007,0.580,73.333,36862.000,1.000
5.879,5.927,5.723,5.946,5.959,5.988,5.742,5.848,-0.134,0.852,-0.568,-0.153,-1.007,0.549,73.333,36863.000,1.000
3.912,3.961,3.680,3.876,4.058,4.121,3.727,3.918,-0.133,0.852,-0.566,-0.214,-0.916,0.580,73.333,36864.000,1.000
1.874,1.976,1.628,1.808,2.106,2.236,1.665,1.961,-0.133,0.851,-0.568,-0.427,-0.946,0.397,73.333,36865.000,1.000
-0.029,0.158,-0.218,-0.026,0.264,0.473,-0.185,0.173,-0.132,0.848,-0.568,-0.427,-0.946,0.366,73.333,36866.000,1.000
-1.664,-1.420,-1.751,-1.545,-1.378,-1.118,-1.686,-1.352,-0.135,0.846,-0.569,-0.549,-0.977,0.397,73.333,36867.000,1.000
-3.024,-2.801,-3.013,-2.823,-2.825,-2.561,-2.882,-2.651,-0.135,0.848,-0.567,-0.580,-1.007,0.427,73.333,36868.000,1.000
-4.211,-4.076,-4.134,-3.997,-4.139,-3.906,-3.926,-3.828,-0.136,0.843,-0.567,-0.519,-0.977,0.244,73.333,36869.000,1.000
-5.373,-5.322,-5.249,-5.178,-5.385,-5.208,-4.983,-4.986,-0.138,0.844,-0.571,-0.580,-1.038,0.214,73.333,36870.000,1.000
-6.470,-6.452,-6.302,-6.272,-6.467,-6.362,-6.022,-6.057,-0.137,0.844,-0.570,-0.549,-1.190,0.214,73.333,36871.000,1.000
-7.217,-7.189,-7.016,-6.971,-7.112,-7.085,-6.776,-6.775,-0.137,0.844,-0.567,-0.488,-1.251,0.122,73.333,36872.000,1.000
-7.349,-7.315,-7.146,-7.043,-7.132,-7.170,-6.999,-6.923,-0.136,0.844,-0.570,-0.458,-1.343,0.000,73.333,36873.000,1.000
-6.803,-6.795,-6.635,-6.484,-6.539,-6.629,-6.622,-6.482,-0.135,0.845,-0.564,-0.519,-1.434,0.031,73.333,36874.000,1.000
-5.710,-5.747,-5.600,-5.475,-5.505,-5.632,-5.738,-5.590,-0.135,0.845,-0.565,-0.610,-1.343,0.061,73.333,36875.000,1.000
-4.249,-4.313,-4.199,-4.180,-4.182,-4.321,-4.452,-4.374,-0.136,0.846,-0.565,-0.671,-1.343,0.031,73.333,36876.000,1.000
-2.501,-2.545,-2.502,-2.608,-2.578,-2.701,-2.770,-2.830,-0.134,0.845,-0.569,-0.671,-1.404,-0.031,73.333,36877.000,1.000
-0.494,-0.482,-0.543,-0.723,-0.657,-0.755,-0.713,-0.934,-0.134,0.846,-0.567,-0.763,-1.404,-0.031,73.333,36878.000,1.000
1.633,1.701,1.528,1.347,1.460,1.366,1.516,1.173,-0.133,0.848,-0.570,-0.854,-1.343,0.031,73.333,36879.000,1.000
3.481,3.569,3.319,3.182,3.347,3.240,3.438,3.065,-0.133,0.850,-0.569,-0.854,-1.312,0.092,73.333,36880.000,1.000
4.587,4.648,4.399,4.306,4.497,4.396,4.550,4.251,-0.133,0.853,-0.567,-0.946,-1.282,0.122,73.333,36881.000,1.000
4.751,4.749,4.595,4.520,4.673,4.625,4.661,4.505,-0.134,0.852,-0.566,-1.068,-1.251,0.214,73.333,36882.000,1.000
4.118,4.040,4.052,3.976,4.009,4.039,3.961,3.958,-0.133,0.852,-0.565,-1.160,-1.160,0.183,73.333,36883.000,1.000
3.080,2.939,3.129,3.064,2.916,2.993,2.896,2.996,-0.130,0.852,-0.563,-1.373,-1.038,0.153,73.333,36884.000,1.000
2.007,1.823,2.133,2.109,1.781,1.842,1.852,1.971,-0.129,0.853,-0.563,-1.434,-0.946,0.214,73.333,36885.000,1.000
1.029,0.821,1.143,1.184,0.748,0.755,0.932,0.992,-0.130,0.850,-0.562,-1.587,-0.854,0.336,73.333,36886.000,1.000
0.069,-0.139,0.068,0.167,-0.253,-0.291,0.018,-0.019,-0.129,0.850,-0.564,-1.709,-0.610,0.305,73.333,36887.000,1.000
-1.025,-1.194,-1.198,-1.086,-1.361,-1.409,-1.066,-1.170,-0.127,0.849,-0.569,-1.892,-0.580,0.305,73.333,36888.000,1.000
-2.338,-2.419,-2.646,-2.593,-2.658,-2.671,-2.391,-2.484,-0.130,0.846,-0.569,-1.831,-0.458,0.397,73.333,36889.000,1.000
-3.838,-3.814,-4.168,-4.239,-4.125,-4.072,-3.907,-3.908,-0.129,0.843,-0.566,-1.831,-0.275,0.549,73.333,36890.000,1.000
-5.318,-5.225,-5.559,-5.782,-5.591,-5.461,-5.412,-5.291,-0.130,0.844,-0.568,-1.862,-0.122,0.519,73.333,36891.000,1.000
-6.487,-6.393,-6.604,-6.957,-6.791,-6.598,-6.633,-6.428,-0.133,0.841,-0.562,-1.740,-0.092,0.397,73.333,36892.000,1.000
-7.210,-7.168,-7.238,-7.659,-7.579,-7.342,-7.422,-7.213,-0.133,0.840,-0.563,-1.617,0.000,0.427,73.333,36893.000,1.000
-7.523,-7.544,-7.525,-7.936,-7.955,-7.682,-7.779,-7.641,-0.135,0.838,-0.563,-1.556,-0.061,0.549,73.333,36894.000,1.000
-7.536,-7.586,-7.569,-7.911,-7.994,-7.696,-7.800,-7.768,-0.138,0.837,-0.565,-1.404,-0.122,0.610,73.333,36895.000,1.000
-7.256,-7.284,-7.354,-7.610,-7.696,-7.386,-7.510,-7.568,-0.137,0.840,-0.566,-1.282,-0.183,0.519,73.333,36896.000,1.000
-6.520,-6.483,-6.665,-6.869,-6.901,-6.590,-6.744,-6.846,-0.137,0.842,-0.567,-1.221,-0.183,0.519,73.333,36897.000,1.000
-5.142,-5.035,-5.260,-5.466,-5.434,-5.132,-5.286,-5.387,-0.136,0.844,-0.566,-1.312,-0.153,0.427,73.333,36898.000,1.000
-3.038,-2.919,-3.056,-3.297,-3.242,-2.964,-3.051,-3.123,-0.136,0.847,-0.565,-1.312,-0.183,0.366,73.333,36899.000,1.000
-0.361,-0.327,-0.268,-0.527,-0.502,-0.269,-0.241,-0.279,-0.135,0.849,-0.565,-1.312,-0.214,0.366,73.333,36900.000,1.000
2.508,2.382,2.646,2.433,2.401,2.577,2.692,2.679,-0.132,0.851,-0.563,-1.343,-0.183,0.366,73.333,36901.000,1.000
5.111,4.820,5.203,5.087,5.019,5.153,5.244,5.251,-0.130,0.850,-0.565,-1.495,-0.122,0.366,73.333,36902.000,1.000
7.074,6.691,7.068,7.050,6.994,7.127,7.062,7.084,-0.129,0.851,-0.566,-1.526,-0.092,0.305,73.333,36903.000,1.000
8.257,7.892,8.179,8.202,8.202,8.374,8.087,8.121,-0.128,0.852,-0.567,-1.556,0.092,0.275,73.333,36904.000,1.000
8.680,8.434,8.629,8.613,8.690,8.907,8.450,8.484,-0.128,0.852,-0.565,-1.465,0.183,0.366,73.333,36905.000,1.000
8.393,8.317,8.493,8.370,8.515,8.749,8.264,8.279,-0.129,0.852,-0.566,-1.587,0.305,0.336,73.333,36906.000,1.000
7.428,7.509,7.761,7.508,7.672,7.888,7.539,7.511,-0.128,0.850,-0.566,-1.617,0.458,0.397,73.333,36907.000,1.000
5.846,6.021,6.400,6.052,6.170,6.338,6.234,6.146,-0.128,0.850,-0.564,-1.587,0.549,0.397,73.333,36908.000,1.000
3.852,4.056,4.530,4.164,4.193,4.289,4.437,4.291,-0.131,0.847,-0.565,-1.495,0.671,0.458,73.333,36909.000,1.000
1.695,1.898,2.376,2.075,2.017,2.026,2.335,2.162,-0.132,0.847,-0.567,-1.556,0.702,0.519,73.333,36910.000,1.000
-0.486,-0.261,0.129,-0.055,-0.173,-0.238,0.097,-0.048,-0.133,0.845,-0.566,-1.404,0.702,0.519,73.333,36911.000,1.000
-2.679,-2.382,-2.128,-2.187,-2.347,-2.433,-2.188,-2.262,-0.132,0.844,-0.564,-1.404,0.702,0.580,73.333,36912.000,1.000
-4.899,-4.491,-4.375,-4.338,-4.546,-4.577,-4.475,-4.469,-0.133,0.843,-0.566,-1.312,0.702,0.519,73.333,36913.000,1.000
-6.970,-6.450,-6.447,-6.369,-6.622,-6.552,-6.581,-6.510,-0.131,0.840,-0.565,-1.343,0.671,0.519,73.333,36914.000,1.000
-8.540,-7.952,-8.024,-7.967,-8.222,-8.083,-8.185,-8.071,-0.133,0.839,-0.565,-1.282,0.702,0.549,73.333,36915.000,1.000
-9.268,-8.701,-8.806,-8.812,-8.999,-8.877,-8.971,-8.855,-0.133,0.840,-0.564,-1.068,0.732,0.427,73.333,36916.000,1.000
-8.950,-8.516,-8.619,-8.693,-8.758,-8.726,-8.743,-8.677,-0.137,0.840,-0.564,-0.916,0.580,0.549,73.333,36917.000,1.000
-7.584,-7.358,-7.447,-7.560,-7.485,-7.560,-7.479,-7.496,-0.137,0.840,-0.568,-0.732,0.519,0.671,73.333,36918.000,1.000
-5.327,-5.303,-5.386,-5.489,-5.292,-5.448,-5.295,-5.393,-0.136,0.841,-0.566,-0.610,0.427,0.702,73.333,36919.000,1.000
-2.452,-2.565,-2.649,-2.687,-2.427,-2.630,-2.438,-2.598,-0.136,0.842,-0.568,-0.519,0.214,0.702,73.333,36920.000,1.000
0.777,0.594,0.517,0.582,0.826,0.590,0.809,0.607,-0.137,0.843,-0.566,-0.397,0.122,0.702,73.333,36921.000,1.000
4.148,3.933,3.873,4.040,4.217,3.935,4.188,3.952,-0.138,0.843,-0.566,-0.366,-0.061,0.641,73.333,36922.000,1.000
7.371,7.127,7.084,7.316,7.429,7.079,7.365,7.098,-0.137,0.843,-0.568,-0.214,-0.244,0.671,73.333,36923.000,1.000
10.141,9.855,9.816,10.061,10.137,9.727,10.035,9.737,-0.138,0.845,-0.570,-0.122,-0.275,0.793,73.333,36924.000,1.000
12.263,11.944,11.886,12.100,12.158,11.735,12.057,11.719,-0.136,0.847,-0.569,-0.122,-0.519,0.793,73.333,36925.000,1.000
13.679,13.372,13.270,13.420,13.480,13.091,13.428,13.038,-0.138,0.847,-0.567,-0.122,-0.580,0.824,73.333,36926.000,1.000
14.409,14.175,14.011,14.084,14.185,13.832,14.185,13.739,-0.138,0.846,-0.567,-0.183,-0.671,0.854,73.333,36927.000,1.000
14.460,14.346,14.119,14.125,14.311,13.962,14.303,13.832,-0.137,0.847,-0.566,-0.244,-0.824,0.824,73.333,36928.000,1.000
13.844,13.867,13.588,13.569,13.839,13.487,13.749,13.314,-0.136,0.849,-0.569,-0.214,-0.916,0.885,73.333,36929.000,1.000
12.609,12.750,12.434,12.445,12.738,12.435,12.537,12.201,-0.134,0.849,-0.567,-0.153,-1.129,0.732,73.333,36930.000,1.000
10.838,11.063,10.722,10.803,11.033,10.852,10.759,10.553,-0.135,0.848,-0.566,-0.214,-1.160,0.885,73.333,36931.000,1.000
8.595,8.878,8.525,8.676,8.788,8.755,8.507,8.424,-0.133,0.848,-0.565,-0.366,-1.373,0.854,73.333,36932.000,1.000
5.879,6.207,5.861,6.045,6.032,6.119,5.809,5.810,-0.134,0.849,-0.563,-0.427,-1.343,0.885,73.333,36933.000,1.000
2.781,3.125,2.798,2.965,2.870,3.025,2.740,2.777,-0.132,0.851,-0.565,-0.549,-1.312,0.854,73.333,36934.000,1.000
-0.489,-0.192,-0.509,-0.382,-0.488,-0.315,-0.531,-0.490,-0.132,0.851,-0.567,-0.549,-1.343,0.824,73.333,36935.000,1.000
-3.627,-3.453,-3.767,-3.674,-3.726,-3.580,-3.729,-3.675,-0.132,0.849,-0.564,-0.671,-1.465,0.793,73.333,36936.000,1.000
-6.253,-6.244,-6.534,-6.468,-6.432,-6.359,-6.455,-6.353,-0.133,0.846,-0.567,-0.763,-1.434,0.732,73.333,36937.000,1.000
-8.108,-8.244,-8.464,-8.433,-8.318,-8.347,-8.405,-8.232,-0.134,0.845,-0.567,-0.824,-1.465,0.641,73.333,36938.000,1.000
-9.190,-9.402,-9.518,-9.537,-9.376,-9.497,-9.550,-9.319,-0.133,0.846,-0.562,-0.885,-1.465,0.610,73.333,36939.000,1.000
-9.696,-9.885,-9.908,-9.988,-9.810,-9.985,-10.074,-9.819,-0.135,0.845,-0.561,-0.854,-1.495,0.641,73.333,36940.000,1.000
-9.766,-9.847,-9.820,-9.955,-9.775,-9.963,-10.116,-9.860,-0.133,0.846,-0.564,-0.977,-1.556,0.549,73.333,36941.000,1.000
-9.372,-9.313,-9.280,-9.442,-9.278,-9.435,-9.652,-9.402,-0.134,0.846,-0.566,-0.977,-1.465,0.458,73.333,36942.000,1.000
-8.496,-8.333,-8.321,-8.460,-8.340,-8.433,-8.677,-8.439,-0.133,0.846,-0.567,-1.068,-1.526,0.336,73.333,36943.000,1.000
-7.229,-7.030,-7.050,-7.118,-7.065,-7.090,-7.301,-7.093,-0.132,0.845,-0.569,-1.099,-1.434,0.336,73.333,36944.000,1.000
-5.727,-5.539,-5.594,-5.575,-5.588,-5.571,-5.697,-5.536,-0.131,0.845,-0.567,-1.129,-1.434,0.427,73.333,36945.000,1.000
-4.095,-3.923,-4.010,-3.929,-3.975,-3.961,-3.990,-3.870,-0.132,0.845,-0.568,-1.038,-1.373,0.397,73.333,36946.000,1.000
-2.374,-2.185,-2.296,-2.203,-2.233,-2.260,-2.228,-2.113,-0.131,0.844,-0.563,-1.099,-1.312,0.427,73.333,36947.000,1.000
-0.644,-0.407,-0.508,-0.448,-0.436,-0.516,-0.488,-0.336,-0.130,0.846,-0.565,-1.221,-1.343,0.427,73.333,36948.000,1.000
0.990,1.268,1.239,1.255,1.277,1.163,1.137,1.344,-0.131,0.847,-0.568,-1.160,-1.251,0.366,73.333,36949.000,1.000
2.402,2.662,2.751,2.753,2.739,2.621,2.526,2.770,-0.131,0.846,-0.569,-1.068,-1.129,0.366,73.333,36950.000,1.000
3.450,3.623,3.821,3.845,3.793,3.693,3.540,3.790,-0.131,0.846,-0.565,-1.038,-1.129,0.427,73.333,36951.000,1.000
4.054,4.105,4.355,4.417,4.366,4.295,4.110,4.335,-0.131,0.847,-0.567,-1.038,-1.007,0.488,73.333,36952.000,1.000
4.181,4.132,4.376,4.465,4.458,4.407,4.234,4.406,-0.132,0.848,-0.567,-1.099,-0.916,0.427,73.333,36953.000,1.000
3.885,3.803,4.010,4.101,4.156,4.102,3.981,4.094,-0.134,0.848,-0.565,-1.221,-0.977,0.519,73.333,36954.000,1.000
3.292,3.252,3.424,3.496,3.596,3.528,3.458,3.542,-0.135,0.849,-0.567,-1.190,-0.824,0.549,73.333,36955.000,1.000
2.553,2.597,2.747,2.793,2.893,2.833,2.768,2.869,-0.134,0.853,-0.567,-1.251,-0.824,0.580,73.333,36956.000,1.000
1.776,1.897,2.030,2.060,2.107,2.108,1.982,2.128,-0.132,0.851,-0.565,-1.282,-0.854,0.519,73.333,36957.000,1.000
0.935,1.090,1.193,1.237,1.195,1.300,1.077,1.258,-0.132,0.853,-0.566,-1.343,-0.763,0.488,73.333,36958.000,1.000
-0.092,0.054,0.116,0.196,0.070,0.286,-0.023,0.156,-0.131,0.853,-0.568,-1.404,-0.793,0.641,73.333,36959.000,1.000
-1.403,-1.282,-1.245,-1.135,-1.305,-1.013,-1.361,-1.231,-0.128,0.853,-0.567,-1.495,-0.641,0.702,73.333,36960.000,1.000
-2.921,-2.822,-2.758,-2.653,-2.823,-2.511,-2.848,-2.797,-0.127,0.850,-0.568,-1.526,-0.427,0.854,73.333,36961.000,1.000
-4.355,-4.297,-4.137,-4.070,-4.217,-3.944,-4.229,-4.258,-0.125,0.845,-0.564,-1.556,-0.366,0.824,73.333,36962.000,1.000
-5.399,-5.439,-5.148,-5.120,-5.239,-5.055,-5.257,-5.341,-0.124,0.842,-0.566,-1.617,-0.122,0.946,73.333,36963.000,1.000
-5.892,-6.096,-5.695,-5.685,-5.770,-5.697,-5.799,-5.895,-0.125,0.839,-0.571,-1.526,0.061,1.038,73.333,36964.000,1.000
-5.907,-6.281,-5.832,-5.831,-5.866,-5.895,-5.900,-5.958,-0.128,0.838,-0.567,-1.465,0.061,1.221,73.333,36965.000,1.000
-5.679,-6.144,-5.719,-5.750,-5.714,-5.820,-5.743,-5.713,-0.130,0.838,-0.567,-1.282,0.122,1.312,73.333,36966.000,1.000
-5.406,-5.848,-5.507,-5.594,-5.481,-5.638,-5.507,-5.353,-0.127,0.839,-0.567,-1.129,0.214,1.343,73.333,36967.000,1.000
-5.142,-5.478,-5.254,-5.391,-5.227,-5.408,-5.255,-4.979,-0.125,0.843,-0.566,-1.038,0.153,1.495,73.333,36968.000,1.000
-4.745,-4.967,-4.853,-5.005,-4.835,-5.009,-4.856,-4.507,-0.126,0.843,-0.568,-1.068,0.244,1.556,73.333,36969.000,1.000
-3.978,-4.149,-4.093,-4.208,-4.084,-4.225,-4.078,-3.728,-0.129,0.845,-0.569,-1.129,0.275,1.648,73.333,36970.000,1.000
-2.660,-2.877,-2.807,-2.835,-2.810,-2.893,-2.748,-2.456,-0.134,0.850,-0.565,-1.160,0.305,1.465,73.333,36971.000,1.000
-0.792,-1.129,-1.004,-0.922,-1.038,-1.027,-0.884,-0.678,-0.138,0.853,-0.566,-1.038,0.183,1.465,73.333,36972.000,1.000
1.329,0.876,1.040,1.204,0.947,1.078,1.220,1.334,-0.143,0.854,-0.567,-1.251,0.031,1.343,73.333,36973.000,1.000
3.267,2.779,2.912,3.106,2.751,2.991,3.128,3.175,-0.146,0.854,-0.566,-1.221,-0.183,1.221,73.333,36974.000,1.000
4.704,4.296,4.312,4.507,4.102,4.411,4.523,4.560,-0.149,0.853,-0.562,-1.373,-0.488,0.946,73.333,36975.000,1.000
5.677,5.436,5.281,5.482,5.060,5.391,5.457,5.541,-0.149,0.853,-0.560,-1.404,-0.732,0.671,73.333,36976.000,1.000
6.544,6.485,6.166,6.384,5.987,6.286,6.319,6.461,-0.145,0.853,-0.564,-1.556,-0.977,0.488,73.333,36977.000,1.000
7.567,7.631,7.210,7.431,7.130,7.339,7.389,7.538,-0.140,0.851,-0.565,-1.709,-1.221,0.305,73.333,36978.000,1.000
8.644,8.728,8.288,8.479,8.343,8.427,8.547,8.628,-0.135,0.850,-0.567,-1.770,-1.434,0.183,73.333,36979.000,1.000
9.440,9.434,9.049,9.180,9.227,9.208,9.408,9.368,-0.133,0.851,-0.564,-1.923,-1.434,0.122,73.333,36980.000,1.000
9.699,9.541,9.251,9.317,9.509,9.443,9.684,9.522,-0.131,0.853,-0.566,-1.862,-1.556,0.061,73.333,36981.000,1.000
9.453,9.148,8.955,8.982,9.247,9.185,9.405,9.170,-0.129,0.852,-0.564,-1.923,-1.434,-0.031,73.333,36982.000,1.000
8.886,8.500,8.372,8.403,8.672,8.629,8.777,8.536,-0.128,0.851,-0.567,-1.953,-1.343,-0.153,73.333,36983.000,1.000
8.128,7.739,7.641,7.705,7.937,7.900,7.946,7.751,-0.128,0.851,-0.564,-1.984,-1.190,-0.061,73.333,36984.000,1.000
7.123,6.780,6.692,6.794,6.975,6.930,6.869,6.731,-0.128,0.849,-0.566,-1.984,-1.129,0.061,73.333,36985.000,1.000
5.772,5.499,5.399,5.529,5.672,5.621,5.465,5.358,-0.128,0.846,-0.566,-2.106,-1.129,0.031,73.333,36986.000,1.000
4.167,3.966,3.816,3.971,4.103,4.059,3.830,3.718,-0.130,0.846,-0.566,-2.045,-1.068,0.214,73.333,36987.000,1.000
2.500,2.357,2.119,2.294,2.455,2.426,2.148,2.016,-0.132,0.845,-0.563,-1.984,-0.977,0.366,73.333,36988.000,1.000
0.905,0.794,0.467,0.653,0.873,0.845,0.561,0.412,-0.133,0.842,-0.563,-1.892,-1.038,0.458,73.333,36989.000,1.000
-0.599,-0.695,-1.063,-0.883,-0.608,-0.662,-0.881,-1.041,-0.136,0.839,-0.559,-1.831,-0.946,0.519,73.333,36990.000,1.000
-2.025,-2.113,-2.446,-2.290,-2.005,-2.101,-2.177,-2.347,-0.138,0.843,-0.559,-1.648,-1.129,0.580,73.333,36991.000,1.000
-3.320,-3.402,-3.635,-3.509,-3.289,-3.412,-3.300,-3.482,-0.139,0.842,-0.559,-1.678,-1.129,0.580,73.333,36992.000,1.000
-4.439,-4.520,-4.622,-4.539,-4.428,-4.541,-4.262,-4.459,-0.140,0.843,-0.560,-1.648,-1.251,0.641,73.333,36993.000,1.000
-5.371,-5.461,-5.453,-5.420,-5.404,-5.474,-5.110,-5.318,-0.138,0.846,-0.562,-1.556,-1.160,0.732,73.333,36994.000,1.000
-6.113,-6.212,-6.152,-6.157,-6.185,-6.212,-5.851,-6.056,-0.135,0.845,-0.562,-1.495,-1.221,0.763,73.333,36995.000,1.000
-6.585,-6.689,-6.624,-6.632,-6.676,-6.683,-6.367,-6.558,-0.134,0.847,-0.562,-1.526,-1.251,0.793,73.333,36996.000,1.000
-6.599,-6.694,-6.640,-6.628,-6.697,-6.699,-6.429,-6.581,-0.133,0.848,-0.562,-1.495,-1.221,0.916,73.333,36997.000,1.000
-6.044,-6.110,-6.062,-6.040,-6.158,-6.136,-5.911,-5.988,-0.130,0.847,-0.562,-1.526,-1.160,0.946,73.333,36998.000,1.000
-5.020,-5.045,-4.995,-4.996,-5.170,-5.089,-4.918,-4.905,-0.126,0.850,-0.564,-1.526,-0.977,1.007,73.333,36999.000,1.000
-3.804,-3.798,-3.736,-3.790,-4.009,-3.846,-3.725,-3.658,-0.126,0.849,-0.565,-1.434,-0.854,1.007,73.333,37000.000,1.000
-2.668,-2.651,-2.566,-2.682,-2.933,-2.692,-2.594,-2.546,-0.125,0.850,-0.562,-1.404,-0.702,1.068,73.333,37001.000,1.000
-1.736,-1.723,-1.591,-1.754,-2.036,-1.743,-1.638,-1.665,-0.124,0.849,-0.563,-1.404,-0.458,1.129,73.333,37002.000,1.000
-1.090,-1.069,-0.865,-1.039,-1.354,-1.051,-0.929,-1.032,-0.124,0.847,-0.563,-1.343,-0.275,1.221,73.333,37003.000,1.000
-0.852,-0.784,-0.512,-0.652,-0.992,-0.725,-0.594,-0.720,-0.123,0.846,-0.563,-1.343,-0.153,1.312,73.333,37004.000,1.000
-1.176,-1.024,-0.730,-0.799,-1.136,-0.951,-0.821,-0.893,-0.124,0.846,-0.564,-1.251,-0.031,1.404,73.333,37005.000,1.000
-2.112,-1.877,-1.612,-1.604,-1.890,-1.823,-1.702,-1.661,-0.123,0.844,-0.566,-1.282,0.153,1.404,73.333,37006.000,1.000
-3.442,-3.178,-2.957,-2.895,-3.090,-3.138,-3.044,-2.875,-0.122,0.843,-0.569,-1.068,0.275,1.404,73.333,37007.000,1.000
-4.825,-4.591,-4.392,-4.315,-4.411,-4.514,-4.497,-4.229,-0.124,0.842,-0.565,-1.007,0.427,1.312,73.333,37008.000,1.000
-6.018,-5.832,-5.629,-5.571,-5.600,-5.659,-5.791,-5.489,-0.125,0.844,-0.566,-0.916,0.580,1.312,73.333,37009.000,1.000
-6.986,-6.814,-6.614,-6.595,-6.601,-6.533,-6.860,-6.610,-0.129,0.845,-0.566,-0.854,0.702,1.190,73.333,37010.000,1.000
-7.770,-7.559,-7.403,-7.427,-7.441,-7.222,-7.723,-7.595,-0.130,0.847,-0.563,-0.793,0.702,1.068,73.333,37011.000,1.000
-8.314,-8.019,-7.950,-8.017,-8.049,-7.718,-8.307,-8.320,-0.129,0.851,-0.563,-0.793,0.824,0.916,73.333,37012.000,1.000
-8.546,-8.141,-8.173,-8.285,-8.329,-7.967,-8.522,-8.643,-0.130,0.852,-0.563,-0.854,0.824,0.854,73.333,37013.000,1.000
-8.446,-7.942,-8.052,-8.220,-8.255,-7.947,-8.358,-8.535,-0.130,0.854,-0.563,-1.007,1.007,0.702,73.333,37014.000,1.000
-8.044,-7.511,-7.652,-7.881,-7.884,-7.676,-7.901,-8.084,-0.128,0.858,-0.564,-1.068,1.099,0.610,73.333,37015.000,1.000
-7.372,-6.904,-7.018,-7.300,-7.261,-7.155,-7.229,-7.380,-0.128,0.860,-0.565,-1.312,1.129,0.397,73.333,37016.000,1.000
-6.384,-6.037,-6.063,-6.383,-6.313,-6.288,-6.285,-6.381,-0.128,0.858,-0.564,-1.373,1.129,0.336,73.333,37017.000,1.000
-5.030,-4.786,-4.693,-5.038,-4.954,-5.004,-4.977,-5.018,-0.127,0.857,-0.562,-1.526,1.129,0.244,73.333,37018.000,1.000
-3.349,-3.138,-2.956,-3.310,-3.219,-3.358,-3.323,-3.327,-0.128,0.857,-0.563,-1.587,1.190,0.183,73.333,37019.000,1.000
-1.525,-1.268,-1.088,-1.425,-1.323,-1.555,-1.511,-1.504,-0.127,0.857,-0.563,-1.587,1.251,0.000,73.333,37020.000,1.000
0.208,0.550,0.621,0.332,0.453,0.157,0.201,0.193,-0.127,0.855,-0.567,-1.740,1.373,-0.031,73.333,37021.000,1.000
1.716,2.129,2.036,1.817,1.951,1.657,1.665,1.626,-0.129,0.854,-0.563,-1.862,1.373,-0.183,73.333,37022.000,1.000
2.930,3.368,3.146,2.989,3.105,2.895,2.822,2.767,-0.128,0.851,-0.562,-1.923,1.434,-0.153,73.333,37023.000,1.000
3.809,4.222,3.975,3.840,3.895,3.847,3.664,3.642,-0.131,0.850,-0.560,-2.014,1.465,-0.214,73.333,37024.000,1.000
4.382,4.735,4.563,4.404,4.370,4.525,4.246,4.309,-0.132,0.851,-0.564,-2.167,1.434,-0.275,73.333,37025.000,1.000
4.786,5.070,5.013,4.804,4.690,5.024,4.716,4.859,-0.133,0.851,-0.565,-2.106,1.434,-0.275,73.333,37026.000,1.000
5.225,5.447,5.475,5.231,5.081,5.498,5.258,5.403,-0.135,0.848,-0.563,-2.167,1.282,-0.214,73.333,37027.000,1.000
5.751,5.916,5.963,5.730,5.605,5.971,5.875,5.929,-0.133,0.846,-0.562,-1.984,1.282,-0.275,73.333,37028.000,1.000
6.192,6.292,6.309,6.135,6.077,6.287,6.351,6.274,-0.133,0.847,-0.564,-1.953,1.221,-0.244,73.333,37029.000,1.000
6.284,6.324,6.308,6.204,6.220,6.231,6.414,6.235,-0.133,0.844,-0.562,-1.892,1.221,-0.183,73.333,37030.000,1.000
5.903,5.921,5.897,5.838,5.909,5.741,5.964,5.754,-0.132,0.841,-0.563,-1.831,1.190,-0.122,73.333,37031.000,1.000
5.222,5.264,5.246,5.205,5.306,5.022,5.194,5.027,-0.131,0.842,-0.563,-1.617,1.190,-0.122,73.333,37032.000,1.000
4.527,4.596,4.583,4.553,4.658,4.335,4.399,4.316,-0.131,0.843,-0.562,-1.526,1.221,0.061,73.333,37033.000,1.000
3.982,4.029,4.014,3.999,4.087,3.781,3.747,3.746,-0.130,0.846,-0.565,-1.251,1.068,0.122,73.333,37034.000,1.000
3.538,3.485,3.474,3.471,3.530,3.263,3.200,3.237,-0.128,0.844,-0.567,-1.190,1.007,0.275,73.333,37035.000,1.000
3.039,2.825,2.837,2.833,2.870,2.635,2.615,2.641,-0.128,0.844,-0.564,-1.099,1.038,0.488,73.333,37036.000,1.000
2.452,2.058,2.104,2.099,2.147,1.918,1.976,1.944,-0.129,0.844,-0.562,-0.946,1.038,0.580,73.333,37037.000,1.000
1.914,1.367,1.435,1.469,1.554,1.305,1.432,1.308,-0.128,0.845,-0.559,-0.854,1.068,0.702,73.333,37038.000,1.000
1.664,1.025,1.084,1.226,1.331,1.057,1.223,1.004,-0.133,0.846,-0.560,-0.519,0.916,0.732,73.333,37039.000,1.000
1.835,1.176,1.204,1.505,1.569,1.290,1.468,1.205,-0.136,0.846,-0.562,-0.458,0.824,0.824,73.333,37040.000,1.000
2.320,1.713,1.695,2.160,2.115,1.867,2.052,1.822,-0.137,0.846,-0.560,-0.427,0.732,0.946,73.333,37041.000,1.000
2.897,2.397,2.318,2.901,2.716,2.531,2.740,2.602,-0.138,0.847,-0.562,-0.488,0.488,0.854,73.333,37042.000,1.000
3.336,2.982,2.832,3.452,3.147,3.046,3.285,3.250,-0.139,0.845,-0.564,-0.427,0.336,0.793,73.333,37043.000,1.000
3.510,3.315,3.111,3.669,3.319,3.296,3.534,3.576,-0.137,0.846,-0.564,-0.397,0.183,0.641,73.333,37044.000,1.000
3.381,3.331,3.120,3.529,3.234,3.264,3.441,3.517,-0.135,0.846,-0.562,-0.275,-0.061,0.732,73.333,37045.000,1.000
2.945,3.005,2.835,3.059,2.882,2.944,3.009,3.087,-0.134,0.844,-0.562,-0.305,-0.092,0.732,73.333,37046.000,1.000
2.303,2.432,2.321,2.388,2.316,2.405,2.356,2.428,-0.131,0.845,-0.561,-0.122,-0.214,0.580,73.333,37047.000,1.000
1.649,1.809,1.743,1.724,1.694,1.798,1.702,1.772,-0.129,0.845,-0.562,-0.183,-0.244,0.549,73.333,37048.000,1.000
1.202,1.373,1.320,1.289,1.251,1.333,1.301,1.356,-0.128,0.846,-0.561,-0.153,-0.183,0.488,73.333,37049.000,1.000
1.122,1.290,1.226,1.228,1.185,1.204,1.317,1.338,-0.126,0.850,-0.560,-0.183,-0.214,0.305,73.333,37050.000,1.000
1.467,1.607,1.536,1.568,1.566,1.514,1.761,1.740,-0.126,0.850,-0.563,-0.244,-0.214,0.366,73.333,37051.000,1.000
2.209,2.284,2.231,2.257,2.341,2.251,2.538,2.495,-0.127,0.848,-0.561,-0.336,-0.214,0.275,73.333,37052.000,1.000
3.147,3.128,3.121,3.110,3.284,3.203,3.415,3.406,-0.128,0.848,-0.562,-0.397,-0.275,0.214,73.333,37053.000,1.000
3.917,3.811,3.862,3.821,4.032,3.983,4.058,4.148,-0.127,0.847,-0.559,-0.397,-0.305,0.305,73.333,37054.000,1.000
4.141,3.997,4.103,4.053,4.234,4.195,4.153,4.365,-0.128,0.848,-0.562,-0.366,-0.244,0.336,73.333,37055.000,1.000
3.625,3.508,3.654,3.592,3.727,3.632,3.556,3.844,-0.128,0.847,-0.565,-0.366,-0.183,0.427,73.333,37056.000,1.000
2.487,2.438,2.594,2.497,2.625,2.421,2.400,2.676,-0.125,0.845,-0.564,-0.366,-0.122,0.397,73.333,37057.000,1.000
1.022,1.049,1.175,1.030,1.182,0.882,0.972,1.161,-0.126,0.848,-0.564,-0.366,-0.122,0.397,73.333,37058.000,1.000
-0.462,-0.394,-0.315,-0.503,-0.334,-0.653,-0.449,-0.369,-0.125,0.847,-0.565,-0.366,-0.183,0.397,73.333,37059.000,1.000
-1.801,-1.757,-1.703,-1.915,-1.764,-2.001,-1.726,-1.723,-0.125,0.847,-0.565,-0.366,-0.122,0.427,73.333,37060.000,1.000
-2.962,-3.017,-2.940,-3.152,-3.041,-3.126,-2.854,-2.866,-0.128,0.846,-0.563,-0.366,-0.153,0.427,73.333,37061.000,1.000
-3.854,-4.039,-3.905,-4.099,-4.018,-3.938,-3.760,-3.720,-0.128,0.847,-0.566,-0.183,-0.153,0.488,73.333,37062.000,1.000
-4.321,-4.584,-4.410,-4.586,-4.507,-4.291,-4.286,-4.148,-0.130,0.847,-0.568,-0.092,-0.092,0.580,73.333,37063.000,1.000
-4.244,-4.482,-4.324,-4.504,-4.414,-4.102,-4.294,-4.060,-0.133,0.846,-0.566,-0.122,-0.183,0.763,73.333,37064.000,1.000
-3.646,-3.778,-3.677,-3.895,-3.813,-3.449,-3.784,-3.500,-0.135,0.845,-0.564,-0.031,-0.336,0.671,73.333,37065.000,1.000
-2.751,-2.750,-2.703,-2.978,-2.938,-2.586,-2.941,-2.665,-0.136,0.844,-0.562,-0.031,-0.427,0.732,73.333,37066.000,1.000
-1.882,-1.768,-1.749,-2.069,-2.083,-1.816,-2.065,-1.828,-0.136,0.846,-0.560,0.061,-0.610,0.793,73.333,37067.000,1.000
-1.294,-1.123,-1.132,-1.448,-1.488,-1.359,-1.443,-1.235,-0.134,0.847,-0.562,0.092,-0.702,0.763,73.333,37068.000,1.000
-0.984,-0.826,-0.895,-1.144,-1.150,-1.169,-1.129,-0.916,-0.135,0.846,-0.562,0.122,-0.793,0.854,73.333,37069.000,1.000
-0.756,-0.661,-0.810,-0.958,-0.880,-0.997,-0.933,-0.699,-0.133,0.845,-0.562,0.122,-0.885,0.763,73.333,37070.000,1.000
-0.475,-0.431,-0.639,-0.708,-0.529,-0.670,-0.671,-0.439,-0.133,0.845,-0.566,0.214,-1.038,0.793,73.333,37071.000,1.000
-0.129,-0.079,-0.300,-0.352,-0.093,-0.208,-0.302,-0.121,-0.131,0.846,-0.566,0.183,-1.099,0.885,73.333,37072.000,1.000
0.131,0.249,0.057,-0.030,0.251,0.171,0.014,0.113,-0.131,0.846,-0.565,0.244,-1.038,0.824,73.333,37073.000,1.000
0.086,0.300,0.165,0.044,0.272,0.207,0.037,0.059,-0.128,0.849,-0.564,0.214,-1.129,0.824,73.333,37074.000,1.000
-0.373,-0.079,-0.135,-0.238,-0.133,-0.218,-0.351,-0.381,-0.127,0.850,-0.564,0.214,-1.190,0.885,73.333,37075.000,1.000
-1.126,-0.817,-0.769,-0.795,-0.848,-0.971,-1.028,-1.094,-0.125,0.848,-0.566,0.183,-1.251,0.824,73.333,37076.000,1.000
-1.866,-1.630,-1.452,-1.377,-1.581,-1.716,-1.677,-1.778,-0.126,0.851,-0.564,0.153,-1.221,0.824,73.333,37077.000,1.000
-2.389,-2.302,-1.981,-1.823,-2.126,-2.219,-2.090,-2.234,-0.126,0.850,-0.565,0.153,-1.099,0.854,73.333,37078.000,1.000
-2.789,-2.883,-2.443,-2.249,-2.558,-2.569,-2.394,-2.578,-0.125,0.849,-0.567,0.122,-0.977,0.793,73.333,37079.000,1.000
-3.358,-3.602,-3.130,-2.931,-3.158,-3.078,-2.941,-3.132,-0.123,0.849,-0.567,-0.031,-0.946,0.732,73.333,37080.000,1.000
-4.283,-4.584,-4.218,-4.015,-4.115,-3.963,-3.955,-4.089,-0.125,0.848,-0.565,-0.031,-0.977,0.702,73.333,37081.000,1.000
-5.443,-5.692,-5.550,-5.336,-5.312,-5.128,-5.285,-5.304,-0.125,0.846,-0.567,0.031,-0.977,0.580,73.333,37082.000,1.000
-6.602,-6.736,-6.834,-6.628,-6.507,-6.340,-6.618,-6.509,-0.124,0.846,-0.567,-0.031,-0.824,0.458,73.333,37083.000,1.000
-7.602,-7.638,-7.878,-7.720,-7.534,-7.422,-7.732,-7.535,-0.125,0.844,-0.569,0.000,-0.854,0.427,73.333,37084.000,1.000
-8.365,-8.384,-8.629,-8.532,-8.334,-8.276,-8.539,-8.332,-0.125,0.841,-0.568,0.031,-0.763,0.397,73.333,37085.000,1.000
-8.832,-8.921,-9.069,-9.005,-8.862,-8.833,-9.005,-8.871,-0.126,0.839,-0.571,0.092,-0.793,0.275,73.333,37086.000,1.000
-8.880,-9.087,-9.100,-9.022,-8.984,-8.971,-9.038,-9.034,-0.128,0.839,-0.573,0.214,-0.763,0.092,73.333,37087.000,1.000
-8.404,-8.707,-8.603,-8.485,-8.563,-8.572,-8.545,-8.685,-0.131,0.843,-0.575,0.214,-0.763,0.031,73.333,37088.000,1.000
-7.375,-7.687,-7.527,-7.368,-7.539,-7.587,-7.491,-7.746,-0.131,0.842,-0.571,0.397,-0.885,0.000,73.333,37089.000,1.000
-5.839,-6.042,-5.931,-5.724,-5.946,-6.052,-5.914,-6.227,-0.131,0.842,-0.568,0.488,-0.793,-0.122,73.333,37090.000,1.000
-3.916,-3.924,-3.970,-3.687,-3.910,-4.078,-3.916,-4.236,-0.133,0.844,-0.569,0.519,-0.854,-0.183,73.333,37091.000,1.000
-1.755,-1.555,-1.793,-1.422,-1.601,-1.813,-1.616,-1.937,-0.131,0.846,-0.568,0.427,-0.885,-0.153,73.333,37092.000,1.000
0.485,0.815,0.456,0.883,0.784,0.558,0.821,0.455,-0.131,0.848,-0.565,0.427,-0.916,-0.183,73.333,37093.000,1.000
2.698,3.035,2.680,3.091,3.098,2.880,3.227,2.768,-0.131,0.848,-0.566,0.336,-0.916,-0.244,73.333,37094.000,1.000
4.794,5.041,4.781,5.106,5.234,5.031,5.439,4.876,-0.129,0.849,-0.569,0.244,-0.946,-0.275,73.333,37095.000,1.000
6.606,6.738,6.584,6.798,7.033,6.850,7.252,6.635,-0.131,0.851,-0.571,0.061,-0.977,-0.183,73.333,37096.000,1.000
7.986,8.040,7.935,8.085,8.360,8.217,8.530,7.958,-0.131,0.850,-0.567,0.000,-0.977,-0.214,73.333,37097.000,1.000
8.865,8.907,8.789,8.952,9.164,9.091,9.260,8.829,-0.130,0.853,-0.567,-0.214,-1.007,-0.061,73.333,37098.000,1.000
9.274,9.366,9.204,9.431,9.496,9.514,9.539,9.292,-0.131,0.853,-0.567,-0.305,-1.007,-0.061,73.333,37099.000,1.000
9.286,9.456,9.250,9.537,9.448,9.544,9.473,9.389,-0.131,0.852,-0.568,-0.275,-1.007,-0.031,73.333,37100.000,1.000
8.904,9.133,8.899,9.201,9.030,9.151,9.051,9.073,-0.131,0.851,-0.566,-0.427,-1.007,0.000,73.333,37101.000,1.000
8.067,8.289,8.054,8.320,8.160,8.244,8.174,8.239,-0.132,0.851,-0.567,-0.519,-0.977,0.092,73.333,37102.000,1.000
6.672,6.817,6.611,6.807,6.718,6.733,6.723,6.783,-0.130,0.851,-0.566,-0.641,-1.038,0.061,73.333,37103.000,1.000
4.740,4.779,4.629,4.734,4.730,4.680,4.741,4.775,-0.130,0.848,-0.568,-0.824,-0.916,0.061,73.333,37104.000,1.000
2.536,2.488,2.426,2.419,2.489,2.394,2.525,2.534,-0.128,0.850,-0.568,-0.824,-0.977,0.153,73.333,37105.000,1.000
0.442,0.340,0.398,0.258,0.386,0.275,0.453,0.449,-0.127,0.847,-0.568,-0.793,-1.007,0.153,73.333,37106.000,1.000
-1.236,-1.372,-1.185,-1.468,-1.298,-1.389,-1.211,-1.211,-0.127,0.846,-0.567,-0.946,-1.007,0.305,73.333,37107.000,1.000
-2.402,-2.568,-2.277,-2.684,-2.504,-2.544,-2.401,-2.389,-0.129,0.848,-0.566,-1.068,-1.099,0.336,73.333,37108.000,1.000
-3.116,-3.302,-2.962,-3.437,-3.296,-3.284,-3.176,-3.160,-0.129,0.848,-0.571,-1.068,-1.007,0.336,73.333,37109.000,1.000
-3.492,-3.678,-3.346,-3.806,-3.748,-3.721,-3.615,-3.614,-0.128,0.846,-0.571,-1.160,-0.946,0.275,73.333,37110.000,1.000
-3.607,-3.773,-3.477,-3.855,-3.886,-3.889,-3.760,-3.778,-0.128,0.846,-0.570,-1.251,-0.946,0.275,73.333,37111.000,1.000
-3.401,-3.522,-3.268,-3.541,-3.616,-3.669,-3.522,-3.541,-0.128,0.844,-0.570,-1.160,-0.885,0.336,73.333,37112.000,1.000
-2.770,-2.809,-2.608,-2.797,-2.844,-2.922,-2.803,-2.792,-0.132,0.846,-0.568,-1.251,-0.977,0.336,73.333,37113.000,1.000
-1.698,-1.623,-1.505,-1.647,-1.615,-1.650,-1.625,-1.557,-0.131,0.845,-0.566,-1.282,-1.038,0.336,73.333,37114.000,1.000
-0.348,-0.163,-0.151,-0.277,-0.170,-0.083,-0.205,-0.066,-0.131,0.844,-0.568,-1.251,-1.007,0.275,73.333,37115.000,1.000
0.949,1.194,1.105,0.994,1.113,1.358,1.091,1.293,-0.133,0.845,-0.571,-1.251,-1.099,0.244,73.333,37116.000,1.000
1.945,2.170,2.002,1.933,1.992,2.360,2.001,2.237,-0.132,0.844,-0.569,-1.160,-1.129,0.183,73.333,37117.000,1.000
2.603,2.724,2.508,2.508,2.485,2.883,2.507,2.736,-0.131,0.845,-0.567,-1.160,-1.160,0.153,73.333,37118.000,1.000
3.086,3.035,2.825,2.877,2.819,3.155,2.816,3.008,-0.131,0.847,-0.569,-1.190,-1.190,0.183,73.333,37119.000,1.000
3.650,3.396,3.279,3.314,3.280,3.522,3.242,3.391,-0.132,0.847,-0.565,-1.221,-1.190,0.183,73.333,37120.000,1.000
4.455,4.034,4.092,4.025,4.036,4.203,3.989,4.109,-0.133,0.849,-0.566,-1.099,-1.190,0.061,73.333,37121.000,1.000
5.467,4.979,5.225,5.022,5.053,5.174,5.033,5.126,-0.131,0.850,-0.569,-1.190,-1.129,-0.031,73.333,37122.000,1.000
6.423,5.987,6.346,6.046,6.076,6.158,6.087,6.127,-0.129,0.849,-0.567,-1.404,-1.221,-0.031,73.333,37123.000,1.000
6.979,6.667,7.020,6.714,6.746,6.793,6.756,6.714,-0.129,0.850,-0.565,-1.465,-1.282,0.000,73.333,37124.000,1.000
6.864,6.688,6.934,6.712,6.756,6.795,6.731,6.606,-0.128,0.852,-0.565,-1.526,-1.160,0.000,73.333,37125.000,1.000
5.965,5.901,5.989,5.903,5.959,6.020,5.878,5.706,-0.128,0.850,-0.565,-1.556,-1.099,-0.153,73.333,37126.000,1.000
4.412,4.432,4.371,4.417,4.483,4.554,4.335,4.152,-0.128,0.849,-0.567,-1.617,-1.099,-0.031,73.333,37127.000,1.000
2.498,2.579,2.437,2.562,2.629,2.660,2.428,2.243,-0.127,0.848,-0.565,-1.648,-1.007,-0.122,73.333,37128.000,1.000
0.570,0.682,0.558,0.701,0.740,0.681,0.531,0.332,-0.128,0.849,-0.566,-1.709,-0.916,-0.183,73.333,37129.000,1.000
-1.101,-0.982,-1.027,-0.901,-0.932,-1.085,-1.090,-1.297,-0.127,0.849,-0.566,-1.709,-0.824,-0.153,73.333,37130.000,1.000
-2.486,-2.367,-2.337,-2.237,-2.353,-2.542,-2.427,-2.606,-0.128,0.849,-0.567,-1.740,-0.854,-0.092,73.333,37131.000,1.000
-3.726,-3.607,-3.540,-3.474,-3.645,-3.769,-3.660,-3.741,-0.128,0.849,-0.567,-1.678,-0.824,-0.153,73.333,37132.000,1.000
-4.944,-4.835,-4.756,-4.751,-4.902,-4.889,-4.938,-4.856,-0.128,0.845,-0.565,-1.648,-0.824,-0.183,73.333,37133.000,1.000
-6.074,-5.991,-5.899,-5.990,-6.030,-5.892,-6.176,-5.913,-0.129,0.846,-0.562,-1.587,-0.793,-0.092,73.333,37134.000,1.000
-6.855,-6.809,-6.691,-6.895,-6.765,-6.596,-7.054,-6.666,-0.128,0.846,-0.562,-1.648,-0.702,-0.031,73.333,37135.000,1.000
-6.996,-6.990,-6.832,-7.128,-6.851,-6.760,-7.244,-6.819,-0.129,0.846,-0.566,-1.648,-0.641,-0.031,73.333,37136.000,1.000
-6.297,-6.330,-6.129,-6.462,-6.139,-6.178,-6.556,-6.171,-0.130,0.845,-0.564,-1.617,-0.763,-0.061,73.333,37137.000,1.000
-4.840,-4.903,-4.678,-4.970,-4.739,-4.884,-5.090,-4.796,-0.133,0.844,-0.564,-1.526,-0.732,-0.122,73.333,37138.000,1.000
-3.041,-3.131,-2.898,-3.079,-3.060,-3.242,-3.268,-3.096,-0.136,0.843,-0.567,-1.495,-0.732,-0.061,73.333,37139.000,1.000
-1.467,-1.589,-1.354,-1.392,-1.631,-1.785,-1.650,-1.611,-0.139,0.841,-0.566,-1.312,-0.824,-0.031,73.333,37140.000,1.000
-0.486,-0.648,-0.421,-0.333,-0.781,-0.862,-0.620,-0.702,-0.138,0.844,-0.565,-1.312,-0.946,0.031,73.333,37141.000,1.000
0.030,-0.160,0.013,0.180,-0.345,-0.341,-0.074,-0.236,-0.139,0.843,-0.564,-1.221,-1.038,-0.031,73.333,37142.000,1.000
0.524,0.345,0.388,0.587,0.131,0.200,0.408,0.241,-0.136,0.844,-0.563,-1.221,-1.190,0.000,73.333,37143.000,1.000
1.345,1.223,1.079,1.284,0.978,1.078,1.171,1.090,-0.135,0.846,-0.559,-1.099,-1.343,-0.031,73.333,37144.000,1.000
2.541,2.492,2.180,2.376,2.204,2.311,2.268,2.337,-0.135,0.847,-0.563,-1.099,-1.404,0.000,73.333,37145.000,1.000
3.872,3.860,3.483,3.661,3.548,3.648,3.491,3.712,-0.133,0.847,-0.563,-0.977,-1.526,0.092,73.333,37146.000,1.000
5.002,4.962,4.652,4.811,4.684,4.770,4.555,4.871,-0.133,0.846,-0.561,-0.946,-1.526,0.153,73.333,37147.000,1.000
5.646,5.518,5.378,5.513,5.346,5.406,5.204,5.541,-0.132,0.847,-0.565,-0.916,-1.404,0.214,73.333,37148.000,1.000
5.700,5.462,5.539,5.619,5.447,5.466,5.335,5.642,-0.132,0.847,-0.567,-0.977,-1.465,0.244,73.333,37149.000,1.000
5.284,4.960,5.228,5.213,5.100,5.075,5.037,5.308,-0.131,0.848,-0.567,-0.946,-1.526,0.366,73.333,37150.000,1.000
4.589,4.230,4.585,4.476,4.456,4.412,4.450,4.709,-0.134,0.847,-0.564,-0.916,-1.526,0.458,73.333,37151.000,1.000
3.758,3.418,3.726,3.577,3.618,3.607,3.674,3.935,-0.132,0.847,-0.564,-0.885,-1.617,0.427,73.333,37152.000,1.000
2.785,2.505,2.667,2.567,2.589,2.657,2.692,2.946,-0.132,0.846,-0.565,-0.885,-1.556,0.549,73.333,37153.000,1.000
1.564,1.382,1.357,1.385,1.325,1.482,1.439,1.653,-0.131,0.845,-0.564,-0.763,-1.526,0.549,73.333,37154.000,1.000
0.029,-0.010,-0.201,-0.037,-0.168,0.047,-0.091,0.054,-0.129,0.847,-0.564,-0.824,-1.373,0.458,73.333,37155.000,1.000
-1.772,-1.621,-1.908,-1.694,-1.817,-1.600,-1.818,-1.739,-0.130,0.849,-0.567,-0.885,-1.373,0.427,73.333,37156.000,1.000
-3.629,-3.270,-3.565,-3.429,-3.460,-3.285,-3.542,-3.490,-0.131,0.847,-0.568,-0.793,-1.282,0.519,73.333,37157.000,1.000
-5.290,-4.771,-5.012,-5.028,-4.940,-4.820,-5.062,-4.986,-0.131,0.844,-0.567,-0.824,-1.373,0.519,73.333,37158.000,1.000
-6.609,-6.030,-6.218,-6.351,-6.177,-6.107,-6.294,-6.159,-0.132,0.844,-0.566,-0.824,-1.373,0.366,73.333,37159.000,1.000
-7.580,-7.043,-7.241,-7.377,-7.165,-7.150,-7.270,-7.078,-0.131,0.844,-0.568,-0.885,-1.312,0.366,73.333,37160.000,1.000
-8.267,-7.833,-8.099,-8.140,-7.918,-7.985,-8.037,-7.825,-0.131,0.844,-0.565,-0.793,-1.282,0.336,73.333,37161.000,1.000
-8.612,-8.292,-8.617,-8.550,-8.319,-8.493,-8.473,-8.296,-0.130,0.844,-0.565,-0.763,-1.160,0.244,73.333,37162.000,1.000
-8.493,-8.266,-8.573,-8.457,-8.225,-8.495,-8.396,-8.291,-0.128,0.845,-0.564,-0.580,-1.190,0.305,73.333,37163.000,1.000
-7.895,-7.724,-7.945,-7.848,-7.639,-7.942,-7.787,-7.756,-0.129,0.845,-0.567,-0.458,-1.190,0.275,73.333,37164.000,1.000
-6.945,-6.796,-6.925,-6.887,-6.717,-6.954,-6.810,-6.835,-0.132,0.847,-0.563,-0.397,-1.160,0.275,73.333,37165.000,1.000
-5.789,-5.642,-5.731,-5.747,-5.603,-5.702,-5.651,-5.716,-0.133,0.846,-0.564,-0.397,-1.129,0.336,73.333,37166.000,1.000
-4.411,-4.255,-4.364,-4.401,-4.260,-4.220,-4.302,-4.396,-0.133,0.844,-0.562,-0.549,-1.129,0.275,73.333,37167.000,1.000
-2.780,-2.589,-2.748,-2.769,-2.648,-2.524,-2.701,-2.802,-0.133,0.845,-0.565,-0.641,-1.038,0.244,73.333,37168.000,1.000
-1.016,-0.764,-0.960,-0.939,-0.888,-0.747,-0.932,-1.007,-0.134,0.847,-0.566,-0.580,-1.129,0.183,73.333,37169.000,1.000
0.679,0.990,0.791,0.867,0.813,0.914,0.807,0.779,-0.135,0.847,-0.566,-0.549,-1.099,0.153,73.333,37170.000,1.000
2.150,2.467,2.302,2.440,2.288,2.318,2.340,2.350,-0.137,0.849,-0.564,-0.702,-1.068,0.183,73.333,37171.000,1.000
3.408,3.654,3.554,3.734,3.528,3.495,3.646,3.671,-0.136,0.849,-0.563,-0.793,-1.221,0.122,73.333,37172.000,1.000
4.552,4.687,4.663,4.834,4.634,4.573,4.802,4.839,-0.135,0.847,-0.564,-0.763,-1.312,0.153,73.333,37173.000,1.000
5.604,5.658,5.691,5.799,5.649,5.597,5.829,5.906,-0.137,0.847,-0.563,-0.854,-1.343,0.122,73.333,37174.000,1.000
6.400,6.448,6.515,6.544,6.428,6.400,6.591,6.739,-0.135,0.849,-0.564,-0.824,-1.312,0.061,73.333,37175.000,1.000
6.648,6.762,6.863,6.849,6.689,6.673,6.850,7.058,-0.135,0.850,-0.565,-0.854,-1.434,0.000,73.333,37176.000,1.000
6.212,6.419,6.578,6.579,6.295,6.270,6.504,6.706,-0.134,0.852,-0.564,-0.854,-1.373,-0.061,73.333,37177.000,1.000
5.205,5.456,5.689,5.748,5.338,5.289,5.631,5.723,-0.135,0.851,-0.564,-1.038,-1.465,0.000,73.333,37178.000,1.000
3.847,4.053,4.338,4.440,4.003,3.938,4.369,4.258,-0.131,0.852,-0.561,-1.099,-1.495,0.031,73.333,37179.000,1.000
2.339,2.449,2.713,2.795,2.477,2.429,2.853,2.519,-0.132,0.851,-0.562,-1.160,-1.465,0.061,73.333,37180.000,1.000
0.840,0.880,1.025,1.023,0.935,0.950,1.242,0.762,-0.131,0.850,-0.567,-1.160,-1.434,0.122,73.333,37181.000,1.000
-0.455,-0.407,-0.452,-0.562,-0.409,-0.287,-0.207,-0.699,-0.130,0.848,-0.566,-1.221,-1.251,0.092,73.333,37182.000,1.000
-1.418,-1.284,-1.521,-1.712,-1.411,-1.168,-1.275,-1.670,-0.132,0.847,-0.566,-1.282,-1.190,0.214,73.333,37183.000,1.000
-2.104,-1.845,-2.212,-2.435,-2.122,-1.785,-1.963,-2.232,-0.132,0.845,-0.568,-1.221,-1.068,0.214,73.333,37184.000,1.000
