EEG 1,EEG 2,EEG 3,EEG 4,EEG 5,EEG 6,EEG 7,EEG 8,Accelerometer X,Accelerometer Y,Accelerometer Z,Gyroscope X,Gyroscope Y,Gyroscope Z,Battery Level,Counter,Validation Indicator
8.131,7.761,7.605,7.618,8.070,7.859,7.914,7.769,-0.031,0.928,-0.427,-0.793,-0.793,0.580,73.333,7433.000,1.000
8.322,7.923,7.855,7.859,8.264,8.073,8.101,8.144,-0.032,0.928,-0.428,-0.793,-0.854,0.580,73.333,7434.000,1.000
7.855,7.474,7.534,7.564,7.828,7.659,7.703,7.879,-0.029,0.929,-0.429,-0.671,-0.854,0.732,73.333,7435.000,1.000
6.462,6.139,6.311,6.417,6.476,6.330,6.431,6.643,-0.028,0.930,-0.431,-0.702,-0.977,0.671,73.333,7436.000,1.000
4.193,3.941,4.169,4.382,4.226,4.111,4.289,4.444,-0.028,0.928,-0.433,-0.641,-1.007,0.793,73.333,7437.000,1.000
1.453,1.245,1.481,1.783,1.458,1.382,1.627,1.698,-0.029,0.928,-0.429,-0.702,-1.129,0.854,73.333,7438.000,1.000
-1.144,-1.350,-1.133,-0.785,-1.206,-1.244,-0.979,-0.932,-0.029,0.926,-0.430,-0.519,-1.160,0.793,73.333,7439.000,1.000
-3.076,-3.293,-3.113,-2.741,-3.199,-3.211,-2.989,-2.870,-0.030,0.927,-0.431,-0.580,-1.251,0.793,73.333,7440.000,1.000
-4.112,-4.312,-4.178,-3.777,-4.240,-4.250,-4.114,-3.863,-0.030,0.927,-0.431,-0.610,-1.343,0.824,73.333,7441.000,1.000
-4.353,-4.491,-4.388,-3.955,-4.413,-4.444,-4.397,-4.031,-0.027,0.927,-0.430,-0.549,-1.343,0.763,73.333,7442.000,1.000
-4.162,-4.208,-4.103,-3.661,-4.107,-4.159,-4.167,-3.774,-0.025,0.928,-0.430,-0.427,-1.465,0.702,73.333,7443.000,1.000
-4.038,-3.980,-3.848,-3.454,-3.854,-3.912,-3.929,-3.628,-0.021,0.928,-0.435,-0.427,-1.465,0.641,73.333,7444.000,1.000
-4.520,-4.366,-4.201,-3.939,-4.224,-4.267,-4.277,-4.151,-0.020,0.929,-0.432,-0.305,-1.373,0.488,73.333,7445.000,1.000
-5.951,-5.729,-5.536,-5.473,-5.588,-5.601,-5.617,-5.670,-0.016,0.929,-0.430,-0.305,-1.373,0.519,73.333,7446.000,1.000
-8.277,-8.033,-7.813,-7.948,-7.919,-7.891,-7.927,-8.078,-0.016,0.930,-0.432,-0.183,-1.160,0.549,73.333,7447.000,1.000
-11.162,-10.951,-10.701,-10.956,-10.885,-10.813,-10.863,-11.005,-0.015,0.927,-0.430,-0.183,-0.977,0.458,73.333,7448.000,1.000
-14.202,-14.073,-13.791,-14.064,-14.058,-13.950,-13.999,-14.050,-0.016,0.927,-0.434,-0.183,-0.854,0.336,73.333,7449.000,1.000
-17.065,-17.054,-16.750,-16.973,-17.065,-16.942,-16.988,-16.929,-0.018,0.926,-0.435,-0.153,-0.854,0.366,73.333,7450.000,1.000
-19.520,-19.633,-19.334,-19.494,-19.633,-19.523,-19.584,-19.452,-0.019,0.925,-0.434,-0.305,-0.763,0.366,73.333,7451.000,1.000
-21.388,-21.583,-21.314,-21.430,-21.553,-21.468,-21.565,-21.426,-0.019,0.926,-0.432,-0.122,-0.641,0.397,73.333,7452.000,1.000
-22.430,-22.639,-22.405,-22.501,-22.589,-22.521,-22.650,-22.561,-0.021,0.925,-0.432,-0.153,-0.519,0.336,73.333,7453.000,1.000
-22.323,-22.492,-22.274,-22.368,-22.457,-22.375,-22.502,-22.494,-0.021,0.927,-0.432,-0.214,-0.397,0.214,73.333,7454.000,1.000
-20.882,-20.988,-20.759,-20.866,-21.011,-20.871,-20.955,-21.026,-0.021,0.927,-0.433,-0.153,-0.397,0.122,73.333,7455.000,1.000
-18.236,-18.266,-18.003,-18.136,-18.366,-18.146,-18.168,-18.284,-0.020,0.929,-0.433,-0.122,-0.305,-0.031,73.333,7456.000,1.000
-14.753,-14.699,-14.401,-14.565,-14.845,-14.574,-14.555,-14.666,-0.020,0.930,-0.431,-0.275,-0.183,-0.031,73.333,7457.000,1.000
-10.903,-10.771,-10.482,-10.658,-10.896,-10.650,-10.646,-10.703,-0.019,0.930,-0.432,-0.305,-0.092,-0.092,73.333,7458.000,1.000
-7.134,-6.951,-6.747,-6.891,-6.999,-6.845,-6.915,-6.897,-0.023,0.929,-0.432,-0.427,0.000,-0.122,73.333,7459.000,1.000
-3.814,-3.613,-3.559,-3.625,-3.590,-3.535,-3.688,-3.617,-0.023,0.929,-0.432,-0.397,0.153,-0.122,73.333,7460.000,1.000
-1.117,-0.906,-1.020,-1.001,-0.893,-0.874,-1.065,-0.988,-0.022,0.929,-0.434,-0.427,0.061,-0.092,73.333,7461.000,1.000
1.036,1.270,1.022,1.084,1.171,1.236,1.073,1.116,-0.024,0.930,-0.431,-0.549,0.214,-0.122,73.333,7462.000,1.000
2.827,3.089,2.756,2.810,2.828,2.978,2.876,2.879,-0.025,0.932,-0.428,-0.671,0.275,-0.122,73.333,7463.000,1.000
4.414,4.688,4.305,4.321,4.303,4.497,4.442,4.432,-0.025,0.930,-0.431,-0.671,0.244,0.031,73.333,7464.000,1.000
5.863,6.120,5.702,5.683,5.706,5.846,5.811,5.826,-0.026,0.931,-0.433,-0.732,0.214,0.061,73.333,7465.000,1.000
7.124,7.348,6.903,6.875,6.987,6.984,6.969,7.030,-0.026,0.931,-0.429,-0.854,0.061,0.092,73.333,7466.000,1.000
8.011,8.215,7.749,7.746,7.919,7.752,7.781,7.899,-0.025,0.931,-0.434,-0.824,0.061,0.153,73.333,7467.000,1.000
8.209,8.416,7.938,7.979,8.134,7.869,7.957,8.137,-0.025,0.933,-0.430,-0.885,0.183,0.275,73.333,7468.000,1.000
7.431,7.659,7.190,7.260,7.330,7.086,7.212,7.455,-0.027,0.935,-0.428,-0.977,0.153,0.366,73.333,7469.000,1.000
5.616,5.868,5.448,5.501,5.486,5.364,5.486,5.766,-0.026,0.933,-0.429,-1.007,0.092,0.397,73.333,7470.000,1.000
3.104,3.360,3.031,3.015,2.998,3.027,3.099,3.348,-0.026,0.930,-0.433,-1.038,0.031,0.427,73.333,7471.000,1.000
0.581,0.805,0.583,0.468,0.572,0.709,0.689,0.833,-0.026,0.931,-0.428,-1.068,-0.031,0.549,73.333,7472.000,1.000
-1.279,-1.114,-1.236,-1.441,-1.148,-0.971,-1.110,-1.103,-0.026,0.930,-0.429,-1.160,-0.031,0.610,73.333,7473.000,1.000
-2.144,-2.038,-2.075,-2.324,-1.881,-1.709,-1.973,-2.069,-0.027,0.928,-0.430,-1.160,-0.122,0.641,73.333,7474.000,1.000
-2.125,-2.050,-2.034,-2.269,-1.780,-1.621,-2.000,-2.117,-0.025,0.927,-0.428,-1.160,-0.183,0.732,73.333,7475.000,1.000
-1.570,-1.506,-1.478,-1.660,-1.219,-1.066,-1.531,-1.580,-0.023,0.929,-0.427,-1.099,-0.183,0.732,73.333,7476.000,1.000
-0.778,-0.726,-0.725,-0.846,-0.494,-0.349,-0.850,-0.780,-0.025,0.929,-0.429,-1.160,-0.214,0.702,73.333,7477.000,1.000
0.108,0.136,0.093,0.016,0.279,0.402,-0.068,0.119,-0.024,0.930,-0.429,-1.190,-0.183,0.763,73.333,7478.000,1.000
1.044,1.042,0.970,0.918,1.104,1.183,0.810,1.067,-0.023,0.931,-0.430,-1.129,-0.244,0.702,73.333,7479.000,1.000
1.941,1.897,1.853,1.802,1.926,1.944,1.703,1.964,-0.023,0.930,-0.429,-1.129,-0.244,0.702,73.333,7480.000,1.000
2.647,2.544,2.586,2.505,2.607,2.549,2.423,2.635,-0.022,0.927,-0.428,-1.160,-0.397,0.763,73.333,7481.000,1.000
3.056,2.895,3.034,2.885,3.038,2.899,2.822,2.965,-0.022,0.929,-0.431,-1.099,-0.397,0.702,73.333,7482.000,1.000
3.135,2.970,3.148,2.909,3.173,2.971,2.863,2.943,-0.023,0.930,-0.432,-1.007,-0.427,0.641,73.333,7483.000,1.000
2.932,2.855,2.981,2.670,3.032,2.817,2.633,2.672,-0.024,0.929,-0.436,-1.068,-0.427,0.610,73.333,7484.000,1.000
2.568,2.653,2.657,2.332,2.700,2.542,2.289,2.312,-0.024,0.931,-0.433,-1.007,-0.427,0.610,73.333,7485.000,1.000
2.264,2.523,2.395,2.124,2.379,2.343,2.062,2.084,-0.023,0.931,-0.431,-1.007,-0.397,0.549,73.333,7486.000,1.000
2.300,2.674,2.478,2.293,2.356,2.470,2.209,2.227,-0.025,0.928,-0.428,-0.977,-0.519,0.519,73.333,7487.000,1.000
2.845,3.234,3.063,2.947,2.824,3.054,2.852,2.858,-0.024,0.928,-0.427,-0.916,-0.519,0.549,73.333,7488.000,1.000
3.887,4.195,4.117,4.026,3.794,4.061,3.938,3.929,-0.022,0.927,-0.428,-0.885,-0.519,0.488,73.333,7489.000,1.000
5.253,5.438,5.455,5.365,5.116,5.338,5.288,5.272,-0.022,0.927,-0.431,-0.854,-0.641,0.519,73.333,7490.000,1.000
6.667,6.753,6.817,6.743,6.528,6.661,6.668,6.652,-0.020,0.929,-0.431,-0.763,-0.641,0.336,73.333,7491.000,1.000
7.768,7.814,7.875,7.852,7.670,7.723,7.771,7.753,-0.020,0.927,-0.431,-0.671,-0.641,0.336,73.333,7492.000,1.000
8.171,8.220,8.274,8.312,8.132,8.162,8.242,8.206,-0.021,0.927,-0.430,-0.610,-0.549,0.305,73.333,7493.000,1.000
7.684,7.743,7.836,7.891,7.689,7.765,7.877,7.790,-0.020,0.927,-0.428,-0.671,-0.549,0.244,73.333,7494.000,1.000
6.424,6.459,6.647,6.639,6.430,6.588,6.729,6.564,-0.023,0.927,-0.431,-0.702,-0.580,0.214,73.333,7495.000,1.000
4.705,4.660,4.959,4.824,4.667,4.882,5.030,4.805,-0.023,0.928,-0.429,-0.580,-0.580,0.214,73.333,7496.000,1.000
2.856,2.695,3.044,2.796,2.753,2.967,3.071,2.850,-0.023,0.929,-0.428,-0.641,-0.519,0.244,73.333,7497.000,1.000
1.164,0.898,1.166,0.913,1.004,1.175,1.182,1.012,-0.024,0.930,-0.426,-0.610,-0.488,0.336,73.333,7498.000,1.000
-0.081,-0.398,-0.340,-0.455,-0.270,-0.146,-0.257,-0.379,-0.023,0.930,-0.426,-0.580,-0.427,0.275,73.333,7499.000,1.000
-0.669,-0.975,-1.171,-1.051,-0.864,-0.765,-0.958,-1.068,-0.023,0.930,-0.430,-0.610,-0.488,0.183,73.333,7500.000,1.000
-0.605,-0.865,-1.240,-0.881,-0.799,-0.707,-0.900,-1.026,-0.023,0.928,-0.431,-0.641,-0.549,0.122,73.333,7501.000,1.000
-0.131,-0.351,-0.756,-0.246,-0.327,-0.249,-0.346,-0.496,-0.022,0.929,-0.432,-0.610,-0.549,0.214,73.333,7502.000,1.000
0.416,0.211,-0.083,0.441,0.227,0.258,0.327,0.168,-0.022,0.929,-0.432,-0.671,-0.549,0.244,73.333,7503.000,1.000
0.861,0.685,0.558,0.974,0.726,0.668,0.904,0.784,-0.022,0.928,-0.434,-0.580,-0.488,0.214,73.333,7504.000,1.000
1.258,1.171,1.172,1.426,1.248,1.083,1.401,1.381,-0.022,0.929,-0.431,-0.641,-0.580,0.183,73.333,7505.000,1.000
1.730,1.795,1.830,1.950,1.894,1.642,1.928,2.027,-0.023,0.931,-0.432,-0.763,-0.580,0.244,73.333,7506.000,1.000
2.312,2.521,2.512,2.580,2.617,2.339,2.521,2.686,-0.025,0.931,-0.429,-0.732,-0.549,0.214,73.333,7507.000,1.000
2.912,3.163,3.091,3.195,3.229,3.004,3.091,3.227,-0.023,0.932,-0.431,-0.763,-0.610,0.183,73.333,7508.000,1.000
3.392,3.545,3.452,3.637,3.565,3.443,3.509,3.554,-0.023,0.930,-0.433,-0.885,-0.549,0.244,73.333,7509.000,1.000
3.583,3.555,3.496,3.752,3.526,3.498,3.637,3.601,-0.023,0.929,-0.432,-0.854,-0.641,0.275,73.333,7510.000,1.000
3.316,3.127,3.138,3.418,3.064,3.070,3.343,3.294,-0.023,0.931,-0.432,-0.885,-0.580,0.305,73.333,7511.000,1.000
2.524,2.277,2.358,2.609,2.208,2.180,2.584,2.577,-0.021,0.929,-0.430,-0.946,-0.641,0.244,73.333,7512.000,1.000
1.325,1.138,1.257,1.431,1.088,0.991,1.462,1.495,-0.021,0.929,-0.429,-0.763,-0.610,0.153,73.333,7513.000,1.000
0.019,-0.041,0.073,0.146,-0.069,-0.218,0.237,0.246,-0.023,0.931,-0.429,-0.854,-0.610,0.275,73.333,7514.000,1.000
-1.133,-1.066,-0.998,-1.013,-1.102,-1.241,-0.854,-0.960,-0.024,0.930,-0.429,-0.977,-0.732,0.366,73.333,7515.000,1.000
-2.068,-1.922,-1.939,-1.984,-2.004,-2.070,-1.759,-2.039,-0.024,0.928,-0.429,-1.007,-0.641,0.336,73.333,7516.000,1.000
-2.867,-2.698,-2.823,-2.823,-2.841,-2.814,-2.559,-2.987,-0.025,0.929,-0.430,-1.099,-0.580,0.244,73.333,7517.000,1.000
-3.655,-3.507,-3.706,-3.623,-3.683,-3.594,-3.359,-3.846,-0.024,0.927,-0.432,-1.099,-0.671,0.275,73.333,7518.000,1.000
-4.475,-4.372,-4.566,-4.417,-4.530,-4.441,-4.179,-4.636,-0.024,0.927,-0.432,-1.068,-0.702,0.336,73.333,7519.000,1.000
-5.256,-5.209,-5.312,-5.176,-5.316,-5.274,-4.963,-5.329,-0.026,0.930,-0.431,-1.038,-0.732,0.214,73.333,7520.000,1.000
-5.898,-5.898,-5.859,-5.842,-5.959,-5.974,-5.643,-5.876,-0.025,0.928,-0.431,-0.977,-0.793,0.244,73.333,7521.000,1.000
-6.345,-6.357,-6.175,-6.343,-6.401,-6.453,-6.165,-6.249,-0.023,0.930,-0.430,-1.190,-0.763,0.244,73.333,7522.000,1.000
-6.560,-6.540,-6.252,-6.593,-6.587,-6.648,-6.456,-6.415,-0.025,0.931,-0.425,-1.160,-0.824,0.183,73.333,7523.000,1.000
-6.399,-6.334,-5.986,-6.424,-6.377,-6.422,-6.345,-6.224,-0.024,0.933,-0.430,-1.190,-0.824,0.305,73.333,7524.000,1.000
-5.659,-5.586,-5.223,-5.661,-5.598,-5.619,-5.630,-5.467,-0.023,0.935,-0.430,-1.160,-0.885,0.305,73.333,7525.000,1.000
-4.259,-4.253,-3.905,-4.277,-4.202,-4.213,-4.243,-4.070,-0.023,0.932,-0.429,-1.099,-0.885,0.397,73.333,7526.000,1.000
-2.362,-2.500,-2.181,-2.451,-2.371,-2.391,-2.359,-2.211,-0.024,0.931,-0.428,-1.099,-0.854,0.397,73.333,7527.000,1.000
-0.332,-0.650,-0.352,-0.514,-0.455,-0.499,-0.349,-0.252,-0.025,0.929,-0.427,-1.221,-0.824,0.427,73.333,7528.000,1.000
1.449,0.980,1.289,1.214,1.217,1.131,1.409,1.453,-0.025,0.931,-0.428,-1.221,-0.854,0.458,73.333,7529.000,1.000
2.665,2.126,2.479,2.450,2.383,2.231,2.612,2.618,-0.024,0.931,-0.429,-1.221,-0.793,0.397,73.333,7530.000,1.000
3.134,2.626,3.013,2.996,2.881,2.659,3.087,3.077,-0.024,0.930,-0.432,-1.221,-0.824,0.305,73.333,7531.000,1.000
2.931,2.545,2.900,2.876,2.769,2.505,2.898,2.901,-0.024,0.930,-0.432,-1.251,-0.824,0.397,73.333,7532.000,1.000
2.364,2.155,2.383,2.347,2.320,2.056,2.328,2.392,-0.024,0.931,-0.432,-1.221,-0.885,0.305,73.333,7533.000,1.000
1.786,1.744,1.782,1.758,1.848,1.614,1.716,1.890,-0.023,0.933,-0.430,-1.160,-0.854,0.336,73.333,7534.000,1.000
1.316,1.379,1.236,1.270,1.450,1.255,1.210,1.495,-0.024,0.931,-0.430,-1.190,-0.885,0.427,73.333,7535.000,1.000
0.777,0.878,0.627,0.756,0.950,0.792,0.676,1.009,-0.023,0.930,-0.429,-1.129,-0.946,0.458,73.333,7536.000,1.000
-0.072,0.036,-0.225,-0.005,0.124,-0.006,-0.113,0.193,-0.023,0.929,-0.428,-1.099,-0.916,0.366,73.333,7537.000,1.000
-1.290,-1.165,-1.368,-1.099,-1.075,-1.189,-1.244,-1.007,-0.023,0.929,-0.429,-1.099,-0.885,0.458,73.333,7538.000,1.000
-2.677,-2.520,-2.651,-2.385,-2.446,-2.551,-2.554,-2.402,-0.024,0.927,-0.430,-1.038,-0.916,0.397,73.333,7539.000,1.000
-3.959,-3.777,-3.870,-3.640,-3.715,-3.800,-3.793,-3.733,-0.024,0.927,-0.428,-0.977,-0.885,0.275,73.333,7540.000,1.000
-4.966,-4.796,-4.908,-4.716,-4.733,-4.762,-4.809,-4.832,-0.023,0.924,-0.429,-0.946,-0.824,0.244,73.333,7541.000,1.000
-5.673,-5.550,-5.731,-5.559,-5.508,-5.417,-5.577,-5.650,-0.023,0.927,-0.430,-0.854,-0.854,0.244,73.333,7542.000,1.000
-6.140,-6.069,-6.320,-6.164,-6.087,-5.821,-6.119,-6.208,-0.021,0.927,-0.433,-0.824,-0.763,0.244,73.333,7543.000,1.000
-6.354,-6.317,-6.584,-6.470,-6.398,-5.973,-6.391,-6.472,-0.020,0.926,-0.429,-0.702,-0.824,0.275,73.333,7544.000,1.000
-6.181,-6.181,-6.387,-6.348,-6.256,-5.783,-6.265,-6.325,-0.021,0.927,-0.432,-0.671,-0.763,0.305,73.333,7545.000,1.000
-5.465,-5.541,-5.624,-5.670,-5.506,-5.134,-5.612,-5.647,-0.025,0.927,-0.435,-0.580,-0.641,0.397,73.333,7546.000,1.000
-4.204,-4.395,-4.331,-4.437,-4.178,-4.012,-4.441,-4.443,-0.021,0.927,-0.432,-0.519,-0.641,0.275,73.333,7547.000,1.000
-2.638,-2.932,-2.744,-2.864,-2.537,-2.586,-2.963,-2.927,-0.023,0.928,-0.430,-0.519,-0.488,0.275,73.333,7548.000,1.000
-1.068,-1.392,-1.144,-1.225,-0.899,-1.081,-1.435,-1.362,-0.023,0.930,-0.429,-0.519,-0.519,0.244,73.333,7549.000,1.000
0.338,0.078,0.308,0.308,0.550,0.356,0.000,0.098,-0.023,0.931,-0.431,-0.519,-0.458,0.275,73.333,7550.000,1.000
1.573,1.439,1.601,1.688,1.776,1.676,1.316,1.436,-0.022,0.928,-0.428,-0.427,-0.427,0.305,73.333,7551.000,1.000
2.673,2.666,2.755,2.882,2.802,2.855,2.509,2.652,-0.023,0.929,-0.430,-0.336,-0.336,0.336,73.333,7552.000,1.000
3.577,3.646,3.665,3.763,3.574,3.771,3.472,3.638,-0.023,0.928,-0.430,-0.336,-0.275,0.366,73.333,7553.000,1.000
4.162,4.237,4.176,4.191,4.003,4.272,4.055,4.233,-0.023,0.929,-0.431,-0.336,-0.336,0.336,73.333,7554.000,1.000
4.316,4.343,4.195,4.122,4.038,4.265,4.146,4.328,-0.023,0.929,-0.433,-0.305,-0.183,0.336,73.333,7555.000,1.000
4.025,3.985,3.776,3.647,3.721,3.795,3.758,3.937,-0.023,0.928,-0.429,-0.458,-0.244,0.458,73.333,7556.000,1.000
3.438,3.336,3.128,2.981,3.207,3.067,3.086,3.250,-0.023,0.929,-0.429,-0.397,-0.214,0.305,73.333,7557.000,1.000
2.775,2.620,2.489,2.349,2.653,2.324,2.391,2.520,-0.023,0.929,-0.430,-0.458,-0.183,0.366,73.333,7558.000,1.000
2.195,2.001,1.987,1.879,2.130,1.728,1.843,1.923,-0.023,0.931,-0.431,-0.519,-0.275,0.488,73.333,7559.000,1.000
1.709,1.499,1.579,1.545,1.618,1.294,1.430,1.469,-0.024,0.930,-0.431,-0.519,-0.244,0.427,73.333,7560.000,1.000
1.242,1.052,1.161,1.236,1.094,0.952,1.043,1.073,-0.022,0.931,-0.431,-0.610,-0.214,0.275,73.333,7561.000,1.000
0.774,0.636,0.724,0.897,0.622,0.664,0.641,0.689,-0.023,0.930,-0.433,-0.641,-0.031,0.336,73.333,7562.000,1.000
0.375,0.305,0.359,0.574,0.309,0.454,0.291,0.360,-0.025,0.930,-0.428,-0.671,-0.061,0.366,73.333,7563.000,1.000
0.208,0.195,0.230,0.416,0.284,0.426,0.137,0.224,-0.023,0.930,-0.432,-0.671,-0.214,0.305,73.333,7564.000,1.000
0.405,0.447,0.456,0.566,0.615,0.680,0.310,0.414,-0.023,0.930,-0.433,-0.732,-0.153,0.305,73.333,7565.000,1.000
0.963,1.078,1.035,1.053,1.247,1.224,0.832,0.954,-0.023,0.928,-0.433,-0.793,-0.244,0.397,73.333,7566.000,1.000
1.757,1.943,1.854,1.790,2.035,1.972,1.610,1.751,-0.024,0.927,-0.437,-0.732,-0.336,0.458,73.333,7567.000,1.000
2.571,2.790,2.712,2.578,2.794,2.752,2.435,2.608,-0.024,0.929,-0.433,-0.824,-0.305,0.458,73.333,7568.000,1.000
3.191,3.394,3.395,3.205,3.365,3.378,3.098,3.312,-0.026,0.929,-0.431,-0.946,-0.336,0.580,73.333,7569.000,1.000
3.495,3.665,3.764,3.536,3.662,3.732,3.487,3.729,-0.024,0.931,-0.428,-0.977,-0.366,0.519,73.333,7570.000,1.000
3.504,3.649,3.812,3.574,3.684,3.807,3.619,3.857,-0.025,0.930,-0.430,-0.977,-0.427,0.397,73.333,7571.000,1.000
3.309,3.445,3.604,3.391,3.475,3.646,3.554,3.763,-0.026,0.929,-0.430,-1.068,-0.427,0.397,73.333,7572.000,1.000
2.964,3.106,3.189,3.034,3.068,3.271,3.300,3.477,-0.024,0.929,-0.430,-1.099,-0.427,0.397,73.333,7573.000,1.000
2.548,2.702,2.676,2.591,2.571,2.779,2.902,3.069,-0.025,0.929,-0.430,-1.068,-0.549,0.427,73.333,7574.000,1.000
2.156,2.314,2.217,2.180,2.133,2.326,2.459,2.641,-0.026,0.930,-0.427,-1.099,-0.549,0.427,73.333,7575.000,1.000
1.786,1.945,1.849,1.827,1.789,1.955,2.005,2.203,-0.025,0.929,-0.430,-1.099,-0.580,0.397,73.333,7576.000,1.000
1.333,1.502,1.445,1.432,1.431,1.543,1.466,1.659,-0.025,0.929,-0.428,-1.007,-0.580,0.488,73.333,7577.000,1.000
0.680,0.870,0.824,0.853,0.908,0.908,0.735,0.897,-0.024,0.926,-0.428,-1.038,-0.671,0.488,73.333,7578.000,1.000
-0.176,0.027,-0.065,0.055,0.154,-0.007,-0.189,-0.079,-0.024,0.927,-0.431,-1.068,-0.763,0.488,73.333,7579.000,1.000
-1.155,-0.968,-1.125,-0.904,-0.814,-1.128,-1.224,-1.184,-0.025,0.929,-0.431,-1.099,-0.732,0.427,73.333,7580.000,1.000
-2.192,-2.045,-2.228,-1.956,-1.951,-2.346,-2.287,-2.348,-0.023,0.928,-0.432,-1.068,-0.732,0.488,73.333,7581.000,1.000
-3.232,-3.129,-3.273,-3.027,-3.162,-3.545,-3.303,-3.508,-0.023,0.928,-0.429,-1.190,-0.702,0.427,73.333,7582.000,1.000
-4.184,-4.116,-4.186,-4.005,-4.286,-4.580,-4.184,-4.572,-0.025,0.930,-0.431,-1.251,-0.641,0.275,73.333,7583.000,1.000
-4.878,-4.848,-4.855,-4.717,-5.097,-5.268,-4.802,-5.373,-0.024,0.931,-0.431,-1.190,-0.580,0.366,73.333,7584.000,1.000
-5.160,-5.181,-5.175,-5.033,-5.417,-5.486,-5.059,-5.756,-0.021,0.930,-0.428,-1.190,-0.732,0.366,73.333,7585.000,1.000
-5.013,-5.091,-5.110,-4.953,-5.225,-5.260,-4.948,-5.677,-0.022,0.930,-0.432,-1.190,-0.702,0.366,73.333,7586.000,1.000
-4.531,-4.650,-4.680,-4.553,-4.637,-4.704,-4.510,-5.200,-0.022,0.930,-0.430,-1.190,-0.641,0.427,73.333,7587.000,1.000
-3.832,-3.961,-3.949,-3.915,-3.815,-3.922,-3.803,-4.440,-0.022,0.930,-0.433,-1.221,-0.671,0.488,73.333,7588.000,1.000
-2.966,-3.073,-2.969,-3.071,-2.858,-2.936,-2.873,-3.469,-0.023,0.930,-0.431,-1.312,-0.641,0.427,73.333,7589.000,1.000
-1.970,-2.029,-1.838,-2.073,-1.844,-1.794,-1.810,-2.361,-0.024,0.931,-0.429,-1.282,-0.610,0.397,73.333,7590.000,1.000
-0.951,-0.945,-0.739,-1.046,-0.881,-0.661,-0.773,-1.247,-0.025,0.930,-0.429,-1.251,-0.610,0.366,73.333,7591.000,1.000
-0.022,0.054,0.167,-0.110,-0.045,0.293,0.111,-0.250,-0.023,0.929,-0.429,-1.221,-0.549,0.366,73.333,7592.000,1.000
0.758,0.894,0.840,0.681,0.664,1.001,0.828,0.586,-0.023,0.929,-0.432,-1.190,-0.580,0.275,73.333,7593.000,1.000
1.428,1.583,1.390,1.371,1.317,1.535,1.468,1.323,-0.025,0.929,-0.432,-1.282,-0.671,0.275,73.333,7594.000,1.000
2.071,2.172,1.951,2.023,1.978,2.018,2.123,2.059,-0.023,0.928,-0.433,-1.312,-0.610,0.305,73.333,7595.000,1.000
2.712,2.678,2.555,2.633,2.621,2.512,2.768,2.809,-0.024,0.928,-0.428,-1.373,-0.610,0.244,73.333,7596.000,1.000
3.251,3.059,3.095,3.109,3.120,2.959,3.256,3.457,-0.026,0.930,-0.429,-1.373,-0.641,0.244,73.333,7597.000,1.000
3.526,3.234,3.402,3.329,3.328,3.210,3.411,3.816,-0.026,0.930,-0.431,-1.373,-0.580,0.244,73.333,7598.000,1.000
3.480,3.191,3.403,3.275,3.218,3.192,3.220,3.788,-0.024,0.930,-0.431,-1.343,-0.671,0.214,73.333,7599.000,1.000
3.183,2.992,3.155,3.027,2.895,2.959,2.826,3.417,-0.024,0.930,-0.429,-1.343,-0.702,0.183,73.333,7600.000,1.000
2.746,2.698,2.766,2.688,2.492,2.622,2.402,2.854,-0.026,0.931,-0.430,-1.312,-0.702,0.153,73.333,7601.000,1.000
2.285,2.371,2.345,2.335,2.113,2.288,2.073,2.288,-0.025,0.931,-0.430,-1.282,-0.641,0.153,73.333,7602.000,1.000
1.853,2.034,1.940,1.970,1.773,1.975,1.843,1.835,-0.025,0.929,-0.427,-1.282,-0.671,0.244,73.333,7603.000,1.000
1.433,1.674,1.549,1.570,1.423,1.632,1.645,1.497,-0.023,0.929,-0.427,-1.190,-0.702,0.366,73.333,7604.000,1.000
0.992,1.263,1.173,1.140,1.017,1.210,1.408,1.216,-0.024,0.928,-0.428,-1.221,-0.641,0.397,73.333,7605.000,1.000
0.524,0.794,0.813,0.710,0.554,0.712,1.085,0.916,-0.026,0.926,-0.427,-1.251,-0.732,0.458,73.333,7606.000,1.000
0.029,0.267,0.430,0.274,0.051,0.166,0.638,0.523,-0.026,0.925,-0.428,-1.312,-0.763,0.427,73.333,7607.000,1.000
-0.544,-0.350,-0.083,-0.269,-0.523,-0.451,0.003,-0.056,-0.026,0.925,-0.430,-1.221,-0.732,0.458,73.333,7608.000,1.000
-1.224,-1.060,-0.780,-0.986,-1.182,-1.161,-0.810,-0.834,-0.025,0.925,-0.429,-1.160,-0.702,0.519,73.333,7609.000,1.000
-1.925,-1.763,-1.571,-1.793,-1.836,-1.896,-1.642,-1.688,-0.025,0.925,-0.428,-1.129,-0.732,0.458,73.333,7610.000,1.000
-2.417,-2.254,-2.215,-2.432,-2.284,-2.462,-2.226,-2.355,-0.024,0.927,-0.430,-1.068,-0.732,0.458,73.333,7611.000,1.000
-2.427,-2.295,-2.415,-2.592,-2.293,-2.587,-2.298,-2.521,-0.025,0.929,-0.429,-1.129,-0.702,0.549,73.333,7612.000,1.000
-1.844,-1.794,-2.010,-2.120,-1.771,-2.117,-1.781,-2.027,-0.028,0.931,-0.433,-1.129,-0.763,0.458,73.333,7613.000,1.000
-0.758,-0.828,-1.029,-1.079,-0.788,-1.084,-0.778,-0.938,-0.027,0.931,-0.430,-1.068,-0.702,0.488,73.333,7614.000,1.000
0.642,0.448,0.367,0.333,0.504,0.344,0.536,0.529,-0.026,0.931,-0.430,-0.977,-0.702,0.549,73.333,7615.000,1.000
2.175,1.901,1.965,1.904,1.962,1.960,2.018,2.140,-0.024,0.928,-0.429,-1.007,-0.732,0.549,73.333,7616.000,1.000
3.690,3.408,3.547,3.456,3.451,3.571,3.551,3.699,-0.024,0.928,-0.430,-1.007,-0.671,0.519,73.333,7617.000,1.000
4.952,4.723,4.826,4.741,4.723,4.912,4.902,4.947,-0.024,0.927,-0.434,-1.068,-0.732,0.458,73.333,7618.000,1.000
5.688,5.530,5.518,5.490,5.481,5.705,5.754,5.616,-0.021,0.926,-0.433,-1.007,-0.732,0.519,73.333,7619.000,1.000
5.704,5.599,5.440,5.509,5.514,5.753,5.845,5.536,-0.019,0.927,-0.431,-0.977,-0.610,0.549,73.333,7620.000,1.000
4.883,4.810,4.509,4.691,4.706,4.933,5.010,4.625,-0.014,0.927,-0.429,-0.885,-0.549,0.427,73.333,7621.000,1.000
3.175,3.123,2.726,3.005,3.011,3.185,3.197,2.864,-0.014,0.927,-0.430,-0.885,-0.244,0.549,73.333,7622.000,1.000
0.630,0.579,0.175,0.501,0.472,0.555,0.493,0.307,-0.012,0.924,-0.428,-0.885,-0.061,0.671,73.333,7623.000,1.000
-2.560,-2.634,-2.944,-2.648,-2.729,-2.738,-2.844,-2.865,-0.011,0.928,-0.431,-0.885,0.275,0.763,73.333,7624.000,1.000
-6.087,-6.190,-6.342,-6.144,-6.274,-6.328,-6.447,-6.344,-0.014,0.931,-0.431,-0.977,0.519,0.702,73.333,7625.000,1.000
-9.541,-9.652,-9.650,-9.560,-9.725,-9.753,-9.878,-9.717,-0.016,0.934,-0.431,-1.007,0.641,0.610,73.333,7626.000,1.000
-12.411,-12.499,-12.417,-12.381,-12.555,-12.504,-12.645,-12.499,-0.019,0.936,-0.433,-1.129,0.671,0.641,73.333,7627.000,1.000
-14.244,-14.293,-14.235,-14.168,-14.316,-14.192,-14.350,-14.281,-0.020,0.938,-0.435,-1.190,0.702,0.519,73.333,7628.000,1.000
-14.773,-14.781,-14.829,-14.675,-14.757,-14.630,-14.785,-14.813,-0.022,0.938,-0.432,-1.312,0.702,0.580,73.333,7629.000,1.000
-13.964,-13.943,-14.113,-13.885,-13.876,-13.827,-13.951,-14.040,-0.027,0.935,-0.434,-1.373,0.671,0.397,73.333,7630.000,1.000
-12.000,-11.973,-12.207,-11.970,-11.872,-11.930,-12.007,-12.101,-0.029,0.933,-0.432,-1.404,0.580,0.366,73.333,7631.000,1.000
-9.148,-9.137,-9.336,-9.158,-8.995,-9.126,-9.157,-9.236,-0.035,0.933,-0.431,-1.465,0.397,0.244,73.333,7632.000,1.000
-5.668,-5.674,-5.752,-5.647,-5.472,-5.607,-5.606,-5.689,-0.040,0.933,-0.430,-1.465,0.183,0.000,73.333,7633.000,1.000
-1.827,-1.821,-1.754,-1.670,-1.568,-1.636,-1.624,-1.728,-0.041,0.933,-0.430,-1.526,-0.061,-0.183,73.333,7634.000,1.000
1.970,2.011,2.187,2.324,2.280,2.326,2.320,2.214,-0.041,0.932,-0.427,-1.526,-0.336,-0.427,73.333,7635.000,1.000
5.134,5.187,5.415,5.647,5.451,5.601,5.565,5.498,-0.039,0.932,-0.425,-1.495,-0.580,-0.549,73.333,7636.000,1.000
7.083,7.088,7.334,7.630,7.354,7.550,7.502,7.499,-0.037,0.930,-0.427,-1.465,-0.885,-0.671,73.333,7637.000,1.000
7.513,7.426,7.676,7.943,7.701,7.878,7.837,7.902,-0.033,0.927,-0.431,-1.434,-1.160,-0.732,73.333,7638.000,1.000
6.613,6.440,6.683,6.816,6.711,6.845,6.801,6.922,-0.028,0.926,-0.429,-1.373,-1.343,-0.641,73.333,7639.000,1.000
5.010,4.801,5.019,4.975,5.039,5.161,5.069,5.220,-0.025,0.926,-0.432,-1.221,-1.404,-0.671,73.333,7640.000,1.000
3.497,3.308,3.489,3.313,3.495,3.646,3.460,3.612,-0.022,0.926,-0.430,-1.251,-1.434,-0.458,73.333,7641.000,1.000
2.726,2.589,2.737,2.524,2.735,2.923,2.622,2.776,-0.021,0.925,-0.427,-1.160,-1.343,-0.305,73.333,7642.000,1.000
2.950,2.865,2.984,2.823,3.011,3.179,2.792,2.983,-0.021,0.925,-0.427,-1.160,-1.343,-0.244,73.333,7643.000,1.000
3.950,3.896,3.973,3.916,4.102,4.152,3.753,4.013,-0.021,0.929,-0.430,-1.251,-1.221,0.000,73.333,7644.000,1.000
5.141,5.095,5.104,5.155,5.400,5.267,4.928,5.246,-0.021,0.930,-0.430,-1.160,-1.251,0.153,73.333,7645.000,1.000
5.838,5.783,5.712,5.830,6.171,5.884,5.627,5.964,-0.022,0.931,-0.429,-1.221,-1.282,0.336,73.333,7646.000,1.000
5.599,5.517,5.393,5.520,5.910,5.574,5.375,5.706,-0.022,0.933,-0.426,-1.312,-1.343,0.641,73.333,7647.000,1.000
4.333,4.203,4.067,4.164,4.484,4.209,4.030,4.367,-0.023,0.936,-0.426,-1.251,-1.221,0.702,73.333,7648.000,1.000
2.176,2.001,1.875,1.943,2.062,1.903,1.718,2.101,-0.021,0.936,-0.425,-1.434,-1.160,0.916,73.333,7649.000,1.000
-0.673,-0.847,-0.954,-0.901,-1.044,-1.103,-1.285,-0.842,-0.023,0.935,-0.425,-1.587,-1.282,0.946,73.333,7650.000,1.000
-4.011,-4.113,-4.184,-4.153,-4.505,-4.519,-4.667,-4.209,-0.023,0.934,-0.425,-1.678,-1.312,1.038,73.333,7651.000,1.000
-7.539,-7.540,-7.552,-7.567,-7.997,-8.016,-8.104,-7.711,-0.021,0.933,-0.425,-1.617,-1.190,1.129,73.333,7652.000,1.000
-10.759,-10.701,-10.651,-10.722,-11.103,-11.142,-11.165,-10.897,-0.019,0.932,-0.425,-1.678,-1.007,1.160,73.333,7653.000,1.000
-12.925,-12.873,-12.793,-12.908,-13.170,-13.227,-13.194,-13.043,-0.019,0.930,-0.425,-1.740,-0.916,1.190,73.333,7654.000,1.000
-13.317,-13.292,-13.240,-13.385,-13.509,-13.591,-13.509,-13.420,-0.019,0.927,-0.427,-1.892,-0.854,1.251,73.333,7655.000,1.000
-11.649,-11.615,-11.632,-11.815,-11.818,-11.932,-11.808,-11.726,-0.018,0.926,-0.427,-1.831,-0.763,1.282,73.333,7656.000,1.000
-8.198,-8.098,-8.172,-8.413,-8.336,-8.476,-8.310,-8.219,-0.016,0.924,-0.427,-1.770,-0.702,1.129,73.333,7657.000,1.000
-3.680,-3.477,-3.559,-3.873,-3.751,-3.902,-3.692,-3.616,-0.016,0.924,-0.426,-1.648,-0.519,1.068,73.333,7658.000,1.000
1.033,1.310,1.271,0.892,1.052,0.886,1.139,1.168,-0.014,0.923,-0.428,-1.648,-0.427,0.977,73.333,7659.000,1.000
5.154,5.426,5.460,5.047,5.243,5.045,5.324,5.305,-0.015,0.923,-0.427,-1.556,-0.275,0.854,73.333,7660.000,1.000
8.134,8.346,8.456,8.053,8.253,8.014,8.294,8.258,-0.016,0.925,-0.424,-1.465,-0.183,0.702,73.333,7661.000,1.000
9.736,9.888,10.048,9.698,9.856,9.589,9.844,9.816,-0.016,0.924,-0.423,-1.343,-0.031,0.641,73.333,7662.000,1.000
9.979,10.101,10.272,9.998,10.085,9.833,10.037,10.010,-0.019,0.924,-0.425,-1.373,-0.061,0.397,73.333,7663.000,1.000
9.153,9.265,9.410,9.210,9.232,9.059,9.182,9.128,-0.016,0.924,-0.426,-1.343,-0.031,0.366,73.333,7664.000,1.000
7.766,7.865,7.964,7.820,7.806,7.755,7.779,7.695,-0.019,0.925,-0.424,-1.312,0.153,0.183,73.333,7665.000,1.000
6.384,6.451,6.500,6.381,6.374,6.440,6.349,6.286,-0.019,0.925,-0.423,-1.221,0.336,0.092,73.333,7666.000,1.000
5.522,5.543,5.549,5.422,5.463,5.594,5.380,5.411,-0.019,0.925,-0.425,-1.068,0.305,-0.061,73.333,7667.000,1.000
5.562,5.543,5.527,5.381,5.483,5.609,5.289,5.448,-0.019,0.927,-0.426,-1.099,0.336,-0.244,73.333,7668.000,1.000
6.701,6.654,6.658,6.524,6.648,6.718,6.344,6.598,-0.020,0.926,-0.430,-1.038,0.427,-0.305,73.333,7669.000,1.000
8.890,8.813,8.877,8.818,8.886,8.891,8.530,8.810,-0.018,0.929,-0.429,-0.977,0.427,-0.336,73.333,7670.000,1.000
11.787,11.671,11.807,11.880,11.808,11.781,11.505,11.742,-0.021,0.930,-0.425,-0.916,0.427,-0.397,73.333,7671.000,1.000
14.782,14.638,14.815,15.026,14.778,14.777,14.648,14.777,-0.023,0.930,-0.425,-0.916,0.336,-0.397,73.333,7672.000,1.000
17.068,16.940,17.097,17.390,17.000,17.085,17.134,17.094,-0.024,0.931,-0.427,-0.885,0.305,-0.366,73.333,7673.000,1.000
17.914,17.854,17.947,18.224,17.779,17.975,18.197,17.952,-0.026,0.932,-0.426,-0.946,0.214,-0.366,73.333,7674.000,1.000
16.981,17.026,17.048,17.212,16.810,17.084,17.458,17.019,-0.027,0.934,-0.429,-0.916,0.153,-0.305,73.333,7675.000,1.000
14.479,14.629,14.594,14.600,14.314,14.589,15.072,14.520,-0.029,0.935,-0.427,-0.885,0.061,-0.183,73.333,7676.000,1.000
11.059,11.280,11.197,11.077,10.934,11.129,11.656,11.113,-0.032,0.935,-0.429,-0.824,-0.092,0.000,73.333,7677.000,1.000
7.494,7.737,7.603,7.450,7.434,7.492,7.991,7.554,-0.033,0.936,-0.426,-0.854,-0.305,0.031,73.333,7678.000,1.000
4.485,4.719,4.517,4.437,4.512,4.415,4.831,4.528,-0.033,0.937,-0.427,-1.007,-0.488,0.092,73.333,7679.000,1.000
2.610,2.822,2.537,2.605,2.731,2.512,2.813,2.608,-0.034,0.937,-0.427,-1.038,-0.641,0.244,73.333,7680.000,1.000
2.192,2.378,2.008,2.254,2.398,2.129,2.307,2.135,-0.032,0.936,-0.428,-1.099,-0.854,0.366,73.333,7681.000,1.000
3.154,3.318,2.887,3.294,3.439,3.192,3.263,3.055,-0.032,0.935,-0.429,-1.129,-1.129,0.549,73.333,7682.000,1.000
4.939,5.091,4.653,5.172,5.304,5.121,5.120,4.836,-0.030,0.933,-0.430,-1.038,-1.221,0.641,73.333,7683.000,1.000
6.690,6.852,6.476,7.045,7.138,7.033,7.002,6.652,-0.029,0.931,-0.427,-1.129,-1.526,0.732,73.333,7684.000,1.000
7.666,7.872,7.604,8.154,8.183,8.153,8.127,7.752,-0.028,0.929,-0.428,-1.099,-1.587,0.793,73.333,7685.000,1.000
7.541,7.813,7.651,8.119,8.075,8.116,8.100,7.760,-0.027,0.929,-0.429,-1.068,-1.617,0.854,73.333,7686.000,1.000
6.335,6.673,6.579,6.929,6.834,6.933,6.895,6.654,-0.025,0.928,-0.427,-1.099,-1.587,0.854,73.333,7687.000,1.000
4.175,4.561,4.489,4.724,4.629,4.745,4.654,4.561,-0.024,0.927,-0.430,-1.129,-1.801,1.007,73.333,7688.000,1.000
1.229,1.639,1.565,1.709,1.668,1.751,1.607,1.668,-0.024,0.927,-0.433,-1.007,-1.801,1.068,73.333,7689.000,1.000
-2.268,-1.863,-1.939,-1.853,-1.818,-1.796,-1.958,-1.784,-0.022,0.928,-0.432,-0.977,-1.801,1.038,73.333,7690.000,1.000
-5.982,-5.616,-5.678,-5.625,-5.530,-5.570,-5.697,-5.478,-0.023,0.929,-0.428,-1.007,-1.770,1.007,73.333,7691.000,1.000
-9.403,-9.120,-9.137,-9.110,-8.991,-9.076,-9.132,-8.923,-0.024,0.929,-0.429,-0.916,-1.709,1.007,73.333,7692.000,1.000
-11.954,-11.807,-11.725,-11.742,-11.634,-11.734,-11.731,-11.552,-0.027,0.930,-0.427,-0.946,-1.678,0.824,73.333,7693.000,1.000
-13.234,-13.269,-13.033,-13.123,-13.043,-13.126,-13.115,-12.963,-0.029,0.930,-0.426,-0.885,-1.648,0.732,73.333,7694.000,1.000
-13.259,-13.495,-13.097,-13.266,-13.202,-13.248,-13.273,-13.159,-0.027,0.930,-0.425,-0.977,-1.587,0.671,73.333,7695.000,1.000
-12.532,-12.952,-12.452,-12.670,-12.589,-12.594,-12.662,-12.612,-0.025,0.928,-0.427,-1.038,-1.617,0.641,73.333,7696.000,1.000
-11.823,-12.366,-11.876,-12.094,-11.974,-11.926,-12.029,-12.050,-0.021,0.930,-0.429,-1.038,-1.678,0.458,73.333,7697.000,1.000
-11.785,-12.353,-11.980,-12.173,-12.020,-11.883,-12.032,-12.097,-0.020,0.927,-0.433,-0.946,-1.648,0.336,73.333,7698.000,1.000
-12.613,-13.097,-12.905,-13.075,-12.920,-12.651,-12.881,-12.937,-0.019,0.929,-0.435,-0.916,-1.556,0.275,73.333,7699.000,1.000
-14.062,-14.392,-14.399,-14.545,-14.408,-14.016,-14.348,-14.349,-0.016,0.929,-0.431,-0.824,-1.495,0.214,73.333,7700.000,1.000
-15.722,-15.894,-16.079,-16.185,-16.053,-15.633,-16.026,-15.970,-0.016,0.929,-0.431,-0.793,-1.373,0.275,73.333,7701.000,1.000
-17.209,-17.256,-17.570,-17.613,-17.469,-17.157,-17.509,-17.434,-0.017,0.926,-0.430,-0.854,-1.129,0.214,73.333,7702.000,1.000
-18.258,-18.219,-18.593,-18.574,-18.411,-18.303,-18.510,-18.464,-0.016,0.927,-0.430,-0.793,-0.916,0.183,73.333,7703.000,1.000
-18.714,-18.628,-18.988,-18.938,-18.746,-18.857,-18.879,-18.887,-0.020,0.926,-0.429,-0.824,-0.854,0.214,73.333,7704.000,1.000
-18.491,-18.396,-18.683,-18.647,-18.410,-18.673,-18.553,-18.617,-0.022,0.923,-0.428,-0.763,-0.763,0.122,73.333,7705.000,1.000
-17.550,-17.470,-17.649,-17.674,-17.381,-17.681,-17.519,-17.634,-0.022,0.924,-0.424,-0.732,-0.580,0.061,73.333,7706.000,1.000
-15.859,-15.786,-15.852,-15.975,-15.635,-15.870,-15.769,-15.927,-0.022,0.925,-0.427,-0.671,-0.549,0.061,73.333,7707.000,1.000
-13.436,-13.346,-13.321,-13.558,-13.192,-13.312,-13.343,-13.510,-0.022,0.927,-0.426,-0.732,-0.458,0.031,73.333,7708.000,1.000
-10.390,-10.270,-10.206,-10.524,-10.168,-10.175,-10.360,-10.472,-0.019,0.932,-0.429,-0.702,-0.244,0.061,73.333,7709.000,1.000
-6.965,-6.816,-6.782,-7.096,-6.806,-6.729,-7.038,-7.034,-0.019,0.931,-0.431,-0.702,-0.305,0.122,73.333,7710.000,1.000
-3.551,-3.380,-3.434,-3.656,-3.494,-3.370,-3.717,-3.580,-0.019,0.931,-0.431,-0.793,-0.214,0.092,73.333,7711.000,1.000
-0.582,-0.402,-0.556,-0.642,-0.644,-0.515,-0.783,-0.540,-0.018,0.932,-0.426,-0.854,0.031,0.092,73.333,7712.000,1.000
1.622,1.781,1.580,1.615,1.458,1.544,1.464,1.760,-0.020,0.931,-0.429,-0.763,0.122,0.183,73.333,7713.000,1.000
2.973,3.065,2.916,3.019,2.757,2.747,2.918,3.209,-0.022,0.933,-0.429,-0.824,0.061,0.275,73.333,7714.000,1.000
3.597,3.574,3.571,3.686,3.376,3.250,3.650,3.896,-0.023,0.932,-0.432,-0.916,0.122,0.305,73.333,7715.000,1.000
3.728,3.575,3.749,3.840,3.536,3.314,3.836,4.027,-0.024,0.933,-0.431,-0.946,0.275,0.336,73.333,7716.000,1.000
3.658,3.421,3.712,3.773,3.516,3.250,3.741,3.900,-0.025,0.934,-0.428,-1.068,0.305,0.305,73.333,7717.000,1.000
3.651,3.417,3.717,3.752,3.555,3.321,3.651,3.811,-0.026,0.932,-0.427,-1.099,0.214,0.397,73.333,7718.000,1.000
3.857,3.705,3.936,3.930,3.766,3.660,3.772,3.955,-0.028,0.931,-0.427,-1.129,0.122,0.549,73.333,7719.000,1.000
4.233,4.185,4.337,4.255,4.079,4.176,4.108,4.310,-0.028,0.933,-0.428,-1.221,0.153,0.458,73.333,7720.000,1.000
4.505,4.512,4.634,4.447,4.240,4.546,4.378,4.576,-0.029,0.931,-0.429,-1.251,0.092,0.549,73.333,7721.000,1.000
4.315,4.283,4.434,4.161,3.943,4.387,4.179,4.345,-0.026,0.933,-0.426,-1.282,0.061,0.641,73.333,7722.000,1.000
3.444,3.294,3.489,3.206,3.009,3.491,3.253,3.369,-0.026,0.930,-0.427,-1.282,0.000,0.702,73.333,7723.000,1.000
1.994,1.706,1.905,1.703,1.551,1.980,1.700,1.761,-0.027,0.931,-0.429,-1.373,-0.061,0.580,73.333,7724.000,1.000
0.331,-0.046,0.101,0.024,-0.078,0.239,-0.083,-0.052,-0.025,0.932,-0.425,-1.434,-0.061,0.641,73.333,7725.000,1.000
-1.129,-1.518,-1.436,-1.426,-1.497,-1.297,-1.634,-1.589,-0.025,0.932,-0.427,-1.465,-0.122,0.610,73.333,7726.000,1.000
-2.055,-2.394,-2.334,-2.334,-2.404,-2.276,-2.588,-2.492,-0.027,0.932,-0.430,-1.556,-0.122,0.763,73.333,7727.000,1.000
-2.285,-2.546,-2.437,-2.544,-2.636,-2.520,-2.764,-2.619,-0.026,0.930,-0.428,-1.587,-0.061,0.732,73.333,7728.000,1.000
-1.803,-1.987,-1.787,-2.041,-2.152,-2.016,-2.154,-2.002,-0.027,0.929,-0.425,-1.526,-0.122,0.732,73.333,7729.000,1.000
-0.665,-0.798,-0.515,-0.890,-0.977,-0.834,-0.852,-0.754,-0.025,0.928,-0.425,-1.495,-0.183,0.763,73.333,7730.000,1.000
1.038,0.917,1.240,0.805,0.807,0.916,1.004,0.989,-0.025,0.928,-0.428,-1.465,-0.153,0.854,73.333,7731.000,1.000
3.170,3.028,3.342,2.920,3.050,3.087,3.248,3.092,-0.025,0.927,-0.429,-1.526,-0.214,0.824,73.333,7732.000,1.000
5.447,5.266,5.531,5.202,5.431,5.385,5.585,5.309,-0.025,0.927,-0.426,-1.404,-0.244,0.763,73.333,7733.000,1.000
7.442,7.231,7.423,7.260,7.507,7.394,7.588,7.264,-0.025,0.928,-0.429,-1.282,-0.244,0.671,73.333,7734.000,1.000
8.764,8.562,8.676,8.721,8.901,8.740,8.887,8.589,-0.027,0.928,-0.425,-1.129,-0.336,0.671,73.333,7735.000,1.000
9.227,9.071,9.120,9.360,9.420,9.240,9.313,9.072,-0.023,0.928,-0.424,-1.160,-0.366,0.702,73.333,7736.000,1.000
8.893,8.789,8.776,9.155,9.090,8.937,8.935,8.726,-0.023,0.929,-0.426,-1.068,-0.366,0.610,73.333,7737.000,1.000
7.979,7.907,7.811,8.246,8.093,8.023,7.964,7.747,-0.024,0.928,-0.428,-1.007,-0.366,0.641,73.333,7738.000,1.000
6.758,6.696,6.497,6.901,6.708,6.767,6.667,6.433,-0.024,0.929,-0.427,-0.977,-0.458,0.610,73.333,7739.000,1.000
5.456,5.404,5.117,5.424,5.225,5.416,5.270,5.073,-0.023,0.928,-0.426,-0.977,-0.397,0.549,73.333,7740.000,1.000
4.214,4.192,3.870,4.059,3.874,4.140,3.945,3.863,-0.022,0.927,-0.425,-0.977,-0.366,0.397,73.333,7741.000,1.000
3.186,3.218,2.924,3.035,2.871,3.111,2.910,2.971,-0.023,0.927,-0.428,-0.854,-0.305,0.458,73.333,7742.000,1.000
2.587,2.689,2.457,2.563,2.427,2.539,2.426,2.561,-0.022,0.928,-0.428,-0.793,-0.458,0.458,73.333,7743.000,1.000
2.621,2.781,2.611,2.760,2.669,2.600,2.665,2.743,-0.021,0.930,-0.427,-0.702,-0.458,0.488,73.333,7744.000,1.000
3.305,3.490,3.355,3.550,3.524,3.287,3.556,3.477,-0.020,0.928,-0.430,-0.702,-0.366,0.458,73.333,7745.000,1.000
4.414,4.581,4.441,4.662,4.700,4.373,4.784,4.539,-0.023,0.930,-0.428,-0.702,-0.305,0.427,73.333,7746.000,1.000
5.618,5.721,5.545,5.778,5.847,5.539,5.960,5.632,-0.024,0.929,-0.429,-0.671,-0.336,0.519,73.333,7747.000,1.000
6.560,6.562,6.347,6.583,6.635,6.433,6.729,6.437,-0.025,0.930,-0.429,-0.580,-0.305,0.458,73.333,7748.000,1.000
6.907,6.781,6.545,6.799,6.790,6.707,6.811,6.641,-0.025,0.930,-0.427,-0.610,-0.275,0.397,73.333,7749.000,1.000
6.459,6.198,5.970,6.278,6.179,6.166,6.096,6.066,-0.023,0.931,-0.427,-0.549,-0.244,0.336,73.333,7750.000,1.000
5.268,4.904,4.706,5.106,4.910,4.901,4.727,4.799,-0.021,0.932,-0.423,-0.519,-0.275,0.336,73.333,7751.000,1.000
3.651,3.256,3.105,3.600,3.317,3.275,3.073,3.195,-0.021,0.932,-0.426,-0.519,-0.275,0.397,73.333,7752.000,1.000
2.006,1.661,1.584,2.114,1.777,1.707,1.540,1.667,-0.022,0.932,-0.427,-0.488,-0.336,0.427,73.333,7753.000,1.000
0.654,0.415,0.441,0.916,0.567,0.517,0.412,0.507,-0.023,0.930,-0.427,-0.458,-0.275,0.366,73.333,7754.000,1.000
-0.223,-0.350,-0.211,0.136,-0.176,-0.152,-0.216,-0.170,-0.023,0.930,-0.430,-0.488,-0.275,0.427,73.333,7755.000,1.000
-0.623,-0.686,-0.459,-0.267,-0.485,-0.370,-0.444,-0.437,-0.023,0.930,-0.433,-0.549,-0.366,0.336,73.333,7756.000,1.000
-0.678,-0.738,-0.490,-0.427,-0.498,-0.335,-0.457,-0.467,-0.024,0.930,-0.427,-0.519,-0.275,0.244,73.333,7757.000,1.000
-0.581,-0.666,-0.486,-0.487,-0.397,-0.262,-0.420,-0.432,-0.023,0.930,-0.428,-0.488,-0.244,0.336,73.333,7758.000,1.000
-0.484,-0.578,-0.531,-0.534,-0.319,-0.282,-0.412,-0.432,-0.023,0.930,-0.428,-0.610,-0.397,0.336,73.333,7759.000,1.000
-0.465,-0.539,-0.616,-0.600,-0.328,-0.421,-0.440,-0.494,-0.023,0.931,-0.428,-0.519,-0.397,0.366,73.333,7760.000,1.000
-0.541,-0.574,-0.681,-0.679,-0.428,-0.634,-0.487,-0.588,-0.024,0.930,-0.427,-0.549,-0.549,0.397,73.333,7761.000,1.000
-0.635,-0.612,-0.621,-0.685,-0.523,-0.796,-0.491,-0.605,-0.027,0.930,-0.425,-0.610,-0.519,0.458,73.333,7762.000,1.000
-0.651,-0.572,-0.401,-0.562,-0.528,-0.814,-0.417,-0.470,-0.023,0.931,-0.425,-0.488,-0.519,0.427,73.333,7763.000,1.000
-0.573,-0.459,-0.119,-0.365,-0.457,-0.696,-0.302,-0.252,-0.025,0.931,-0.426,-0.488,-0.549,0.336,73.333,7764.000,1.000
-0.418,-0.304,0.123,-0.162,-0.344,-0.476,-0.166,-0.059,-0.024,0.931,-0.424,-0.549,-0.488,0.336,73.333,7765.000,1.000
-0.192,-0.113,0.314,0.039,-0.181,-0.172,0.023,0.092,-0.023,0.933,-0.425,-0.671,-0.519,0.397,73.333,7766.000,1.000
0.006,0.033,0.425,0.169,-0.023,0.104,0.207,0.181,-0.023,0.932,-0.426,-0.824,-0.580,0.366,73.333,7767.000,1.000
-0.077,-0.097,0.279,-0.001,-0.093,0.076,0.144,0.040,-0.023,0.934,-0.428,-0.885,-0.549,0.336,73.333,7768.000,1.000
-0.600,-0.648,-0.253,-0.606,-0.561,-0.432,-0.348,-0.460,-0.024,0.931,-0.424,-0.916,-0.549,0.366,73.333,7769.000,1.000
-1.406,-1.459,-1.034,-1.471,-1.312,-1.265,-1.146,-1.194,-0.022,0.930,-0.428,-0.885,-0.580,0.458,73.333,7770.000,1.000
-2.191,-2.229,-1.803,-2.285,-2.081,-2.104,-1.969,-1.917,-0.023,0.929,-0.426,-0.946,-0.610,0.580,73.333,7771.000,1.000
-2.791,-2.799,-2.427,-2.898,-2.717,-2.763,-2.655,-2.515,-0.024,0.930,-0.426,-0.946,-0.671,0.580,73.333,7772.000,1.000
-3.281,-3.250,-2.973,-3.394,-3.266,-3.294,-3.249,-3.064,-0.024,0.930,-0.428,-1.007,-0.641,0.549,73.333,7773.000,1.000
-3.783,-3.696,-3.522,-3.882,-3.785,-3.797,-3.818,-3.642,-0.023,0.929,-0.428,-0.946,-0.610,0.580,73.333,7774.000,1.000
-4.275,-4.106,-4.010,-4.326,-4.213,-4.237,-4.299,-4.172,-0.023,0.928,-0.426,-1.038,-0.580,0.519,73.333,7775.000,1.000
-4.628,-4.365,-4.304,-4.609,-4.447,-4.498,-4.576,-4.509,-0.024,0.931,-0.427,-1.007,-0.580,0.458,73.333,7776.000,1.000
-4.709,-4.390,-4.322,-4.640,-4.438,-4.502,-4.582,-4.570,-0.022,0.929,-0.428,-1.007,-0.580,0.488,73.333,7777.000,1.000
-4.486,-4.201,-4.101,-4.406,-4.203,-4.271,-4.337,-4.376,-0.022,0.928,-0.424,-1.038,-0.610,0.549,73.333,7778.000,1.000
-4.019,-3.850,-3.728,-3.941,-3.782,-3.876,-3.902,-3.977,-0.022,0.928,-0.425,-1.068,-0.549,0.458,73.333,7779.000,1.000
-3.421,-3.375,-3.282,-3.317,-3.232,-3.390,-3.354,-3.420,-0.023,0.930,-0.428,-0.946,-0.641,0.549,73.333,7780.000,1.000
-2.855,-2.852,-2.851,-2.682,-2.669,-2.912,-2.807,-2.812,-0.024,0.930,-0.424,-0.885,-0.519,0.580,73.333,7781.000,1.000
-2.435,-2.370,-2.499,-2.192,-2.215,-2.519,-2.361,-2.297,-0.025,0.931,-0.426,-0.885,-0.580,0.519,73.333,7782.000,1.000
-2.161,-1.970,-2.235,-1.900,-1.909,-2.226,-2.042,-1.975,-0.023,0.933,-0.428,-0.977,-0.580,0.519,73.333,7783.000,1.000
-1.921,-1.608,-1.996,-1.726,-1.683,-1.976,-1.794,-1.820,-0.023,0.930,-0.430,-0.916,-0.519,0.580,73.333,7784.000,1.000
-1.614,-1.246,-1.725,-1.548,-1.459,-1.718,-1.548,-1.719,-0.024,0.930,-0.427,-1.007,-0.641,0.519,73.333,7785.000,1.000
-1.256,-0.923,-1.441,-1.324,-1.248,-1.473,-1.297,-1.590,-0.023,0.931,-0.428,-1.007,-0.549,0.519,73.333,7786.000,1.000
-0.855,-0.620,-1.123,-0.999,-1.000,-1.203,-0.986,-1.323,-0.021,0.931,-0.429,-1.007,-0.580,0.427,73.333,7787.000,1.000
-0.277,-0.140,-0.601,-0.415,-0.503,-0.704,-0.439,-0.715,-0.022,0.930,-0.432,-0.977,-0.610,0.397,73.333,7788.000,1.000
0.683,0.768,0.353,0.608,0.494,0.270,0.550,0.418,-0.023,0.931,-0.430,-0.854,-0.610,0.275,73.333,7789.000,1.000
2.065,2.151,1.771,2.045,2.006,1.746,1.985,2.023,-0.023,0.932,-0.427,-0.793,-0.671,0.305,73.333,7790.000,1.000
3.580,3.698,3.333,3.564,3.669,3.400,3.540,3.703,-0.023,0.930,-0.428,-0.854,-0.610,0.244,73.333,7791.000,1.000
4.715,4.863,4.504,4.670,4.899,4.700,4.702,4.900,-0.020,0.931,-0.429,-0.885,-0.488,0.214,73.333,7792.000,1.000
5.001,5.160,4.829,4.942,5.195,5.166,5.035,5.167,-0.023,0.932,-0.429,-0.946,-0.519,0.366,73.333,7793.000,1.000
4.317,4.462,4.212,4.278,4.441,4.632,4.419,4.425,-0.022,0.931,-0.429,-0.916,-0.488,0.397,73.333,7794.000,1.000
2.930,3.045,2.922,2.925,2.943,3.308,3.077,2.963,-0.023,0.931,-0.431,-0.946,-0.458,0.397,73.333,7795.000,1.000
1.259,1.344,1.353,1.272,1.187,1.584,1.391,1.217,-0.021,0.929,-0.429,-0.946,-0.610,0.397,73.333,7796.000,1.000
-0.292,-0.230,-0.144,-0.297,-0.375,-0.114,-0.228,-0.394,-0.021,0.931,-0.428,-0.916,-0.519,0.336,73.333,7797.000,1.000
-1.440,-1.407,-1.328,-1.497,-1.474,-1.439,-1.458,-1.564,-0.022,0.931,-0.428,-0.854,-0.580,0.336,73.333,7798.000,1.000
-2.093,-2.100,-2.089,-2.202,-2.070,-2.226,-2.160,-2.182,-0.021,0.929,-0.428,-0.885,-0.580,0.397,73.333,7799.000,1.000
-2.364,-2.396,-2.457,-2.470,-2.306,-2.532,-2.409,-2.349,-0.022,0.929,-0.425,-0.885,-0.519,0.488,73.333,7800.000,1.000
-2.459,-2.471,-2.574,-2.481,-2.387,-2.557,-2.420,-2.299,-0.022,0.930,-0.425,-0.885,-0.519,0.519,73.333,7801.000,1.000
-2.443,-2.402,-2.524,-2.338,-2.377,-2.414,-2.316,-2.154,-0.024,0.929,-0.429,-0.885,-0.519,0.488,73.333,7802.000,1.000
-2.180,-2.090,-2.234,-1.982,-2.140,-2.039,-2.029,-1.824,-0.022,0.929,-0.430,-0.793,-0.488,0.458,73.333,7803.000,1.000
-1.492,-1.384,-1.568,-1.289,-1.486,-1.301,-1.399,-1.139,-0.023,0.926,-0.432,-0.763,-0.488,0.427,73.333,7804.000,1.000
-0.352,-0.240,-0.479,-0.222,-0.365,-0.166,-0.356,-0.030,-0.021,0.929,-0.431,-0.702,-0.458,0.549,73.333,7805.000,1.000
1.029,1.159,0.871,1.066,1.025,1.183,0.959,1.343,-0.022,0.928,-0.430,-0.671,-0.366,0.580,73.333,7806.000,1.000
2.258,2.428,2.132,2.235,2.287,2.373,2.200,2.598,-0.020,0.928,-0.431,-0.732,-0.366,0.549,73.333,7807.000,1.000
2.890,3.116,2.860,2.852,2.966,2.977,2.908,3.260,-0.019,0.927,-0.430,-0.641,-0.336,0.427,73.333,7808.000,1.000
2.688,2.965,2.765,2.647,2.795,2.771,2.774,3.047,-0.019,0.928,-0.430,-0.580,-0.183,0.580,73.333,7809.000,1.000
1.761,2.055,1.902,1.700,1.854,1.867,1.860,2.058,-0.019,0.929,-0.429,-0.610,-0.122,0.610,73.333,7810.000,1.000
0.473,0.733,0.622,0.383,0.503,0.617,0.531,0.680,-0.019,0.929,-0.428,-0.549,-0.122,0.580,73.333,7811.000,1.000
-0.706,-0.522,-0.589,-0.808,-0.755,-0.537,-0.712,-0.588,-0.021,0.931,-0.427,-0.519,-0.061,0.580,73.333,7812.000,1.000
-1.409,-1.317,-1.336,-1.487,-1.513,-1.256,-1.476,-1.351,-0.021,0.930,-0.427,-0.610,-0.092,0.458,73.333,7813.000,1.000
-1.527,-1.521,-1.490,-1.552,-1.631,-1.432,-1.621,-1.485,-0.022,0.930,-0.429,-0.519,-0.092,0.397,73.333,7814.000,1.000
-1.189,-1.243,-1.158,-1.153,-1.226,-1.159,-1.246,-1.109,-0.021,0.930,-0.427,-0.671,-0.031,0.336,73.333,7815.000,1.000
-0.603,-0.686,-0.541,-0.528,-0.522,-0.608,-0.562,-0.456,-0.022,0.930,-0.429,-0.702,0.000,0.244,73.333,7816.000,1.000
0.087,-0.009,0.194,0.152,0.288,0.075,0.226,0.274,-0.024,0.931,-0.427,-0.610,-0.031,0.183,73.333,7817.000,1.000
0.748,0.641,0.892,0.756,1.007,0.742,0.935,0.909,-0.024,0.929,-0.428,-0.702,-0.122,0.122,73.333,7818.000,1.000
1.197,1.073,1.369,1.145,1.422,1.210,1.390,1.290,-0.026,0.927,-0.430,-0.702,-0.153,0.122,73.333,7819.000,1.000
1.272,1.136,1.464,1.211,1.397,1.321,1.484,1.315,-0.024,0.931,-0.431,-0.793,-0.214,0.031,73.333,7820.000,1.000
0.964,0.834,1.161,0.961,0.982,1.056,1.235,1.017,-0.023,0.929,-0.431,-0.793,-0.183,-0.031,73.333,7821.000,1.000
0.486,0.386,0.676,0.569,0.442,0.614,0.833,0.606,-0.024,0.929,-0.431,-0.824,-0.275,0.000,73.333,7822.000,1.000
0.101,0.044,0.293,0.237,0.059,0.244,0.496,0.310,-0.022,0.929,-0.429,-0.885,-0.275,-0.092,73.333,7823.000,1.000
-0.070,-0.076,0.156,0.052,-0.059,0.064,0.324,0.208,-0.022,0.929,-0.427,-0.854,-0.366,-0.061,73.333,7824.000,1.000
-0.035,0.013,0.239,0.012,0.048,0.074,0.309,0.260,-0.022,0.930,-0.430,-1.007,-0.427,-0.153,73.333,7825.000,1.000
0.125,0.223,0.420,0.079,0.270,0.205,0.387,0.378,-0.021,0.931,-0.428,-0.885,-0.366,-0.122,73.333,7826.000,1.000
0.289,0.418,0.554,0.192,0.474,0.355,0.472,0.475,-0.022,0.931,-0.430,-0.824,-0.488,-0.031,73.333,7827.000,1.000
0.323,0.458,0.526,0.265,0.511,0.410,0.468,0.461,-0.022,0.932,-0.429,-0.854,-0.458,-0.092,73.333,7828.000,1.000
0.223,0.329,0.361,0.286,0.365,0.357,0.369,0.344,-0.023,0.932,-0.431,-0.946,-0.580,-0.061,73.333,7829.000,1.000
0.137,0.175,0.211,0.334,0.193,0.316,0.289,0.249,-0.024,0.931,-0.428,-1.007,-0.610,0.061,73.333,7830.000,1.000
0.127,0.069,0.124,0.384,0.092,0.328,0.245,0.204,-0.023,0.931,-0.426,-1.129,-0.549,0.122,73.333,7831.000,1.000
0.046,-0.083,-0.030,0.274,-0.033,0.261,0.093,0.076,-0.025,0.933,-0.428,-1.221,-0.702,0.153,73.333,7832.000,1.000
-0.298,-0.406,-0.406,-0.123,-0.351,-0.058,-0.313,-0.273,-0.024,0.931,-0.426,-1.251,-0.732,0.153,73.333,7833.000,1.000
-0.939,-0.931,-1.036,-0.777,-0.932,-0.676,-0.973,-0.858,-0.025,0.932,-0.428,-1.343,-0.641,0.244,73.333,7834.000,1.000
-1.759,-1.610,-1.847,-1.581,-1.722,-1.509,-1.782,-1.613,-0.028,0.933,-0.427,-1.312,-0.671,0.244,73.333,7835.000,1.000
-2.607,-2.371,-2.742,-2.453,-2.602,-2.421,-2.631,-2.469,-0.029,0.930,-0.426,-1.312,-0.916,0.244,73.333,7836.000,1.000
-3.372,-3.139,-3.623,-3.326,-3.446,-3.275,-3.432,-3.350,-0.029,0.929,-0.425,-1.312,-0.916,0.305,73.333,7837.000,1.000
-4.071,-3.919,-4.469,-4.193,-4.229,-4.038,-4.186,-4.228,-0.026,0.931,-0.428,-1.343,-1.007,0.336,73.333,7838.000,1.000
-4.762,-4.730,-5.267,-5.039,-4.964,-4.730,-4.918,-5.070,-0.026,0.932,-0.429,-1.312,-1.068,0.366,73.333,7839.000,1.000
-5.333,-5.409,-5.861,-5.707,-5.530,-5.250,-5.507,-5.715,-0.024,0.930,-0.427,-1.312,-1.160,0.427,73.333,7840.000,1.000
-5.556,-5.698,-6.028,-5.972,-5.732,-5.418,-5.749,-5.950,-0.023,0.929,-0.426,-1.343,-1.221,0.366,73.333,7841.000,1.000
-5.314,-5.489,-5.691,-5.746,-5.503,-5.176,-5.561,-5.718,-0.021,0.930,-0.426,-1.251,-1.129,0.397,73.333,7842.000,1.000
-4.718,-4.915,-4.991,-5.143,-4.957,-4.654,-5.059,-5.172,-0.020,0.930,-0.427,-1.373,-1.190,0.610,73.333,7843.000,1.000
-3.973,-4.195,-4.138,-4.356,-4.258,-4.028,-4.414,-4.508,-0.019,0.930,-0.427,-1.312,-1.190,0.641,73.333,7844.000,1.000
-3.248,-3.500,-3.306,-3.555,-3.548,-3.433,-3.744,-3.850,-0.022,0.930,-0.430,-1.251,-1.160,0.519,73.333,7845.000,1.000
-2.719,-2.991,-2.678,-2.934,-3.007,-3.026,-3.185,-3.325,-0.024,0.930,-0.427,-1.221,-1.160,0.488,73.333,7846.000,1.000
-2.501,-2.777,-2.385,-2.633,-2.770,-2.907,-2.863,-3.034,-0.023,0.927,-0.427,-1.129,-1.282,0.549,73.333,7847.000,1.000
-2.527,-2.813,-2.387,-2.613,-2.795,-3.000,-2.776,-2.957,-0.023,0.930,-0.425,-1.129,-1.160,0.549,73.333,7848.000,1.000
-2.575,-2.901,-2.477,-2.659,-2.870,-3.074,-2.767,-2.932,-0.026,0.932,-0.426,-1.221,-1.160,0.519,73.333,7849.000,1.000
-2.452,-2.844,-2.450,-2.552,-2.800,-2.929,-2.659,-2.788,-0.025,0.931,-0.429,-1.129,-1.099,0.336,73.333,7850.000,1.000
-2.165,-2.613,-2.275,-2.263,-2.567,-2.574,-2.426,-2.500,-0.023,0.929,-0.426,-1.129,-1.160,0.366,73.333,7851.000,1.000
-1.815,-2.280,-2.033,-1.904,-2.253,-2.138,-2.151,-2.144,-0.023,0.930,-0.427,-1.221,-1.190,0.336,73.333,7852.000,1.000
-1.464,-1.890,-1.787,-1.578,-1.902,-1.717,-1.896,-1.786,-0.021,0.931,-0.425,-1.190,-1.221,0.305,73.333,7853.000,1.000
-1.104,-1.438,-1.517,-1.294,-1.498,-1.320,-1.638,-1.434,-0.022,0.931,-0.430,-1.099,-1.068,0.336,73.333,7854.000,1.000
-0.696,-0.920,-1.149,-0.975,-1.004,-0.898,-1.296,-1.043,-0.020,0.932,-0.426,-1.129,-1.068,0.305,73.333,7855.000,1.000
-0.205,-0.346,-0.614,-0.519,-0.399,-0.393,-0.787,-0.560,-0.020,0.931,-0.424,-1.068,-0.916,0.305,73.333,7856.000,1.000
0.397,0.291,0.117,0.136,0.323,0.236,-0.052,0.057,-0.019,0.930,-0.427,-1.099,-0.854,0.305,73.333,7857.000,1.000
1.030,0.923,0.931,0.892,1.071,0.909,0.807,0.740,-0.020,0.931,-0.428,-1.129,-0.732,0.336,73.333,7858.000,1.000
1.485,1.365,1.561,1.482,1.631,1.420,1.502,1.268,-0.023,0.927,-0.429,-1.190,-0.702,0.336,73.333,7859.000,1.000
1.560,1.433,1.745,1.653,1.779,1.561,1.720,1.401,-0.024,0.926,-0.430,-1.160,-0.641,0.397,73.333,7860.000,1.000
1.142,1.032,1.355,1.308,1.374,1.220,1.304,1.018,-0.023,0.926,-0.429,-1.007,-0.641,0.427,73.333,7861.000,1.000
0.305,0.235,0.490,0.566,0.481,0.466,0.373,0.212,-0.023,0.926,-0.427,-1.007,-0.610,0.427,73.333,7862.000,1.000
-0.706,-0.729,-0.569,-0.323,-0.626,-0.481,-0.740,-0.749,-0.024,0.925,-0.428,-0.977,-0.488,0.488,73.333,7863.000,1.000
-1.583,-1.576,-1.497,-1.118,-1.599,-1.348,-1.666,-1.567,-0.024,0.925,-0.427,-0.885,-0.458,0.336,73.333,7864.000,1.000
-2.046,-2.054,-2.032,-1.624,-2.136,-1.889,-2.128,-1.997,-0.023,0.929,-0.428,-0.916,-0.427,0.336,73.333,7865.000,1.000
-1.917,-1.998,-2.008,-1.678,-2.060,-1.923,-1.984,-1.894,-0.023,0.932,-0.426,-0.793,-0.366,0.336,73.333,7866.000,1.000
-1.125,-1.304,-1.335,-1.140,-1.308,-1.331,-1.200,-1.186,-0.023,0.932,-0.427,-0.824,-0.397,0.275,73.333,7867.000,1.000
0.245,0.005,-0.063,0.008,0.033,-0.128,0.128,0.076,-0.024,0.930,-0.430,-0.793,-0.366,0.244,73.333,7868.000,1.000
1.963,1.717,1.601,1.602,1.728,1.491,1.769,1.698,-0.028,0.932,-0.432,-0.793,-0.427,0.275,73.333,7869.000,1.000
3.774,3.557,3.407,3.392,3.522,3.282,3.489,3.453,-0.028,0.929,-0.431,-0.763,-0.336,0.275,73.333,7870.000,1.000
5.477,5.302,5.167,5.159,5.231,5.058,5.141,5.170,-0.028,0.929,-0.430,-0.793,-0.458,0.366,73.333,7871.000,1.000
6.954,6.837,6.776,6.772,6.755,6.704,6.662,6.751,-0.026,0.929,-0.429,-0.854,-0.488,0.275,73.333,7872.000,1.000
8.126,8.086,8.146,8.136,8.021,8.106,7.982,8.106,-0.024,0.931,-0.427,-0.824,-0.366,0.397,73.333,7873.000,1.000
8.875,8.932,9.109,9.092,8.904,9.083,8.934,9.063,-0.018,0.929,-0.429,-0.824,-0.244,0.397,73.333,7874.000,1.000
9.014,9.180,9.409,9.384,9.195,9.382,9.235,9.361,-0.014,0.929,-0.428,-0.763,-0.183,0.488,73.333,7875.000,1.000
8.348,8.616,8.793,8.757,8.672,8.765,8.606,8.740,-0.016,0.929,-0.431,-0.763,-0.122,0.671,73.333,7876.000,1.000
6.790,7.127,7.174,7.115,7.231,7.145,6.963,7.110,-0.014,0.926,-0.429,-0.702,0.031,0.732,73.333,7877.000,1.000
4.370,4.736,4.638,4.534,4.893,4.601,4.418,4.567,-0.014,0.929,-0.426,-0.732,0.244,0.824,73.333,7878.000,1.000
1.263,1.627,1.432,1.258,1.818,1.369,1.250,1.369,-0.016,0.931,-0.427,-0.732,0.397,0.885,73.333,7879.000,1.000
-2.141,-1.782,-2.009,-2.258,-1.608,-2.109,-2.095,-2.045,-0.019,0.932,-0.424,-0.763,0.458,0.916,73.333,7880.000,1.000
-5.330,-4.962,-5.166,-5.463,-4.845,-5.303,-5.126,-5.160,-0.020,0.933,-0.426,-0.793,0.549,0.854,73.333,7881.000,1.000
-7.793,-7.430,-7.564,-7.873,-7.361,-7.731,-7.425,-7.519,-0.021,0.936,-0.430,-0.824,0.671,0.763,73.333,7882.000,1.000
-9.149,-8.848,-8.880,-9.190,-8.784,-9.063,-8.717,-8.824,-0.021,0.936,-0.427,-0.916,0.641,0.824,73.333,7883.000,1.000
-9.226,-9.065,-9.008,-9.330,-8.975,-9.168,-8.905,-8.974,-0.023,0.936,-0.427,-1.007,0.702,0.702,73.333,7884.000,1.000
-8.106,-8.135,-8.055,-8.389,-8.022,-8.131,-8.069,-8.051,-0.026,0.936,-0.427,-1.068,0.641,0.671,73.333,7885.000,1.000
-6.090,-6.303,-6.260,-6.575,-6.185,-6.218,-6.399,-6.259,-0.031,0.937,-0.425,-1.190,0.610,0.519,73.333,7886.000,1.000
-3.543,-3.867,-3.872,-4.118,-3.764,-3.742,-4.091,-3.837,-0.035,0.936,-0.421,-1.312,0.427,0.275,73.333,7887.000,1.000
-0.831,-1.147,-1.179,-1.316,-1.079,-1.026,-1.409,-1.090,-0.040,0.933,-0.425,-1.251,0.122,0.031,73.333,7888.000,1.000
1.636,1.445,1.400,1.390,1.481,1.534,1.213,1.536,-0.043,0.932,-0.425,-1.251,-0.092,-0.031,73.333,7889.000,1.000
3.390,3.390,3.347,3.454,3.425,3.438,3.209,3.491,-0.040,0.936,-0.428,-1.373,-0.366,-0.214,73.333,7890.000,1.000
3.990,4.180,4.169,4.353,4.245,4.174,4.036,4.254,-0.037,0.932,-0.427,-1.343,-0.549,-0.427,73.333,7891.000,1.000
3.306,3.631,3.681,3.876,3.725,3.537,3.494,3.639,-0.032,0.932,-0.430,-1.312,-0.793,-0.519,73.333,7892.000,1.000
1.696,2.082,2.193,2.338,2.179,1.875,1.934,1.992,-0.029,0.928,-0.428,-1.282,-1.038,-0.519,73.333,7893.000,1.000
-0.057,0.333,0.468,0.548,0.402,0.030,0.184,0.127,-0.028,0.927,-0.428,-1.190,-1.099,-0.610,73.333,7894.000,1.000
-1.023,-0.666,-0.561,-0.503,-0.644,-0.995,-0.791,-0.972,-0.025,0.927,-0.427,-1.160,-1.221,-0.427,73.333,7895.000,1.000
-0.579,-0.278,-0.250,-0.160,-0.311,-0.540,-0.367,-0.643,-0.023,0.928,-0.428,-1.068,-1.221,-0.305,73.333,7896.000,1.000
1.239,1.463,1.392,1.521,1.370,1.341,1.391,1.097,-0.022,0.929,-0.427,-1.068,-1.190,-0.214,73.333,7897.000,1.000
3.689,3.834,3.669,3.806,3.680,3.866,3.757,3.522,-0.020,0.931,-0.424,-1.129,-1.190,-0.031,73.333,7898.000,1.000
5.787,5.884,5.666,5.774,5.677,6.015,5.818,5.666,-0.021,0.933,-0.425,-1.160,-1.099,0.183,73.333,7899.000,1.000
6.940,7.038,6.835,6.891,6.795,7.174,7.043,6.931,-0.022,0.935,-0.427,-1.129,-1.190,0.244,73.333,7900.000,1.000
7.105,7.238,7.106,7.112,6.981,7.301,7.369,7.235,-0.020,0.936,-0.427,-1.190,-1.129,0.458,73.333,7901.000,1.000
6.483,6.645,6.606,6.592,6.401,6.627,6.927,6.728,-0.021,0.936,-0.427,-1.373,-1.038,0.610,73.333,7902.000,1.000
5.188,5.339,5.384,5.396,5.139,5.296,5.747,5.483,-0.020,0.934,-0.423,-1.434,-1.068,0.793,73.333,7903.000,1.000
3.199,3.303,3.408,3.481,3.162,3.306,3.761,3.483,-0.021,0.935,-0.422,-1.373,-0.946,0.885,73.333,7904.000,1.000
0.534,0.586,0.731,0.868,0.507,0.677,1.009,0.791,-0.020,0.931,-0.423,-1.465,-0.916,1.007,73.333,7905.000,1.000
-2.592,-2.575,-2.399,-2.227,-2.589,-2.398,-2.234,-2.342,-0.022,0.932,-0.423,-1.556,-0.854,1.160,73.333,7906.000,1.000
-5.674,-5.676,-5.481,-5.299,-5.626,-5.454,-5.414,-5.424,-0.021,0.932,-0.426,-1.556,-0.885,1.221,73.333,7907.000,1.000
-8.046,-8.053,-7.868,-7.677,-7.963,-7.844,-7.853,-7.815,-0.021,0.930,-0.425,-1.648,-0.732,1.312,73.333,7908.000,1.000
-9.174,-9.176,-9.023,-8.811,-9.088,-9.029,-9.021,-8.979,-0.020,0.929,-0.424,-1.648,-0.702,1.282,73.333,7909.000,1.000
-8.880,-8.893,-8.760,-8.543,-8.843,-8.825,-8.761,-8.720,-0.018,0.928,-0.421,-1.526,-0.671,1.221,73.333,7910.000,1.000
-7.357,-7.418,-7.272,-7.112,-7.419,-7.410,-7.279,-7.229,-0.018,0.926,-0.425,-1.556,-0.519,1.221,73.333,7911.000,1.000
-4.932,-5.081,-4.904,-4.881,-5.113,-5.097,-4.910,-4.859,-0.018,0.925,-0.423,-1.465,-0.397,1.099,73.333,7912.000,1.000
-1.977,-2.227,-2.031,-2.176,-2.243,-2.228,-2.016,-1.993,-0.017,0.926,-0.423,-1.404,-0.275,1.038,73.333,7913.000,1.000
1.054,0.733,0.917,0.661,0.774,0.783,0.980,0.959,-0.015,0.926,-0.427,-1.434,-0.305,1.007,73.333,7914.000,1.000
3.670,3.351,3.487,3.230,3.447,3.468,3.631,3.573,-0.017,0.926,-0.426,-1.434,-0.092,0.854,73.333,7915.000,1.000
5.495,5.254,5.332,5.158,5.368,5.416,5.580,5.503,-0.017,0.925,-0.426,-1.373,0.000,0.702,73.333,7916.000,1.000
6.440,6.319,6.369,6.289,6.405,6.464,6.708,6.637,-0.017,0.925,-0.424,-1.312,0.092,0.610,73.333,7917.000,1.000
6.658,6.650,6.725,6.684,6.670,6.699,7.090,7.063,-0.017,0.926,-0.424,-1.282,0.183,0.519,73.333,7918.000,1.000
6.358,6.404,6.551,6.486,6.347,6.315,6.857,6.901,-0.017,0.928,-0.425,-1.221,0.275,0.458,73.333,7919.000,1.000
5.751,5.773,6.003,5.883,5.659,5.568,6.177,6.295,-0.017,0.926,-0.425,-1.251,0.427,0.366,73.333,7920.000,1.000
5.055,5.004,5.274,5.123,4.876,4.754,5.299,5.461,-0.019,0.927,-0.423,-1.251,0.519,0.214,73.333,7921.000,1.000
4.532,4.411,4.644,4.514,4.320,4.196,4.570,4.721,-0.019,0.927,-0.427,-1.160,0.763,0.122,73.333,7922.000,1.000
4.563,4.408,4.540,4.456,4.390,4.284,4.456,4.538,-0.021,0.930,-0.424,-1.099,0.793,0.000,73.333,7923.000,1.000
5.645,5.490,5.510,5.462,5.558,5.472,5.502,5.468,-0.020,0.932,-0.423,-1.068,0.763,-0.031,73.333,7924.000,1.000
8.098,7.961,7.897,7.873,8.097,8.023,8.024,7.854,-0.021,0.933,-0.425,-1.068,0.702,0.000,73.333,7925.000,1.000
11.632,11.535,11.408,11.438,11.679,11.629,11.698,11.403,-0.022,0.932,-0.422,-1.160,0.610,0.000,73.333,7926.000,1.000
15.358,15.333,15.144,15.287,15.404,15.416,15.566,15.217,-0.022,0.933,-0.425,-1.099,0.732,-0.122,73.333,7927.000,1.000
18.171,18.244,17.992,18.286,18.180,18.295,18.462,18.162,-0.024,0.933,-0.425,-1.038,0.732,-0.092,73.333,7928.000,1.000
19.187,19.350,19.063,19.472,19.144,19.366,19.470,19.291,-0.024,0.933,-0.423,-1.038,0.671,-0.061,73.333,7929.000,1.000
18.050,18.264,17.990,18.416,17.963,18.248,18.253,18.178,-0.026,0.935,-0.423,-1.038,0.549,-0.061,73.333,7930.000,1.000
15.020,15.239,15.016,15.358,14.907,15.184,15.104,15.064,-0.030,0.936,-0.424,-0.916,0.458,-0.061,73.333,7931.000,1.000
10.848,11.055,10.879,11.104,10.726,10.958,10.821,10.755,-0.027,0.936,-0.425,-1.007,0.488,-0.031,73.333,7932.000,1.000
6.470,6.681,6.507,6.668,6.357,6.553,6.386,6.278,-0.028,0.934,-0.425,-1.038,0.336,0.000,73.333,7933.000,1.000
2.771,3.011,2.778,2.972,2.691,2.867,2.710,2.584,-0.027,0.933,-0.426,-0.946,0.153,0.122,73.333,7934.000,1.000
0.485,0.758,0.437,0.729,0.461,0.611,0.513,0.412,-0.030,0.934,-0.430,-0.854,0.122,0.275,73.333,7935.000,1.000
-0.018,0.262,-0.109,0.260,0.022,0.123,0.117,0.077,-0.029,0.934,-0.427,-0.824,-0.061,0.336,73.333,7936.000,1.000
1.100,1.340,1.004,1.355,1.198,1.222,1.301,1.332,-0.028,0.933,-0.427,-0.610,-0.153,0.427,73.333,7937.000,1.000
3.185,3.339,3.116,3.337,3.331,3.247,3.365,3.463,-0.027,0.934,-0.429,-0.732,-0.305,0.458,73.333,7938.000,1.000
5.343,5.387,5.298,5.323,5.527,5.304,5.413,5.570,-0.026,0.932,-0.429,-0.702,-0.397,0.580,73.333,7939.000,1.000
6.752,6.692,6.704,6.551,6.960,6.594,6.684,6.879,-0.027,0.931,-0.432,-0.549,-0.549,0.671,73.333,7940.000,1.000
6.878,6.743,6.800,6.559,7.080,6.627,6.716,6.909,-0.026,0.931,-0.429,-0.549,-0.580,0.702,73.333,7941.000,1.000
5.598,5.427,5.476,5.266,5.752,5.320,5.412,5.571,-0.025,0.930,-0.427,-0.427,-0.641,0.824,73.333,7942.000,1.000
3.119,2.966,2.951,2.871,3.191,2.886,2.954,3.094,-0.023,0.930,-0.430,-0.366,-0.793,0.854,73.333,7943.000,1.000
-0.186,-0.265,-0.396,-0.301,-0.204,-0.338,-0.320,-0.161,-0.023,0.930,-0.431,-0.336,-0.854,0.885,73.333,7944.000,1.000
-3.853,-3.826,-4.091,-3.852,-3.940,-3.940,-3.967,-3.774,-0.023,0.929,-0.427,-0.336,-0.824,0.854,73.333,7945.000,1.000
-7.363,-7.253,-7.611,-7.318,-7.473,-7.434,-7.478,-7.273,-0.024,0.928,-0.425,-0.214,-0.946,0.885,73.333,7946.000,1.000
-10.148,-10.037,-10.401,-10.167,-10.229,-10.251,-10.299,-10.113,-0.026,0.928,-0.428,-0.214,-0.885,0.854,73.333,7947.000,1.000
-11.724,-11.712,-12.001,-11.914,-11.745,-11.884,-11.955,-11.809,-0.027,0.929,-0.428,-0.092,-1.099,0.793,73.333,7948.000,1.000
-11.891,-12.020,-12.218,-12.299,-11.854,-12.096,-12.231,-12.128,-0.028,0.928,-0.427,-0.092,-1.221,0.641,73.333,7949.000,1.000
-10.820,-11.040,-11.192,-11.396,-10.751,-11.030,-11.256,-11.181,-0.027,0.929,-0.428,-0.092,-1.251,0.610,73.333,7950.000,1.000
-9.085,-9.289,-9.453,-9.704,-9.019,-9.251,-9.557,-9.481,-0.024,0.928,-0.430,0.000,-1.404,0.580,73.333,7951.000,1.000
-7.524,-7.631,-7.822,-8.047,-7.488,-7.627,-7.949,-7.863,-0.021,0.929,-0.428,0.031,-1.465,0.427,73.333,7952.000,1.000
-6.893,-6.918,-7.084,-7.235,-6.903,-6.962,-7.209,-7.138,-0.019,0.932,-0.428,0.122,-1.465,0.366,73.333,7953.000,1.000
-7.474,-7.514,-7.569,-7.630,-7.530,-7.567,-7.661,-7.647,-0.015,0.930,-0.430,0.214,-1.404,0.397,73.333,7954.000,1.000
-8.979,-9.135,-9.033,-9.021,-9.071,-9.136,-9.078,-9.123,-0.015,0.930,-0.430,0.092,-1.312,0.427,73.333,7955.000,1.000
-10.891,-11.201,-10.988,-10.931,-11.013,-11.114,-10.989,-11.045,-0.017,0.928,-0.428,0.153,-1.221,0.336,73.333,7956.000,1.000
-12.767,-13.181,-12.978,-12.890,-12.929,-13.025,-12.940,-12.935,-0.017,0.928,-0.429,0.061,-1.007,0.336,73.333,7957.000,1.000
-14.311,-14.714,-14.626,-14.508,-14.516,-14.552,-14.549,-14.446,-0.018,0.926,-0.430,0.061,-0.946,0.244,73.333,7958.000,1.000
-15.306,-15.584,-15.629,-15.496,-15.529,-15.488,-15.514,-15.344,-0.020,0.925,-0.431,0.000,-0.824,0.305,73.333,7959.000,1.000
-15.556,-15.664,-15.761,-15.669,-15.752,-15.667,-15.642,-15.479,-0.022,0.925,-0.427,0.031,-0.702,0.244,73.333,7960.000,1.000
-14.948,-14.923,-14.960,-14.976,-15.088,-15.007,-14.900,-14.812,-0.021,0.927,-0.428,-0.031,-0.671,0.214,73.333,7961.000,1.000
-13.497,-13.414,-13.322,-13.480,-13.597,-13.544,-13.386,-13.402,-0.021,0.929,-0.426,0.000,-0.641,0.153,73.333,7962.000,1.000
-11.372,-11.300,-11.084,-11.365,-11.486,-11.445,-11.305,-11.406,-0.020,0.932,-0.425,-0.122,-0.549,0.092,73.333,7963.000,1.000
-8.935,-8.921,-8.631,-8.988,-9.116,-9.035,-8.989,-9.138,-0.019,0.930,-0.425,-0.122,-0.519,0.092,73.333,7964.000,1.000
-6.688,-6.742,-6.451,-6.829,-6.944,-6.762,-6.865,-7.030,-0.020,0.932,-0.429,-0.183,-0.397,0.061,73.333,7965.000,1.000
-5.118,-5.200,-4.979,-5.340,-5.390,-5.088,-5.338,-5.507,-0.020,0.934,-0.429,-0.244,-0.397,0.092,73.333,7966.000,1.000
-4.455,-4.497,-4.392,-4.729,-4.660,-4.277,-4.608,-4.780,-0.021,0.935,-0.430,-0.366,-0.244,0.092,73.333,7967.000,1.000
-4.552,-4.508,-4.509,-4.852,-4.644,-4.241,-4.566,-4.739,-0.020,0.935,-0.430,-0.366,-0.275,0.061,73.333,7968.000,1.000
-4.938,-4.819,-4.863,-5.271,-4.941,-4.564,-4.832,-4.992,-0.021,0.933,-0.428,-0.549,-0.183,0.031,73.333,7969.000,1.000
-5.057,-4.919,-4.938,-5.437,-5.033,-4.704,-4.937,-5.042,-0.022,0.933,-0.431,-0.641,-0.214,0.122,73.333,7970.000,1.000
-4.588,-4.496,-4.450,-4.993,-4.577,-4.318,-4.575,-4.574,-0.022,0.933,-0.431,-0.671,-0.214,0.214,73.333,7971.000,1.000
-3.536,-3.521,-3.407,-3.906,-3.531,-3.362,-3.688,-3.547,-0.023,0.933,-0.430,-0.793,-0.214,0.183,73.333,7972.000,1.000
-2.124,-2.185,-2.015,-2.404,-2.100,-2.021,-2.412,-2.139,-0.024,0.933,-0.427,-0.885,-0.214,0.244,73.333,7973.000,1.000
-0.641,-0.757,-0.552,-0.822,-0.592,-0.575,-0.981,-0.626,-0.025,0.934,-0.427,-1.007,-0.244,0.275,73.333,7974.000,1.000
0.694,0.550,0.765,0.582,0.758,0.758,0.398,0.752,-0.028,0.934,-0.427,-1.038,-0.366,0.397,73.333,7975.000,1.000
1.733,1.589,1.794,1.645,1.808,1.821,1.550,1.816,-0.028,0.933,-0.427,-1.068,-0.336,0.336,73.333,7976.000,1.000
2.350,2.218,2.404,2.256,2.446,2.475,2.285,2.407,-0.028,0.931,-0.430,-1.129,-0.397,0.214,73.333,7977.000,1.000
2.399,2.278,2.437,2.305,2.547,2.563,2.395,2.383,-0.026,0.931,-0.431,-1.160,-0.397,0.275,73.333,7978.000,1.000
1.813,1.700,1.823,1.760,2.050,2.019,1.793,1.715,-0.026,0.932,-0.429,-1.312,-0.458,0.336,73.333,7979.000,1.000
0.782,0.683,0.762,0.819,1.123,1.037,0.700,0.641,-0.026,0.931,-0.431,-1.312,-0.458,0.305,73.333,7980.000,1.000
-0.268,-0.332,-0.299,-0.128,0.161,0.033,-0.393,-0.388,-0.023,0.928,-0.430,-1.373,-0.519,0.397,73.333,7981.000,1.000
-0.876,-0.870,-0.880,-0.673,-0.405,-0.550,-0.972,-0.927,-0.023,0.929,-0.428,-1.373,-0.549,0.366,73.333,7982.000,1.000
-0.817,-0.710,-0.749,-0.621,-0.375,-0.503,-0.809,-0.797,-0.022,0.930,-0.429,-1.251,-0.549,0.549,73.333,7983.000,1.000
-0.218,-0.006,-0.044,-0.084,0.113,0.047,-0.077,-0.167,-0.021,0.930,-0.429,-1.221,-0.580,0.702,73.333,7984.000,1.000
0.597,0.878,0.882,0.657,0.752,0.783,0.827,0.627,-0.022,0.929,-0.429,-1.282,-0.519,0.702,73.333,7985.000,1.000
1.309,1.583,1.672,1.307,1.261,1.388,1.537,1.273,-0.024,0.930,-0.430,-1.221,-0.610,0.702,73.333,7986.000,1.000
1.754,1.933,2.123,1.703,1.535,1.712,1.891,1.627,-0.025,0.927,-0.427,-1.251,-0.610,0.732,73.333,7987.000,1.000
1.899,1.937,2.191,1.822,1.606,1.766,1.909,1.694,-0.025,0.927,-0.426,-1.190,-0.610,0.702,73.333,7988.000,1.000
1.750,1.670,1.915,1.697,1.501,1.600,1.665,1.530,-0.024,0.925,-0.426,-1.251,-0.732,0.671,73.333,7989.000,1.000
1.306,1.186,1.360,1.353,1.194,1.224,1.211,1.168,-0.025,0.928,-0.427,-1.251,-0.732,0.549,73.333,7990.000,1.000
0.523,0.456,0.543,0.743,0.591,0.573,0.510,0.548,-0.023,0.930,-0.430,-1.160,-0.641,0.610,73.333,7991.000,1.000
-0.577,-0.535,-0.499,-0.151,-0.346,-0.387,-0.450,-0.371,-0.022,0.930,-0.431,-1.129,-0.580,0.580,73.333,7992.000,1.000
-1.791,-1.654,-1.610,-1.200,-1.474,-1.513,-1.518,-1.462,-0.022,0.929,-0.430,-1.099,-0.641,0.549,73.333,7993.000,1.000
-2.766,-2.599,-2.511,-2.119,-2.460,-2.488,-2.379,-2.418,-0.023,0.930,-0.429,-1.129,-0.671,0.458,73.333,7994.000,1.000
-3.099,-2.966,-2.851,-2.520,-2.875,-2.901,-2.656,-2.825,-0.022,0.931,-0.429,-1.007,-0.580,0.366,73.333,7995.000,1.000
-2.520,-2.446,-2.359,-2.092,-2.399,-2.442,-2.101,-2.368,-0.022,0.928,-0.427,-0.916,-0.549,0.488,73.333,7996.000,1.000
-1.051,-1.030,-1.023,-0.797,-1.025,-1.089,-0.751,-1.023,-0.022,0.929,-0.428,-0.977,-0.488,0.397,73.333,7997.000,1.000
0.935,0.917,0.830,1.030,0.878,0.818,1.034,0.855,-0.024,0.930,-0.426,-0.916,-0.458,0.305,73.333,7998.000,1.000
2.852,2.811,2.642,2.810,2.719,2.706,2.717,2.681,-0.023,0.929,-0.428,-0.946,-0.519,0.244,73.333,7999.000,1.000
4.211,4.164,3.938,4.056,4.016,4.089,3.882,3.970,-0.022,0.928,-0.428,-0.977,-0.519,0.244,73.333,8000.000,1.000
4.837,4.795,4.550,4.594,4.610,4.776,4.412,4.571,-0.022,0.928,-0.428,-0.916,-0.397,0.153,73.333,8001.000,1.000
4.893,4.869,4.642,4.614,4.682,4.907,4.503,4.686,-0.021,0.927,-0.429,-0.885,-0.427,0.183,73.333,8002.000,1.000
4.712,4.722,4.529,4.467,4.570,4.787,4.472,4.649,-0.023,0.928,-0.427,-0.732,-0.366,0.153,73.333,8003.000,1.000
4.593,4.662,4.495,4.454,4.571,4.705,4.554,4.714,-0.022,0.929,-0.430,-0.763,-0.336,0.183,73.333,8004.000,1.000
4.743,4.887,4.737,4.749,4.857,4.870,4.878,5.019,-0.023,0.929,-0.432,-0.580,-0.305,0.214,73.333,8005.000,1.000
5.163,5.370,5.240,5.303,5.374,5.289,5.390,5.512,-0.020,0.929,-0.429,-0.549,-0.305,0.214,73.333,8006.000,1.000
5.612,5.842,5.747,5.828,5.843,5.722,5.837,5.938,-0.020,0.930,-0.428,-0.671,-0.244,0.275,73.333,8007.000,1.000
5.758,5.971,5.938,5.979,5.952,5.845,5.919,5.998,-0.020,0.928,-0.429,-0.671,-0.214,0.305,73.333,8008.000,1.000
5.397,5.575,5.638,5.583,5.546,5.466,5.504,5.545,-0.022,0.929,-0.432,-0.732,-0.214,0.275,73.333,8009.000,1.000
4.561,4.693,4.867,4.714,4.682,4.616,4.683,4.648,-0.023,0.929,-0.431,-0.854,-0.183,0.275,73.333,8010.000,1.000
3.430,3.499,3.764,3.587,3.542,3.472,3.649,3.498,-0.022,0.927,-0.429,-0.916,-0.275,0.244,73.333,8011.000,1.000
2.234,2.229,2.536,2.436,2.356,2.269,2.579,2.314,-0.024,0.928,-0.431,-0.763,-0.275,0.244,73.333,8012.000,1.000
1.156,1.095,1.388,1.420,1.301,1.197,1.581,1.251,-0.024,0.931,-0.433,-0.763,-0.244,0.305,73.333,8013.000,1.000
0.310,0.235,0.470,0.612,0.458,0.360,0.711,0.400,-0.024,0.933,-0.433,-0.763,-0.275,0.244,73.333,8014.000,1.000
-0.220,-0.277,-0.117,0.065,-0.130,-0.189,0.044,-0.165,-0.025,0.932,-0.430,-0.854,-0.336,0.336,73.333,8015.000,1.000
-0.439,-0.491,-0.392,-0.227,-0.475,-0.481,-0.380,-0.444,-0.024,0.932,-0.430,-0.916,-0.305,0.305,73.333,8016.000,1.000
-0.433,-0.534,-0.469,-0.327,-0.629,-0.594,-0.566,-0.507,-0.023,0.935,-0.428,-0.946,-0.427,0.336,73.333,8017.000,1.000
-0.282,-0.482,-0.440,-0.278,-0.612,-0.569,-0.528,-0.407,-0.023,0.933,-0.427,-1.068,-0.519,0.336,73.333,8018.000,1.000
0.026,-0.292,-0.271,-0.039,-0.371,-0.354,-0.253,-0.112,-0.022,0.932,-0.427,-1.068,-0.580,0.366,73.333,8019.000,1.000
0.561,0.159,0.167,0.472,0.185,0.161,0.293,0.457,-0.023,0.930,-0.427,-1.068,-0.580,0.305,73.333,8020.000,1.000
1.291,0.886,0.902,1.209,1.016,0.959,1.049,1.244,-0.023,0.931,-0.428,-1.068,-0.549,0.458,73.333,8021.000,1.000
2.084,1.764,1.817,2.023,1.953,1.890,1.886,2.070,-0.024,0.931,-0.425,-1.068,-0.519,0.458,73.333,8022.000,1.000
2.836,2.635,2.767,2.799,2.831,2.786,2.701,2.802,-0.024,0.930,-0.425,-1.038,-0.519,0.397,73.333,8023.000,1.000
3.494,3.378,3.612,3.484,3.549,3.516,3.428,3.395,-0.023,0.930,-0.427,-1.068,-0.549,0.397,73.333,8024.000,1.000
4.024,3.925,4.239,4.047,4.072,4.017,4.019,3.857,-0.023,0.931,-0.428,-1.099,-0.519,0.488,73.333,8025.000,1.000
4.351,4.232,4.558,4.421,4.360,4.248,4.397,4.165,-0.024,0.930,-0.428,-1.129,-0.641,0.458,73.333,8026.000,1.000
4.375,4.275,4.519,4.525,4.358,4.184,4.482,4.270,-0.024,0.931,-0.429,-1.099,-0.610,0.519,73.333,8027.000,1.000
4.004,4.008,4.090,4.271,4.004,3.795,4.199,4.086,-0.023,0.930,-0.428,-1.190,-0.549,0.458,73.333,8028.000,1.000
3.176,3.346,3.251,3.576,3.233,3.036,3.481,3.497,-0.023,0.929,-0.429,-1.129,-0.610,0.580,73.333,8029.000,1.000
1.979,2.296,2.095,2.493,2.105,1.960,2.380,2.493,-0.022,0.930,-0.427,-1.251,-0.580,0.488,73.333,8030.000,1.000
0.652,1.021,0.833,1.224,0.823,0.741,1.083,1.233,-0.022,0.932,-0.431,-1.282,-0.641,0.580,73.333,8031.000,1.000
-0.547,-0.234,-0.311,0.008,-0.378,-0.414,-0.174,-0.034,-0.020,0.930,-0.428,-1.190,-0.641,0.519,73.333,8032.000,1.000
-1.487,-1.298,-1.247,-1.031,-1.373,-1.392,-1.251,-1.133,-0.021,0.931,-0.430,-1.129,-0.610,0.519,73.333,8033.000,1.000
-2.231,-2.182,-2.075,-1.948,-2.211,-2.250,-2.189,-2.071,-0.022,0.932,-0.429,-1.190,-0.610,0.458,73.333,8034.000,1.000
-2.943,-3.014,-2.969,-2.888,-3.037,-3.126,-3.116,-2.961,-0.023,0.932,-0.427,-1.404,-0.641,0.488,73.333,8035.000,1.000
-3.779,-3.934,-4.023,-3.968,-3.991,-4.131,-4.146,-3.921,-0.022,0.932,-0.425,-1.343,-0.580,0.519,73.333,8036.000,1.000
-4.773,-4.968,-5.167,-5.162,-5.082,-5.249,-5.254,-4.957,-0.021,0.931,-0.424,-1.404,-0.641,0.549,73.333,8037.000,1.000
-5.781,-5.971,-6.191,-6.277,-6.138,-6.295,-6.260,-5.930,-0.023,0.930,-0.428,-1.312,-0.641,0.488,73.333,8038.000,1.000
-6.542,-6.675,-6.834,-7.037,-6.882,-6.999,-6.907,-6.609,-0.021,0.931,-0.429,-1.312,-0.610,0.549,73.333,8039.000,1.000
-6.777,-6.798,-6.872,-7.174,-7.033,-7.102,-6.955,-6.742,-0.021,0.931,-0.429,-1.404,-0.671,0.427,73.333,8040.000,1.000
-6.311,-6.193,-6.223,-6.550,-6.444,-6.479,-6.295,-6.169,-0.022,0.932,-0.427,-1.404,-0.671,0.366,73.333,8041.000,1.000
-5.134,-4.910,-4.964,-5.215,-5.139,-5.171,-4.976,-4.902,-0.021,0.933,-0.426,-1.434,-0.610,0.366,73.333,8042.000,1.000
-3.421,-3.175,-3.303,-3.399,-3.324,-3.364,-3.202,-3.155,-0.022,0.931,-0.427,-1.404,-0.732,0.336,73.333,8043.000,1.000
-1.490,-1.303,-1.515,-1.441,-1.326,-1.352,-1.269,-1.262,-0.023,0.927,-0.429,-1.465,-0.824,0.244,73.333,8044.000,1.000
0.380,0.477,0.208,0.392,0.573,0.610,0.587,0.521,-0.022,0.927,-0.430,-1.343,-0.763,0.305,73.333,8045.000,1.000
2.036,2.059,1.787,1.967,2.215,2.359,2.228,2.086,-0.022,0.929,-0.429,-1.190,-0.763,0.275,73.333,8046.000,1.000
3.449,3.427,3.226,3.283,3.576,3.841,3.609,3.441,-0.022,0.927,-0.426,-1.160,-0.763,0.366,73.333,8047.000,1.000
4.640,4.586,4.530,4.386,4.694,5.046,4.729,4.617,-0.021,0.930,-0.432,-1.099,-0.702,0.275,73.333,8048.000,1.000
5.544,5.467,5.571,5.229,5.529,5.887,5.512,5.520,-0.023,0.928,-0.429,-1.099,-0.671,0.275,73.333,8049.000,1.000
5.934,5.862,6.056,5.602,5.883,6.149,5.752,5.884,-0.023,0.929,-0.427,-1.099,-0.671,0.275,73.333,8050.000,1.000
5.524,5.499,5.657,5.231,5.481,5.586,5.216,5.396,-0.022,0.927,-0.429,-1.129,-0.641,0.397,73.333,8051.000,1.000
4.270,4.317,4.336,4.064,4.258,4.199,3.922,4.027,-0.023,0.928,-0.429,-1.007,-0.610,0.488,73.333,8052.000,1.000
2.542,2.651,2.494,2.430,2.549,2.387,2.252,2.187,-0.024,0.929,-0.429,-0.916,-0.610,0.427,73.333,8053.000,1.000
0.935,1.084,0.772,0.883,0.937,0.766,0.759,0.514,-0.023,0.929,-0.430,-0.824,-0.610,0.427,73.333,8054.000,1.000
-0.045,0.121,-0.276,-0.094,-0.066,-0.160,-0.117,-0.470,-0.022,0.928,-0.425,-0.793,-0.641,0.397,73.333,8055.000,1.000
-0.284,-0.118,-0.505,-0.368,-0.340,-0.309,-0.299,-0.652,-0.021,0.929,-0.426,-0.824,-0.671,0.366,73.333,8056.000,1.000
-0.083,0.078,-0.221,-0.196,-0.176,-0.030,-0.080,-0.350,-0.022,0.931,-0.426,-0.854,-0.610,0.366,73.333,8057.000,1.000
0.102,0.262,0.082,0.006,-0.022,0.188,0.114,-0.045,-0.021,0.929,-0.430,-0.854,-0.732,0.397,73.333,8058.000,1.000
-0.005,0.147,0.068,-0.046,-0.159,0.067,0.029,-0.051,-0.021,0.931,-0.428,-0.824,-0.702,0.458,73.333,8059.000,1.000
-0.328,-0.204,-0.250,-0.323,-0.518,-0.300,-0.265,-0.331,-0.021,0.932,-0.426,-0.793,-0.610,0.488,73.333,8060.000,1.000
-0.607,-0.529,-0.645,-0.616,-0.836,-0.631,-0.546,-0.654,-0.020,0.931,-0.426,-0.732,-0.610,0.488,73.333,8061.000,1.000
-0.655,-0.612,-0.898,-0.739,-0.895,-0.714,-0.663,-0.821,-0.022,0.932,-0.425,-0.793,-0.671,0.549,73.333,8062.000,1.000
-0.466,-0.430,-0.915,-0.634,-0.662,-0.525,-0.594,-0.765,-0.021,0.932,-0.422,-0.732,-0.580,0.519,73.333,8063.000,1.000
-0.173,-0.131,-0.738,-0.368,-0.279,-0.203,-0.401,-0.524,-0.020,0.931,-0.423,-0.732,-0.458,0.458,73.333,8064.000,1.000
0.102,0.151,-0.433,-0.029,0.105,0.118,-0.124,-0.136,-0.021,0.934,-0.427,-0.793,-0.519,0.427,73.333,8065.000,1.000
0.346,0.398,-0.030,0.351,0.448,0.414,0.243,0.376,-0.022,0.931,-0.426,-0.793,-0.549,0.488,73.333,8066.000,1.000
0.639,0.690,0.476,0.790,0.803,0.741,0.730,0.981,-0.022,0.931,-0.427,-0.854,-0.427,0.427,73.333,8067.000,1.000
1.046,1.090,1.068,1.287,1.227,1.141,1.324,1.609,-0.022,0.929,-0.427,-0.916,-0.580,0.397,73.333,8068.000,1.000
1.529,1.576,1.661,1.784,1.703,1.584,1.936,2.152,-0.023,0.930,-0.425,-0.824,-0.549,0.458,73.333,8069.000,1.000
2.015,2.080,2.174,2.225,2.185,2.021,2.468,2.553,-0.023,0.931,-0.427,-0.854,-0.580,0.397,73.333,8070.000,1.000
2.432,2.516,2.533,2.564,2.600,2.389,2.840,2.800,-0.021,0.935,-0.427,-0.824,-0.519,0.366,73.333,8071.000,1.000
2.753,2.835,2.710,2.784,2.897,2.664,3.031,2.921,-0.021,0.935,-0.425,-0.946,-0.488,0.397,73.333,8072.000,1.000
3.019,3.078,2.764,2.924,3.091,2.889,3.089,2.993,-0.021,0.934,-0.425,-0.916,-0.458,0.366,73.333,8073.000,1.000
3.278,3.303,2.804,3.034,3.231,3.124,3.088,3.083,-0.021,0.932,-0.430,-1.007,-0.305,0.336,73.333,8074.000,1.000
3.549,3.531,2.921,3.148,3.359,3.393,3.094,3.216,-0.023,0.931,-0.431,-0.977,-0.366,0.305,73.333,8075.000,1.000
3.753,3.671,3.084,3.218,3.428,3.614,3.099,3.316,-0.022,0.929,-0.427,-0.977,-0.244,0.336,73.333,8076.000,1.000
3.755,3.584,3.155,3.139,3.335,3.637,3.014,3.255,-0.024,0.931,-0.425,-1.099,-0.305,0.305,73.333,8077.000,1.000
3.464,3.197,3.003,2.848,3.019,3.356,2.753,2.965,-0.022,0.932,-0.428,-1.068,-0.397,0.305,73.333,8078.000,1.000
2.868,2.530,2.562,2.342,2.485,2.754,2.280,2.442,-0.024,0.932,-0.431,-1.068,-0.305,0.305,73.333,8079.000,1.000
2.046,1.688,1.870,1.680,1.816,1.921,1.639,1.734,-0.024,0.932,-0.429,-1.007,-0.366,0.366,73.333,8080.000,1.000
1.130,0.808,1.034,0.950,1.110,1.001,0.929,0.914,-0.024,0.932,-0.423,-1.068,-0.366,0.397,73.333,8081.000,1.000
0.243,0.009,0.189,0.236,0.435,0.129,0.243,0.081,-0.025,0.933,-0.426,-1.099,-0.427,0.305,73.333,8082.000,1.000
-0.559,-0.667,-0.573,-0.430,-0.207,-0.639,-0.397,-0.685,-0.025,0.931,-0.429,-1.038,-0.488,0.275,73.333,8083.000,1.000
-1.280,-1.262,-1.234,-1.068,-0.863,-1.321,-1.027,-1.361,-0.023,0.932,-0.427,-1.038,-0.458,0.305,73.333,8084.000,1.000
-1.870,-1.781,-1.765,-1.654,-1.508,-1.891,-1.625,-1.908,-0.023,0.931,-0.428,-1.129,-0.488,0.366,73.333,8085.000,1.000
-2.189,-2.108,-2.057,-2.051,-1.984,-2.211,-2.057,-2.215,-0.025,0.930,-0.427,-1.160,-0.427,0.366,73.333,8086.000,1.000
-2.038,-2.023,-1.918,-2.026,-2.030,-2.061,-2.093,-2.094,-0.024,0.930,-0.430,-1.160,-0.458,0.397,73.333,8087.000,1.000
-1.326,-1.385,-1.218,-1.419,-1.471,-1.331,-1.561,-1.423,-0.025,0.929,-0.428,-1.007,-0.488,0.458,73.333,8088.000,1.000
-0.222,-0.319,-0.085,-0.337,-0.415,-0.204,-0.542,-0.336,-0.025,0.931,-0.425,-1.099,-0.549,0.458,73.333,8089.000,1.000
0.931,0.847,1.156,0.903,0.805,0.949,0.663,0.832,-0.024,0.932,-0.426,-0.977,-0.549,0.336,73.333,8090.000,1.000
1.800,1.779,2.150,1.941,1.817,1.790,1.707,1.742,-0.023,0.931,-0.425,-0.946,-0.519,0.397,73.333,8091.000,1.000
2.219,2.297,2.693,2.546,2.385,2.189,2.358,2.218,-0.023,0.932,-0.429,-1.099,-0.519,0.397,73.333,8092.000,1.000
2.221,2.403,2.779,2.665,2.468,2.201,2.568,2.278,-0.024,0.932,-0.426,-1.129,-0.519,0.427,73.333,8093.000,1.000
1.938,2.187,2.528,2.382,2.165,1.945,2.415,2.051,-0.024,0.931,-0.425,-1.160,-0.610,0.305,73.333,8094.000,1.000
1.532,1.792,2.112,1.866,1.659,1.557,2.052,1.708,-0.025,0.931,-0.428,-1.068,-0.488,0.336,73.333,8095.000,1.000
1.101,1.310,1.643,1.253,1.096,1.122,1.584,1.337,-0.026,0.929,-0.429,-1.007,-0.519,0.519,73.333,8096.000,1.000
0.651,0.756,1.133,0.597,0.529,0.643,1.026,0.908,-0.022,0.929,-0.428,-0.977,-0.458,0.488,73.333,8097.000,1.000
0.148,0.120,0.556,-0.074,-0.043,0.100,0.360,0.360,-0.023,0.929,-0.427,-0.916,-0.580,0.580,73.333,8098.000,1.000
-0.403,-0.555,-0.067,-0.689,-0.594,-0.480,-0.366,-0.285,-0.021,0.930,-0.425,-0.977,-0.610,0.671,73.333,8099.000,1.000
-0.920,-1.144,-0.621,-1.131,-1.027,-0.983,-1.004,-0.892,-0.022,0.931,-0.427,-1.007,-0.580,0.671,73.333,8100.000,1.000
-1.360,-1.575,-1.046,-1.385,-1.310,-1.350,-1.462,-1.352,-0.024,0.931,-0.431,-1.038,-0.458,0.763,73.333,8101.000,1.000
-1.784,-1.915,-1.432,-1.596,-1.552,-1.656,-1.812,-1.707,-0.022,0.931,-0.426,-1.068,-0.488,0.793,73.333,8102.000,1.000
-2.310,-2.322,-1.946,-1.975,-1.934,-2.052,-2.238,-2.103,-0.018,0.932,-0.430,-1.007,-0.366,0.854,73.333,8103.000,1.000
-3.025,-2.922,-2.716,-2.648,-2.583,-2.662,-2.893,-2.690,-0.020,0.931,-0.428,-0.916,-0.122,0.854,73.333,8104.000,1.000
-3.889,-3.707,-3.705,-3.579,-3.466,-3.479,-3.787,-3.493,-0.019,0.931,-0.429,-0.916,-0.031,0.977,73.333,8105.000,1.000
-4.791,-4.596,-4.775,-4.647,-4.454,-4.411,-4.828,-4.451,-0.018,0.931,-0.427,-0.885,0.061,0.946,73.333,8106.000,1.000
-5.645,-5.513,-5.787,-5.723,-5.424,-5.352,-5.895,-5.477,-0.020,0.932,-0.428,-0.916,0.244,1.099,73.333,8107.000,1.000
-6.435,-6.406,-6.668,-6.691,-6.319,-6.234,-6.862,-6.490,-0.021,0.931,-0.428,-0.916,0.214,1.068,73.333,8108.000,1.000
-7.218,-7.286,-7.441,-7.510,-7.175,-7.073,-7.675,-7.448,-0.023,0.929,-0.428,-0.946,0.305,1.007,73.333,8109.000,1.000
-8.032,-8.153,-8.139,-8.189,-8.019,-7.894,-8.339,-8.302,-0.024,0.928,-0.431,-0.946,0.305,1.099,73.333,8110.000,1.000
-8.800,-8.916,-8.716,-8.707,-8.773,-8.634,-8.834,-8.961,-0.027,0.928,-0.427,-1.038,0.366,1.007,73.333,8111.000,1.000
-9.330,-9.390,-9.038,-8.975,-9.260,-9.127,-9.075,-9.296,-0.024,0.927,-0.427,-1.038,0.366,0.977,73.333,8112.000,1.000
-9.396,-9.389,-8.948,-8.857,-9.291,-9.183,-8.939,-9.183,-0.025,0.928,-0.431,-1.038,0.458,0.946,73.333,8113.000,1.000
-8.805,-8.762,-8.302,-8.205,-8.698,-8.627,-8.296,-8.497,-0.025,0.927,-0.427,-0.977,0.458,0.916,73.333,8114.000,1.000
-7.382,-7.342,-6.929,-6.837,-7.303,-7.273,-6.968,-7.079,-0.026,0.931,-0.430,-1.038,0.488,0.793,73.333,8115.000,1.000
-5.034,-5.004,-4.700,-4.611,-4.991,-4.985,-4.799,-4.806,-0.025,0.932,-0.427,-1.099,0.458,0.824,73.333,8116.000,1.000
-1.796,-1.758,-1.593,-1.501,-1.766,-1.759,-1.735,-1.667,-0.025,0.933,-0.427,-1.068,0.549,0.793,73.333,8117.000,1.000
2.146,2.206,2.251,2.349,2.194,2.218,2.107,2.183,-0.027,0.932,-0.430,-1.007,0.610,0.793,73.333,8118.000,1.000
6.465,6.539,6.529,6.630,6.545,6.588,6.425,6.423,-0.025,0.930,-0.430,-0.977,0.549,0.610,73.333,8119.000,1.000
10.831,10.907,10.913,11.022,10.928,10.985,10.875,10.721,-0.027,0.928,-0.430,-1.099,0.519,0.610,73.333,8120.000,1.000
14.902,14.982,15.047,15.173,14.996,15.041,15.079,14.743,-0.023,0.925,-0.429,-1.038,0.458,0.580,73.333,8121.000,1.000
18.152,18.252,18.377,18.506,18.242,18.219,18.466,17.980,-0.022,0.926,-0.432,-0.946,0.458,0.641,73.333,8122.000,1.000
19.851,19.982,20.136,20.228,19.957,19.816,20.255,19.713,-0.019,0.926,-0.432,-0.977,0.549,0.641,73.333,8123.000,1.000
19.359,19.507,19.646,19.661,19.507,19.249,19.762,19.287,-0.017,0.927,-0.428,-1.068,0.549,0.641,73.333,8124.000,1.000
16.518,16.648,16.737,16.669,16.715,16.413,16.830,16.512,-0.012,0.927,-0.431,-0.946,0.641,0.641,73.333,8125.000,1.000
11.782,11.855,11.880,11.767,12.008,11.755,11.947,11.820,-0.013,0.926,-0.428,-0.916,0.854,0.763,73.333,8126.000,1.000
6.082,6.085,6.041,5.951,6.299,6.151,6.097,6.142,-0.015,0.928,-0.427,-1.007,0.946,0.824,73.333,8127.000,1.000
0.504,0.471,0.343,0.327,0.669,0.625,0.408,0.568,-0.016,0.931,-0.428,-0.946,1.007,0.824,73.333,8128.000,1.000
-4.087,-4.106,-4.322,-4.260,-4.010,-3.986,-4.230,-4.038,-0.018,0.931,-0.428,-0.977,1.038,0.854,73.333,8129.000,1.000
-7.207,-7.198,-7.457,-7.347,-7.242,-7.188,-7.326,-7.176,-0.018,0.932,-0.427,-1.038,1.160,0.946,73.333,8130.000,1.000
-8.781,-8.788,-8.994,-8.865,-8.939,-8.860,-8.827,-8.749,-0.020,0.935,-0.431,-1.068,1.099,0.916,73.333,8131.000,1.000
-9.070,-9.157,-9.225,-9.082,-9.341,-9.218,-9.025,-9.012,-0.021,0.935,-0.429,-1.160,1.068,0.885,73.333,8132.000,1.000
-8.536,-8.750,-8.652,-8.501,-8.882,-8.714,-8.424,-8.450,-0.022,0.937,-0.427,-1.190,1.038,0.885,73.333,8133.000,1.000
-7.718,-8.055,-7.844,-7.710,-8.077,-7.897,-7.600,-7.639,-0.025,0.938,-0.427,-1.190,0.824,0.885,73.333,8134.000,1.000
-7.068,-7.457,-7.240,-7.162,-7.376,-7.229,-7.005,-7.030,-0.029,0.936,-0.424,-1.190,0.732,0.824,73.333,8135.000,1.000
-6.855,-7.185,-7.065,-7.069,-7.084,-6.997,-6.862,-6.860,-0.033,0.936,-0.426,-1.312,0.519,0.549,73.333,8136.000,1.000
-7.124,-7.312,-7.337,-7.424,-7.285,-7.264,-7.173,-7.149,-0.038,0.935,-0.426,-1.373,0.244,0.427,73.333,8137.000,1.000
-7.743,-7.775,-7.933,-8.081,-7.868,-7.892,-7.792,-7.782,-0.039,0.934,-0.427,-1.404,-0.153,0.336,73.333,8138.000,1.000
-8.591,-8.512,-8.748,-8.920,-8.702,-8.733,-8.611,-8.657,-0.038,0.935,-0.425,-1.404,-0.366,0.092,73.333,8139.000,1.000
-9.605,-9.507,-9.728,-9.886,-9.719,-9.708,-9.599,-9.711,-0.035,0.934,-0.423,-1.373,-0.671,-0.153,73.333,8140.000,1.000
-10.682,-10.685,-10.773,-10.886,-10.829,-10.740,-10.695,-10.830,-0.032,0.933,-0.430,-1.312,-0.885,-0.244,73.333,8141.000,1.000
-11.526,-11.717,-11.582,-11.636,-11.729,-11.559,-11.601,-11.692,-0.028,0.930,-0.430,-1.251,-1.190,-0.244,73.333,8142.000,1.000
-11.564,-11.937,-11.576,-11.580,-11.809,-11.603,-11.698,-11.701,-0.025,0.930,-0.426,-1.190,-1.312,-0.305,73.333,8143.000,1.000
-10.130,-10.592,-10.109,-10.090,-10.377,-10.207,-10.281,-10.200,-0.021,0.928,-0.429,-1.251,-1.343,-0.305,73.333,8144.000,1.000
-6.885,-7.324,-6.884,-6.869,-7.098,-7.031,-7.020,-6.893,-0.018,0.926,-0.425,-1.221,-1.434,-0.153,73.333,8145.000,1.000
-2.207,-2.546,-2.294,-2.287,-2.378,-2.435,-2.322,-2.189,-0.019,0.927,-0.429,-1.190,-1.404,-0.031,73.333,8146.000,1.000
2.886,2.678,2.684,2.713,2.755,2.601,2.788,2.906,-0.019,0.930,-0.426,-1.038,-1.312,0.000,73.333,8147.000,1.000
7.267,7.175,6.974,7.070,7.156,6.961,7.182,7.284,-0.018,0.930,-0.422,-1.099,-1.373,0.153,73.333,8148.000,1.000
10.134,10.118,9.796,9.985,10.010,9.832,10.053,10.147,-0.019,0.935,-0.423,-1.160,-1.434,0.214,73.333,8149.000,1.000
11.110,11.134,10.785,11.041,10.954,10.819,11.033,11.121,-0.018,0.935,-0.424,-1.160,-1.373,0.336,73.333,8150.000,1.000
10.103,10.155,9.849,10.117,9.941,9.824,10.048,10.116,-0.018,0.937,-0.424,-1.190,-1.343,0.580,73.333,8151.000,1.000
7.279,7.358,7.129,7.358,7.159,7.011,7.254,7.290,-0.018,0.935,-0.424,-1.221,-1.343,0.671,73.333,8152.000,1.000
3.113,3.209,3.051,3.217,3.060,2.857,3.075,3.106,-0.017,0.933,-0.423,-1.312,-1.282,0.854,73.333,8153.000,1.000
-1.679,-1.592,-1.707,-1.612,-1.687,-1.920,-1.812,-1.715,-0.017,0.931,-0.424,-1.465,-1.251,0.854,73.333,8154.000,1.000
-6.271,-6.230,-6.327,-6.300,-6.286,-6.481,-6.572,-6.327,-0.016,0.932,-0.424,-1.373,-1.160,0.885,73.333,8155.000,1.000
-9.954,-9.988,-10.064,-10.103,-10.021,-10.101,-10.426,-10.005,-0.017,0.930,-0.424,-1.434,-1.099,0.977,73.333,8156.000,1.000
-12.296,-12.409,-12.443,-12.535,-12.426,-12.342,-12.847,-12.304,-0.016,0.929,-0.423,-1.465,-1.038,1.038,73.333,8157.000,1.000
-13.120,-13.306,-13.268,-13.378,-13.298,-13.065,-13.616,-13.060,-0.018,0.927,-0.421,-1.434,-1.160,0.946,73.333,8158.000,1.000
-12.475,-12.722,-12.603,-12.681,-12.677,-12.369,-12.823,-12.372,-0.018,0.927,-0.424,-1.343,-0.977,0.854,73.333,8159.000,1.000
-10.627,-10.917,-10.744,-10.754,-10.829,-10.538,-10.825,-10.565,-0.016,0.927,-0.422,-1.343,-1.068,0.824,73.333,8160.000,1.000
-8.052,-8.346,-8.184,-8.131,-8.231,-8.021,-8.158,-8.124,-0.016,0.926,-0.423,-1.312,-0.977,0.763,73.333,8161.000,1.000
-5.278,-5.520,-5.439,-5.373,-5.414,-5.306,-5.348,-5.519,-0.013,0.925,-0.422,-1.221,-0.885,0.671,73.333,8162.000,1.000
-2.701,-2.819,-2.866,-2.864,-2.762,-2.741,-2.753,-3.043,-0.012,0.927,-0.421,-1.160,-0.763,0.580,73.333,8163.000,1.000
-0.504,-0.433,-0.625,-0.740,-0.450,-0.478,-0.530,-0.808,-0.012,0.927,-0.424,-1.129,-0.641,0.580,73.333,8164.000,1.000
1.350,1.637,1.314,1.095,1.547,1.510,1.360,1.217,-0.013,0.926,-0.424,-1.099,-0.519,0.427,73.333,8165.000,1.000
3.013,3.496,3.065,2.820,3.347,3.312,3.061,3.111,-0.012,0.926,-0.424,-1.068,-0.397,0.336,73.333,8166.000,1.000
4.643,5.266,4.749,4.573,5.061,5.016,4.722,4.943,-0.013,0.927,-0.427,-0.977,-0.275,0.366,73.333,8167.000,1.000
6.326,7.000,6.441,6.396,6.737,6.670,6.411,6.729,-0.013,0.928,-0.425,-0.885,-0.214,0.122,73.333,8168.000,1.000
7.951,8.573,8.046,8.137,8.270,8.186,8.014,8.339,-0.014,0.928,-0.423,-0.824,-0.183,0.153,73.333,8169.000,1.000
9.256,9.741,9.324,9.511,9.455,9.375,9.275,9.553,-0.015,0.929,-0.421,-0.732,-0.061,0.000,73.333,8170.000,1.000
10.004,10.325,10.055,10.290,10.126,10.071,9.968,10.198,-0.018,0.930,-0.422,-0.732,0.092,-0.122,73.333,8171.000,1.000
10.173,10.362,10.238,10.484,10.290,10.282,10.090,10.301,-0.019,0.931,-0.423,-0.763,0.122,-0.214,73.333,8172.000,1.000
10.019,10.141,10.149,10.368,10.177,10.236,9.927,10.127,-0.017,0.934,-0.420,-0.824,0.153,-0.275,73.333,8173.000,1.000
9.912,10.031,10.148,10.306,10.112,10.245,9.895,10.039,-0.019,0.932,-0.426,-0.824,0.183,-0.275,73.333,8174.000,1.000
10.131,10.283,10.462,10.545,10.334,10.525,10.285,10.294,-0.020,0.935,-0.429,-0.854,0.153,-0.275,73.333,8175.000,1.000
10.701,10.881,11.045,11.059,10.860,11.062,11.059,10.877,-0.022,0.936,-0.425,-0.793,0.153,-0.244,73.333,8176.000,1.000
11.390,11.546,11.623,11.580,11.466,11.626,11.871,11.527,-0.020,0.937,-0.425,-0.793,0.122,-0.275,73.333,8177.000,1.000
11.839,11.901,11.877,11.789,11.814,11.917,12.307,11.901,-0.021,0.936,-0.424,-0.763,0.092,-0.183,73.333,8178.000,1.000
11.784,11.713,11.643,11.518,11.663,11.745,12.138,11.782,-0.023,0.936,-0.426,-0.824,0.061,-0.153,73.333,8179.000,1.000
11.262,11.081,11.030,10.884,11.080,11.193,11.488,11.237,-0.025,0.934,-0.426,-0.977,-0.061,-0.214,73.333,8180.000,1.000
10.506,10.290,10.262,10.128,10.313,10.490,10.648,10.488,-0.025,0.935,-0.426,-1.007,-0.092,-0.092,73.333,8181.000,1.000
9.669,9.498,9.440,9.368,9.518,9.755,9.785,9.661,-0.027,0.934,-0.425,-0.854,-0.122,-0.031,73.333,8182.000,1.000
8.750,8.676,8.531,8.568,8.686,8.950,8.878,8.745,-0.028,0.937,-0.423,-0.763,-0.366,0.031,73.333,8183.000,1.000
7.738,7.768,7.519,7.684,7.784,8.023,7.873,7.723,-0.027,0.935,-0.426,-0.732,-0.427,0.092,73.333,8184.000,1.000
6.741,6.857,6.521,6.796,6.898,7.062,6.849,6.707,-0.026,0.934,-0.426,-0.671,-0.488,0.122,73.333,8185.000,1.000
5.928,6.109,5.725,6.050,6.181,6.235,5.972,5.877,-0.027,0.935,-0.425,-0.732,-0.671,0.183,73.333,8186.000,1.000
5.420,5.636,5.250,5.551,5.734,5.672,5.382,5.356,-0.026,0.934,-0.426,-0.702,-0.824,0.244,73.333,8187.000,1.000
5.210,5.419,5.064,5.286,5.536,5.387,5.098,5.125,-0.026,0.932,-0.426,-0.763,-0.977,0.366,73.333,8188.000,1.000
5.140,5.292,4.976,5.102,5.424,5.241,4.989,5.018,-0.026,0.929,-0.427,-0.763,-1.129,0.519,73.333,8189.000,1.000
5.057,5.114,4.833,4.861,5.251,5.096,4.906,4.883,-0.026,0.931,-0.423,-0.671,-1.221,0.519,73.333,8190.000,1.000
4.947,4.904,4.653,4.588,5.026,4.936,4.818,4.717,-0.026,0.931,-0.426,-0.580,-1.251,0.549,73.333,8191.000,1.000
4.854,4.736,4.516,4.379,4.835,4.793,4.743,4.588,-0.025,0.930,-0.421,-0.488,-1.282,0.519,73.333,8192.000,1.000
4.646,4.502,4.314,4.145,4.596,4.539,4.539,4.395,-0.022,0.928,-0.426,-0.427,-1.434,0.549,73.333,8193.000,1.000
3.959,3.833,3.696,3.537,3.959,3.825,3.846,3.785,-0.022,0.928,-0.427,-0.458,-1.404,0.732,73.333,8194.000,1.000
2.581,2.482,2.441,2.318,2.661,2.432,2.456,2.524,-0.021,0.929,-0.428,-0.397,-1.465,0.671,73.333,8195.000,1.000
0.757,0.669,0.762,0.678,0.873,0.590,0.628,0.809,-0.025,0.930,-0.426,-0.336,-1.495,0.610,73.333,8196.000,1.000
-0.937,-1.024,-0.805,-0.869,-0.860,-1.104,-1.049,-0.823,-0.024,0.927,-0.425,-0.336,-1.526,0.549,73.333,8197.000,1.000
-1.952,-2.033,-1.746,-1.811,-1.964,-2.066,-2.019,-1.841,-0.027,0.927,-0.426,-0.244,-1.526,0.519,73.333,8198.000,1.000
-2.082,-2.141,-1.857,-1.934,-2.188,-2.092,-2.082,-2.016,-0.027,0.926,-0.427,-0.214,-1.526,0.336,73.333,8199.000,1.000
-1.532,-1.572,-1.335,-1.409,-1.712,-1.448,-1.468,-1.523,-0.026,0.927,-0.425,-0.244,-1.617,0.336,73.333,8200.000,1.000
-0.832,-0.874,-0.694,-0.719,-1.061,-0.714,-0.716,-0.859,-0.022,0.929,-0.428,-0.214,-1.709,0.366,73.333,8201.000,1.000
-0.561,-0.628,-0.497,-0.415,-0.824,-0.476,-0.401,-0.581,-0.021,0.928,-0.428,-0.305,-1.709,0.183,73.333,8202.000,1.000
-1.055,-1.145,-1.065,-0.849,-1.347,-1.039,-0.858,-1.033,-0.017,0.930,-0.429,-0.244,-1.617,0.244,73.333,8203.000,1.000
-2.321,-2.411,-2.405,-2.088,-2.647,-2.394,-2.117,-2.271,-0.016,0.929,-0.430,-0.244,-1.465,0.153,73.333,8204.000,1.000
-4.108,-4.183,-4.267,-3.929,-4.471,-4.277,-3.945,-4.094,-0.015,0.929,-0.432,-0.153,-1.434,0.153,73.333,8205.000,1.000
-6.119,-6.170,-6.331,-6.049,-6.487,-6.353,-6.023,-6.193,-0.015,0.925,-0.431,-0.061,-1.312,0.153,73.333,8206.000,1.000
-8.155,-8.188,-8.378,-8.175,-8.473,-8.391,-8.125,-8.322,-0.019,0.927,-0.427,-0.122,-1.099,0.153,73.333,8207.000,1.000
-10.106,-10.138,-10.288,-10.125,-10.315,-10.273,-10.115,-10.320,-0.017,0.927,-0.428,-0.092,-1.038,0.092,73.333,8208.000,1.000
-11.836,-11.889,-11.949,-11.746,-11.915,-11.897,-11.855,-12.031,-0.019,0.926,-0.427,-0.061,-0.916,0.061,73.333,8209.000,1.000
-13.059,-13.144,-13.115,-12.816,-13.046,-13.029,-13.078,-13.187,-0.022,0.927,-0.427,-0.031,-0.793,-0.031,73.333,8210.000,1.000
-13.403,-13.526,-13.457,-13.090,-13.385,-13.352,-13.450,-13.483,-0.022,0.927,-0.428,0.000,-0.732,-0.031,73.333,8211.000,1.000
-12.663,-12.827,-12.776,-12.450,-12.723,-12.679,-12.781,-12.762,-0.022,0.928,-0.427,-0.031,-0.671,-0.153,73.333,8212.000,1.000
-10.997,-11.181,-11.192,-11.015,-11.165,-11.129,-11.199,-11.169,-0.020,0.929,-0.428,-0.153,-0.549,-0.122,73.333,8213.000,1.000
-8.920,-9.053,-9.147,-9.154,-9.144,-9.129,-9.155,-9.137,-0.019,0.930,-0.431,-0.153,-0.549,-0.092,73.333,8214.000,1.000
-7.000,-6.983,-7.156,-7.304,-7.174,-7.172,-7.183,-7.159,-0.021,0.930,-0.431,-0.244,-0.488,-0.092,73.333,8215.000,1.000
-5.569,-5.351,-5.554,-5.781,-5.593,-5.592,-5.643,-5.574,-0.018,0.931,-0.427,-0.275,-0.427,0.061,73.333,8216.000,1.000
-4.620,-4.233,-4.392,-4.667,-4.451,-4.457,-4.584,-4.452,-0.020,0.932,-0.428,-0.336,-0.305,0.092,73.333,8217.000,1.000
-3.922,-3.448,-3.514,-3.822,-3.581,-3.616,-3.806,-3.642,-0.021,0.934,-0.431,-0.427,-0.122,0.092,73.333,8218.000,1.000
-3.269,-2.792,-2.771,-3.088,-2.808,-2.902,-3.102,-2.976,-0.022,0.935,-0.431,-0.519,-0.031,0.092,73.333,8219.000,1.000
-2.557,-2.152,-2.080,-2.365,-2.046,-2.215,-2.360,-2.334,-0.023,0.934,-0.432,-0.641,0.000,0.061,73.333,8220.000,1.000
-1.791,-1.511,-1.412,-1.630,-1.309,-1.537,-1.574,-1.670,-0.022,0.934,-0.431,-0.763,-0.031,0.031,73.333,8221.000,1.000
-1.054,-0.918,-0.785,-0.931,-0.685,-0.920,-0.816,-1.013,-0.023,0.934,-0.431,-0.763,-0.092,0.122,73.333,8222.000,1.000
-0.410,-0.380,-0.201,-0.297,-0.195,-0.381,-0.147,-0.393,-0.023,0.934,-0.430,-0.824,-0.153,0.183,73.333,8223.000,1.000
0.150,0.160,0.372,0.291,0.236,0.128,0.436,0.197,-0.023,0.934,-0.429,-0.885,-0.092,0.275,73.333,8224.000,1.000
0.666,0.751,0.964,0.861,0.690,0.661,0.966,0.772,-0.027,0.933,-0.429,-1.007,-0.092,0.244,73.333,8225.000,1.000
1.067,1.297,1.477,1.327,1.095,1.124,1.382,1.240,-0.026,0.932,-0.431,-1.007,-0.183,0.305,73.333,8226.000,1.000
1.162,1.543,1.673,1.476,1.224,1.280,1.487,1.394,-0.024,0.931,-0.432,-1.007,-0.214,0.336,73.333,8227.000,1.000
0.780,1.235,1.328,1.110,0.850,0.910,1.068,1.036,-0.023,0.931,-0.425,-1.007,-0.305,0.458,73.333,8228.000,1.000
-0.144,0.254,0.350,0.141,-0.131,-0.069,0.027,0.071,-0.025,0.930,-0.428,-1.099,-0.397,0.427,73.333,8229.000,1.000
-1.529,-1.297,-1.162,-1.344,-1.623,-1.545,-1.535,-1.424,-0.025,0.930,-0.428,-1.129,-0.244,0.427,73.333,8230.000,1.000
-3.183,-3.149,-2.957,-3.118,-3.372,-3.267,-3.353,-3.217,-0.025,0.930,-0.423,-1.099,-0.275,0.488,73.333,8231.000,1.000
-4.810,-4.935,-4.683,-4.840,-5.029,-4.901,-5.054,-4.952,-0.025,0.930,-0.424,-1.129,-0.244,0.610,73.333,8232.000,1.000
-5.984,-6.207,-5.884,-6.061,-6.163,-6.039,-6.180,-6.162,-0.023,0.929,-0.426,-1.160,-0.305,0.610,73.333,8233.000,1.000
-6.307,-6.570,-6.169,-6.388,-6.410,-6.334,-6.351,-6.450,-0.022,0.931,-0.429,-1.160,-0.397,0.549,73.333,8234.000,1.000
-5.677,-5.935,-5.470,-5.740,-5.702,-5.726,-5.529,-5.741,-0.022,0.929,-0.431,-1.221,-0.397,0.610,73.333,8235.000,1.000
-4.440,-4.661,-4.173,-4.480,-4.415,-4.557,-4.156,-4.422,-0.023,0.929,-0.429,-1.221,-0.397,0.580,73.333,8236.000,1.000
-3.207,-3.387,-2.933,-3.252,-3.196,-3.413,-2.929,-3.151,-0.021,0.928,-0.431,-1.190,-0.275,0.549,73.333,8237.000,1.000
-2.476,-2.648,-2.273,-2.583,-2.556,-2.784,-2.375,-2.452,-0.024,0.927,-0.426,-1.221,-0.366,0.580,73.333,8238.000,1.000
-2.378,-2.599,-2.318,-2.604,-2.593,-2.799,-2.580,-2.449,-0.023,0.928,-0.430,-1.068,-0.397,0.488,73.333,8239.000,1.000
-2.653,-2.958,-2.763,-3.005,-2.978,-3.168,-3.174,-2.843,-0.021,0.928,-0.428,-1.099,-0.427,0.519,73.333,8240.000,1.000
-2.924,-3.296,-3.149,-3.330,-3.278,-3.457,-3.651,-3.201,-0.023,0.929,-0.427,-1.007,-0.397,0.549,73.333,8241.000,1.000
-2.998,-3.373,-3.217,-3.343,-3.295,-3.443,-3.740,-3.293,-0.022,0.929,-0.429,-0.916,-0.458,0.519,73.333,8242.000,1.000
-2.908,-3.214,-2.993,-3.111,-3.103,-3.194,-3.494,-3.151,-0.022,0.930,-0.430,-0.885,-0.366,0.427,73.333,8243.000,1.000
-2.791,-3.002,-2.678,-2.860,-2.899,-2.927,-3.141,-2.938,-0.023,0.929,-0.431,-0.977,-0.275,0.458,73.333,8244.000,1.000
-2.703,-2.858,-2.430,-2.714,-2.778,-2.769,-2.842,-2.743,-0.022,0.929,-0.433,-0.854,-0.397,0.397,73.333,8245.000,1.000
-2.564,-2.742,-2.257,-2.602,-2.667,-2.668,-2.593,-2.522,-0.022,0.929,-0.430,-0.885,-0.427,0.305,73.333,8246.000,1.000
-2.238,-2.502,-2.050,-2.349,-2.401,-2.462,-2.279,-2.165,-0.021,0.929,-0.429,-0.824,-0.366,0.275,73.333,8247.000,1.000
-1.655,-2.013,-1.696,-1.842,-1.872,-2.030,-1.809,-1.626,-0.020,0.929,-0.430,-0.763,-0.305,0.366,73.333,8248.000,1.000
-0.964,-1.360,-1.248,-1.201,-1.202,-1.462,-1.271,-1.041,-0.021,0.928,-0.430,-0.824,-0.244,0.305,73.333,8249.000,1.000
-0.443,-0.789,-0.879,-0.679,-0.659,-0.986,-0.871,-0.631,-0.021,0.929,-0.431,-0.824,-0.336,0.214,73.333,8250.000,1.000
-0.260,-0.475,-0.694,-0.426,-0.407,-0.741,-0.715,-0.491,-0.020,0.929,-0.429,-0.671,-0.305,0.244,73.333,8251.000,1.000
-0.340,-0.388,-0.648,-0.378,-0.380,-0.665,-0.720,-0.523,-0.020,0.930,-0.428,-0.549,-0.366,0.275,73.333,8252.000,1.000
-0.472,-0.374,-0.628,-0.361,-0.406,-0.603,-0.723,-0.547,-0.021,0.930,-0.426,-0.580,-0.397,0.275,73.333,8253.000,1.000
-0.514,-0.330,-0.572,-0.271,-0.388,-0.471,-0.634,-0.473,-0.021,0.931,-0.432,-0.549,-0.244,0.305,73.333,8254.000,1.000
-0.407,-0.191,-0.430,-0.067,-0.291,-0.248,-0.415,-0.282,-0.020,0.932,-0.427,-0.580,-0.305,0.305,73.333,8255.000,1.000
-0.141,0.079,-0.167,0.241,-0.089,0.060,-0.060,0.011,-0.022,0.932,-0.426,-0.702,-0.214,0.366,73.333,8256.000,1.000
0.225,0.434,0.178,0.577,0.201,0.394,0.370,0.337,-0.021,0.932,-0.428,-0.702,-0.366,0.427,73.333,8257.000,1.000
0.580,0.758,0.487,0.824,0.508,0.675,0.763,0.604,-0.021,0.932,-0.431,-0.671,-0.336,0.488,73.333,8258.000,1.000
0.811,0.935,0.639,0.889,0.738,0.836,0.999,0.735,-0.021,0.930,-0.429,-0.641,-0.305,0.458,73.333,8259.000,1.000
0.900,0.941,0.609,0.796,0.853,0.880,1.048,0.736,-0.021,0.931,-0.428,-0.732,-0.244,0.458,73.333,8260.000,1.000
0.864,0.797,0.426,0.622,0.839,0.813,0.929,0.637,-0.024,0.932,-0.422,-0.763,-0.244,0.458,73.333,8261.000,1.000
0.675,0.494,0.101,0.383,0.649,0.585,0.642,0.424,-0.023,0.930,-0.425,-0.854,-0.244,0.458,73.333,8262.000,1.000
0.311,0.044,-0.325,0.071,0.267,0.168,0.203,0.087,-0.024,0.932,-0.427,-0.977,-0.458,0.488,73.333,8263.000,1.000
-0.193,-0.480,-0.776,-0.303,-0.250,-0.378,-0.320,-0.350,-0.024,0.932,-0.424,-0.977,-0.458,0.397,73.333,8264.000,1.000
-0.720,-0.945,-1.150,-0.677,-0.761,-0.894,-0.791,-0.791,-0.024,0.930,-0.426,-0.977,-0.458,0.366,73.333,8265.000,1.000
-1.103,-1.204,-1.334,-0.938,-1.089,-1.190,-1.057,-1.088,-0.022,0.931,-0.429,-1.038,-0.549,0.397,73.333,8266.000,1.000
-1.187,-1.144,-1.226,-0.963,-1.083,-1.131,-1.007,-1.089,-0.021,0.931,-0.428,-1.068,-0.580,0.488,73.333,8267.000,1.000
-0.862,-0.691,-0.758,-0.644,-0.655,-0.656,-0.580,-0.692,-0.021,0.932,-0.426,-1.221,-0.610,0.397,73.333,8268.000,1.000
-0.112,0.140,0.038,0.027,0.175,0.186,0.192,0.099,-0.019,0.931,-0.426,-1.221,-0.519,0.458,73.333,8269.000,1.000
0.966,1.219,1.028,0.951,1.269,1.243,1.182,1.156,-0.020,0.932,-0.429,-1.282,-0.580,0.519,73.333,8270.000,1.000
2.097,2.268,1.972,1.890,2.357,2.239,2.144,2.197,-0.019,0.931,-0.428,-1.343,-0.610,0.519,73.333,8271.000,1.000
2.906,2.953,2.602,2.553,3.109,2.873,2.800,2.882,-0.020,0.930,-0.428,-1.373,-0.549,0.488,73.333,8272.000,1.000
3.173,3.098,2.802,2.791,3.344,3.022,3.014,3.035,-0.020,0.932,-0.427,-1.404,-0.488,0.519,73.333,8273.000,1.000
2.912,2.742,2.621,2.626,3.081,2.756,2.819,2.702,-0.020,0.929,-0.429,-1.434,-0.580,0.549,73.333,8274.000,1.000
2.311,2.086,2.216,2.201,2.493,2.263,2.367,2.102,-0.021,0.929,-0.426,-1.434,-0.458,0.488,73.333,8275.000,1.000
1.603,1.382,1.736,1.679,1.802,1.732,1.825,1.483,-0.020,0.929,-0.428,-1.434,-0.488,0.519,73.333,8276.000,1.000
0.936,0.782,1.226,1.132,1.141,1.239,1.274,0.957,-0.019,0.928,-0.428,-1.404,-0.519,0.458,73.333,8277.000,1.000
0.344,0.294,0.649,0.533,0.529,0.750,0.694,0.474,-0.021,0.929,-0.430,-1.404,-0.580,0.336,73.333,8278.000,1.000
-0.189,-0.146,-0.009,-0.143,-0.045,0.219,0.068,-0.054,-0.021,0.929,-0.430,-1.343,-0.549,0.336,73.333,8279.000,1.000
-0.561,-0.469,-0.574,-0.732,-0.454,-0.241,-0.452,-0.529,-0.022,0.929,-0.427,-1.312,-0.488,0.305,73.333,8280.000,1.000
-0.520,-0.431,-0.700,-0.876,-0.430,-0.342,-0.549,-0.628,-0.020,0.931,-0.426,-1.343,-0.519,0.336,73.333,8281.000,1.000
0.133,0.187,-0.108,-0.275,0.232,0.173,0.032,-0.055,-0.019,0.930,-0.429,-1.434,-0.519,0.275,73.333,8282.000,1.000
1.344,1.356,1.180,1.053,1.473,1.304,1.266,1.201,-0.020,0.930,-0.423,-1.373,-0.488,0.275,73.333,8283.000,1.000
2.763,2.754,2.793,2.726,2.942,2.728,2.809,2.787,-0.021,0.932,-0.425,-1.373,-0.519,0.244,73.333,8284.000,1.000
3.985,3.982,4.254,4.254,4.223,4.018,4.219,4.227,-0.021,0.932,-0.424,-1.373,-0.488,0.214,73.333,8285.000,1.000
4.782,4.805,5.250,5.305,5.064,4.901,5.194,5.197,-0.022,0.931,-0.424,-1.434,-0.488,0.275,73.333,8286.000,1.000
5.167,5.216,5.724,5.816,5.453,5.348,5.672,5.650,-0.024,0.930,-0.428,-1.373,-0.580,0.214,73.333,8287.000,1.000
5.306,5.383,5.842,5.966,5.566,5.521,5.813,5.770,-0.023,0.930,-0.426,-1.343,-0.549,0.183,73.333,8288.000,1.000
5.369,5.482,5.831,5.985,5.607,5.621,5.834,5.784,-0.023,0.930,-0.427,-1.312,-0.641,0.214,73.333,8289.000,1.000
5.511,5.654,5.896,6.060,5.739,5.810,5.917,5.879,-0.024,0.928,-0.425,-1.312,-0.580,0.183,73.333,8290.000,1.000
5.861,6.008,6.183,6.307,6.077,6.210,6.185,6.179,-0.022,0.931,-0.427,-1.190,-0.610,0.183,73.333,8291.000,1.000
6.433,6.558,6.697,6.730,6.620,6.826,6.646,6.685,-0.022,0.932,-0.427,-1.221,-0.641,0.183,73.333,8292.000,1.000
7.057,7.161,7.263,7.189,7.197,7.473,7.151,7.239,-0.023,0.930,-0.427,-1.282,-0.763,0.214,73.333,8293.000,1.000
7.425,7.535,7.573,7.419,7.503,7.824,7.416,7.561,-0.025,0.931,-0.429,-1.282,-0.824,0.275,73.333,8294.000,1.000
7.311,7.430,7.400,7.207,7.305,7.628,7.205,7.427,-0.023,0.930,-0.430,-1.190,-0.732,0.153,73.333,8295.000,1.000
6.710,6.799,6.742,6.540,6.594,6.883,6.496,6.802,-0.024,0.930,-0.426,-1.099,-0.793,0.183,73.333,8296.000,1.000
5.831,5.837,5.812,5.621,5.601,5.836,5.512,5.875,-0.024,0.929,-0.427,-1.007,-0.732,0.336,73.333,8297.000,1.000
4.992,4.904,4.921,4.774,4.685,4.862,4.622,4.977,-0.024,0.930,-0.427,-1.038,-0.793,0.488,73.333,8298.000,1.000
4.414,4.272,4.282,4.216,4.101,4.228,4.087,4.350,-0.023,0.930,-0.425,-0.916,-0.732,0.458,73.333,8299.000,1.000
4.120,3.980,3.914,3.951,3.869,3.950,3.908,4.016,-0.022,0.929,-0.423,-0.916,-0.824,0.397,73.333,8300.000,1.000
3.968,3.866,3.679,3.806,3.813,3.845,3.868,3.815,-0.022,0.930,-0.427,-0.793,-0.763,0.366,73.333,8301.000,1.000
3.788,3.726,3.426,3.602,3.718,3.707,3.731,3.577,-0.021,0.930,-0.425,-0.946,-0.671,0.458,73.333,8302.000,1.000
3.513,3.477,3.126,3.295,3.495,3.455,3.420,3.263,-0.021,0.930,-0.426,-0.977,-0.732,0.458,73.333,8303.000,1.000
3.110,3.093,2.771,2.895,3.114,3.065,2.940,2.882,-0.023,0.931,-0.427,-0.977,-0.732,0.580,73.333,8304.000,1.000
2.541,2.551,2.305,2.371,2.553,2.521,2.291,2.399,-0.022,0.931,-0.427,-0.854,-0.732,0.580,73.333,8305.000,1.000
1.834,1.876,1.703,1.711,1.841,1.856,1.521,1.791,-0.022,0.930,-0.425,-0.946,-0.793,0.610,73.333,8306.000,1.000
1.119,1.184,1.066,1.009,1.108,1.187,0.787,1.148,-0.019,0.931,-0.425,-0.946,-0.671,0.610,73.333,8307.000,1.000
0.588,0.658,0.595,0.457,0.561,0.686,0.301,0.665,-0.020,0.931,-0.427,-0.916,-0.610,0.580,73.333,8308.000,1.000
0.380,0.445,0.447,0.226,0.363,0.484,0.197,0.513,-0.021,0.929,-0.424,-0.793,-0.671,0.488,73.333,8309.000,1.000
0.516,0.586,0.653,0.373,0.543,0.621,0.462,0.735,-0.020,0.929,-0.428,-0.793,-0.580,0.397,73.333,8310.000,1.000
0.844,0.940,1.044,0.761,0.934,0.955,0.891,1.166,-0.020,0.929,-0.428,-0.916,-0.610,0.519,73.333,8311.000,1.000
1.062,1.198,1.294,1.069,1.209,1.178,1.144,1.458,-0.019,0.929,-0.429,-0.854,-0.549,0.427,73.333,8312.000,1.000
0.947,1.108,1.155,1.016,1.099,1.038,0.982,1.333,-0.017,0.931,-0.427,-0.854,-0.488,0.488,73.333,8313.000,1.000
0.531,0.672,0.658,0.574,0.594,0.543,0.454,0.802,-0.017,0.932,-0.427,-0.793,-0.458,0.488,73.333,8314.000,1.000
0.095,0.164,0.125,0.032,-0.021,-0.018,-0.104,0.187,-0.017,0.932,-0.426,-0.763,-0.397,0.458,73.333,8315.000,1.000
-0.087,-0.108,-0.108,-0.262,-0.395,-0.324,-0.347,-0.156,-0.018,0.933,-0.426,-0.885,-0.244,0.488,73.333,8316.000,1.000
-0.017,-0.085,-0.010,-0.234,-0.428,-0.314,-0.234,-0.158,-0.019,0.931,-0.425,-0.854,-0.244,0.458,73.333,8317.000,1.000
0.068,0.024,0.148,-0.118,-0.314,-0.189,-0.029,-0.067,-0.019,0.930,-0.428,-0.854,-0.183,0.366,73.333,8318.000,1.000
-0.104,-0.072,0.031,-0.229,-0.356,-0.234,-0.063,-0.213,-0.021,0.930,-0.429,-0.824,-0.183,0.336,73.333,8319.000,1.000
-0.600,-0.477,-0.455,-0.671,-0.680,-0.577,-0.434,-0.703,-0.020,0.931,-0.426,-0.824,-0.214,0.366,73.333,8320.000,1.000
-1.232,-1.030,-1.106,-1.271,-1.160,-1.098,-0.952,-1.349,-0.020,0.930,-0.428,-0.824,-0.183,0.305,73.333,8321.000,1.000
-1.729,-1.482,-1.626,-1.765,-1.568,-1.563,-1.362,-1.861,-0.021,0.930,-0.428,-0.702,-0.183,0.244,73.333,8322.000,1.000
-1.895,-1.673,-1.818,-1.964,-1.739,-1.781,-1.529,-2.040,-0.020,0.929,-0.426,-0.854,-0.092,0.336,73.333,8323.000,1.000
-1.750,-1.637,-1.721,-1.875,-1.690,-1.748,-1.507,-1.907,-0.021,0.930,-0.427,-0.854,-0.214,0.366,73.333,8324.000,1.000
-1.510,-1.549,-1.567,-1.686,-1.599,-1.624,-1.470,-1.684,-0.022,0.929,-0.427,-0.885,-0.153,0.244,73.333,8325.000,1.000
-1.404,-1.568,-1.569,-1.591,-1.630,-1.572,-1.548,-1.597,-0.021,0.929,-0.424,-0.885,-0.275,0.214,73.333,8326.000,1.000
-1.468,-1.695,-1.711,-1.600,-1.778,-1.606,-1.695,-1.671,-0.021,0.931,-0.427,-1.007,-0.183,0.305,73.333,8327.000,1.000
-1.523,-1.769,-1.749,-1.523,-1.853,-1.588,-1.702,-1.707,-0.023,0.930,-0.427,-1.038,-0.244,0.214,73.333,8328.000,1.000
-1.348,-1.590,-1.445,-1.162,-1.630,-1.355,-1.379,-1.480,-0.022,0.930,-0.427,-1.129,-0.244,0.122,73.333,8329.000,1.000
-0.814,-1.037,-0.726,-0.462,-0.986,-0.811,-0.681,-0.883,-0.022,0.935,-0.425,-1.190,-0.397,0.153,73.333,8330.000,1.000
-0.022,-0.210,0.215,0.396,-0.053,-0.051,0.196,-0.046,-0.024,0.934,-0.428,-1.190,-0.397,0.214,73.333,8331.000,1.000
0.677,0.539,0.948,1.012,0.766,0.592,0.849,0.648,-0.026,0.934,-0.427,-1.221,-0.458,0.305,73.333,8332.000,1.000
0.952,0.874,1.113,1.066,1.094,0.804,0.959,0.842,-0.025,0.933,-0.429,-1.312,-0.488,0.244,73.333,8333.000,1.000
0.739,0.720,0.701,0.581,0.864,0.543,0.547,0.496,-0.024,0.931,-0.429,-1.312,-0.488,0.275,73.333,8334.000,1.000
0.259,0.285,0.051,-0.100,0.330,0.059,-0.058,-0.094,-0.024,0.929,-0.425,-1.373,-0.549,0.366,73.333,8335.000,1.000
-0.185,-0.154,-0.444,-0.602,-0.174,-0.343,-0.500,-0.558,-0.023,0.928,-0.426,-1.373,-0.610,0.366,73.333,8336.000,1.000
-0.416,-0.428,-0.603,-0.754,-0.459,-0.516,-0.624,-0.708,-0.022,0.931,-0.427,-1.312,-0.610,0.336,73.333,8337.000,1.000
-0.411,-0.489,-0.464,-0.595,-0.498,-0.464,-0.486,-0.567,-0.022,0.929,-0.428,-1.343,-0.641,0.336,73.333,8338.000,1.000
-0.296,-0.422,-0.226,-0.321,-0.411,-0.315,-0.279,-0.325,-0.022,0.929,-0.428,-1.312,-0.580,0.366,73.333,8339.000,1.000
-0.264,-0.414,-0.142,-0.180,-0.401,-0.267,-0.230,-0.242,-0.020,0.929,-0.427,-1.343,-0.549,0.397,73.333,8340.000,1.000
-0.473,-0.637,-0.391,-0.344,-0.640,-0.483,-0.484,-0.502,-0.020,0.930,-0.427,-1.373,-0.671,0.427,73.333,8341.000,1.000
-0.937,-1.106,-0.963,-0.818,-1.147,-0.976,-1.019,-1.088,-0.021,0.928,-0.426,-1.373,-0.671,0.488,73.333,8342.000,1.000
-1.521,-1.669,-1.664,-1.436,-1.766,-1.591,-1.662,-1.795,-0.021,0.927,-0.424,-1.343,-0.671,0.519,73.333,8343.000,1.000
-2.115,-2.209,-2.330,-2.062,-2.377,-2.201,-2.284,-2.466,-0.021,0.931,-0.427,-1.282,-0.610,0.580,73.333,8344.000,1.000
-2.735,-2.759,-2.960,-2.701,-3.003,-2.817,-2.902,-3.109,-0.020,0.930,-0.424,-1.251,-0.671,0.580,73.333,8345.000,1.000
-3.436,-3.397,-3.641,-3.422,-3.711,-3.498,-3.586,-3.796,-0.021,0.929,-0.427,-1.251,-0.641,0.519,73.333,8346.000,1.000
-4.212,-4.131,-4.412,-4.236,-4.495,-4.242,-4.330,-4.542,-0.020,0.929,-0.425,-1.221,-0.580,0.458,73.333,8347.000,1.000
-4.973,-4.869,-5.193,-5.034,-5.240,-4.948,-5.025,-5.262,-0.022,0.929,-0.423,-1.190,-0.610,0.366,73.333,8348.000,1.000
-5.567,-5.455,-5.818,-5.630,-5.770,-5.459,-5.515,-5.801,-0.023,0.931,-0.426,-1.160,-0.610,0.458,73.333,8349.000,1.000
-5.791,-5.683,-6.071,-5.818,-5.879,-5.593,-5.617,-5.964,-0.022,0.930,-0.426,-1.160,-0.702,0.458,73.333,8350.000,1.000
-5.501,-5.395,-5.778,-5.475,-5.448,-5.231,-5.216,-5.612,-0.023,0.930,-0.426,-1.160,-0.732,0.397,73.333,8351.000,1.000
-4.706,-4.597,-4.910,-4.639,-4.523,-4.406,-4.348,-4.756,-0.022,0.932,-0.425,-1.221,-0.732,0.458,73.333,8352.000,1.000
-3.507,-3.396,-3.561,-3.441,-3.238,-3.220,-3.139,-3.498,-0.023,0.934,-0.425,-1.160,-0.732,0.336,73.333,8353.000,1.000
-2.053,-1.944,-1.925,-2.026,-1.760,-1.818,-1.746,-1.993,-0.023,0.934,-0.423,-1.251,-0.793,0.305,73.333,8354.000,1.000
-0.518,-0.393,-0.227,-0.505,-0.249,-0.347,-0.299,-0.397,-0.024,0.935,-0.420,-1.282,-0.824,0.214,73.333,8355.000,1.000
0.937,1.114,1.346,1.024,1.176,1.076,1.110,1.151,-0.023,0.933,-0.423,-1.251,-0.854,0.153,73.333,8356.000,1.000
2.174,2.423,2.648,2.423,2.413,2.340,2.389,2.508,-0.023,0.932,-0.427,-1.312,-0.763,0.153,73.333,8357.000,1.000
3.123,3.425,3.599,3.538,3.383,3.352,3.446,3.561,-0.022,0.931,-0.429,-1.251,-0.732,0.214,73.333,8358.000,1.000
3.758,4.059,4.170,4.242,4.014,4.020,4.174,4.251,-0.021,0.927,-0.426,-1.312,-0.702,0.244,73.333,8359.000,1.000
4.037,4.288,4.342,4.447,4.229,4.263,4.449,4.534,-0.021,0.929,-0.426,-1.251,-0.671,0.244,73.333,8360.000,1.000
3.853,4.036,4.052,4.094,3.928,3.985,4.146,4.319,-0.020,0.928,-0.422,-1.221,-0.610,0.244,73.333,8361.000,1.000
3.085,3.198,3.207,3.157,3.028,3.103,3.182,3.498,-0.020,0.930,-0.423,-1.190,-0.641,0.336,73.333,8362.000,1.000
1.731,1.767,1.803,1.710,1.574,1.650,1.622,2.074,-0.020,0.928,-0.424,-1.129,-0.641,0.427,73.333,8363.000,1.000
-0.069,-0.109,-0.038,-0.086,-0.258,-0.204,-0.325,0.192,-0.021,0.927,-0.426,-1.068,-0.641,0.427,73.333,8364.000,1.000
-2.034,-2.126,-2.049,-1.980,-2.177,-2.166,-2.336,-1.853,-0.021,0.926,-0.428,-1.038,-0.610,0.397,73.333,8365.000,1.000
-3.795,-3.890,-3.865,-3.651,-3.843,-3.891,-4.039,-3.670,-0.023,0.927,-0.427,-0.946,-0.549,0.427,73.333,8366.000,1.000
-5.059,-5.098,-5.183,-4.850,-5.013,-5.131,-5.177,-4.952,-0.022,0.927,-0.427,-0.824,-0.580,0.519,73.333,8367.000,1.000
-5.755,-5.688,-5.901,-5.518,-5.649,-5.837,-5.725,-5.621,-0.023,0.929,-0.428,-0.824,-0.580,0.397,73.333,8368.000,1.000
-6.015,-5.833,-6.123,-5.785,-5.889,-6.142,-5.852,-5.822,-0.021,0.928,-0.429,-0.732,-0.549,0.427,73.333,8369.000,1.000
-5.958,-5.703,-5.973,-5.783,-5.839,-6.150,-5.701,-5.700,-0.022,0.931,-0.430,-0.641,-0.549,0.488,73.333,8370.000,1.000
-5.537,-5.271,-5.446,-5.473,-5.431,-5.784,-5.226,-5.237,-0.023,0.932,-0.431,-0.671,-0.427,0.427,73.333,8371.000,1.000
-4.627,-4.395,-4.471,-4.719,-4.526,-4.889,-4.300,-4.333,-0.025,0.933,-0.430,-0.610,-0.458,0.549,73.333,8372.000,1.000
-3.184,-3.019,-3.046,-3.445,-3.093,-3.424,-2.887,-2.967,-0.023,0.933,-0.430,-0.580,-0.580,0.549,73.333,8373.000,1.000
-1.317,-1.251,-1.281,-1.707,-1.253,-1.525,-1.102,-1.237,-0.026,0.931,-0.426,-0.580,-0.641,0.519,73.333,8374.000,1.000
0.795,0.751,0.704,0.383,0.838,0.606,0.897,0.736,-0.023,0.930,-0.427,-0.641,-0.610,0.458,73.333,8375.000,1.000
2.911,2.784,2.750,2.619,2.975,2.724,2.920,2.783,-0.018,0.928,-0.429,-0.702,-0.641,0.427,73.333,8376.000,1.000
4.683,4.521,4.548,4.619,4.820,4.483,4.659,4.582,-0.016,0.928,-0.429,-0.641,-0.488,0.427,73.333,8377.000,1.000
5.740,5.588,5.707,5.925,5.975,5.521,5.750,5.728,-0.014,0.928,-0.432,-0.641,-0.458,0.488,73.333,8378.000,1.000
5.778,5.679,5.862,6.154,6.089,5.563,5.864,5.864,-0.011,0.928,-0.427,-0.732,-0.305,0.580,73.333,8379.000,1.000
4.657,4.636,4.809,5.125,4.979,4.490,4.806,4.809,-0.008,0.928,-0.426,-0.702,0.000,0.610,73.333,8380.000,1.000
2.428,2.465,2.559,2.883,2.671,2.331,2.560,2.581,-0.009,0.929,-0.425,-0.793,0.122,0.763,73.333,8381.000,1.000
-0.710,-0.671,-0.676,-0.348,-0.616,-0.752,-0.697,-0.618,-0.010,0.931,-0.426,-0.763,0.336,0.793,73.333,8382.000,1.000
-4.357,-4.359,-4.441,-4.119,-4.412,-4.374,-4.511,-4.339,-0.013,0.934,-0.426,-0.885,0.458,0.793,73.333,8383.000,1.000
-7.932,-7.968,-8.093,-7.794,-8.054,-7.936,-8.198,-7.942,-0.015,0.936,-0.428,-1.007,0.549,0.732,73.333,8384.000,1.000
-10.791,-10.824,-10.960,-10.710,-10.873,-10.783,-11.069,-10.770,-0.018,0.938,-0.430,-1.129,0.610,0.732,73.333,8385.000,1.000
-12.452,-12.454,-12.573,-12.402,-12.436,-12.438,-12.662,-12.378,-0.020,0.939,-0.432,-1.251,0.549,0.641,73.333,8386.000,1.000
-12.762,-12.737,-12.817,-12.743,-12.659,-12.759,-12.873,-12.654,-0.022,0.939,-0.432,-1.343,0.488,0.641,73.333,8387.000,1.000
-11.874,-11.850,-11.863,-11.896,-11.733,-11.887,-11.890,-11.762,-0.025,0.937,-0.428,-1.343,0.519,0.519,73.333,8388.000,1.000
-10.082,-10.093,-10.004,-10.172,-9.957,-10.100,-10.036,-10.004,-0.030,0.936,-0.427,-1.495,0.458,0.488,73.333,8389.000,1.000
-7.642,-7.702,-7.482,-7.831,-7.571,-7.644,-7.585,-7.618,-0.034,0.936,-0.426,-1.526,0.305,0.275,73.333,8390.000,1.000
-4.810,-4.892,-4.545,-5.080,-4.787,-4.767,-4.778,-4.805,-0.037,0.935,-0.423,-1.526,0.000,0.092,73.333,8391.000,1.000
-2.014,-2.054,-1.634,-2.286,-1.986,-1.904,-2.011,-1.946,-0.040,0.934,-0.425,-1.556,-0.244,-0.092,73.333,8392.000,1.000
0.196,0.263,0.653,0.021,0.282,0.373,0.181,0.384,-0.038,0.933,-0.428,-1.587,-0.488,-0.244,73.333,8393.000,1.000
1.348,1.547,1.802,1.326,1.497,1.567,1.318,1.645,-0.035,0.934,-0.430,-1.556,-0.824,-0.519,73.333,8394.000,1.000
1.294,1.594,1.665,1.422,1.465,1.525,1.242,1.635,-0.032,0.931,-0.431,-1.556,-1.068,-0.519,73.333,8395.000,1.000
0.373,0.695,0.612,0.584,0.507,0.590,0.282,0.679,-0.028,0.930,-0.429,-1.556,-1.282,-0.488,73.333,8396.000,1.000
-0.679,-0.421,-0.582,-0.486,-0.631,-0.506,-0.837,-0.466,-0.024,0.928,-0.430,-1.495,-1.373,-0.549,73.333,8397.000,1.000
-1.031,-0.885,-1.054,-0.945,-1.100,-0.937,-1.288,-0.929,-0.022,0.930,-0.426,-1.465,-1.404,-0.488,73.333,8398.000,1.000
-0.172,-0.145,-0.283,-0.233,-0.359,-0.190,-0.535,-0.154,-0.022,0.928,-0.426,-1.373,-1.373,-0.366,73.333,8399.000,1.000
1.899,1.825,1.739,1.711,1.632,1.759,1.472,1.889,-0.020,0.927,-0.422,-1.282,-1.404,-0.305,73.333,8400.000,1.000
4.735,4.595,4.572,4.491,4.449,4.506,4.339,4.752,-0.020,0.928,-0.421,-1.312,-1.465,-0.214,73.333,8401.000,1.000
7.585,7.426,7.454,7.375,7.333,7.338,7.326,7.649,-0.020,0.930,-0.425,-1.373,-1.343,0.061,73.333,8402.000,1.000
9.621,9.490,9.532,9.528,9.429,9.439,9.564,9.713,-0.019,0.933,-0.423,-1.404,-1.343,0.092,73.333,8403.000,1.000
10.189,10.105,10.123,10.250,10.063,10.129,10.315,10.269,-0.021,0.935,-0.426,-1.343,-1.373,0.305,73.333,8404.000,1.000
9.018,8.960,8.928,9.207,8.950,9.084,9.231,9.042,-0.020,0.934,-0.427,-1.434,-1.221,0.580,73.333,8405.000,1.000
6.265,6.174,6.079,6.483,6.227,6.405,6.426,6.188,-0.021,0.936,-0.426,-1.526,-1.129,0.641,73.333,8406.000,1.000
2.359,2.180,2.021,2.472,2.306,2.493,2.351,2.147,-0.021,0.935,-0.424,-1.617,-1.190,0.793,73.333,8407.000,1.000
-2.117,-2.408,-2.604,-2.217,-2.228,-2.060,-2.343,-2.462,-0.022,0.935,-0.425,-1.678,-1.129,0.854,73.333,8408.000,1.000
-6.561,-6.937,-7.125,-6.884,-6.739,-6.604,-6.973,-6.972,-0.020,0.934,-0.425,-1.740,-1.099,0.946,73.333,8409.000,1.000
-10.411,-10.804,-10.943,-10.858,-10.621,-10.513,-10.910,-10.779,-0.018,0.933,-0.424,-1.862,-0.916,1.038,73.333,8410.000,1.000
-13.140,-13.485,-13.561,-13.570,-13.337,-13.242,-13.604,-13.390,-0.020,0.931,-0.425,-1.862,-1.007,1.068,73.333,8411.000,1.000
-14.337,-14.609,-14.631,-14.645,-14.505,-14.412,-14.673,-14.478,-0.019,0.930,-0.426,-1.831,-0.885,1.099,73.333,8412.000,1.000
-13.808,-14.031,-14.021,-13.974,-13.968,-13.869,-13.990,-13.915,-0.018,0.927,-0.424,-1.831,-0.793,1.007,73.333,8413.000,1.000
-11.660,-11.877,-11.854,-11.727,-11.833,-11.732,-11.728,-11.814,-0.017,0.927,-0.422,-1.740,-0.732,0.916,73.333,8414.000,1.000
-8.216,-8.460,-8.434,-8.253,-8.405,-8.317,-8.253,-8.456,-0.016,0.928,-0.422,-1.617,-0.671,0.885,73.333,8415.000,1.000
-3.896,-4.175,-4.152,-3.967,-4.091,-4.031,-3.992,-4.214,-0.014,0.928,-0.423,-1.617,-0.519,0.916,73.333,8416.000,1.000
0.801,0.509,0.527,0.662,0.623,0.649,0.588,0.451,-0.013,0.926,-0.422,-1.556,-0.397,0.885,73.333,8417.000,1.000
5.342,5.066,5.092,5.141,5.212,5.195,5.010,5.021,-0.015,0.924,-0.426,-1.526,-0.336,0.702,73.333,8418.000,1.000
9.186,8.946,9.009,8.975,9.125,9.057,8.803,8.941,-0.015,0.925,-0.424,-1.373,-0.214,0.610,73.333,8419.000,1.000
11.883,11.683,11.816,11.718,11.886,11.771,11.557,11.733,-0.015,0.925,-0.421,-1.404,-0.183,0.519,73.333,8420.000,1.000
13.193,13.021,13.239,13.086,13.236,13.088,13.007,13.126,-0.015,0.928,-0.421,-1.373,0.000,0.519,73.333,8421.000,1.000
13.161,12.978,13.277,13.061,13.208,13.058,13.114,13.138,-0.014,0.928,-0.422,-1.221,0.061,0.305,73.333,8422.000,1.000
12.147,11.909,12.270,11.992,12.166,12.066,12.188,12.114,-0.015,0.929,-0.422,-1.129,0.153,0.183,73.333,8423.000,1.000
10.692,10.380,10.774,10.453,10.657,10.666,10.781,10.593,-0.015,0.931,-0.422,-1.190,0.275,0.153,73.333,8424.000,1.000
9.297,8.940,9.336,9.007,9.199,9.350,9.428,9.086,-0.015,0.932,-0.424,-1.221,0.366,0.000,73.333,8425.000,1.000
8.328,7.989,8.367,8.073,8.197,8.457,8.501,7.992,-0.017,0.932,-0.420,-1.129,0.580,-0.092,73.333,8426.000,1.000
7.995,7.744,8.089,7.870,7.899,8.171,8.187,7.568,-0.018,0.934,-0.422,-1.190,0.580,-0.122,73.333,8427.000,1.000
8.313,8.204,8.497,8.365,8.322,8.505,8.484,7.867,-0.018,0.933,-0.427,-1.160,0.610,-0.153,73.333,8428.000,1.000
9.055,9.107,9.325,9.261,9.196,9.244,9.170,8.667,-0.021,0.935,-0.424,-1.129,0.580,-0.153,73.333,8429.000,1.000
9.847,10.049,10.174,10.144,10.098,10.031,9.896,9.573,-0.021,0.936,-0.422,-1.129,0.610,-0.244,73.333,8430.000,1.000
10.356,10.654,10.680,10.676,10.659,10.531,10.345,10.201,-0.023,0.935,-0.422,-1.099,0.671,-0.214,73.333,8431.000,1.000
10.375,10.684,10.624,10.671,10.669,10.524,10.323,10.294,-0.025,0.933,-0.422,-1.007,0.549,-0.305,73.333,8432.000,1.000
9.868,10.112,10.002,10.136,10.113,9.978,9.819,9.799,-0.025,0.935,-0.424,-0.977,0.427,-0.183,73.333,8433.000,1.000
8.897,9.051,8.946,9.162,9.082,8.979,8.914,8.813,-0.028,0.936,-0.424,-0.885,0.427,-0.153,73.333,8434.000,1.000
7.591,7.681,7.625,7.868,7.725,7.681,7.734,7.504,-0.028,0.936,-0.425,-0.977,0.336,-0.092,73.333,8435.000,1.000
6.173,6.248,6.260,6.448,6.276,6.314,6.479,6.113,-0.028,0.937,-0.423,-0.885,0.214,0.000,73.333,8436.000,1.000
4.965,5.079,5.140,5.209,5.068,5.196,5.436,4.952,-0.027,0.938,-0.421,-0.916,-0.031,0.092,73.333,8437.000,1.000
4.353,4.547,4.604,4.550,4.486,4.687,4.941,4.382,-0.028,0.938,-0.422,-0.916,-0.092,0.122,73.333,8438.000,1.000
4.589,4.856,4.861,4.735,4.755,4.997,5.197,4.628,-0.026,0.937,-0.419,-0.946,-0.214,0.244,73.333,8439.000,1.000
5.649,5.919,5.865,5.728,5.799,6.043,6.128,5.641,-0.026,0.935,-0.420,-0.916,-0.214,0.458,73.333,8440.000,1.000
7.265,7.438,7.351,7.241,7.317,7.528,7.467,7.139,-0.027,0.933,-0.424,-0.916,-0.458,0.458,73.333,8441.000,1.000
8.996,9.012,8.913,8.840,8.888,9.043,8.853,8.705,-0.027,0.933,-0.427,-0.702,-0.641,0.549,73.333,8442.000,1.000
10.365,10.238,10.126,10.093,10.100,10.191,9.926,9.922,-0.025,0.931,-0.429,-0.671,-0.793,0.610,73.333,8443.000,1.000
11.030,10.832,10.685,10.702,10.673,10.705,10.422,10.501,-0.026,0.930,-0.427,-0.641,-0.793,0.732,73.333,8444.000,1.000
10.884,10.708,10.492,10.574,10.532,10.511,10.253,10.360,-0.024,0.927,-0.426,-0.549,-0.916,0.702,73.333,8445.000,1.000
9.950,9.880,9.573,9.734,9.698,9.629,9.432,9.539,-0.021,0.928,-0.423,-0.519,-1.007,0.824,73.333,8446.000,1.000
8.204,8.285,7.909,8.137,8.111,8.009,7.900,8.016,-0.021,0.929,-0.423,-0.366,-0.946,0.824,73.333,8447.000,1.000
5.633,5.848,5.470,5.700,5.693,5.584,5.564,5.722,-0.021,0.930,-0.425,-0.366,-1.007,0.946,73.333,8448.000,1.000
2.382,2.671,2.358,2.483,2.524,2.447,2.482,2.698,-0.021,0.930,-0.424,-0.183,-0.946,0.977,73.333,8449.000,1.000
-1.161,-0.860,-1.078,-1.150,-1.029,-1.040,-0.987,-0.747,-0.023,0.929,-0.423,-0.153,-0.977,0.916,73.333,8450.000,1.000
-4.445,-4.161,-4.298,-4.570,-4.381,-4.302,-4.252,-4.046,-0.022,0.929,-0.422,-0.092,-1.007,0.885,73.333,8451.000,1.000
-6.937,-6.669,-6.757,-7.133,-6.939,-6.772,-6.726,-6.590,-0.024,0.929,-0.425,-0.031,-1.190,0.732,73.333,8452.000,1.000
-8.288,-8.034,-8.099,-8.441,-8.323,-8.104,-8.054,-7.978,-0.025,0.931,-0.424,0.000,-1.251,0.732,73.333,8453.000,1.000
-8.521,-8.296,-8.346,-8.551,-8.545,-8.340,-8.281,-8.222,-0.027,0.929,-0.421,0.000,-1.251,0.549,73.333,8454.000,1.000
-8.018,-7.831,-7.864,-7.909,-7.983,-7.850,-7.790,-7.705,-0.026,0.929,-0.424,0.000,-1.221,0.458,73.333,8455.000,1.000
-7.278,-7.124,-7.117,-7.066,-7.147,-7.105,-7.053,-6.920,-0.024,0.931,-0.429,0.031,-1.282,0.305,73.333,8456.000,1.000
-6.708,-6.583,-6.496,-6.459,-6.486,-6.505,-6.455,-6.271,-0.021,0.931,-0.428,0.000,-1.221,0.275,73.333,8457.000,1.000
-6.517,-6.427,-6.234,-6.306,-6.259,-6.287,-6.215,-5.991,-0.018,0.931,-0.429,0.031,-1.129,0.275,73.333,8458.000,1.000
-6.759,-6.709,-6.428,-6.640,-6.540,-6.535,-6.422,-6.165,-0.018,0.932,-0.430,0.092,-1.190,0.214,73.333,8459.000,1.000
-7.377,-7.364,-7.048,-7.370,-7.266,-7.199,-7.049,-6.763,-0.016,0.930,-0.429,0.061,-1.068,0.214,73.333,8460.000,1.000
-8.246,-8.258,-7.964,-8.332,-8.278,-8.122,-7.970,-7.673,-0.015,0.929,-0.427,0.061,-0.885,0.183,73.333,8461.000,1.000
-9.220,-9.234,-8.995,-9.349,-9.372,-9.107,-9.013,-8.739,-0.015,0.929,-0.425,0.000,-0.793,0.153,73.333,8462.000,1.000
-10.087,-10.075,-9.894,-10.201,-10.280,-9.907,-9.939,-9.718,-0.018,0.930,-0.425,0.000,-0.732,0.183,73.333,8463.000,1.000
-10.578,-10.535,-10.387,-10.644,-10.720,-10.288,-10.470,-10.317,-0.018,0.931,-0.428,-0.183,-0.580,0.092,73.333,8464.000,1.000
-10.460,-10.407,-10.274,-10.480,-10.500,-10.088,-10.379,-10.284,-0.020,0.930,-0.424,-0.244,-0.458,0.000,73.333,8465.000,1.000
-9.645,-9.622,-9.502,-9.662,-9.602,-9.278,-9.601,-9.536,-0.022,0.930,-0.426,-0.244,-0.397,0.092,73.333,8466.000,1.000
-8.273,-8.311,-8.216,-8.360,-8.208,-8.003,-8.295,-8.227,-0.021,0.930,-0.427,-0.214,-0.366,-0.031,73.333,8467.000,1.000
-6.636,-6.741,-6.692,-6.856,-6.595,-6.518,-6.755,-6.663,-0.020,0.931,-0.427,-0.305,-0.366,0.092,73.333,8468.000,1.000
-5.088,-5.234,-5.257,-5.431,-5.052,-5.119,-5.295,-5.171,-0.020,0.931,-0.429,-0.275,-0.275,0.092,73.333,8469.000,1.000
-3.920,-4.072,-4.184,-4.297,-3.830,-4.061,-4.166,-4.014,-0.020,0.931,-0.429,-0.214,-0.183,0.031,73.333,8470.000,1.000
-3.279,-3.410,-3.600,-3.577,-3.092,-3.473,-3.499,-3.330,-0.018,0.932,-0.429,-0.336,-0.061,0.153,73.333,8471.000,1.000
-3.163,-3.262,-3.489,-3.311,-2.890,-3.360,-3.296,-3.135,-0.017,0.934,-0.433,-0.427,0.031,0.183,73.333,8472.000,1.000
-3.405,-3.463,-3.693,-3.391,-3.107,-3.579,-3.400,-3.284,-0.017,0.935,-0.436,-0.580,0.427,0.092,73.333,8473.000,1.000
-3.696,-3.704,-3.928,-3.557,-3.448,-3.850,-3.523,-3.494,-0.024,0.934,-0.429,-0.580,0.580,0.092,73.333,8474.000,1.000
-3.675,-3.623,-3.852,-3.473,-3.522,-3.822,-3.347,-3.432,-0.024,0.933,-0.426,-0.458,0.092,0.366,73.333,8475.000,1.000
-3.083,-2.962,-3.224,-2.879,-3.023,-3.232,-2.670,-2.865,-0.023,0.933,-0.423,-0.549,-0.092,0.305,73.333,8476.000,1.000
