EEG 1,EEG 2,EEG 3,EEG 4,EEG 5,EEG 6,EEG 7,EEG 8,Accelerometer X,Accelerometer Y,Accelerometer Z,Gyroscope X,Gyroscope Y,Gyroscope Z,Battery Level,Counter,Validation Indicator
-3.919,-3.831,-3.798,-4.000,-3.617,-3.944,-3.911,-4.049,-0.120,0.859,-0.544,-0.214,-1.160,0.092,73.333,34457.000,1.000
-3.534,-3.355,-3.340,-3.593,-3.240,-3.582,-3.478,-3.475,-0.120,0.860,-0.544,-0.214,-1.129,0.122,73.333,34458.000,1.000
-3.309,-3.075,-3.071,-3.325,-3.039,-3.381,-3.222,-3.090,-0.118,0.860,-0.543,-0.305,-1.099,0.122,73.333,34459.000,1.000
-2.923,-2.716,-2.698,-2.880,-2.720,-3.034,-2.866,-2.644,-0.118,0.861,-0.543,-0.244,-1.007,0.153,73.333,34460.000,1.000
-2.176,-2.078,-2.021,-2.087,-2.099,-2.339,-2.229,-1.962,-0.119,0.862,-0.541,-0.183,-1.007,0.153,73.333,34461.000,1.000
-1.158,-1.198,-1.096,-1.060,-1.238,-1.363,-1.355,-1.085,-0.121,0.862,-0.546,-0.214,-0.916,0.122,73.333,34462.000,1.000
-0.194,-0.352,-0.199,-0.134,-0.410,-0.419,-0.499,-0.277,-0.119,0.862,-0.544,-0.092,-0.946,0.092,73.333,34463.000,1.000
0.349,0.113,0.321,0.342,0.058,0.137,0.014,0.143,-0.119,0.861,-0.545,-0.092,-0.885,0.122,73.333,34464.000,1.000
0.254,-0.021,0.224,0.179,-0.037,0.080,-0.033,-0.019,-0.119,0.863,-0.540,-0.092,-0.885,0.153,73.333,34465.000,1.000
-0.441,-0.719,-0.486,-0.549,-0.666,-0.559,-0.619,-0.717,-0.118,0.863,-0.543,-0.244,-0.732,0.061,73.333,34466.000,1.000
-1.505,-1.737,-1.590,-1.588,-1.628,-1.557,-1.532,-1.723,-0.120,0.864,-0.542,-0.214,-0.702,0.183,73.333,34467.000,1.000
-2.613,-2.752,-2.748,-2.632,-2.647,-2.600,-2.483,-2.737,-0.118,0.861,-0.543,-0.244,-0.702,0.214,73.333,34468.000,1.000
-3.486,-3.521,-3.645,-3.452,-3.487,-3.420,-3.239,-3.520,-0.121,0.864,-0.544,-0.275,-0.610,0.336,73.333,34469.000,1.000
-3.988,-3.965,-4.119,-3.960,-4.026,-3.885,-3.693,-3.987,-0.123,0.864,-0.546,-0.214,-0.641,0.336,73.333,34470.000,1.000
-4.063,-4.070,-4.144,-4.122,-4.197,-3.954,-3.803,-4.112,-0.121,0.861,-0.543,-0.336,-0.580,0.458,73.333,34471.000,1.000
-3.708,-3.835,-3.778,-3.926,-3.979,-3.660,-3.566,-3.885,-0.123,0.861,-0.546,-0.275,-0.702,0.458,73.333,34472.000,1.000
-3.020,-3.308,-3.142,-3.413,-3.434,-3.113,-3.039,-3.337,-0.123,0.863,-0.545,-0.275,-0.732,0.580,73.333,34473.000,1.000
-2.254,-2.667,-2.451,-2.758,-2.769,-2.527,-2.400,-2.635,-0.123,0.862,-0.549,-0.214,-0.793,0.549,73.333,34474.000,1.000
-1.707,-2.157,-1.939,-2.210,-2.234,-2.133,-1.892,-2.028,-0.124,0.864,-0.546,-0.214,-0.763,0.641,73.333,34475.000,1.000
-1.446,-1.832,-1.633,-1.843,-1.878,-1.943,-1.582,-1.596,-0.124,0.862,-0.543,-0.244,-0.732,0.580,73.333,34476.000,1.000
-1.252,-1.512,-1.335,-1.491,-1.522,-1.729,-1.300,-1.191,-0.122,0.859,-0.543,-0.366,-0.641,0.580,73.333,34477.000,1.000
-0.800,-0.936,-0.785,-0.905,-0.920,-1.197,-0.779,-0.587,-0.123,0.862,-0.545,-0.366,-0.763,0.519,73.333,34478.000,1.000
0.068,0.013,0.135,0.023,0.039,-0.222,0.117,0.317,-0.122,0.862,-0.546,-0.397,-0.702,0.519,73.333,34479.000,1.000
1.213,1.195,1.315,1.168,1.232,1.035,1.279,1.413,-0.118,0.861,-0.548,-0.397,-0.671,0.549,73.333,34480.000,1.000
2.331,2.331,2.504,2.282,2.389,2.267,2.442,2.483,-0.118,0.861,-0.545,-0.336,-0.732,0.427,73.333,34481.000,1.000
3.147,3.174,3.438,3.122,3.249,3.188,3.326,3.317,-0.117,0.861,-0.545,-0.336,-0.824,0.488,73.333,34482.000,1.000
3.594,3.681,4.006,3.628,3.739,3.717,3.816,3.843,-0.117,0.862,-0.542,-0.336,-0.763,0.366,73.333,34483.000,1.000
3.805,3.977,4.281,3.920,3.974,3.972,4.015,4.147,-0.119,0.862,-0.547,-0.275,-0.702,0.397,73.333,34484.000,1.000
3.900,4.149,4.367,4.104,4.072,4.074,4.068,4.316,-0.119,0.861,-0.542,-0.244,-0.702,0.397,73.333,34485.000,1.000
3.871,4.156,4.292,4.154,4.048,4.025,4.023,4.333,-0.121,0.860,-0.543,-0.275,-0.641,0.488,73.333,34486.000,1.000
3.622,3.892,4.003,3.955,3.829,3.750,3.813,4.092,-0.122,0.862,-0.542,-0.366,-0.641,0.397,73.333,34487.000,1.000
3.166,3.374,3.524,3.514,3.421,3.281,3.431,3.606,-0.121,0.862,-0.542,-0.336,-0.610,0.336,73.333,34488.000,1.000
2.704,2.821,3.038,3.036,2.994,2.824,3.030,3.086,-0.124,0.862,-0.540,-0.305,-0.610,0.244,73.333,34489.000,1.000
2.459,2.491,2.743,2.752,2.756,2.590,2.793,2.759,-0.121,0.861,-0.546,-0.244,-0.610,0.244,73.333,34490.000,1.000
2.529,2.521,2.732,2.777,2.819,2.654,2.810,2.731,-0.122,0.861,-0.546,-0.244,-0.671,0.183,73.333,34491.000,1.000
2.839,2.844,2.953,3.046,3.127,2.922,3.018,2.947,-0.121,0.865,-0.545,-0.244,-0.519,0.153,73.333,34492.000,1.000
3.255,3.310,3.304,3.427,3.548,3.269,3.317,3.301,-0.126,0.861,-0.544,-0.275,-0.641,0.122,73.333,34493.000,1.000
3.715,3.834,3.737,3.861,4.002,3.670,3.672,3.737,-0.125,0.862,-0.542,-0.336,-0.793,0.214,73.333,34494.000,1.000
4.218,4.398,4.240,4.356,4.464,4.160,4.101,4.230,-0.125,0.861,-0.543,-0.366,-0.885,0.122,73.333,34495.000,1.000
4.753,4.989,4.788,4.914,4.935,4.746,4.619,4.755,-0.123,0.860,-0.545,-0.427,-0.916,0.122,73.333,34496.000,1.000
5.198,5.492,5.251,5.421,5.326,5.299,5.132,5.212,-0.126,0.861,-0.543,-0.458,-0.977,0.122,73.333,34497.000,1.000
5.379,5.725,5.438,5.676,5.481,5.599,5.440,5.433,-0.123,0.863,-0.542,-0.336,-1.099,0.153,73.333,34498.000,1.000
5.190,5.561,5.222,5.511,5.278,5.471,5.357,5.287,-0.123,0.864,-0.542,-0.275,-1.160,0.183,73.333,34499.000,1.000
4.634,4.978,4.594,4.874,4.689,4.880,4.808,4.739,-0.121,0.865,-0.544,-0.336,-1.221,0.153,73.333,34500.000,1.000
3.806,4.081,3.676,3.858,3.798,3.941,3.889,3.869,-0.121,0.864,-0.543,-0.427,-1.221,0.214,73.333,34501.000,1.000
2.776,2.965,2.570,2.589,2.695,2.780,2.732,2.755,-0.121,0.864,-0.544,-0.580,-1.129,0.244,73.333,34502.000,1.000
1.510,1.625,1.276,1.143,1.396,1.414,1.385,1.417,-0.121,0.865,-0.543,-0.610,-1.160,0.244,73.333,34503.000,1.000
-0.041,0.039,-0.236,-0.426,-0.111,-0.171,-0.152,-0.125,-0.122,0.865,-0.542,-0.702,-1.160,0.336,73.333,34504.000,1.000
-1.787,-1.679,-1.883,-2.017,-1.731,-1.870,-1.799,-1.762,-0.123,0.864,-0.539,-0.641,-1.221,0.366,73.333,34505.000,1.000
-3.441,-3.248,-3.417,-3.438,-3.216,-3.411,-3.342,-3.271,-0.122,0.861,-0.543,-0.824,-1.251,0.427,73.333,34506.000,1.000
-4.726,-4.418,-4.600,-4.528,-4.355,-4.547,-4.577,-4.448,-0.122,0.862,-0.542,-0.793,-1.190,0.275,73.333,34507.000,1.000
-5.512,-5.099,-5.322,-5.227,-5.093,-5.200,-5.398,-5.198,-0.121,0.862,-0.545,-0.824,-1.221,0.366,73.333,34508.000,1.000
-5.831,-5.363,-5.619,-5.573,-5.496,-5.449,-5.802,-5.541,-0.121,0.861,-0.545,-0.824,-1.221,0.305,73.333,34509.000,1.000
-5.836,-5.379,-5.653,-5.682,-5.693,-5.476,-5.887,-5.612,-0.121,0.862,-0.545,-1.007,-1.221,0.275,73.333,34510.000,1.000
-5.667,-5.278,-5.577,-5.641,-5.762,-5.416,-5.763,-5.539,-0.118,0.864,-0.545,-1.038,-1.221,0.366,73.333,34511.000,1.000
-5.400,-5.106,-5.442,-5.469,-5.696,-5.297,-5.492,-5.372,-0.121,0.864,-0.544,-1.068,-1.160,0.397,73.333,34512.000,1.000
-5.029,-4.818,-5.185,-5.123,-5.421,-5.042,-5.065,-5.076,-0.120,0.862,-0.545,-1.099,-1.129,0.397,73.333,34513.000,1.000
-4.511,-4.345,-4.713,-4.563,-4.862,-4.556,-4.458,-4.591,-0.120,0.865,-0.548,-1.099,-1.007,0.397,73.333,34514.000,1.000
-3.889,-3.735,-4.063,-3.862,-4.091,-3.883,-3.746,-3.958,-0.120,0.863,-0.546,-1.099,-0.946,0.458,73.333,34515.000,1.000
-3.314,-3.170,-3.427,-3.214,-3.342,-3.223,-3.114,-3.346,-0.119,0.861,-0.541,-1.068,-0.885,0.397,73.333,34516.000,1.000
-2.971,-2.865,-3.024,-2.838,-2.885,-2.815,-2.765,-2.964,-0.117,0.863,-0.541,-1.160,-0.824,0.427,73.333,34517.000,1.000
-2.917,-2.893,-2.933,-2.809,-2.825,-2.759,-2.760,-2.902,-0.120,0.864,-0.542,-1.221,-0.793,0.458,73.333,34518.000,1.000
-3.070,-3.159,-3.087,-3.053,-3.072,-2.997,-3.019,-3.091,-0.121,0.863,-0.542,-1.251,-0.763,0.458,73.333,34519.000,1.000
-3.341,-3.544,-3.408,-3.461,-3.495,-3.426,-3.436,-3.432,-0.118,0.863,-0.547,-1.160,-0.610,0.488,73.333,34520.000,1.000
-3.633,-3.933,-3.797,-3.899,-3.949,-3.899,-3.884,-3.814,-0.117,0.864,-0.543,-1.099,-0.549,0.397,73.333,34521.000,1.000
-3.852,-4.232,-4.142,-4.230,-4.291,-4.248,-4.240,-4.126,-0.119,0.862,-0.545,-1.221,-0.549,0.366,73.333,34522.000,1.000
-3.952,-4.391,-4.355,-4.374,-4.436,-4.376,-4.431,-4.300,-0.119,0.863,-0.543,-1.160,-0.427,0.305,73.333,34523.000,1.000
-3.963,-4.422,-4.423,-4.346,-4.397,-4.305,-4.455,-4.337,-0.120,0.864,-0.544,-1.129,-0.397,0.275,73.333,34524.000,1.000
-3.993,-4.402,-4.426,-4.256,-4.292,-4.172,-4.397,-4.315,-0.118,0.866,-0.545,-1.221,-0.336,0.305,73.333,34525.000,1.000
-4.132,-4.406,-4.452,-4.210,-4.242,-4.123,-4.352,-4.301,-0.119,0.866,-0.544,-1.282,-0.275,0.336,73.333,34526.000,1.000
-4.349,-4.437,-4.508,-4.212,-4.276,-4.197,-4.340,-4.284,-0.118,0.866,-0.542,-1.282,-0.244,0.397,73.333,34527.000,1.000
-4.435,-4.359,-4.458,-4.095,-4.247,-4.252,-4.229,-4.131,-0.122,0.865,-0.542,-1.343,-0.244,0.336,73.333,34528.000,1.000
-4.139,-3.989,-4.111,-3.644,-3.935,-4.058,-3.830,-3.678,-0.121,0.867,-0.543,-1.312,-0.214,0.305,73.333,34529.000,1.000
-3.359,-3.255,-3.393,-2.804,-3.230,-3.479,-3.073,-2.880,-0.121,0.867,-0.543,-1.343,-0.244,0.397,73.333,34530.000,1.000
-2.146,-2.172,-2.330,-1.664,-2.146,-2.478,-1.992,-1.788,-0.124,0.867,-0.541,-1.373,-0.214,0.397,73.333,34531.000,1.000
-0.660,-0.814,-1.019,-0.369,-0.791,-1.119,-0.678,-0.504,-0.125,0.865,-0.545,-1.465,-0.214,0.366,73.333,34532.000,1.000
0.899,0.699,0.408,0.962,0.695,0.453,0.760,0.861,-0.125,0.866,-0.541,-1.495,-0.275,0.427,73.333,34533.000,1.000
2.357,2.204,1.822,2.253,2.178,2.053,2.202,2.203,-0.125,0.867,-0.541,-1.526,-0.183,0.427,73.333,34534.000,1.000
3.553,3.490,3.066,3.392,3.474,3.450,3.461,3.369,-0.126,0.864,-0.539,-1.556,-0.275,0.305,73.333,34535.000,1.000
4.368,4.367,3.988,4.237,4.399,4.434,4.344,4.199,-0.127,0.866,-0.539,-1.556,-0.427,0.397,73.333,34536.000,1.000
4.860,4.853,4.601,4.782,4.950,5.006,4.843,4.706,-0.129,0.867,-0.540,-1.556,-0.580,0.458,73.333,34537.000,1.000
5.499,5.435,5.355,5.442,5.591,5.646,5.431,5.363,-0.130,0.866,-0.540,-1.587,-0.580,0.458,73.333,34538.000,1.000
7.046,6.923,7.000,6.954,7.118,7.146,6.906,6.943,-0.129,0.865,-0.542,-1.617,-0.793,0.397,73.333,34539.000,1.000
9.585,9.431,9.595,9.409,9.646,9.605,9.373,9.511,-0.129,0.866,-0.541,-1.678,-0.946,0.488,73.333,34540.000,1.000
11.655,11.494,11.660,11.393,11.717,11.562,11.368,11.561,-0.128,0.866,-0.539,-1.556,-0.977,0.519,73.333,34541.000,1.000
11.070,10.905,11.014,10.771,11.132,10.853,10.703,10.884,-0.129,0.862,-0.541,-1.526,-1.007,0.580,73.333,34542.000,1.000
7.196,7.018,7.064,6.915,7.245,6.886,6.761,6.867,-0.126,0.861,-0.539,-1.465,-1.099,0.610,73.333,34543.000,1.000
1.956,1.749,1.781,1.719,1.968,1.623,1.497,1.485,-0.125,0.859,-0.543,-1.373,-1.099,0.610,73.333,34544.000,1.000
-1.953,-2.210,-2.126,-2.159,-2.010,-2.238,-2.378,-2.506,-0.122,0.857,-0.543,-1.190,-1.129,0.732,73.333,34545.000,1.000
-3.543,-3.858,-3.689,-3.746,-3.682,-3.735,-3.882,-4.076,-0.122,0.856,-0.542,-0.946,-1.068,0.854,73.333,34546.000,1.000
-3.904,-4.251,-4.021,-4.128,-4.100,-4.005,-4.137,-4.321,-0.118,0.854,-0.539,-0.824,-1.099,0.946,73.333,34547.000,1.000
-4.353,-4.674,-4.450,-4.615,-4.552,-4.398,-4.506,-4.614,-0.118,0.852,-0.540,-0.610,-1.038,0.946,73.333,34548.000,1.000
-4.925,-5.162,-5.011,-5.239,-5.080,-4.949,-5.052,-5.060,-0.115,0.851,-0.544,-0.549,-0.916,1.129,73.333,34549.000,1.000
-4.915,-5.035,-4.965,-5.264,-4.997,-4.920,-5.044,-4.978,-0.115,0.852,-0.544,-0.427,-0.763,1.038,73.333,34550.000,1.000
-4.232,-4.240,-4.183,-4.553,-4.231,-4.192,-4.324,-4.245,-0.115,0.852,-0.540,-0.183,-0.641,0.977,73.333,34551.000,1.000
-3.622,-3.563,-3.421,-3.833,-3.546,-3.515,-3.602,-3.564,-0.114,0.853,-0.542,-0.031,-0.488,1.068,73.333,34552.000,1.000
-3.566,-3.498,-3.215,-3.602,-3.435,-3.396,-3.384,-3.405,-0.111,0.855,-0.543,0.214,-0.336,1.038,73.333,34553.000,1.000
-3.553,-3.516,-3.106,-3.397,-3.382,-3.341,-3.217,-3.276,-0.111,0.853,-0.545,0.336,-0.244,1.068,73.333,34554.000,1.000
-2.809,-2.805,-2.342,-2.498,-2.607,-2.585,-2.388,-2.434,-0.110,0.858,-0.543,0.488,-0.031,1.038,73.333,34555.000,1.000
-1.365,-1.367,-0.953,-0.985,-1.145,-1.161,-0.958,-0.951,-0.110,0.860,-0.543,0.549,0.183,0.977,73.333,34556.000,1.000
-0.036,-0.014,0.264,0.311,0.177,0.137,0.279,0.326,-0.108,0.863,-0.545,0.580,0.305,0.916,73.333,34557.000,1.000
0.677,0.726,0.843,0.911,0.854,0.848,0.877,0.903,-0.111,0.863,-0.545,0.610,0.488,0.793,73.333,34558.000,1.000
1.251,1.309,1.312,1.330,1.368,1.464,1.361,1.302,-0.112,0.864,-0.545,0.519,0.549,0.610,73.333,34559.000,1.000
2.433,2.501,2.480,2.375,2.507,2.717,2.525,2.349,-0.112,0.864,-0.544,0.549,0.702,0.458,73.333,34560.000,1.000
4.170,4.280,4.312,4.053,4.259,4.515,4.332,4.042,-0.113,0.863,-0.542,0.580,0.854,0.305,73.333,34561.000,1.000
5.540,5.717,5.833,5.462,5.709,5.894,5.831,5.450,-0.112,0.865,-0.542,0.427,0.977,0.244,73.333,34562.000,1.000
5.860,6.078,6.270,5.889,6.132,6.147,6.280,5.837,-0.113,0.864,-0.542,0.305,1.099,0.214,73.333,34563.000,1.000
5.545,5.738,5.984,5.693,5.895,5.715,6.032,5.569,-0.113,0.863,-0.544,0.244,1.129,0.122,73.333,34564.000,1.000
5.553,5.667,5.940,5.786,5.917,5.618,6.002,5.591,-0.115,0.862,-0.546,0.061,1.099,0.092,73.333,34565.000,1.000
6.151,6.170,6.444,6.403,6.444,6.171,6.457,6.181,-0.115,0.864,-0.546,0.092,1.099,-0.031,73.333,34566.000,1.000
6.602,6.545,6.823,6.804,6.751,6.648,6.716,6.630,-0.116,0.864,-0.543,-0.031,1.221,-0.092,73.333,34567.000,1.000
6.269,6.167,6.486,6.382,6.249,6.375,6.216,6.318,-0.116,0.862,-0.546,-0.153,1.251,-0.092,73.333,34568.000,1.000
5.537,5.409,5.801,5.570,5.380,5.681,5.379,5.620,-0.117,0.861,-0.548,-0.183,1.190,-0.244,73.333,34569.000,1.000
5.196,5.046,5.507,5.196,4.984,5.329,5.005,5.315,-0.119,0.860,-0.545,-0.214,1.190,-0.336,73.333,34570.000,1.000
5.286,5.128,5.625,5.332,5.137,5.382,5.144,5.450,-0.118,0.858,-0.550,-0.183,1.282,-0.336,73.333,34571.000,1.000
5.060,4.936,5.421,5.230,5.082,5.137,5.041,5.285,-0.119,0.856,-0.553,-0.153,1.129,-0.397,73.333,34572.000,1.000
4.115,4.078,4.484,4.441,4.331,4.208,4.248,4.389,-0.119,0.856,-0.550,-0.122,1.129,-0.397,73.333,34573.000,1.000
3.033,3.120,3.369,3.483,3.364,3.175,3.289,3.301,-0.120,0.857,-0.550,-0.092,1.068,-0.397,73.333,34574.000,1.000
2.643,2.857,2.900,3.149,2.952,2.857,2.957,2.843,-0.120,0.856,-0.549,0.000,1.038,-0.397,73.333,34575.000,1.000
3.055,3.357,3.221,3.543,3.229,3.343,3.353,3.174,-0.121,0.855,-0.546,0.031,0.885,-0.397,73.333,34576.000,1.000
3.668,3.995,3.777,4.081,3.676,3.998,3.889,3.746,-0.121,0.857,-0.546,0.031,0.885,-0.519,73.333,34577.000,1.000
3.962,4.259,4.061,4.269,3.864,4.272,4.077,4.054,-0.119,0.858,-0.547,-0.031,0.763,-0.488,73.333,34578.000,1.000
3.909,4.162,4.041,4.108,3.830,4.147,3.938,4.056,-0.120,0.860,-0.548,-0.092,0.793,-0.336,73.333,34579.000,1.000
3.639,3.868,3.825,3.750,3.706,3.798,3.630,3.848,-0.120,0.861,-0.549,-0.214,0.641,-0.336,73.333,34580.000,1.000
3.104,3.324,3.328,3.163,3.368,3.218,3.095,3.340,-0.121,0.861,-0.553,-0.244,0.580,-0.244,73.333,34581.000,1.000
2.220,2.409,2.424,2.242,2.616,2.323,2.212,2.413,-0.121,0.864,-0.552,-0.275,0.488,-0.275,73.333,34582.000,1.000
1.186,1.305,1.314,1.156,1.575,1.292,1.165,1.279,-0.125,0.866,-0.552,-0.275,0.397,-0.183,73.333,34583.000,1.000
0.430,0.462,0.477,0.332,0.676,0.531,0.406,0.420,-0.127,0.866,-0.552,-0.458,0.366,-0.153,73.333,34584.000,1.000
0.129,0.088,0.136,-0.030,0.154,0.198,0.137,0.066,-0.127,0.865,-0.553,-0.549,0.183,-0.061,73.333,34585.000,1.000
-0.059,-0.147,-0.051,-0.265,-0.257,-0.052,0.007,-0.111,-0.129,0.864,-0.550,-0.641,-0.031,0.092,73.333,34586.000,1.000
-0.679,-0.785,-0.663,-0.943,-1.040,-0.752,-0.573,-0.679,-0.129,0.864,-0.548,-0.793,-0.275,0.122,73.333,34587.000,1.000
-1.707,-1.802,-1.712,-2.048,-2.136,-1.850,-1.613,-1.646,-0.131,0.864,-0.546,-1.007,-0.336,0.153,73.333,34588.000,1.000
-2.123,-2.191,-2.195,-2.536,-2.532,-2.309,-2.093,-2.024,-0.129,0.865,-0.547,-1.068,-0.519,0.153,73.333,34589.000,1.000
-0.859,-0.913,-1.049,-1.312,-1.207,-1.079,-0.917,-0.772,-0.127,0.866,-0.546,-1.282,-0.702,0.122,73.333,34590.000,1.000
1.406,1.320,1.059,0.941,1.093,1.126,1.261,1.414,-0.123,0.866,-0.548,-1.343,-0.763,0.214,73.333,34591.000,1.000
2.013,1.842,1.502,1.546,1.674,1.648,1.786,1.885,-0.117,0.867,-0.548,-1.495,-0.916,0.275,73.333,34592.000,1.000
-1.118,-1.391,-1.738,-1.577,-1.520,-1.553,-1.414,-1.391,-0.113,0.864,-0.546,-1.709,-0.885,0.458,73.333,34593.000,1.000
-6.999,-7.331,-7.616,-7.422,-7.445,-7.456,-7.334,-7.371,-0.108,0.862,-0.546,-1.801,-0.702,0.671,73.333,34594.000,1.000
-12.492,-12.811,-12.989,-12.855,-12.924,-12.912,-12.826,-12.892,-0.107,0.862,-0.551,-1.923,-0.549,0.977,73.333,34595.000,1.000
-15.506,-15.760,-15.829,-15.818,-15.872,-15.843,-15.812,-15.873,-0.107,0.863,-0.552,-1.953,-0.458,1.068,73.333,34596.000,1.000
-16.619,-16.795,-16.805,-16.928,-16.906,-16.850,-16.905,-16.923,-0.108,0.862,-0.551,-1.953,-0.397,1.221,73.333,34597.000,1.000
-17.516,-17.624,-17.650,-17.860,-17.739,-17.649,-17.804,-17.744,-0.111,0.865,-0.552,-1.953,-0.244,1.434,73.333,34598.000,1.000
-18.638,-18.686,-18.789,-19.010,-18.817,-18.700,-18.926,-18.782,-0.115,0.865,-0.550,-2.045,-0.092,1.465,73.333,34599.000,1.000
-19.003,-18.988,-19.185,-19.339,-19.135,-19.014,-19.235,-19.054,-0.119,0.868,-0.544,-2.136,0.031,1.434,73.333,34600.000,1.000
-17.835,-17.753,-18.016,-18.055,-17.890,-17.803,-17.934,-17.804,-0.124,0.869,-0.544,-2.350,-0.031,1.373,73.333,34601.000,1.000
-15.560,-15.407,-15.706,-15.621,-15.498,-15.493,-15.493,-15.489,-0.127,0.869,-0.547,-2.502,-0.031,1.282,73.333,34602.000,1.000
-13.034,-12.812,-13.127,-12.942,-12.828,-12.935,-12.824,-12.965,-0.130,0.867,-0.548,-2.594,-0.214,1.160,73.333,34603.000,1.000
-10.426,-10.159,-10.463,-10.219,-10.088,-10.300,-10.120,-10.364,-0.132,0.865,-0.548,-2.716,-0.366,1.007,73.333,34604.000,1.000
-7.374,-7.120,-7.354,-7.105,-6.957,-7.237,-7.009,-7.295,-0.130,0.864,-0.550,-2.777,-0.641,0.763,73.333,34605.000,1.000
-3.962,-3.778,-3.880,-3.686,-3.539,-3.844,-3.553,-3.842,-0.128,0.864,-0.549,-2.808,-0.763,0.610,73.333,34606.000,1.000
-1.072,-0.974,-0.938,-0.821,-0.702,-1.010,-0.642,-0.919,-0.126,0.863,-0.546,-2.716,-0.854,0.580,73.333,34607.000,1.000
0.428,0.463,0.561,0.655,0.703,0.392,0.820,0.563,-0.125,0.863,-0.543,-2.838,-1.068,0.336,73.333,34608.000,1.000
0.648,0.652,0.690,0.857,0.795,0.485,0.912,0.686,-0.122,0.861,-0.546,-2.838,-1.007,0.183,73.333,34609.000,1.000
0.605,0.600,0.485,0.789,0.600,0.323,0.673,0.488,-0.121,0.861,-0.547,-2.747,-1.190,-0.122,73.333,34610.000,1.000
1.304,1.305,1.021,1.451,1.154,0.946,1.177,1.034,-0.120,0.863,-0.548,-2.747,-1.160,-0.153,73.333,34611.000,1.000
2.954,2.983,2.598,3.072,2.718,2.586,2.716,2.606,-0.118,0.863,-0.544,-2.625,-1.129,-0.214,73.333,34612.000,1.000
5.040,5.116,4.759,5.166,4.815,4.738,4.825,4.733,-0.117,0.865,-0.544,-2.686,-1.007,-0.305,73.333,34613.000,1.000
6.899,7.021,6.817,7.076,6.780,6.723,6.819,6.741,-0.115,0.866,-0.544,-2.655,-1.007,-0.305,73.333,34614.000,1.000
8.094,8.238,8.241,8.339,8.129,8.061,8.167,8.126,-0.115,0.864,-0.545,-2.777,-0.824,-0.275,73.333,34615.000,1.000
8.470,8.603,8.774,8.766,8.645,8.547,8.630,8.656,-0.112,0.864,-0.543,-2.838,-0.732,-0.092,73.333,34616.000,1.000
8.046,8.141,8.385,8.362,8.305,8.165,8.219,8.321,-0.111,0.863,-0.542,-2.838,-0.610,0.000,73.333,34617.000,1.000
6.947,6.994,7.227,7.259,7.218,7.033,7.106,7.248,-0.112,0.861,-0.541,-2.838,-0.458,-0.061,73.333,34618.000,1.000
5.416,5.420,5.606,5.709,5.638,5.423,5.568,5.692,-0.113,0.864,-0.539,-2.808,-0.305,0.092,73.333,34619.000,1.000
3.809,3.774,3.923,4.073,3.947,3.739,3.951,4.021,-0.115,0.865,-0.540,-2.716,-0.214,0.336,73.333,34620.000,1.000
2.511,2.431,2.569,2.735,2.554,2.400,2.599,2.629,-0.116,0.864,-0.537,-2.808,-0.214,0.427,73.333,34621.000,1.000
1.725,1.585,1.741,1.896,1.681,1.608,1.698,1.729,-0.116,0.863,-0.537,-2.808,-0.061,0.549,73.333,34622.000,1.000
1.352,1.137,1.334,1.450,1.241,1.234,1.169,1.230,-0.116,0.864,-0.533,-2.838,-0.061,0.732,73.333,34623.000,1.000
1.098,0.813,1.050,1.096,0.951,0.953,0.764,0.859,-0.115,0.866,-0.533,-2.899,-0.122,0.854,73.333,34624.000,1.000
0.768,0.446,0.708,0.651,0.620,0.569,0.330,0.459,-0.117,0.864,-0.533,-3.021,-0.092,0.977,73.333,34625.000,1.000
0.501,0.200,0.468,0.286,0.383,0.260,0.026,0.205,-0.118,0.863,-0.532,-3.082,-0.061,1.007,73.333,34626.000,1.000
0.636,0.408,0.660,0.374,0.564,0.402,0.179,0.426,-0.118,0.859,-0.533,-3.052,-0.153,1.068,73.333,34627.000,1.000
1.473,1.326,1.533,1.210,1.428,1.289,1.049,1.352,-0.117,0.859,-0.535,-3.021,-0.122,1.190,73.333,34628.000,1.000
3.223,3.114,3.245,2.982,3.154,3.091,2.809,3.117,-0.116,0.860,-0.535,-2.960,-0.153,1.221,73.333,34629.000,1.000
5.977,5.847,5.901,5.768,5.823,5.871,5.556,5.798,-0.113,0.862,-0.536,-2.869,-0.214,1.251,73.333,34630.000,1.000
9.568,9.394,9.418,9.400,9.295,9.473,9.159,9.286,-0.112,0.862,-0.533,-2.747,-0.275,1.282,73.333,34631.000,1.000
13.458,13.277,13.345,13.346,13.084,13.386,13.115,13.134,-0.111,0.863,-0.529,-2.655,-0.244,1.190,73.333,34632.000,1.000
16.978,16.857,17.027,16.936,16.577,16.954,16.751,16.727,-0.113,0.864,-0.532,-2.625,-0.183,1.160,73.333,34633.000,1.000
19.758,19.740,20.010,19.774,19.420,19.789,19.653,19.673,-0.117,0.866,-0.535,-2.655,-0.153,1.129,73.333,34634.000,1.000
21.804,21.878,22.176,21.834,21.585,21.864,21.772,21.897,-0.118,0.866,-0.540,-2.563,-0.183,0.977,73.333,34635.000,1.000
23.142,23.255,23.476,23.136,23.040,23.182,23.109,23.342,-0.123,0.869,-0.539,-2.625,-0.244,0.793,73.333,34636.000,1.000
23.511,23.596,23.681,23.446,23.477,23.494,23.431,23.713,-0.126,0.871,-0.537,-2.686,-0.427,0.763,73.333,34637.000,1.000
22.661,22.676,22.647,22.551,22.636,22.593,22.545,22.790,-0.130,0.872,-0.535,-2.747,-0.580,0.580,73.333,34638.000,1.000
20.897,20.842,20.785,20.786,20.837,20.833,20.803,20.937,-0.132,0.872,-0.537,-2.716,-0.854,0.488,73.333,34639.000,1.000
18.874,18.785,18.780,18.812,18.771,18.881,18.872,18.854,-0.131,0.872,-0.533,-2.716,-1.099,0.458,73.333,34640.000,1.000
16.717,16.641,16.719,16.735,16.599,16.837,16.850,16.680,-0.128,0.871,-0.533,-2.747,-1.312,0.397,73.333,34641.000,1.000
13.658,13.620,13.777,13.751,13.560,13.886,13.917,13.641,-0.127,0.870,-0.531,-2.747,-1.556,0.397,73.333,34642.000,1.000
8.956,8.954,9.190,9.091,8.897,9.257,9.297,9.002,-0.122,0.869,-0.533,-2.777,-1.740,0.488,73.333,34643.000,1.000
3.113,3.130,3.437,3.233,3.083,3.437,3.478,3.265,-0.118,0.870,-0.533,-2.777,-1.831,0.580,73.333,34644.000,1.000
-2.300,-2.269,-1.942,-2.255,-2.315,-1.989,-1.954,-2.026,-0.118,0.870,-0.533,-2.686,-1.862,0.763,73.333,34645.000,1.000
-6.088,-6.032,-5.775,-6.149,-6.100,-5.813,-5.787,-5.722,-0.115,0.870,-0.532,-2.594,-1.831,0.885,73.333,34646.000,1.000
-8.394,-8.310,-8.210,-8.560,-8.431,-8.173,-8.173,-8.013,-0.114,0.870,-0.535,-2.502,-1.831,1.068,73.333,34647.000,1.000
-9.956,-9.868,-9.969,-10.216,-10.060,-9.817,-9.860,-9.657,-0.116,0.871,-0.535,-2.533,-1.831,1.190,73.333,34648.000,1.000
-10.777,-10.732,-11.009,-11.113,-10.958,-10.748,-10.832,-10.635,-0.117,0.871,-0.535,-2.319,-1.892,1.343,73.333,34649.000,1.000
-10.149,-10.180,-10.547,-10.515,-10.348,-10.226,-10.320,-10.167,-0.120,0.873,-0.533,-2.289,-1.892,1.404,73.333,34650.000,1.000
-7.874,-7.976,-8.324,-8.197,-7.998,-8.004,-8.071,-7.985,-0.120,0.873,-0.531,-2.197,-2.014,1.373,73.333,34651.000,1.000
-4.899,-5.032,-5.283,-5.108,-4.882,-4.992,-5.023,-5.008,-0.121,0.873,-0.530,-2.106,-1.984,1.343,73.333,34652.000,1.000
-2.481,-2.576,-2.721,-2.538,-2.312,-2.451,-2.475,-2.521,-0.123,0.874,-0.532,-2.045,-2.197,1.282,73.333,34653.000,1.000
-0.996,-0.993,-1.076,-0.907,-0.716,-0.808,-0.865,-0.959,-0.126,0.871,-0.533,-2.014,-2.228,1.343,73.333,34654.000,1.000
0.168,0.277,0.214,0.369,0.493,0.475,0.383,0.229,-0.126,0.868,-0.531,-2.045,-2.289,1.190,73.333,34655.000,1.000
1.649,1.812,1.771,1.921,1.955,1.985,1.914,1.669,-0.124,0.867,-0.529,-2.045,-2.441,1.160,73.333,34656.000,1.000
3.190,3.327,3.340,3.492,3.423,3.462,3.488,3.140,-0.121,0.863,-0.528,-1.953,-2.625,1.129,73.333,34657.000,1.000
3.763,3.809,3.890,4.042,3.884,3.910,4.068,3.658,-0.118,0.858,-0.528,-1.770,-2.655,1.068,73.333,34658.000,1.000
2.506,2.433,2.541,2.693,2.499,2.515,2.758,2.368,-0.113,0.857,-0.528,-1.678,-2.655,0.763,73.333,34659.000,1.000
-0.593,-0.774,-0.735,-0.576,-0.715,-0.709,-0.483,-0.759,-0.111,0.857,-0.531,-1.465,-2.594,0.793,73.333,34660.000,1.000
-4.781,-5.018,-5.156,-4.983,-4.973,-4.996,-4.877,-4.979,-0.108,0.857,-0.536,-1.221,-2.502,0.824,73.333,34661.000,1.000
-9.144,-9.365,-9.728,-9.542,-9.334,-9.422,-9.423,-9.363,-0.104,0.857,-0.533,-1.038,-2.350,0.824,73.333,34662.000,1.000
-13.152,-13.289,-13.825,-13.637,-13.263,-13.438,-13.495,-13.347,-0.104,0.856,-0.532,-0.763,-2.228,0.824,73.333,34663.000,1.000
-16.660,-16.657,-17.246,-17.069,-16.636,-16.884,-16.922,-16.759,-0.106,0.856,-0.530,-0.397,-1.953,0.702,73.333,34664.000,1.000
-19.421,-19.247,-19.773,-19.598,-19.254,-19.518,-19.519,-19.375,-0.111,0.855,-0.529,-0.122,-1.801,0.610,73.333,34665.000,1.000
-20.760,-20.437,-20.841,-20.638,-20.487,-20.707,-20.716,-20.578,-0.117,0.855,-0.533,0.092,-1.709,0.488,73.333,34666.000,1.000
-20.084,-19.689,-19.978,-19.706,-19.759,-19.919,-19.984,-19.817,-0.123,0.857,-0.533,0.305,-1.678,0.244,73.333,34667.000,1.000
-17.799,-17.423,-17.670,-17.291,-17.477,-17.605,-17.742,-17.521,-0.125,0.859,-0.535,0.519,-1.678,0.000,73.333,34668.000,1.000
-15.453,-15.146,-15.455,-14.955,-15.178,-15.312,-15.512,-15.239,-0.128,0.860,-0.532,0.671,-1.831,-0.366,73.333,34669.000,1.000
-14.525,-14.268,-14.724,-14.143,-14.314,-14.457,-14.721,-14.426,-0.130,0.861,-0.533,0.854,-2.014,-0.549,73.333,34670.000,1.000
-14.955,-14.691,-15.319,-14.731,-14.783,-14.900,-15.249,-14.976,-0.130,0.862,-0.532,0.916,-2.075,-0.641,73.333,34671.000,1.000
-15.287,-14.961,-15.734,-15.196,-15.088,-15.152,-15.587,-15.394,-0.126,0.862,-0.531,1.007,-2.228,-0.885,73.333,34672.000,1.000
-14.456,-14.042,-14.881,-14.414,-14.154,-14.180,-14.646,-14.583,-0.127,0.863,-0.536,1.099,-2.411,-0.885,73.333,34673.000,1.000
-13.110,-12.624,-13.405,-13.012,-12.673,-12.700,-13.101,-13.178,-0.127,0.861,-0.538,1.190,-2.350,-0.916,73.333,34674.000,1.000
-12.836,-12.342,-12.927,-12.616,-12.311,-12.374,-12.624,-12.790,-0.127,0.861,-0.536,1.251,-2.472,-1.068,73.333,34675.000,1.000
-14.289,-13.872,-14.159,-13.952,-13.782,-13.892,-13.951,-14.122,-0.126,0.862,-0.539,1.373,-2.472,-1.068,73.333,34676.000,1.000
-16.689,-16.398,-16.370,-16.281,-16.303,-16.439,-16.324,-16.417,-0.126,0.865,-0.534,1.465,-2.502,-0.885,73.333,34677.000,1.000
-19.209,-19.047,-18.778,-18.792,-19.007,-19.121,-18.884,-18.865,-0.122,0.865,-0.537,1.465,-2.533,-0.885,73.333,34678.000,1.000
-22.160,-22.104,-21.704,-21.791,-22.148,-22.188,-21.895,-21.789,-0.124,0.864,-0.537,1.495,-2.533,-0.732,73.333,34679.000,1.000
-26.167,-26.180,-25.744,-25.888,-26.307,-26.250,-25.959,-25.817,-0.125,0.864,-0.536,1.556,-2.472,-0.519,73.333,34680.000,1.000
-30.506,-30.544,-30.136,-30.335,-30.725,-30.605,-30.351,-30.214,-0.125,0.865,-0.536,1.617,-2.411,-0.336,73.333,34681.000,1.000
-33.168,-33.208,-32.868,-33.108,-33.389,-33.279,-33.069,-32.972,-0.125,0.864,-0.538,1.648,-2.350,-0.153,73.333,34682.000,1.000
-32.840,-32.897,-32.647,-32.885,-33.011,-32.977,-32.804,-32.776,-0.123,0.865,-0.537,1.617,-2.380,0.000,73.333,34683.000,1.000
-30.268,-30.371,-30.216,-30.391,-30.370,-30.435,-30.283,-30.343,-0.121,0.864,-0.539,1.648,-2.319,0.244,73.333,34684.000,1.000
-27.212,-27.384,-27.307,-27.366,-27.248,-27.393,-27.249,-27.386,-0.121,0.864,-0.537,1.648,-2.350,0.275,73.333,34685.000,1.000
-24.310,-24.551,-24.522,-24.441,-24.290,-24.474,-24.340,-24.518,-0.123,0.863,-0.540,1.740,-2.197,0.397,73.333,34686.000,1.000
-20.619,-20.911,-20.907,-20.690,-20.564,-20.726,-20.637,-20.817,-0.121,0.864,-0.540,1.740,-1.984,0.519,73.333,34687.000,1.000
-15.367,-15.678,-15.698,-15.383,-15.315,-15.390,-15.392,-15.547,-0.124,0.865,-0.542,1.709,-1.923,0.702,73.333,34688.000,1.000
-9.476,-9.773,-9.834,-9.483,-9.484,-9.411,-9.536,-9.653,-0.124,0.862,-0.538,1.678,-1.831,0.763,73.333,34689.000,1.000
-4.685,-4.939,-5.054,-4.744,-4.802,-4.553,-4.782,-4.873,-0.123,0.862,-0.539,1.801,-1.678,0.854,73.333,34690.000,1.000
-1.395,-1.593,-1.749,-1.561,-1.640,-1.241,-1.506,-1.605,-0.124,0.861,-0.538,1.678,-1.617,0.977,73.333,34691.000,1.000
1.732,1.575,1.420,1.434,1.381,1.847,1.627,1.494,-0.125,0.865,-0.540,1.678,-1.587,1.038,73.333,34692.000,1.000
5.843,5.691,5.588,5.440,5.444,5.865,5.736,5.591,-0.124,0.865,-0.542,1.648,-1.526,0.977,73.333,34693.000,1.000
10.209,10.043,10.022,9.779,9.845,10.137,10.090,9.995,-0.124,0.865,-0.542,1.648,-1.526,1.007,73.333,34694.000,1.000
13.069,12.916,12.961,12.708,12.824,12.956,12.957,12.977,-0.123,0.863,-0.542,1.587,-1.404,0.946,73.333,34695.000,1.000
13.924,13.840,13.898,13.704,13.849,13.830,13.851,14.008,-0.124,0.863,-0.543,1.617,-1.404,0.946,73.333,34696.000,1.000
14.160,14.192,14.212,14.107,14.257,14.117,14.140,14.402,-0.125,0.864,-0.543,1.648,-1.373,0.824,73.333,34697.000,1.000
15.191,15.351,15.312,15.277,15.424,15.195,15.197,15.501,-0.127,0.865,-0.542,1.556,-1.373,0.763,73.333,34698.000,1.000
16.678,16.935,16.852,16.825,16.991,16.692,16.661,16.933,-0.125,0.865,-0.542,1.556,-1.404,0.702,73.333,34699.000,1.000
17.249,17.533,17.437,17.360,17.561,17.211,17.168,17.348,-0.125,0.863,-0.545,1.495,-1.282,0.732,73.333,34700.000,1.000
16.693,16.916,16.839,16.702,16.905,16.538,16.545,16.596,-0.126,0.862,-0.546,1.465,-1.160,0.702,73.333,34701.000,1.000
16.490,16.591,16.558,16.397,16.521,16.190,16.318,16.216,-0.126,0.859,-0.546,1.404,-1.221,0.641,73.333,34702.000,1.000
17.913,17.885,17.915,17.779,17.750,17.504,17.787,17.525,-0.125,0.859,-0.544,1.587,-1.282,0.641,73.333,34703.000,1.000
20.317,20.212,20.330,20.235,20.044,19.898,20.314,19.928,-0.126,0.857,-0.549,1.587,-1.160,0.610,73.333,34704.000,1.000
22.005,21.904,22.133,22.059,21.766,21.685,22.175,21.756,-0.124,0.857,-0.550,1.526,-1.099,0.610,73.333,34705.000,1.000
22.490,22.452,22.809,22.710,22.399,22.321,22.817,22.495,-0.124,0.858,-0.552,1.526,-1.068,0.519,73.333,34706.000,1.000
23.023,23.063,23.540,23.366,23.106,22.994,23.433,23.319,-0.123,0.856,-0.549,1.678,-1.038,0.458,73.333,34707.000,1.000
24.779,24.884,25.427,25.157,24.972,24.837,25.178,25.315,-0.122,0.857,-0.547,1.648,-0.977,0.580,73.333,34708.000,1.000
27.236,27.379,27.886,27.556,27.433,27.318,27.542,27.884,-0.120,0.859,-0.545,1.617,-0.916,0.671,73.333,34709.000,1.000
28.793,28.954,29.309,28.989,28.908,28.850,28.963,29.389,-0.122,0.859,-0.546,1.678,-0.824,0.610,73.333,34710.000,1.000
28.681,28.860,28.995,28.734,28.698,28.703,28.734,29.096,-0.122,0.857,-0.546,1.709,-0.641,0.763,73.333,34711.000,1.000
27.632,27.854,27.779,27.574,27.620,27.646,27.637,27.833,-0.122,0.857,-0.547,1.709,-0.641,0.793,73.333,34712.000,1.000
26.661,26.932,26.743,26.545,26.714,26.700,26.678,26.710,-0.121,0.857,-0.551,1.740,-0.580,0.793,73.333,34713.000,1.000
25.764,26.044,25.878,25.630,25.931,25.846,25.808,25.764,-0.121,0.859,-0.548,1.770,-0.397,0.702,73.333,34714.000,1.000
24.238,24.470,24.442,24.117,24.505,24.381,24.304,24.273,-0.119,0.861,-0.547,1.831,-0.305,0.732,73.333,34715.000,1.000
22.024,22.183,22.324,21.955,22.340,22.256,22.121,22.124,-0.121,0.862,-0.547,1.770,-0.214,0.824,73.333,34716.000,1.000
20.024,20.138,20.393,20.050,20.344,20.368,20.184,20.177,-0.122,0.864,-0.548,1.801,-0.183,0.763,73.333,34717.000,1.000
18.984,19.098,19.376,19.122,19.288,19.429,19.241,19.154,-0.122,0.865,-0.548,1.587,-0.122,0.885,73.333,34718.000,1.000
18.527,18.661,18.893,18.740,18.816,19.026,18.885,18.672,-0.124,0.862,-0.550,1.526,-0.153,0.916,73.333,34719.000,1.000
17.677,17.803,17.969,17.879,17.951,18.156,18.073,17.756,-0.125,0.862,-0.550,1.373,-0.122,0.763,73.333,34720.000,1.000
16.181,16.234,16.374,16.279,16.425,16.562,16.504,16.166,-0.126,0.861,-0.552,1.434,-0.122,0.732,73.333,34721.000,1.000
14.824,14.745,14.942,14.775,15.022,15.076,14.980,14.732,-0.128,0.860,-0.552,1.251,-0.183,0.824,73.333,34722.000,1.000
14.387,14.173,14.510,14.217,14.537,14.547,14.354,14.280,-0.128,0.858,-0.555,1.221,-0.183,0.793,73.333,34723.000,1.000
14.655,14.369,14.878,14.432,14.758,14.787,14.476,14.594,-0.125,0.859,-0.553,1.251,-0.244,0.702,73.333,34724.000,1.000
14.648,14.392,15.034,14.444,14.693,14.788,14.398,14.650,-0.123,0.860,-0.554,1.160,-0.275,0.763,73.333,34725.000,1.000
13.736,13.604,14.281,13.608,13.708,13.877,13.490,13.770,-0.122,0.863,-0.552,1.007,-0.183,0.732,73.333,34726.000,1.000
12.202,12.229,12.833,12.172,12.091,12.312,12.011,12.216,-0.122,0.861,-0.549,1.007,-0.183,0.702,73.333,34727.000,1.000
10.685,10.815,11.283,10.720,10.482,10.733,10.553,10.618,-0.120,0.862,-0.550,0.885,-0.214,0.793,73.333,34728.000,1.000
9.373,9.480,9.812,9.414,9.066,9.344,9.260,9.166,-0.120,0.863,-0.547,0.732,-0.122,0.824,73.333,34729.000,1.000
8.015,7.965,8.210,8.008,7.603,7.912,7.859,7.639,-0.118,0.864,-0.550,0.763,-0.122,0.854,73.333,34730.000,1.000
6.567,6.291,6.506,6.487,6.073,6.408,6.328,6.046,-0.120,0.864,-0.551,0.610,-0.214,0.793,73.333,34731.000,1.000
5.359,4.885,5.098,5.210,4.827,5.164,5.037,4.759,-0.121,0.865,-0.548,0.519,-0.061,0.854,73.333,34732.000,1.000
4.553,3.989,4.187,4.361,4.037,4.332,4.190,3.954,-0.120,0.863,-0.546,0.458,-0.061,0.916,73.333,34733.000,1.000
3.826,3.295,3.447,3.620,3.375,3.581,3.489,3.289,-0.119,0.862,-0.550,0.397,0.153,0.946,73.333,34734.000,1.000
2.749,2.316,2.423,2.541,2.386,2.483,2.485,2.288,-0.117,0.862,-0.547,0.366,0.122,1.038,73.333,34735.000,1.000
1.339,0.994,1.091,1.116,1.052,1.058,1.141,0.924,-0.121,0.860,-0.549,0.275,0.153,1.099,73.333,34736.000,1.000
0.029,-0.287,-0.170,-0.241,-0.229,-0.260,-0.159,-0.390,-0.121,0.858,-0.549,0.122,0.183,1.160,73.333,34737.000,1.000
-0.868,-1.208,-1.087,-1.191,-1.147,-1.151,-1.087,-1.309,-0.120,0.858,-0.549,0.061,0.183,1.221,73.333,34738.000,1.000
-1.484,-1.864,-1.787,-1.825,-1.812,-1.755,-1.720,-1.932,-0.124,0.856,-0.552,0.000,0.275,1.251,73.333,34739.000,1.000
-2.176,-2.569,-2.569,-2.486,-2.556,-2.440,-2.378,-2.608,-0.123,0.856,-0.551,-0.031,0.214,1.221,73.333,34740.000,1.000
-3.032,-3.391,-3.460,-3.286,-3.464,-3.299,-3.170,-3.439,-0.127,0.858,-0.554,-0.092,0.214,1.190,73.333,34741.000,1.000
-3.758,-4.051,-4.150,-3.975,-4.238,-4.034,-3.852,-4.147,-0.125,0.858,-0.552,-0.214,0.183,1.282,73.333,34742.000,1.000
-4.092,-4.321,-4.397,-4.310,-4.587,-4.380,-4.197,-4.480,-0.123,0.859,-0.550,-0.336,0.031,1.160,73.333,34743.000,1.000
-4.188,-4.377,-4.392,-4.423,-4.621,-4.489,-4.351,-4.590,-0.123,0.859,-0.552,-0.458,0.000,1.129,73.333,34744.000,1.000
-4.501,-4.676,-4.626,-4.729,-4.785,-4.813,-4.720,-4.904,-0.122,0.855,-0.553,-0.458,0.031,1.099,73.333,34745.000,1.000
-5.321,-5.487,-5.409,-5.495,-5.402,-5.626,-5.546,-5.683,-0.119,0.854,-0.552,-0.549,-0.031,1.129,73.333,34746.000,1.000
-6.536,-6.700,-6.645,-6.645,-6.432,-6.809,-6.726,-6.830,-0.118,0.854,-0.552,-0.519,0.061,1.068,73.333,34747.000,1.000
-7.840,-8.025,-8.034,-7.934,-7.642,-8.068,-7.993,-8.091,-0.115,0.856,-0.553,-0.580,0.153,1.038,73.333,34748.000,1.000
-9.051,-9.289,-9.375,-9.199,-8.882,-9.237,-9.185,-9.312,-0.117,0.858,-0.552,-0.580,0.061,1.038,73.333,34749.000,1.000
-10.181,-10.481,-10.641,-10.402,-10.129,-10.336,-10.300,-10.467,-0.115,0.861,-0.547,-0.763,0.092,1.068,73.333,34750.000,1.000
-11.246,-11.576,-11.799,-11.489,-11.331,-11.386,-11.336,-11.516,-0.115,0.861,-0.548,-0.763,0.214,1.068,73.333,34751.000,1.000
-12.213,-12.497,-12.766,-12.383,-12.382,-12.356,-12.233,-12.391,-0.115,0.864,-0.548,-0.763,0.214,1.007,73.333,34752.000,1.000
-13.084,-13.218,-13.519,-13.094,-13.241,-13.237,-12.982,-13.101,-0.113,0.862,-0.553,-0.916,0.305,0.977,73.333,34753.000,1.000
-13.900,-13.806,-14.145,-13.731,-13.957,-14.045,-13.654,-13.736,-0.114,0.861,-0.553,-1.068,0.427,0.946,73.333,34754.000,1.000
-14.691,-14.372,-14.760,-14.401,-14.609,-14.790,-14.347,-14.386,-0.116,0.862,-0.550,-1.099,0.427,1.038,73.333,34755.000,1.000
-15.436,-14.970,-15.402,-15.109,-15.225,-15.447,-15.076,-15.057,-0.117,0.859,-0.551,-1.160,0.397,1.038,73.333,34756.000,1.000
-16.093,-15.587,-16.027,-15.786,-15.791,-15.993,-15.783,-15.692,-0.117,0.860,-0.554,-1.312,0.519,0.916,73.333,34757.000,1.000
-16.614,-16.165,-16.555,-16.354,-16.270,-16.411,-16.385,-16.210,-0.117,0.861,-0.551,-1.251,0.549,0.946,73.333,34758.000,1.000
-16.906,-16.561,-16.864,-16.690,-16.558,-16.632,-16.760,-16.481,-0.119,0.858,-0.549,-1.251,0.519,0.854,73.333,34759.000,1.000
-16.818,-16.574,-16.797,-16.637,-16.494,-16.523,-16.730,-16.341,-0.121,0.858,-0.547,-1.343,0.549,0.793,73.333,34760.000,1.000
-16.202,-16.030,-16.203,-16.052,-15.919,-15.934,-16.130,-15.667,-0.120,0.857,-0.549,-1.404,0.610,0.763,73.333,34761.000,1.000
-15.013,-14.884,-15.028,-14.895,-14.787,-14.797,-14.919,-14.454,-0.120,0.858,-0.548,-1.404,0.580,0.824,73.333,34762.000,1.000
-13.379,-13.272,-13.388,-13.284,-13.221,-13.213,-13.246,-12.848,-0.118,0.859,-0.546,-1.312,0.549,0.793,73.333,34763.000,1.000
-11.602,-11.500,-11.574,-11.503,-11.512,-11.464,-11.433,-11.139,-0.116,0.858,-0.550,-1.404,0.519,0.793,73.333,34764.000,1.000
-10.076,-9.983,-10.002,-9.945,-10.056,-9.946,-9.892,-9.706,-0.116,0.859,-0.553,-1.343,0.427,0.732,73.333,34765.000,1.000
-9.084,-9.035,-9.008,-8.914,-9.138,-8.960,-8.917,-8.817,-0.117,0.858,-0.551,-1.312,0.427,0.854,73.333,34766.000,1.000
-8.626,-8.672,-8.637,-8.433,-8.758,-8.525,-8.516,-8.454,-0.116,0.857,-0.552,-1.251,0.427,0.854,73.333,34767.000,1.000
-8.434,-8.594,-8.613,-8.237,-8.640,-8.379,-8.412,-8.325,-0.117,0.858,-0.555,-1.251,0.488,0.793,73.333,34768.000,1.000
-8.137,-8.370,-8.502,-7.949,-8.400,-8.135,-8.214,-8.051,-0.120,0.855,-0.549,-1.221,0.397,0.763,73.333,34769.000,1.000
-7.485,-7.707,-7.971,-7.313,-7.761,-7.510,-7.643,-7.376,-0.122,0.855,-0.549,-1.160,0.366,0.702,73.333,34770.000,1.000
-6.443,-6.562,-6.934,-6.294,-6.662,-6.444,-6.643,-6.261,-0.120,0.855,-0.549,-1.068,0.336,0.763,73.333,34771.000,1.000
-5.216,-5.174,-5.607,-5.097,-5.308,-5.150,-5.410,-4.934,-0.121,0.855,-0.550,-1.068,0.366,0.702,73.333,34772.000,1.000
-4.143,-3.932,-4.381,-4.060,-4.081,-4.012,-4.292,-3.790,-0.118,0.858,-0.550,-1.007,0.366,0.671,73.333,34773.000,1.000
-3.499,-3.156,-3.573,-3.446,-3.314,-3.343,-3.580,-3.145,-0.116,0.859,-0.552,-0.946,0.275,0.641,73.333,34774.000,1.000
-3.417,-3.001,-3.331,-3.359,-3.166,-3.272,-3.406,-3.121,-0.117,0.859,-0.552,-1.038,0.214,0.702,73.333,34775.000,1.000
-3.895,-3.472,-3.681,-3.785,-3.630,-3.776,-3.771,-3.675,-0.118,0.859,-0.548,-0.885,0.244,0.763,73.333,34776.000,1.000
-4.786,-4.415,-4.523,-4.599,-4.530,-4.685,-4.550,-4.602,-0.116,0.860,-0.546,-0.946,0.153,0.671,73.333,34777.000,1.000
-5.772,-5.486,-5.555,-5.522,-5.522,-5.679,-5.459,-5.552,-0.117,0.859,-0.549,-0.977,0.183,0.763,73.333,34778.000,1.000
-6.493,-6.304,-6.392,-6.225,-6.237,-6.410,-6.170,-6.197,-0.118,0.859,-0.548,-0.885,0.214,0.671,73.333,34779.000,1.000
-6.774,-6.661,-6.795,-6.542,-6.499,-6.705,-6.508,-6.437,-0.119,0.857,-0.550,-0.854,0.244,0.732,73.333,34780.000,1.000
-6.634,-6.543,-6.714,-6.475,-6.329,-6.572,-6.452,-6.333,-0.121,0.857,-0.548,-0.854,0.122,0.732,73.333,34781.000,1.000
-6.205,-6.090,-6.250,-6.129,-5.872,-6.148,-6.089,-5.999,-0.117,0.856,-0.547,-0.854,-0.031,0.763,73.333,34782.000,1.000
-5.680,-5.535,-5.609,-5.669,-5.334,-5.631,-5.585,-5.566,-0.117,0.857,-0.549,-0.763,-0.031,0.702,73.333,34783.000,1.000
-5.187,-5.045,-4.982,-5.211,-4.855,-5.146,-5.083,-5.111,-0.117,0.861,-0.549,-0.793,-0.061,0.702,73.333,34784.000,1.000
-4.760,-4.659,-4.476,-4.796,-4.467,-4.728,-4.648,-4.666,-0.118,0.860,-0.548,-0.885,-0.092,0.610,73.333,34785.000,1.000
-4.415,-4.382,-4.151,-4.464,-4.192,-4.410,-4.313,-4.302,-0.117,0.861,-0.550,-0.946,-0.092,0.641,73.333,34786.000,1.000
-4.227,-4.284,-4.067,-4.301,-4.119,-4.289,-4.149,-4.157,-0.117,0.861,-0.549,-0.885,-0.031,0.641,73.333,34787.000,1.000
-4.263,-4.423,-4.229,-4.374,-4.317,-4.427,-4.220,-4.313,-0.117,0.861,-0.546,-1.099,-0.122,0.549,73.333,34788.000,1.000
-4.444,-4.703,-4.503,-4.598,-4.688,-4.730,-4.464,-4.656,-0.120,0.863,-0.547,-1.129,-0.153,0.488,73.333,34789.000,1.000
-4.591,-4.914,-4.685,-4.780,-4.990,-4.983,-4.711,-4.939,-0.118,0.862,-0.550,-1.099,-0.153,0.519,73.333,34790.000,1.000
-4.583,-4.901,-4.663,-4.776,-5.033,-5.020,-4.814,-4.974,-0.118,0.862,-0.551,-1.129,-0.244,0.427,73.333,34791.000,1.000
-4.503,-4.728,-4.540,-4.641,-4.867,-4.901,-4.798,-4.812,-0.119,0.861,-0.548,-1.251,-0.183,0.458,73.333,34792.000,1.000
-4.590,-4.642,-4.571,-4.608,-4.758,-4.869,-4.856,-4.726,-0.118,0.859,-0.551,-1.251,-0.275,0.397,73.333,34793.000,1.000
-4.998,-4.846,-4.928,-4.861,-4.925,-5.106,-5.142,-4.943,-0.119,0.856,-0.545,-1.282,-0.244,0.427,73.333,34794.000,1.000
-5.639,-5.346,-5.554,-5.384,-5.375,-5.587,-5.628,-5.445,-0.117,0.856,-0.545,-1.251,-0.183,0.549,73.333,34795.000,1.000
-6.281,-5.990,-6.234,-6.013,-5.942,-6.146,-6.161,-6.040,-0.116,0.854,-0.548,-1.251,-0.305,0.610,73.333,34796.000,1.000
-6.727,-6.574,-6.755,-6.575,-6.425,-6.608,-6.593,-6.539,-0.118,0.854,-0.550,-1.160,-0.305,0.671,73.333,34797.000,1.000
-6.830,-6.846,-6.925,-6.874,-6.618,-6.786,-6.764,-6.762,-0.119,0.856,-0.551,-0.946,-0.244,0.702,73.333,34798.000,1.000
-6.475,-6.572,-6.572,-6.695,-6.342,-6.493,-6.478,-6.524,-0.118,0.857,-0.550,-1.007,-0.244,0.671,73.333,34799.000,1.000
-5.688,-5.729,-5.691,-5.975,-5.590,-5.710,-5.683,-5.779,-0.118,0.860,-0.549,-1.007,-0.305,0.702,73.333,34800.000,1.000
-4.649,-4.540,-4.484,-4.864,-4.545,-4.610,-4.539,-4.673,-0.121,0.859,-0.550,-0.824,-0.397,0.671,73.333,34801.000,1.000
-3.548,-3.275,-3.210,-3.587,-3.425,-3.409,-3.286,-3.430,-0.120,0.862,-0.549,-0.977,-0.336,0.702,73.333,34802.000,1.000
-2.531,-2.135,-2.075,-2.345,-2.393,-2.280,-2.121,-2.259,-0.121,0.863,-0.549,-0.946,-0.427,0.702,73.333,34803.000,1.000
-1.744,-1.293,-1.262,-1.356,-1.595,-1.401,-1.227,-1.373,-0.121,0.866,-0.551,-1.068,-0.488,0.671,73.333,34804.000,1.000
-1.366,-0.923,-0.949,-0.864,-1.201,-0.979,-0.810,-0.987,-0.117,0.865,-0.552,-1.129,-0.549,0.580,73.333,34805.000,1.000
-1.450,-1.064,-1.162,-0.951,-1.267,-1.074,-0.943,-1.150,-0.113,0.862,-0.554,-1.282,-0.488,0.580,73.333,34806.000,1.000
-1.817,-1.525,-1.686,-1.428,-1.641,-1.505,-1.459,-1.652,-0.107,0.862,-0.552,-1.373,-0.366,0.610,73.333,34807.000,1.000
-2.165,-1.994,-2.177,-1.945,-2.044,-1.951,-2.024,-2.140,-0.108,0.859,-0.552,-1.495,-0.244,0.671,73.333,34808.000,1.000
-2.247,-2.203,-2.347,-2.191,-2.213,-2.125,-2.316,-2.298,-0.106,0.857,-0.552,-1.556,-0.153,0.824,73.333,34809.000,1.000
-2.002,-2.053,-2.119,-2.051,-2.043,-1.919,-2.187,-2.026,-0.106,0.855,-0.552,-1.495,0.092,1.038,73.333,34810.000,1.000
-1.513,-1.593,-1.589,-1.595,-1.581,-1.394,-1.695,-1.432,-0.105,0.854,-0.550,-1.373,0.214,1.099,73.333,34811.000,1.000
-0.862,-0.901,-0.882,-0.937,-0.903,-0.659,-0.977,-0.682,-0.104,0.858,-0.553,-1.465,0.275,1.282,73.333,34812.000,1.000
-0.061,-0.022,-0.040,-0.130,-0.019,0.227,-0.117,0.152,-0.105,0.859,-0.550,-1.434,0.488,1.251,73.333,34813.000,1.000
0.940,1.051,0.988,0.874,1.100,1.272,0.915,1.122,-0.110,0.863,-0.550,-1.343,0.641,1.282,73.333,34814.000,1.000
2.171,2.332,2.266,2.129,2.443,2.499,2.175,2.307,-0.112,0.867,-0.549,-1.312,0.671,1.221,73.333,34815.000,1.000
3.588,3.780,3.762,3.594,3.911,3.878,3.632,3.699,-0.117,0.869,-0.545,-1.556,0.671,1.282,73.333,34816.000,1.000
5.032,5.224,5.287,5.078,5.302,5.260,5.100,5.120,-0.126,0.872,-0.542,-1.831,0.549,1.099,73.333,34817.000,1.000
6.249,6.376,6.546,6.292,6.364,6.402,6.289,6.274,-0.130,0.871,-0.547,-1.923,0.366,0.854,73.333,34818.000,1.000
6.993,6.969,7.278,6.973,6.897,7.060,6.941,6.891,-0.131,0.869,-0.544,-2.045,0.183,0.610,73.333,34819.000,1.000
7.093,6.865,7.331,6.958,6.801,7.064,6.907,6.817,-0.132,0.868,-0.547,-2.258,-0.122,0.458,73.333,34820.000,1.000
6.557,6.145,6.741,6.296,6.146,6.425,6.233,6.111,-0.132,0.865,-0.546,-2.319,-0.427,0.305,73.333,34821.000,1.000
5.684,5.164,5.808,5.333,5.245,5.455,5.258,5.127,-0.130,0.861,-0.549,-2.350,-0.641,0.061,73.333,34822.000,1.000
5.019,4.478,5.049,4.633,4.604,4.709,4.543,4.435,-0.127,0.858,-0.550,-2.411,-0.885,-0.122,73.333,34823.000,1.000
5.141,4.655,5.037,4.768,4.755,4.757,4.653,4.608,-0.126,0.860,-0.548,-2.441,-1.068,-0.244,73.333,34824.000,1.000
6.419,6.045,6.174,6.089,6.053,5.961,5.937,5.993,-0.125,0.859,-0.548,-2.350,-1.190,-0.336,73.333,34825.000,1.000
8.828,8.603,8.491,8.553,8.495,8.327,8.382,8.537,-0.120,0.859,-0.548,-2.319,-1.282,-0.427,73.333,34826.000,1.000
11.838,11.771,11.489,11.592,11.571,11.374,11.476,11.680,-0.117,0.860,-0.548,-2.197,-1.373,-0.488,73.333,34827.000,1.000
14.536,14.596,14.247,14.263,14.352,14.194,14.296,14.482,-0.115,0.860,-0.546,-2.228,-1.343,-0.397,73.333,34828.000,1.000
16.024,16.143,15.824,15.670,15.890,15.834,15.883,16.013,-0.114,0.860,-0.549,-2.228,-1.282,-0.397,73.333,34829.000,1.000
15.803,15.898,15.672,15.355,15.651,15.736,15.684,15.762,-0.113,0.860,-0.548,-2.197,-1.312,-0.336,73.333,34830.000,1.000
13.982,13.988,13.883,13.499,13.763,13.993,13.817,13.864,-0.112,0.859,-0.548,-2.136,-1.160,-0.153,73.333,34831.000,1.000
11.163,11.076,11.080,10.766,10.894,11.224,10.955,10.985,-0.113,0.859,-0.545,-2.075,-1.129,0.000,73.333,34832.000,1.000
8.075,7.958,8.018,7.878,7.824,8.166,7.877,7.891,-0.113,0.859,-0.544,-2.014,-1.007,0.153,73.333,34833.000,1.000
5.247,5.180,5.211,5.268,5.074,5.329,5.097,5.088,-0.113,0.857,-0.543,-1.923,-0.916,0.366,73.333,34834.000,1.000
2.868,2.899,2.823,3.030,2.789,2.889,2.761,2.730,-0.115,0.856,-0.540,-1.892,-0.946,0.458,73.333,34835.000,1.000
0.915,1.027,0.819,1.107,0.896,0.834,0.813,0.761,-0.116,0.858,-0.539,-1.923,-0.824,0.549,73.333,34836.000,1.000
-0.647,-0.522,-0.820,-0.516,-0.655,-0.832,-0.792,-0.870,-0.116,0.860,-0.542,-1.801,-0.854,0.671,73.333,34837.000,1.000
-1.737,-1.672,-1.983,-1.720,-1.763,-1.985,-1.958,-2.076,-0.118,0.860,-0.542,-1.709,-0.793,0.641,73.333,34838.000,1.000
-2.200,-2.244,-2.497,-2.321,-2.252,-2.460,-2.500,-2.663,-0.117,0.863,-0.541,-1.709,-0.763,0.824,73.333,34839.000,1.000
-1.998,-2.152,-2.310,-2.252,-2.073,-2.230,-2.339,-2.527,-0.118,0.863,-0.542,-1.709,-0.793,0.824,73.333,34840.000,1.000
-1.287,-1.482,-1.555,-1.622,-1.361,-1.458,-1.579,-1.767,-0.120,0.862,-0.538,-1.801,-0.702,0.885,73.333,34841.000,1.000
-0.323,-0.438,-0.469,-0.642,-0.349,-0.401,-0.460,-0.635,-0.117,0.863,-0.541,-1.831,-0.763,0.916,73.333,34842.000,1.000
0.682,0.743,0.701,0.477,0.740,0.711,0.752,0.585,-0.117,0.864,-0.539,-1.984,-0.702,0.824,73.333,34843.000,1.000
1.678,1.900,1.807,1.620,1.806,1.783,1.906,1.741,-0.116,0.862,-0.542,-1.984,-0.610,0.732,73.333,34844.000,1.000
2.733,3.000,2.844,2.782,2.880,2.862,3.011,2.840,-0.114,0.861,-0.544,-1.923,-0.519,0.824,73.333,34845.000,1.000
3.903,4.082,3.880,3.990,4.016,4.031,4.141,3.958,-0.115,0.862,-0.540,-1.953,-0.610,0.732,73.333,34846.000,1.000
5.113,5.142,4.932,5.195,5.160,5.254,5.281,5.089,-0.114,0.861,-0.546,-1.892,-0.549,0.824,73.333,34847.000,1.000
6.179,6.086,5.912,6.252,6.158,6.365,6.295,6.109,-0.114,0.863,-0.543,-1.892,-0.427,0.732,73.333,34848.000,1.000
6.957,6.813,6.712,7.037,6.900,7.199,7.059,6.889,-0.114,0.863,-0.541,-1.953,-0.336,0.671,73.333,34849.000,1.000
7.417,7.275,7.267,7.509,7.374,7.688,7.521,7.366,-0.113,0.864,-0.542,-1.923,-0.366,0.610,73.333,34850.000,1.000
7.600,7.464,7.549,7.678,7.604,7.825,7.686,7.536,-0.114,0.863,-0.542,-1.831,-0.214,0.580,73.333,34851.000,1.000
7.524,7.366,7.527,7.535,7.561,7.604,7.548,7.410,-0.114,0.861,-0.544,-1.740,-0.122,0.458,73.333,34852.000,1.000
7.182,6.981,7.202,7.095,7.208,7.060,7.136,7.037,-0.113,0.860,-0.544,-1.678,-0.092,0.549,73.333,34853.000,1.000
6.643,6.414,6.682,6.491,6.625,6.361,6.578,6.545,-0.112,0.860,-0.546,-1.648,0.061,0.641,73.333,34854.000,1.000
6.064,5.861,6.149,5.938,6.004,5.751,6.066,6.090,-0.110,0.858,-0.546,-1.526,0.153,0.580,73.333,34855.000,1.000
5.632,5.525,5.791,5.641,5.568,5.431,5.779,5.806,-0.111,0.859,-0.545,-1.526,0.275,0.580,73.333,34856.000,1.000
5.473,5.515,5.723,5.696,5.462,5.473,5.792,5.773,-0.112,0.857,-0.542,-1.404,0.305,0.519,73.333,34857.000,1.000
5.597,5.794,5.934,6.038,5.673,5.803,6.047,5.989,-0.113,0.857,-0.542,-1.221,0.488,0.427,73.333,34858.000,1.000
5.939,6.239,6.333,6.516,6.092,6.288,6.429,6.378,-0.115,0.856,-0.543,-1.221,0.488,0.397,73.333,34859.000,1.000
6.425,6.730,6.821,7.007,6.610,6.821,6.845,6.848,-0.115,0.858,-0.541,-1.129,0.488,0.366,73.333,34860.000,1.000
7.006,7.213,7.343,7.474,7.174,7.350,7.274,7.347,-0.115,0.860,-0.543,-0.977,0.519,0.275,73.333,34861.000,1.000
7.622,7.668,7.867,7.908,7.747,7.837,7.726,7.846,-0.116,0.861,-0.546,-0.885,0.549,0.305,73.333,34862.000,1.000
8.156,8.049,8.322,8.267,8.257,8.220,8.165,8.284,-0.117,0.860,-0.545,-0.885,0.580,0.275,73.333,34863.000,1.000
8.458,8.280,8.590,8.464,8.585,8.421,8.488,8.541,-0.118,0.860,-0.544,-0.793,0.519,0.244,73.333,34864.000,1.000
8.381,8.249,8.523,8.373,8.574,8.336,8.508,8.456,-0.119,0.863,-0.547,-0.763,0.549,0.214,73.333,34865.000,1.000
7.826,7.823,7.994,7.862,8.069,7.841,8.020,7.887,-0.118,0.863,-0.545,-0.732,0.580,0.214,73.333,34866.000,1.000
6.765,6.889,6.935,6.851,6.995,6.836,6.909,6.775,-0.116,0.865,-0.542,-0.671,0.519,0.153,73.333,34867.000,1.000
5.263,5.449,5.393,5.385,5.425,5.331,5.242,5.190,-0.116,0.865,-0.542,-0.702,0.519,0.061,73.333,34868.000,1.000
3.491,3.674,3.551,3.637,3.586,3.493,3.271,3.347,-0.117,0.866,-0.543,-0.763,0.458,0.061,73.333,34869.000,1.000
1.669,1.811,1.659,1.820,1.726,1.575,1.305,1.513,-0.116,0.865,-0.545,-0.732,0.427,0.031,73.333,34870.000,1.000
0.050,0.124,-0.012,0.168,0.084,-0.121,-0.368,-0.046,-0.117,0.864,-0.541,-0.671,0.427,-0.061,73.333,34871.000,1.000
-1.104,-1.140,-1.202,-1.055,-1.113,-1.319,-1.515,-1.104,-0.118,0.862,-0.542,-0.702,0.458,0.122,73.333,34872.000,1.000
-1.626,-1.812,-1.743,-1.641,-1.702,-1.856,-2.005,-1.549,-0.120,0.859,-0.545,-0.610,0.427,0.031,73.333,34873.000,1.000
-1.511,-1.837,-1.608,-1.527,-1.648,-1.722,-1.836,-1.390,-0.120,0.857,-0.545,-0.580,0.305,0.061,73.333,34874.000,1.000
-0.957,-1.345,-0.980,-0.895,-1.112,-1.110,-1.195,-0.817,-0.120,0.854,-0.546,-0.458,0.244,0.092,73.333,34875.000,1.000
-0.314,-0.642,-0.219,-0.124,-0.433,-0.370,-0.434,-0.172,-0.119,0.856,-0.545,-0.305,0.244,0.061,73.333,34876.000,1.000
0.104,-0.071,0.330,0.412,0.052,0.162,0.111,0.223,-0.118,0.858,-0.546,-0.275,0.183,0.153,73.333,34877.000,1.000
0.168,0.142,0.482,0.514,0.166,0.303,0.265,0.220,-0.116,0.858,-0.548,-0.244,0.061,0.183,73.333,34878.000,1.000
-0.085,-0.067,0.221,0.172,-0.094,0.036,0.027,-0.143,-0.114,0.859,-0.545,-0.183,0.061,0.275,73.333,34879.000,1.000
-0.519,-0.587,-0.323,-0.462,-0.584,-0.513,-0.469,-0.689,-0.112,0.860,-0.545,-0.061,0.122,0.458,73.333,34880.000,1.000
-0.940,-1.167,-0.917,-1.129,-1.074,-1.111,-0.994,-1.174,-0.115,0.857,-0.543,0.000,0.153,0.580,73.333,34881.000,1.000
-1.307,-1.676,-1.462,-1.705,-1.485,-1.652,-1.463,-1.529,-0.118,0.859,-0.544,0.061,0.153,0.702,73.333,34882.000,1.000
-1.899,-2.317,-2.177,-2.388,-2.074,-2.338,-2.117,-2.036,-0.123,0.862,-0.544,0.000,0.153,0.793,73.333,34883.000,1.000
-3.141,-3.485,-3.446,-3.561,-3.270,-3.554,-3.363,-3.156,-0.125,0.861,-0.546,0.061,-0.092,0.793,73.333,34884.000,1.000
-5.325,-5.501,-5.557,-5.542,-5.388,-5.617,-5.493,-5.226,-0.127,0.862,-0.545,0.092,-0.397,0.702,73.333,34885.000,1.000
-8.389,-8.357,-8.477,-8.352,-8.383,-8.516,-8.438,-8.195,-0.127,0.861,-0.544,0.061,-0.427,0.641,73.333,34886.000,1.000
-11.760,-11.534,-11.673,-11.512,-11.677,-11.711,-11.629,-11.471,-0.125,0.863,-0.546,0.000,-0.610,0.702,73.333,34887.000,1.000
-14.410,-14.052,-14.177,-14.067,-14.247,-14.204,-14.079,-14.026,-0.122,0.862,-0.546,-0.122,-0.702,0.610,73.333,34888.000,1.000
-15.274,-14.874,-14.981,-14.983,-15.060,-14.977,-14.808,-14.838,-0.122,0.860,-0.547,-0.183,-0.763,0.580,73.333,34889.000,1.000
-13.900,-13.556,-13.664,-13.780,-13.702,-13.617,-13.430,-13.503,-0.120,0.860,-0.547,-0.214,-0.916,0.610,73.333,34890.000,1.000
-10.814,-10.600,-10.726,-10.892,-10.696,-10.631,-10.458,-10.540,-0.119,0.860,-0.546,-0.275,-0.916,0.641,73.333,34891.000,1.000
-7.250,-7.190,-7.336,-7.457,-7.226,-7.177,-7.047,-7.121,-0.118,0.859,-0.551,-0.397,-0.977,0.610,73.333,34892.000,1.000
-4.471,-4.530,-4.674,-4.693,-4.495,-4.437,-4.384,-4.441,-0.117,0.859,-0.548,-0.305,-1.038,0.549,73.333,34893.000,1.000
-3.133,-3.246,-3.356,-3.285,-3.137,-3.040,-3.096,-3.134,-0.118,0.857,-0.551,-0.336,-1.038,0.610,73.333,34894.000,1.000
-3.076,-3.196,-3.244,-3.144,-3.020,-2.871,-3.047,-3.074,-0.117,0.856,-0.549,-0.275,-1.129,0.580,73.333,34895.000,1.000
-3.574,-3.701,-3.687,-3.606,-3.480,-3.289,-3.550,-3.598,-0.118,0.858,-0.547,-0.214,-1.190,0.641,73.333,34896.000,1.000
-3.898,-4.056,-3.999,-3.945,-3.818,-3.608,-3.889,-4.003,-0.117,0.858,-0.548,-0.153,-1.129,0.641,73.333,34897.000,1.000
-3.760,-3.950,-3.877,-3.827,-3.722,-3.522,-3.755,-3.971,-0.115,0.859,-0.549,-0.122,-1.099,0.732,73.333,34898.000,1.000
-3.387,-3.571,-3.514,-3.436,-3.378,-3.213,-3.360,-3.684,-0.115,0.860,-0.548,-0.092,-1.129,0.732,73.333,34899.000,1.000
-3.301,-3.432,-3.417,-3.287,-3.297,-3.186,-3.233,-3.648,-0.115,0.861,-0.545,-0.244,-1.099,0.671,73.333,34900.000,1.000
-3.905,-3.953,-3.989,-3.806,-3.890,-3.851,-3.788,-4.258,-0.115,0.860,-0.548,-0.214,-1.038,0.702,73.333,34901.000,1.000
-5.135,-5.101,-5.178,-4.964,-5.119,-5.147,-4.966,-5.444,-0.115,0.860,-0.550,-0.183,-0.977,0.641,73.333,34902.000,1.000
-6.518,-6.424,-6.530,-6.299,-6.532,-6.579,-6.288,-6.734,-0.115,0.860,-0.552,-0.305,-0.885,0.702,73.333,34903.000,1.000
-7.528,-7.401,-7.523,-7.277,-7.593,-7.589,-7.229,-7.620,-0.116,0.860,-0.550,-0.275,-0.916,0.732,73.333,34904.000,1.000
-7.907,-7.762,-7.890,-7.637,-8.005,-7.923,-7.552,-7.878,-0.116,0.860,-0.552,-0.183,-0.824,0.702,73.333,34905.000,1.000
-7.696,-7.527,-7.656,-7.421,-7.773,-7.654,-7.331,-7.585,-0.116,0.861,-0.552,-0.122,-0.854,0.580,73.333,34906.000,1.000
-7.101,-6.911,-7.035,-6.855,-7.113,-7.036,-6.789,-6.980,-0.116,0.862,-0.549,-0.214,-0.732,0.671,73.333,34907.000,1.000
-6.350,-6.173,-6.282,-6.181,-6.305,-6.324,-6.139,-6.297,-0.116,0.861,-0.551,-0.244,-0.793,0.671,73.333,34908.000,1.000
-5.550,-5.435,-5.511,-5.485,-5.499,-5.615,-5.459,-5.599,-0.117,0.859,-0.548,-0.244,-0.641,0.580,73.333,34909.000,1.000
-4.686,-4.671,-4.689,-4.706,-4.691,-4.851,-4.717,-4.798,-0.119,0.859,-0.553,-0.366,-0.641,0.488,73.333,34910.000,1.000
-3.745,-3.820,-3.768,-3.796,-3.840,-3.964,-3.889,-3.832,-0.118,0.860,-0.551,-0.427,-0.702,0.488,73.333,34911.000,1.000
-2.782,-2.897,-2.798,-2.826,-2.975,-2.986,-3.021,-2.780,-0.117,0.862,-0.552,-0.488,-0.763,0.427,73.333,34912.000,1.000
-1.876,-1.977,-1.890,-1.930,-2.157,-2.026,-2.185,-1.787,-0.115,0.863,-0.549,-0.580,-0.641,0.397,73.333,34913.000,1.000
-1.060,-1.130,-1.115,-1.175,-1.402,-1.162,-1.401,-0.941,-0.115,0.864,-0.547,-0.610,-0.671,0.305,73.333,34914.000,1.000
-0.384,-0.446,-0.535,-0.595,-0.753,-0.464,-0.715,-0.306,-0.115,0.861,-0.549,-0.702,-0.702,0.336,73.333,34915.000,1.000
-0.001,-0.090,-0.269,-0.295,-0.364,-0.066,-0.282,-0.017,-0.116,0.863,-0.551,-0.793,-0.641,0.305,73.333,34916.000,1.000
-0.086,-0.214,-0.461,-0.422,-0.419,-0.139,-0.308,-0.220,-0.116,0.862,-0.547,-0.824,-0.519,0.244,73.333,34917.000,1.000
-0.672,-0.811,-1.123,-1.010,-0.945,-0.726,-0.861,-0.913,-0.116,0.860,-0.548,-0.854,-0.610,0.427,73.333,34918.000,1.000
-1.547,-1.639,-2.018,-1.855,-1.724,-1.623,-1.734,-1.846,-0.114,0.856,-0.547,-0.824,-0.580,0.336,73.333,34919.000,1.000
-2.311,-2.302,-2.720,-2.550,-2.359,-2.409,-2.489,-2.594,-0.115,0.858,-0.548,-0.763,-0.458,0.336,73.333,34920.000,1.000
-2.550,-2.422,-2.814,-2.681,-2.456,-2.634,-2.683,-2.750,-0.117,0.858,-0.547,-0.854,-0.488,0.305,73.333,34921.000,1.000
-2.098,-1.883,-2.183,-2.112,-1.883,-2.114,-2.163,-2.184,-0.119,0.858,-0.549,-0.732,-0.397,0.275,73.333,34922.000,1.000
-1.186,-0.939,-1.112,-1.117,-0.899,-1.098,-1.184,-1.167,-0.117,0.859,-0.546,-0.702,-0.488,0.305,73.333,34923.000,1.000
-0.265,-0.026,-0.070,-0.160,0.039,-0.072,-0.199,-0.169,-0.117,0.858,-0.549,-0.824,-0.336,0.244,73.333,34924.000,1.000
0.342,0.565,0.630,0.453,0.627,0.606,0.483,0.494,-0.117,0.858,-0.550,-0.885,-0.458,0.214,73.333,34925.000,1.000
0.674,0.896,1.031,0.779,0.929,0.947,0.890,0.871,-0.117,0.857,-0.548,-0.824,-0.458,0.275,73.333,34926.000,1.000
1.002,1.245,1.405,1.106,1.244,1.218,1.270,1.239,-0.117,0.857,-0.551,-0.824,-0.458,0.336,73.333,34927.000,1.000
1.502,1.794,1.933,1.628,1.775,1.628,1.793,1.784,-0.117,0.857,-0.548,-0.793,-0.427,0.336,73.333,34928.000,1.000
2.146,2.493,2.577,2.288,2.487,2.197,2.438,2.468,-0.118,0.857,-0.549,-0.824,-0.549,0.275,73.333,34929.000,1.000
2.783,3.143,3.155,2.877,3.174,2.795,3.056,3.105,-0.117,0.859,-0.548,-0.671,-0.519,0.305,73.333,34930.000,1.000
3.246,3.541,3.489,3.208,3.623,3.251,3.472,3.498,-0.117,0.859,-0.549,-0.763,-0.549,0.305,73.333,34931.000,1.000
3.450,3.598,3.516,3.234,3.723,3.454,3.588,3.556,-0.117,0.860,-0.547,-0.732,-0.488,0.366,73.333,34932.000,1.000
3.436,3.398,3.333,3.074,3.532,3.422,3.460,3.372,-0.119,0.863,-0.551,-0.824,-0.549,0.427,73.333,34933.000,1.000
3.349,3.157,3.143,2.937,3.243,3.288,3.280,3.171,-0.119,0.865,-0.548,-0.824,-0.549,0.336,73.333,34934.000,1.000
3.304,3.031,3.077,2.944,3.030,3.171,3.201,3.110,-0.122,0.864,-0.548,-1.038,-0.580,0.366,73.333,34935.000,1.000
3.311,3.006,3.098,3.040,2.931,3.078,3.229,3.163,-0.119,0.864,-0.549,-1.099,-0.549,0.305,73.333,34936.000,1.000
3.293,2.954,3.061,3.070,2.862,2.930,3.238,3.182,-0.119,0.865,-0.550,-1.160,-0.671,0.336,73.333,34937.000,1.000
3.159,2.758,2.833,2.906,2.717,2.658,3.070,3.032,-0.119,0.864,-0.550,-1.190,-0.580,0.336,73.333,34938.000,1.000
2.895,2.425,2.410,2.554,2.480,2.300,2.676,2.708,-0.121,0.862,-0.552,-1.282,-0.732,0.336,73.333,34939.000,1.000
2.577,2.093,1.946,2.166,2.243,2.003,2.182,2.339,-0.122,0.863,-0.552,-1.312,-0.732,0.305,73.333,34940.000,1.000
2.346,1.961,1.682,1.969,2.153,1.949,1.834,2.131,-0.120,0.865,-0.547,-1.404,-0.763,0.336,73.333,34941.000,1.000
2.330,2.157,1.803,2.129,2.316,2.234,1.855,2.245,-0.119,0.863,-0.550,-1.434,-0.824,0.366,73.333,34942.000,1.000
2.559,2.638,2.302,2.625,2.709,2.779,2.294,2.675,-0.119,0.862,-0.550,-1.465,-0.793,0.305,73.333,34943.000,1.000
2.953,3.223,2.999,3.273,3.201,3.383,2.993,3.257,-0.121,0.860,-0.548,-1.465,-0.824,0.305,73.333,34944.000,1.000
3.355,3.706,3.633,3.818,3.620,3.827,3.673,3.770,-0.118,0.857,-0.550,-1.495,-0.854,0.366,73.333,34945.000,1.000
3.637,3.961,4.001,4.083,3.856,3.992,4.097,4.066,-0.117,0.856,-0.549,-1.648,-0.824,0.336,73.333,34946.000,1.000
3.781,4.005,4.080,4.067,3.915,3.911,4.198,4.140,-0.119,0.856,-0.550,-1.495,-0.824,0.397,73.333,34947.000,1.000
3.841,3.948,3.988,3.909,3.872,3.727,4.070,4.069,-0.118,0.857,-0.551,-1.465,-0.885,0.458,73.333,34948.000,1.000
3.840,3.870,3.847,3.745,3.774,3.570,3.846,3.914,-0.118,0.853,-0.551,-1.404,-0.885,0.458,73.333,34949.000,1.000
3.699,3.712,3.636,3.564,3.556,3.415,3.550,3.638,-0.120,0.856,-0.552,-1.343,-0.885,0.488,73.333,34950.000,1.000
3.275,3.315,3.213,3.209,3.088,3.099,3.092,3.126,-0.119,0.858,-0.550,-1.312,-0.854,0.427,73.333,34951.000,1.000
2.504,2.586,2.487,2.545,2.313,2.493,2.398,2.322,-0.117,0.858,-0.551,-1.251,-0.793,0.488,73.333,34952.000,1.000
1.517,1.631,1.544,1.630,1.358,1.666,1.539,1.349,-0.117,0.859,-0.549,-1.282,-0.946,0.549,73.333,34953.000,1.000
0.616,0.731,0.637,0.723,0.501,0.863,0.728,0.488,-0.117,0.858,-0.549,-1.221,-0.824,0.519,73.333,34954.000,1.000
0.085,0.167,0.033,0.122,0.015,0.340,0.183,0.008,-0.117,0.860,-0.547,-1.343,-0.671,0.519,73.333,34955.000,1.000
0.058,0.080,-0.097,0.001,0.039,0.235,0.047,0.027,-0.116,0.861,-0.544,-1.373,-0.702,0.519,73.333,34956.000,1.000
0.474,0.441,0.266,0.357,0.528,0.541,0.340,0.494,-0.113,0.863,-0.544,-1.343,-0.641,0.610,73.333,34957.000,1.000
1.104,1.062,0.959,1.002,1.253,1.112,0.921,1.196,-0.114,0.862,-0.547,-1.465,-0.641,0.580,73.333,34958.000,1.000
1.612,1.633,1.640,1.602,1.857,1.677,1.486,1.809,-0.113,0.865,-0.545,-1.434,-0.458,0.671,73.333,34959.000,1.000
1.653,1.786,1.865,1.761,1.954,1.874,1.649,1.958,-0.113,0.865,-0.546,-1.556,-0.366,0.610,73.333,34960.000,1.000
1.094,1.327,1.392,1.280,1.379,1.475,1.206,1.456,-0.112,0.864,-0.549,-1.709,-0.305,0.610,73.333,34961.000,1.000
0.184,0.455,0.435,0.383,0.392,0.633,0.355,0.518,-0.114,0.866,-0.550,-1.801,-0.244,0.702,73.333,34962.000,1.000
-0.580,-0.341,-0.458,-0.412,-0.470,-0.193,-0.419,-0.355,-0.114,0.863,-0.546,-1.801,-0.092,0.671,73.333,34963.000,1.000
-0.768,-0.598,-0.764,-0.627,-0.725,-0.536,-0.649,-0.691,-0.114,0.863,-0.548,-1.862,-0.153,0.641,73.333,34964.000,1.000
-0.268,-0.162,-0.297,-0.109,-0.232,-0.213,-0.170,-0.336,-0.116,0.863,-0.546,-2.014,0.000,0.671,73.333,34965.000,1.000
0.679,0.756,0.723,0.912,0.770,0.604,0.806,0.503,-0.116,0.859,-0.545,-2.075,0.061,0.610,73.333,34966.000,1.000
1.629,1.725,1.818,1.969,1.816,1.508,1.813,1.410,-0.117,0.858,-0.550,-2.014,0.122,0.549,73.333,34967.000,1.000
2.188,2.331,2.520,2.617,2.472,2.093,2.409,1.985,-0.117,0.858,-0.548,-2.014,0.153,0.458,73.333,34968.000,1.000
2.243,2.437,2.645,2.693,2.591,2.210,2.440,2.093,-0.116,0.855,-0.545,-2.106,0.153,0.366,73.333,34969.000,1.000
1.987,2.224,2.368,2.369,2.356,2.016,2.097,1.896,-0.116,0.856,-0.545,-1.831,0.183,0.366,73.333,34970.000,1.000
1.759,2.036,2.057,2.013,2.105,1.830,1.760,1.716,-0.114,0.855,-0.544,-1.678,0.275,0.397,73.333,34971.000,1.000
1.890,2.207,2.084,2.027,2.171,1.980,1.818,1.876,-0.116,0.854,-0.547,-1.556,0.244,0.366,73.333,34972.000,1.000
2.564,2.905,2.663,2.649,2.757,2.656,2.499,2.562,-0.116,0.854,-0.550,-1.434,0.275,0.336,73.333,34973.000,1.000
3.685,4.007,3.710,3.789,3.791,3.764,3.697,3.679,-0.114,0.856,-0.548,-1.404,0.275,0.305,73.333,34974.000,1.000
4.856,5.083,4.836,5.016,4.878,4.905,4.953,4.825,-0.113,0.857,-0.548,-1.465,0.336,0.275,73.333,34975.000,1.000
5.639,5.692,5.592,5.831,5.560,5.630,5.750,5.555,-0.114,0.859,-0.546,-1.495,0.183,0.183,73.333,34976.000,1.000
5.834,5.672,5.757,5.979,5.630,5.734,5.849,5.667,-0.115,0.858,-0.546,-1.282,0.244,0.305,73.333,34977.000,1.000
5.493,5.142,5.375,5.505,5.168,5.291,5.334,5.221,-0.117,0.858,-0.548,-1.190,0.366,0.214,73.333,34978.000,1.000
4.773,4.301,4.615,4.623,4.372,4.497,4.448,4.398,-0.116,0.860,-0.546,-1.129,0.305,0.244,73.333,34979.000,1.000
3.786,3.275,3.633,3.542,3.389,3.505,3.404,3.362,-0.114,0.862,-0.547,-1.099,0.275,0.183,73.333,34980.000,1.000
2.608,2.142,2.549,2.406,2.303,2.420,2.328,2.233,-0.114,0.863,-0.546,-1.007,0.275,0.214,73.333,34981.000,1.000
1.366,1.019,1.486,1.330,1.223,1.360,1.302,1.132,-0.115,0.868,-0.545,-1.129,0.275,0.183,73.333,34982.000,1.000
0.266,0.075,0.594,0.423,0.292,0.467,0.421,0.200,-0.117,0.868,-0.546,-1.251,0.183,0.092,73.333,34983.000,1.000
-0.491,-0.543,0.009,-0.225,-0.360,-0.155,-0.216,-0.431,-0.117,0.867,-0.544,-1.343,0.153,0.061,73.333,34984.000,1.000
-0.847,-0.814,-0.253,-0.601,-0.705,-0.510,-0.585,-0.727,-0.120,0.865,-0.546,-1.373,0.153,0.092,73.333,34985.000,1.000
-0.880,-0.821,-0.291,-0.749,-0.793,-0.657,-0.729,-0.739,-0.121,0.864,-0.545,-1.373,0.092,0.122,73.333,34986.000,1.000
-0.697,-0.667,-0.217,-0.712,-0.683,-0.634,-0.697,-0.551,-0.120,0.864,-0.543,-1.495,0.092,0.122,73.333,34987.000,1.000
-0.415,-0.473,-0.121,-0.551,-0.469,-0.488,-0.553,-0.277,-0.121,0.863,-0.543,-1.526,-0.092,0.122,73.333,34988.000,1.000
-0.140,-0.333,-0.045,-0.356,-0.256,-0.298,-0.373,-0.024,-0.120,0.863,-0.544,-1.587,-0.214,0.122,73.333,34989.000,1.000
0.057,-0.274,0.018,-0.213,-0.115,-0.150,-0.214,0.146,-0.121,0.861,-0.542,-1.465,-0.244,0.153,73.333,34990.000,1.000
0.155,-0.256,0.096,-0.161,-0.061,-0.081,-0.103,0.225,-0.119,0.862,-0.540,-1.465,-0.427,0.244,73.333,34991.000,1.000
0.166,-0.227,0.184,-0.175,-0.059,-0.067,-0.055,0.236,-0.121,0.860,-0.544,-1.404,-0.427,0.366,73.333,34992.000,1.000
0.101,-0.186,0.232,-0.221,-0.076,-0.079,-0.077,0.195,-0.116,0.860,-0.547,-1.282,-0.610,0.305,73.333,34993.000,1.000
-0.014,-0.154,0.207,-0.261,-0.085,-0.094,-0.142,0.139,-0.118,0.858,-0.544,-1.282,-0.610,0.275,73.333,34994.000,1.000
-0.143,-0.132,0.125,-0.266,-0.072,-0.099,-0.201,0.114,-0.117,0.857,-0.546,-1.190,-0.580,0.244,73.333,34995.000,1.000
-0.259,-0.128,0.014,-0.235,-0.061,-0.093,-0.233,0.125,-0.117,0.856,-0.544,-1.099,-0.763,0.366,73.333,34996.000,1.000
-0.398,-0.195,-0.142,-0.239,-0.141,-0.134,-0.289,0.099,-0.115,0.857,-0.545,-1.068,-0.702,0.366,73.333,34997.000,1.000
-0.624,-0.409,-0.396,-0.380,-0.401,-0.309,-0.450,-0.070,-0.114,0.857,-0.545,-0.946,-0.702,0.397,73.333,34998.000,1.000
-0.925,-0.750,-0.735,-0.669,-0.806,-0.623,-0.710,-0.386,-0.114,0.857,-0.545,-0.732,-0.671,0.397,73.333,34999.000,1.000
-1.244,-1.140,-1.120,-1.057,-1.251,-1.021,-1.020,-0.781,-0.113,0.857,-0.545,-0.580,-0.671,0.580,73.333,35000.000,1.000
-1.591,-1.557,-1.575,-1.536,-1.701,-1.498,-1.393,-1.235,-0.112,0.858,-0.547,-0.580,-0.641,0.671,73.333,35001.000,1.000
-2.012,-2.024,-2.141,-2.109,-2.180,-2.074,-1.869,-1.765,-0.115,0.858,-0.545,-0.458,-0.702,0.732,73.333,35002.000,1.000
-2.503,-2.543,-2.786,-2.732,-2.689,-2.716,-2.430,-2.363,-0.116,0.859,-0.547,-0.427,-0.641,0.732,73.333,35003.000,1.000
-2.989,-3.066,-3.408,-3.317,-3.187,-3.318,-3.004,-2.978,-0.118,0.862,-0.550,-0.427,-0.549,0.885,73.333,35004.000,1.000
-3.401,-3.544,-3.922,-3.800,-3.632,-3.780,-3.536,-3.553,-0.121,0.863,-0.546,-0.458,-0.549,0.916,73.333,35005.000,1.000
-3.729,-3.965,-4.305,-4.173,-4.022,-4.087,-4.002,-4.052,-0.120,0.865,-0.544,-0.580,-0.641,0.824,73.333,35006.000,1.000
-4.049,-4.380,-4.626,-4.514,-4.416,-4.334,-4.441,-4.491,-0.119,0.865,-0.545,-0.610,-0.702,0.916,73.333,35007.000,1.000
-4.484,-4.871,-5.016,-4.950,-4.906,-4.669,-4.941,-4.953,-0.122,0.866,-0.545,-0.702,-0.702,0.854,73.333,35008.000,1.000
-5.034,-5.406,-5.497,-5.474,-5.457,-5.113,-5.478,-5.440,-0.121,0.866,-0.546,-0.793,-0.763,0.763,73.333,35009.000,1.000
-5.494,-5.780,-5.902,-5.882,-5.865,-5.492,-5.865,-5.796,-0.116,0.864,-0.548,-0.793,-0.854,0.793,73.333,35010.000,1.000
-5.620,-5.785,-6.019,-5.949,-5.920,-5.589,-5.917,-5.836,-0.114,0.862,-0.549,-0.793,-0.763,0.793,73.333,35011.000,1.000
-5.353,-5.416,-5.793,-5.629,-5.597,-5.353,-5.624,-5.537,-0.111,0.856,-0.545,-0.854,-0.732,0.793,73.333,35012.000,1.000
-4.863,-4.876,-5.354,-5.076,-5.069,-4.925,-5.144,-5.058,-0.108,0.854,-0.547,-0.885,-0.671,0.824,73.333,35013.000,1.000
-4.376,-4.376,-4.863,-4.490,-4.533,-4.477,-4.631,-4.581,-0.107,0.854,-0.549,-0.793,-0.488,0.916,73.333,35014.000,1.000
-4.021,-4.011,-4.420,-4.008,-4.094,-4.103,-4.165,-4.202,-0.105,0.854,-0.548,-0.641,-0.366,1.068,73.333,35015.000,1.000
-3.793,-3.744,-4.033,-3.656,-3.748,-3.797,-3.759,-3.909,-0.103,0.856,-0.547,-0.641,-0.122,1.251,73.333,35016.000,1.000
-3.582,-3.455,-3.638,-3.347,-3.411,-3.490,-3.365,-3.610,-0.103,0.860,-0.548,-0.488,-0.061,1.343,73.333,35017.000,1.000
-3.271,-3.051,-3.167,-2.971,-3.006,-3.120,-2.924,-3.221,-0.102,0.865,-0.548,-0.488,0.183,1.373,73.333,35018.000,1.000
-2.816,-2.531,-2.630,-2.493,-2.519,-2.673,-2.439,-2.728,-0.103,0.867,-0.547,-0.641,0.366,1.434,73.333,35019.000,1.000
-2.287,-1.999,-2.118,-2.002,-2.022,-2.195,-1.993,-2.218,-0.104,0.868,-0.548,-0.702,0.458,1.526,73.333,35020.000,1.000
-1.840,-1.604,-1.752,-1.649,-1.635,-1.797,-1.702,-1.840,-0.108,0.871,-0.548,-0.671,0.641,1.465,73.333,35021.000,1.000
-1.698,-1.523,-1.686,-1.615,-1.536,-1.670,-1.699,-1.781,-0.118,0.873,-0.546,-0.824,0.732,1.404,73.333,35022.000,1.000
-2.138,-1.992,-2.161,-2.140,-1.991,-2.092,-2.199,-2.283,-0.123,0.871,-0.544,-1.038,0.702,1.251,73.333,35023.000,1.000
-3.338,-3.176,-3.349,-3.376,-3.197,-3.254,-3.369,-3.502,-0.127,0.871,-0.545,-1.160,0.580,1.038,73.333,35024.000,1.000
-5.198,-4.991,-5.160,-5.214,-5.077,-5.072,-5.139,-5.332,-0.130,0.870,-0.546,-1.312,0.336,0.793,73.333,35025.000,1.000
-7.316,-7.074,-7.218,-7.272,-7.234,-7.166,-7.159,-7.388,-0.130,0.867,-0.544,-1.465,0.214,0.549,73.333,35026.000,1.000
-9.087,-8.869,-8.956,-9.003,-9.053,-8.964,-8.875,-9.100,-0.128,0.865,-0.546,-1.587,-0.061,0.275,73.333,35027.000,1.000
-9.875,-9.750,-9.756,-9.820,-9.882,-9.848,-9.681,-9.863,-0.125,0.859,-0.549,-1.556,-0.336,0.031,73.333,35028.000,1.000
-9.197,-9.205,-9.128,-9.225,-9.221,-9.325,-9.084,-9.210,-0.123,0.858,-0.549,-1.495,-0.519,-0.061,73.333,35029.000,1.000
-6.898,-7.031,-6.895,-6.989,-6.910,-7.187,-6.882,-6.969,-0.121,0.858,-0.548,-1.526,-0.671,-0.153,73.333,35030.000,1.000
-3.242,-3.462,-3.294,-3.321,-3.223,-3.624,-3.279,-3.358,-0.118,0.859,-0.548,-1.495,-0.641,-0.244,73.333,35031.000,1.000
1.084,0.826,1.011,1.065,1.126,0.717,1.061,0.969,-0.117,0.860,-0.546,-1.434,-0.641,-0.366,73.333,35032.000,1.000
5.135,4.891,5.087,5.160,5.166,4.875,5.167,5.070,-0.116,0.863,-0.545,-1.373,-0.732,-0.458,73.333,35033.000,1.000
8.091,7.899,8.103,8.101,8.062,7.967,8.154,8.079,-0.115,0.862,-0.545,-1.434,-0.702,-0.397,73.333,35034.000,1.000
9.504,9.379,9.584,9.461,9.388,9.491,9.532,9.500,-0.115,0.864,-0.547,-1.465,-0.610,-0.458,73.333,35035.000,1.000
9.339,9.270,9.465,9.250,9.166,9.385,9.282,9.276,-0.115,0.863,-0.547,-1.434,-0.580,-0.427,73.333,35036.000,1.000
7.892,7.871,8.039,7.805,7.746,7.964,7.764,7.738,-0.115,0.861,-0.550,-1.465,-0.488,-0.336,73.333,35037.000,1.000
5.623,5.666,5.786,5.599,5.595,5.715,5.479,5.404,-0.116,0.860,-0.545,-1.526,-0.488,0.000,73.333,35038.000,1.000
2.928,3.071,3.112,3.004,3.064,3.033,2.817,2.711,-0.117,0.859,-0.545,-1.556,-0.397,0.000,73.333,35039.000,1.000
0.002,0.267,0.203,0.176,0.278,0.092,-0.057,-0.145,-0.118,0.857,-0.545,-1.617,-0.427,0.214,73.333,35040.000,1.000
-3.032,-2.670,-2.841,-2.799,-2.693,-2.994,-3.039,-3.078,-0.119,0.859,-0.546,-1.587,-0.519,0.244,73.333,35041.000,1.000
-5.923,-5.531,-5.772,-5.671,-5.610,-5.948,-5.875,-5.867,-0.119,0.860,-0.545,-1.526,-0.580,0.366,73.333,35042.000,1.000
-8.281,-7.944,-8.192,-8.022,-8.042,-8.345,-8.181,-8.139,-0.120,0.863,-0.541,-1.617,-0.610,0.488,73.333,35043.000,1.000
-9.762,-9.543,-9.727,-9.483,-9.587,-9.820,-9.628,-9.548,-0.122,0.863,-0.546,-1.587,-0.580,0.671,73.333,35044.000,1.000
-10.263,-10.178,-10.238,-9.949,-10.106,-10.271,-10.123,-9.992,-0.118,0.864,-0.547,-1.587,-0.580,0.763,73.333,35045.000,1.000
-9.872,-9.901,-9.810,-9.540,-9.703,-9.822,-9.769,-9.578,-0.120,0.862,-0.544,-1.617,-0.580,0.885,73.333,35046.000,1.000
-8.708,-8.809,-8.603,-8.406,-8.534,-8.627,-8.691,-8.438,-0.121,0.862,-0.539,-1.617,-0.610,0.946,73.333,35047.000,1.000
-6.883,-7.014,-6.772,-6.666,-6.733,-6.806,-6.978,-6.658,-0.116,0.865,-0.536,-1.709,-0.610,0.977,73.333,35048.000,1.000
-4.564,-4.688,-4.502,-4.472,-4.461,-4.507,-4.746,-4.363,-0.118,0.863,-0.539,-1.801,-0.671,1.099,73.333,35049.000,1.000
-2.051,-2.147,-2.070,-2.085,-1.993,-2.010,-2.243,-1.829,-0.117,0.863,-0.539,-1.862,-0.702,1.129,73.333,35050.000,1.000
0.274,0.194,0.182,0.144,0.298,0.293,0.161,0.544,-0.117,0.862,-0.542,-1.801,-0.702,1.160,73.333,35051.000,1.000
2.090,1.987,1.963,1.911,2.096,2.063,2.107,2.399,-0.115,0.863,-0.541,-1.770,-0.702,1.312,73.333,35052.000,1.000
3.258,3.080,3.118,3.060,3.256,3.158,3.389,3.557,-0.114,0.861,-0.540,-1.831,-0.641,1.312,73.333,35053.000,1.000
3.871,3.583,3.703,3.650,3.867,3.690,4.047,4.080,-0.112,0.860,-0.542,-1.831,-0.610,1.404,73.333,35054.000,1.000
4.191,3.793,3.967,3.932,4.190,3.950,4.333,4.235,-0.110,0.860,-0.542,-1.709,-0.519,1.282,73.333,35055.000,1.000
4.516,4.063,4.235,4.228,4.522,4.267,4.580,4.373,-0.109,0.859,-0.546,-1.709,-0.427,1.190,73.333,35056.000,1.000
5.030,4.626,4.733,4.762,5.053,4.843,5.026,4.747,-0.109,0.858,-0.549,-1.678,-0.336,1.190,73.333,35057.000,1.000
5.708,5.460,5.463,5.527,5.770,5.639,5.685,5.374,-0.108,0.858,-0.546,-1.587,-0.366,1.312,73.333,35058.000,1.000
6.418,6.364,6.287,6.363,6.537,6.463,6.423,6.105,-0.108,0.857,-0.547,-1.434,-0.244,1.160,73.333,35059.000,1.000
7.076,7.157,7.075,7.126,7.240,7.166,7.124,6.801,-0.108,0.858,-0.545,-1.404,-0.092,1.038,73.333,35060.000,1.000
7.720,7.813,7.805,7.799,7.878,7.754,7.788,7.462,-0.109,0.859,-0.544,-1.282,-0.183,0.977,73.333,35061.000,1.000
8.448,8.439,8.545,8.477,8.546,8.351,8.502,8.189,-0.110,0.859,-0.546,-1.129,-0.031,0.946,73.333,35062.000,1.000
9.254,9.087,9.299,9.192,9.262,9.006,9.264,9.006,-0.111,0.858,-0.543,-1.190,0.092,0.854,73.333,35063.000,1.000
9.942,9.642,9.913,9.810,9.864,9.596,9.906,9.738,-0.110,0.861,-0.542,-1.099,0.122,0.854,73.333,35064.000,1.000
10.232,9.892,10.155,10.100,10.098,9.894,10.181,10.100,-0.113,0.861,-0.547,-1.099,0.183,0.732,73.333,35065.000,1.000
9.979,9.711,9.913,9.910,9.831,9.766,9.960,9.920,-0.114,0.861,-0.544,-1.038,0.153,0.580,73.333,35066.000,1.000
9.317,9.184,9.316,9.322,9.192,9.304,9.363,9.301,-0.113,0.861,-0.545,-1.007,0.153,0.580,73.333,35067.000,1.000
8.542,8.530,8.626,8.581,8.455,8.738,8.651,8.527,-0.114,0.861,-0.547,-1.007,0.000,0.488,73.333,35068.000,1.000
7.874,7.922,8.023,7.903,7.806,8.218,8.012,7.833,-0.114,0.860,-0.546,-0.885,0.000,0.305,73.333,35069.000,1.000
7.318,7.369,7.492,7.319,7.239,7.702,7.434,7.248,-0.115,0.862,-0.547,-0.946,0.000,0.244,73.333,35070.000,1.000
6.719,6.750,6.886,6.709,6.617,7.037,6.774,6.640,-0.115,0.863,-0.548,-1.007,-0.061,0.275,73.333,35071.000,1.000
5.906,5.927,6.044,5.932,5.786,6.101,5.885,5.844,-0.116,0.865,-0.547,-0.916,-0.183,0.214,73.333,35072.000,1.000
4.800,4.833,4.890,4.897,4.679,4.885,4.703,4.766,-0.116,0.863,-0.543,-0.916,-0.244,0.183,73.333,35073.000,1.000
3.485,3.549,3.509,3.633,3.378,3.512,3.318,3.466,-0.118,0.865,-0.541,-0.885,-0.244,0.061,73.333,35074.000,1.000
2.181,2.293,2.138,2.310,2.091,2.206,1.968,2.166,-0.117,0.867,-0.541,-0.824,-0.336,0.031,73.333,35075.000,1.000
1.179,1.361,1.092,1.220,1.094,1.231,0.963,1.184,-0.116,0.865,-0.544,-0.763,-0.397,0.061,73.333,35076.000,1.000
0.744,1.006,0.649,0.672,0.662,0.822,0.569,0.791,-0.115,0.865,-0.546,-0.763,-0.519,0.153,73.333,35077.000,1.000
0.960,1.283,0.888,0.810,0.904,1.037,0.857,1.047,-0.113,0.864,-0.545,-0.763,-0.549,0.122,73.333,35078.000,1.000
1.670,2.009,1.637,1.513,1.678,1.709,1.654,1.764,-0.113,0.861,-0.548,-0.793,-0.610,0.122,73.333,35079.000,1.000
2.524,2.837,2.533,2.425,2.620,2.500,2.595,2.582,-0.112,0.860,-0.549,-0.671,-0.549,0.244,73.333,35080.000,1.000
3.111,3.374,3.149,3.098,3.279,3.022,3.244,3.093,-0.111,0.860,-0.548,-0.610,-0.549,0.092,73.333,35081.000,1.000
3.131,3.329,3.171,3.183,3.308,2.995,3.283,3.017,-0.112,0.859,-0.546,-0.671,-0.488,0.183,73.333,35082.000,1.000
2.525,2.646,2.536,2.579,2.611,2.366,2.661,2.323,-0.111,0.859,-0.545,-0.610,-0.519,0.183,73.333,35083.000,1.000
1.495,1.539,1.457,1.476,1.405,1.340,1.601,1.247,-0.111,0.858,-0.547,-0.610,-0.458,0.305,73.333,35084.000,1.000
0.400,0.387,0.320,0.273,0.125,0.271,0.471,0.168,-0.111,0.857,-0.547,-0.458,-0.488,0.305,73.333,35085.000,1.000
-0.406,-0.438,-0.494,-0.603,-0.777,-0.485,-0.375,-0.562,-0.112,0.856,-0.545,-0.397,-0.519,0.305,73.333,35086.000,1.000
-0.767,-0.770,-0.807,-0.934,-1.094,-0.762,-0.764,-0.803,-0.117,0.856,-0.545,-0.244,-0.458,0.305,73.333,35087.000,1.000
-0.877,-0.812,-0.814,-0.909,-1.065,-0.764,-0.862,-0.764,-0.119,0.856,-0.545,-0.183,-0.549,0.458,73.333,35088.000,1.000
-1.202,-1.051,-1.003,-1.053,-1.244,-0.988,-1.127,-0.926,-0.123,0.857,-0.547,-0.183,-0.610,0.336,73.333,35089.000,1.000
-2.239,-2.014,-1.909,-1.949,-2.197,-1.964,-2.080,-1.827,-0.124,0.859,-0.551,-0.183,-0.793,0.397,73.333,35090.000,1.000
-4.220,-3.952,-3.808,-3.897,-4.174,-3.946,-4.002,-3.770,-0.123,0.860,-0.550,-0.275,-0.946,0.336,73.333,35091.000,1.000
-6.833,-6.555,-6.411,-6.598,-6.853,-6.624,-6.617,-6.485,-0.122,0.860,-0.549,-0.214,-1.190,0.214,73.333,35092.000,1.000
-9.196,-8.940,-8.824,-9.124,-9.326,-9.094,-9.045,-9.060,-0.120,0.859,-0.549,-0.183,-1.343,0.031,73.333,35093.000,1.000
-10.264,-10.064,-9.970,-10.340,-10.504,-10.245,-10.213,-10.355,-0.118,0.857,-0.548,-0.153,-1.465,0.092,73.333,35094.000,1.000
-9.508,-9.397,-9.303,-9.647,-9.807,-9.497,-9.559,-9.748,-0.117,0.858,-0.549,-0.244,-1.495,0.061,73.333,35095.000,1.000
-7.325,-7.329,-7.224,-7.437,-7.596,-7.256,-7.451,-7.600,-0.114,0.863,-0.550,-0.305,-1.587,0.031,73.333,35096.000,1.000
-4.830,-4.949,-4.845,-4.880,-4.989,-4.700,-4.978,-5.053,-0.114,0.863,-0.550,-0.275,-1.556,0.061,73.333,35097.000,1.000
-3.207,-3.404,-3.321,-3.215,-3.215,-3.064,-3.322,-3.342,-0.115,0.863,-0.546,-0.427,-1.587,0.092,73.333,35098.000,1.000
-3.063,-3.268,-3.219,-3.061,-2.941,-2.956,-3.105,-3.110,-0.115,0.865,-0.545,-0.580,-1.617,0.153,73.333,35099.000,1.000
-4.217,-4.346,-4.331,-4.198,-4.011,-4.148,-4.166,-4.167,-0.114,0.865,-0.546,-0.610,-1.556,0.153,73.333,35100.000,1.000
-5.900,-5.901,-5.906,-5.825,-5.660,-5.836,-5.763,-5.730,-0.113,0.866,-0.548,-0.824,-1.556,0.183,73.333,35101.000,1.000
-7.220,-7.106,-7.107,-7.050,-6.987,-7.136,-7.028,-6.931,-0.112,0.866,-0.548,-0.916,-1.526,0.275,73.333,35102.000,1.000
-7.680,-7.519,-7.489,-7.410,-7.477,-7.578,-7.486,-7.325,-0.112,0.865,-0.550,-0.946,-1.465,0.305,73.333,35103.000,1.000
-7.394,-7.275,-7.201,-7.069,-7.236,-7.299,-7.254,-7.053,-0.115,0.864,-0.549,-0.916,-1.495,0.336,73.333,35104.000,1.000
-6.880,-6.870,-6.775,-6.585,-6.784,-6.818,-6.819,-6.613,-0.116,0.860,-0.548,-1.038,-1.495,0.397,73.333,35105.000,1.000
-6.601,-6.706,-6.649,-6.410,-6.582,-6.574,-6.586,-6.403,-0.118,0.862,-0.547,-1.129,-1.434,0.458,73.333,35106.000,1.000
-6.603,-6.769,-6.814,-6.545,-6.672,-6.602,-6.583,-6.432,-0.117,0.862,-0.547,-1.099,-1.373,0.488,73.333,35107.000,1.000
-6.568,-6.724,-6.897,-6.625,-6.715,-6.597,-6.536,-6.396,-0.116,0.864,-0.547,-1.160,-1.312,0.488,73.333,35108.000,1.000
-6.109,-6.211,-6.486,-6.240,-6.294,-6.181,-6.109,-5.950,-0.116,0.862,-0.547,-1.221,-1.373,0.488,73.333,35109.000,1.000
-5.042,-5.102,-5.404,-5.211,-5.222,-5.157,-5.134,-4.935,-0.114,0.860,-0.545,-1.251,-1.526,0.671,73.333,35110.000,1.000
-3.471,-3.531,-3.766,-3.646,-3.630,-3.605,-3.684,-3.438,-0.113,0.859,-0.548,-1.251,-1.343,0.580,73.333,35111.000,1.000
-1.697,-1.787,-1.866,-1.845,-1.835,-1.803,-1.993,-1.712,-0.113,0.860,-0.546,-1.251,-1.343,0.488,73.333,35112.000,1.000
-0.094,-0.188,-0.076,-0.165,-0.186,-0.119,-0.368,-0.094,-0.112,0.861,-0.545,-1.160,-1.373,0.549,73.333,35113.000,1.000
1.098,1.059,1.313,1.139,1.091,1.187,0.954,1.164,-0.112,0.861,-0.547,-1.221,-1.190,0.488,73.333,35114.000,1.000
1.896,1.946,2.236,2.040,1.997,2.094,1.922,2.043,-0.112,0.860,-0.545,-1.221,-1.190,0.519,73.333,35115.000,1.000
2.545,2.653,2.881,2.735,2.729,2.819,2.691,2.756,-0.112,0.859,-0.546,-1.312,-1.129,0.519,73.333,35116.000,1.000
3.360,3.440,3.558,3.512,3.562,3.664,3.522,3.602,-0.114,0.860,-0.550,-1.312,-1.129,0.458,73.333,35117.000,1.000
4.447,4.399,4.427,4.496,4.597,4.722,4.545,4.687,-0.114,0.862,-0.547,-1.221,-1.068,0.366,73.333,35118.000,1.000
5.535,5.309,5.307,5.477,5.602,5.718,5.551,5.753,-0.114,0.864,-0.543,-1.343,-1.007,0.244,73.333,35119.000,1.000
6.122,5.753,5.772,6.013,6.128,6.164,6.087,6.307,-0.113,0.862,-0.545,-1.282,-0.946,0.244,73.333,35120.000,1.000
5.820,5.416,5.446,5.728,5.816,5.713,5.771,5.956,-0.114,0.863,-0.543,-1.373,-0.824,0.153,73.333,35121.000,1.000
4.590,4.265,4.251,4.559,4.613,4.378,4.555,4.654,-0.115,0.859,-0.544,-1.434,-0.793,0.183,73.333,35122.000,1.000
2.762,2.580,2.468,2.812,2.815,2.534,2.762,2.732,-0.116,0.861,-0.548,-1.526,-0.793,0.061,73.333,35123.000,1.000
0.928,0.879,0.660,1.058,0.981,0.765,0.977,0.799,-0.114,0.859,-0.547,-1.556,-0.671,0.031,73.333,35124.000,1.000
-0.318,-0.291,-0.566,-0.135,-0.292,-0.398,-0.213,-0.523,-0.116,0.859,-0.548,-1.587,-0.702,-0.092,73.333,35125.000,1.000
-0.634,-0.591,-0.817,-0.429,-0.633,-0.675,-0.458,-0.871,-0.119,0.857,-0.546,-1.465,-0.702,-0.092,73.333,35126.000,1.000
0.007,0.035,-0.032,0.217,0.016,-0.055,0.253,-0.220,-0.119,0.857,-0.545,-1.404,-0.732,-0.031,73.333,35127.000,1.000
1.348,1.375,1.509,1.564,1.412,1.251,1.630,1.169,-0.119,0.858,-0.545,-1.251,-0.763,0.000,73.333,35128.000,1.000
2.975,3.042,3.324,3.203,3.133,2.886,3.234,2.878,-0.118,0.858,-0.544,-1.160,-0.763,0.000,73.333,35129.000,1.000
4.457,4.588,4.920,4.702,4.709,4.434,4.638,4.457,-0.118,0.859,-0.544,-1.099,-0.763,-0.061,73.333,35130.000,1.000
5.470,5.638,5.941,5.731,5.775,5.537,5.542,5.552,-0.118,0.859,-0.547,-1.068,-0.793,-0.031,73.333,35131.000,1.000
5.888,6.036,6.258,6.149,6.190,6.020,5.848,6.007,-0.117,0.861,-0.545,-1.129,-0.946,0.031,73.333,35132.000,1.000
5.750,5.849,5.954,5.977,6.014,5.894,5.630,5.862,-0.116,0.862,-0.547,-1.190,-0.885,0.092,73.333,35133.000,1.000
5.198,5.275,5.232,5.343,5.421,5.305,5.058,5.273,-0.115,0.862,-0.544,-1.190,-0.885,0.031,73.333,35134.000,1.000
4.401,4.495,4.307,4.427,4.597,4.439,4.300,4.410,-0.116,0.861,-0.546,-1.160,-0.885,0.031,73.333,35135.000,1.000
3.504,3.606,3.333,3.407,3.682,3.467,3.458,3.416,-0.116,0.861,-0.546,-1.160,-0.854,0.153,73.333,35136.000,1.000
2.628,2.679,2.403,2.427,2.778,2.521,2.595,2.420,-0.118,0.861,-0.544,-1.068,-0.885,0.214,73.333,35137.000,1.000
1.899,1.853,1.623,1.618,2.004,1.744,1.812,1.582,-0.120,0.860,-0.547,-1.068,-0.916,0.244,73.333,35138.000,1.000
1.490,1.361,1.167,1.148,1.537,1.327,1.303,1.102,-0.121,0.863,-0.547,-1.068,-0.854,0.183,73.333,35139.000,1.000
1.529,1.388,1.188,1.157,1.527,1.413,1.249,1.132,-0.122,0.865,-0.547,-1.099,-0.824,0.092,73.333,35140.000,1.000
1.976,1.912,1.656,1.628,1.947,1.957,1.646,1.637,-0.120,0.867,-0.547,-1.099,-0.854,0.061,73.333,35141.000,1.000
2.659,2.735,2.389,2.394,2.627,2.743,2.330,2.431,-0.120,0.868,-0.547,-1.221,-0.946,0.061,73.333,35142.000,1.000
3.396,3.620,3.200,3.265,3.391,3.541,3.121,3.303,-0.121,0.867,-0.544,-1.190,-0.916,0.061,73.333,35143.000,1.000
4.086,4.413,3.993,4.119,4.143,4.237,3.916,4.121,-0.121,0.866,-0.544,-1.312,-0.916,0.183,73.333,35144.000,1.000
4.670,5.030,4.713,4.856,4.810,4.796,4.640,4.796,-0.122,0.864,-0.545,-1.373,-1.007,0.061,73.333,35145.000,1.000
5.041,5.373,5.239,5.315,5.256,5.153,5.147,5.202,-0.121,0.864,-0.544,-1.343,-1.038,-0.031,73.333,35146.000,1.000
5.071,5.344,5.400,5.335,5.322,5.201,5.262,5.213,-0.121,0.864,-0.546,-1.404,-1.129,0.000,73.333,35147.000,1.000
4.736,4.928,5.109,4.893,4.953,4.887,4.922,4.810,-0.120,0.860,-0.545,-1.404,-1.160,-0.031,73.333,35148.000,1.000
4.181,4.273,4.475,4.176,4.279,4.309,4.266,4.148,-0.122,0.861,-0.544,-1.556,-1.251,-0.031,73.333,35149.000,1.000
3.604,3.590,3.721,3.426,3.522,3.637,3.525,3.438,-0.122,0.859,-0.541,-1.404,-1.221,0.000,73.333,35150.000,1.000
3.052,2.961,2.966,2.734,2.787,2.937,2.807,2.753,-0.120,0.859,-0.543,-1.404,-1.129,0.031,73.333,35151.000,1.000
2.375,2.255,2.149,1.991,1.981,2.126,2.029,1.988,-0.117,0.859,-0.545,-1.404,-1.129,0.061,73.333,35152.000,1.000
1.367,1.252,1.118,1.010,0.920,1.058,1.025,0.983,-0.115,0.859,-0.542,-1.373,-1.099,0.153,73.333,35153.000,1.000
-0.014,-0.119,-0.170,-0.277,-0.441,-0.296,-0.241,-0.293,-0.116,0.856,-0.546,-1.373,-0.946,0.214,73.333,35154.000,1.000
-1.555,-1.663,-1.553,-1.710,-1.897,-1.748,-1.595,-1.663,-0.116,0.857,-0.546,-1.312,-0.824,0.305,73.333,35155.000,1.000
-2.857,-2.979,-2.707,-2.930,-3.063,-2.943,-2.701,-2.793,-0.113,0.857,-0.549,-1.282,-0.824,0.397,73.333,35156.000,1.000
-3.539,-3.647,-3.289,-3.560,-3.573,-3.526,-3.220,-3.337,-0.114,0.858,-0.549,-1.190,-0.671,0.275,73.333,35157.000,1.000
-3.458,-3.487,-3.154,-3.440,-3.313,-3.365,-3.030,-3.158,-0.116,0.857,-0.548,-1.129,-0.671,0.305,73.333,35158.000,1.000
-2.788,-2.686,-2.457,-2.734,-2.504,-2.638,-2.318,-2.427,-0.118,0.858,-0.545,-0.977,-0.549,0.336,73.333,35159.000,1.000
-1.926,-1.696,-1.593,-1.849,-1.590,-1.755,-1.503,-1.549,-0.116,0.860,-0.549,-0.916,-0.549,0.305,73.333,35160.000,1.000
-1.271,-0.969,-0.949,-1.182,-0.987,-1.123,-0.977,-0.927,-0.116,0.861,-0.545,-0.885,-0.458,0.275,73.333,35161.000,1.000
-0.949,-0.661,-0.635,-0.852,-0.796,-0.866,-0.817,-0.688,-0.116,0.864,-0.544,-0.977,-0.336,0.244,73.333,35162.000,1.000
-0.770,-0.582,-0.457,-0.668,-0.773,-0.775,-0.773,-0.633,-0.116,0.864,-0.542,-0.977,-0.214,0.275,73.333,35163.000,1.000
-0.418,-0.374,-0.123,-0.316,-0.550,-0.508,-0.508,-0.423,-0.115,0.865,-0.541,-1.099,-0.092,0.244,73.333,35164.000,1.000
0.302,0.217,0.525,0.402,0.093,0.149,0.157,0.165,-0.115,0.865,-0.543,-1.251,-0.092,0.336,73.333,35165.000,1.000
1.317,1.143,1.398,1.415,1.074,1.134,1.125,1.081,-0.116,0.865,-0.544,-1.190,0.031,0.305,73.333,35166.000,1.000
2.296,2.071,2.201,2.379,2.047,2.133,2.067,2.012,-0.116,0.864,-0.543,-1.221,0.031,0.244,73.333,35167.000,1.000
2.820,2.567,2.577,2.855,2.579,2.742,2.571,2.544,-0.116,0.864,-0.545,-1.221,0.122,0.275,73.333,35168.000,1.000
2.667,2.410,2.341,2.618,2.431,2.719,2.417,2.439,-0.116,0.862,-0.543,-1.221,0.122,0.275,73.333,35169.000,1.000
1.923,1.690,1.571,1.770,1.675,2.078,1.692,1.746,-0.119,0.863,-0.545,-1.160,0.244,0.305,73.333,35170.000,1.000
0.837,0.648,0.480,0.587,0.560,0.989,0.650,0.687,-0.117,0.864,-0.542,-1.282,0.153,0.305,73.333,35171.000,1.000
-0.258,-0.413,-0.616,-0.567,-0.551,-0.229,-0.385,-0.407,-0.115,0.862,-0.541,-1.282,0.244,0.214,73.333,35172.000,1.000
-0.971,-1.136,-1.316,-1.277,-1.249,-1.135,-1.049,-1.123,-0.116,0.862,-0.543,-1.160,0.244,0.214,73.333,35173.000,1.000
-1.031,-1.269,-1.343,-1.274,-1.272,-1.374,-1.085,-1.168,-0.118,0.859,-0.545,-1.160,0.275,0.275,73.333,35174.000,1.000
-0.478,-0.820,-0.738,-0.617,-0.675,-0.910,-0.516,-0.557,-0.117,0.858,-0.544,-1.129,0.305,0.427,73.333,35175.000,1.000
0.427,0.020,0.227,0.392,0.274,0.032,0.425,0.458,-0.113,0.857,-0.541,-0.977,0.305,0.458,73.333,35176.000,1.000
1.401,1.028,1.251,1.425,1.296,1.139,1.459,1.569,-0.111,0.857,-0.541,-0.885,0.519,0.488,73.333,35177.000,1.000
2.170,1.927,2.036,2.185,2.114,2.053,2.276,2.428,-0.108,0.856,-0.544,-0.732,0.641,0.519,73.333,35178.000,1.000
2.471,2.395,2.326,2.439,2.455,2.441,2.579,2.721,-0.105,0.857,-0.543,-0.702,0.793,0.610,73.333,35179.000,1.000
2.209,2.260,2.066,2.144,2.200,2.186,2.263,2.352,-0.104,0.859,-0.545,-0.610,1.038,0.763,73.333,35180.000,1.000
1.575,1.660,1.470,1.510,1.508,1.500,1.531,1.554,-0.103,0.858,-0.543,-0.488,1.465,0.854,73.333,35181.000,1.000
0.923,0.951,0.874,0.864,0.734,0.769,0.755,0.733,-0.104,0.858,-0.543,-0.336,1.617,0.885,73.333,35182.000,1.000
0.486,0.425,0.476,0.410,0.172,0.274,0.200,0.175,-0.105,0.860,-0.547,-0.183,1.892,0.946,73.333,35183.000,1.000
0.240,0.130,0.235,0.120,-0.110,0.024,-0.114,-0.110,-0.106,0.859,-0.547,-0.092,2.197,0.916,73.333,35184.000,1.000
-0.044,-0.128,-0.069,-0.221,-0.303,-0.216,-0.391,-0.353,-0.108,0.861,-0.544,0.000,2.411,0.946,73.333,35185.000,1.000
-0.615,-0.597,-0.648,-0.827,-0.684,-0.717,-0.872,-0.814,-0.110,0.863,-0.544,0.061,2.533,0.763,73.333,35186.000,1.000
-1.494,-1.326,-1.490,-1.685,-1.354,-1.525,-1.613,-1.527,-0.114,0.863,-0.545,0.122,2.625,0.793,73.333,35187.000,1.000
-2.466,-2.155,-2.393,-2.583,-2.198,-2.449,-2.471,-2.320,-0.115,0.863,-0.546,0.183,2.686,0.763,73.333,35188.000,1.000
-3.279,-2.896,-3.165,-3.327,-3.028,-3.258,-3.253,-3.003,-0.116,0.860,-0.543,0.214,2.747,0.671,73.333,35189.000,1.000
-3.782,-3.430,-3.700,-3.825,-3.678,-3.806,-3.806,-3.458,-0.119,0.859,-0.542,0.305,2.747,0.610,73.333,35190.000,1.000
-3.924,-3.688,-3.933,-4.035,-4.004,-4.015,-4.024,-3.618,-0.117,0.859,-0.544,0.397,2.716,0.549,73.333,35191.000,1.000
-3.716,-3.622,-3.821,-3.922,-3.911,-3.854,-3.854,-3.454,-0.120,0.858,-0.545,0.488,2.747,0.427,73.333,35192.000,1.000
-3.244,-3.262,-3.411,-3.512,-3.432,-3.392,-3.369,-3.038,-0.121,0.856,-0.544,0.610,2.686,0.275,73.333,35193.000,1.000
-2.650,-2.722,-2.823,-2.916,-2.727,-2.773,-2.738,-2.509,-0.120,0.858,-0.544,0.671,2.594,0.214,73.333,35194.000,1.000
-2.055,-2.124,-2.177,-2.259,-1.978,-2.118,-2.118,-1.991,-0.121,0.857,-0.546,0.824,2.625,0.061,73.333,35195.000,1.000
-1.517,-1.545,-1.550,-1.629,-1.317,-1.490,-1.581,-1.537,-0.121,0.858,-0.547,0.977,2.533,0.061,73.333,35196.000,1.000
-1.035,-1.010,-0.981,-1.073,-0.803,-0.921,-1.112,-1.137,-0.122,0.856,-0.548,1.099,2.289,-0.031,73.333,35197.000,1.000
-0.624,-0.559,-0.526,-0.640,-0.465,-0.469,-0.697,-0.792,-0.120,0.857,-0.545,1.190,2.228,-0.061,73.333,35198.000,1.000
-0.380,-0.291,-0.287,-0.413,-0.342,-0.237,-0.411,-0.572,-0.120,0.856,-0.545,1.312,2.014,-0.153,73.333,35199.000,1.000
-0.461,-0.344,-0.391,-0.516,-0.504,-0.346,-0.421,-0.622,-0.120,0.857,-0.548,1.282,1.953,-0.031,73.333,35200.000,1.000
-0.999,-0.837,-0.927,-1.054,-1.016,-0.879,-0.877,-1.079,-0.119,0.859,-0.546,1.373,1.984,-0.122,73.333,35201.000,1.000
-2.027,-1.806,-1.910,-2.049,-1.910,-1.851,-1.820,-1.988,-0.119,0.860,-0.546,1.282,1.831,-0.031,73.333,35202.000,1.000
-3.484,-3.215,-3.290,-3.437,-3.187,-3.211,-3.190,-3.299,-0.119,0.863,-0.547,1.160,1.740,0.061,73.333,35203.000,1.000
-5.158,-4.876,-4.874,-5.010,-4.724,-4.780,-4.777,-4.816,-0.116,0.865,-0.547,1.221,1.617,0.153,73.333,35204.000,1.000
-6.654,-6.400,-6.292,-6.383,-6.183,-6.194,-6.182,-6.174,-0.117,0.869,-0.548,1.068,1.556,0.244,73.333,35205.000,1.000
-7.558,-7.346,-7.151,-7.158,-7.140,-7.049,-6.993,-6.998,-0.119,0.868,-0.549,0.977,1.465,0.244,73.333,35206.000,1.000
-7.646,-7.458,-7.254,-7.134,-7.310,-7.119,-7.011,-7.091,-0.122,0.865,-0.547,0.885,1.343,0.305,73.333,35207.000,1.000
-6.943,-6.748,-6.633,-6.359,-6.658,-6.427,-6.289,-6.477,-0.123,0.867,-0.550,0.793,1.221,0.336,73.333,35208.000,1.000
-5.616,-5.392,-5.417,-5.012,-5.330,-5.127,-4.992,-5.286,-0.124,0.867,-0.549,0.580,1.038,0.336,73.333,35209.000,1.000
-3.919,-3.665,-3.793,-3.332,-3.611,-3.462,-3.346,-3.716,-0.125,0.868,-0.546,0.458,0.946,0.427,73.333,35210.000,1.000
-2.210,-1.950,-2.077,-1.660,-1.911,-1.792,-1.685,-2.073,-0.126,0.866,-0.549,0.153,0.793,0.488,73.333,35211.000,1.000
-0.903,-0.677,-0.694,-0.415,-0.682,-0.545,-0.434,-0.765,-0.125,0.863,-0.547,0.092,0.610,0.519,73.333,35212.000,1.000
-0.367,-0.216,-0.067,0.017,-0.293,-0.111,0.007,-0.213,-0.119,0.860,-0.547,-0.153,0.427,0.610,73.333,35213.000,1.000
-0.751,-0.701,-0.407,-0.511,-0.842,-0.636,-0.517,-0.625,-0.114,0.858,-0.548,-0.183,0.305,0.732,73.333,35214.000,1.000
-1.840,-1.893,-1.532,-1.739,-2.032,-1.862,-1.762,-1.795,-0.111,0.857,-0.551,-0.244,0.275,0.885,73.333,35215.000,1.000
-3.122,-3.257,-2.910,-3.086,-3.295,-3.224,-3.175,-3.164,-0.110,0.857,-0.552,-0.275,0.214,1.099,73.333,35216.000,1.000
-4.062,-4.244,-3.942,-3.968,-4.106,-4.155,-4.176,-4.132,-0.110,0.857,-0.553,-0.244,0.214,1.251,73.333,35217.000,1.000
-4.392,-4.600,-4.309,-4.152,-4.284,-4.418,-4.483,-4.416,-0.111,0.858,-0.554,-0.275,0.275,1.282,73.333,35218.000,1.000
-4.170,-4.406,-4.075,-3.801,-3.988,-4.135,-4.185,-4.121,-0.110,0.862,-0.552,-0.397,0.214,1.373,73.333,35219.000,1.000
-3.645,-3.913,-3.541,-3.275,-3.516,-3.600,-3.601,-3.562,-0.110,0.865,-0.551,-0.427,0.092,1.373,73.333,35220.000,1.000
-3.125,-3.413,-3.056,-2.909,-3.144,-3.114,-3.082,-3.080,-0.112,0.866,-0.551,-0.580,0.031,1.465,73.333,35221.000,1.000
-2.844,-3.123,-2.864,-2.872,-3.026,-2.877,-2.851,-2.895,-0.116,0.865,-0.551,-0.702,-0.031,1.526,73.333,35222.000,1.000
-2.844,-3.089,-2.979,-3.096,-3.116,-2.912,-2.917,-3.012,-0.120,0.865,-0.552,-0.671,-0.214,1.495,73.333,35223.000,1.000
-2.936,-3.139,-3.160,-3.292,-3.164,-3.012,-3.063,-3.193,-0.126,0.865,-0.552,-0.732,-0.244,1.404,73.333,35224.000,1.000
-2.867,-3.046,-3.107,-3.177,-2.931,-2.914,-3.017,-3.157,-0.130,0.866,-0.554,-0.854,-0.580,1.221,73.333,35225.000,1.000
-2.632,-2.832,-2.806,-2.806,-2.500,-2.623,-2.771,-2.905,-0.132,0.866,-0.551,-0.946,-0.946,1.160,73.333,35226.000,1.000
-2.604,-2.862,-2.667,-2.654,-2.348,-2.537,-2.717,-2.828,-0.132,0.865,-0.552,-0.916,-1.251,1.007,73.333,35227.000,1.000
-3.262,-3.572,-3.224,-3.262,-2.994,-3.148,-3.364,-3.414,-0.134,0.866,-0.553,-1.099,-1.617,0.793,73.333,35228.000,1.000
-4.637,-4.946,-4.556,-4.666,-4.454,-4.511,-4.762,-4.698,-0.132,0.866,-0.551,-1.221,-1.953,0.519,73.333,35229.000,1.000
-6.075,-6.321,-6.016,-6.179,-6.029,-5.998,-6.250,-6.038,-0.130,0.864,-0.550,-1.282,-2.167,0.427,73.333,35230.000,1.000
-6.564,-6.712,-6.572,-6.737,-6.651,-6.594,-6.793,-6.443,-0.130,0.864,-0.544,-1.404,-2.533,0.366,73.333,35231.000,1.000
-5.312,-5.357,-5.401,-5.495,-5.478,-5.453,-5.564,-5.148,-0.130,0.865,-0.546,-1.434,-2.655,0.336,73.333,35232.000,1.000
-2.210,-2.176,-2.360,-2.323,-2.385,-2.408,-2.434,-2.059,-0.127,0.865,-0.549,-1.587,-2.991,0.366,73.333,35233.000,1.000
2.069,2.142,1.919,2.081,1.939,1.890,1.914,2.181,-0.125,0.864,-0.548,-1.770,-3.265,0.427,73.333,35234.000,1.000
6.358,6.426,6.274,6.492,6.299,6.247,6.272,6.441,-0.128,0.866,-0.549,-1.953,-3.418,0.549,73.333,35235.000,1.000
9.495,9.533,9.493,9.690,9.503,9.445,9.434,9.553,-0.125,0.866,-0.549,-2.014,-3.632,0.702,73.333,35236.000,1.000
10.814,10.822,10.855,10.990,10.862,10.770,10.717,10.811,-0.118,0.864,-0.548,-2.075,-3.784,1.160,73.333,35237.000,1.000
10.348,10.331,10.364,10.453,10.381,10.242,10.170,10.233,-0.112,0.863,-0.545,-2.136,-3.784,1.465,73.333,35238.000,1.000
8.667,8.615,8.587,8.669,8.610,8.444,8.382,8.406,-0.111,0.859,-0.546,-2.045,-3.784,1.617,73.333,35239.000,1.000
6.440,6.333,6.218,6.319,6.234,6.079,6.038,6.041,-0.107,0.861,-0.545,-2.167,-3.815,1.892,73.333,35240.000,1.000
4.049,3.880,3.700,3.810,3.703,3.577,3.547,3.566,-0.109,0.860,-0.548,-2.136,-3.815,2.106,73.333,35241.000,1.000
1.589,1.368,1.188,1.275,1.179,1.077,1.034,1.094,-0.109,0.859,-0.546,-2.167,-3.784,2.411,73.333,35242.000,1.000
-0.850,-1.081,-1.207,-1.163,-1.215,-1.301,-1.381,-1.296,-0.108,0.860,-0.547,-2.167,-3.632,2.594,73.333,35243.000,1.000
-2.957,-3.128,-3.205,-3.189,-3.191,-3.254,-3.378,-3.316,-0.108,0.862,-0.549,-2.197,-3.387,2.747,73.333,35244.000,1.000
-4.316,-4.357,-4.443,-4.420,-4.385,-4.415,-4.565,-4.563,-0.109,0.860,-0.545,-2.289,-3.143,2.808,73.333,35245.000,1.000
-4.640,-4.528,-4.702,-4.628,-4.573,-4.580,-4.721,-4.786,-0.110,0.858,-0.545,-2.228,-3.204,2.899,73.333,35246.000,1.000
-3.870,-3.643,-3.962,-3.808,-3.731,-3.752,-3.845,-3.962,-0.111,0.857,-0.543,-2.289,-3.235,2.960,73.333,35247.000,1.000
-2.205,-1.935,-2.409,-2.170,-2.053,-2.127,-2.142,-2.309,-0.110,0.858,-0.544,-2.228,-3.052,3.082,73.333,35248.000,1.000
-0.103,0.152,-0.435,-0.124,0.044,-0.094,-0.035,-0.263,-0.112,0.856,-0.544,-2.350,-3.052,2.991,73.333,35249.000,1.000
1.888,2.108,1.479,1.845,2.053,1.857,1.952,1.673,-0.113,0.855,-0.545,-2.319,-2.991,2.869,73.333,35250.000,1.000
3.431,3.609,3.019,3.419,3.640,3.381,3.463,3.192,-0.112,0.853,-0.545,-2.228,-2.991,2.930,73.333,35251.000,1.000
4.571,4.692,4.227,4.618,4.819,4.480,4.531,4.356,-0.112,0.854,-0.546,-2.258,-2.960,2.838,73.333,35252.000,1.000
5.624,5.672,5.402,5.708,5.867,5.451,5.486,5.483,-0.109,0.854,-0.545,-2.197,-2.869,2.716,73.333,35253.000,1.000
6.879,6.863,6.799,6.942,7.067,6.621,6.656,6.847,-0.108,0.854,-0.547,-2.136,-2.777,2.655,73.333,35254.000,1.000
8.331,8.279,8.367,8.310,8.434,8.017,8.061,8.394,-0.106,0.858,-0.546,-2.075,-2.655,2.502,73.333,35255.000,1.000
9.645,9.587,9.739,9.514,9.662,9.309,9.366,9.739,-0.105,0.856,-0.548,-2.014,-2.563,2.350,73.333,35256.000,1.000
10.428,10.388,10.526,10.208,10.375,10.095,10.166,10.476,-0.105,0.857,-0.546,-1.923,-2.411,2.228,73.333,35257.000,1.000
10.491,10.485,10.573,10.230,10.380,10.181,10.263,10.447,-0.102,0.857,-0.546,-1.831,-2.136,2.045,73.333,35258.000,1.000
9.899,9.919,9.974,9.649,9.723,9.625,9.717,9.757,-0.100,0.857,-0.547,-1.831,-2.014,1.892,73.333,35259.000,1.000
8.864,8.866,8.939,8.652,8.614,8.633,8.729,8.640,-0.101,0.857,-0.548,-1.709,-1.770,1.862,73.333,35260.000,1.000
7.657,7.575,7.720,7.476,7.349,7.474,7.544,7.375,-0.100,0.857,-0.546,-1.648,-1.587,1.740,73.333,35261.000,1.000
6.592,6.382,6.625,6.424,6.278,6.461,6.466,6.286,-0.098,0.860,-0.549,-1.587,-1.343,1.617,73.333,35262.000,1.000
5.955,5.619,5.948,5.787,5.696,5.857,5.801,5.665,-0.100,0.859,-0.547,-1.465,-1.099,1.465,73.333,35263.000,1.000
5.890,5.476,5.843,5.730,5.730,5.782,5.734,5.657,-0.101,0.861,-0.550,-1.587,-0.946,1.312,73.333,35264.000,1.000
6.337,5.910,6.247,6.206,6.273,6.172,6.234,6.191,-0.099,0.862,-0.548,-1.434,-0.702,1.251,73.333,35265.000,1.000
7.014,6.642,6.888,6.945,7.004,6.785,7.016,6.975,-0.099,0.863,-0.549,-1.465,-0.549,1.160,73.333,35266.000,1.000
7.542,7.286,7.409,7.559,7.535,7.285,7.658,7.615,-0.100,0.863,-0.548,-1.373,-0.275,1.068,73.333,35267.000,1.000
7.596,7.500,7.512,7.695,7.569,7.369,7.791,7.783,-0.101,0.862,-0.548,-1.343,-0.183,0.916,73.333,35268.000,1.000
7.027,7.108,7.058,7.187,7.006,6.897,7.273,7.343,-0.103,0.862,-0.548,-1.312,-0.031,0.793,73.333,35269.000,1.000
5.893,6.145,6.082,6.092,5.935,5.921,6.216,6.361,-0.104,0.864,-0.552,-1.190,0.031,0.732,73.333,35270.000,1.000
4.396,4.783,4.738,4.612,4.534,4.610,4.851,5.015,-0.106,0.861,-0.552,-1.099,0.092,0.580,73.333,35271.000,1.000
2.799,3.257,3.239,3.001,3.004,3.179,3.405,3.526,-0.107,0.865,-0.549,-1.007,0.305,0.519,73.333,35272.000,1.000
1.329,1.774,1.772,1.476,1.521,1.813,2.030,2.080,-0.108,0.863,-0.549,-1.038,0.488,0.427,73.333,35273.000,1.000
0.111,0.477,0.455,0.171,0.222,0.618,0.797,0.779,-0.111,0.864,-0.547,-0.885,0.488,0.397,73.333,35274.000,1.000
-0.804,-0.548,-0.631,-0.843,-0.787,-0.351,-0.248,-0.323,-0.108,0.863,-0.549,-0.793,0.580,0.336,73.333,35275.000,1.000
-1.396,-1.255,-1.406,-1.531,-1.442,-1.040,-1.036,-1.166,-0.109,0.862,-0.550,-0.793,0.671,0.305,73.333,35276.000,1.000
-1.683,-1.655,-1.841,-1.901,-1.749,-1.438,-1.517,-1.704,-0.112,0.860,-0.550,-0.641,0.732,0.305,73.333,35277.000,1.000
-1.799,-1.874,-2.051,-2.070,-1.856,-1.667,-1.775,-2.009,-0.113,0.857,-0.548,-0.488,0.793,0.336,73.333,35278.000,1.000
-1.916,-2.078,-2.207,-2.189,-1.963,-1.900,-1.977,-2.218,-0.113,0.854,-0.548,-0.336,0.824,0.366,73.333,35279.000,1.000
-2.110,-2.336,-2.386,-2.336,-2.176,-2.191,-2.231,-2.412,-0.112,0.852,-0.547,-0.183,0.824,0.427,73.333,35280.000,1.000
-2.354,-2.611,-2.577,-2.516,-2.487,-2.480,-2.537,-2.599,-0.111,0.851,-0.549,0.000,0.641,0.488,73.333,35281.000,1.000
-2.574,-2.812,-2.733,-2.687,-2.802,-2.680,-2.811,-2.740,-0.110,0.852,-0.548,0.305,0.610,0.610,73.333,35282.000,1.000
-2.721,-2.897,-2.831,-2.803,-3.033,-2.759,-2.973,-2.815,-0.109,0.855,-0.550,0.580,0.610,0.854,73.333,35283.000,1.000
-2.805,-2.913,-2.886,-2.852,-3.171,-2.762,-3.020,-2.858,-0.110,0.858,-0.547,0.793,0.610,1.099,73.333,35284.000,1.000
-2.864,-2.923,-2.913,-2.857,-3.252,-2.759,-2.981,-2.915,-0.109,0.859,-0.545,0.854,0.671,1.282,73.333,35285.000,1.000
-2.895,-2.909,-2.876,-2.818,-3.263,-2.750,-2.847,-2.950,-0.110,0.859,-0.543,0.885,0.641,1.556,73.333,35286.000,1.000
-2.794,-2.738,-2.661,-2.642,-3.077,-2.606,-2.533,-2.808,-0.111,0.860,-0.544,1.068,0.641,1.648,73.333,35287.000,1.000
-2.448,-2.296,-2.183,-2.225,-2.577,-2.201,-1.990,-2.369,-0.117,0.861,-0.544,0.977,0.397,1.678,73.333,35288.000,1.000
-1.924,-1.681,-1.548,-1.643,-1.862,-1.610,-1.357,-1.751,-0.123,0.859,-0.545,1.007,0.244,1.770,73.333,35289.000,1.000
-1.556,-1.251,-1.122,-1.229,-1.326,-1.199,-1.002,-1.344,-0.128,0.861,-0.548,0.977,-0.031,1.862,73.333,35290.000,1.000
-1.809,-1.478,-1.382,-1.442,-1.494,-1.454,-1.371,-1.633,-0.128,0.863,-0.546,1.068,-0.214,1.862,73.333,35291.000,1.000
-2.975,-2.661,-2.618,-2.589,-2.680,-2.669,-2.694,-2.882,-0.127,0.861,-0.549,1.190,-0.641,1.862,73.333,35292.000,1.000
-4.945,-4.699,-4.703,-4.586,-4.751,-4.716,-4.794,-4.933,-0.123,0.861,-0.546,1.068,-0.946,1.862,73.333,35293.000,1.000
-7.192,-7.061,-7.081,-6.916,-7.134,-7.048,-7.112,-7.225,-0.122,0.862,-0.548,0.946,-1.129,1.892,73.333,35294.000,1.000
-9.029,-9.034,-9.040,-8.877,-9.101,-8.981,-8.982,-9.081,-0.120,0.861,-0.547,0.946,-1.373,1.831,73.333,35295.000,1.000
-9.976,-10.116,-10.089,-9.967,-10.160,-10.059,-9.978,-10.070,-0.117,0.861,-0.546,0.977,-1.678,1.862,73.333,35296.000,1.000
-9.926,-10.182,-10.113,-10.056,-10.204,-10.178,-10.014,-10.112,-0.115,0.860,-0.547,0.916,-1.862,1.831,73.333,35297.000,1.000
-9.078,-9.407,-9.297,-9.319,-9.422,-9.502,-9.270,-9.377,-0.115,0.858,-0.548,0.885,-1.923,1.831,73.333,35298.000,1.000
-7.762,-8.086,-7.957,-8.061,-8.123,-8.297,-8.028,-8.122,-0.111,0.859,-0.550,0.916,-1.984,1.740,73.333,35299.000,1.000
-6.284,-6.512,-6.415,-6.585,-6.615,-6.839,-6.571,-6.604,-0.112,0.859,-0.551,0.885,-1.953,1.770,73.333,35300.000,1.000
-4.885,-4.963,-4.950,-5.141,-5.155,-5.381,-5.153,-5.072,-0.111,0.859,-0.550,0.763,-2.045,1.770,73.333,35301.000,1.000
-3.753,-3.681,-3.774,-3.933,-3.936,-4.145,-3.983,-3.768,-0.112,0.860,-0.553,0.885,-2.106,1.831,73.333,35302.000,1.000
-3.069,-2.883,-3.063,-3.154,-3.127,-3.325,-3.247,-2.931,-0.108,0.861,-0.548,0.854,-2.228,1.740,73.333,35303.000,1.000
-2.982,-2.712,-2.951,-2.974,-2.876,-3.082,-3.091,-2.754,-0.108,0.861,-0.548,0.885,-2.197,1.801,73.333,35304.000,1.000
-3.546,-3.207,-3.487,-3.476,-3.258,-3.501,-3.568,-3.298,-0.107,0.863,-0.547,0.854,-2.106,1.801,73.333,35305.000,1.000
-4.684,-4.296,-4.600,-4.607,-4.248,-4.541,-4.619,-4.470,-0.106,0.864,-0.548,0.702,-2.075,1.740,73.333,35306.000,1.000
-6.173,-5.785,-6.067,-6.137,-5.672,-5.985,-6.053,-6.019,-0.108,0.864,-0.552,0.671,-2.106,1.740,73.333,35307.000,1.000
-7.727,-7.387,-7.588,-7.739,-7.248,-7.514,-7.594,-7.609,-0.107,0.864,-0.550,0.458,-2.045,1.556,73.333,35308.000,1.000
-9.054,-8.787,-8.876,-9.092,-8.656,-8.819,-8.940,-8.913,-0.110,0.864,-0.552,0.244,-2.014,1.587,73.333,35309.000,1.000
-9.917,-9.721,-9.727,-9.952,-9.621,-9.678,-9.830,-9.689,-0.110,0.863,-0.550,0.305,-1.923,1.556,73.333,35310.000,1.000
-10.223,-10.082,-10.079,-10.240,-10.024,-10.026,-10.159,-9.886,-0.111,0.862,-0.547,0.275,-1.892,1.465,73.333,35311.000,1.000
-10.052,-9.947,-10.009,-10.047,-9.935,-9.944,-9.999,-9.655,-0.110,0.862,-0.547,0.183,-1.862,1.343,73.333,35312.000,1.000
-9.582,-9.502,-9.655,-9.560,-9.534,-9.578,-9.516,-9.225,-0.112,0.864,-0.551,0.061,-1.892,1.190,73.333,35313.000,1.000
-8.988,-8.927,-9.125,-8.945,-8.993,-9.054,-8.872,-8.765,-0.111,0.864,-0.550,-0.031,-1.801,1.038,73.333,35314.000,1.000
-8.383,-8.326,-8.489,-8.305,-8.412,-8.449,-8.190,-8.325,-0.109,0.864,-0.549,-0.031,-1.740,0.977,73.333,35315.000,1.000
-7.780,-7.704,-7.779,-7.660,-7.798,-7.783,-7.523,-7.856,-0.109,0.863,-0.550,-0.092,-1.709,0.916,73.333,35316.000,1.000
-7.057,-6.957,-6.944,-6.915,-7.046,-6.982,-6.800,-7.209,-0.109,0.860,-0.548,-0.183,-1.556,0.885,73.333,35317.000,1.000
-6.051,-5.958,-5.886,-5.930,-6.016,-5.937,-5.871,-6.228,-0.109,0.858,-0.547,-0.427,-1.556,0.702,73.333,35318.000,1.000
-4.693,-4.661,-4.557,-4.637,-4.645,-4.592,-4.637,-4.856,-0.107,0.857,-0.548,-0.427,-1.434,0.549,73.333,35319.000,1.000
-3.074,-3.138,-3.010,-3.092,-3.011,-3.011,-3.126,-3.191,-0.107,0.858,-0.549,-0.519,-1.373,0.488,73.333,35320.000,1.000
-1.415,-1.546,-1.388,-1.449,-1.321,-1.361,-1.498,-1.458,-0.107,0.857,-0.555,-0.549,-1.251,0.305,73.333,35321.000,1.000
0.049,-0.068,0.124,0.098,0.182,0.149,0.041,0.097,-0.106,0.855,-0.555,-0.610,-1.160,0.153,73.333,35322.000,1.000
1.139,1.111,1.320,1.327,1.294,1.312,1.283,1.264,-0.104,0.856,-0.553,-0.366,-1.038,0.000,73.333,35323.000,1.000
1.760,1.834,2.034,2.050,1.896,1.983,2.064,1.917,-0.104,0.856,-0.554,-0.336,-0.732,-0.061,73.333,35324.000,1.000
1.903,2.029,2.208,2.197,1.989,2.134,2.308,2.048,-0.103,0.856,-0.553,-0.244,-0.580,-0.183,73.333,35325.000,1.000
1.636,1.757,1.913,1.853,1.696,1.863,2.058,1.765,-0.102,0.857,-0.554,-0.183,-0.458,-0.305,73.333,35326.000,1.000
1.134,1.220,1.342,1.245,1.234,1.362,1.488,1.265,-0.104,0.859,-0.553,-0.122,-0.458,-0.336,73.333,35327.000,1.000
0.591,0.643,0.702,0.609,0.787,0.825,0.796,0.728,-0.106,0.860,-0.553,-0.183,-0.397,-0.458,73.333,35328.000,1.000
0.128,0.156,0.135,0.083,0.409,0.366,0.121,0.243,-0.108,0.860,-0.548,-0.122,-0.092,-0.397,73.333,35329.000,1.000
-0.201,-0.196,-0.268,-0.269,0.105,0.044,-0.422,-0.142,-0.109,0.862,-0.550,-0.275,-0.061,-0.458,73.333,35330.000,1.000
-0.394,-0.422,-0.485,-0.447,-0.132,-0.137,-0.757,-0.391,-0.111,0.862,-0.548,-0.366,0.061,-0.488,73.333,35331.000,1.000
-0.507,-0.571,-0.589,-0.527,-0.336,-0.245,-0.904,-0.522,-0.110,0.861,-0.551,-0.549,0.183,-0.519,73.333,35332.000,1.000
-0.614,-0.712,-0.697,-0.618,-0.555,-0.377,-0.959,-0.613,-0.111,0.861,-0.551,-0.488,0.214,-0.519,73.333,35333.000,1.000
-0.687,-0.816,-0.795,-0.716,-0.733,-0.511,-0.942,-0.669,-0.112,0.863,-0.551,-0.519,0.244,-0.519,73.333,35334.000,1.000
-0.546,-0.719,-0.696,-0.644,-0.672,-0.446,-0.726,-0.542,-0.112,0.863,-0.553,-0.519,0.244,-0.397,73.333,35335.000,1.000
-0.053,-0.294,-0.238,-0.239,-0.217,-0.014,-0.210,-0.102,-0.114,0.863,-0.549,-0.519,0.244,-0.458,73.333,35336.000,1.000
0.707,0.380,0.518,0.451,0.556,0.714,0.513,0.583,-0.113,0.863,-0.551,-0.671,0.336,-0.397,73.333,35337.000,1.000
1.458,1.061,1.315,1.194,1.378,1.454,1.198,1.270,-0.112,0.863,-0.548,-0.702,0.244,-0.427,73.333,35338.000,1.000
1.995,1.583,1.942,1.804,2.026,1.995,1.693,1.788,-0.115,0.863,-0.551,-0.793,0.336,-0.336,73.333,35339.000,1.000
2.365,2.000,2.413,2.305,2.513,2.377,2.091,2.195,-0.115,0.862,-0.553,-0.732,0.397,-0.458,73.333,35340.000,1.000
2.772,2.489,2.887,2.838,3.009,2.797,2.605,2.668,-0.114,0.862,-0.551,-0.763,0.305,-0.336,73.333,35341.000,1.000
3.387,3.177,3.490,3.499,3.664,3.415,3.357,3.326,-0.115,0.862,-0.552,-0.885,0.214,-0.305,73.333,35342.000,1.000
4.196,4.021,4.208,4.241,4.468,4.206,4.254,4.122,-0.117,0.861,-0.551,-0.946,0.153,-0.397,73.333,35343.000,1.000
5.031,4.838,4.912,4.926,5.261,4.992,5.075,4.890,-0.117,0.858,-0.551,-1.007,0.183,-0.305,73.333,35344.000,1.000
5.710,5.453,5.473,5.446,5.876,5.600,5.649,5.478,-0.119,0.858,-0.548,-0.916,0.183,-0.305,73.333,35345.000,1.000
6.124,5.792,5.817,5.757,6.214,5.951,5.930,5.813,-0.121,0.858,-0.552,-0.946,-0.031,-0.244,73.333,35346.000,1.000
6.267,5.903,5.967,5.891,6.286,6.070,5.987,5.939,-0.119,0.857,-0.552,-0.885,-0.183,-0.244,73.333,35347.000,1.000
6.214,5.916,6.019,5.936,6.193,6.053,5.941,5.986,-0.116,0.857,-0.551,-0.824,-0.244,-0.275,73.333,35348.000,1.000
6.083,5.954,6.071,5.992,6.075,6.005,5.908,6.079,-0.118,0.857,-0.553,-0.824,-0.275,-0.183,73.333,35349.000,1.000
5.947,6.034,6.128,6.071,6.001,5.956,5.918,6.216,-0.117,0.855,-0.551,-0.732,-0.488,-0.183,73.333,35350.000,1.000
5.754,6.029,6.053,6.045,5.895,5.813,5.866,6.240,-0.116,0.857,-0.548,-0.732,-0.580,-0.153,73.333,35351.000,1.000
5.384,5.770,5.679,5.736,5.596,5.445,5.583,5.949,-0.117,0.857,-0.550,-0.641,-0.641,-0.214,73.333,35352.000,1.000
4.759,5.157,4.924,5.044,4.970,4.774,4.952,5.230,-0.115,0.861,-0.552,-0.549,-0.763,0.000,73.333,35353.000,1.000
3.907,4.239,3.859,4.036,4.012,3.840,4.004,4.142,-0.113,0.861,-0.551,-0.641,-0.763,0.122,73.333,35354.000,1.000
2.999,3.234,2.730,2.962,2.903,2.829,2.948,2.941,-0.111,0.861,-0.549,-0.549,-0.671,0.183,73.333,35355.000,1.000
2.291,2.448,1.880,2.148,1.958,2.024,2.097,1.983,-0.112,0.857,-0.550,-0.580,-0.580,0.336,73.333,35356.000,1.000
1.971,2.086,1.555,1.817,1.453,1.645,1.696,1.526,-0.113,0.861,-0.549,-0.641,-0.641,0.366,73.333,35357.000,1.000
1.969,2.071,1.683,1.891,1.388,1.655,1.705,1.516,-0.113,0.860,-0.548,-0.610,-0.671,0.336,73.333,35358.000,1.000
2.040,2.140,1.945,2.083,1.526,1.821,1.865,1.673,-0.113,0.859,-0.550,-0.458,-0.732,0.336,73.333,35359.000,1.000
2.078,2.171,2.129,2.227,1.717,2.009,2.025,1.845,-0.113,0.858,-0.551,-0.336,-0.824,0.488,73.333,35360.000,1.000
2.218,2.292,2.302,2.412,2.036,2.296,2.275,2.135,-0.114,0.859,-0.550,-0.244,-0.763,0.580,73.333,35361.000,1.000
2.657,2.708,2.669,2.823,2.631,2.822,2.774,2.712,-0.113,0.860,-0.549,-0.366,-0.916,0.641,73.333,35362.000,1.000
3.441,3.470,3.327,3.526,3.519,3.598,3.546,3.578,-0.114,0.859,-0.549,-0.427,-0.885,0.549,73.333,35363.000,1.000
4.426,4.426,4.195,4.416,4.559,4.493,4.462,4.555,-0.115,0.861,-0.550,-0.519,-0.916,0.580,73.333,35364.000,1.000
5.381,5.345,5.092,5.314,5.539,5.333,5.334,5.417,-0.114,0.862,-0.552,-0.519,-0.946,0.549,73.333,35365.000,1.000
6.089,6.023,5.834,6.053,6.254,5.971,5.990,5.998,-0.114,0.862,-0.552,-0.549,-0.946,0.458,73.333,35366.000,1.000
6.444,6.363,6.301,6.527,6.581,6.321,6.340,6.258,-0.113,0.861,-0.552,-0.580,-0.977,0.397,73.333,35367.000,1.000
6.406,6.330,6.400,6.642,6.476,6.313,6.325,6.202,-0.114,0.862,-0.549,-0.641,-0.977,0.427,73.333,35368.000,1.000
5.936,5.884,6.028,6.283,5.920,5.868,5.874,5.783,-0.114,0.860,-0.547,-0.763,-1.068,0.366,73.333,35369.000,1.000
5.015,5.004,5.138,5.387,4.929,4.957,4.949,4.939,-0.114,0.861,-0.550,-0.854,-1.129,0.244,73.333,35370.000,1.000
3.720,3.752,3.820,4.042,3.598,3.673,3.627,3.716,-0.113,0.859,-0.548,-0.946,-1.099,0.275,73.333,35371.000,1.000
2.288,2.361,2.345,2.545,2.158,2.268,2.172,2.358,-0.112,0.858,-0.547,-0.946,-1.129,0.336,73.333,35372.000,1.000
1.100,1.225,1.120,1.336,0.972,1.123,0.990,1.259,-0.111,0.857,-0.551,-0.977,-1.160,0.305,73.333,35373.000,1.000
0.532,0.725,0.540,0.799,0.407,0.598,0.468,0.789,-0.111,0.855,-0.551,-0.916,-1.160,0.305,73.333,35374.000,1.000
0.729,0.988,0.746,1.032,0.609,0.812,0.727,1.048,-0.111,0.856,-0.552,-0.916,-1.190,0.275,73.333,35375.000,1.000
1.502,1.787,1.529,1.793,1.400,1.555,1.548,1.798,-0.109,0.856,-0.552,-0.824,-1.007,0.214,73.333,35376.000,1.000
2.473,2.713,2.490,2.686,2.410,2.455,2.542,2.649,-0.106,0.856,-0.555,-0.793,-1.007,0.244,73.333,35377.000,1.000
3.257,3.393,3.241,3.353,3.249,3.159,3.334,3.263,-0.105,0.856,-0.552,-0.732,-0.946,0.275,73.333,35378.000,1.000
3.624,3.645,3.565,3.608,3.664,3.465,3.702,3.486,-0.106,0.855,-0.554,-0.610,-0.885,0.305,73.333,35379.000,1.000
3.614,3.550,3.505,3.519,3.659,3.406,3.673,3.404,-0.108,0.857,-0.552,-0.671,-0.854,0.336,73.333,35380.000,1.000
3.433,3.332,3.282,3.304,3.420,3.175,3.445,3.219,-0.109,0.857,-0.553,-0.702,-0.793,0.214,73.333,35381.000,1.000
3.258,3.159,3.096,3.138,3.139,2.958,3.216,3.085,-0.111,0.857,-0.550,-0.549,-0.549,0.275,73.333,35382.000,1.000
3.129,3.043,2.995,3.042,2.903,2.813,3.057,3.013,-0.110,0.857,-0.551,-0.580,-0.580,0.275,73.333,35383.000,1.000
3.007,2.891,2.900,2.925,2.696,2.684,2.916,2.924,-0.112,0.856,-0.553,-0.488,-0.641,0.183,73.333,35384.000,1.000
2.830,2.617,2.714,2.690,2.461,2.478,2.708,2.724,-0.112,0.856,-0.551,-0.519,-0.610,0.031,73.333,35385.000,1.000
2.515,2.165,2.359,2.257,2.119,2.104,2.351,2.332,-0.114,0.857,-0.551,-0.549,-0.641,0.122,73.333,35386.000,1.000
1.995,1.535,1.814,1.612,1.625,1.544,1.817,1.726,-0.115,0.858,-0.548,-0.519,-0.610,0.122,73.333,35387.000,1.000
1.305,0.827,1.154,0.852,1.031,0.895,1.169,1.002,-0.114,0.858,-0.550,-0.519,-0.671,0.000,73.333,35388.000,1.000
0.607,0.213,0.542,0.165,0.491,0.334,0.548,0.353,-0.115,0.860,-0.552,-0.488,-0.732,0.000,73.333,35389.000,1.000
0.061,-0.192,0.113,-0.297,0.128,-0.018,0.074,-0.059,-0.114,0.859,-0.551,-0.427,-0.793,-0.092,73.333,35390.000,1.000
-0.285,-0.404,-0.110,-0.516,-0.071,-0.187,-0.224,-0.213,-0.111,0.860,-0.551,-0.488,-0.824,-0.092,73.333,35391.000,1.000
-0.407,-0.451,-0.127,-0.520,-0.142,-0.208,-0.330,-0.159,-0.110,0.861,-0.552,-0.519,-0.763,-0.183,73.333,35392.000,1.000
-0.246,-0.283,0.102,-0.309,-0.041,-0.033,-0.192,0.079,-0.111,0.859,-0.550,-0.549,-0.824,-0.061,73.333,35393.000,1.000
0.216,0.138,0.569,0.094,0.283,0.387,0.195,0.465,-0.110,0.856,-0.551,-0.427,-0.793,-0.031,73.333,35394.000,1.000
0.853,0.727,1.137,0.576,0.772,0.966,0.711,0.895,-0.111,0.855,-0.550,-0.519,-0.702,-0.031,73.333,35395.000,1.000
1.422,1.284,1.581,0.966,1.240,1.487,1.155,1.206,-0.111,0.855,-0.550,-0.427,-0.671,-0.031,73.333,35396.000,1.000
1.708,1.620,1.724,1.150,1.491,1.744,1.372,1.285,-0.110,0.855,-0.549,-0.366,-0.580,0.000,73.333,35397.000,1.000
1.604,1.617,1.499,1.086,1.407,1.634,1.288,1.099,-0.112,0.854,-0.552,-0.244,-0.641,0.061,73.333,35398.000,1.000
1.122,1.251,0.952,0.768,0.972,1.174,0.896,0.686,-0.113,0.854,-0.552,-0.183,-0.549,0.122,73.333,35399.000,1.000
0.451,0.669,0.284,0.298,0.352,0.546,0.324,0.197,-0.114,0.854,-0.557,-0.092,-0.641,0.244,73.333,35400.000,1.000
-0.056,0.200,-0.169,-0.067,-0.114,0.085,-0.122,-0.096,-0.114,0.855,-0.556,-0.092,-0.580,0.214,73.333,35401.000,1.000
-0.060,0.170,-0.097,-0.041,-0.091,0.104,-0.109,0.059,-0.115,0.854,-0.556,-0.092,-0.549,0.305,73.333,35402.000,1.000
0.498,0.647,0.545,0.451,0.477,0.646,0.459,0.675,-0.115,0.857,-0.554,0.000,-0.610,0.305,73.333,35403.000,1.000
1.359,1.407,1.485,1.209,1.325,1.446,1.352,1.494,-0.116,0.860,-0.553,0.031,-0.702,0.336,73.333,35404.000,1.000
2.113,2.082,2.305,1.889,2.046,2.122,2.172,2.160,-0.116,0.862,-0.553,-0.122,-0.671,0.275,73.333,35405.000,1.000
2.380,2.313,2.603,2.131,2.279,2.334,2.511,2.349,-0.114,0.862,-0.553,-0.275,-0.610,0.244,73.333,35406.000,1.000
1.899,1.836,2.089,1.655,1.789,1.846,2.059,1.821,-0.112,0.862,-0.550,-0.427,-0.671,0.214,73.333,35407.000,1.000
0.558,0.523,0.645,0.331,0.465,0.534,0.681,0.454,-0.109,0.861,-0.551,-0.519,-0.702,0.305,73.333,35408.000,1.000
-1.533,-1.525,-1.566,-1.715,-1.596,-1.522,-1.477,-1.636,-0.104,0.858,-0.552,-0.641,-0.519,0.458,73.333,35409.000,1.000
-3.964,-3.903,-4.067,-4.058,-4.005,-3.935,-3.953,-4.024,-0.100,0.856,-0.554,-0.732,-0.336,0.519,73.333,35410.000,1.000
-6.161,-6.046,-6.259,-6.139,-6.193,-6.135,-6.144,-6.136,-0.101,0.854,-0.558,-0.519,-0.183,0.732,73.333,35411.000,1.000
-7.645,-7.499,-7.698,-7.522,-7.674,-7.635,-7.573,-7.517,-0.102,0.854,-0.557,-0.488,-0.031,0.793,73.333,35412.000,1.000
-8.241,-8.113,-8.244,-8.065,-8.257,-8.240,-8.077,-8.027,-0.103,0.854,-0.557,-0.580,0.122,0.854,73.333,35413.000,1.000
-8.074,-8.001,-8.024,-7.881,-8.041,-8.047,-7.781,-7.810,-0.103,0.858,-0.551,-0.458,0.214,0.916,73.333,35414.000,1.000
-7.374,-7.347,-7.252,-7.149,-7.236,-7.272,-6.926,-7.097,-0.107,0.858,-0.552,-0.488,0.244,0.977,73.333,35415.000,1.000
-6.269,-6.241,-6.067,-5.963,-5.988,-6.066,-5.688,-6.001,-0.108,0.863,-0.552,-0.580,0.336,0.916,73.333,35416.000,1.000
-4.696,-4.634,-4.445,-4.278,-4.309,-4.432,-4.062,-4.448,-0.113,0.866,-0.552,-0.641,0.427,0.977,73.333,35417.000,1.000
-2.567,-2.477,-2.340,-2.077,-2.188,-2.336,-1.990,-2.348,-0.118,0.867,-0.552,-0.824,0.366,0.946,73.333,35418.000,1.000
-0.081,0.012,0.033,0.379,0.165,0.025,0.355,0.099,-0.122,0.867,-0.551,-1.007,0.214,0.732,73.333,35419.000,1.000
2.101,2.189,2.040,2.426,2.148,2.051,2.367,2.240,-0.125,0.867,-0.555,-1.099,0.092,0.519,73.333,35420.000,1.000
3.053,3.138,2.815,3.193,2.912,2.876,3.159,3.149,-0.126,0.864,-0.557,-1.190,-0.183,0.305,73.333,35421.000,1.000
2.139,2.209,1.794,2.126,1.883,1.902,2.118,2.193,-0.129,0.861,-0.553,-1.404,-0.397,0.061,73.333,35422.000,1.000
-0.518,-0.480,-0.846,-0.572,-0.782,-0.729,-0.601,-0.471,-0.126,0.862,-0.552,-1.526,-0.641,-0.122,73.333,35423.000,1.000
-3.968,-3.966,-4.163,-3.937,-4.143,-4.078,-4.033,-3.867,-0.124,0.860,-0.552,-1.495,-1.038,-0.214,73.333,35424.000,1.000
-6.814,-6.835,-6.830,-6.640,-6.853,-6.793,-6.814,-6.625,-0.125,0.859,-0.551,-1.434,-1.251,-0.397,73.333,35425.000,1.000
-7.878,-7.912,-7.763,-7.618,-7.803,-7.755,-7.837,-7.633,-0.121,0.859,-0.554,-1.404,-1.434,-0.488,73.333,35426.000,1.000
-6.796,-6.840,-6.653,-6.573,-6.688,-6.644,-6.791,-6.571,-0.117,0.859,-0.552,-1.526,-1.526,-0.580,73.333,35427.000,1.000
-4.191,-4.258,-4.112,-4.112,-4.139,-4.090,-4.287,-4.059,-0.114,0.860,-0.551,-1.587,-1.678,-0.610,73.333,35428.000,1.000
-1.287,-1.399,-1.309,-1.385,-1.333,-1.288,-1.490,-1.283,-0.112,0.861,-0.550,-1.526,-1.709,-0.641,73.333,35429.000,1.000
0.765,0.592,0.666,0.529,0.643,0.663,0.507,0.656,-0.111,0.860,-0.548,-1.587,-1.648,-0.519,73.333,35430.000,1.000
1.382,1.158,1.266,1.082,1.248,1.227,1.141,1.225,-0.110,0.859,-0.552,-1.648,-1.587,-0.610,73.333,35431.000,1.000
0.703,0.477,0.634,0.416,0.639,0.559,0.541,0.582,-0.108,0.859,-0.554,-1.648,-1.617,-0.519,73.333,35432.000,1.000
-0.634,-0.799,-0.620,-0.848,-0.560,-0.719,-0.686,-0.665,-0.109,0.859,-0.552,-1.587,-1.434,-0.366,73.333,35433.000,1.000
-1.943,-2.001,-1.845,-2.036,-1.706,-1.946,-1.877,-1.880,-0.109,0.857,-0.550,-1.465,-1.343,-0.214,73.333,35434.000,1.000
-2.861,-2.805,-2.695,-2.792,-2.494,-2.786,-2.680,-2.732,-0.108,0.855,-0.549,-1.373,-1.251,-0.061,73.333,35435.000,1.000
-3.444,-3.300,-3.237,-3.187,-3.011,-3.314,-3.157,-3.282,-0.107,0.854,-0.550,-1.343,-1.160,0.092,73.333,35436.000,1.000
-3.964,-3.759,-3.746,-3.532,-3.524,-3.804,-3.600,-3.788,-0.110,0.854,-0.549,-1.404,-1.068,0.275,73.333,35437.000,1.000
-4.629,-4.369,-4.422,-4.089,-4.231,-4.451,-4.252,-4.444,-0.110,0.857,-0.549,-1.434,-0.916,0.397,73.333,35438.000,1.000
-5.417,-5.097,-5.229,-4.866,-5.104,-5.221,-5.106,-5.225,-0.112,0.859,-0.550,-1.495,-0.824,0.366,73.333,35439.000,1.000
-6.099,-5.734,-5.915,-5.608,-5.903,-5.879,-5.900,-5.893,-0.113,0.858,-0.550,-1.587,-0.732,0.427,73.333,35440.000,1.000
-6.411,-6.044,-6.192,-5.997,-6.333,-6.152,-6.297,-6.173,-0.115,0.859,-0.548,-1.617,-0.793,0.519,73.333,35441.000,1.000
-6.141,-5.823,-5.853,-5.786,-6.148,-5.830,-6.042,-5.861,-0.115,0.859,-0.546,-1.617,-0.732,0.610,73.333,35442.000,1.000
-5.184,-4.957,-4.828,-4.876,-5.228,-4.828,-5.056,-4.893,-0.115,0.859,-0.544,-1.556,-0.732,0.702,73.333,35443.000,1.000
-3.641,-3.523,-3.252,-3.383,-3.682,-3.280,-3.498,-3.408,-0.116,0.857,-0.547,-1.587,-0.732,0.885,73.333,35444.000,1.000
-1.830,-1.802,-1.453,-1.631,-1.835,-1.518,-1.705,-1.721,-0.117,0.858,-0.548,-1.556,-0.702,1.007,73.333,35445.000,1.000
-0.124,-0.139,0.196,0.005,-0.083,0.105,-0.021,-0.159,-0.116,0.856,-0.549,-1.587,-0.732,1.160,73.333,35446.000,1.000
1.277,1.274,1.491,1.331,1.353,1.427,1.380,1.140,-0.115,0.853,-0.550,-1.434,-0.763,1.251,73.333,35447.000,1.000
2.381,2.439,2.454,2.396,2.493,2.501,2.509,2.240,-0.114,0.851,-0.546,-1.434,-0.824,1.495,73.333,35448.000,1.000
3.289,3.436,3.218,3.349,3.460,3.447,3.455,3.252,-0.117,0.847,-0.550,-1.312,-0.854,1.648,73.333,35449.000,1.000
4.087,4.316,3.905,4.281,4.335,4.326,4.285,4.203,-0.119,0.847,-0.552,-1.007,-1.007,1.984,73.333,35450.000,1.000
4.776,5.054,4.541,5.129,5.091,5.082,4.976,4.994,-0.123,0.847,-0.551,-0.702,-1.129,2.258,73.333,35451.000,1.000
5.307,5.590,5.082,5.751,5.653,5.610,5.449,5.508,-0.121,0.849,-0.551,-0.366,-1.129,2.472,73.333,35452.000,1.000
5.658,5.905,5.496,6.059,5.978,5.872,5.672,5.732,-0.120,0.853,-0.546,-0.183,-1.312,2.625,73.333,35453.000,1.000
5.860,6.037,5.775,6.085,6.092,5.924,5.714,5.764,-0.118,0.853,-0.547,0.000,-1.495,2.777,73.333,35454.000,1.000
5.952,6.043,5.915,5.938,6.056,5.863,5.678,5.728,-0.115,0.855,-0.547,0.153,-1.648,2.991,73.333,35455.000,1.000
5.963,5.971,5.933,5.742,5.944,5.778,5.650,5.703,-0.115,0.858,-0.550,0.214,-1.678,3.021,73.333,35456.000,1.000
5.972,5.913,5.935,5.661,5.876,5.777,5.731,5.764,-0.115,0.857,-0.550,0.275,-1.709,3.204,73.333,35457.000,1.000
6.073,5.961,6.050,5.818,5.961,5.934,5.985,5.956,-0.114,0.860,-0.549,0.336,-1.801,3.296,73.333,35458.000,1.000
6.282,6.121,6.299,6.180,6.194,6.213,6.355,6.251,-0.112,0.860,-0.552,0.366,-1.831,3.448,73.333,35459.000,1.000
6.520,6.322,6.583,6.580,6.470,6.500,6.681,6.563,-0.111,0.859,-0.551,0.427,-1.892,3.448,73.333,35460.000,1.000
6.655,6.441,6.741,6.819,6.628,6.648,6.790,6.767,-0.112,0.860,-0.553,0.732,-1.892,3.357,73.333,35461.000,1.000
6.626,6.411,6.686,6.816,6.589,6.586,6.635,6.789,-0.110,0.861,-0.551,0.824,-1.862,3.265,73.333,35462.000,1.000
6.572,6.345,6.545,6.719,6.499,6.450,6.419,6.743,-0.107,0.861,-0.551,0.854,-1.892,3.082,73.333,35463.000,1.000
6.759,6.490,6.597,6.817,6.646,6.537,6.481,6.883,-0.103,0.863,-0.549,0.916,-1.801,2.991,73.333,35464.000,1.000
7.282,6.965,7.003,7.242,7.165,7.001,6.981,7.332,-0.103,0.863,-0.548,0.885,-1.678,2.747,73.333,35465.000,1.000
7.918,7.590,7.611,7.799,7.858,7.663,7.718,7.909,-0.100,0.862,-0.550,0.824,-1.617,2.502,73.333,35466.000,1.000
8.326,8.050,8.097,8.151,8.363,8.185,8.312,8.288,-0.102,0.863,-0.554,0.793,-1.465,2.228,73.333,35467.000,1.000
8.288,8.113,8.184,8.062,8.400,8.305,8.458,8.237,-0.102,0.864,-0.554,0.793,-1.312,1.892,73.333,35468.000,1.000
7.766,7.703,7.725,7.478,7.874,7.906,8.020,7.690,-0.103,0.863,-0.554,0.793,-1.221,1.617,73.333,35469.000,1.000
6.831,6.839,6.709,6.453,6.834,6.985,7.010,6.690,-0.104,0.861,-0.553,0.671,-1.038,1.343,73.333,35470.000,1.000
5.551,5.547,5.198,5.060,5.374,5.586,5.507,5.292,-0.106,0.861,-0.552,0.580,-0.946,1.068,73.333,35471.000,1.000
3.970,3.879,3.332,3.373,3.606,3.817,3.643,3.564,-0.105,0.860,-0.552,0.488,-0.885,0.916,73.333,35472.000,1.000
2.136,1.936,1.297,1.487,1.659,1.831,1.594,1.613,-0.106,0.859,-0.553,0.336,-0.824,0.549,73.333,35473.000,1.000
0.133,-0.135,-0.728,-0.492,-0.340,-0.226,-0.463,-0.420,-0.107,0.858,-0.551,0.214,-0.641,0.305,73.333,35474.000,1.000
-1.863,-2.130,-2.572,-2.415,-2.241,-2.186,-2.358,-2.364,-0.105,0.857,-0.556,0.183,-0.580,0.000,73.333,35475.000,1.000
-3.606,-3.827,-4.067,-4.084,-3.869,-3.860,-3.937,-4.033,-0.106,0.858,-0.555,0.183,-0.671,-0.061,73.333,35476.000,1.000
-4.881,-5.060,-5.093,-5.299,-5.055,-5.076,-5.078,-5.258,-0.105,0.855,-0.555,0.000,-0.580,-0.214,73.333,35477.000,1.000
-5.646,-5.819,-5.670,-6.005,-5.772,-5.808,-5.783,-5.989,-0.102,0.856,-0.554,0.061,-0.488,-0.244,73.333,35478.000,1.000
-6.063,-6.258,-5.984,-6.364,-6.180,-6.207,-6.214,-6.365,-0.100,0.857,-0.555,0.061,-0.397,-0.183,73.333,35479.000,1.000
-6.316,-6.535,-6.223,-6.590,-6.461,-6.449,-6.544,-6.569,-0.098,0.856,-0.556,-0.031,-0.153,-0.122,73.333,35480.000,1.000
-6.430,-6.658,-6.401,-6.730,-6.633,-6.571,-6.773,-6.641,-0.101,0.858,-0.554,0.000,-0.031,-0.031,73.333,35481.000,1.000
-6.307,-6.510,-6.386,-6.680,-6.575,-6.483,-6.756,-6.489,-0.104,0.856,-0.555,-0.031,0.122,0.061,73.333,35482.000,1.000
-5.937,-6.067,-6.104,-6.403,-6.243,-6.154,-6.425,-6.087,-0.109,0.855,-0.553,-0.061,0.305,0.092,73.333,35483.000,1.000
-5.565,-5.587,-5.731,-6.092,-5.847,-5.778,-5.989,-5.666,-0.116,0.858,-0.555,-0.153,0.336,0.061,73.333,35484.000,1.000
-5.656,-5.569,-5.714,-6.161,-5.843,-5.796,-5.927,-5.703,-0.119,0.856,-0.553,-0.153,0.275,0.092,73.333,35485.000,1.000
-6.693,-6.519,-6.568,-7.066,-6.734,-6.711,-6.771,-6.697,-0.122,0.856,-0.557,-0.305,0.122,0.061,73.333,35486.000,1.000
-8.795,-8.562,-8.471,-8.952,-8.688,-8.690,-8.694,-8.762,-0.123,0.858,-0.556,-0.214,0.000,0.031,73.333,35487.000,1.000
-11.458,-11.189,-10.984,-11.381,-11.254,-11.264,-11.229,-11.372,-0.122,0.855,-0.554,-0.183,-0.275,0.061,73.333,35488.000,1.000
-13.656,-13.362,-13.116,-13.393,-13.430,-13.414,-13.367,-13.506,-0.118,0.854,-0.553,-0.214,-0.366,0.031,73.333,35489.000,1.000
-14.318,-13.999,-13.783,-13.942,-14.123,-14.051,-14.027,-14.104,-0.119,0.854,-0.555,-0.244,-0.488,0.000,73.333,35490.000,1.000
-12.956,-12.613,-12.458,-12.533,-12.804,-12.665,-12.704,-12.679,-0.120,0.853,-0.555,-0.153,-0.641,0.183,73.333,35491.000,1.000
