EEG 1,EEG 2,EEG 3,EEG 4,EEG 5,EEG 6,EEG 7,EEG 8,Accelerometer X,Accelerometer Y,Accelerometer Z,Gyroscope X,Gyroscope Y,Gyroscope Z,Battery Level,Counter,Validation Indicator
-3.034,-2.621,-2.918,-2.519,-2.644,-2.854,-2.643,-2.746,-0.049,0.862,-0.557,-1.373,-0.244,0.427,73.333,34257.000,1.000
-2.886,-2.358,-2.583,-2.311,-2.493,-2.633,-2.397,-2.444,-0.051,0.862,-0.557,-1.373,-0.336,0.427,73.333,34258.000,1.000
-2.270,-1.705,-1.842,-1.753,-1.959,-2.015,-1.770,-1.760,-0.051,0.862,-0.559,-1.221,-0.549,0.458,73.333,34259.000,1.000
-0.907,-0.392,-0.460,-0.552,-0.755,-0.737,-0.490,-0.459,-0.050,0.860,-0.558,-1.160,-0.641,0.488,73.333,34260.000,1.000
1.285,1.692,1.642,1.431,1.250,1.314,1.559,1.562,-0.049,0.859,-0.556,-1.160,-0.732,0.397,73.333,34261.000,1.000
3.902,4.181,4.099,3.860,3.718,3.789,4.027,3.964,-0.048,0.857,-0.559,-1.129,-0.854,0.458,73.333,34262.000,1.000
6.214,6.366,6.235,6.053,5.957,6.005,6.230,6.090,-0.049,0.856,-0.561,-1.068,-0.977,0.427,73.333,34263.000,1.000
7.652,7.690,7.536,7.462,7.400,7.409,7.614,7.420,-0.049,0.856,-0.561,-0.946,-1.038,0.458,73.333,34264.000,1.000
8.174,8.125,8.000,8.032,7.979,7.950,8.135,7.927,-0.050,0.856,-0.560,-0.885,-1.129,0.427,73.333,34265.000,1.000
8.143,8.043,7.994,8.083,8.008,7.957,8.144,7.957,-0.048,0.856,-0.559,-0.763,-1.190,0.488,73.333,34266.000,1.000
7.912,7.812,7.848,7.929,7.816,7.757,7.993,7.838,-0.050,0.855,-0.558,-0.610,-1.129,0.458,73.333,34267.000,1.000
7.549,7.501,7.595,7.614,7.485,7.416,7.739,7.611,-0.048,0.855,-0.557,-0.519,-1.160,0.397,73.333,34268.000,1.000
6.871,6.906,7.019,6.943,6.853,6.775,7.162,7.053,-0.049,0.855,-0.558,-0.397,-1.343,0.366,73.333,34269.000,1.000
5.653,5.763,5.874,5.696,5.697,5.631,5.994,5.890,-0.051,0.857,-0.560,-0.275,-1.312,0.336,73.333,34270.000,1.000
3.909,4.048,4.153,3.898,4.009,3.983,4.216,4.100,-0.049,0.857,-0.562,-0.305,-1.434,0.305,73.333,34271.000,1.000
2.057,2.168,2.264,1.990,2.187,2.220,2.251,2.121,-0.047,0.857,-0.565,-0.305,-1.495,0.305,73.333,34272.000,1.000
0.653,0.684,0.774,0.552,0.772,0.868,0.702,0.567,-0.046,0.856,-0.561,-0.275,-1.434,0.336,73.333,34273.000,1.000
-0.116,-0.208,-0.108,-0.222,-0.063,0.081,-0.189,-0.319,-0.045,0.857,-0.563,-0.214,-1.465,0.275,73.333,34274.000,1.000
-0.672,-0.909,-0.789,-0.783,-0.739,-0.580,-0.817,-0.940,-0.043,0.855,-0.566,-0.061,-1.373,0.305,73.333,34275.000,1.000
-1.671,-2.033,-1.918,-1.821,-1.880,-1.736,-1.852,-1.968,-0.043,0.856,-0.565,0.000,-1.251,0.275,73.333,34276.000,1.000
-3.321,-3.753,-3.687,-3.553,-3.656,-3.524,-3.534,-3.628,-0.041,0.857,-0.566,0.122,-1.190,0.153,73.333,34277.000,1.000
-5.272,-5.703,-5.708,-5.585,-5.684,-5.531,-5.531,-5.569,-0.039,0.857,-0.567,0.183,-1.038,0.214,73.333,34278.000,1.000
-7.127,-7.493,-7.546,-7.466,-7.550,-7.347,-7.444,-7.397,-0.039,0.858,-0.564,0.122,-0.854,0.244,73.333,34279.000,1.000
-8.917,-9.179,-9.235,-9.202,-9.279,-9.039,-9.281,-9.152,-0.039,0.860,-0.569,0.244,-0.641,0.183,73.333,34280.000,1.000
-10.943,-11.107,-11.126,-11.122,-11.186,-10.956,-11.320,-11.141,-0.041,0.859,-0.570,0.214,-0.549,0.153,73.333,34281.000,1.000
-13.154,-13.267,-13.240,-13.242,-13.261,-13.080,-13.511,-13.320,-0.043,0.860,-0.565,0.183,-0.458,0.092,73.333,34282.000,1.000
-14.978,-15.093,-15.048,-15.042,-14.977,-14.854,-15.307,-15.120,-0.045,0.863,-0.561,0.153,-0.336,0.153,73.333,34283.000,1.000
-15.820,-15.963,-15.941,-15.932,-15.774,-15.684,-16.132,-15.937,-0.045,0.863,-0.564,0.153,-0.336,0.153,73.333,34284.000,1.000
-15.564,-15.725,-15.754,-15.752,-15.546,-15.448,-15.859,-15.649,-0.045,0.862,-0.564,0.061,-0.305,0.061,73.333,34285.000,1.000
-14.476,-14.625,-14.717,-14.721,-14.539,-14.404,-14.745,-14.535,-0.048,0.863,-0.565,0.061,-0.122,0.000,73.333,34286.000,1.000
-12.797,-12.892,-13.043,-13.052,-12.938,-12.777,-13.031,-12.856,-0.048,0.862,-0.566,0.000,-0.092,-0.122,73.333,34287.000,1.000
-10.681,-10.681,-10.863,-10.884,-10.832,-10.702,-10.868,-10.755,-0.049,0.863,-0.564,-0.122,-0.061,-0.122,73.333,34288.000,1.000
-8.332,-8.212,-8.381,-8.437,-8.409,-8.363,-8.451,-8.400,-0.052,0.864,-0.567,-0.214,-0.153,-0.122,73.333,34289.000,1.000
-6.000,-5.764,-5.897,-6.015,-5.965,-6.011,-6.035,-6.022,-0.050,0.862,-0.565,-0.244,-0.122,-0.092,73.333,34290.000,1.000
-3.892,-3.571,-3.686,-3.881,-3.771,-3.867,-3.860,-3.842,-0.049,0.862,-0.564,-0.244,-0.061,-0.031,73.333,34291.000,1.000
-2.056,-1.692,-1.839,-2.100,-1.903,-1.987,-2.008,-1.933,-0.050,0.862,-0.563,-0.397,-0.122,-0.061,73.333,34292.000,1.000
-0.397,-0.028,-0.244,-0.538,-0.237,-0.277,-0.388,-0.206,-0.051,0.861,-0.564,-0.427,-0.183,-0.153,73.333,34293.000,1.000
1.240,1.587,1.308,1.016,1.424,1.405,1.198,1.502,-0.052,0.861,-0.560,-0.458,-0.305,-0.061,73.333,34294.000,1.000
2.991,3.300,3.010,2.738,3.236,3.178,2.943,3.325,-0.052,0.861,-0.563,-0.427,-0.397,-0.031,73.333,34295.000,1.000
4.880,5.142,4.910,4.658,5.212,5.058,4.900,5.272,-0.053,0.861,-0.563,-0.519,-0.427,-0.092,73.333,34296.000,1.000
6.749,6.953,6.853,6.606,7.167,6.902,6.908,7.169,-0.052,0.861,-0.562,-0.519,-0.488,0.061,73.333,34297.000,1.000
8.280,8.406,8.486,8.243,8.738,8.404,8.601,8.687,-0.050,0.861,-0.563,-0.580,-0.549,0.153,73.333,34298.000,1.000
9.190,9.229,9.483,9.267,9.616,9.298,9.628,9.547,-0.050,0.861,-0.565,-0.519,-0.549,0.214,73.333,34299.000,1.000
9.410,9.387,9.760,9.598,9.752,9.535,9.872,9.698,-0.050,0.860,-0.562,-0.519,-0.549,0.305,73.333,34300.000,1.000
9.030,8.994,9.416,9.321,9.276,9.206,9.420,9.250,-0.050,0.860,-0.562,-0.610,-0.580,0.427,73.333,34301.000,1.000
8.161,8.134,8.554,8.525,8.309,8.383,8.414,8.309,-0.048,0.861,-0.561,-0.641,-0.610,0.519,73.333,34302.000,1.000
6.847,6.807,7.188,7.226,6.888,7.067,6.940,6.904,-0.049,0.862,-0.564,-0.671,-0.549,0.519,73.333,34303.000,1.000
5.145,5.055,5.368,5.480,5.074,5.307,5.092,5.086,-0.049,0.862,-0.564,-0.824,-0.641,0.549,73.333,34304.000,1.000
3.189,3.039,3.279,3.458,3.033,3.277,3.038,3.020,-0.049,0.861,-0.563,-0.793,-0.732,0.702,73.333,34305.000,1.000
1.121,0.924,1.130,1.345,0.928,1.163,0.940,0.896,-0.045,0.861,-0.564,-0.854,-0.702,0.763,73.333,34306.000,1.000
-0.957,-1.185,-0.952,-0.762,-1.155,-0.927,-1.108,-1.171,-0.043,0.861,-0.563,-0.854,-0.732,0.793,73.333,34307.000,1.000
-2.972,-3.237,-2.934,-2.837,-3.182,-2.945,-3.088,-3.148,-0.042,0.860,-0.559,-0.916,-0.763,0.916,73.333,34308.000,1.000
-4.790,-5.122,-4.751,-4.778,-5.038,-4.785,-4.919,-4.952,-0.042,0.862,-0.560,-1.007,-0.641,1.007,73.333,34309.000,1.000
-6.195,-6.627,-6.232,-6.356,-6.499,-6.236,-6.412,-6.390,-0.040,0.861,-0.559,-0.977,-0.488,1.068,73.333,34310.000,1.000
-7.078,-7.613,-7.261,-7.396,-7.418,-7.173,-7.441,-7.333,-0.041,0.858,-0.561,-1.068,-0.397,1.068,73.333,34311.000,1.000
-7.540,-8.139,-7.887,-7.930,-7.858,-7.679,-8.053,-7.838,-0.043,0.858,-0.561,-1.099,-0.305,1.007,73.333,34312.000,1.000
-7.797,-8.400,-8.264,-8.150,-8.029,-7.972,-8.406,-8.093,-0.042,0.862,-0.561,-1.251,-0.183,1.068,73.333,34313.000,1.000
-7.954,-8.499,-8.450,-8.196,-8.062,-8.160,-8.563,-8.202,-0.045,0.860,-0.561,-1.282,-0.153,1.068,73.333,34314.000,1.000
-7.883,-8.312,-8.288,-7.994,-7.867,-8.105,-8.382,-8.045,-0.047,0.858,-0.561,-1.312,-0.031,1.038,73.333,34315.000,1.000
-7.394,-7.668,-7.586,-7.388,-7.296,-7.603,-7.709,-7.442,-0.048,0.858,-0.562,-1.404,0.031,0.916,73.333,34316.000,1.000
-6.460,-6.572,-6.371,-6.362,-6.343,-6.622,-6.588,-6.384,-0.049,0.857,-0.560,-1.373,-0.092,0.854,73.333,34317.000,1.000
-5.269,-5.245,-4.933,-5.105,-5.184,-5.355,-5.260,-5.092,-0.048,0.857,-0.561,-1.343,0.000,0.854,73.333,34318.000,1.000
-3.950,-3.848,-3.498,-3.755,-3.909,-3.949,-3.873,-3.726,-0.048,0.859,-0.561,-1.434,-0.183,0.763,73.333,34319.000,1.000
-2.318,-2.221,-1.911,-2.137,-2.289,-2.255,-2.227,-2.114,-0.045,0.858,-0.561,-1.404,-0.275,0.702,73.333,34320.000,1.000
-0.119,-0.100,0.137,0.007,-0.053,-0.049,-0.052,0.007,-0.044,0.858,-0.560,-1.373,-0.275,0.610,73.333,34321.000,1.000
2.572,2.491,2.666,2.617,2.712,2.607,2.591,2.578,-0.044,0.857,-0.559,-1.404,-0.183,0.488,73.333,34322.000,1.000
5.324,5.173,5.306,5.270,5.539,5.317,5.285,5.190,-0.045,0.857,-0.559,-1.282,-0.122,0.427,73.333,34323.000,1.000
7.728,7.558,7.645,7.563,7.979,7.695,7.637,7.463,-0.044,0.856,-0.562,-1.343,-0.122,0.244,73.333,34324.000,1.000
9.616,9.485,9.487,9.362,9.850,9.576,9.500,9.278,-0.044,0.855,-0.565,-1.221,-0.183,0.336,73.333,34325.000,1.000
10.799,10.767,10.640,10.542,10.999,10.781,10.712,10.498,-0.043,0.853,-0.565,-1.221,-0.031,0.397,73.333,34326.000,1.000
10.736,10.847,10.597,10.596,10.928,10.769,10.750,10.608,-0.041,0.851,-0.565,-1.129,-0.092,0.305,73.333,34327.000,1.000
8.767,9.037,8.732,8.829,8.990,8.873,8.934,8.912,-0.040,0.846,-0.564,-1.007,0.000,0.305,73.333,34328.000,1.000
5.191,5.601,5.338,5.453,5.453,5.374,5.502,5.626,-0.039,0.844,-0.569,-0.946,0.122,0.214,73.333,34329.000,1.000
1.917,2.404,2.257,2.304,2.172,2.150,2.283,2.559,-0.040,0.845,-0.569,-0.702,0.244,0.153,73.333,34330.000,1.000
1.147,1.627,1.603,1.557,1.335,1.382,1.455,1.848,-0.040,0.847,-0.569,-0.519,0.336,0.122,73.333,34331.000,1.000
3.176,3.583,3.634,3.532,3.271,3.374,3.371,3.792,-0.038,0.849,-0.571,-0.397,0.458,0.153,73.333,34332.000,1.000
5.981,6.304,6.374,6.263,6.008,6.134,6.107,6.438,-0.037,0.854,-0.570,-0.275,0.580,0.153,73.333,34333.000,1.000
7.327,7.605,7.669,7.559,7.328,7.459,7.483,7.634,-0.037,0.856,-0.571,-0.305,0.732,0.122,73.333,34334.000,1.000
6.867,7.148,7.207,7.078,6.880,7.004,7.136,7.078,-0.037,0.857,-0.570,-0.366,0.824,0.061,73.333,34335.000,1.000
5.739,6.030,6.084,5.919,5.785,5.875,6.136,5.896,-0.039,0.861,-0.567,-0.427,0.977,0.031,73.333,34336.000,1.000
4.590,4.850,4.878,4.686,4.661,4.677,5.040,4.689,-0.042,0.863,-0.570,-0.366,1.007,-0.031,73.333,34337.000,1.000
2.793,2.985,2.945,2.767,2.872,2.782,3.170,2.804,-0.046,0.866,-0.574,-0.488,1.007,-0.214,73.333,34338.000,1.000
-0.253,-0.118,-0.274,-0.374,-0.183,-0.370,-0.059,-0.349,-0.049,0.863,-0.574,-0.671,0.946,-0.397,73.333,34339.000,1.000
-3.907,-3.778,-4.078,-4.030,-3.860,-4.081,-3.922,-4.088,-0.051,0.861,-0.571,-0.732,0.824,-0.610,73.333,34340.000,1.000
-6.967,-6.807,-7.225,-6.991,-6.967,-7.128,-7.122,-7.174,-0.052,0.861,-0.575,-0.824,0.732,-0.793,73.333,34341.000,1.000
-9.125,-8.958,-9.405,-9.007,-9.214,-9.238,-9.310,-9.308,-0.050,0.861,-0.576,-0.946,0.549,-0.824,73.333,34342.000,1.000
-11.106,-11.007,-11.377,-10.877,-11.328,-11.188,-11.238,-11.260,-0.049,0.862,-0.571,-1.160,0.458,-1.129,73.333,34343.000,1.000
-13.265,-13.328,-13.543,-13.017,-13.640,-13.377,-13.330,-13.434,-0.048,0.863,-0.570,-1.190,0.458,-1.343,73.333,34344.000,1.000
-14.696,-14.982,-15.030,-14.546,-15.200,-14.902,-14.731,-14.941,-0.046,0.860,-0.568,-1.343,0.458,-1.465,73.333,34345.000,1.000
-14.215,-14.697,-14.652,-14.259,-14.783,-14.546,-14.265,-14.566,-0.044,0.860,-0.567,-1.556,0.488,-1.434,73.333,34346.000,1.000
-11.829,-12.395,-12.382,-12.100,-12.388,-12.264,-11.913,-12.258,-0.043,0.860,-0.567,-1.740,0.458,-1.526,73.333,34347.000,1.000
-8.708,-9.214,-9.357,-9.160,-9.208,-9.184,-8.820,-9.147,-0.044,0.861,-0.566,-1.892,0.397,-1.617,73.333,34348.000,1.000
-5.705,-6.050,-6.418,-6.242,-6.136,-6.152,-5.831,-6.101,-0.045,0.863,-0.569,-1.923,0.366,-1.648,73.333,34349.000,1.000
-2.476,-2.625,-3.210,-2.995,-2.846,-2.828,-2.596,-2.807,-0.047,0.867,-0.566,-2.136,0.336,-1.617,73.333,34350.000,1.000
1.622,1.644,0.924,1.204,1.317,1.416,1.532,1.364,-0.048,0.865,-0.568,-2.228,0.366,-1.587,73.333,34351.000,1.000
6.217,6.351,5.611,5.948,5.988,6.176,6.166,6.037,-0.047,0.865,-0.565,-2.502,0.275,-1.434,73.333,34352.000,1.000
10.058,10.233,9.574,9.931,9.904,10.142,10.031,9.948,-0.048,0.864,-0.564,-2.777,0.275,-1.343,73.333,34353.000,1.000
12.510,12.675,12.148,12.458,12.410,12.633,12.480,12.437,-0.046,0.860,-0.565,-2.930,0.244,-1.251,73.333,34354.000,1.000
14.405,14.539,14.145,14.330,14.319,14.477,14.346,14.326,-0.047,0.858,-0.564,-3.113,0.183,-1.038,73.333,34355.000,1.000
16.966,17.061,16.787,16.792,16.841,16.922,16.868,16.845,-0.048,0.858,-0.565,-3.143,0.153,-0.977,73.333,34356.000,1.000
20.157,20.212,20.056,19.877,19.963,19.987,20.051,19.996,-0.049,0.858,-0.563,-2.960,0.122,-0.824,73.333,34357.000,1.000
22.528,22.546,22.512,22.205,22.283,22.285,22.466,22.361,-0.051,0.859,-0.564,-3.021,-0.031,-0.671,73.333,34358.000,1.000
22.794,22.781,22.869,22.524,22.555,22.576,22.807,22.662,-0.050,0.861,-0.559,-3.204,-0.183,-0.641,73.333,34359.000,1.000
21.287,21.260,21.447,21.152,21.113,21.190,21.372,21.225,-0.049,0.862,-0.560,-3.357,-0.275,-0.336,73.333,34360.000,1.000
19.429,19.432,19.666,19.470,19.367,19.509,19.571,19.465,-0.048,0.861,-0.560,-3.510,-0.336,-0.244,73.333,34361.000,1.000
17.887,17.984,18.187,18.094,17.966,18.137,18.085,18.035,-0.046,0.862,-0.560,-3.601,-0.458,-0.092,73.333,34362.000,1.000
15.761,15.992,16.112,16.081,15.992,16.113,16.023,16.013,-0.042,0.863,-0.564,-3.693,-0.427,0.031,73.333,34363.000,1.000
11.995,12.335,12.386,12.357,12.356,12.360,12.311,12.326,-0.040,0.863,-0.564,-3.754,-0.458,0.336,73.333,34364.000,1.000
7.164,7.525,7.572,7.491,7.584,7.470,7.480,7.518,-0.039,0.866,-0.562,-3.784,-0.366,0.549,73.333,34365.000,1.000
3.036,3.319,3.413,3.250,3.412,3.247,3.258,3.334,-0.039,0.869,-0.558,-3.876,-0.366,0.793,73.333,34366.000,1.000
0.378,0.535,0.665,0.429,0.632,0.495,0.430,0.559,-0.039,0.872,-0.556,-4.089,-0.366,1.007,73.333,34367.000,1.000
-2.066,-2.006,-1.889,-2.159,-1.930,-2.001,-2.164,-1.981,-0.042,0.875,-0.556,-4.150,-0.244,1.129,73.333,34368.000,1.000
-5.819,-5.775,-5.704,-5.975,-5.730,-5.740,-5.944,-5.729,-0.044,0.875,-0.552,-4.456,-0.244,1.221,73.333,34369.000,1.000
-10.389,-10.297,-10.252,-10.528,-10.278,-10.247,-10.392,-10.197,-0.047,0.877,-0.549,-4.639,-0.336,1.251,73.333,34370.000,1.000
-13.724,-13.576,-13.510,-13.804,-13.563,-13.520,-13.517,-13.417,-0.048,0.876,-0.555,-4.852,-0.397,1.343,73.333,34371.000,1.000
-14.868,-14.711,-14.592,-14.890,-14.662,-14.643,-14.466,-14.521,-0.050,0.875,-0.553,-4.974,-0.671,1.404,73.333,34372.000,1.000
-15.160,-15.061,-14.892,-15.152,-14.930,-14.970,-14.670,-14.887,-0.052,0.875,-0.555,-5.127,-0.732,1.495,73.333,34373.000,1.000
-16.198,-16.211,-16.006,-16.194,-15.972,-16.098,-15.762,-16.080,-0.054,0.873,-0.553,-5.219,-0.793,1.556,73.333,34374.000,1.000
-17.358,-17.510,-17.265,-17.376,-17.168,-17.395,-17.090,-17.409,-0.053,0.871,-0.549,-5.280,-1.038,1.556,73.333,34375.000,1.000
-16.478,-16.763,-16.461,-16.514,-16.354,-16.671,-16.423,-16.658,-0.053,0.870,-0.548,-5.280,-1.404,1.556,73.333,34376.000,1.000
-12.824,-13.227,-12.848,-12.874,-12.799,-13.159,-12.960,-13.079,-0.056,0.869,-0.546,-5.402,-1.587,1.556,73.333,34377.000,1.000
-8.242,-8.742,-8.278,-8.313,-8.328,-8.671,-8.492,-8.522,-0.059,0.868,-0.548,-5.463,-1.740,1.495,73.333,34378.000,1.000
-4.852,-5.421,-4.899,-4.965,-5.022,-5.311,-5.126,-5.119,-0.060,0.866,-0.548,-5.341,-2.106,1.587,73.333,34379.000,1.000
-2.497,-3.100,-2.584,-2.677,-2.695,-2.938,-2.733,-2.745,-0.058,0.862,-0.546,-5.157,-2.411,1.434,73.333,34380.000,1.000
0.746,0.159,0.590,0.488,0.579,0.353,0.568,0.494,-0.058,0.858,-0.551,-4.974,-2.747,1.404,73.333,34381.000,1.000
6.065,5.561,5.845,5.759,5.966,5.753,5.930,5.788,-0.058,0.855,-0.550,-4.639,-2.960,1.312,73.333,34382.000,1.000
12.611,12.255,12.369,12.325,12.578,12.402,12.481,12.319,-0.055,0.854,-0.551,-4.425,-3.265,1.190,73.333,34383.000,1.000
18.545,18.360,18.335,18.353,18.537,18.424,18.392,18.271,-0.051,0.854,-0.551,-4.120,-3.448,1.251,73.333,34384.000,1.000
22.795,22.756,22.653,22.747,22.760,22.721,22.614,22.586,-0.047,0.855,-0.552,-3.876,-3.571,1.221,73.333,34385.000,1.000
25.563,25.615,25.492,25.658,25.471,25.506,25.363,25.455,-0.044,0.853,-0.555,-3.448,-3.693,1.099,73.333,34386.000,1.000
27.456,27.545,27.440,27.645,27.316,27.419,27.244,27.452,-0.042,0.852,-0.554,-3.113,-3.723,1.099,73.333,34387.000,1.000
28.502,28.589,28.512,28.709,28.350,28.505,28.282,28.553,-0.042,0.851,-0.552,-2.838,-3.693,1.190,73.333,34388.000,1.000
28.052,28.116,28.056,28.207,27.931,28.103,27.824,28.074,-0.040,0.851,-0.552,-2.472,-3.571,1.129,73.333,34389.000,1.000
25.426,25.478,25.411,25.504,25.378,25.515,25.200,25.362,-0.036,0.854,-0.552,-2.289,-3.448,1.007,73.333,34390.000,1.000
20.601,20.678,20.582,20.628,20.654,20.708,20.405,20.453,-0.035,0.859,-0.552,-2.014,-3.296,0.977,73.333,34391.000,1.000
14.452,14.580,14.462,14.482,14.603,14.553,14.321,14.265,-0.034,0.862,-0.553,-1.648,-3.113,1.007,73.333,34392.000,1.000
8.175,8.340,8.238,8.258,8.380,8.241,8.139,8.005,-0.033,0.865,-0.551,-1.465,-2.991,1.068,73.333,34393.000,1.000
2.244,2.392,2.349,2.394,2.432,2.245,2.296,2.127,-0.033,0.866,-0.552,-1.373,-2.747,0.946,73.333,34394.000,1.000
-3.955,-3.888,-3.861,-3.775,-3.846,-4.037,-3.867,-4.013,-0.035,0.867,-0.549,-1.373,-2.533,0.885,73.333,34395.000,1.000
-11.255,-11.305,-11.228,-11.107,-11.250,-11.407,-11.196,-11.262,-0.037,0.869,-0.549,-1.312,-2.228,0.763,73.333,34396.000,1.000
-19.479,-19.638,-19.539,-19.411,-19.557,-19.656,-19.489,-19.438,-0.038,0.869,-0.551,-1.343,-1.953,0.702,73.333,34397.000,1.000
-27.408,-27.621,-27.528,-27.420,-27.511,-27.540,-27.478,-27.309,-0.040,0.868,-0.550,-1.343,-1.892,0.549,73.333,34398.000,1.000
-34.026,-34.210,-34.159,-34.072,-34.087,-34.048,-34.106,-33.861,-0.042,0.868,-0.550,-1.434,-1.770,0.336,73.333,34399.000,1.000
-39.423,-39.500,-39.521,-39.427,-39.398,-39.306,-39.445,-39.196,-0.043,0.869,-0.548,-1.495,-1.648,0.244,73.333,34400.000,1.000
-44.111,-44.061,-44.140,-44.014,-44.009,-43.885,-44.033,-43.844,-0.043,0.869,-0.546,-1.495,-1.770,0.061,73.333,34401.000,1.000
-47.715,-47.579,-47.653,-47.500,-47.589,-47.444,-47.544,-47.431,-0.044,0.868,-0.543,-1.434,-1.740,-0.092,73.333,34402.000,1.000
-48.942,-48.794,-48.791,-48.639,-48.860,-48.685,-48.716,-48.660,-0.044,0.867,-0.540,-1.434,-1.678,-0.214,73.333,34403.000,1.000
-47.001,-46.894,-46.777,-46.653,-46.989,-46.769,-46.744,-46.725,-0.050,0.862,-0.543,-1.434,-1.556,-0.488,73.333,34404.000,1.000
-42.593,-42.530,-42.305,-42.220,-42.595,-42.341,-42.298,-42.303,-0.057,0.859,-0.546,-1.617,-1.587,-0.763,73.333,34405.000,1.000
-37.112,-37.035,-36.743,-36.694,-37.004,-36.755,-36.749,-36.760,-0.062,0.859,-0.551,-1.526,-1.678,-1.038,73.333,34406.000,1.000
-30.981,-30.820,-30.514,-30.482,-30.655,-30.454,-30.544,-30.524,-0.060,0.856,-0.554,-1.526,-1.892,-1.312,73.333,34407.000,1.000
-23.480,-23.206,-22.937,-22.891,-22.916,-22.794,-23.013,-22.919,-0.055,0.855,-0.558,-1.190,-2.045,-1.373,73.333,34408.000,1.000
-14.395,-14.046,-13.837,-13.761,-13.668,-13.646,-13.974,-13.784,-0.049,0.854,-0.559,-0.854,-2.197,-1.404,73.333,34409.000,1.000
-5.156,-4.814,-4.662,-4.566,-4.387,-4.483,-4.838,-4.580,-0.047,0.855,-0.557,-0.610,-2.228,-1.404,73.333,34410.000,1.000
2.271,2.511,2.616,2.708,2.944,2.732,2.465,2.712,-0.046,0.859,-0.555,-0.458,-2.045,-1.404,73.333,34411.000,1.000
7.442,7.507,7.561,7.634,7.887,7.600,7.511,7.658,-0.048,0.861,-0.549,-0.305,-1.801,-1.465,73.333,34412.000,1.000
11.736,11.612,11.599,11.649,11.864,11.573,11.687,11.673,-0.054,0.865,-0.542,-0.397,-1.740,-1.495,73.333,34413.000,1.000
16.510,16.246,16.151,16.178,16.312,16.086,16.351,16.175,-0.061,0.867,-0.542,-0.458,-1.862,-1.495,73.333,34414.000,1.000
21.487,21.165,21.001,21.001,21.046,20.924,21.233,20.956,-0.064,0.869,-0.544,-0.671,-1.831,-1.343,73.333,34415.000,1.000
25.374,25.065,24.882,24.847,24.834,24.818,25.042,24.776,-0.065,0.873,-0.550,-0.702,-1.923,-1.251,73.333,34416.000,1.000
27.741,27.493,27.351,27.273,27.254,27.320,27.362,27.222,-0.063,0.875,-0.551,-0.824,-2.075,-1.007,73.333,34417.000,1.000
29.431,29.276,29.206,29.078,29.102,29.207,29.058,29.099,-0.059,0.877,-0.555,-0.946,-2.197,-0.824,73.333,34418.000,1.000
30.830,30.790,30.768,30.598,30.689,30.785,30.518,30.722,-0.057,0.877,-0.555,-0.916,-2.380,-0.580,73.333,34419.000,1.000
30.512,30.584,30.542,30.362,30.517,30.576,30.278,30.584,-0.056,0.874,-0.554,-0.946,-2.319,-0.366,73.333,34420.000,1.000
26.414,26.555,26.421,26.283,26.490,26.516,26.218,26.559,-0.057,0.873,-0.550,-1.007,-2.289,-0.092,73.333,34421.000,1.000
18.290,18.440,18.184,18.116,18.362,18.386,18.063,18.383,-0.058,0.872,-0.549,-1.068,-2.289,0.244,73.333,34422.000,1.000
8.231,8.366,8.024,8.004,8.273,8.334,7.941,8.211,-0.058,0.871,-0.549,-1.038,-2.289,0.458,73.333,34423.000,1.000
-1.393,-1.245,-1.593,-1.625,-1.354,-1.230,-1.703,-1.491,-0.056,0.872,-0.552,-1.129,-2.258,0.580,73.333,34424.000,1.000
-9.858,-9.660,-9.931,-10.025,-9.781,-9.588,-10.103,-9.958,-0.061,0.871,-0.550,-1.160,-2.258,0.854,73.333,34425.000,1.000
-17.547,-17.298,-17.459,-17.625,-17.431,-17.187,-17.675,-17.613,-0.064,0.869,-0.550,-1.099,-2.319,1.068,73.333,34426.000,1.000
-24.069,-23.811,-23.889,-24.101,-23.960,-23.711,-24.101,-24.128,-0.065,0.871,-0.550,-1.251,-2.350,1.099,73.333,34427.000,1.000
-27.945,-27.732,-27.776,-27.997,-27.900,-27.698,-27.944,-28.043,-0.065,0.871,-0.549,-1.434,-2.380,1.373,73.333,34428.000,1.000
-28.318,-28.181,-28.216,-28.427,-28.359,-28.229,-28.339,-28.466,-0.064,0.871,-0.550,-1.404,-2.533,1.526,73.333,34429.000,1.000
-26.212,-26.145,-26.153,-26.366,-26.318,-26.242,-26.281,-26.372,-0.061,0.866,-0.553,-1.373,-2.594,1.648,73.333,34430.000,1.000
-23.551,-23.512,-23.478,-23.711,-23.681,-23.622,-23.671,-23.662,-0.056,0.865,-0.553,-1.251,-2.594,1.831,73.333,34431.000,1.000
-21.118,-21.061,-21.006,-21.251,-21.245,-21.175,-21.286,-21.141,-0.052,0.860,-0.553,-1.160,-2.625,1.984,73.333,34432.000,1.000
-18.119,-18.024,-17.995,-18.209,-18.247,-18.159,-18.338,-18.058,-0.048,0.856,-0.556,-0.946,-2.472,2.106,73.333,34433.000,1.000
-13.876,-13.755,-13.788,-13.917,-14.047,-13.935,-14.147,-13.778,-0.044,0.853,-0.557,-0.702,-2.289,2.045,73.333,34434.000,1.000
-9.347,-9.233,-9.321,-9.332,-9.613,-9.478,-9.653,-9.274,-0.042,0.850,-0.559,-0.366,-2.045,2.197,73.333,34435.000,1.000
-6.322,-6.240,-6.331,-6.245,-6.702,-6.555,-6.618,-6.298,-0.041,0.849,-0.556,-0.153,-1.770,2.228,73.333,34436.000,1.000
-5.122,-5.081,-5.114,-4.994,-5.583,-5.444,-5.353,-5.113,-0.039,0.847,-0.555,0.214,-1.495,2.197,73.333,34437.000,1.000
-3.932,-3.937,-3.886,-3.796,-4.412,-4.297,-4.079,-3.888,-0.037,0.845,-0.557,0.519,-1.129,2.045,73.333,34438.000,1.000
-0.809,-0.862,-0.767,-0.731,-1.249,-1.160,-0.903,-0.715,-0.037,0.841,-0.560,0.885,-0.824,1.892,73.333,34439.000,1.000
4.188,4.098,4.167,4.165,3.813,3.893,4.100,4.299,-0.032,0.841,-0.558,1.251,-0.519,1.740,73.333,34440.000,1.000
9.342,9.249,9.250,9.242,9.025,9.116,9.252,9.421,-0.032,0.844,-0.557,1.526,-0.061,1.587,73.333,34441.000,1.000
13.402,13.354,13.306,13.301,13.122,13.243,13.356,13.421,-0.032,0.846,-0.557,1.801,0.305,1.526,73.333,34442.000,1.000
16.575,16.605,16.565,16.540,16.332,16.482,16.628,16.536,-0.032,0.850,-0.559,2.045,0.702,1.190,73.333,34443.000,1.000
19.441,19.544,19.546,19.479,19.249,19.410,19.594,19.352,-0.034,0.851,-0.555,2.411,1.190,1.068,73.333,34444.000,1.000
21.696,21.837,21.859,21.767,21.573,21.707,21.890,21.558,-0.036,0.856,-0.555,2.411,1.526,0.854,73.333,34445.000,1.000
22.476,22.620,22.611,22.548,22.435,22.488,22.657,22.300,-0.040,0.860,-0.556,2.411,1.740,0.580,73.333,34446.000,1.000
21.684,21.807,21.747,21.774,21.728,21.656,21.855,21.508,-0.044,0.865,-0.555,2.350,1.892,0.366,73.333,34447.000,1.000
20.351,20.424,20.355,20.506,20.460,20.268,20.556,20.219,-0.048,0.866,-0.554,2.167,2.014,0.092,73.333,34448.000,1.000
19.508,19.501,19.491,19.752,19.647,19.391,19.774,19.440,-0.050,0.868,-0.553,2.136,1.984,-0.183,73.333,34449.000,1.000
19.144,19.054,19.126,19.448,19.284,19.041,19.456,19.123,-0.055,0.868,-0.554,2.045,1.953,-0.366,73.333,34450.000,1.000
18.548,18.431,18.512,18.844,18.688,18.515,18.858,18.535,-0.059,0.869,-0.558,1.984,1.831,-0.549,73.333,34451.000,1.000
17.507,17.441,17.402,17.722,17.670,17.576,17.753,17.457,-0.058,0.871,-0.555,1.801,1.740,-0.732,73.333,34452.000,1.000
16.714,16.731,16.485,16.806,16.916,16.875,16.847,16.596,-0.060,0.871,-0.554,1.648,1.617,-1.007,73.333,34453.000,1.000
16.925,16.983,16.562,16.912,17.157,17.135,16.938,16.743,-0.059,0.868,-0.557,1.465,1.434,-1.068,73.333,34454.000,1.000
18.101,18.136,17.666,18.058,18.342,18.321,18.040,17.906,-0.060,0.867,-0.561,1.312,1.312,-1.129,73.333,34455.000,1.000
19.626,19.608,19.230,19.646,19.854,19.840,19.574,19.493,-0.058,0.865,-0.560,1.343,1.221,-1.099,73.333,34456.000,1.000
21.217,21.156,20.948,21.357,21.416,21.419,21.252,21.199,-0.057,0.862,-0.558,1.312,1.038,-1.007,73.333,34457.000,1.000
23.196,23.104,23.074,23.444,23.355,23.367,23.340,23.282,-0.057,0.859,-0.563,1.312,0.854,-0.977,73.333,34458.000,1.000
25.792,25.642,25.759,26.060,25.893,25.882,25.979,25.907,-0.055,0.858,-0.561,1.160,0.763,-0.854,73.333,34459.000,1.000
28.534,28.275,28.502,28.698,28.558,28.485,28.641,28.590,-0.054,0.858,-0.563,1.129,0.519,-0.580,73.333,34460.000,1.000
30.597,30.204,30.502,30.576,30.556,30.392,30.520,30.557,-0.053,0.856,-0.562,1.343,0.488,-0.549,73.333,34461.000,1.000
31.635,31.156,31.472,31.451,31.580,31.329,31.366,31.534,-0.055,0.857,-0.564,1.495,0.366,-0.305,73.333,34462.000,1.000
31.974,31.527,31.785,31.726,31.966,31.654,31.605,31.888,-0.058,0.857,-0.564,1.556,0.183,-0.153,73.333,34463.000,1.000
31.939,31.649,31.790,31.731,32.019,31.672,31.605,31.935,-0.056,0.858,-0.565,1.526,0.153,0.183,73.333,34464.000,1.000
31.245,31.162,31.192,31.127,31.412,31.061,31.053,31.340,-0.057,0.861,-0.566,1.495,0.031,0.275,73.333,34465.000,1.000
29.189,29.265,29.265,29.149,29.404,29.088,29.187,29.336,-0.058,0.863,-0.564,1.404,-0.061,0.397,73.333,34466.000,1.000
25.425,25.550,25.628,25.408,25.624,25.384,25.598,25.539,-0.059,0.864,-0.561,1.312,-0.244,0.641,73.333,34467.000,1.000
20.306,20.378,20.597,20.255,20.429,20.280,20.589,20.314,-0.061,0.865,-0.565,1.343,-0.427,0.702,73.333,34468.000,1.000
14.443,14.433,14.765,14.347,14.474,14.405,14.762,14.348,-0.060,0.865,-0.565,1.160,-0.519,0.916,73.333,34469.000,1.000
8.201,8.152,8.495,8.107,8.181,8.167,8.498,8.081,-0.062,0.869,-0.563,1.038,-0.610,1.038,73.333,34470.000,1.000
1.648,1.625,1.869,1.615,1.642,1.664,1.889,1.598,-0.059,0.870,-0.559,0.977,-0.793,1.160,73.333,34471.000,1.000
-5.090,-5.051,-4.964,-5.041,-5.053,-4.989,-4.930,-5.027,-0.058,0.873,-0.562,0.763,-0.916,1.160,73.333,34472.000,1.000
-11.663,-11.552,-11.610,-11.548,-11.599,-11.463,-11.594,-11.496,-0.056,0.873,-0.565,0.580,-1.099,1.312,73.333,34473.000,1.000
-17.654,-17.479,-17.620,-17.503,-17.601,-17.368,-17.657,-17.424,-0.055,0.872,-0.564,0.244,-1.221,1.465,73.333,34474.000,1.000
-22.759,-22.540,-22.702,-22.605,-22.749,-22.429,-22.791,-22.519,-0.056,0.872,-0.562,0.000,-1.373,1.526,73.333,34475.000,1.000
-26.798,-26.576,-26.725,-26.689,-26.855,-26.491,-26.815,-26.603,-0.056,0.872,-0.563,-0.214,-1.404,1.678,73.333,34476.000,1.000
-29.646,-29.460,-29.589,-29.615,-29.772,-29.420,-29.603,-29.519,-0.056,0.869,-0.563,-0.427,-1.373,1.709,73.333,34477.000,1.000
-31.206,-31.064,-31.181,-31.250,-31.368,-31.089,-31.062,-31.126,-0.053,0.868,-0.559,-0.580,-1.373,1.770,73.333,34478.000,1.000
-31.457,-31.335,-31.453,-31.549,-31.612,-31.449,-31.200,-31.386,-0.053,0.866,-0.559,-0.732,-1.465,1.831,73.333,34479.000,1.000
-30.519,-30.389,-30.509,-30.623,-30.637,-30.587,-30.179,-30.424,-0.052,0.866,-0.562,-0.977,-1.617,1.892,73.333,34480.000,1.000
-28.699,-28.558,-28.651,-28.789,-28.776,-28.780,-28.337,-28.561,-0.049,0.862,-0.564,-1.160,-1.617,1.831,73.333,34481.000,1.000
-26.414,-26.284,-26.294,-26.483,-26.453,-26.438,-26.085,-26.220,-0.048,0.860,-0.563,-1.129,-1.709,1.770,73.333,34482.000,1.000
-24.041,-23.950,-23.831,-24.096,-24.030,-23.970,-23.761,-23.780,-0.048,0.858,-0.560,-1.190,-1.617,1.862,73.333,34483.000,1.000
-21.817,-21.789,-21.540,-21.864,-21.736,-21.670,-21.567,-21.491,-0.051,0.859,-0.561,-1.160,-1.648,1.801,73.333,34484.000,1.000
-19.795,-19.846,-19.501,-19.834,-19.635,-19.635,-19.550,-19.431,-0.048,0.857,-0.561,-1.190,-1.556,1.678,73.333,34485.000,1.000
-17.869,-18.001,-17.597,-17.905,-17.649,-17.772,-17.641,-17.524,-0.047,0.857,-0.562,-1.190,-1.526,1.648,73.333,34486.000,1.000
-15.804,-15.992,-15.567,-15.858,-15.564,-15.817,-15.649,-15.560,-0.044,0.856,-0.561,-1.251,-1.434,1.617,73.333,34487.000,1.000
-13.338,-13.525,-13.143,-13.441,-13.110,-13.448,-13.326,-13.269,-0.043,0.856,-0.561,-1.221,-1.282,1.556,73.333,34488.000,1.000
-10.377,-10.498,-10.243,-10.554,-10.174,-10.525,-10.536,-10.502,-0.041,0.854,-0.563,-1.251,-1.129,1.526,73.333,34489.000,1.000
-7.130,-7.152,-7.087,-7.370,-6.955,-7.254,-7.415,-7.382,-0.040,0.853,-0.562,-1.221,-1.068,1.465,73.333,34490.000,1.000
-4.093,-4.030,-4.169,-4.342,-3.952,-4.161,-4.401,-4.341,-0.039,0.855,-0.561,-1.129,-0.916,1.465,73.333,34491.000,1.000
-1.855,-1.743,-2.050,-2.048,-1.736,-1.860,-2.081,-1.962,-0.039,0.853,-0.563,-1.007,-0.763,1.373,73.333,34492.000,1.000
-0.866,-0.730,-1.141,-0.968,-0.729,-0.806,-0.956,-0.749,-0.043,0.852,-0.562,-0.977,-0.671,1.404,73.333,34493.000,1.000
-1.262,-1.104,-1.559,-1.291,-1.079,-1.136,-1.236,-0.941,-0.044,0.855,-0.565,-0.854,-0.427,1.312,73.333,34494.000,1.000
-2.773,-2.585,-3.050,-2.786,-2.570,-2.602,-2.702,-2.367,-0.044,0.858,-0.562,-0.824,-0.214,1.190,73.333,34495.000,1.000
-4.877,-4.674,-5.124,-4.932,-4.719,-4.708,-4.840,-4.544,-0.046,0.858,-0.564,-0.732,-0.153,1.038,73.333,34496.000,1.000
-7.122,-6.953,-7.351,-7.251,-7.072,-7.011,-7.170,-6.979,-0.047,0.858,-0.562,-0.793,-0.061,1.007,73.333,34497.000,1.000
-9.316,-9.255,-9.548,-9.525,-9.408,-9.308,-9.454,-9.403,-0.045,0.858,-0.563,-0.916,-0.061,0.916,73.333,34498.000,1.000
-11.410,-11.502,-11.651,-11.677,-11.639,-11.518,-11.587,-11.681,-0.046,0.860,-0.563,-0.854,-0.031,0.763,73.333,34499.000,1.000
-13.213,-13.445,-13.436,-13.486,-13.535,-13.406,-13.352,-13.559,-0.046,0.863,-0.564,-0.824,0.122,0.671,73.333,34500.000,1.000
-14.388,-14.693,-14.547,-14.600,-14.731,-14.605,-14.440,-14.699,-0.046,0.863,-0.567,-0.885,0.153,0.580,73.333,34501.000,1.000
-14.788,-15.092,-14.856,-14.892,-15.072,-14.963,-14.765,-15.009,-0.047,0.865,-0.567,-0.885,0.214,0.549,73.333,34502.000,1.000
-14.708,-14.955,-14.685,-14.680,-14.873,-14.784,-14.658,-14.844,-0.048,0.864,-0.564,-0.946,0.214,0.427,73.333,34503.000,1.000
-14.584,-14.754,-14.488,-14.434,-14.614,-14.530,-14.550,-14.671,-0.049,0.864,-0.561,-1.038,0.244,0.488,73.333,34504.000,1.000
-14.510,-14.603,-14.369,-14.284,-14.432,-14.334,-14.496,-14.584,-0.047,0.864,-0.564,-1.068,0.244,0.458,73.333,34505.000,1.000
-14.238,-14.272,-14.096,-14.005,-14.111,-13.991,-14.216,-14.325,-0.048,0.864,-0.563,-1.038,0.214,0.427,73.333,34506.000,1.000
-13.516,-13.525,-13.437,-13.346,-13.422,-13.279,-13.459,-13.632,-0.047,0.862,-0.561,-1.068,0.153,0.397,73.333,34507.000,1.000
-12.284,-12.295,-12.312,-12.212,-12.303,-12.130,-12.194,-12.428,-0.046,0.862,-0.563,-1.068,0.305,0.336,73.333,34508.000,1.000
-10.565,-10.571,-10.691,-10.581,-10.737,-10.517,-10.473,-10.732,-0.046,0.863,-0.562,-1.068,0.244,0.275,73.333,34509.000,1.000
-8.256,-8.234,-8.428,-8.322,-8.562,-8.288,-8.211,-8.452,-0.046,0.860,-0.561,-1.068,0.305,0.397,73.333,34510.000,1.000
-5.222,-5.174,-5.403,-5.309,-5.597,-5.295,-5.277,-5.470,-0.046,0.860,-0.560,-1.129,0.427,0.397,73.333,34511.000,1.000
-1.626,-1.591,-1.813,-1.715,-1.984,-1.714,-1.803,-1.921,-0.049,0.859,-0.561,-1.068,0.397,0.488,73.333,34512.000,1.000
1.986,1.958,1.779,1.916,1.715,1.896,1.731,1.686,-0.050,0.859,-0.563,-1.129,0.397,0.519,73.333,34513.000,1.000
5.027,4.896,4.797,4.991,4.867,4.941,4.780,4.768,-0.050,0.856,-0.565,-1.099,0.397,0.519,73.333,34514.000,1.000
7.277,7.021,7.036,7.250,7.192,7.197,7.081,7.059,-0.051,0.857,-0.565,-1.038,0.305,0.580,73.333,34515.000,1.000
8.813,8.443,8.571,8.718,8.737,8.732,8.626,8.599,-0.053,0.856,-0.565,-1.007,0.275,0.580,73.333,34516.000,1.000
9.692,9.251,9.454,9.450,9.568,9.609,9.438,9.436,-0.053,0.858,-0.563,-0.946,0.122,0.488,73.333,34517.000,1.000
9.855,9.418,9.647,9.468,9.683,9.790,9.533,9.558,-0.054,0.859,-0.563,-0.946,0.092,0.549,73.333,34518.000,1.000
9.310,8.974,9.187,8.897,9.157,9.297,9.022,9.040,-0.055,0.857,-0.564,-0.916,0.061,0.549,73.333,34519.000,1.000
8.291,8.151,8.301,8.022,8.249,8.352,8.177,8.136,-0.054,0.857,-0.560,-0.824,-0.061,0.641,73.333,34520.000,1.000
7.095,7.203,7.247,7.097,7.225,7.228,7.238,7.101,-0.052,0.856,-0.559,-0.763,-0.092,0.641,73.333,34521.000,1.000
5.841,6.166,6.094,6.131,6.126,6.013,6.210,5.970,-0.050,0.855,-0.563,-0.824,-0.214,0.610,73.333,34522.000,1.000
4.405,4.849,4.691,4.890,4.757,4.569,4.870,4.564,-0.048,0.856,-0.563,-0.793,-0.214,0.671,73.333,34523.000,1.000
2.617,3.069,2.870,3.151,2.929,2.739,3.025,2.728,-0.047,0.856,-0.563,-0.702,-0.214,0.702,73.333,34524.000,1.000
0.533,0.917,0.708,0.992,0.729,0.605,0.789,0.580,-0.047,0.855,-0.565,-0.580,-0.183,0.824,73.333,34525.000,1.000
-1.584,-1.302,-1.492,-1.247,-1.526,-1.556,-1.482,-1.552,-0.045,0.855,-0.567,-0.488,-0.122,0.824,73.333,34526.000,1.000
-3.508,-3.330,-3.472,-3.263,-3.564,-3.527,-3.499,-3.415,-0.044,0.856,-0.565,-0.549,0.031,0.916,73.333,34527.000,1.000
-5.171,-5.084,-5.162,-4.965,-5.295,-5.254,-5.194,-4.966,-0.040,0.855,-0.564,-0.458,0.061,0.946,73.333,34528.000,1.000
-6.557,-6.550,-6.562,-6.370,-6.710,-6.717,-6.592,-6.250,-0.040,0.857,-0.564,-0.336,0.244,1.007,73.333,34529.000,1.000
-7.582,-7.649,-7.598,-7.433,-7.740,-7.800,-7.637,-7.224,-0.040,0.858,-0.561,-0.305,0.336,1.007,73.333,34530.000,1.000
-8.168,-8.285,-8.191,-8.087,-8.316,-8.397,-8.254,-7.819,-0.040,0.859,-0.566,-0.488,0.397,1.007,73.333,34531.000,1.000
-8.341,-8.466,-8.374,-8.346,-8.481,-8.535,-8.474,-8.057,-0.041,0.860,-0.563,-0.397,0.580,1.007,73.333,34532.000,1.000
-8.180,-8.297,-8.244,-8.273,-8.339,-8.332,-8.397,-8.022,-0.039,0.860,-0.563,-0.488,0.671,1.007,73.333,34533.000,1.000
-7.701,-7.836,-7.833,-7.872,-7.931,-7.861,-8.039,-7.717,-0.039,0.861,-0.562,-0.671,0.916,1.160,73.333,34534.000,1.000
-6.816,-7.004,-7.029,-7.028,-7.150,-7.054,-7.258,-6.995,-0.041,0.861,-0.562,-0.793,1.038,1.190,73.333,34535.000,1.000
-5.460,-5.692,-5.701,-5.639,-5.864,-5.802,-5.904,-5.718,-0.041,0.860,-0.567,-0.732,1.007,1.160,73.333,34536.000,1.000
-3.683,-3.903,-3.849,-3.744,-4.056,-4.080,-3.986,-3.898,-0.042,0.860,-0.564,-0.763,1.160,1.068,73.333,34537.000,1.000
-1.572,-1.717,-1.573,-1.486,-1.806,-1.941,-1.639,-1.652,-0.043,0.862,-0.562,-0.916,1.129,1.068,73.333,34538.000,1.000
0.832,0.786,1.020,1.017,0.782,0.550,0.987,0.910,-0.043,0.863,-0.561,-0.946,1.282,0.854,73.333,34539.000,1.000
3.489,3.522,3.817,3.693,3.597,3.302,3.760,3.682,-0.043,0.862,-0.561,-1.038,1.282,0.885,73.333,34540.000,1.000
6.209,6.282,6.590,6.366,6.413,6.097,6.454,6.426,-0.045,0.861,-0.563,-0.977,1.312,0.732,73.333,34541.000,1.000
8.625,8.720,8.968,8.697,8.861,8.573,8.719,8.759,-0.044,0.862,-0.563,-1.129,1.312,0.641,73.333,34542.000,1.000
10.346,10.470,10.590,10.329,10.573,10.354,10.239,10.325,-0.044,0.859,-0.562,-1.190,1.404,0.549,73.333,34543.000,1.000
11.147,11.316,11.288,11.084,11.366,11.226,10.899,10.990,-0.043,0.858,-0.561,-1.221,1.312,0.519,73.333,34544.000,1.000
11.131,11.335,11.214,11.069,11.362,11.280,10.864,10.933,-0.041,0.858,-0.562,-1.190,1.434,0.458,73.333,34545.000,1.000
10.651,10.846,10.725,10.592,10.899,10.830,10.465,10.508,-0.042,0.856,-0.566,-1.160,1.404,0.427,73.333,34546.000,1.000
10.075,10.201,10.156,9.983,10.317,10.221,9.994,10.024,-0.043,0.857,-0.564,-1.160,1.343,0.397,73.333,34547.000,1.000
9.632,9.649,9.710,9.477,9.840,9.694,9.606,9.653,-0.046,0.857,-0.562,-1.251,1.434,0.366,73.333,34548.000,1.000
9.416,9.327,9.477,9.210,9.583,9.382,9.374,9.468,-0.045,0.859,-0.561,-1.190,1.343,0.336,73.333,34549.000,1.000
9.451,9.309,9.508,9.243,9.598,9.363,9.370,9.513,-0.044,0.857,-0.565,-1.282,1.343,0.366,73.333,34550.000,1.000
9.667,9.554,9.758,9.526,9.822,9.598,9.600,9.754,-0.045,0.857,-0.565,-1.190,1.312,0.427,73.333,34551.000,1.000
9.920,9.893,10.063,9.903,10.085,9.920,9.945,10.051,-0.046,0.859,-0.565,-1.221,1.373,0.366,73.333,34552.000,1.000
10.072,10.125,10.236,10.196,10.212,10.134,10.208,10.235,-0.043,0.859,-0.567,-1.129,1.373,0.549,73.333,34553.000,1.000
10.020,10.089,10.150,10.250,10.094,10.089,10.210,10.161,-0.045,0.859,-0.564,-1.099,1.343,0.610,73.333,34554.000,1.000
9.747,9.759,9.801,10.016,9.742,9.768,9.904,9.802,-0.045,0.857,-0.562,-1.099,1.282,0.641,73.333,34555.000,1.000
9.307,9.231,9.285,9.559,9.254,9.274,9.378,9.250,-0.045,0.855,-0.565,-1.099,1.190,0.519,73.333,34556.000,1.000
8.767,8.634,8.709,8.982,8.734,8.725,8.764,8.641,-0.046,0.856,-0.563,-1.038,1.129,0.641,73.333,34557.000,1.000
8.207,8.085,8.174,8.397,8.256,8.215,8.198,8.098,-0.045,0.859,-0.563,-1.038,1.099,0.732,73.333,34558.000,1.000
7.706,7.652,7.739,7.884,7.852,7.786,7.764,7.679,-0.042,0.861,-0.566,-1.068,1.007,0.702,73.333,34559.000,1.000
7.247,7.301,7.366,7.413,7.455,7.382,7.417,7.311,-0.041,0.863,-0.565,-1.099,1.007,0.732,73.333,34560.000,1.000
6.664,6.853,6.881,6.816,6.880,6.823,6.952,6.787,-0.039,0.865,-0.566,-1.190,1.068,0.732,73.333,34561.000,1.000
5.780,6.126,6.110,5.937,5.967,5.959,6.174,5.932,-0.039,0.864,-0.564,-1.312,1.007,0.793,73.333,34562.000,1.000
4.572,5.068,4.999,4.765,4.721,4.785,5.046,4.730,-0.037,0.861,-0.564,-1.282,1.099,0.977,73.333,34563.000,1.000
3.141,3.731,3.577,3.368,3.256,3.389,3.631,3.270,-0.040,0.862,-0.563,-1.343,1.068,1.038,73.333,34564.000,1.000
1.678,2.255,1.988,1.877,1.769,1.927,2.081,1.727,-0.040,0.861,-0.559,-1.404,1.160,1.129,73.333,34565.000,1.000
0.430,0.869,0.506,0.504,0.500,0.627,0.647,0.353,-0.042,0.860,-0.561,-1.465,1.160,1.129,73.333,34566.000,1.000
-0.417,-0.216,-0.597,-0.540,-0.382,-0.320,-0.426,-0.628,-0.040,0.862,-0.562,-1.587,1.129,1.099,73.333,34567.000,1.000
-0.891,-0.951,-1.258,-1.194,-0.908,-0.917,-1.075,-1.190,-0.041,0.864,-0.562,-1.740,1.038,1.007,73.333,34568.000,1.000
-1.256,-1.506,-1.684,-1.626,-1.318,-1.399,-1.497,-1.553,-0.040,0.865,-0.561,-1.831,1.038,1.007,73.333,34569.000,1.000
-1.822,-2.129,-2.198,-2.103,-1.889,-2.045,-2.001,-2.035,-0.040,0.867,-0.560,-1.984,0.977,1.038,73.333,34570.000,1.000
-2.693,-2.932,-2.969,-2.783,-2.719,-2.952,-2.769,-2.802,-0.043,0.869,-0.563,-1.953,0.885,1.068,73.333,34571.000,1.000
-3.641,-3.744,-3.833,-3.548,-3.617,-3.907,-3.654,-3.687,-0.049,0.867,-0.563,-2.075,0.793,0.977,73.333,34572.000,1.000
-4.221,-4.196,-4.376,-4.058,-4.174,-4.476,-4.247,-4.266,-0.051,0.865,-0.560,-2.075,0.549,0.916,73.333,34573.000,1.000
-4.063,-3.968,-4.223,-3.981,-4.031,-4.283,-4.160,-4.155,-0.056,0.863,-0.560,-2.197,0.305,0.793,73.333,34574.000,1.000
-3.086,-2.995,-3.268,-3.181,-3.083,-3.239,-3.263,-3.228,-0.057,0.863,-0.560,-2.136,0.061,0.488,73.333,34575.000,1.000
-1.553,-1.518,-1.744,-1.809,-1.565,-1.616,-1.762,-1.690,-0.057,0.861,-0.564,-2.045,-0.244,0.366,73.333,34576.000,1.000
0.098,0.071,-0.077,-0.223,0.097,0.133,-0.073,0.048,-0.053,0.862,-0.564,-2.075,-0.580,0.305,73.333,34577.000,1.000
1.514,1.469,1.381,1.243,1.555,1.654,1.431,1.599,-0.050,0.860,-0.565,-2.075,-0.732,0.092,73.333,34578.000,1.000
2.583,2.583,2.526,2.441,2.693,2.841,2.589,2.793,-0.048,0.860,-0.563,-1.953,-0.885,0.031,73.333,34579.000,1.000
3.407,3.483,3.442,3.421,3.588,3.778,3.454,3.698,-0.046,0.860,-0.559,-1.953,-1.068,0.000,73.333,34580.000,1.000
4.087,4.198,4.174,4.220,4.285,4.508,4.095,4.399,-0.042,0.860,-0.563,-2.014,-1.221,-0.031,73.333,34581.000,1.000
4.553,4.610,4.614,4.723,4.686,4.915,4.464,4.823,-0.042,0.860,-0.558,-2.136,-1.221,0.092,73.333,34582.000,1.000
4.631,4.574,4.625,4.764,4.649,4.858,4.461,4.817,-0.040,0.862,-0.561,-2.045,-1.251,0.000,73.333,34583.000,1.000
4.221,4.052,4.172,4.284,4.129,4.322,4.045,4.313,-0.038,0.860,-0.559,-2.045,-1.282,-0.061,73.333,34584.000,1.000
3.400,3.168,3.365,3.389,3.240,3.454,3.291,3.415,-0.040,0.860,-0.562,-2.106,-1.251,0.000,73.333,34585.000,1.000
2.302,2.064,2.325,2.226,2.144,2.393,2.290,2.273,-0.041,0.858,-0.559,-2.045,-1.221,0.153,73.333,34586.000,1.000
0.954,0.761,1.051,0.829,0.872,1.127,1.026,0.915,-0.043,0.860,-0.555,-1.984,-1.251,0.244,73.333,34587.000,1.000
-0.674,-0.795,-0.518,-0.830,-0.649,-0.430,-0.568,-0.704,-0.043,0.862,-0.556,-1.953,-1.221,0.336,73.333,34588.000,1.000
-2.522,-2.578,-2.344,-2.689,-2.426,-2.262,-2.440,-2.545,-0.043,0.864,-0.557,-2.075,-1.251,0.397,73.333,34589.000,1.000
-4.404,-4.435,-4.249,-4.554,-4.323,-4.193,-4.374,-4.435,-0.043,0.862,-0.554,-2.106,-1.221,0.397,73.333,34590.000,1.000
-6.137,-6.195,-6.046,-6.260,-6.163,-6.011,-6.147,-6.202,-0.043,0.865,-0.554,-2.106,-1.312,0.458,73.333,34591.000,1.000
-7.636,-7.750,-7.636,-7.751,-7.815,-7.586,-7.648,-7.747,-0.045,0.864,-0.556,-2.136,-1.251,0.427,73.333,34592.000,1.000
-8.875,-9.027,-8.957,-9.002,-9.171,-8.866,-8.849,-9.009,-0.044,0.862,-0.555,-2.228,-1.343,0.580,73.333,34593.000,1.000
-9.807,-9.946,-9.934,-9.956,-10.136,-9.819,-9.735,-9.921,-0.043,0.862,-0.555,-2.228,-1.343,0.580,73.333,34594.000,1.000
-10.305,-10.366,-10.443,-10.475,-10.598,-10.347,-10.226,-10.373,-0.043,0.862,-0.556,-2.258,-1.312,0.549,73.333,34595.000,1.000
-10.173,-10.106,-10.306,-10.342,-10.404,-10.261,-10.144,-10.193,-0.042,0.863,-0.553,-2.289,-1.434,0.549,73.333,34596.000,1.000
-9.209,-9.027,-9.345,-9.354,-9.396,-9.362,-9.279,-9.206,-0.042,0.862,-0.552,-2.258,-1.282,0.427,73.333,34597.000,1.000
-7.362,-7.164,-7.533,-7.492,-7.560,-7.603,-7.567,-7.391,-0.041,0.859,-0.553,-2.289,-1.312,0.305,73.333,34598.000,1.000
-4.906,-4.824,-5.150,-5.058,-5.172,-5.251,-5.252,-5.036,-0.041,0.858,-0.552,-2.319,-1.251,0.305,73.333,34599.000,1.000
-2.358,-2.458,-2.681,-2.544,-2.696,-2.782,-2.790,-2.621,-0.038,0.859,-0.557,-2.350,-1.160,0.366,73.333,34600.000,1.000
-0.217,-0.458,-0.569,-0.399,-0.554,-0.649,-0.618,-0.561,-0.037,0.860,-0.557,-2.258,-1.129,0.366,73.333,34601.000,1.000
1.277,1.009,0.987,1.167,1.053,0.919,1.029,0.978,-0.035,0.860,-0.559,-2.167,-1.007,0.427,73.333,34602.000,1.000
2.226,2.038,2.079,2.242,2.183,2.002,2.196,2.103,-0.034,0.858,-0.556,-2.136,-0.977,0.458,73.333,34603.000,1.000
2.921,2.850,2.944,3.064,3.040,2.849,3.091,3.031,-0.038,0.857,-0.556,-2.075,-0.946,0.397,73.333,34604.000,1.000
3.588,3.601,3.757,3.804,3.781,3.656,3.882,3.897,-0.039,0.860,-0.555,-2.045,-0.732,0.366,73.333,34605.000,1.000
4.215,4.243,4.470,4.428,4.377,4.392,4.543,4.626,-0.039,0.858,-0.556,-1.984,-0.671,0.214,73.333,34606.000,1.000
4.640,4.624,4.911,4.783,4.701,4.891,4.927,5.048,-0.038,0.860,-0.553,-2.014,-0.580,0.122,73.333,34607.000,1.000
4.760,4.686,4.986,4.787,4.713,5.040,4.961,5.095,-0.037,0.861,-0.554,-2.045,-0.488,0.061,73.333,34608.000,1.000
4.545,4.441,4.687,4.441,4.434,4.786,4.650,4.777,-0.037,0.863,-0.556,-2.014,-0.366,0.000,73.333,34609.000,1.000
4.003,3.906,4.055,3.781,3.879,4.120,4.033,4.118,-0.036,0.861,-0.554,-1.923,-0.305,0.000,73.333,34610.000,1.000
3.192,3.124,3.188,2.894,3.083,3.127,3.194,3.194,-0.037,0.861,-0.556,-1.831,-0.183,-0.061,73.333,34611.000,1.000
2.232,2.198,2.218,1.920,2.139,2.015,2.253,2.152,-0.038,0.860,-0.557,-1.709,-0.092,-0.092,73.333,34612.000,1.000
1.256,1.264,1.269,1.003,1.173,1.007,1.315,1.158,-0.040,0.859,-0.556,-1.678,-0.061,-0.183,73.333,34613.000,1.000
0.316,0.384,0.376,0.187,0.246,0.179,0.404,0.267,-0.039,0.860,-0.555,-1.556,0.000,-0.305,73.333,34614.000,1.000
-0.606,-0.462,-0.489,-0.578,-0.646,-0.554,-0.498,-0.566,-0.042,0.862,-0.555,-1.495,-0.031,-0.275,73.333,34615.000,1.000
-1.512,-1.287,-1.329,-1.326,-1.490,-1.286,-1.359,-1.380,-0.042,0.864,-0.553,-1.404,0.000,-0.366,73.333,34616.000,1.000
-2.318,-2.018,-2.055,-1.990,-2.203,-1.995,-2.069,-2.117,-0.042,0.865,-0.558,-1.343,0.031,-0.427,73.333,34617.000,1.000
-2.881,-2.523,-2.538,-2.445,-2.666,-2.545,-2.507,-2.642,-0.043,0.865,-0.557,-1.312,0.000,-0.397,73.333,34618.000,1.000
-3.050,-2.666,-2.662,-2.570,-2.764,-2.766,-2.590,-2.815,-0.046,0.867,-0.555,-1.221,-0.061,-0.397,73.333,34619.000,1.000
-2.668,-2.297,-2.305,-2.231,-2.358,-2.473,-2.210,-2.477,-0.045,0.868,-0.558,-1.251,-0.092,-0.549,73.333,34620.000,1.000
-1.630,-1.307,-1.363,-1.304,-1.337,-1.527,-1.255,-1.514,-0.044,0.868,-0.556,-1.190,-0.153,-0.427,73.333,34621.000,1.000
0.013,0.272,0.144,0.214,0.271,0.049,0.279,0.038,-0.047,0.867,-0.557,-1.160,-0.122,-0.519,73.333,34622.000,1.000
2.031,2.227,2.034,2.137,2.243,2.042,2.216,1.971,-0.046,0.867,-0.557,-1.129,-0.336,-0.458,73.333,34623.000,1.000
4.110,4.246,4.024,4.172,4.267,4.128,4.252,3.999,-0.047,0.868,-0.556,-1.099,-0.366,-0.458,73.333,34624.000,1.000
6.031,6.097,5.894,6.081,6.117,6.046,6.127,5.909,-0.047,0.867,-0.555,-0.977,-0.488,-0.366,73.333,34625.000,1.000
7.680,7.660,7.510,7.718,7.675,7.635,7.679,7.558,-0.049,0.864,-0.558,-0.946,-0.641,-0.397,73.333,34626.000,1.000
8.957,8.855,8.752,8.957,8.847,8.781,8.817,8.798,-0.047,0.864,-0.557,-0.854,-0.549,-0.427,73.333,34627.000,1.000
9.760,9.601,9.515,9.710,9.557,9.420,9.501,9.518,-0.045,0.860,-0.555,-0.702,-0.671,-0.366,73.333,34628.000,1.000
10.048,9.855,9.765,9.969,9.792,9.589,9.737,9.718,-0.044,0.858,-0.555,-0.549,-0.610,-0.244,73.333,34629.000,1.000
9.908,9.682,9.612,9.847,9.643,9.440,9.612,9.544,-0.043,0.858,-0.555,-0.488,-0.671,-0.336,73.333,34630.000,1.000
9.529,9.274,9.271,9.540,9.288,9.164,9.290,9.214,-0.042,0.856,-0.556,-0.488,-0.671,-0.275,73.333,34631.000,1.000
9.072,8.809,8.906,9.187,8.875,8.860,8.895,8.868,-0.043,0.855,-0.557,-0.305,-0.702,-0.214,73.333,34632.000,1.000
8.480,8.229,8.425,8.690,8.347,8.399,8.344,8.389,-0.041,0.853,-0.560,-0.244,-0.641,-0.244,73.333,34633.000,1.000
7.407,7.179,7.426,7.668,7.357,7.398,7.281,7.382,-0.039,0.854,-0.561,0.153,-0.519,-0.244,73.333,34634.000,1.000
5.531,5.338,5.555,5.787,5.576,5.543,5.391,5.505,-0.038,0.854,-0.559,0.214,-0.397,-0.397,73.333,34635.000,1.000
2.889,2.746,2.871,3.102,3.020,2.906,2.717,2.824,-0.040,0.853,-0.557,0.305,-0.427,-0.397,73.333,34636.000,1.000
-0.191,-0.270,-0.247,-0.026,-0.002,-0.152,-0.397,-0.287,-0.045,0.854,-0.558,0.427,-0.305,-0.275,73.333,34637.000,1.000
-3.378,-3.385,-3.427,-3.247,-3.158,-3.287,-3.598,-3.466,-0.048,0.855,-0.557,0.458,-0.214,-0.488,73.333,34638.000,1.000
-6.439,-6.369,-6.434,-6.330,-6.196,-6.282,-6.631,-6.481,-0.053,0.855,-0.552,0.641,-0.275,-0.549,73.333,34639.000,1.000
-9.090,-8.953,-9.024,-9.014,-8.828,-8.885,-9.227,-9.079,-0.055,0.857,-0.559,0.732,-0.336,-0.854,73.333,34640.000,1.000
-11.024,-10.860,-10.946,-10.999,-10.770,-10.821,-11.129,-10.984,-0.055,0.857,-0.562,0.702,-0.488,-1.007,73.333,34641.000,1.000
-12.135,-12.024,-12.122,-12.165,-11.940,-12.004,-12.270,-12.110,-0.052,0.860,-0.563,0.702,-0.610,-1.068,73.333,34642.000,1.000
-12.616,-12.628,-12.719,-12.677,-12.520,-12.602,-12.834,-12.643,-0.048,0.862,-0.558,0.671,-0.763,-1.038,73.333,34643.000,1.000
-12.789,-12.927,-13.013,-12.858,-12.787,-12.874,-13.098,-12.869,-0.043,0.863,-0.559,0.824,-0.763,-1.129,73.333,34644.000,1.000
-12.790,-12.988,-13.101,-12.861,-12.826,-12.903,-13.151,-12.899,-0.039,0.864,-0.561,0.732,-0.763,-1.190,73.333,34645.000,1.000
-12.437,-12.605,-12.784,-12.523,-12.436,-12.506,-12.789,-12.548,-0.038,0.865,-0.559,0.671,-0.732,-1.251,73.333,34646.000,1.000
-11.504,-11.582,-11.836,-11.619,-11.418,-11.509,-11.803,-11.608,-0.038,0.863,-0.557,0.549,-0.397,-1.190,73.333,34647.000,1.000
-10.099,-10.091,-10.360,-10.252,-9.939,-10.081,-10.327,-10.194,-0.040,0.862,-0.556,0.427,-0.183,-1.221,73.333,34648.000,1.000
-8.627,-8.587,-8.764,-8.821,-8.449,-8.647,-8.790,-8.706,-0.041,0.863,-0.559,0.458,-0.092,-1.221,73.333,34649.000,1.000
-7.365,-7.349,-7.356,-7.593,-7.234,-7.447,-7.494,-7.431,-0.044,0.863,-0.558,0.244,0.000,-1.099,73.333,34650.000,1.000
-6.303,-6.339,-6.189,-6.549,-6.264,-6.420,-6.459,-6.379,-0.046,0.862,-0.554,0.183,0.000,-1.038,73.333,34651.000,1.000
-5.389,-5.470,-5.253,-5.624,-5.452,-5.481,-5.626,-5.502,-0.049,0.865,-0.557,0.061,0.061,-0.946,73.333,34652.000,1.000
-4.679,-4.766,-4.594,-4.865,-4.800,-4.685,-4.988,-4.823,-0.054,0.868,-0.552,-0.122,0.061,-0.885,73.333,34653.000,1.000
-4.225,-4.262,-4.216,-4.326,-4.319,-4.110,-4.522,-4.357,-0.057,0.870,-0.555,-0.305,-0.031,-0.702,73.333,34654.000,1.000
-3.883,-3.843,-3.935,-3.893,-3.887,-3.670,-4.077,-3.957,-0.058,0.872,-0.554,-0.366,-0.183,-0.610,73.333,34655.000,1.000
-3.360,-3.281,-3.449,-3.315,-3.287,-3.127,-3.423,-3.354,-0.059,0.873,-0.560,-0.488,-0.305,-0.549,73.333,34656.000,1.000
-2.444,-2.406,-2.558,-2.417,-2.376,-2.288,-2.428,-2.368,-0.061,0.870,-0.558,-0.793,-0.549,-0.397,73.333,34657.000,1.000
-1.136,-1.205,-1.267,-1.196,-1.164,-1.117,-1.112,-1.018,-0.062,0.868,-0.559,-0.885,-0.763,-0.275,73.333,34658.000,1.000
0.425,0.250,0.322,0.281,0.276,0.325,0.457,0.574,-0.059,0.867,-0.559,-1.038,-1.068,-0.214,73.333,34659.000,1.000
2.145,1.938,2.171,2.012,1.945,2.025,2.264,2.353,-0.056,0.866,-0.561,-1.160,-1.160,-0.153,73.333,34660.000,1.000
3.979,3.843,4.234,3.976,3.845,3.964,4.257,4.278,-0.055,0.864,-0.565,-1.160,-1.221,-0.092,73.333,34661.000,1.000
5.843,5.838,6.350,6.025,5.857,6.009,6.260,6.225,-0.052,0.862,-0.560,-1.129,-1.404,0.183,73.333,34662.000,1.000
7.686,7.791,8.357,8.007,7.840,8.009,8.128,8.100,-0.050,0.859,-0.559,-1.129,-1.434,0.336,73.333,34663.000,1.000
9.548,9.681,10.218,9.895,9.748,9.907,9.877,9.929,-0.052,0.858,-0.560,-1.160,-1.434,0.519,73.333,34664.000,1.000
11.413,11.482,11.917,11.667,11.526,11.656,11.546,11.713,-0.050,0.859,-0.561,-1.160,-1.404,0.671,73.333,34665.000,1.000
13.003,12.959,13.239,13.094,12.936,13.047,12.947,13.205,-0.048,0.857,-0.561,-1.007,-1.465,0.793,73.333,34666.000,1.000
13.877,13.721,13.823,13.779,13.614,13.740,13.702,13.982,-0.045,0.858,-0.562,-1.007,-1.465,0.854,73.333,34667.000,1.000
13.733,13.494,13.423,13.449,13.323,13.491,13.512,13.737,-0.044,0.856,-0.559,-0.946,-1.373,0.885,73.333,34668.000,1.000
12.504,12.225,12.021,12.072,12.031,12.233,12.299,12.404,-0.046,0.858,-0.561,-0.977,-1.251,0.763,73.333,34669.000,1.000
10.244,9.979,9.719,9.759,9.803,10.010,10.121,10.063,-0.046,0.859,-0.564,-0.916,-1.190,0.885,73.333,34670.000,1.000
6.986,6.786,6.568,6.574,6.660,6.838,7.010,6.775,-0.048,0.860,-0.561,-0.977,-1.221,0.916,73.333,34671.000,1.000
2.762,2.661,2.566,2.526,2.609,2.726,2.969,2.585,-0.045,0.862,-0.560,-0.916,-1.251,0.854,73.333,34672.000,1.000
-2.180,-2.176,-2.126,-2.209,-2.158,-2.123,-1.814,-2.273,-0.046,0.864,-0.562,-0.824,-1.160,0.916,73.333,34673.000,1.000
-7.354,-7.260,-7.115,-7.203,-7.216,-7.255,-6.912,-7.338,-0.047,0.864,-0.562,-0.916,-1.160,0.763,73.333,34674.000,1.000
-12.246,-12.085,-11.945,-11.969,-12.081,-12.157,-11.820,-12.118,-0.044,0.864,-0.561,-1.007,-1.038,0.671,73.333,34675.000,1.000
-16.491,-16.295,-16.258,-16.165,-16.368,-16.448,-16.143,-16.273,-0.044,0.866,-0.559,-1.068,-0.946,0.702,73.333,34676.000,1.000
-19.833,-19.641,-19.745,-19.552,-19.773,-19.849,-19.581,-19.557,-0.045,0.866,-0.560,-1.190,-0.824,0.580,73.333,34677.000,1.000
-22.026,-21.862,-22.074,-21.848,-22.006,-22.079,-21.852,-21.712,-0.044,0.865,-0.560,-1.251,-0.854,0.610,73.333,34678.000,1.000
-22.887,-22.746,-22.994,-22.796,-22.855,-22.932,-22.761,-22.543,-0.046,0.868,-0.557,-1.282,-0.763,0.458,73.333,34679.000,1.000
-22.362,-22.222,-22.440,-22.289,-22.257,-22.354,-22.261,-21.990,-0.049,0.866,-0.557,-1.343,-0.732,0.336,73.333,34680.000,1.000
-20.517,-20.366,-20.508,-20.409,-20.298,-20.439,-20.432,-20.113,-0.050,0.866,-0.558,-1.465,-0.763,0.275,73.333,34681.000,1.000
-17.523,-17.372,-17.423,-17.384,-17.205,-17.398,-17.439,-17.099,-0.051,0.869,-0.556,-1.556,-0.702,0.214,73.333,34682.000,1.000
-13.644,-13.522,-13.510,-13.533,-13.312,-13.520,-13.542,-13.250,-0.051,0.870,-0.558,-1.678,-0.732,0.214,73.333,34683.000,1.000
-9.262,-9.210,-9.178,-9.252,-9.036,-9.185,-9.132,-8.967,-0.054,0.872,-0.555,-1.801,-0.824,0.153,73.333,34684.000,1.000
-4.833,-4.885,-4.847,-4.961,-4.802,-4.820,-4.678,-4.671,-0.055,0.866,-0.550,-1.984,-0.946,0.153,73.333,34685.000,1.000
-0.716,-0.868,-0.794,-0.936,-0.877,-0.751,-0.524,-0.653,-0.054,0.863,-0.551,-2.045,-1.068,0.031,73.333,34686.000,1.000
3.043,2.851,2.995,2.863,2.790,3.000,3.310,3.099,-0.054,0.862,-0.552,-2.197,-1.160,0.061,73.333,34687.000,1.000
6.727,6.581,6.795,6.737,6.524,6.711,7.102,6.871,-0.053,0.859,-0.556,-2.106,-1.190,0.061,73.333,34688.000,1.000
10.601,10.557,10.803,10.860,10.545,10.623,11.068,10.863,-0.051,0.858,-0.554,-1.892,-1.251,0.000,73.333,34689.000,1.000
14.562,14.614,14.847,14.987,14.655,14.607,15.046,14.869,-0.048,0.854,-0.557,-1.831,-1.343,-0.092,73.333,34690.000,1.000
18.167,18.254,18.451,18.571,18.320,18.202,18.562,18.365,-0.047,0.850,-0.556,-1.678,-1.312,-0.122,73.333,34691.000,1.000
20.984,21.046,21.189,21.202,21.081,20.969,21.205,20.924,-0.046,0.850,-0.556,-1.495,-1.373,-0.153,73.333,34692.000,1.000
22.892,22.919,22.977,22.888,22.867,22.795,22.920,22.533,-0.046,0.848,-0.559,-1.312,-1.373,-0.214,73.333,34693.000,1.000
23.946,23.989,23.922,23.814,23.815,23.768,23.835,23.384,-0.043,0.847,-0.561,-1.099,-1.221,-0.122,73.333,34694.000,1.000
24.051,24.195,23.980,23.934,23.890,23.847,23.905,23.464,-0.044,0.846,-0.561,-0.885,-1.160,-0.122,73.333,34695.000,1.000
22.966,23.271,22.926,22.960,22.858,22.828,22.883,22.520,-0.042,0.848,-0.559,-0.610,-1.068,-0.092,73.333,34696.000,1.000
20.647,21.090,20.685,20.758,20.634,20.646,20.658,20.415,-0.044,0.849,-0.558,-0.397,-1.007,-0.153,73.333,34697.000,1.000
17.430,17.899,17.532,17.588,17.492,17.570,17.470,17.363,-0.044,0.852,-0.559,-0.122,-0.793,-0.183,73.333,34698.000,1.000
13.759,14.106,13.862,13.851,13.831,13.968,13.707,13.715,-0.046,0.854,-0.561,-0.061,-0.641,-0.275,73.333,34699.000,1.000
9.818,9.939,9.848,9.753,9.831,9.986,9.587,9.650,-0.045,0.858,-0.560,0.153,-0.580,-0.336,73.333,34700.000,1.000
5.481,5.367,5.391,5.233,5.393,5.505,5.075,5.115,-0.047,0.859,-0.560,0.153,-0.549,-0.427,73.333,34701.000,1.000
0.577,0.334,0.385,0.211,0.405,0.424,0.096,0.050,-0.047,0.861,-0.559,0.244,-0.580,-0.397,73.333,34702.000,1.000
-4.772,-4.976,-4.998,-5.147,-4.961,-5.050,-5.194,-5.356,-0.048,0.865,-0.559,0.183,-0.427,-0.488,73.333,34703.000,1.000
-10.127,-10.173,-10.318,-10.419,-10.265,-10.441,-10.400,-10.662,-0.048,0.866,-0.554,0.244,-0.427,-0.549,73.333,34704.000,1.000
-14.943,-14.830,-15.058,-15.113,-15.010,-15.237,-15.055,-15.361,-0.050,0.867,-0.558,0.122,-0.336,-0.488,73.333,34705.000,1.000
-18.765,-18.594,-18.790,-18.810,-18.784,-19.025,-18.753,-19.039,-0.049,0.868,-0.561,0.092,-0.397,-0.488,73.333,34706.000,1.000
-21.235,-21.128,-21.171,-21.167,-21.234,-21.454,-21.140,-21.357,-0.049,0.870,-0.561,0.153,-0.336,-0.397,73.333,34707.000,1.000
-22.043,-22.063,-21.899,-21.876,-22.018,-22.204,-21.892,-22.022,-0.050,0.873,-0.559,0.092,-0.305,-0.458,73.333,34708.000,1.000
-21.037,-21.172,-20.837,-20.804,-20.975,-21.141,-20.869,-20.919,-0.053,0.872,-0.559,-0.153,-0.244,-0.427,73.333,34709.000,1.000
-18.361,-18.540,-18.155,-18.128,-18.269,-18.440,-18.233,-18.233,-0.055,0.870,-0.557,-0.275,-0.305,-0.397,73.333,34710.000,1.000
-14.470,-14.606,-14.335,-14.326,-14.376,-14.566,-14.428,-14.425,-0.053,0.870,-0.558,-0.366,-0.244,-0.366,73.333,34711.000,1.000
-10.005,-10.047,-10.000,-10.025,-9.922,-10.131,-10.047,-10.094,-0.053,0.871,-0.559,-0.397,-0.397,-0.183,73.333,34712.000,1.000
-5.536,-5.499,-5.651,-5.731,-5.457,-5.659,-5.612,-5.746,-0.053,0.870,-0.559,-0.519,-0.488,-0.183,73.333,34713.000,1.000
-1.410,-1.354,-1.566,-1.715,-1.334,-1.479,-1.468,-1.671,-0.052,0.868,-0.559,-0.702,-0.549,-0.122,73.333,34714.000,1.000
2.251,2.272,2.132,1.938,2.309,2.268,2.226,2.026,-0.052,0.865,-0.560,-0.763,-0.458,-0.061,73.333,34715.000,1.000
5.464,5.441,5.405,5.234,5.491,5.563,5.453,5.343,-0.052,0.867,-0.562,-0.854,-0.610,0.183,73.333,34716.000,1.000
8.280,8.240,8.247,8.175,8.281,8.429,8.242,8.288,-0.052,0.865,-0.563,-0.916,-0.671,0.336,73.333,34717.000,1.000
10.730,10.700,10.673,10.729,10.730,10.889,10.624,10.845,-0.052,0.866,-0.564,-1.038,-0.732,0.427,73.333,34718.000,1.000
12.769,12.767,12.652,12.815,12.804,12.907,12.577,12.941,-0.051,0.861,-0.561,-0.977,-0.641,0.580,73.333,34719.000,1.000
14.254,14.287,14.070,14.296,14.359,14.356,13.995,14.437,-0.051,0.863,-0.560,-0.946,-0.702,0.793,73.333,34720.000,1.000
14.954,15.011,14.719,14.970,15.128,15.014,14.668,15.124,-0.051,0.864,-0.557,-1.099,-0.763,0.946,73.333,34721.000,1.000
14.589,14.649,14.351,14.593,14.780,14.612,14.321,14.742,-0.052,0.865,-0.555,-1.007,-0.824,1.099,73.333,34722.000,1.000
12.974,13.024,12.804,13.003,13.098,12.983,12.771,13.118,-0.052,0.864,-0.561,-1.068,-0.854,1.221,73.333,34723.000,1.000
10.134,10.177,10.103,10.236,10.141,10.178,10.044,10.292,-0.050,0.863,-0.559,-1.099,-0.885,1.221,73.333,34724.000,1.000
6.352,6.388,6.492,6.553,6.251,6.477,6.402,6.542,-0.050,0.863,-0.561,-1.099,-0.916,1.282,73.333,34725.000,1.000
2.054,2.069,2.340,2.338,1.893,2.259,2.219,2.276,-0.047,0.862,-0.556,-1.190,-1.038,1.312,73.333,34726.000,1.000
-2.369,-2.388,-2.009,-2.057,-2.539,-2.153,-2.169,-2.142,-0.049,0.861,-0.556,-1.221,-1.068,1.312,73.333,34727.000,1.000
-6.619,-6.683,-6.289,-6.357,-6.770,-6.504,-6.484,-6.444,-0.050,0.861,-0.555,-1.160,-1.099,1.434,73.333,34728.000,1.000
-10.530,-10.653,-10.327,-10.391,-10.662,-10.605,-10.526,-10.476,-0.051,0.861,-0.557,-1.312,-1.190,1.495,73.333,34729.000,1.000
-14.077,-14.263,-14.044,-14.088,-14.206,-14.345,-14.197,-14.180,-0.050,0.860,-0.554,-1.404,-1.129,1.434,73.333,34730.000,1.000
-17.292,-17.513,-17.387,-17.412,-17.434,-17.651,-17.456,-17.512,-0.051,0.859,-0.557,-1.312,-1.282,1.404,73.333,34731.000,1.000
-20.116,-20.318,-20.243,-20.271,-20.283,-20.423,-20.216,-20.360,-0.052,0.860,-0.552,-1.282,-1.373,1.373,73.333,34732.000,1.000
-22.336,-22.477,-22.400,-22.463,-22.528,-22.486,-22.306,-22.505,-0.052,0.858,-0.553,-1.282,-1.434,1.312,73.333,34733.000,1.000
-23.649,-23.729,-23.607,-23.730,-23.850,-23.632,-23.508,-23.684,-0.050,0.858,-0.557,-1.190,-1.556,1.312,73.333,34734.000,1.000
-23.720,-23.776,-23.613,-23.789,-23.908,-23.615,-23.562,-23.620,-0.052,0.859,-0.558,-1.099,-1.648,1.251,73.333,34735.000,1.000
-22.270,-22.352,-22.211,-22.396,-22.436,-22.198,-22.211,-22.101,-0.052,0.863,-0.555,-1.129,-1.709,1.099,73.333,34736.000,1.000
-19.284,-19.425,-19.383,-19.521,-19.437,-19.334,-19.395,-19.152,-0.050,0.862,-0.556,-1.190,-1.770,1.038,73.333,34737.000,1.000
-15.108,-15.302,-15.401,-15.452,-15.267,-15.297,-15.377,-15.105,-0.048,0.861,-0.555,-1.099,-1.892,0.854,73.333,34738.000,1.000
-10.321,-10.527,-10.747,-10.717,-10.488,-10.590,-10.667,-10.479,-0.046,0.861,-0.555,-1.190,-1.831,0.854,73.333,34739.000,1.000
-5.476,-5.632,-5.916,-5.854,-5.613,-5.712,-5.811,-5.755,-0.043,0.860,-0.555,-1.099,-1.801,0.793,73.333,34740.000,1.000
-0.949,-1.007,-1.300,-1.255,-0.984,-1.043,-1.226,-1.259,-0.042,0.856,-0.554,-1.160,-1.709,0.702,73.333,34741.000,1.000
3.063,3.106,2.827,2.852,3.187,3.154,2.848,2.808,-0.040,0.857,-0.555,-1.068,-1.556,0.702,73.333,34742.000,1.000
6.506,6.601,6.331,6.378,6.790,6.738,6.335,6.348,-0.041,0.857,-0.555,-0.977,-1.434,0.702,73.333,34743.000,1.000
9.384,9.471,9.188,9.307,9.765,9.667,9.238,9.308,-0.040,0.857,-0.552,-0.916,-1.190,0.488,73.333,34744.000,1.000
11.715,11.759,11.444,11.658,12.097,11.964,11.583,11.672,-0.040,0.858,-0.557,-0.702,-1.099,0.427,73.333,34745.000,1.000
13.497,13.484,13.130,13.420,13.781,13.644,13.361,13.407,-0.041,0.855,-0.558,-0.763,-0.946,0.458,73.333,34746.000,1.000
14.572,14.499,14.118,14.434,14.689,14.587,14.406,14.367,-0.041,0.854,-0.563,-0.702,-0.885,0.305,73.333,34747.000,1.000
14.632,14.508,14.145,14.429,14.575,14.554,14.442,14.317,-0.041,0.855,-0.561,-0.641,-0.671,0.214,73.333,34748.000,1.000
13.454,13.294,13.020,13.227,13.278,13.373,13.289,13.104,-0.042,0.855,-0.562,-0.580,-0.549,0.092,73.333,34749.000,1.000
11.174,10.986,10.866,10.981,10.966,11.168,11.092,10.870,-0.043,0.857,-0.562,-0.488,-0.366,0.000,73.333,34750.000,1.000
8.245,8.038,8.108,8.127,8.084,8.333,8.275,8.039,-0.046,0.859,-0.560,-0.397,-0.336,-0.122,73.333,34751.000,1.000
5.090,4.894,5.141,5.060,5.024,5.245,5.206,5.007,-0.046,0.861,-0.562,-0.427,-0.122,-0.214,73.333,34752.000,1.000
1.907,1.783,2.122,1.950,1.939,2.088,2.038,1.953,-0.045,0.862,-0.561,-0.458,-0.031,-0.305,73.333,34753.000,1.000
-1.239,-1.226,-0.933,-1.150,-1.144,-1.067,-1.168,-1.070,-0.047,0.862,-0.561,-0.427,0.061,-0.366,73.333,34754.000,1.000
-4.233,-4.055,-3.918,-4.107,-4.115,-4.089,-4.249,-3.944,-0.048,0.862,-0.560,-0.580,0.092,-0.458,73.333,34755.000,1.000
-6.837,-6.516,-6.549,-6.652,-6.713,-6.717,-6.893,-6.425,-0.049,0.862,-0.560,-0.671,0.092,-0.549,73.333,34756.000,1.000
-8.746,-8.346,-8.471,-8.487,-8.630,-8.633,-8.763,-8.219,-0.052,0.862,-0.558,-0.702,0.153,-0.641,73.333,34757.000,1.000
-9.685,-9.277,-9.392,-9.383,-9.598,-9.562,-9.603,-9.077,-0.050,0.865,-0.557,-0.610,0.092,-0.641,73.333,34758.000,1.000
-9.503,-9.128,-9.174,-9.210,-9.463,-9.350,-9.299,-8.860,-0.053,0.865,-0.556,-0.610,0.122,-0.671,73.333,34759.000,1.000
-8.182,-7.834,-7.830,-7.930,-8.182,-7.977,-7.869,-7.555,-0.056,0.867,-0.560,-0.763,0.092,-0.732,73.333,34760.000,1.000
-5.842,-5.477,-5.496,-5.619,-5.854,-5.571,-5.454,-5.273,-0.054,0.867,-0.561,-0.732,0.122,-0.671,73.333,34761.000,1.000
-2.751,-2.317,-2.427,-2.514,-2.730,-2.427,-2.330,-2.263,-0.057,0.866,-0.558,-0.793,0.122,-0.580,73.333,34762.000,1.000
0.751,1.274,1.070,1.052,0.844,1.085,1.171,1.165,-0.057,0.863,-0.557,-0.824,-0.092,-0.610,73.333,34763.000,1.000
4.312,4.887,4.656,4.704,4.480,4.597,4.714,4.684,-0.058,0.862,-0.558,-0.885,0.000,-0.610,73.333,34764.000,1.000
7.643,8.182,8.022,8.113,7.850,7.830,8.024,8.004,-0.057,0.861,-0.560,-0.977,-0.092,-0.610,73.333,34765.000,1.000
10.619,11.014,11.009,11.107,10.801,10.682,10.965,10.958,-0.057,0.859,-0.558,-0.977,-0.244,-0.549,73.333,34766.000,1.000
13.236,13.426,13.599,13.662,13.344,13.186,13.517,13.503,-0.058,0.859,-0.557,-0.824,-0.366,-0.427,73.333,34767.000,1.000
15.503,15.521,15.813,15.796,15.527,15.387,15.689,15.641,-0.058,0.860,-0.557,-0.763,-0.488,-0.366,73.333,34768.000,1.000
17.355,17.308,17.611,17.475,17.333,17.239,17.435,17.333,-0.055,0.860,-0.560,-0.732,-0.488,-0.305,73.333,34769.000,1.000
18.701,18.691,18.930,18.646,18.679,18.628,18.700,18.533,-0.055,0.859,-0.560,-0.610,-0.549,-0.214,73.333,34770.000,1.000
19.477,19.537,19.721,19.288,19.477,19.446,19.456,19.223,-0.053,0.860,-0.554,-0.519,-0.732,-0.061,73.333,34771.000,1.000
19.574,19.660,19.846,19.325,19.582,19.564,19.595,19.303,-0.053,0.860,-0.558,-0.488,-0.671,0.000,73.333,34772.000,1.000
18.798,18.828,19.048,18.548,18.766,18.787,18.873,18.547,-0.048,0.857,-0.562,-0.458,-0.671,0.122,73.333,34773.000,1.000
16.972,16.894,17.120,16.748,16.846,16.944,17.055,16.742,-0.050,0.857,-0.560,-0.336,-0.641,0.244,73.333,34774.000,1.000
14.135,13.954,14.132,13.930,13.892,14.077,14.150,13.910,-0.049,0.856,-0.562,-0.427,-0.610,0.336,73.333,34775.000,1.000
10.552,10.324,10.412,10.336,10.233,10.471,10.454,10.322,-0.050,0.854,-0.562,-0.305,-0.580,0.458,73.333,34776.000,1.000
6.546,6.333,6.321,6.278,6.242,6.466,6.350,6.313,-0.049,0.856,-0.559,-0.153,-0.488,0.671,73.333,34777.000,1.000
2.395,2.227,2.148,2.064,2.206,2.339,2.168,2.174,-0.050,0.857,-0.564,0.000,-0.458,0.671,73.333,34778.000,1.000
-1.643,-1.778,-1.855,-1.996,-1.663,-1.675,-1.812,-1.819,-0.051,0.858,-0.561,0.031,-0.458,0.854,73.333,34779.000,1.000
-5.266,-5.385,-5.395,-5.555,-5.131,-5.280,-5.305,-5.349,-0.052,0.861,-0.560,0.061,-0.427,0.854,73.333,34780.000,1.000
-8.135,-8.225,-8.155,-8.261,-7.905,-8.125,-8.010,-8.084,-0.054,0.861,-0.556,0.000,-0.336,0.916,73.333,34781.000,1.000
-9.981,-10.011,-9.908,-9.889,-9.726,-9.933,-9.707,-9.801,-0.053,0.863,-0.557,0.031,-0.366,0.793,73.333,34782.000,1.000
-10.666,-10.628,-10.563,-10.393,-10.453,-10.582,-10.308,-10.436,-0.053,0.864,-0.557,-0.031,-0.366,0.824,73.333,34783.000,1.000
-10.238,-10.170,-10.197,-9.915,-10.131,-10.149,-9.897,-10.096,-0.052,0.864,-0.557,-0.061,-0.336,0.854,73.333,34784.000,1.000
-8.942,-8.919,-9.033,-8.723,-8.986,-8.896,-8.723,-9.018,-0.052,0.865,-0.562,-0.214,-0.214,0.763,73.333,34785.000,1.000
-7.132,-7.234,-7.374,-7.112,-7.325,-7.168,-7.119,-7.477,-0.049,0.865,-0.562,-0.305,-0.305,0.793,73.333,34786.000,1.000
-5.190,-5.448,-5.550,-5.353,-5.461,-5.309,-5.402,-5.740,-0.044,0.862,-0.563,-0.427,-0.183,0.702,73.333,34787.000,1.000
-3.442,-3.818,-3.854,-3.669,-3.666,-3.601,-3.813,-4.037,-0.042,0.860,-0.562,-0.397,-0.122,0.793,73.333,34788.000,1.000
-2.065,-2.473,-2.441,-2.204,-2.117,-2.200,-2.475,-2.517,-0.039,0.856,-0.565,-0.519,0.000,0.763,73.333,34789.000,1.000
-0.960,-1.305,-1.210,-0.907,-0.771,-1.016,-1.288,-1.124,-0.037,0.853,-0.568,-0.336,0.244,0.885,73.333,34790.000,1.000
0.242,0.032,0.169,0.488,0.642,0.289,0.068,0.410,-0.036,0.851,-0.563,-0.366,0.427,0.885,73.333,34791.000,1.000
1.909,1.868,2.001,2.270,2.409,2.047,1.898,2.345,-0.035,0.852,-0.562,-0.183,0.519,0.854,73.333,34792.000,1.000
4.153,4.267,4.348,4.535,4.622,4.334,4.264,4.727,-0.036,0.856,-0.566,-0.183,0.793,0.824,73.333,34793.000,1.000
6.756,6.955,6.979,7.085,7.103,6.912,6.917,7.325,-0.036,0.857,-0.563,-0.183,0.885,0.885,73.333,34794.000,1.000
9.291,9.472,9.477,9.526,9.484,9.367,9.419,9.739,-0.039,0.862,-0.562,-0.183,0.977,0.885,73.333,34795.000,1.000
11.307,11.379,11.400,11.441,11.364,11.287,11.330,11.566,-0.043,0.864,-0.557,-0.244,1.129,0.854,73.333,34796.000,1.000
12.462,12.382,12.415,12.513,12.416,12.368,12.345,12.527,-0.047,0.867,-0.560,-0.336,1.160,0.824,73.333,34797.000,1.000
12.632,12.413,12.442,12.626,12.515,12.509,12.395,12.562,-0.052,0.865,-0.558,-0.488,1.190,0.671,73.333,34798.000,1.000
11.886,11.586,11.599,11.840,11.727,11.784,11.595,11.765,-0.057,0.865,-0.562,-0.488,1.099,0.519,73.333,34799.000,1.000
10.351,10.051,10.045,10.284,10.187,10.312,10.087,10.231,-0.061,0.863,-0.562,-0.580,0.793,0.275,73.333,34800.000,1.000
8.148,7.904,7.888,8.081,8.011,8.178,7.968,8.025,-0.063,0.863,-0.562,-0.549,0.610,0.214,73.333,34801.000,1.000
5.380,5.191,5.202,5.326,5.281,5.440,5.292,5.210,-0.063,0.863,-0.562,-0.580,0.397,0.000,73.333,34802.000,1.000
2.190,2.018,2.108,2.149,2.128,2.229,2.168,1.936,-0.061,0.863,-0.563,-0.580,0.092,-0.153,73.333,34803.000,1.000
-1.186,-1.367,-1.168,-1.204,-1.197,-1.188,-1.167,-1.515,-0.060,0.860,-0.563,-0.580,-0.214,-0.275,73.333,34804.000,1.000
-4.408,-4.589,-4.299,-4.359,-4.335,-4.426,-4.342,-4.752,-0.059,0.860,-0.562,-0.519,-0.519,-0.336,73.333,34805.000,1.000
-7.091,-7.255,-6.926,-6.937,-6.921,-7.091,-6.971,-7.390,-0.059,0.861,-0.563,-0.610,-0.610,-0.519,73.333,34806.000,1.000
-8.913,-9.058,-8.749,-8.677,-8.679,-8.894,-8.765,-9.151,-0.057,0.862,-0.556,-0.671,-0.854,-0.488,73.333,34807.000,1.000
-9.662,-9.811,-9.552,-9.430,-9.427,-9.660,-9.551,-9.870,-0.058,0.865,-0.556,-0.824,-0.977,-0.549,73.333,34808.000,1.000
-9.295,-9.476,-9.275,-9.166,-9.112,-9.340,-9.296,-9.525,-0.056,0.865,-0.562,-0.824,-1.099,-0.519,73.333,34809.000,1.000
-7.952,-8.167,-8.025,-7.968,-7.829,-8.024,-8.105,-8.229,-0.054,0.865,-0.560,-0.854,-1.160,-0.488,73.333,34810.000,1.000
-5.917,-6.130,-6.033,-6.026,-5.820,-5.957,-6.194,-6.197,-0.053,0.863,-0.557,-0.977,-1.373,-0.336,73.333,34811.000,1.000
-3.598,-3.757,-3.647,-3.661,-3.477,-3.549,-3.904,-3.764,-0.053,0.864,-0.558,-0.885,-1.465,-0.275,73.333,34812.000,1.000
-1.360,-1.446,-1.241,-1.232,-1.190,-1.205,-1.589,-1.301,-0.053,0.863,-0.559,-1.007,-1.526,-0.122,73.333,34813.000,1.000
0.630,0.586,0.907,0.981,0.824,0.845,0.519,0.919,-0.054,0.863,-0.562,-1.129,-1.648,0.000,73.333,34814.000,1.000
2.354,2.297,2.650,2.802,2.500,2.535,2.316,2.746,-0.052,0.863,-0.560,-1.160,-1.831,0.183,73.333,34815.000,1.000
3.815,3.707,3.965,4.158,3.841,3.875,3.775,4.133,-0.052,0.863,-0.560,-1.282,-1.892,0.366,73.333,34816.000,1.000
4.975,4.829,4.906,5.079,4.857,4.886,4.905,5.112,-0.053,0.861,-0.560,-1.404,-1.831,0.427,73.333,34817.000,1.000
5.790,5.663,5.560,5.655,5.560,5.597,5.728,5.755,-0.055,0.859,-0.561,-1.343,-1.892,0.549,73.333,34818.000,1.000
6.211,6.162,5.959,5.938,5.937,6.001,6.218,6.088,-0.053,0.859,-0.557,-1.404,-2.014,0.732,73.333,34819.000,1.000
6.207,6.261,6.065,5.926,5.965,6.058,6.317,6.084,-0.052,0.860,-0.556,-1.434,-2.106,0.854,73.333,34820.000,1.000
5.806,5.932,5.828,5.614,5.640,5.746,6.006,5.718,-0.052,0.860,-0.554,-1.434,-2.136,0.916,73.333,34821.000,1.000
5.054,5.182,5.190,4.966,4.959,5.071,5.274,4.977,-0.050,0.858,-0.559,-1.617,-2.136,1.038,73.333,34822.000,1.000
3.940,4.011,4.090,3.897,3.886,4.015,4.093,3.828,-0.049,0.859,-0.559,-1.587,-2.106,1.160,73.333,34823.000,1.000
2.317,2.327,2.410,2.250,2.271,2.437,2.358,2.158,-0.047,0.860,-0.560,-1.617,-2.045,1.282,73.333,34824.000,1.000
-0.066,-0.069,-0.026,-0.179,-0.126,0.079,-0.104,-0.223,-0.045,0.861,-0.561,-1.587,-1.953,1.221,73.333,34825.000,1.000
-3.308,-3.277,-3.265,-3.456,-3.397,-3.179,-3.353,-3.399,-0.045,0.862,-0.560,-1.556,-1.831,1.160,73.333,34826.000,1.000
-7.141,-7.067,-7.048,-7.311,-7.271,-7.074,-7.138,-7.142,-0.045,0.861,-0.560,-1.617,-1.648,1.129,73.333,34827.000,1.000
-10.978,-10.892,-10.848,-11.168,-11.155,-10.998,-10.923,-10.923,-0.044,0.860,-0.558,-1.648,-1.587,1.129,73.333,34828.000,1.000
-14.244,-14.192,-14.149,-14.462,-14.469,-14.343,-14.174,-14.193,-0.042,0.861,-0.560,-1.648,-1.495,1.038,73.333,34829.000,1.000
-16.651,-16.671,-16.676,-16.914,-16.911,-16.797,-16.618,-16.656,-0.039,0.861,-0.560,-1.678,-1.373,0.946,73.333,34830.000,1.000
-18.212,-18.315,-18.393,-18.537,-18.478,-18.365,-18.261,-18.299,-0.039,0.861,-0.559,-1.709,-1.068,1.038,73.333,34831.000,1.000
-19.130,-19.289,-19.434,-19.517,-19.372,-19.265,-19.283,-19.307,-0.038,0.861,-0.562,-1.801,-0.854,1.099,73.333,34832.000,1.000
-19.606,-19.778,-19.971,-20.046,-19.828,-19.730,-19.851,-19.873,-0.039,0.861,-0.558,-1.709,-0.671,0.916,73.333,34833.000,1.000
-19.682,-19.834,-20.058,-20.150,-19.928,-19.839,-19.971,-20.023,-0.043,0.860,-0.558,-1.587,-0.549,0.946,73.333,34834.000,1.000
-19.191,-19.310,-19.561,-19.643,-19.518,-19.433,-19.465,-19.565,-0.041,0.858,-0.559,-1.556,-0.427,0.824,73.333,34835.000,1.000
-17.907,-17.981,-18.270,-18.281,-18.330,-18.257,-18.120,-18.242,-0.042,0.859,-0.560,-1.556,-0.183,0.763,73.333,34836.000,1.000
-15.835,-15.826,-16.162,-16.057,-16.289,-16.257,-15.947,-16.028,-0.044,0.859,-0.557,-1.526,-0.092,0.671,73.333,34837.000,1.000
-13.268,-13.119,-13.494,-13.274,-13.633,-13.677,-13.245,-13.222,-0.041,0.858,-0.558,-1.465,0.061,0.580,73.333,34838.000,1.000
-10.566,-10.234,-10.631,-10.343,-10.738,-10.863,-10.402,-10.245,-0.042,0.859,-0.561,-1.434,0.214,0.610,73.333,34839.000,1.000
-7.919,-7.401,-7.807,-7.522,-7.856,-8.016,-7.637,-7.366,-0.042,0.859,-0.559,-1.251,0.305,0.519,73.333,34840.000,1.000
-5.318,-4.662,-5.076,-4.857,-5.071,-5.176,-4.972,-4.645,-0.042,0.859,-0.560,-1.221,0.427,0.397,73.333,34841.000,1.000
-2.736,-2.035,-2.455,-2.324,-2.421,-2.395,-2.392,-2.086,-0.041,0.858,-0.560,-1.038,0.488,0.336,73.333,34842.000,1.000
-0.184,0.445,0.040,0.105,0.080,0.236,0.104,0.316,-0.041,0.857,-0.559,-0.946,0.641,0.183,73.333,34843.000,1.000
2.295,2.754,2.408,2.444,2.446,2.645,2.500,2.575,-0.040,0.859,-0.559,-0.977,0.885,0.122,73.333,34844.000,1.000
4.624,4.872,4.634,4.661,4.673,4.797,4.743,4.686,-0.042,0.859,-0.560,-0.916,0.854,-0.031,73.333,34845.000,1.000
6.737,6.803,6.688,6.706,6.736,6.714,6.783,6.639,-0.044,0.857,-0.562,-0.793,0.946,-0.122,73.333,34846.000,1.000
8.609,8.567,8.542,8.543,8.608,8.449,8.605,8.433,-0.044,0.859,-0.562,-0.824,0.916,-0.092,73.333,34847.000,1.000
10.243,10.171,10.184,10.152,10.264,10.035,10.218,10.073,-0.045,0.860,-0.561,-0.702,1.007,-0.122,73.333,34848.000,1.000
11.598,11.533,11.548,11.476,11.621,11.403,11.573,11.491,-0.046,0.862,-0.559,-0.580,1.007,-0.183,73.333,34849.000,1.000
12.538,12.474,12.482,12.381,12.519,12.382,12.530,12.522,-0.047,0.862,-0.561,-0.580,1.007,-0.122,73.333,34850.000,1.000
12.933,12.837,12.842,12.738,12.833,12.812,12.936,13.001,-0.048,0.862,-0.560,-0.610,0.946,-0.244,73.333,34851.000,1.000
12.750,12.596,12.623,12.524,12.578,12.645,12.743,12.865,-0.051,0.863,-0.557,-0.580,0.885,-0.366,73.333,34852.000,1.000
12.075,11.874,11.956,11.859,11.900,11.966,12.042,12.186,-0.053,0.861,-0.557,-0.549,0.732,-0.366,73.333,34853.000,1.000
11.041,10.830,10.984,10.896,10.939,10.893,10.978,11.092,-0.052,0.863,-0.558,-0.671,0.641,-0.397,73.333,34854.000,1.000
9.792,9.614,9.816,9.765,9.793,9.556,9.705,9.745,-0.052,0.863,-0.558,-0.610,0.610,-0.458,73.333,34855.000,1.000
8.496,8.385,8.575,8.587,8.576,8.151,8.403,8.363,-0.052,0.860,-0.560,-0.488,0.549,-0.580,73.333,34856.000,1.000
7.227,7.207,7.327,7.402,7.344,6.822,7.181,7.083,-0.053,0.858,-0.558,-0.549,0.458,-0.580,73.333,34857.000,1.000
5.897,5.974,5.995,6.101,6.017,5.538,5.961,5.840,-0.055,0.855,-0.559,-0.519,0.366,-0.641,73.333,34858.000,1.000
4.335,4.491,4.424,4.509,4.439,4.123,4.549,4.427,-0.053,0.854,-0.561,-0.427,0.122,-0.580,73.333,34859.000,1.000
2.535,2.739,2.613,2.634,2.616,2.515,2.887,2.762,-0.054,0.853,-0.563,-0.305,0.031,-0.519,73.333,34860.000,1.000
0.788,1.028,0.861,0.812,0.869,0.949,1.224,1.086,-0.052,0.849,-0.562,-0.153,-0.031,-0.458,73.333,34861.000,1.000
-0.526,-0.239,-0.453,-0.541,-0.397,-0.238,-0.093,-0.236,-0.051,0.848,-0.565,-0.031,-0.244,-0.458,73.333,34862.000,1.000
-1.264,-0.926,-1.194,-1.273,-1.044,-0.924,-0.918,-1.037,-0.048,0.848,-0.569,0.092,-0.305,-0.549,73.333,34863.000,1.000
-1.599,-1.239,-1.531,-1.571,-1.282,-1.270,-1.377,-1.427,-0.043,0.847,-0.569,0.305,-0.244,-0.488,73.333,34864.000,1.000
-1.781,-1.450,-1.706,-1.701,-1.402,-1.479,-1.653,-1.597,-0.041,0.849,-0.567,0.366,-0.183,-0.427,73.333,34865.000,1.000
-1.875,-1.625,-1.785,-1.745,-1.492,-1.580,-1.787,-1.609,-0.042,0.853,-0.569,0.427,-0.092,-0.458,73.333,34866.000,1.000
-1.821,-1.703,-1.741,-1.670,-1.511,-1.542,-1.747,-1.469,-0.042,0.856,-0.566,0.458,-0.031,-0.336,73.333,34867.000,1.000
-1.689,-1.723,-1.659,-1.557,-1.527,-1.487,-1.628,-1.317,-0.045,0.862,-0.565,0.488,0.122,-0.366,73.333,34868.000,1.000
-1.786,-1.923,-1.813,-1.696,-1.795,-1.710,-1.731,-1.472,-0.050,0.865,-0.559,0.366,0.122,-0.183,73.333,34869.000,1.000
-2.428,-2.542,-2.458,-2.362,-2.545,-2.457,-2.353,-2.208,-0.052,0.870,-0.561,0.183,0.092,-0.244,73.333,34870.000,1.000
-3.596,-3.555,-3.548,-3.510,-3.712,-3.658,-3.481,-3.465,-0.054,0.875,-0.560,-0.092,0.031,-0.214,73.333,34871.000,1.000
-4.967,-4.714,-4.793,-4.829,-4.988,-4.995,-4.820,-4.896,-0.057,0.876,-0.560,-0.366,-0.031,-0.183,73.333,34872.000,1.000
-6.195,-5.779,-5.923,-6.026,-6.086,-6.159,-6.049,-6.163,-0.062,0.874,-0.557,-0.671,-0.214,-0.214,73.333,34873.000,1.000
-7.091,-6.642,-6.803,-6.950,-6.874,-7.002,-6.981,-7.089,-0.062,0.876,-0.556,-1.068,-0.458,-0.183,73.333,34874.000,1.000
-7.578,-7.239,-7.348,-7.518,-7.316,-7.483,-7.525,-7.603,-0.065,0.875,-0.557,-1.343,-0.763,-0.214,73.333,34875.000,1.000
-7.587,-7.449,-7.448,-7.619,-7.354,-7.551,-7.591,-7.629,-0.067,0.874,-0.560,-1.648,-1.038,-0.275,73.333,34876.000,1.000
-7.084,-7.162,-7.041,-7.199,-6.942,-7.152,-7.147,-7.154,-0.068,0.873,-0.557,-1.984,-1.373,-0.183,73.333,34877.000,1.000
-6.183,-6.429,-6.233,-6.367,-6.171,-6.349,-6.327,-6.322,-0.068,0.869,-0.561,-2.167,-1.556,-0.244,73.333,34878.000,1.000
-5.141,-5.486,-5.267,-5.368,-5.270,-5.354,-5.396,-5.398,-0.066,0.867,-0.562,-2.258,-1.770,-0.061,73.333,34879.000,1.000
-4.118,-4.492,-4.274,-4.340,-4.355,-4.314,-4.475,-4.491,-0.062,0.862,-0.563,-2.380,-2.045,-0.061,73.333,34880.000,1.000
-2.939,-3.285,-3.063,-3.108,-3.210,-3.082,-3.340,-3.361,-0.057,0.856,-0.565,-2.289,-2.289,0.000,73.333,34881.000,1.000
-1.226,-1.497,-1.267,-1.322,-1.443,-1.313,-1.606,-1.601,-0.053,0.853,-0.567,-2.197,-2.411,0.214,73.333,34882.000,1.000
1.317,1.150,1.369,1.280,1.214,1.273,0.973,1.053,-0.051,0.846,-0.570,-2.106,-2.411,0.305,73.333,34883.000,1.000
4.712,4.651,4.824,4.694,4.730,4.685,4.359,4.545,-0.046,0.843,-0.571,-2.045,-2.441,0.427,73.333,34884.000,1.000
8.670,8.677,8.782,8.620,8.766,8.627,8.246,8.514,-0.043,0.839,-0.571,-1.801,-2.441,0.488,73.333,34885.000,1.000
12.668,12.678,12.737,12.554,12.769,12.604,12.157,12.437,-0.042,0.839,-0.572,-1.465,-2.289,0.580,73.333,34886.000,1.000
16.055,16.015,16.083,15.894,16.098,16.012,15.522,15.740,-0.040,0.839,-0.572,-1.160,-2.075,0.580,73.333,34887.000,1.000
18.273,18.165,18.274,18.109,18.232,18.304,17.798,17.948,-0.039,0.840,-0.571,-0.793,-1.953,0.641,73.333,34888.000,1.000
19.004,18.847,18.977,18.864,18.898,19.115,18.614,18.764,-0.038,0.839,-0.573,-0.488,-1.678,0.702,73.333,34889.000,1.000
18.144,17.960,18.080,18.020,18.012,18.278,17.809,18.025,-0.035,0.844,-0.575,-0.275,-1.404,0.824,73.333,34890.000,1.000
15.696,15.502,15.609,15.567,15.575,15.780,15.386,15.654,-0.034,0.850,-0.574,0.031,-1.068,0.793,73.333,34891.000,1.000
11.729,11.540,11.657,11.589,11.644,11.730,11.455,11.680,-0.035,0.855,-0.572,0.183,-0.793,0.824,73.333,34892.000,1.000
6.437,6.275,6.430,6.309,6.409,6.389,6.254,6.325,-0.036,0.861,-0.572,0.183,-0.397,0.732,73.333,34893.000,1.000
0.150,0.042,0.258,0.081,0.205,0.136,0.128,-0.009,-0.039,0.867,-0.568,0.031,-0.183,0.671,73.333,34894.000,1.000
-6.714,-6.760,-6.472,-6.683,-6.550,-6.619,-6.544,-6.857,-0.042,0.875,-0.566,-0.244,0.031,0.580,73.333,34895.000,1.000
-13.642,-13.657,-13.316,-13.524,-13.381,-13.434,-13.320,-13.723,-0.047,0.879,-0.563,-0.458,0.214,0.458,73.333,34896.000,1.000
-20.048,-20.090,-19.763,-19.921,-19.755,-19.805,-19.670,-20.078,-0.050,0.881,-0.558,-0.793,0.275,0.275,73.333,34897.000,1.000
-25.341,-25.437,-25.210,-25.264,-25.088,-25.151,-24.977,-25.356,-0.052,0.884,-0.558,-1.221,0.458,0.153,73.333,34898.000,1.000
-29.009,-29.131,-29.057,-28.964,-28.833,-28.909,-28.670,-29.036,-0.054,0.884,-0.560,-1.587,0.488,0.061,73.333,34899.000,1.000
-30.797,-30.886,-30.963,-30.709,-30.706,-30.766,-30.468,-30.846,-0.052,0.883,-0.560,-1.953,0.397,-0.092,73.333,34900.000,1.000
-30.860,-30.865,-31.056,-30.659,-30.853,-30.847,-30.551,-30.921,-0.051,0.878,-0.559,-2.289,0.305,-0.122,73.333,34901.000,1.000
-29.675,-29.576,-29.825,-29.338,-29.725,-29.620,-29.426,-29.706,-0.048,0.873,-0.556,-2.563,0.366,-0.214,73.333,34902.000,1.000
-27.650,-27.463,-27.696,-27.193,-27.694,-27.514,-27.499,-27.598,-0.048,0.869,-0.559,-2.808,0.458,-0.183,73.333,34903.000,1.000
-24.843,-24.610,-24.757,-24.319,-24.812,-24.637,-24.802,-24.691,-0.048,0.864,-0.560,-2.930,0.397,-0.305,73.333,34904.000,1.000
-21.055,-20.832,-20.851,-20.548,-20.927,-20.839,-21.111,-20.850,-0.049,0.861,-0.561,-2.991,0.397,-0.305,73.333,34905.000,1.000
-16.133,-15.988,-15.871,-15.743,-15.957,-15.998,-16.268,-15.970,-0.050,0.854,-0.557,-2.960,0.366,-0.397,73.333,34906.000,1.000
-10.214,-10.211,-9.980,-10.014,-10.088,-10.233,-10.411,-10.186,-0.049,0.851,-0.558,-2.899,0.397,-0.244,73.333,34907.000,1.000
-3.640,-3.801,-3.504,-3.637,-3.661,-3.829,-3.876,-3.784,-0.048,0.851,-0.554,-2.808,0.488,-0.275,73.333,34908.000,1.000
3.239,2.958,3.250,3.111,3.033,2.938,2.994,2.957,-0.047,0.850,-0.557,-2.716,0.427,-0.214,73.333,34909.000,1.000
10.026,9.709,9.927,9.859,9.680,9.706,9.792,9.693,-0.047,0.850,-0.557,-2.655,0.488,-0.122,73.333,34910.000,1.000
16.144,15.865,15.975,16.023,15.762,15.882,15.935,15.860,-0.048,0.849,-0.560,-2.655,0.488,-0.122,73.333,34911.000,1.000
21.002,20.788,20.815,20.979,20.692,20.829,20.832,20.836,-0.050,0.850,-0.556,-2.594,0.488,-0.061,73.333,34912.000,1.000
24.420,24.247,24.260,24.495,24.236,24.327,24.294,24.384,-0.049,0.850,-0.559,-2.411,0.397,-0.031,73.333,34913.000,1.000
26.703,26.521,26.581,26.828,26.623,26.665,26.600,26.752,-0.048,0.850,-0.561,-2.136,0.458,0.031,73.333,34914.000,1.000
28.212,27.975,28.091,28.314,28.162,28.198,28.090,28.271,-0.045,0.850,-0.560,-1.892,0.458,-0.061,73.333,34915.000,1.000
28.931,28.625,28.743,28.955,28.837,28.911,28.764,28.930,-0.045,0.853,-0.561,-1.678,0.397,0.092,73.333,34916.000,1.000
28.478,28.139,28.176,28.417,28.309,28.436,28.296,28.391,-0.045,0.853,-0.560,-1.526,0.427,0.061,73.333,34917.000,1.000
26.571,26.267,26.169,26.459,26.351,26.516,26.448,26.439,-0.047,0.856,-0.559,-1.465,0.397,-0.031,73.333,34918.000,1.000
23.412,23.210,22.961,23.282,23.191,23.369,23.420,23.316,-0.047,0.861,-0.557,-1.556,0.275,-0.122,73.333,34919.000,1.000
19.522,19.464,19.082,19.393,19.363,19.523,19.695,19.532,-0.047,0.864,-0.557,-1.526,0.305,-0.092,73.333,34920.000,1.000
15.316,15.407,14.958,15.206,15.272,15.391,15.649,15.462,-0.050,0.866,-0.552,-1.526,0.305,-0.214,73.333,34921.000,1.000
10.941,11.140,10.743,10.874,11.034,11.104,11.393,11.208,-0.053,0.869,-0.555,-1.587,0.244,-0.305,73.333,34922.000,1.000
6.538,6.765,6.549,6.510,6.735,6.767,7.025,6.869,-0.055,0.870,-0.556,-1.678,0.092,-0.458,73.333,34923.000,1.000
2.454,2.623,2.659,2.414,2.680,2.694,2.868,2.769,-0.060,0.875,-0.553,-1.831,-0.214,-0.488,73.333,34924.000,1.000
-0.877,-0.830,-0.555,-0.995,-0.701,-0.691,-0.632,-0.643,-0.063,0.873,-0.552,-1.984,-0.366,-0.488,73.333,34925.000,1.000
-3.179,-3.282,-2.841,-3.405,-3.105,-3.099,-3.149,-3.047,-0.064,0.876,-0.551,-2.106,-0.610,-0.702,73.333,34926.000,1.000
-4.473,-4.710,-4.211,-4.794,-4.519,-4.529,-4.647,-4.436,-0.064,0.875,-0.550,-2.289,-0.854,-0.793,73.333,34927.000,1.000
-4.988,-5.314,-4.865,-5.361,-5.148,-5.179,-5.319,-5.035,-0.065,0.873,-0.552,-2.472,-1.099,-0.885,73.333,34928.000,1.000
-4.993,-5.340,-5.042,-5.359,-5.241,-5.284,-5.406,-5.100,-0.070,0.871,-0.551,-2.594,-1.465,-0.854,73.333,34929.000,1.000
-4.684,-4.971,-4.900,-4.990,-4.986,-5.009,-5.088,-4.806,-0.068,0.867,-0.555,-2.686,-1.831,-0.824,73.333,34930.000,1.000
-4.127,-4.274,-4.468,-4.349,-4.439,-4.402,-4.439,-4.211,-0.066,0.865,-0.557,-2.655,-2.106,-0.824,73.333,34931.000,1.000
-3.255,-3.224,-3.658,-3.405,-3.523,-3.409,-3.432,-3.278,-0.063,0.862,-0.556,-2.594,-2.441,-0.885,73.333,34932.000,1.000
-1.882,-1.697,-2.278,-1.986,-2.051,-1.881,-1.918,-1.842,-0.060,0.859,-0.559,-2.411,-2.625,-0.732,73.333,34933.000,1.000
0.209,0.481,-0.112,0.135,0.174,0.359,0.291,0.315,-0.055,0.858,-0.558,-2.380,-2.747,-0.519,73.333,34934.000,1.000
3.091,3.384,2.913,3.053,3.194,3.359,3.253,3.288,-0.054,0.857,-0.559,-2.258,-2.808,-0.305,73.333,34935.000,1.000
6.647,6.911,6.652,6.669,6.847,6.973,6.856,6.957,-0.051,0.856,-0.561,-2.075,-2.777,-0.153,73.333,34936.000,1.000
10.612,10.823,10.784,10.719,10.832,10.911,10.849,11.019,-0.050,0.856,-0.559,-1.953,-2.625,0.061,73.333,34937.000,1.000
14.694,14.861,14.953,14.883,14.853,14.878,14.950,15.144,-0.048,0.859,-0.560,-1.740,-2.686,0.214,73.333,34938.000,1.000
18.632,18.786,18.872,18.856,18.686,18.646,18.895,19.069,-0.050,0.859,-0.563,-1.587,-2.533,0.244,73.333,34939.000,1.000
22.109,22.285,22.255,22.297,22.078,21.964,22.370,22.516,-0.049,0.859,-0.563,-1.526,-2.441,0.549,73.333,34940.000,1.000
24.668,24.887,24.716,24.772,24.617,24.450,24.919,25.066,-0.047,0.857,-0.560,-1.434,-2.350,0.763,73.333,34941.000,1.000
25.715,25.977,25.721,25.740,25.712,25.553,25.944,26.136,-0.050,0.858,-0.559,-1.312,-2.167,0.732,73.333,34942.000,1.000
24.729,25.013,24.763,24.713,24.805,24.726,24.917,25.174,-0.048,0.859,-0.560,-1.160,-2.045,0.946,73.333,34943.000,1.000
21.496,21.757,21.585,21.467,21.619,21.661,21.621,21.916,-0.046,0.858,-0.561,-1.099,-1.831,1.099,73.333,34944.000,1.000
16.121,16.319,16.245,16.081,16.227,16.391,16.181,16.450,-0.044,0.859,-0.560,-1.038,-1.709,1.160,73.333,34945.000,1.000
8.979,9.105,9.096,8.924,9.022,9.285,9.005,9.191,-0.045,0.862,-0.560,-0.946,-1.495,1.129,73.333,34946.000,1.000
0.668,0.746,0.737,0.611,0.655,0.973,0.714,0.792,-0.045,0.866,-0.557,-0.916,-1.282,1.251,73.333,34947.000,1.000
-8.135,-8.067,-8.128,-8.148,-8.154,-7.833,-8.017,-8.048,-0.046,0.868,-0.558,-0.977,-1.160,1.190,73.333,34948.000,1.000
-16.897,-16.814,-16.930,-16.813,-16.886,-16.606,-16.694,-16.827,-0.048,0.871,-0.555,-1.007,-0.977,1.190,73.333,34949.000,1.000
-25.276,-25.176,-25.311,-25.070,-25.234,-25.034,-25.017,-25.255,-0.045,0.870,-0.556,-1.099,-0.854,1.221,73.333,34950.000,1.000
-32.836,-32.727,-32.843,-32.529,-32.782,-32.692,-32.560,-32.908,-0.043,0.870,-0.553,-1.251,-0.641,1.160,73.333,34951.000,1.000
-38.874,-38.761,-38.842,-38.525,-38.821,-38.855,-38.612,-39.048,-0.047,0.871,-0.553,-1.434,-0.549,1.129,73.333,34952.000,1.000
-42.695,-42.589,-42.630,-42.379,-42.636,-42.790,-42.469,-42.934,-0.050,0.870,-0.554,-1.526,-0.488,1.099,73.333,34953.000,1.000
-44.112,-44.040,-44.026,-43.881,-44.023,-44.266,-43.930,-44.358,-0.052,0.872,-0.551,-1.678,-0.305,1.007,73.333,34954.000,1.000
-43.549,-43.543,-43.454,-43.411,-43.419,-43.682,-43.393,-43.765,-0.052,0.872,-0.549,-1.770,-0.153,0.946,73.333,34955.000,1.000
-41.580,-41.667,-41.490,-41.515,-41.437,-41.626,-41.423,-41.755,-0.054,0.870,-0.549,-1.923,-0.092,0.916,73.333,34956.000,1.000
-38.532,-38.728,-38.462,-38.526,-38.428,-38.480,-38.369,-38.666,-0.055,0.867,-0.552,-1.984,-0.183,0.763,73.333,34957.000,1.000
-34.509,-34.809,-34.468,-34.563,-34.481,-34.411,-34.370,-34.603,-0.055,0.865,-0.550,-2.045,-0.275,0.671,73.333,34958.000,1.000
-29.632,-30.001,-29.625,-29.759,-29.677,-29.580,-29.557,-29.692,-0.054,0.861,-0.550,-2.075,-0.275,0.641,73.333,34959.000,1.000
-24.146,-24.526,-24.174,-24.354,-24.238,-24.214,-24.157,-24.185,-0.052,0.859,-0.549,-2.045,-0.275,0.641,73.333,34960.000,1.000
-18.285,-18.606,-18.340,-18.553,-18.388,-18.478,-18.386,-18.317,-0.052,0.856,-0.552,-1.984,-0.153,0.641,73.333,34961.000,1.000
-12.182,-12.373,-12.245,-12.456,-12.260,-12.428,-12.349,-12.210,-0.050,0.855,-0.553,-1.862,-0.336,0.610,73.333,34962.000,1.000
-5.910,-5.925,-5.955,-6.116,-5.930,-6.110,-6.092,-5.923,-0.050,0.852,-0.556,-1.740,-0.244,0.641,73.333,34963.000,1.000
0.461,0.599,0.438,0.378,0.511,0.369,0.312,0.456,-0.050,0.851,-0.555,-1.495,-0.275,0.580,73.333,34964.000,1.000
6.849,7.047,6.831,6.896,6.955,6.865,6.736,6.812,-0.052,0.852,-0.556,-1.312,-0.275,0.519,73.333,34965.000,1.000
13.198,13.358,13.162,13.334,13.322,13.289,13.075,13.079,-0.052,0.853,-0.558,-1.221,-0.244,0.397,73.333,34966.000,1.000
19.384,19.473,19.344,19.555,19.489,19.517,19.202,19.174,-0.051,0.853,-0.556,-0.977,-0.214,0.488,73.333,34967.000,1.000
25.034,25.091,25.054,25.209,25.100,25.186,24.795,24.780,-0.050,0.854,-0.555,-0.732,-0.214,0.397,73.333,34968.000,1.000
29.478,29.563,29.623,29.653,29.506,29.633,29.230,29.245,-0.049,0.854,-0.554,-0.610,-0.244,0.275,73.333,34969.000,1.000
31.962,32.106,32.248,32.146,31.976,32.118,31.764,31.803,-0.048,0.854,-0.555,-0.641,-0.214,0.366,73.333,34970.000,1.000
32.012,32.203,32.394,32.209,32.056,32.172,31.901,31.946,-0.051,0.855,-0.556,-0.549,-0.214,0.183,73.333,34971.000,1.000
29.609,29.800,30.013,29.794,29.732,29.770,29.577,29.620,-0.048,0.858,-0.558,-0.366,-0.214,0.092,73.333,34972.000,1.000
25.171,25.333,25.551,25.306,25.408,25.343,25.194,25.238,-0.049,0.858,-0.558,-0.366,-0.122,0.092,73.333,34973.000,1.000
19.410,19.556,19.781,19.494,19.756,19.626,19.486,19.533,-0.049,0.860,-0.556,-0.336,-0.031,-0.122,73.333,34974.000,1.000
13.047,13.209,13.467,13.136,13.455,13.341,13.193,13.239,-0.048,0.864,-0.557,-0.214,-0.061,-0.122,73.333,34975.000,1.000
6.598,6.780,7.100,6.749,6.986,6.947,6.801,6.823,-0.048,0.865,-0.561,-0.153,0.031,-0.061,73.333,34976.000,1.000
0.285,0.451,0.820,0.489,0.557,0.597,0.478,0.437,-0.046,0.864,-0.562,-0.092,0.092,-0.183,73.333,34977.000,1.000
-5.881,-5.781,-5.427,-5.683,-5.797,-5.710,-5.777,-5.915,-0.045,0.865,-0.559,-0.061,0.183,-0.244,73.333,34978.000,1.000
-11.874,-11.866,-11.608,-11.734,-11.994,-11.888,-11.901,-12.134,-0.046,0.866,-0.556,-0.122,0.305,-0.214,73.333,34979.000,1.000
-17.464,-17.537,-17.417,-17.387,-17.729,-17.623,-17.615,-17.894,-0.048,0.867,-0.558,-0.122,0.305,-0.366,73.333,34980.000,1.000
-22.150,-22.260,-22.259,-22.104,-22.456,-22.363,-22.373,-22.637,-0.052,0.870,-0.556,-0.183,0.488,-0.366,73.333,34981.000,1.000
-25.292,-25.392,-25.459,-25.249,-25.552,-25.480,-25.519,-25.738,-0.052,0.870,-0.556,-0.305,0.488,-0.488,73.333,34982.000,1.000
-26.418,-26.465,-26.570,-26.386,-26.607,-26.544,-26.587,-26.784,-0.052,0.871,-0.557,-0.305,0.519,-0.549,73.333,34983.000,1.000
-25.499,-25.456,-25.618,-25.511,-25.640,-25.557,-25.572,-25.800,-0.053,0.872,-0.557,-0.549,0.488,-0.580,73.333,34984.000,1.000
-22.936,-22.775,-23.044,-23.012,-23.053,-22.934,-22.898,-23.209,-0.054,0.871,-0.556,-0.610,0.458,-0.641,73.333,34985.000,1.000
-19.281,-18.999,-19.403,-19.409,-19.361,-19.238,-19.142,-19.555,-0.056,0.869,-0.555,-0.793,0.305,-0.641,73.333,34986.000,1.000
-15.041,-14.683,-15.188,-15.192,-15.052,-14.986,-14.843,-15.332,-0.056,0.867,-0.557,-0.854,0.305,-0.519,73.333,34987.000,1.000
-10.611,-10.257,-10.776,-10.754,-10.542,-10.570,-10.423,-10.915,-0.056,0.866,-0.557,-0.946,0.244,-0.519,73.333,34988.000,1.000
-6.211,-5.941,-6.377,-6.320,-6.098,-6.199,-6.093,-6.505,-0.055,0.864,-0.555,-1.068,0.153,-0.458,73.333,34989.000,1.000
-1.843,-1.706,-1.993,-1.912,-1.761,-1.876,-1.819,-2.107,-0.054,0.862,-0.558,-1.007,0.031,-0.458,73.333,34990.000,1.000
2.652,2.648,2.518,2.609,2.630,2.556,2.600,2.417,-0.054,0.859,-0.556,-1.007,0.031,-0.305,73.333,34991.000,1.000
7.356,7.241,7.216,7.328,7.200,7.185,7.270,7.124,-0.055,0.857,-0.557,-0.885,0.000,-0.153,73.333,34992.000,1.000
12.078,11.908,11.904,12.081,11.826,11.835,12.001,11.818,-0.058,0.857,-0.558,-0.793,-0.153,-0.153,73.333,34993.000,1.000
16.421,16.254,16.190,16.480,16.157,16.116,16.377,16.113,-0.059,0.857,-0.557,-0.763,-0.214,-0.183,73.333,34994.000,1.000
20.039,19.913,19.748,20.157,19.836,19.684,20.020,19.695,-0.060,0.858,-0.562,-0.732,-0.183,-0.092,73.333,34995.000,1.000
22.867,22.803,22.539,23.016,22.750,22.471,22.838,22.539,-0.059,0.858,-0.559,-0.610,-0.244,0.000,73.333,34996.000,1.000
25.011,25.007,24.675,25.135,24.947,24.587,24.922,24.769,-0.059,0.858,-0.558,-0.610,-0.244,0.153,73.333,34997.000,1.000
26.448,26.469,26.122,26.482,26.371,26.022,26.256,26.330,-0.057,0.856,-0.557,-0.397,-0.427,0.183,73.333,34998.000,1.000
26.903,26.893,26.589,26.787,26.772,26.511,26.593,26.892,-0.058,0.859,-0.558,-0.427,-0.427,0.275,73.333,34999.000,1.000
25.990,25.914,25.696,25.701,25.826,25.669,25.592,26.042,-0.057,0.861,-0.555,-0.397,-0.580,0.397,73.333,35000.000,1.000
23.516,23.395,23.275,23.100,23.385,23.273,23.115,23.602,-0.056,0.862,-0.556,-0.336,-0.641,0.336,73.333,35001.000,1.000
19.633,19.513,19.480,19.192,19.588,19.434,19.327,19.738,-0.054,0.862,-0.560,-0.305,-0.641,0.549,73.333,35002.000,1.000
14.729,14.642,14.672,14.376,14.778,14.524,14.578,14.852,-0.053,0.863,-0.559,-0.244,-0.824,0.519,73.333,35003.000,1.000
9.243,9.184,9.261,9.042,9.365,9.009,9.244,9.399,-0.053,0.862,-0.558,-0.305,-0.854,0.580,73.333,35004.000,1.000
3.544,3.480,3.594,3.483,3.706,3.289,3.641,3.749,-0.052,0.864,-0.556,-0.305,-0.885,0.763,73.333,35005.000,1.000
-2.064,-2.174,-2.030,-2.052,-1.902,-2.313,-1.947,-1.825,-0.052,0.862,-0.557,-0.397,-0.854,0.824,73.333,35006.000,1.000
-7.294,-7.467,-7.314,-7.295,-7.179,-7.505,-7.223,-7.068,-0.050,0.861,-0.560,-0.305,-0.885,0.916,73.333,35007.000,1.000
-11.818,-12.036,-11.915,-11.905,-11.794,-11.967,-11.820,-11.655,-0.052,0.864,-0.557,-0.366,-0.793,0.977,73.333,35008.000,1.000
-15.281,-15.508,-15.452,-15.489,-15.373,-15.360,-15.341,-15.191,-0.050,0.862,-0.559,-0.458,-0.702,1.038,73.333,35009.000,1.000
-17.407,-17.609,-17.612,-17.709,-17.607,-17.425,-17.482,-17.344,-0.050,0.864,-0.558,-0.549,-0.793,1.099,73.333,35010.000,1.000
-18.097,-18.250,-18.265,-18.410,-18.361,-18.071,-18.140,-17.995,-0.052,0.865,-0.558,-0.610,-0.641,1.190,73.333,35011.000,1.000
-17.542,-17.624,-17.606,-17.769,-17.810,-17.492,-17.531,-17.364,-0.051,0.867,-0.557,-0.702,-0.671,1.221,73.333,35012.000,1.000
-16.142,-16.153,-16.085,-16.239,-16.372,-16.091,-16.105,-15.912,-0.054,0.865,-0.557,-0.671,-0.610,1.190,73.333,35013.000,1.000
-14.203,-14.182,-14.071,-14.198,-14.393,-14.183,-14.216,-13.991,-0.055,0.866,-0.558,-0.763,-0.702,1.221,73.333,35014.000,1.000
-11.750,-11.772,-11.632,-11.723,-11.933,-11.796,-11.896,-11.628,-0.056,0.867,-0.554,-0.885,-0.641,1.190,73.333,35015.000,1.000
-8.644,-8.776,-8.618,-8.654,-8.838,-8.756,-8.942,-8.626,-0.054,0.868,-0.557,-0.977,-0.702,1.129,73.333,35016.000,1.000
-4.855,-5.115,-4.936,-4.893,-5.031,-4.988,-5.213,-4.873,-0.053,0.868,-0.558,-1.099,-0.671,1.099,73.333,35017.000,1.000
-0.628,-0.969,-0.761,-0.614,-0.728,-0.713,-0.879,-0.565,-0.050,0.866,-0.558,-1.190,-0.610,1.038,73.333,35018.000,1.000
3.590,3.262,3.484,3.749,3.617,3.603,3.595,3.826,-0.046,0.865,-0.560,-1.251,-0.641,0.916,73.333,35019.000,1.000
7.351,7.127,7.306,7.692,7.501,7.472,7.652,7.765,-0.044,0.862,-0.562,-1.343,-0.580,0.977,73.333,35020.000,1.000
10.393,10.305,10.370,10.855,10.583,10.596,10.889,10.906,-0.041,0.859,-0.562,-1.434,-0.427,1.038,73.333,35021.000,1.000
12.676,12.672,12.597,13.121,12.783,12.909,13.177,13.178,-0.041,0.858,-0.561,-1.373,-0.305,1.068,73.333,35022.000,1.000
14.304,14.284,14.118,14.595,14.247,14.511,14.628,14.712,-0.042,0.856,-0.560,-1.190,-0.214,1.038,73.333,35023.000,1.000
15.400,15.286,15.105,15.475,15.180,15.536,15.447,15.685,-0.043,0.856,-0.563,-1.099,0.000,1.007,73.333,35024.000,1.000
15.958,15.743,15.599,15.848,15.653,16.004,15.745,16.145,-0.042,0.856,-0.562,-1.129,0.092,1.129,73.333,35025.000,1.000
15.839,15.577,15.473,15.628,15.545,15.797,15.477,15.976,-0.041,0.858,-0.562,-1.038,0.153,1.160,73.333,35026.000,1.000
14.855,14.600,14.515,14.606,14.626,14.733,14.480,14.960,-0.040,0.861,-0.560,-1.007,0.366,1.160,73.333,35027.000,1.000
12.852,12.632,12.555,12.595,12.695,12.656,12.565,12.903,-0.040,0.863,-0.559,-1.160,0.488,1.160,73.333,35028.000,1.000
9.823,9.646,9.590,9.571,9.729,9.567,9.661,9.791,-0.041,0.865,-0.555,-1.221,0.610,1.099,73.333,35029.000,1.000
5.964,5.825,5.831,5.722,5.938,5.686,5.909,5.852,-0.045,0.868,-0.558,-1.251,0.763,1.007,73.333,35030.000,1.000
1.613,1.509,1.617,1.383,1.676,1.379,1.631,1.471,-0.052,0.869,-0.559,-1.221,0.702,0.977,73.333,35031.000,1.000
-2.880,-2.954,-2.727,-3.089,-2.714,-3.016,-2.809,-2.988,-0.057,0.869,-0.557,-1.373,0.519,0.793,73.333,35032.000,1.000
-7.217,-7.263,-6.926,-7.376,-6.960,-7.245,-7.100,-7.249,-0.061,0.867,-0.559,-1.404,0.275,0.732,73.333,35033.000,1.000
-11.125,-11.144,-10.735,-11.192,-10.812,-11.086,-10.983,-11.078,-0.063,0.866,-0.558,-1.312,0.061,0.519,73.333,35034.000,1.000
-14.323,-14.319,-13.896,-14.278,-13.999,-14.273,-14.186,-14.216,-0.062,0.865,-0.562,-1.251,-0.305,0.305,73.333,35035.000,1.000
-16.463,-16.446,-16.069,-16.322,-16.159,-16.432,-16.357,-16.311,-0.061,0.863,-0.561,-1.312,-0.519,0.092,73.333,35036.000,1.000
-17.198,-17.172,-16.890,-17.007,-16.915,-17.166,-17.131,-17.002,-0.060,0.863,-0.557,-1.312,-0.732,0.031,73.333,35037.000,1.000
-16.346,-16.305,-16.143,-16.162,-16.067,-16.257,-16.307,-16.101,-0.058,0.863,-0.553,-1.312,-0.824,-0.122,73.333,35038.000,1.000
-13.990,-13.919,-13.880,-13.857,-13.709,-13.798,-13.956,-13.704,-0.059,0.864,-0.555,-1.434,-1.038,-0.183,73.333,35039.000,1.000
-10.437,-10.327,-10.382,-10.375,-10.165,-10.147,-10.389,-10.146,-0.058,0.865,-0.558,-1.434,-1.251,-0.336,73.333,35040.000,1.000
-6.069,-5.913,-6.011,-6.057,-5.804,-5.723,-5.989,-5.812,-0.057,0.866,-0.556,-1.465,-1.404,-0.366,73.333,35041.000,1.000
-1.252,-1.048,-1.135,-1.251,-0.970,-0.897,-1.121,-1.038,-0.055,0.866,-0.555,-1.373,-1.526,-0.305,73.333,35042.000,1.000
3.642,3.887,3.848,3.664,3.959,3.974,3.845,3.844,-0.053,0.864,-0.557,-1.404,-1.617,-0.305,73.333,35043.000,1.000
8.258,8.523,8.549,8.299,8.582,8.549,8.535,8.489,-0.054,0.864,-0.555,-1.373,-1.801,-0.214,73.333,35044.000,1.000
12.296,12.555,12.640,12.336,12.567,12.547,12.620,12.563,-0.052,0.864,-0.555,-1.434,-1.892,-0.092,73.333,35045.000,1.000
15.546,15.778,15.897,15.578,15.714,15.774,15.861,15.804,-0.053,0.863,-0.556,-1.373,-1.984,0.031,73.333,35046.000,1.000
17.854,18.049,18.170,17.901,17.913,18.075,18.105,18.036,-0.054,0.859,-0.556,-1.404,-1.892,0.244,73.333,35047.000,1.000
19.151,19.304,19.407,19.226,19.131,19.356,19.317,19.197,-0.053,0.863,-0.557,-1.404,-1.923,0.458,73.333,35048.000,1.000
19.535,19.634,19.721,19.600,19.457,19.687,19.636,19.406,-0.052,0.864,-0.556,-1.404,-1.892,0.549,73.333,35049.000,1.000
19.219,19.240,19.315,19.187,19.069,19.260,19.279,18.898,-0.053,0.861,-0.556,-1.495,-1.953,0.671,73.333,35050.000,1.000
18.331,18.269,18.318,18.131,18.098,18.238,18.350,17.854,-0.052,0.862,-0.555,-1.495,-2.014,0.793,73.333,35051.000,1.000
16.751,16.660,16.651,16.401,16.484,16.595,16.707,16.231,-0.055,0.862,-0.555,-1.465,-2.014,0.916,73.333,35052.000,1.000
14.199,14.173,14.081,13.800,14.006,14.124,14.065,13.784,-0.054,0.861,-0.553,-1.526,-1.984,1.038,73.333,35053.000,1.000
10.456,10.572,10.389,10.125,10.435,10.593,10.221,10.253,-0.053,0.861,-0.553,-1.526,-1.984,1.160,73.333,35054.000,1.000
5.520,5.807,5.535,5.332,5.691,5.904,5.201,5.532,-0.052,0.862,-0.551,-1.495,-1.984,1.221,73.333,35055.000,1.000
-0.310,0.135,-0.218,-0.333,-0.008,0.255,-0.662,-0.163,-0.050,0.863,-0.554,-1.495,-2.014,1.312,73.333,35056.000,1.000
-6.488,-5.940,-6.342,-6.368,-6.162,-5.866,-6.803,-6.313,-0.050,0.861,-0.553,-1.434,-1.953,1.343,73.333,35057.000,1.000
-12.405,-11.839,-12.226,-12.187,-12.149,-11.839,-12.624,-12.285,-0.047,0.861,-0.552,-1.404,-1.801,1.282,73.333,35058.000,1.000
-17.504,-17.017,-17.317,-17.243,-17.355,-17.051,-17.601,-17.482,-0.046,0.863,-0.551,-1.343,-1.740,1.312,73.333,35059.000,1.000
-21.352,-21.003,-21.177,-21.085,-21.281,-21.002,-21.328,-21.418,-0.044,0.861,-0.553,-1.373,-1.495,1.404,73.333,35060.000,1.000
-23.687,-23.485,-23.523,-23.431,-23.635,-23.408,-23.567,-23.783,-0.041,0.860,-0.555,-1.343,-1.373,1.404,73.333,35061.000,1.000
-24.498,-24.406,-24.318,-24.245,-24.422,-24.274,-24.325,-24.563,-0.041,0.861,-0.554,-1.312,-1.312,1.465,73.333,35062.000,1.000
-24.001,-23.958,-23.775,-23.734,-23.902,-23.829,-23.823,-24.017,-0.041,0.862,-0.557,-1.282,-1.099,1.434,73.333,35063.000,1.000
-22.502,-22.448,-22.232,-22.213,-22.421,-22.372,-22.337,-22.495,-0.041,0.861,-0.556,-1.312,-0.977,1.251,73.333,35064.000,1.000
-20.256,-20.163,-19.978,-19.958,-20.245,-20.140,-20.067,-20.259,-0.041,0.862,-0.558,-1.221,-0.671,1.282,73.333,35065.000,1.000
-17.398,-17.296,-17.170,-17.133,-17.497,-17.283,-17.132,-17.435,-0.041,0.861,-0.555,-1.221,-0.580,1.160,73.333,35066.000,1.000
-14.066,-14.024,-13.945,-13.881,-14.281,-13.964,-13.708,-14.149,-0.041,0.861,-0.554,-1.068,-0.397,1.068,73.333,35067.000,1.000
-10.490,-10.556,-10.497,-10.388,-10.778,-10.417,-10.084,-10.606,-0.043,0.858,-0.557,-1.068,-0.183,1.038,73.333,35068.000,1.000
-6.901,-7.053,-6.990,-6.824,-7.173,-6.842,-6.514,-6.993,-0.043,0.860,-0.556,-0.977,0.061,0.732,73.333,35069.000,1.000
-3.446,-3.592,-3.518,-3.317,-3.605,-3.351,-3.127,-3.435,-0.044,0.858,-0.556,-1.007,0.183,0.641,73.333,35070.000,1.000
-0.160,-0.206,-0.114,0.057,-0.161,0.017,0.077,-0.009,-0.044,0.860,-0.556,-0.885,0.275,0.488,73.333,35071.000,1.000
2.992,3.082,3.202,3.268,3.115,3.251,3.163,3.249,-0.048,0.861,-0.555,-0.885,0.336,0.397,73.333,35072.000,1.000
6.075,6.251,6.400,6.335,6.232,6.347,6.188,6.334,-0.049,0.861,-0.555,-0.732,0.305,0.092,73.333,35073.000,1.000
9.088,9.240,9.395,9.257,9.184,9.255,9.127,9.222,-0.050,0.859,-0.557,-0.671,0.275,-0.122,73.333,35074.000,1.000
11.858,11.874,12.001,11.903,11.839,11.816,11.809,11.782,-0.050,0.859,-0.556,-0.580,0.336,-0.427,73.333,35075.000,1.000
14.105,13.941,14.012,14.047,13.967,13.832,13.979,13.823,-0.051,0.855,-0.558,-0.397,0.427,-0.519,73.333,35076.000,1.000
15.547,15.243,15.238,15.426,15.331,15.108,15.380,15.146,-0.051,0.853,-0.555,-0.275,0.275,-0.641,73.333,35077.000,1.000
15.931,15.578,15.493,15.778,15.705,15.427,15.764,15.529,-0.051,0.855,-0.556,-0.122,0.275,-0.916,73.333,35078.000,1.000
15.121,14.825,14.679,14.963,14.965,14.645,14.990,14.808,-0.050,0.858,-0.557,0.000,0.305,-0.977,73.333,35079.000,1.000
13.234,13.084,12.911,13.104,13.204,12.849,13.162,13.037,-0.050,0.861,-0.552,0.092,0.244,-1.038,73.333,35080.000,1.000
10.690,10.718,10.546,10.612,10.781,10.414,10.676,10.578,-0.050,0.867,-0.556,0.153,0.183,-1.038,73.333,35081.000,1.000
8.033,8.192,8.030,8.006,8.174,7.837,8.045,7.942,-0.049,0.868,-0.558,0.061,0.214,-1.038,73.333,35082.000,1.000
5.647,5.837,5.684,5.659,5.739,5.480,5.636,5.522,-0.050,0.868,-0.555,0.031,0.153,-1.129,73.333,35083.000,1.000
3.600,3.731,3.580,3.650,3.575,3.419,3.535,3.438,-0.052,0.868,-0.554,0.031,0.000,-1.068,73.333,35084.000,1.000
1.688,1.734,1.560,1.787,1.536,1.479,1.570,1.527,-0.055,0.868,-0.558,-0.031,0.031,-0.916,73.333,35085.000,1.000
-0.307,-0.319,-0.540,-0.161,-0.547,-0.538,-0.464,-0.438,-0.056,0.870,-0.557,-0.092,-0.092,-0.885,73.333,35086.000,1.000
-2.405,-2.421,-2.693,-2.236,-2.675,-2.642,-2.587,-2.505,-0.058,0.870,-0.557,-0.092,-0.214,-0.793,73.333,35087.000,1.000
-4.424,-4.398,-4.694,-4.269,-4.674,-4.654,-4.602,-4.506,-0.059,0.868,-0.558,-0.092,-0.397,-0.580,73.333,35088.000,1.000
-6.135,-6.048,-6.325,-6.031,-6.339,-6.356,-6.274,-6.207,-0.060,0.865,-0.554,-0.122,-0.549,-0.458,73.333,35089.000,1.000
-7.426,-7.303,-7.505,-7.394,-7.572,-7.651,-7.509,-7.488,-0.057,0.864,-0.555,-0.092,-0.732,-0.336,73.333,35090.000,1.000
-8.304,-8.214,-8.290,-8.340,-8.391,-8.566,-8.362,-8.358,-0.056,0.861,-0.553,-0.214,-0.763,-0.244,73.333,35091.000,1.000
-8.864,-8.877,-8.805,-8.942,-8.902,-9.179,-8.955,-8.913,-0.058,0.860,-0.554,-0.244,-0.824,-0.061,73.333,35092.000,1.000
-9.247,-9.380,-9.193,-9.342,-9.256,-9.580,-9.419,-9.288,-0.057,0.861,-0.555,-0.214,-1.038,0.214,73.333,35093.000,1.000
-9.545,-9.759,-9.523,-9.656,-9.552,-9.833,-9.823,-9.575,-0.057,0.861,-0.558,-0.153,-1.221,0.336,73.333,35094.000,1.000
-9.737,-9.974,-9.750,-9.875,-9.767,-9.940,-10.118,-9.760,-0.058,0.862,-0.554,-0.122,-1.251,0.427,73.333,35095.000,1.000
-9.629,-9.854,-9.684,-9.796,-9.713,-9.758,-10.096,-9.663,-0.058,0.861,-0.560,-0.122,-1.373,0.519,73.333,35096.000,1.000
-8.929,-9.150,-9.074,-9.134,-9.107,-9.040,-9.461,-9.007,-0.057,0.859,-0.560,-0.183,-1.526,0.671,73.333,35097.000,1.000
-7.504,-7.757,-7.801,-7.770,-7.808,-7.662,-8.074,-7.667,-0.055,0.857,-0.560,-0.092,-1.648,0.793,73.333,35098.000,1.000
-5.561,-5.884,-6.015,-5.892,-5.986,-5.803,-6.115,-5.822,-0.057,0.855,-0.557,-0.061,-1.648,0.916,73.333,35099.000,1.000
-3.516,-3.910,-4.046,-3.872,-4.002,-3.821,-3.973,-3.833,-0.058,0.857,-0.557,-0.031,-1.770,0.916,73.333,35100.000,1.000
-1.606,-2.031,-2.088,-1.931,-2.053,-1.909,-1.888,-1.897,-0.060,0.856,-0.556,-0.031,-1.862,1.007,73.333,35101.000,1.000
0.265,-0.117,-0.060,0.017,-0.043,0.039,0.202,0.080,-0.058,0.857,-0.556,-0.092,-2.014,0.977,73.333,35102.000,1.000
2.219,1.945,2.100,2.078,2.096,2.115,2.366,2.175,-0.057,0.858,-0.558,0.092,-2.014,0.977,73.333,35103.000,1.000
4.010,3.872,4.073,3.979,4.042,4.022,4.302,4.085,-0.054,0.860,-0.560,0.061,-2.075,0.916,73.333,35104.000,1.000
5.105,5.077,5.256,5.136,5.202,5.176,5.432,5.229,-0.051,0.863,-0.562,0.031,-2.258,0.793,73.333,35105.000,1.000
5.152,5.178,5.277,5.167,5.214,5.206,5.415,5.245,-0.051,0.864,-0.558,-0.092,-2.197,0.885,73.333,35106.000,1.000
4.228,4.265,4.274,4.180,4.206,4.216,4.398,4.259,-0.051,0.866,-0.556,-0.183,-2.045,0.824,73.333,35107.000,1.000
2.685,2.726,2.686,2.595,2.606,2.602,2.805,2.693,-0.052,0.867,-0.557,-0.305,-2.014,0.671,73.333,35108.000,1.000
0.890,0.950,0.915,0.822,0.824,0.766,1.009,0.953,-0.054,0.870,-0.556,-0.458,-1.892,0.610,73.333,35109.000,1.000
-0.941,-0.871,-0.864,-0.946,-0.947,-1.072,-0.827,-0.787,-0.057,0.872,-0.555,-0.671,-1.923,0.610,73.333,35110.000,1.000
-2.726,-2.688,-2.618,-2.674,-2.675,-2.842,-2.662,-2.523,-0.057,0.872,-0.556,-0.946,-1.892,0.641,73.333,35111.000,1.000
-4.390,-4.435,-4.296,-4.328,-4.324,-4.489,-4.420,-4.232,-0.058,0.870,-0.556,-1.129,-1.923,0.732,73.333,35112.000,1.000
-5.846,-5.991,-5.810,-5.836,-5.814,-5.941,-5.978,-5.805,-0.061,0.867,-0.558,-1.190,-1.984,0.702,73.333,35113.000,1.000
-7.069,-7.283,-7.120,-7.158,-7.095,-7.163,-7.263,-7.149,-0.060,0.865,-0.557,-1.221,-2.106,0.671,73.333,35114.000,1.000
-8.141,-8.358,-8.278,-8.328,-8.201,-8.202,-8.321,-8.279,-0.060,0.865,-0.559,-1.282,-2.228,0.671,73.333,35115.000,1.000
-9.110,-9.267,-9.303,-9.343,-9.150,-9.091,-9.190,-9.212,-0.057,0.865,-0.560,-1.312,-2.167,0.580,73.333,35116.000,1.000
-9.888,-9.951,-10.087,-10.088,-9.862,-9.758,-9.805,-9.869,-0.057,0.861,-0.561,-1.343,-2.197,0.641,73.333,35117.000,1.000
-10.281,-10.257,-10.437,-10.386,-10.177,-10.043,-10.014,-10.119,-0.054,0.858,-0.563,-1.373,-2.289,0.732,73.333,35118.000,1.000
-10.022,-9.941,-10.101,-10.020,-9.853,-9.699,-9.601,-9.772,-0.052,0.857,-0.562,-1.373,-2.197,0.793,73.333,35119.000,1.000
-8.841,-8.725,-8.829,-8.759,-8.628,-8.466,-8.325,-8.592,-0.052,0.854,-0.562,-1.190,-2.258,0.916,73.333,35120.000,1.000
-6.606,-6.448,-6.506,-6.468,-6.348,-6.225,-6.062,-6.415,-0.048,0.851,-0.564,-1.129,-2.014,0.977,73.333,35121.000,1.000
-3.455,-3.236,-3.297,-3.267,-3.129,-3.129,-2.944,-3.321,-0.045,0.850,-0.565,-1.007,-1.923,1.038,73.333,35122.000,1.000
0.230,0.526,0.394,0.464,0.645,0.456,0.658,0.344,-0.042,0.848,-0.563,-0.824,-1.801,1.068,73.333,35123.000,1.000
4.003,4.359,4.117,4.260,4.480,4.122,4.308,4.116,-0.041,0.847,-0.560,-0.580,-1.465,1.221,73.333,35124.000,1.000
7.393,7.743,7.406,7.616,7.840,7.431,7.546,7.479,-0.039,0.852,-0.564,-0.244,-1.251,1.190,73.333,35125.000,1.000
9.843,10.086,9.715,9.940,10.139,9.843,9.832,9.834,-0.039,0.851,-0.564,-0.153,-1.038,1.221,73.333,35126.000,1.000
10.760,10.814,10.480,10.642,10.830,10.768,10.608,10.589,-0.042,0.854,-0.567,-0.092,-0.702,1.160,73.333,35127.000,1.000
9.737,9.603,9.349,9.396,9.616,9.804,9.517,9.396,-0.042,0.854,-0.565,-0.153,-0.275,1.099,73.333,35128.000,1.000
6.854,6.633,6.461,6.403,6.683,7.025,6.672,6.423,-0.044,0.858,-0.565,-0.092,-0.092,1.068,73.333,35129.000,1.000
2.774,2.614,2.493,2.387,2.717,3.061,2.710,2.376,-0.044,0.861,-0.562,0.031,-0.031,1.160,73.333,35130.000,1.000
-1.508,-1.489,-1.605,-1.697,-1.355,-1.142,-1.461,-1.778,-0.044,0.862,-0.561,0.031,0.183,1.099,73.333,35131.000,1.000
-5.132,-4.891,-5.035,-5.080,-4.769,-4.757,-5.057,-5.235,-0.045,0.867,-0.564,-0.031,0.397,0.916,73.333,35132.000,1.000
-7.635,-7.215,-7.379,-7.389,-7.142,-7.321,-7.622,-7.571,-0.047,0.871,-0.561,-0.092,0.549,0.763,73.333,35133.000,1.000
-8.893,-8.404,-8.540,-8.547,-8.380,-8.689,-8.969,-8.684,-0.052,0.875,-0.560,-0.244,0.732,0.671,73.333,35134.000,1.000
-9.027,-8.606,-8.653,-8.676,-8.578,-8.951,-9.156,-8.722,-0.053,0.875,-0.560,-0.580,0.671,0.580,73.333,35135.000,1.000
-8.347,-8.093,-8.020,-8.046,-7.995,-8.373,-8.463,-8.004,-0.057,0.877,-0.556,-0.916,0.610,0.427,73.333,35136.000,1.000
-7.219,-7.153,-6.984,-6.983,-6.964,-7.298,-7.271,-6.887,-0.060,0.879,-0.554,-1.160,0.519,0.366,73.333,35137.000,1.000
-5.861,-5.945,-5.748,-5.701,-5.703,-5.962,-5.848,-5.586,-0.060,0.879,-0.553,-1.526,0.488,0.305,73.333,35138.000,1.000
-4.213,-4.392,-4.248,-4.165,-4.162,-4.353,-4.190,-4.041,-0.060,0.877,-0.550,-1.862,0.275,0.366,73.333,35139.000,1.000
-2.079,-2.300,-2.272,-2.180,-2.142,-2.290,-2.123,-2.050,-0.060,0.875,-0.552,-2.228,0.214,0.275,73.333,35140.000,1.000
0.611,0.409,0.292,0.373,0.454,0.333,0.464,0.484,-0.061,0.869,-0.553,-2.441,0.122,0.214,73.333,35141.000,1.000
3.700,3.566,3.341,3.403,3.499,3.403,3.481,3.440,-0.062,0.865,-0.551,-2.563,0.000,0.244,73.333,35142.000,1.000
6.918,6.864,6.630,6.670,6.737,6.669,6.702,6.588,-0.063,0.862,-0.552,-2.655,-0.305,0.458,73.333,35143.000,1.000
10.075,10.067,9.937,9.959,9.967,9.911,9.925,9.758,-0.061,0.860,-0.555,-2.563,-0.305,0.580,73.333,35144.000,1.000
13.086,13.056,13.111,13.122,13.074,12.996,13.016,12.858,-0.059,0.858,-0.554,-2.502,-0.427,0.671,73.333,35145.000,1.000
15.893,15.774,16.048,16.056,15.977,15.847,15.894,15.803,-0.056,0.855,-0.556,-2.411,-0.580,0.732,73.333,35146.000,1.000
18.410,18.181,18.657,18.656,18.582,18.387,18.481,18.465,-0.053,0.854,-0.556,-2.350,-0.732,0.824,73.333,35147.000,1.000
20.536,20.230,20.829,20.812,20.767,20.530,20.666,20.691,-0.053,0.854,-0.556,-2.258,-0.763,0.946,73.333,35148.000,1.000
22.215,21.905,22.512,22.470,22.455,22.228,22.371,22.405,-0.052,0.854,-0.556,-2.136,-0.885,1.099,73.333,35149.000,1.000
23.429,23.189,23.713,23.631,23.621,23.470,23.579,23.613,-0.051,0.852,-0.553,-2.075,-0.824,1.190,73.333,35150.000,1.000
24.091,23.973,24.375,24.245,24.204,24.179,24.236,24.264,-0.051,0.853,-0.554,-1.923,-0.916,1.251,73.333,35151.000,1.000
23.967,23.988,24.272,24.107,23.997,24.129,24.140,24.143,-0.051,0.853,-0.560,-1.740,-1.007,1.251,73.333,35152.000,1.000
22.803,22.935,23.131,22.970,22.763,23.056,23.041,22.987,-0.050,0.853,-0.556,-1.495,-1.038,1.251,73.333,35153.000,1.000
20.543,20.723,20.877,20.769,20.460,20.887,20.875,20.730,-0.049,0.854,-0.558,-1.312,-1.038,1.343,73.333,35154.000,1.000
17.320,17.482,17.632,17.611,17.237,17.730,17.754,17.500,-0.048,0.854,-0.557,-1.190,-0.977,1.282,73.333,35155.000,1.000
13.315,13.408,13.559,13.613,13.253,13.731,13.801,13.464,-0.046,0.854,-0.557,-1.099,-0.977,1.221,73.333,35156.000,1.000
8.678,8.661,8.797,8.872,8.613,9.011,9.103,8.760,-0.046,0.855,-0.560,-0.946,-0.885,1.068,73.333,35157.000,1.000
3.588,3.432,3.536,3.589,3.471,3.760,3.818,3.574,-0.044,0.856,-0.561,-0.854,-0.824,0.977,73.333,35158.000,1.000
-1.627,-1.925,-1.859,-1.830,-1.826,-1.646,-1.679,-1.744,-0.044,0.858,-0.559,-0.641,-0.702,0.854,73.333,35159.000,1.000
-6.522,-6.924,-6.889,-6.866,-6.790,-6.704,-6.867,-6.721,-0.046,0.858,-0.558,-0.458,-0.671,0.702,73.333,35160.000,1.000
-10.705,-11.150,-11.116,-11.101,-11.001,-10.986,-11.279,-10.943,-0.047,0.858,-0.557,-0.397,-0.732,0.641,73.333,35161.000,1.000
-13.961,-14.388,-14.312,-14.334,-14.248,-14.273,-14.652,-14.182,-0.051,0.861,-0.557,-0.336,-0.549,0.458,73.333,35162.000,1.000
-16.162,-16.527,-16.379,-16.474,-16.423,-16.439,-16.847,-16.317,-0.051,0.865,-0.557,-0.397,-0.488,0.366,73.333,35163.000,1.000
-17.104,-17.365,-17.151,-17.346,-17.323,-17.284,-17.662,-17.154,-0.055,0.867,-0.557,-0.397,-0.580,0.122,73.333,35164.000,1.000
-16.559,-16.678,-16.433,-16.729,-16.712,-16.601,-16.903,-16.481,-0.054,0.869,-0.555,-0.458,-0.641,0.061,73.333,35165.000,1.000
-14.467,-14.432,-14.203,-14.566,-14.542,-14.381,-14.589,-14.273,-0.055,0.872,-0.553,-0.519,-0.610,-0.092,73.333,35166.000,1.000
-11.052,-10.904,-10.715,-11.097,-11.061,-10.904,-11.030,-10.809,-0.059,0.872,-0.555,-0.702,-0.702,-0.305,73.333,35167.000,1.000
-6.755,-6.581,-6.415,-6.793,-6.722,-6.640,-6.702,-6.564,-0.059,0.872,-0.554,-0.854,-0.702,-0.336,73.333,35168.000,1.000
-2.033,-1.923,-1.739,-2.125,-1.972,-2.022,-2.033,-1.979,-0.059,0.872,-0.553,-0.946,-0.854,-0.366,73.333,35169.000,1.000
2.722,2.738,2.952,2.541,2.806,2.612,2.654,2.628,-0.058,0.870,-0.557,-1.007,-0.916,-0.305,73.333,35170.000,1.000
7.195,7.153,7.368,6.940,7.294,6.997,7.109,7.026,-0.058,0.867,-0.554,-0.977,-1.099,-0.305,73.333,35171.000,1.000
11.195,11.158,11.320,10.924,11.292,10.953,11.162,11.064,-0.060,0.864,-0.557,-1.038,-1.160,-0.305,73.333,35172.000,1.000
14.675,14.698,14.742,14.450,14.753,14.424,14.720,14.663,-0.059,0.863,-0.560,-1.038,-1.312,-0.275,73.333,35173.000,1.000
17.689,17.804,17.678,17.550,17.735,17.454,17.781,17.806,-0.058,0.861,-0.559,-0.977,-1.343,-0.153,73.333,35174.000,1.000
20.223,20.425,20.132,20.197,20.225,20.023,20.319,20.430,-0.057,0.860,-0.560,-0.793,-1.495,-0.092,73.333,35175.000,1.000
22.057,22.292,21.905,22.153,21.999,21.896,22.146,22.296,-0.053,0.858,-0.560,-0.732,-1.404,0.000,73.333,35176.000,1.000
22.847,23.033,22.658,23.040,22.720,22.704,22.945,23.061,-0.051,0.856,-0.559,-0.519,-1.312,0.122,73.333,35177.000,1.000
22.390,22.469,22.187,22.622,22.197,22.228,22.510,22.541,-0.049,0.854,-0.564,-0.366,-1.282,0.336,73.333,35178.000,1.000
20.803,20.771,20.615,21.016,20.556,20.582,20.932,20.884,-0.047,0.855,-0.566,-0.275,-1.160,0.488,73.333,35179.000,1.000
18.336,18.238,18.205,18.514,18.061,18.046,18.445,18.386,-0.046,0.854,-0.563,-0.122,-1.129,0.671,73.333,35180.000,1.000
15.116,15.024,15.076,15.292,14.864,14.804,15.186,15.207,-0.043,0.858,-0.560,-0.061,-1.068,0.763,73.333,35181.000,1.000
11.112,11.094,11.165,11.324,10.944,10.860,11.146,11.301,-0.042,0.856,-0.562,0.092,-0.916,1.007,73.333,35182.000,1.000
6.236,6.330,6.338,6.490,6.184,6.115,6.250,6.523,-0.042,0.858,-0.562,0.275,-0.763,1.129,73.333,35183.000,1.000
0.481,0.685,0.570,0.752,0.526,0.508,0.497,0.806,-0.045,0.859,-0.559,0.397,-0.580,1.190,73.333,35184.000,1.000
-5.999,-5.736,-5.978,-5.760,-5.926,-5.876,-5.982,-5.736,-0.048,0.862,-0.560,0.427,-0.366,1.282,73.333,35185.000,1.000
-12.929,-12.683,-12.994,-12.778,-12.908,-12.802,-12.940,-12.827,-0.048,0.863,-0.559,0.305,-0.214,1.282,73.333,35186.000,1.000
-19.967,-19.820,-20.097,-19.936,-20.051,-19.917,-20.048,-20.080,-0.050,0.865,-0.560,0.305,-0.122,1.343,73.333,35187.000,1.000
-26.719,-26.728,-26.875,-26.788,-26.914,-26.783,-26.884,-27.022,-0.053,0.868,-0.561,0.214,-0.183,1.526,73.333,35188.000,1.000
-32.705,-32.880,-32.859,-32.819,-32.975,-32.864,-32.927,-33.102,-0.053,0.869,-0.557,0.092,-0.122,1.434,73.333,35189.000,1.000
-37.414,-37.695,-37.562,-37.531,-37.688,-37.613,-37.652,-37.782,-0.054,0.873,-0.558,-0.061,0.031,1.282,73.333,35190.000,1.000
-40.373,-40.643,-40.520,-40.489,-40.578,-40.543,-40.605,-40.620,-0.052,0.875,-0.555,-0.397,0.000,1.312,73.333,35191.000,1.000
-41.245,-41.394,-41.375,-41.360,-41.354,-41.327,-41.467,-41.343,-0.053,0.875,-0.557,-0.671,-0.092,1.373,73.333,35192.000,1.000
-39.981,-39.977,-40.056,-40.087,-40.039,-39.958,-40.209,-39.977,-0.052,0.874,-0.550,-0.885,0.061,1.343,73.333,35193.000,1.000
-36.897,-36.797,-36.885,-36.978,-36.990,-36.799,-37.144,-36.886,-0.054,0.873,-0.550,-1.160,0.000,1.160,73.333,35194.000,1.000
-32.609,-32.519,-32.524,-32.669,-32.808,-32.493,-32.872,-32.680,-0.055,0.872,-0.552,-1.343,-0.092,1.129,73.333,35195.000,1.000
-27.870,-27.865,-27.758,-27.921,-28.176,-27.776,-28.109,-28.041,-0.059,0.872,-0.552,-1.556,-0.153,1.251,73.333,35196.000,1.000
-23.289,-23.355,-23.200,-23.327,-23.611,-23.210,-23.436,-23.486,-0.059,0.870,-0.552,-1.678,-0.336,1.251,73.333,35197.000,1.000
-19.080,-19.127,-19.031,-19.083,-19.284,-18.963,-19.065,-19.195,-0.061,0.867,-0.554,-1.709,-0.458,1.312,73.333,35198.000,1.000
-15.053,-14.983,-15.028,-15.000,-15.042,-14.840,-14.852,-15.023,-0.060,0.864,-0.552,-1.862,-0.641,1.251,73.333,35199.000,1.000
-10.941,-10.715,-10.908,-10.834,-10.715,-10.611,-10.608,-10.778,-0.058,0.863,-0.551,-1.923,-0.824,1.251,73.333,35200.000,1.000
-6.672,-6.320,-6.600,-6.528,-6.312,-6.247,-6.310,-6.425,-0.055,0.861,-0.555,-1.953,-0.946,1.404,73.333,35201.000,1.000
-2.315,-1.904,-2.195,-2.157,-1.930,-1.852,-2.030,-2.038,-0.054,0.856,-0.556,-1.923,-0.977,1.404,73.333,35202.000,1.000
2.107,2.500,2.261,2.252,2.424,2.542,2.254,2.370,-0.052,0.854,-0.558,-1.831,-0.946,1.312,73.333,35203.000,1.000
6.732,7.042,6.895,6.834,6.921,7.074,6.746,6.952,-0.049,0.853,-0.560,-1.678,-0.946,1.343,73.333,35204.000,1.000
11.687,11.876,11.840,11.727,11.730,11.893,11.643,11.845,-0.047,0.850,-0.557,-1.434,-0.916,1.404,73.333,35205.000,1.000
16.801,16.869,16.923,16.772,16.715,16.861,16.787,16.864,-0.046,0.851,-0.557,-1.312,-0.946,1.373,73.333,35206.000,1.000
21.461,21.453,21.537,21.386,21.301,21.412,21.543,21.395,-0.045,0.850,-0.558,-1.007,-0.977,1.343,73.333,35207.000,1.000
24.815,24.804,24.860,24.756,24.673,24.739,25.021,24.639,-0.045,0.850,-0.559,-0.824,-0.732,1.282,73.333,35208.000,1.000
26.219,26.266,26.299,26.259,26.197,26.210,26.546,26.026,-0.047,0.853,-0.558,-0.763,-0.671,1.160,73.333,35209.000,1.000
25.476,25.606,25.673,25.670,25.641,25.596,25.896,25.385,-0.046,0.850,-0.560,-0.610,-0.580,1.099,73.333,35210.000,1.000
22.757,22.952,23.106,23.079,23.095,23.007,23.220,22.831,-0.045,0.852,-0.562,-0.519,-0.580,1.038,73.333,35211.000,1.000
18.412,18.639,18.880,18.774,18.840,18.745,18.872,18.634,-0.046,0.852,-0.563,-0.336,-0.488,0.824,73.333,35212.000,1.000
12.892,13.126,13.399,13.202,13.299,13.245,13.321,13.186,-0.047,0.854,-0.562,-0.214,-0.458,0.763,73.333,35213.000,1.000
6.758,6.993,7.219,6.972,7.060,7.077,7.150,7.037,-0.047,0.855,-0.561,-0.061,-0.366,0.580,73.333,35214.000,1.000
0.630,0.846,0.976,0.744,0.773,0.862,0.968,0.824,-0.045,0.858,-0.560,-0.061,-0.305,0.397,73.333,35215.000,1.000
-4.912,-4.762,-4.716,-4.882,-4.956,-4.810,-4.668,-4.841,-0.046,0.858,-0.562,-0.031,-0.336,0.275,73.333,35216.000,1.000
-9.419,-9.382,-9.353,-9.450,-9.636,-9.462,-9.298,-9.465,-0.045,0.860,-0.562,0.031,-0.214,0.122,73.333,35217.000,1.000
-12.719,-12.794,-12.712,-12.782,-13.032,-12.874,-12.701,-12.819,-0.046,0.862,-0.561,0.000,-0.214,-0.031,73.333,35218.000,1.000
-14.939,-15.067,-14.917,-15.005,-15.225,-15.128,-14.961,-15.004,-0.047,0.863,-0.556,-0.092,-0.061,-0.183,73.333,35219.000,1.000
-16.334,-16.425,-16.257,-16.375,-16.467,-16.456,-16.335,-16.311,-0.049,0.865,-0.560,-0.153,0.061,-0.366,73.333,35220.000,1.000
-16.970,-16.941,-16.835,-16.966,-16.870,-16.948,-16.923,-16.869,-0.051,0.867,-0.563,-0.214,0.061,-0.458,73.333,35221.000,1.000
-16.598,-16.410,-16.434,-16.551,-16.272,-16.425,-16.519,-16.477,-0.050,0.869,-0.561,-0.427,0.214,-0.610,73.333,35222.000,1.000
-14.946,-14.626,-14.824,-14.904,-14.491,-14.702,-14.883,-14.874,-0.050,0.871,-0.558,-0.488,0.214,-0.549,73.333,35223.000,1.000
-12.094,-11.728,-12.104,-12.127,-11.654,-11.888,-12.096,-12.126,-0.051,0.872,-0.557,-0.610,0.214,-0.641,73.333,35224.000,1.000
-8.487,-8.186,-8.684,-8.644,-8.192,-8.391,-8.569,-8.640,-0.051,0.871,-0.559,-0.732,0.244,-0.610,73.333,35225.000,1.000
-4.576,-4.428,-4.946,-4.855,-4.491,-4.602,-4.714,-4.829,-0.051,0.873,-0.561,-0.885,0.336,-0.549,73.333,35226.000,1.000
-0.583,-0.604,-1.052,-0.927,-0.683,-0.706,-0.719,-0.883,-0.050,0.870,-0.561,-0.946,0.336,-0.519,73.333,35227.000,1.000
3.371,3.235,2.900,3.051,3.188,3.189,3.299,3.083,-0.051,0.871,-0.561,-1.099,0.427,-0.427,73.333,35228.000,1.000
7.098,6.940,6.700,6.884,6.960,6.896,7.120,6.860,-0.053,0.869,-0.560,-1.282,0.397,-0.336,73.333,35229.000,1.000
10.334,10.237,10.041,10.276,10.330,10.150,10.436,10.162,-0.055,0.868,-0.558,-1.343,0.305,-0.275,73.333,35230.000,1.000
12.878,12.879,12.678,12.970,13.013,12.733,13.006,12.764,-0.054,0.867,-0.557,-1.404,0.336,-0.183,73.333,35231.000,1.000
14.701,14.776,14.563,14.883,14.904,14.600,14.781,14.615,-0.055,0.866,-0.559,-1.312,0.336,-0.092,73.333,35232.000,1.000
15.884,15.980,15.775,16.072,16.069,15.828,15.855,15.780,-0.054,0.865,-0.558,-1.251,0.214,0.031,73.333,35233.000,1.000
16.504,16.583,16.382,16.636,16.618,16.493,16.343,16.335,-0.056,0.863,-0.559,-1.282,0.153,0.000,73.333,35234.000,1.000
16.594,16.664,16.413,16.657,16.638,16.634,16.338,16.358,-0.054,0.862,-0.559,-1.282,0.092,0.275,73.333,35235.000,1.000
16.255,16.340,15.983,16.287,16.262,16.352,15.992,16.005,-0.057,0.860,-0.560,-1.312,-0.031,0.397,73.333,35236.000,1.000
15.672,15.763,15.307,15.727,15.670,15.822,15.503,15.497,-0.055,0.859,-0.559,-1.251,-0.061,0.458,73.333,35237.000,1.000
14.896,14.935,14.471,14.995,14.881,15.078,14.872,14.870,-0.057,0.856,-0.559,-1.129,-0.153,0.671,73.333,35238.000,1.000
13.727,13.650,13.309,13.854,13.676,13.905,13.831,13.878,-0.057,0.855,-0.560,-1.068,-0.244,0.854,73.333,35239.000,1.000
11.880,11.675,11.559,12.015,11.783,12.022,12.070,12.188,-0.056,0.856,-0.558,-0.977,-0.305,1.007,73.333,35240.000,1.000
9.275,8.995,9.109,9.410,9.153,9.375,9.519,9.673,-0.056,0.855,-0.563,-0.824,-0.458,1.129,73.333,35241.000,1.000
6.127,5.855,6.091,6.244,6.011,6.198,6.397,6.513,-0.057,0.855,-0.564,-0.702,-0.610,1.282,73.333,35242.000,1.000
2.777,2.567,2.768,2.819,2.663,2.820,3.019,3.037,-0.058,0.856,-0.562,-0.671,-0.610,1.434,73.333,35243.000,1.000
-0.467,-0.616,-0.561,-0.571,-0.627,-0.486,-0.318,-0.418,-0.055,0.854,-0.560,-0.549,-0.671,1.465,73.333,35244.000,1.000
-3.351,-3.473,-3.566,-3.630,-3.604,-3.469,-3.317,-3.524,-0.054,0.856,-0.557,-0.488,-0.641,1.587,73.333,35245.000,1.000
-5.580,-5.694,-5.851,-5.981,-5.911,-5.781,-5.619,-5.892,-0.054,0.855,-0.558,-0.519,-0.610,1.648,73.333,35246.000,1.000
-6.802,-6.891,-7.008,-7.212,-7.131,-7.014,-6.847,-7.099,-0.051,0.857,-0.558,-0.397,-0.763,1.740,73.333,35247.000,1.000
-6.867,-6.889,-6.915,-7.181,-7.105,-7.005,-6.878,-6.999,-0.051,0.858,-0.560,-0.427,-0.793,1.740,73.333,35248.000,1.000
-6.043,-5.976,-5.929,-6.220,-6.152,-6.069,-6.031,-5.958,-0.047,0.861,-0.558,-0.427,-0.732,1.678,73.333,35249.000,1.000
-4.910,-4.780,-4.725,-4.987,-4.918,-4.858,-4.935,-4.690,-0.044,0.863,-0.558,-0.366,-0.732,1.648,73.333,35250.000,1.000
-3.996,-3.870,-3.879,-4.058,-3.970,-3.943,-4.137,-3.798,-0.040,0.861,-0.559,-0.366,-0.549,1.709,73.333,35251.000,1.000
-3.508,-3.450,-3.557,-3.615,-3.502,-3.510,-3.811,-3.459,-0.034,0.860,-0.559,-0.458,-0.427,1.740,73.333,35252.000,1.000
-3.360,-3.399,-3.578,-3.517,-3.378,-3.420,-3.794,-3.483,-0.034,0.856,-0.560,-0.336,-0.153,1.709,73.333,35253.000,1.000
-3.329,-3.449,-3.625,-3.493,-3.329,-3.407,-3.788,-3.532,-0.033,0.856,-0.561,-0.336,-0.031,1.740,73.333,35254.000,1.000
-3.204,-3.367,-3.440,-3.317,-3.135,-3.255,-3.557,-3.325,-0.034,0.857,-0.563,-0.366,0.183,1.740,73.333,35255.000,1.000
-2.887,-3.058,-2.941,-2.890,-2.723,-2.885,-3.040,-2.781,-0.037,0.861,-0.561,-0.427,0.366,1.678,73.333,35256.000,1.000
-2.421,-2.580,-2.247,-2.273,-2.180,-2.361,-2.354,-2.044,-0.036,0.863,-0.561,-0.397,0.671,1.617,73.333,35257.000,1.000
-1.984,-2.131,-1.624,-1.687,-1.731,-1.874,-1.760,-1.417,-0.038,0.863,-0.562,-0.549,0.885,1.495,73.333,35258.000,1.000
-1.815,-1.971,-1.367,-1.435,-1.637,-1.673,-1.553,-1.216,-0.041,0.864,-0.560,-0.549,1.099,1.343,73.333,35259.000,1.000
-2.080,-2.276,-1.663,-1.741,-2.048,-1.946,-1.907,-1.621,-0.043,0.865,-0.563,-0.702,1.129,1.190,73.333,35260.000,1.000
-2.750,-2.989,-2.453,-2.575,-2.866,-2.673,-2.729,-2.541,-0.046,0.865,-0.560,-0.824,1.251,1.068,73.333,35261.000,1.000
-3.585,-3.840,-3.448,-3.639,-3.786,-3.601,-3.686,-3.637,-0.051,0.865,-0.559,-0.977,1.312,0.854,73.333,35262.000,1.000
-4.322,-4.578,-4.340,-4.584,-4.533,-4.452,-4.466,-4.558,-0.054,0.865,-0.563,-0.946,1.129,0.671,73.333,35263.000,1.000
-4.800,-5.076,-4.940,-5.182,-4.982,-5.042,-4.935,-5.113,-0.058,0.864,-0.563,-0.977,0.916,0.397,73.333,35264.000,1.000
-4.973,-5.307,-5.187,-5.372,-5.129,-5.308,-5.103,-5.279,-0.058,0.864,-0.562,-0.946,0.702,0.214,73.333,35265.000,1.000
-4.889,-5.310,-5.128,-5.248,-5.048,-5.293,-5.069,-5.164,-0.060,0.863,-0.563,-1.007,0.519,-0.092,73.333,35266.000,1.000
