EEG 1,EEG 2,EEG 3,EEG 4,EEG 5,EEG 6,EEG 7,EEG 8,Accelerometer X,Accelerometer Y,Accelerometer Z,Gyroscope X,Gyroscope Y,Gyroscope Z,Battery Level,Counter,Validation Indicator
5.954,6.015,6.031,6.088,6.111,5.972,6.269,6.169,-0.056,0.869,-0.540,-0.702,-0.397,0.610,73.333,56017.000,1.000
5.924,5.954,5.988,5.958,6.036,5.926,6.190,6.168,-0.057,0.870,-0.539,-0.702,-0.488,0.580,73.333,56018.000,1.000
5.434,5.394,5.413,5.270,5.447,5.414,5.586,5.618,-0.055,0.869,-0.540,-0.610,-0.580,0.549,73.333,56019.000,1.000
4.656,4.544,4.508,4.267,4.552,4.641,4.675,4.728,-0.057,0.869,-0.541,-0.519,-0.610,0.610,73.333,56020.000,1.000
3.811,3.650,3.525,3.240,3.613,3.817,3.719,3.759,-0.059,0.868,-0.543,-0.488,-0.702,0.641,73.333,56021.000,1.000
2.979,2.808,2.574,2.318,2.752,3.002,2.842,2.827,-0.059,0.869,-0.544,-0.427,-0.641,0.580,73.333,56022.000,1.000
2.099,1.949,1.614,1.454,1.908,2.122,1.992,1.886,-0.057,0.870,-0.542,-0.305,-0.702,0.549,73.333,56023.000,1.000
1.082,0.956,0.570,0.539,0.959,1.088,1.040,0.853,-0.057,0.871,-0.541,-0.366,-0.763,0.488,73.333,56024.000,1.000
0.035,-0.090,-0.447,-0.371,-0.033,0.014,0.027,-0.177,-0.053,0.870,-0.543,-0.275,-0.732,0.458,73.333,56025.000,1.000
-0.664,-0.812,-1.058,-0.948,-0.704,-0.704,-0.709,-0.840,-0.054,0.871,-0.540,-0.275,-0.732,0.397,73.333,56026.000,1.000
-0.663,-0.840,-0.925,-0.864,-0.700,-0.701,-0.808,-0.792,-0.055,0.872,-0.539,-0.336,-0.732,0.427,73.333,56027.000,1.000
-0.068,-0.261,-0.184,-0.207,-0.106,-0.087,-0.314,-0.127,-0.055,0.871,-0.540,-0.305,-0.793,0.336,73.333,56028.000,1.000
0.492,0.307,0.496,0.419,0.471,0.485,0.213,0.527,-0.055,0.871,-0.537,-0.275,-0.763,0.336,73.333,56029.000,1.000
0.414,0.250,0.468,0.404,0.428,0.391,0.192,0.546,-0.056,0.871,-0.541,-0.275,-0.793,0.275,73.333,56030.000,1.000
-0.247,-0.405,-0.248,-0.246,-0.205,-0.318,-0.371,-0.066,-0.054,0.872,-0.543,-0.244,-0.793,0.275,73.333,56031.000,1.000
-0.848,-1.037,-1.024,-0.932,-0.827,-0.981,-0.902,-0.707,-0.056,0.873,-0.542,-0.183,-0.824,0.244,73.333,56032.000,1.000
-0.827,-1.075,-1.245,-1.071,-0.894,-1.012,-0.871,-0.806,-0.056,0.875,-0.538,-0.244,-0.732,0.153,73.333,56033.000,1.000
-0.240,-0.540,-0.846,-0.635,-0.425,-0.437,-0.310,-0.357,-0.056,0.875,-0.541,-0.214,-0.824,0.153,73.333,56034.000,1.000
0.442,0.134,-0.182,0.004,0.182,0.288,0.363,0.238,-0.055,0.874,-0.540,-0.458,-0.702,0.061,73.333,56035.000,1.000
0.932,0.676,0.496,0.604,0.706,0.872,0.905,0.728,-0.057,0.873,-0.544,-0.641,-0.732,0.122,73.333,56036.000,1.000
1.324,1.157,1.210,1.213,1.238,1.367,1.410,1.194,-0.057,0.872,-0.544,-0.641,-0.824,0.061,73.333,56037.000,1.000
1.748,1.659,1.960,1.859,1.839,1.847,1.963,1.725,-0.057,0.872,-0.543,-0.671,-0.854,0.031,73.333,56038.000,1.000
2.064,2.017,2.489,2.311,2.292,2.151,2.374,2.127,-0.059,0.871,-0.541,-0.671,-0.824,0.000,73.333,56039.000,1.000
2.121,2.100,2.599,2.399,2.423,2.165,2.470,2.216,-0.060,0.872,-0.543,-0.671,-0.854,0.000,73.333,56040.000,1.000
2.171,2.206,2.576,2.423,2.519,2.194,2.525,2.263,-0.060,0.875,-0.543,-0.671,-0.946,0.000,73.333,56041.000,1.000
2.727,2.857,3.002,2.953,3.120,2.771,3.063,2.813,-0.060,0.877,-0.542,-0.793,-1.007,0.031,73.333,56042.000,1.000
3.947,4.181,4.096,4.170,4.387,4.031,4.229,4.032,-0.060,0.877,-0.543,-1.007,-1.038,0.031,73.333,56043.000,1.000
5.268,5.575,5.327,5.485,5.745,5.380,5.447,5.337,-0.059,0.874,-0.540,-1.038,-0.977,-0.061,73.333,56044.000,1.000
5.899,6.223,5.924,6.074,6.404,6.019,5.954,5.931,-0.056,0.871,-0.540,-1.068,-1.038,-0.061,73.333,56045.000,1.000
5.701,5.982,5.758,5.790,6.226,5.826,5.664,5.694,-0.056,0.869,-0.541,-1.190,-1.068,0.000,73.333,56046.000,1.000
5.264,5.456,5.415,5.266,5.799,5.419,5.204,5.239,-0.058,0.868,-0.542,-1.099,-1.007,0.061,73.333,56047.000,1.000
5.090,5.172,5.360,5.046,5.605,5.305,5.063,5.071,-0.058,0.869,-0.548,-1.068,-1.007,0.153,73.333,56048.000,1.000
4.955,4.935,5.308,4.913,5.402,5.240,4.970,4.951,-0.058,0.869,-0.544,-1.007,-1.068,0.275,73.333,56049.000,1.000
4.367,4.265,4.712,4.345,4.692,4.702,4.381,4.364,-0.059,0.870,-0.543,-0.977,-1.038,0.366,73.333,56050.000,1.000
3.399,3.242,3.646,3.396,3.569,3.747,3.354,3.364,-0.057,0.872,-0.542,-1.007,-0.946,0.427,73.333,56051.000,1.000
2.683,2.522,2.810,2.711,2.732,3.026,2.551,2.599,-0.057,0.874,-0.542,-1.038,-0.946,0.458,73.333,56052.000,1.000
2.677,2.572,2.731,2.747,2.696,3.015,2.474,2.545,-0.055,0.877,-0.542,-1.160,-0.854,0.458,73.333,56053.000,1.000
3.076,3.065,3.122,3.173,3.148,3.410,2.842,2.917,-0.055,0.879,-0.543,-1.312,-0.732,0.488,73.333,56054.000,1.000
3.146,3.211,3.219,3.226,3.276,3.457,2.912,2.988,-0.055,0.877,-0.544,-1.495,-0.824,0.580,73.333,56055.000,1.000
2.538,2.629,2.638,2.569,2.657,2.800,2.324,2.421,-0.054,0.876,-0.543,-1.587,-0.702,0.641,73.333,56056.000,1.000
1.534,1.608,1.638,1.521,1.558,1.730,1.336,1.489,-0.051,0.874,-0.544,-1.617,-0.580,0.793,73.333,56057.000,1.000
0.526,0.576,0.612,0.513,0.415,0.648,0.327,0.558,-0.049,0.871,-0.542,-1.556,-0.519,0.946,73.333,56058.000,1.000
-0.503,-0.465,-0.437,-0.468,-0.730,-0.465,-0.724,-0.424,-0.051,0.864,-0.542,-1.526,-0.427,0.885,73.333,56059.000,1.000
-1.833,-1.805,-1.767,-1.741,-2.117,-1.894,-2.085,-1.771,-0.051,0.860,-0.539,-1.404,-0.244,0.885,73.333,56060.000,1.000
-3.513,-3.500,-3.423,-3.412,-3.780,-3.675,-3.789,-3.543,-0.052,0.864,-0.540,-1.312,-0.122,0.946,73.333,56061.000,1.000
-5.243,-5.228,-5.102,-5.195,-5.420,-5.476,-5.507,-5.392,-0.053,0.865,-0.542,-1.190,-0.031,0.977,73.333,56062.000,1.000
-6.612,-6.554,-6.391,-6.637,-6.650,-6.860,-6.799,-6.822,-0.053,0.869,-0.546,-1.190,0.031,1.007,73.333,56063.000,1.000
-7.380,-7.252,-7.068,-7.450,-7.286,-7.602,-7.436,-7.541,-0.051,0.872,-0.542,-1.099,0.092,1.068,73.333,56064.000,1.000
-7.523,-7.344,-7.158,-7.591,-7.372,-7.717,-7.453,-7.561,-0.047,0.872,-0.542,-1.160,0.183,1.038,73.333,56065.000,1.000
-7.057,-6.889,-6.717,-7.088,-6.944,-7.238,-6.929,-6.986,-0.047,0.874,-0.543,-1.404,0.092,1.068,73.333,56066.000,1.000
-5.958,-5.866,-5.723,-5.950,-5.951,-6.122,-5.855,-5.862,-0.047,0.875,-0.542,-1.495,0.397,0.946,73.333,56067.000,1.000
-4.266,-4.278,-4.177,-4.250,-4.382,-4.392,-4.232,-4.233,-0.051,0.877,-0.541,-1.556,0.427,0.885,73.333,56068.000,1.000
-2.228,-2.311,-2.265,-2.233,-2.436,-2.290,-2.243,-2.273,-0.056,0.880,-0.543,-1.648,0.458,0.763,73.333,56069.000,1.000
-0.213,-0.300,-0.314,-0.232,-0.460,-0.200,-0.215,-0.266,-0.063,0.884,-0.538,-1.617,0.427,0.732,73.333,56070.000,1.000
1.459,1.416,1.346,1.448,1.208,1.517,1.518,1.481,-0.067,0.884,-0.540,-1.617,0.305,0.488,73.333,56071.000,1.000
2.528,2.526,2.411,2.541,2.271,2.564,2.647,2.641,-0.070,0.882,-0.542,-1.678,0.061,0.183,73.333,56072.000,1.000
2.818,2.827,2.671,2.864,2.533,2.780,2.963,2.969,-0.071,0.877,-0.539,-1.709,-0.153,0.031,73.333,56073.000,1.000
2.268,2.270,2.068,2.360,1.949,2.168,2.400,2.378,-0.070,0.873,-0.539,-1.862,-0.458,-0.092,73.333,56074.000,1.000
0.958,0.964,0.714,1.111,0.631,0.856,1.056,0.969,-0.068,0.870,-0.537,-1.923,-0.671,-0.275,73.333,56075.000,1.000
-0.893,-0.849,-1.132,-0.684,-1.172,-0.941,-0.832,-0.993,-0.065,0.867,-0.538,-1.831,-0.885,-0.397,73.333,56076.000,1.000
-2.956,-2.841,-3.122,-2.729,-3.131,-2.935,-2.925,-3.128,-0.064,0.867,-0.541,-1.709,-1.099,-0.488,73.333,56077.000,1.000
-4.705,-4.509,-4.756,-4.515,-4.761,-4.638,-4.697,-4.898,-0.064,0.869,-0.540,-1.495,-1.282,-0.549,73.333,56078.000,1.000
-5.467,-5.213,-5.406,-5.350,-5.439,-5.385,-5.472,-5.648,-0.063,0.871,-0.541,-1.526,-1.434,-0.641,73.333,56079.000,1.000
-4.730,-4.453,-4.594,-4.682,-4.675,-4.663,-4.728,-4.889,-0.064,0.875,-0.540,-1.465,-1.495,-0.519,73.333,56080.000,1.000
-2.467,-2.199,-2.299,-2.459,-2.424,-2.429,-2.438,-2.594,-0.063,0.875,-0.536,-1.526,-1.495,-0.580,73.333,56081.000,1.000
0.841,1.075,0.993,0.829,0.863,0.860,0.896,0.750,-0.062,0.875,-0.535,-1.526,-1.495,-0.549,73.333,56082.000,1.000
4.548,4.721,4.627,4.509,4.552,4.571,4.591,4.484,-0.059,0.875,-0.537,-1.617,-1.495,-0.427,73.333,56083.000,1.000
8.063,8.166,8.031,7.985,8.056,8.115,8.060,8.019,-0.057,0.875,-0.539,-1.465,-1.556,-0.336,73.333,56084.000,1.000
10.831,10.889,10.696,10.719,10.819,10.922,10.781,10.815,-0.057,0.873,-0.538,-1.465,-1.556,-0.183,73.333,56085.000,1.000
12.315,12.378,12.126,12.194,12.302,12.442,12.255,12.342,-0.057,0.870,-0.539,-1.404,-1.465,0.031,73.333,56086.000,1.000
12.145,12.254,11.948,12.029,12.129,12.290,12.105,12.195,-0.057,0.872,-0.538,-1.373,-1.465,0.275,73.333,56087.000,1.000
10.351,10.512,10.163,10.223,10.332,10.483,10.312,10.359,-0.057,0.874,-0.537,-1.221,-1.404,0.366,73.333,56088.000,1.000
7.399,7.589,7.216,7.233,7.396,7.496,7.317,7.304,-0.058,0.874,-0.536,-1.221,-1.373,0.610,73.333,56089.000,1.000
3.973,4.159,3.777,3.756,4.014,4.030,3.820,3.756,-0.060,0.876,-0.537,-1.221,-1.343,0.793,73.333,56090.000,1.000
0.626,0.784,0.397,0.374,0.731,0.650,0.417,0.315,-0.061,0.874,-0.536,-1.190,-1.190,0.854,73.333,56091.000,1.000
-2.411,-2.298,-2.671,-2.659,-2.258,-2.421,-2.625,-2.761,-0.059,0.872,-0.538,-1.282,-1.251,0.916,73.333,56092.000,1.000
-5.042,-5.000,-5.289,-5.244,-4.903,-5.106,-5.192,-5.368,-0.058,0.873,-0.540,-1.373,-1.221,0.977,73.333,56093.000,1.000
-7.103,-7.156,-7.269,-7.234,-7.052,-7.233,-7.134,-7.360,-0.057,0.875,-0.538,-1.373,-1.190,1.099,73.333,56094.000,1.000
-8.428,-8.575,-8.468,-8.483,-8.501,-8.599,-8.324,-8.604,-0.057,0.874,-0.534,-1.282,-1.099,1.129,73.333,56095.000,1.000
-9.034,-9.237,-8.955,-9.021,-9.212,-9.193,-8.825,-9.144,-0.055,0.875,-0.531,-1.343,-0.977,1.129,73.333,56096.000,1.000
-9.185,-9.367,-9.048,-9.117,-9.399,-9.285,-8.927,-9.243,-0.053,0.873,-0.533,-1.343,-0.977,1.099,73.333,56097.000,1.000
-9.163,-9.243,-9.054,-9.060,-9.324,-9.182,-8.915,-9.178,-0.052,0.871,-0.535,-1.282,-0.885,1.099,73.333,56098.000,1.000
-9.082,-9.011,-9.076,-8.969,-9.110,-9.023,-8.888,-9.058,-0.053,0.873,-0.538,-1.312,-0.793,1.099,73.333,56099.000,1.000
-8.925,-8.728,-9.054,-8.827,-8.802,-8.816,-8.812,-8.874,-0.052,0.871,-0.535,-1.312,-0.519,1.068,73.333,56100.000,1.000
-8.668,-8.449,-8.911,-8.602,-8.461,-8.566,-8.639,-8.616,-0.051,0.873,-0.536,-1.190,-0.458,1.038,73.333,56101.000,1.000
-8.307,-8.191,-8.597,-8.279,-8.132,-8.277,-8.330,-8.282,-0.050,0.875,-0.540,-1.190,-0.183,0.977,73.333,56102.000,1.000
-7.686,-7.754,-7.939,-7.691,-7.638,-7.771,-7.706,-7.701,-0.048,0.876,-0.536,-1.251,-0.153,0.977,73.333,56103.000,1.000
-6.502,-6.749,-6.660,-6.526,-6.616,-6.697,-6.471,-6.542,-0.048,0.873,-0.541,-1.251,0.000,0.916,73.333,56104.000,1.000
-4.567,-4.909,-4.631,-4.599,-4.817,-4.816,-4.480,-4.603,-0.049,0.870,-0.536,-1.190,0.122,0.916,73.333,56105.000,1.000
-2.033,-2.347,-2.052,-2.073,-2.345,-2.250,-1.919,-2.031,-0.050,0.866,-0.539,-1.129,0.336,0.885,73.333,56106.000,1.000
0.618,0.434,0.599,0.580,0.342,0.512,0.729,0.686,-0.051,0.864,-0.540,-1.038,0.427,0.854,73.333,56107.000,1.000
2.867,2.851,2.839,2.864,2.704,2.917,2.967,3.028,-0.052,0.867,-0.540,-0.977,0.519,0.732,73.333,56108.000,1.000
4.435,4.548,4.425,4.506,4.403,4.626,4.543,4.707,-0.055,0.869,-0.540,-0.854,0.458,0.580,73.333,56109.000,1.000
5.304,5.472,5.348,5.462,5.365,5.581,5.447,5.689,-0.054,0.873,-0.535,-0.732,0.488,0.427,73.333,56110.000,1.000
5.569,5.732,5.681,5.795,5.662,5.866,5.757,6.040,-0.054,0.874,-0.534,-0.702,0.580,0.305,73.333,56111.000,1.000
5.304,5.448,5.464,5.567,5.380,5.574,5.521,5.823,-0.054,0.876,-0.534,-0.641,0.519,0.214,73.333,56112.000,1.000
4.678,4.806,4.840,4.943,4.706,4.899,4.886,5.198,-0.056,0.879,-0.534,-0.702,0.580,0.122,73.333,56113.000,1.000
4.017,4.119,4.140,4.248,3.995,4.186,4.169,4.485,-0.056,0.879,-0.533,-0.793,0.549,0.092,73.333,56114.000,1.000
3.621,3.672,3.689,3.795,3.574,3.745,3.672,3.980,-0.056,0.879,-0.535,-0.854,0.458,-0.061,73.333,56115.000,1.000
3.513,3.499,3.541,3.635,3.469,3.611,3.431,3.738,-0.058,0.879,-0.540,-0.854,0.549,-0.214,73.333,56116.000,1.000
3.442,3.385,3.464,3.544,3.403,3.547,3.225,3.564,-0.058,0.878,-0.537,-0.946,0.488,-0.153,73.333,56117.000,1.000
3.253,3.203,3.296,3.374,3.191,3.383,2.934,3.340,-0.059,0.876,-0.538,-0.885,0.305,-0.214,73.333,56118.000,1.000
3.063,3.063,3.129,3.232,2.957,3.202,2.719,3.181,-0.058,0.873,-0.537,-1.007,0.275,-0.214,73.333,56119.000,1.000
3.008,3.083,3.077,3.240,2.883,3.131,2.745,3.209,-0.061,0.872,-0.537,-0.977,0.305,-0.153,73.333,56120.000,1.000
3.009,3.148,3.058,3.289,2.920,3.097,2.914,3.316,-0.059,0.875,-0.536,-0.793,0.122,-0.122,73.333,56121.000,1.000
2.827,2.984,2.864,3.120,2.813,2.874,2.923,3.220,-0.060,0.877,-0.538,-0.793,-0.031,-0.153,73.333,56122.000,1.000
2.380,2.498,2.444,2.653,2.431,2.380,2.622,2.808,-0.060,0.877,-0.538,-0.824,-0.153,-0.092,73.333,56123.000,1.000
1.888,1.927,2.024,2.134,1.958,1.833,2.200,2.300,-0.061,0.876,-0.539,-0.824,-0.305,0.000,73.333,56124.000,1.000
1.693,1.653,1.919,1.931,1.735,1.579,2.009,2.063,-0.061,0.875,-0.537,-0.885,-0.397,0.000,73.333,56125.000,1.000
1.985,1.881,2.272,2.231,1.973,1.801,2.251,2.300,-0.061,0.875,-0.534,-0.916,-0.427,0.061,73.333,56126.000,1.000
2.667,2.493,2.931,2.890,2.592,2.392,2.816,2.899,-0.060,0.875,-0.534,-0.824,-0.549,0.183,73.333,56127.000,1.000
3.491,3.224,3.631,3.621,3.366,3.119,3.450,3.600,-0.061,0.872,-0.538,-0.916,-0.702,0.275,73.333,56128.000,1.000
4.170,3.814,4.130,4.141,4.030,3.734,3.898,4.136,-0.061,0.869,-0.537,-0.854,-0.824,0.336,73.333,56129.000,1.000
4.376,3.998,4.182,4.176,4.260,3.943,3.905,4.228,-0.060,0.868,-0.537,-0.763,-0.916,0.458,73.333,56130.000,1.000
3.840,3.532,3.596,3.530,3.768,3.473,3.275,3.646,-0.057,0.868,-0.539,-0.732,-0.977,0.580,73.333,56131.000,1.000
2.518,2.345,2.369,2.205,2.494,2.254,2.000,2.365,-0.054,0.868,-0.543,-0.702,-1.007,0.610,73.333,56132.000,1.000
0.719,0.700,0.782,0.511,0.757,0.571,0.372,0.675,-0.053,0.868,-0.542,-0.641,-1.068,0.671,73.333,56133.000,1.000
-0.996,-0.892,-0.708,-1.058,-0.883,-1.042,-1.132,-0.933,-0.052,0.869,-0.543,-0.580,-1.038,0.763,73.333,56134.000,1.000
-2.132,-1.977,-1.714,-2.093,-1.962,-2.115,-2.120,-2.029,-0.051,0.869,-0.539,-0.427,-0.946,0.885,73.333,56135.000,1.000
-2.538,-2.415,-2.125,-2.487,-2.368,-2.507,-2.495,-2.465,-0.056,0.872,-0.540,-0.397,-0.885,0.946,73.333,56136.000,1.000
-2.473,-2.441,-2.168,-2.473,-2.359,-2.469,-2.496,-2.456,-0.061,0.873,-0.538,-0.366,-0.824,0.946,73.333,56137.000,1.000
-2.348,-2.421,-2.194,-2.411,-2.312,-2.380,-2.477,-2.374,-0.062,0.875,-0.536,-0.366,-0.885,0.824,73.333,56138.000,1.000
-2.472,-2.631,-2.466,-2.577,-2.497,-2.520,-2.696,-2.530,-0.064,0.872,-0.536,-0.366,-0.885,0.763,73.333,56139.000,1.000
-2.999,-3.219,-3.109,-3.111,-3.052,-3.035,-3.269,-3.099,-0.065,0.870,-0.537,-0.458,-1.038,0.671,73.333,56140.000,1.000
-3.917,-4.186,-4.102,-4.008,-3.975,-3.931,-4.160,-4.084,-0.061,0.869,-0.541,-0.519,-1.190,0.641,73.333,56141.000,1.000
-5.092,-5.393,-5.324,-5.159,-5.153,-5.086,-5.242,-5.340,-0.058,0.869,-0.541,-0.519,-1.251,0.610,73.333,56142.000,1.000
-6.274,-6.554,-6.515,-6.322,-6.342,-6.238,-6.287,-6.581,-0.057,0.868,-0.542,-0.458,-1.282,0.397,73.333,56143.000,1.000
-7.118,-7.293,-7.297,-7.137,-7.183,-7.025,-6.979,-7.416,-0.057,0.870,-0.542,-0.366,-1.251,0.336,73.333,56144.000,1.000
-7.300,-7.311,-7.338,-7.262,-7.333,-7.128,-7.022,-7.496,-0.055,0.870,-0.541,-0.305,-1.282,0.397,73.333,56145.000,1.000
-6.634,-6.493,-6.510,-6.523,-6.611,-6.385,-6.266,-6.672,-0.056,0.870,-0.537,-0.336,-1.251,0.336,73.333,56146.000,1.000
-5.168,-4.952,-4.945,-5.005,-5.083,-4.875,-4.773,-5.067,-0.054,0.872,-0.539,-0.275,-1.251,0.366,73.333,56147.000,1.000
-3.112,-2.928,-2.899,-2.958,-2.989,-2.837,-2.750,-2.964,-0.055,0.875,-0.539,-0.305,-1.251,0.336,73.333,56148.000,1.000
-0.738,-0.677,-0.636,-0.670,-0.641,-0.557,-0.460,-0.665,-0.056,0.875,-0.544,-0.458,-1.068,0.244,73.333,56149.000,1.000
1.645,1.525,1.577,1.556,1.628,1.673,1.782,1.530,-0.054,0.875,-0.544,-0.519,-1.068,0.275,73.333,56150.000,1.000
3.699,3.407,3.468,3.426,3.522,3.577,3.656,3.350,-0.053,0.876,-0.544,-0.519,-0.885,0.305,73.333,56151.000,1.000
5.150,4.761,4.829,4.747,4.848,4.948,4.944,4.622,-0.053,0.875,-0.544,-0.549,-0.732,0.214,73.333,56152.000,1.000
5.905,5.531,5.589,5.496,5.582,5.710,5.622,5.341,-0.053,0.876,-0.541,-0.488,-0.671,0.153,73.333,56153.000,1.000
5.984,5.718,5.755,5.707,5.760,5.846,5.741,5.545,-0.054,0.876,-0.543,-0.519,-0.610,0.122,73.333,56154.000,1.000
5.408,5.273,5.298,5.326,5.356,5.314,5.285,5.185,-0.054,0.876,-0.540,-0.732,-0.641,0.183,73.333,56155.000,1.000
4.228,4.176,4.222,4.306,4.336,4.129,4.240,4.206,-0.052,0.875,-0.544,-0.732,-0.519,0.275,73.333,56156.000,1.000
2.602,2.556,2.659,2.741,2.787,2.463,2.709,2.691,-0.052,0.876,-0.542,-0.763,-0.427,0.366,73.333,56157.000,1.000
0.838,0.749,0.916,0.932,1.015,0.672,0.984,0.947,-0.054,0.875,-0.540,-0.854,-0.275,0.458,73.333,56158.000,1.000
-0.683,-0.817,-0.616,-0.718,-0.547,-0.825,-0.541,-0.606,-0.055,0.873,-0.540,-0.916,-0.244,0.458,73.333,56159.000,1.000
-1.707,-1.844,-1.663,-1.899,-1.574,-1.765,-1.576,-1.677,-0.055,0.871,-0.542,-0.946,-0.122,0.488,73.333,56160.000,1.000
-2.181,-2.264,-2.150,-2.484,-1.973,-2.118,-2.035,-2.190,-0.053,0.872,-0.542,-1.007,-0.092,0.458,73.333,56161.000,1.000
-2.177,-2.169,-2.138,-2.494,-1.834,-1.998,-1.976,-2.210,-0.053,0.876,-0.545,-0.946,0.000,0.519,73.333,56162.000,1.000
-1.763,-1.689,-1.718,-2.017,-1.312,-1.534,-1.508,-1.824,-0.058,0.875,-0.541,-0.977,0.031,0.427,73.333,56163.000,1.000
-1.037,-0.966,-1.012,-1.217,-0.583,-0.871,-0.798,-1.149,-0.058,0.875,-0.542,-0.946,0.000,0.397,73.333,56164.000,1.000
-0.183,-0.185,-0.209,-0.345,0.170,-0.191,-0.080,-0.379,-0.061,0.873,-0.542,-1.007,0.031,0.397,73.333,56165.000,1.000
0.592,0.486,0.497,0.372,0.806,0.357,0.458,0.282,-0.059,0.875,-0.541,-1.007,-0.092,0.244,73.333,56166.000,1.000
1.104,0.910,0.940,0.793,1.200,0.667,0.718,0.671,-0.058,0.875,-0.541,-1.007,0.000,0.183,73.333,56167.000,1.000
1.344,1.093,1.117,0.964,1.344,0.787,0.779,0.808,-0.060,0.875,-0.543,-1.007,0.000,0.183,73.333,56168.000,1.000
1.558,1.276,1.274,1.163,1.455,0.987,0.926,0.965,-0.057,0.873,-0.542,-1.099,-0.031,0.305,73.333,56169.000,1.000
2.089,1.795,1.761,1.734,1.871,1.597,1.502,1.508,-0.057,0.868,-0.539,-1.099,0.061,0.214,73.333,56170.000,1.000
3.124,2.859,2.786,2.857,2.825,2.778,2.673,2.644,-0.058,0.869,-0.538,-1.099,-0.031,0.336,73.333,56171.000,1.000
4.543,4.359,4.241,4.389,4.249,4.387,4.275,4.243,-0.058,0.867,-0.536,-1.038,-0.092,0.336,73.333,56172.000,1.000
6.006,5.926,5.775,5.950,5.807,6.047,5.915,5.915,-0.057,0.868,-0.540,-0.854,-0.214,0.305,73.333,56173.000,1.000
7.152,7.149,6.992,7.145,7.096,7.341,7.193,7.233,-0.059,0.867,-0.536,-0.854,-0.153,0.336,73.333,56174.000,1.000
7.733,7.760,7.617,7.728,7.805,7.977,7.854,7.910,-0.059,0.866,-0.539,-0.732,-0.153,0.366,73.333,56175.000,1.000
7.694,7.743,7.598,7.677,7.849,7.910,7.855,7.893,-0.058,0.865,-0.538,-0.610,-0.275,0.305,73.333,56176.000,1.000
7.122,7.228,7.036,7.104,7.318,7.258,7.302,7.292,-0.058,0.867,-0.538,-0.580,-0.336,0.305,73.333,56177.000,1.000
6.094,6.303,6.050,6.101,6.325,6.144,6.303,6.219,-0.060,0.869,-0.534,-0.427,-0.244,0.366,73.333,56178.000,1.000
4.628,4.954,4.683,4.687,4.897,4.619,4.892,4.729,-0.060,0.871,-0.538,-0.366,-0.214,0.366,73.333,56179.000,1.000
2.787,3.201,2.975,2.897,3.069,2.758,3.098,2.890,-0.059,0.870,-0.538,-0.305,-0.244,0.397,73.333,56180.000,1.000
0.807,1.243,1.095,0.920,1.039,0.781,1.103,0.916,-0.059,0.872,-0.540,-0.275,-0.336,0.336,73.333,56181.000,1.000
-0.979,-0.593,-0.670,-0.930,-0.864,-1.006,-0.777,-0.874,-0.058,0.873,-0.543,-0.305,-0.366,0.275,73.333,56182.000,1.000
-2.262,-1.968,-1.994,-2.306,-2.293,-2.293,-2.181,-2.149,-0.058,0.873,-0.541,-0.305,-0.458,0.275,73.333,56183.000,1.000
-2.872,-2.663,-2.651,-2.970,-3.029,-2.881,-2.861,-2.719,-0.056,0.873,-0.540,-0.366,-0.519,0.305,73.333,56184.000,1.000
-2.882,-2.716,-2.663,-2.951,-3.111,-2.829,-2.833,-2.663,-0.055,0.873,-0.542,-0.305,-0.427,0.275,73.333,56185.000,1.000
-2.572,-2.403,-2.305,-2.537,-2.829,-2.448,-2.382,-2.287,-0.056,0.876,-0.542,-0.214,-0.488,0.275,73.333,56186.000,1.000
-2.326,-2.133,-2.014,-2.175,-2.604,-2.175,-1.970,-2.017,-0.054,0.875,-0.539,-0.305,-0.488,0.244,73.333,56187.000,1.000
-2.466,-2.244,-2.158,-2.252,-2.765,-2.344,-2.021,-2.204,-0.057,0.876,-0.539,-0.305,-0.519,0.305,73.333,56188.000,1.000
-3.084,-2.817,-2.817,-2.868,-3.361,-2.989,-2.664,-2.912,-0.056,0.876,-0.540,-0.488,-0.549,0.275,73.333,56189.000,1.000
-3.975,-3.624,-3.731,-3.773,-4.131,-3.820,-3.636,-3.859,-0.058,0.874,-0.538,-0.519,-0.610,0.366,73.333,56190.000,1.000
-4.734,-4.260,-4.466,-4.528,-4.682,-4.394,-4.467,-4.574,-0.058,0.872,-0.539,-0.610,-0.519,0.366,73.333,56191.000,1.000
-5.044,-4.428,-4.716,-4.811,-4.766,-4.432,-4.807,-4.743,-0.059,0.872,-0.542,-0.641,-0.519,0.305,73.333,56192.000,1.000
-4.849,-4.117,-4.477,-4.585,-4.412,-3.991,-4.618,-4.392,-0.060,0.873,-0.539,-0.641,-0.610,0.275,73.333,56193.000,1.000
-4.366,-3.585,-4.014,-4.079,-3.880,-3.404,-4.134,-3.840,-0.061,0.875,-0.539,-0.549,-0.641,0.244,73.333,56194.000,1.000
-3.951,-3.206,-3.688,-3.641,-3.522,-3.072,-3.721,-3.494,-0.060,0.877,-0.539,-0.702,-0.732,0.214,73.333,56195.000,1.000
-3.856,-3.218,-3.712,-3.504,-3.553,-3.197,-3.636,-3.574,-0.060,0.877,-0.537,-0.793,-0.732,0.122,73.333,56196.000,1.000
-4.091,-3.596,-4.057,-3.683,-3.925,-3.685,-3.903,-3.998,-0.061,0.873,-0.537,-0.916,-0.610,0.183,73.333,56197.000,1.000
-4.445,-4.090,-4.502,-4.004,-4.367,-4.237,-4.331,-4.471,-0.060,0.873,-0.537,-0.916,-0.763,0.153,73.333,56198.000,1.000
-4.661,-4.415,-4.787,-4.244,-4.602,-4.556,-4.664,-4.707,-0.061,0.873,-0.541,-0.946,-0.885,0.061,73.333,56199.000,1.000
-4.617,-4.443,-4.788,-4.299,-4.538,-4.536,-4.756,-4.622,-0.062,0.870,-0.543,-0.885,-0.916,0.061,73.333,56200.000,1.000
-4.358,-4.231,-4.552,-4.212,-4.280,-4.272,-4.618,-4.337,-0.059,0.873,-0.542,-0.916,-0.977,0.031,73.333,56201.000,1.000
-4.016,-3.924,-4.211,-4.077,-3.991,-3.931,-4.353,-4.028,-0.060,0.875,-0.542,-0.946,-0.977,0.061,73.333,56202.000,1.000
-3.621,-3.552,-3.791,-3.856,-3.681,-3.544,-3.973,-3.706,-0.058,0.874,-0.542,-0.977,-1.099,0.122,73.333,56203.000,1.000
-3.093,-3.027,-3.210,-3.395,-3.221,-3.011,-3.395,-3.232,-0.058,0.873,-0.540,-0.854,-1.038,0.122,73.333,56204.000,1.000
-2.393,-2.318,-2.436,-2.620,-2.535,-2.282,-2.587,-2.520,-0.058,0.875,-0.540,-0.946,-1.038,0.092,73.333,56205.000,1.000
-1.565,-1.494,-1.517,-1.600,-1.660,-1.414,-1.599,-1.593,-0.054,0.872,-0.540,-1.068,-0.824,0.214,73.333,56206.000,1.000
-0.746,-0.711,-0.609,-0.572,-0.758,-0.577,-0.606,-0.620,-0.055,0.870,-0.543,-1.129,-0.793,0.305,73.333,56207.000,1.000
-0.149,-0.185,0.035,0.121,-0.094,-0.031,0.107,0.111,-0.055,0.871,-0.542,-1.129,-0.763,0.275,73.333,56208.000,1.000
0.048,-0.083,0.198,0.242,0.100,0.018,0.297,0.343,-0.057,0.874,-0.544,-1.129,-0.732,0.275,73.333,56209.000,1.000
-0.238,-0.461,-0.188,-0.218,-0.276,-0.480,-0.113,-0.014,-0.059,0.874,-0.541,-1.068,-0.671,0.275,73.333,56210.000,1.000
-0.975,-1.259,-1.022,-1.086,-1.146,-1.413,-1.023,-0.872,-0.058,0.873,-0.540,-1.068,-0.610,0.366,73.333,56211.000,1.000
-2.032,-2.337,-2.118,-2.141,-2.313,-2.585,-2.211,-2.044,-0.056,0.872,-0.538,-1.129,-0.458,0.366,73.333,56212.000,1.000
-3.179,-3.478,-3.259,-3.174,-3.505,-3.750,-3.393,-3.278,-0.055,0.872,-0.536,-1.129,-0.427,0.488,73.333,56213.000,1.000
-4.161,-4.439,-4.234,-4.013,-4.462,-4.667,-4.317,-4.305,-0.055,0.871,-0.539,-1.221,-0.488,0.549,73.333,56214.000,1.000
-4.816,-5.070,-4.912,-4.583,-5.050,-5.199,-4.878,-4.951,-0.055,0.871,-0.541,-1.190,-0.366,0.519,73.333,56215.000,1.000
-5.062,-5.315,-5.222,-4.860,-5.229,-5.311,-5.075,-5.159,-0.056,0.870,-0.540,-1.038,-0.305,0.549,73.333,56216.000,1.000
-4.868,-5.162,-5.124,-4.810,-5.001,-5.028,-4.930,-4.965,-0.057,0.873,-0.537,-1.038,-0.275,0.610,73.333,56217.000,1.000
-4.253,-4.624,-4.606,-4.384,-4.388,-4.400,-4.458,-4.440,-0.056,0.872,-0.538,-0.946,-0.244,0.610,73.333,56218.000,1.000
-3.337,-3.774,-3.747,-3.624,-3.490,-3.539,-3.720,-3.695,-0.056,0.872,-0.537,-1.038,-0.244,0.549,73.333,56219.000,1.000
-2.351,-2.811,-2.763,-2.731,-2.521,-2.653,-2.874,-2.897,-0.054,0.872,-0.542,-1.038,-0.183,0.549,73.333,56220.000,1.000
-1.518,-1.955,-1.882,-1.937,-1.696,-1.934,-2.090,-2.186,-0.056,0.872,-0.542,-1.038,-0.122,0.488,73.333,56221.000,1.000
-0.949,-1.345,-1.239,-1.355,-1.140,-1.459,-1.471,-1.620,-0.056,0.870,-0.542,-1.007,-0.061,0.549,73.333,56222.000,1.000
-0.634,-0.998,-0.842,-0.970,-0.855,-1.176,-1.033,-1.190,-0.056,0.872,-0.542,-0.977,-0.031,0.519,73.333,56223.000,1.000
-0.513,-0.853,-0.641,-0.732,-0.764,-0.993,-0.749,-0.880,-0.056,0.871,-0.539,-0.946,-0.092,0.519,73.333,56224.000,1.000
-0.535,-0.839,-0.598,-0.630,-0.789,-0.864,-0.603,-0.703,-0.056,0.870,-0.540,-0.885,-0.092,0.549,73.333,56225.000,1.000
-0.600,-0.844,-0.629,-0.609,-0.818,-0.752,-0.536,-0.617,-0.055,0.869,-0.540,-0.793,-0.031,0.549,73.333,56226.000,1.000
-0.554,-0.725,-0.584,-0.532,-0.716,-0.579,-0.429,-0.493,-0.055,0.871,-0.539,-0.885,0.061,0.549,73.333,56227.000,1.000
-0.269,-0.369,-0.310,-0.251,-0.377,-0.235,-0.146,-0.173,-0.055,0.872,-0.536,-0.824,0.061,0.458,73.333,56228.000,1.000
0.285,0.238,0.247,0.295,0.214,0.345,0.368,0.408,-0.056,0.870,-0.538,-0.885,0.061,0.488,73.333,56229.000,1.000
1.026,0.996,0.991,1.021,0.974,1.102,1.035,1.160,-0.056,0.872,-0.541,-0.854,0.092,0.488,73.333,56230.000,1.000
1.818,1.744,1.748,1.766,1.778,1.879,1.705,1.906,-0.056,0.871,-0.542,-0.702,0.153,0.458,73.333,56231.000,1.000
2.456,2.274,2.300,2.307,2.433,2.451,2.172,2.429,-0.056,0.871,-0.543,-0.641,0.183,0.519,73.333,56232.000,1.000
2.732,2.409,2.479,2.472,2.739,2.620,2.279,2.571,-0.056,0.875,-0.540,-0.671,0.122,0.427,73.333,56233.000,1.000
2.594,2.152,2.293,2.272,2.632,2.369,2.046,2.353,-0.057,0.874,-0.540,-0.702,0.061,0.488,73.333,56234.000,1.000
2.178,1.682,1.894,1.883,2.236,1.873,1.647,1.944,-0.058,0.875,-0.539,-0.671,0.122,0.366,73.333,56235.000,1.000
1.709,1.247,1.482,1.513,1.777,1.380,1.290,1.549,-0.057,0.874,-0.538,-0.885,0.153,0.275,73.333,56236.000,1.000
1.347,1.002,1.189,1.272,1.431,1.060,1.090,1.284,-0.055,0.873,-0.542,-0.916,0.122,0.305,73.333,56237.000,1.000
1.190,1.000,1.088,1.216,1.296,0.989,1.096,1.214,-0.058,0.872,-0.544,-0.946,0.092,0.305,73.333,56238.000,1.000
1.304,1.246,1.238,1.402,1.423,1.193,1.346,1.390,-0.056,0.870,-0.544,-0.885,0.000,0.336,73.333,56239.000,1.000
1.650,1.670,1.617,1.802,1.767,1.599,1.793,1.773,-0.057,0.870,-0.544,-0.824,0.061,0.336,73.333,56240.000,1.000
2.046,2.109,2.071,2.243,2.151,2.031,2.264,2.180,-0.058,0.869,-0.541,-0.671,-0.031,0.366,73.333,56241.000,1.000
2.250,2.331,2.350,2.474,2.318,2.258,2.502,2.350,-0.056,0.868,-0.539,-0.641,-0.061,0.366,73.333,56242.000,1.000
2.120,2.185,2.270,2.331,2.120,2.140,2.328,2.123,-0.056,0.870,-0.537,-0.671,-0.031,0.366,73.333,56243.000,1.000
1.721,1.731,1.853,1.856,1.638,1.720,1.789,1.584,-0.055,0.870,-0.539,-0.641,0.000,0.305,73.333,56244.000,1.000
1.272,1.212,1.329,1.289,1.137,1.220,1.153,1.019,-0.056,0.871,-0.537,-0.641,-0.031,0.336,73.333,56245.000,1.000
1.053,0.947,1.039,0.979,0.922,0.954,0.796,0.781,-0.055,0.872,-0.540,-0.702,0.031,0.366,73.333,56246.000,1.000
1.230,1.131,1.219,1.155,1.158,1.139,0.973,1.060,-0.056,0.871,-0.542,-0.580,-0.031,0.336,73.333,56247.000,1.000
1.775,1.740,1.854,1.776,1.785,1.763,1.667,1.780,-0.056,0.871,-0.543,-0.580,0.000,0.366,73.333,56248.000,1.000
2.517,2.562,2.716,2.586,2.582,2.618,2.612,2.672,-0.056,0.871,-0.543,-0.549,0.000,0.366,73.333,56249.000,1.000
3.196,3.298,3.473,3.257,3.249,3.390,3.431,3.416,-0.054,0.872,-0.542,-0.580,0.000,0.427,73.333,56250.000,1.000
3.531,3.661,3.806,3.518,3.519,3.770,3.788,3.740,-0.056,0.872,-0.541,-0.488,-0.122,0.427,73.333,56251.000,1.000
3.315,3.464,3.525,3.235,3.246,3.552,3.523,3.497,-0.056,0.873,-0.541,-0.519,-0.214,0.427,73.333,56252.000,1.000
2.612,2.791,2.751,2.552,2.559,2.818,2.790,2.815,-0.056,0.876,-0.539,-0.549,-0.214,0.397,73.333,56253.000,1.000
1.791,2.005,1.899,1.858,1.829,1.956,2.007,2.080,-0.055,0.876,-0.540,-0.641,-0.153,0.458,73.333,56254.000,1.000
1.196,1.433,1.332,1.439,1.357,1.334,1.496,1.606,-0.057,0.875,-0.541,-0.671,-0.183,0.397,73.333,56255.000,1.000
0.910,1.133,1.099,1.268,1.173,1.047,1.258,1.406,-0.057,0.875,-0.541,-0.854,-0.244,0.305,73.333,56256.000,1.000
0.788,0.962,0.999,1.118,1.108,0.949,1.088,1.269,-0.057,0.875,-0.539,-0.916,-0.214,0.275,73.333,56257.000,1.000
0.645,0.768,0.820,0.813,0.984,0.844,0.821,0.999,-0.058,0.873,-0.541,-0.916,-0.244,0.275,73.333,56258.000,1.000
0.376,0.468,0.481,0.340,0.701,0.614,0.433,0.539,-0.057,0.872,-0.538,-0.885,-0.336,0.122,73.333,56259.000,1.000
-0.023,0.034,0.013,-0.213,0.240,0.224,-0.025,-0.042,-0.055,0.873,-0.537,-0.854,-0.366,-0.031,73.333,56260.000,1.000
-0.439,-0.452,-0.451,-0.695,-0.288,-0.237,-0.440,-0.583,-0.054,0.871,-0.540,-0.885,-0.275,0.000,73.333,56261.000,1.000
-0.692,-0.796,-0.711,-0.928,-0.659,-0.560,-0.659,-0.887,-0.053,0.872,-0.541,-0.885,-0.305,-0.061,73.333,56262.000,1.000
-0.605,-0.768,-0.576,-0.758,-0.641,-0.507,-0.533,-0.784,-0.054,0.869,-0.544,-0.946,-0.183,-0.031,73.333,56263.000,1.000
-0.121,-0.270,0.004,-0.164,-0.144,0.028,-0.024,-0.239,-0.055,0.868,-0.544,-1.007,-0.122,-0.061,73.333,56264.000,1.000
0.635,0.573,0.864,0.680,0.694,0.910,0.736,0.591,-0.057,0.869,-0.545,-1.038,-0.153,0.092,73.333,56265.000,1.000
1.475,1.549,1.783,1.571,1.637,1.905,1.581,1.504,-0.059,0.871,-0.543,-0.977,-0.214,0.244,73.333,56266.000,1.000
2.244,2.466,2.598,2.364,2.477,2.798,2.389,2.349,-0.060,0.872,-0.543,-0.854,-0.366,0.366,73.333,56267.000,1.000
2.846,3.194,3.205,2.969,3.086,3.443,3.066,3.029,-0.064,0.876,-0.545,-0.885,-0.458,0.519,73.333,56268.000,1.000
3.252,3.669,3.562,3.351,3.443,3.786,3.534,3.497,-0.069,0.875,-0.540,-0.946,-0.763,0.580,73.333,56269.000,1.000
3.442,3.849,3.644,3.503,3.571,3.812,3.725,3.706,-0.067,0.876,-0.542,-1.007,-1.007,0.610,73.333,56270.000,1.000
3.372,3.694,3.428,3.415,3.473,3.520,3.596,3.610,-0.067,0.877,-0.541,-1.099,-1.190,0.641,73.333,56271.000,1.000
2.945,3.141,2.851,3.010,3.068,2.881,3.085,3.143,-0.067,0.878,-0.542,-1.221,-1.373,0.549,73.333,56272.000,1.000
2.070,2.142,1.860,2.183,2.247,1.874,2.145,2.248,-0.066,0.878,-0.541,-1.312,-1.587,0.519,73.333,56273.000,1.000
0.793,0.768,0.520,0.938,1.011,0.565,0.833,0.960,-0.063,0.878,-0.537,-1.373,-1.740,0.458,73.333,56274.000,1.000
-0.706,-0.790,-0.987,-0.570,-0.489,-0.893,-0.682,-0.580,-0.061,0.874,-0.538,-1.526,-1.831,0.519,73.333,56275.000,1.000
-2.177,-2.284,-2.418,-2.083,-2.015,-2.302,-2.159,-2.134,-0.057,0.870,-0.541,-1.678,-1.740,0.519,73.333,56276.000,1.000
-3.363,-3.466,-3.531,-3.321,-3.305,-3.456,-3.341,-3.417,-0.055,0.865,-0.540,-1.648,-1.709,0.519,73.333,56277.000,1.000
-4.014,-4.108,-4.114,-4.027,-4.093,-4.129,-3.981,-4.141,-0.052,0.861,-0.541,-1.648,-1.678,0.519,73.333,56278.000,1.000
-4.000,-4.093,-4.069,-4.072,-4.211,-4.168,-3.948,-4.151,-0.051,0.861,-0.542,-1.465,-1.617,0.488,73.333,56279.000,1.000
-3.464,-3.561,-3.531,-3.578,-3.761,-3.657,-3.387,-3.586,-0.052,0.863,-0.544,-1.282,-1.495,0.641,73.333,56280.000,1.000
-2.722,-2.821,-2.781,-2.838,-3.033,-2.871,-2.629,-2.775,-0.052,0.867,-0.542,-1.190,-1.404,0.702,73.333,56281.000,1.000
-2.061,-2.154,-2.070,-2.135,-2.314,-2.105,-1.980,-2.022,-0.054,0.869,-0.543,-1.099,-1.373,0.641,73.333,56282.000,1.000
-1.564,-1.633,-1.484,-1.569,-1.720,-1.481,-1.514,-1.436,-0.054,0.871,-0.539,-1.099,-1.282,0.702,73.333,56283.000,1.000
-1.079,-1.107,-0.925,-1.021,-1.155,-0.904,-1.054,-0.904,-0.056,0.874,-0.538,-1.007,-1.221,0.702,73.333,56284.000,1.000
-0.388,-0.374,-0.239,-0.301,-0.446,-0.214,-0.369,-0.241,-0.055,0.875,-0.540,-1.190,-1.129,0.702,73.333,56285.000,1.000
0.610,0.661,0.657,0.688,0.514,0.688,0.639,0.653,-0.054,0.877,-0.538,-1.373,-1.068,0.580,73.333,56286.000,1.000
1.785,1.875,1.669,1.829,1.637,1.740,1.821,1.683,-0.054,0.877,-0.543,-1.404,-0.885,0.580,73.333,56287.000,1.000
2.804,2.933,2.520,2.805,2.621,2.677,2.823,2.568,-0.052,0.875,-0.544,-1.434,-0.854,0.519,73.333,56288.000,1.000
3.260,3.414,2.873,3.222,3.060,3.110,3.248,2.961,-0.049,0.871,-0.545,-1.373,-0.824,0.549,73.333,56289.000,1.000
2.831,2.992,2.445,2.773,2.619,2.701,2.813,2.577,-0.050,0.867,-0.546,-1.343,-0.763,0.458,73.333,56290.000,1.000
1.475,1.625,1.178,1.424,1.245,1.383,1.514,1.364,-0.048,0.867,-0.543,-1.221,-0.671,0.519,73.333,56291.000,1.000
-0.522,-0.412,-0.701,-0.543,-0.779,-0.582,-0.387,-0.453,-0.048,0.865,-0.543,-1.068,-0.519,0.488,73.333,56292.000,1.000
-2.713,-2.664,-2.794,-2.678,-2.990,-2.759,-2.508,-2.505,-0.049,0.863,-0.541,-1.007,-0.488,0.549,73.333,56293.000,1.000
-4.676,-4.673,-4.697,-4.559,-4.941,-4.726,-4.482,-4.417,-0.051,0.865,-0.542,-1.038,-0.397,0.549,73.333,56294.000,1.000
-6.115,-6.098,-6.110,-5.910,-6.319,-6.180,-6.009,-5.888,-0.048,0.871,-0.542,-1.068,-0.153,0.549,73.333,56295.000,1.000
-6.866,-6.771,-6.849,-6.588,-6.964,-6.943,-6.870,-6.710,-0.046,0.875,-0.539,-1.068,-0.031,0.519,73.333,56296.000,1.000
-6.969,-6.766,-6.922,-6.641,-6.939,-7.037,-7.040,-6.867,-0.048,0.878,-0.542,-1.099,0.092,0.580,73.333,56297.000,1.000
-6.635,-6.356,-6.522,-6.279,-6.499,-6.681,-6.712,-6.543,-0.048,0.880,-0.540,-1.251,0.336,0.519,73.333,56298.000,1.000
-6.066,-5.783,-5.857,-5.707,-5.866,-6.071,-6.107,-5.945,-0.050,0.879,-0.540,-1.312,0.427,0.549,73.333,56299.000,1.000
-5.331,-5.112,-5.028,-5.006,-5.114,-5.262,-5.338,-5.174,-0.053,0.878,-0.540,-1.404,0.519,0.610,73.333,56300.000,1.000
-4.381,-4.256,-4.034,-4.137,-4.192,-4.206,-4.393,-4.221,-0.061,0.877,-0.541,-1.465,0.336,0.488,73.333,56301.000,1.000
-3.123,-3.087,-2.814,-3.007,-2.998,-2.860,-3.193,-3.019,-0.069,0.877,-0.545,-1.526,0.214,0.244,73.333,56302.000,1.000
-1.516,-1.534,-1.305,-1.541,-1.446,-1.234,-1.667,-1.503,-0.073,0.876,-0.540,-1.526,0.031,0.122,73.333,56303.000,1.000
0.306,0.288,0.416,0.174,0.384,0.527,0.093,0.240,-0.075,0.875,-0.540,-1.495,-0.305,-0.061,73.333,56304.000,1.000
1.927,1.959,1.990,1.751,2.093,2.045,1.700,1.822,-0.076,0.876,-0.542,-1.526,-0.519,-0.183,73.333,56305.000,1.000
2.821,2.911,2.894,2.658,3.108,2.843,2.623,2.707,-0.074,0.875,-0.539,-1.556,-0.793,-0.305,73.333,56306.000,1.000
2.656,2.770,2.777,2.555,3.038,2.633,2.518,2.555,-0.070,0.876,-0.535,-1.617,-1.129,-0.427,73.333,56307.000,1.000
1.558,1.661,1.745,1.569,1.984,1.566,1.507,1.506,-0.068,0.875,-0.538,-1.740,-1.343,-0.458,73.333,56308.000,1.000
0.157,0.248,0.416,0.320,0.589,0.266,0.233,0.212,-0.068,0.871,-0.535,-1.801,-1.617,-0.458,73.333,56309.000,1.000
-0.667,-0.557,-0.357,-0.364,-0.255,-0.430,-0.424,-0.462,-0.067,0.872,-0.537,-1.862,-1.678,-0.458,73.333,56310.000,1.000
-0.192,-0.026,0.112,0.167,0.178,0.139,0.211,0.147,-0.067,0.872,-0.538,-1.892,-1.831,-0.427,73.333,56311.000,1.000
1.794,2.031,2.017,2.087,2.094,2.135,2.275,2.178,-0.067,0.870,-0.535,-1.862,-2.075,-0.427,73.333,56312.000,1.000
4.962,5.247,5.042,5.098,5.163,5.213,5.389,5.264,-0.064,0.869,-0.540,-1.709,-2.167,-0.366,73.333,56313.000,1.000
8.669,8.941,8.584,8.628,8.768,8.761,8.936,8.783,-0.063,0.872,-0.536,-1.526,-2.289,-0.305,73.333,56314.000,1.000
12.158,12.361,11.951,11.985,12.208,12.098,12.251,12.059,-0.061,0.875,-0.537,-1.465,-2.502,-0.275,73.333,56315.000,1.000
14.732,14.843,14.495,14.496,14.812,14.591,14.718,14.470,-0.060,0.876,-0.534,-1.404,-2.411,-0.031,73.333,56316.000,1.000
15.841,15.875,15.664,15.595,15.982,15.710,15.807,15.481,-0.058,0.877,-0.537,-1.495,-2.380,0.183,73.333,56317.000,1.000
15.209,15.181,15.122,14.955,15.346,15.143,15.187,14.767,-0.057,0.876,-0.536,-1.587,-2.350,0.366,73.333,56318.000,1.000
12.964,12.864,12.925,12.655,12.972,12.953,12.899,12.419,-0.058,0.877,-0.537,-1.648,-2.319,0.580,73.333,56319.000,1.000
9.561,9.356,9.488,9.147,9.336,9.545,9.358,8.910,-0.058,0.875,-0.537,-1.740,-2.258,0.763,73.333,56320.000,1.000
5.582,5.244,5.419,5.071,5.104,5.504,5.198,4.882,-0.059,0.872,-0.539,-1.740,-2.197,0.977,73.333,56321.000,1.000
1.546,1.075,1.301,1.014,0.887,1.375,1.038,0.895,-0.060,0.872,-0.539,-1.709,-2.136,1.007,73.333,56322.000,1.000
-2.175,-2.741,-2.447,-2.624,-2.897,-2.446,-2.686,-2.699,-0.059,0.871,-0.536,-1.709,-2.136,1.160,73.333,56323.000,1.000
-5.328,-5.913,-5.571,-5.618,-6.004,-5.677,-5.738,-5.716,-0.057,0.871,-0.537,-1.740,-2.014,1.160,73.333,56324.000,1.000
-7.775,-8.294,-7.972,-7.885,-8.335,-8.157,-8.052,-8.077,-0.056,0.874,-0.539,-1.801,-1.923,1.190,73.333,56325.000,1.000
-9.480,-9.872,-9.653,-9.443,-9.885,-9.850,-9.648,-9.750,-0.053,0.873,-0.538,-1.801,-1.831,1.129,73.333,56326.000,1.000
-10.508,-10.750,-10.688,-10.389,-10.744,-10.829,-10.591,-10.764,-0.050,0.875,-0.534,-1.740,-1.770,1.099,73.333,56327.000,1.000
-10.997,-11.102,-11.188,-10.871,-11.080,-11.240,-10.997,-11.220,-0.052,0.874,-0.532,-1.770,-1.465,1.251,73.333,56328.000,1.000
-11.107,-11.110,-11.269,-11.014,-11.089,-11.243,-11.021,-11.251,-0.051,0.874,-0.535,-1.801,-1.434,1.190,73.333,56329.000,1.000
-10.960,-10.913,-11.037,-10.892,-10.926,-10.970,-10.821,-10.979,-0.051,0.875,-0.540,-1.892,-1.221,1.251,73.333,56330.000,1.000
-10.561,-10.522,-10.519,-10.486,-10.592,-10.457,-10.438,-10.433,-0.051,0.870,-0.541,-1.831,-0.977,1.221,73.333,56331.000,1.000
-9.791,-9.794,-9.638,-9.690,-9.916,-9.625,-9.745,-9.522,-0.051,0.869,-0.540,-1.831,-0.763,1.099,73.333,56332.000,1.000
-8.463,-8.500,-8.231,-8.344,-8.637,-8.300,-8.492,-8.075,-0.052,0.868,-0.538,-1.831,-0.458,1.007,73.333,56333.000,1.000
-6.460,-6.496,-6.170,-6.346,-6.597,-6.358,-6.508,-5.999,-0.051,0.871,-0.536,-1.740,-0.397,0.916,73.333,56334.000,1.000
-3.889,-3.906,-3.554,-3.820,-3.926,-3.881,-3.911,-3.437,-0.051,0.871,-0.540,-1.587,-0.305,0.946,73.333,56335.000,1.000
-0.980,-0.985,-0.635,-1.013,-0.914,-1.063,-1.002,-0.639,-0.052,0.873,-0.538,-1.404,-0.092,0.824,73.333,56336.000,1.000
2.084,2.066,2.364,1.894,2.193,1.938,1.973,2.227,-0.052,0.873,-0.535,-1.373,-0.031,0.702,73.333,56337.000,1.000
5.176,5.120,5.305,4.814,5.242,4.995,4.894,5.081,-0.051,0.871,-0.539,-1.495,0.153,0.641,73.333,56338.000,1.000
8.122,8.020,8.047,7.641,8.087,7.917,7.654,7.808,-0.050,0.871,-0.537,-1.526,0.153,0.580,73.333,56339.000,1.000
10.619,10.496,10.355,10.115,10.481,10.386,10.043,10.158,-0.049,0.870,-0.543,-1.465,0.214,0.519,73.333,56340.000,1.000
12.344,12.236,11.983,11.916,12.150,12.068,11.802,11.850,-0.049,0.870,-0.541,-1.312,0.458,0.427,73.333,56341.000,1.000
13.110,13.033,12.777,12.828,12.931,12.782,12.734,12.700,-0.052,0.873,-0.542,-1.221,0.580,0.397,73.333,56342.000,1.000
12.924,12.877,12.705,12.807,12.823,12.566,12.773,12.669,-0.053,0.874,-0.539,-1.099,0.641,0.366,73.333,56343.000,1.000
11.974,11.948,11.867,11.987,11.985,11.648,12.022,11.869,-0.055,0.877,-0.536,-0.977,0.641,0.214,73.333,56344.000,1.000
10.522,10.507,10.462,10.596,10.644,10.297,10.689,10.505,-0.055,0.877,-0.537,-1.038,0.641,0.092,73.333,56345.000,1.000
8.818,8.792,8.743,8.878,9.018,8.723,9.000,8.815,-0.057,0.875,-0.538,-1.038,0.793,0.122,73.333,56346.000,1.000
7.024,6.963,6.926,7.028,7.263,7.034,7.134,7.000,-0.058,0.872,-0.535,-1.221,0.763,0.031,73.333,56347.000,1.000
5.276,5.169,5.205,5.245,5.536,5.342,5.284,5.259,-0.059,0.871,-0.534,-1.221,0.702,0.031,73.333,56348.000,1.000
3.773,3.634,3.791,3.775,4.062,3.861,3.718,3.834,-0.058,0.873,-0.537,-1.038,0.610,0.031,73.333,56349.000,1.000
2.656,2.529,2.792,2.762,2.980,2.760,2.624,2.861,-0.059,0.875,-0.538,-1.038,0.580,0.061,73.333,56350.000,1.000
1.891,1.836,2.126,2.123,2.237,2.020,1.964,2.256,-0.062,0.875,-0.542,-1.038,0.549,0.061,73.333,56351.000,1.000
1.312,1.372,1.587,1.613,1.638,1.463,1.512,1.783,-0.065,0.881,-0.541,-1.007,0.366,0.061,73.333,56352.000,1.000
0.791,0.955,1.025,1.036,1.034,0.927,1.051,1.258,-0.067,0.878,-0.537,-1.038,0.214,0.183,73.333,56353.000,1.000
0.326,0.536,0.460,0.400,0.436,0.390,0.540,0.678,-0.067,0.877,-0.533,-1.068,-0.061,0.092,73.333,56354.000,1.000
-0.044,0.139,-0.017,-0.171,-0.078,-0.089,0.059,0.136,-0.067,0.873,-0.534,-1.129,-0.183,0.031,73.333,56355.000,1.000
-0.287,-0.193,-0.325,-0.535,-0.428,-0.429,-0.273,-0.259,-0.064,0.874,-0.534,-1.221,-0.336,0.031,73.333,56356.000,1.000
-0.377,-0.398,-0.421,-0.604,-0.548,-0.563,-0.367,-0.426,-0.063,0.871,-0.536,-1.099,-0.397,0.061,73.333,56357.000,1.000
-0.315,-0.424,-0.311,-0.411,-0.429,-0.476,-0.226,-0.344,-0.062,0.868,-0.539,-0.977,-0.458,0.092,73.333,56358.000,1.000
-0.112,-0.232,-0.031,-0.058,-0.106,-0.189,0.084,-0.041,-0.061,0.866,-0.535,-1.007,-0.580,0.214,73.333,56359.000,1.000
0.202,0.166,0.355,0.348,0.343,0.244,0.468,0.400,-0.062,0.866,-0.534,-0.824,-0.610,0.305,73.333,56360.000,1.000
0.581,0.690,0.762,0.746,0.798,0.747,0.848,0.863,-0.060,0.869,-0.535,-0.641,-0.763,0.305,73.333,56361.000,1.000
0.960,1.208,1.116,1.105,1.148,1.229,1.175,1.237,-0.058,0.870,-0.539,-0.702,-0.702,0.366,73.333,56362.000,1.000
1.289,1.605,1.387,1.412,1.353,1.617,1.425,1.477,-0.054,0.873,-0.538,-0.732,-0.732,0.549,73.333,56363.000,1.000
1.538,1.820,1.576,1.650,1.450,1.864,1.584,1.597,-0.053,0.873,-0.540,-0.793,-0.671,0.610,73.333,56364.000,1.000
1.606,1.774,1.617,1.736,1.415,1.875,1.564,1.559,-0.051,0.873,-0.538,-0.702,-0.671,0.732,73.333,56365.000,1.000
1.354,1.386,1.378,1.532,1.143,1.538,1.243,1.261,-0.053,0.873,-0.538,-0.580,-0.610,0.885,73.333,56366.000,1.000
0.690,0.618,0.744,0.928,0.530,0.791,0.554,0.620,-0.055,0.872,-0.535,-0.549,-0.549,1.007,73.333,56367.000,1.000
-0.395,-0.529,-0.329,-0.110,-0.476,-0.365,-0.505,-0.395,-0.060,0.870,-0.535,-0.458,-0.580,1.129,73.333,56368.000,1.000
-1.877,-2.066,-1.846,-1.575,-1.912,-1.923,-1.937,-1.815,-0.062,0.869,-0.534,-0.519,-0.610,1.099,73.333,56369.000,1.000
-3.792,-4.049,-3.838,-3.519,-3.849,-3.932,-3.817,-3.741,-0.064,0.868,-0.537,-0.397,-0.763,1.007,73.333,56370.000,1.000
-6.171,-6.485,-6.304,-5.978,-6.293,-6.405,-6.202,-6.224,-0.065,0.867,-0.539,-0.427,-0.793,1.007,73.333,56371.000,1.000
-8.923,-9.231,-9.110,-8.833,-9.094,-9.206,-8.988,-9.109,-0.064,0.871,-0.538,-0.366,-0.885,0.946,73.333,56372.000,1.000
-11.771,-11.990,-11.961,-11.762,-11.944,-12.027,-11.860,-12.019,-0.062,0.872,-0.536,-0.427,-0.946,0.854,73.333,56373.000,1.000
-14.264,-14.350,-14.423,-14.297,-14.407,-14.428,-14.341,-14.454,-0.059,0.873,-0.540,-0.366,-1.038,0.702,73.333,56374.000,1.000
-15.940,-15.914,-16.065,-16.006,-16.051,-15.997,-15.976,-15.985,-0.059,0.873,-0.541,-0.305,-1.129,0.671,73.333,56375.000,1.000
-16.478,-16.401,-16.583,-16.597,-16.576,-16.470,-16.467,-16.360,-0.054,0.875,-0.539,-0.366,-1.190,0.458,73.333,56376.000,1.000
-15.780,-15.715,-15.869,-15.964,-15.883,-15.768,-15.750,-15.536,-0.054,0.878,-0.537,-0.366,-1.068,0.397,73.333,56377.000,1.000
-13.970,-13.953,-14.028,-14.204,-14.076,-13.985,-13.959,-13.661,-0.053,0.880,-0.536,-0.580,-1.038,0.305,73.333,56378.000,1.000
-11.299,-11.325,-11.295,-11.536,-11.379,-11.334,-11.323,-10.971,-0.054,0.877,-0.538,-0.671,-0.946,0.183,73.333,56379.000,1.000
-8.056,-8.085,-7.959,-8.242,-8.068,-8.107,-8.102,-7.729,-0.055,0.876,-0.541,-0.793,-0.793,0.214,73.333,56380.000,1.000
-4.528,-4.503,-4.324,-4.618,-4.431,-4.618,-4.582,-4.206,-0.056,0.874,-0.540,-0.793,-0.793,0.275,73.333,56381.000,1.000
-1.047,-0.941,-0.775,-1.047,-0.834,-1.213,-1.131,-0.761,-0.058,0.872,-0.539,-0.854,-0.732,0.244,73.333,56382.000,1.000
1.982,2.153,2.227,2.017,2.254,1.723,1.826,2.170,-0.059,0.871,-0.542,-0.854,-0.854,0.244,73.333,56383.000,1.000
4.239,4.424,4.348,4.238,4.452,3.910,3.985,4.258,-0.059,0.874,-0.539,-0.977,-0.824,0.183,73.333,56384.000,1.000
5.592,5.750,5.522,5.523,5.630,5.271,5.269,5.409,-0.058,0.875,-0.541,-1.038,-0.793,0.214,73.333,56385.000,1.000
6.092,6.217,5.888,5.979,5.920,5.891,5.784,5.746,-0.057,0.879,-0.541,-1.038,-0.763,0.244,73.333,56386.000,1.000
5.848,5.968,5.606,5.740,5.542,5.855,5.652,5.436,-0.057,0.878,-0.541,-1.129,-0.824,0.244,73.333,56387.000,1.000
4.967,5.111,4.777,4.896,4.655,5.186,4.937,4.596,-0.055,0.879,-0.539,-1.312,-0.854,0.244,73.333,56388.000,1.000
3.616,3.791,3.530,3.583,3.407,3.965,3.734,3.377,-0.056,0.875,-0.540,-1.251,-0.824,0.275,73.333,56389.000,1.000
2.027,2.203,2.033,2.007,1.965,2.378,2.211,1.971,-0.056,0.875,-0.538,-1.312,-0.732,0.397,73.333,56390.000,1.000
0.442,0.569,0.467,0.406,0.503,0.678,0.592,0.549,-0.058,0.873,-0.540,-1.312,-0.763,0.519,73.333,56391.000,1.000
-0.959,-0.926,-1.016,-1.033,-0.849,-0.899,-0.912,-0.799,-0.058,0.873,-0.542,-1.343,-0.854,0.610,73.333,56392.000,1.000
-2.094,-2.159,-2.283,-2.198,-1.997,-2.177,-2.145,-2.006,-0.060,0.872,-0.541,-1.373,-0.916,0.641,73.333,56393.000,1.000
-2.903,-3.016,-3.186,-3.004,-2.822,-3.008,-2.960,-2.928,-0.057,0.872,-0.537,-1.282,-0.946,0.671,73.333,56394.000,1.000
-3.342,-3.424,-3.634,-3.401,-3.248,-3.332,-3.299,-3.422,-0.057,0.874,-0.540,-1.221,-0.916,0.702,73.333,56395.000,1.000
-3.425,-3.421,-3.662,-3.428,-3.311,-3.228,-3.242,-3.477,-0.056,0.875,-0.539,-1.251,-0.916,0.671,73.333,56396.000,1.000
-3.266,-3.169,-3.437,-3.229,-3.153,-2.918,-2.990,-3.248,-0.060,0.876,-0.537,-1.282,-0.885,0.671,73.333,56397.000,1.000
-3.050,-2.891,-3.182,-2.995,-2.949,-2.665,-2.763,-2.976,-0.058,0.878,-0.538,-1.312,-0.854,0.732,73.333,56398.000,1.000
-2.892,-2.722,-3.031,-2.844,-2.791,-2.593,-2.669,-2.818,-0.059,0.875,-0.541,-1.343,-0.854,0.824,73.333,56399.000,1.000
-2.793,-2.670,-2.981,-2.795,-2.683,-2.649,-2.689,-2.803,-0.058,0.874,-0.539,-1.465,-0.824,0.671,73.333,56400.000,1.000
-2.666,-2.648,-2.920,-2.766,-2.574,-2.668,-2.710,-2.830,-0.058,0.875,-0.537,-1.556,-0.824,0.732,73.333,56401.000,1.000
-2.401,-2.515,-2.682,-2.610,-2.384,-2.476,-2.567,-2.722,-0.057,0.874,-0.540,-1.465,-0.824,0.610,73.333,56402.000,1.000
-1.904,-2.120,-2.131,-2.163,-2.010,-1.960,-2.095,-2.299,-0.057,0.872,-0.536,-1.343,-0.885,0.580,73.333,56403.000,1.000
-1.076,-1.312,-1.174,-1.265,-1.310,-1.043,-1.167,-1.418,-0.056,0.870,-0.535,-1.312,-0.946,0.519,73.333,56404.000,1.000
0.110,-0.051,0.173,0.123,-0.197,0.260,0.209,-0.062,-0.056,0.872,-0.536,-1.312,-0.854,0.488,73.333,56405.000,1.000
1.525,1.508,1.733,1.808,1.240,1.778,1.817,1.582,-0.056,0.874,-0.536,-1.373,-0.793,0.427,73.333,56406.000,1.000
2.886,3.023,3.191,3.393,2.711,3.217,3.281,3.148,-0.053,0.874,-0.541,-1.434,-0.824,0.458,73.333,56407.000,1.000
3.901,4.137,4.236,4.475,3.874,4.286,4.245,4.248,-0.054,0.874,-0.538,-1.495,-0.763,0.397,73.333,56408.000,1.000
4.437,4.670,4.719,4.876,4.522,4.829,4.583,4.686,-0.056,0.871,-0.537,-1.465,-0.671,0.458,73.333,56409.000,1.000
4.458,4.588,4.624,4.622,4.578,4.778,4.362,4.463,-0.055,0.869,-0.539,-1.526,-0.641,0.366,73.333,56410.000,1.000
3.962,3.930,3.993,3.846,4.041,4.137,3.705,3.701,-0.056,0.869,-0.538,-1.343,-0.580,0.397,73.333,56411.000,1.000
3.053,2.862,2.982,2.761,3.045,3.049,2.775,2.631,-0.058,0.869,-0.538,-1.404,-0.580,0.244,73.333,56412.000,1.000
2.022,1.736,1.911,1.696,1.919,1.845,1.839,1.595,-0.058,0.871,-0.539,-1.282,-0.610,0.183,73.333,56413.000,1.000
1.282,0.993,1.188,1.026,1.112,0.961,1.238,0.973,-0.056,0.874,-0.541,-1.221,-0.549,0.183,73.333,56414.000,1.000
1.099,0.885,1.051,0.947,0.909,0.683,1.172,0.953,-0.056,0.875,-0.538,-1.099,-0.641,0.122,73.333,56415.000,1.000
1.401,1.305,1.407,1.333,1.250,0.968,1.541,1.399,-0.056,0.874,-0.538,-1.251,-0.580,0.122,73.333,56416.000,1.000
1.826,1.854,1.890,1.812,1.771,1.465,1.993,1.916,-0.054,0.874,-0.537,-1.312,-0.549,0.153,73.333,56417.000,1.000
1.956,2.085,2.075,1.971,2.034,1.739,2.132,2.077,-0.057,0.874,-0.536,-1.282,-0.488,0.122,73.333,56418.000,1.000
1.583,1.773,1.735,1.610,1.786,1.524,1.756,1.671,-0.058,0.871,-0.537,-1.373,-0.458,0.061,73.333,56419.000,1.000
0.808,1.012,0.964,0.851,1.086,0.858,0.971,0.813,-0.060,0.873,-0.542,-1.404,-0.458,0.214,73.333,56420.000,1.000
0.033,0.200,0.157,0.101,0.308,0.107,0.185,-0.066,-0.060,0.875,-0.540,-1.343,-0.488,0.244,73.333,56421.000,1.000
-0.250,-0.165,-0.211,-0.172,-0.049,-0.231,-0.123,-0.446,-0.061,0.874,-0.537,-1.221,-0.549,0.305,73.333,56422.000,1.000
0.257,0.234,0.161,0.301,0.354,0.183,0.316,-0.005,-0.061,0.876,-0.536,-1.282,-0.641,0.244,73.333,56423.000,1.000
1.545,1.432,1.322,1.525,1.561,1.392,1.488,1.282,-0.060,0.878,-0.538,-1.434,-0.732,0.275,73.333,56424.000,1.000
3.283,3.129,3.009,3.221,3.275,3.092,3.093,3.098,-0.061,0.878,-0.536,-1.495,-0.793,0.244,73.333,56425.000,1.000
4.935,4.797,4.712,4.897,4.969,4.749,4.645,4.890,-0.061,0.878,-0.537,-1.587,-0.763,0.336,73.333,56426.000,1.000
6.022,5.939,5.924,6.071,6.137,5.871,5.704,6.138,-0.063,0.878,-0.536,-1.648,-0.763,0.305,73.333,56427.000,1.000
6.348,6.313,6.374,6.490,6.528,6.241,6.076,6.584,-0.063,0.877,-0.535,-1.740,-0.793,0.427,73.333,56428.000,1.000
6.037,5.998,6.121,6.200,6.215,5.972,5.846,6.301,-0.063,0.878,-0.536,-1.648,-0.885,0.427,73.333,56429.000,1.000
5.351,5.245,5.412,5.431,5.456,5.317,5.239,5.545,-0.063,0.875,-0.537,-1.740,-0.977,0.397,73.333,56430.000,1.000
4.553,4.355,4.540,4.484,4.542,4.539,4.505,4.628,-0.063,0.872,-0.537,-1.709,-0.977,0.427,73.333,56431.000,1.000
3.857,3.606,3.767,3.661,3.737,3.857,3.873,3.830,-0.062,0.872,-0.538,-1.709,-1.007,0.427,73.333,56432.000,1.000
3.367,3.145,3.240,3.152,3.200,3.392,3.462,3.305,-0.062,0.872,-0.536,-1.740,-1.038,0.397,73.333,56433.000,1.000
3.084,2.957,2.973,2.967,2.969,3.156,3.264,3.055,-0.059,0.874,-0.541,-1.678,-1.099,0.488,73.333,56434.000,1.000
2.941,2.931,2.887,2.977,2.969,3.080,3.180,2.990,-0.060,0.872,-0.537,-1.709,-1.038,0.488,73.333,56435.000,1.000
2.884,2.960,2.889,3.033,3.080,3.068,3.103,3.012,-0.059,0.870,-0.539,-1.740,-1.038,0.519,73.333,56436.000,1.000
2.851,2.944,2.885,3.002,3.145,3.006,2.944,3.010,-0.057,0.870,-0.537,-1.740,-0.946,0.610,73.333,56437.000,1.000
2.695,2.740,2.727,2.747,2.966,2.740,2.590,2.817,-0.058,0.873,-0.538,-1.617,-0.916,0.580,73.333,56438.000,1.000
2.216,2.196,2.254,2.160,2.378,2.137,1.946,2.271,-0.058,0.874,-0.537,-1.617,-0.885,0.549,73.333,56439.000,1.000
1.268,1.212,1.350,1.190,1.310,1.141,0.966,1.289,-0.057,0.875,-0.538,-1.648,-0.854,0.580,73.333,56440.000,1.000
-0.125,-0.171,0.030,-0.110,-0.151,-0.178,-0.305,-0.067,-0.055,0.874,-0.539,-1.740,-0.824,0.610,73.333,56441.000,1.000
-1.748,-1.754,-1.528,-1.578,-1.780,-1.645,-1.740,-1.606,-0.054,0.873,-0.537,-1.678,-0.763,0.549,73.333,56442.000,1.000
-3.267,-3.216,-3.022,-2.962,-3.268,-3.016,-3.129,-3.049,-0.055,0.873,-0.533,-1.587,-0.702,0.549,73.333,56443.000,1.000
-4.285,-4.177,-4.076,-3.934,-4.256,-3.982,-4.149,-4.045,-0.055,0.874,-0.535,-1.648,-0.641,0.519,73.333,56444.000,1.000
-4.545,-4.406,-4.433,-4.255,-4.515,-4.311,-4.522,-4.339,-0.057,0.876,-0.538,-1.709,-0.580,0.488,73.333,56445.000,1.000
-4.114,-3.997,-4.135,-3.956,-4.110,-4.023,-4.226,-3.969,-0.057,0.875,-0.538,-1.740,-0.580,0.549,73.333,56446.000,1.000
-3.343,-3.310,-3.482,-3.329,-3.370,-3.390,-3.534,-3.266,-0.056,0.874,-0.534,-1.678,-0.458,0.549,73.333,56447.000,1.000
-2.623,-2.720,-2.822,-2.732,-2.675,-2.744,-2.816,-2.622,-0.054,0.875,-0.534,-1.709,-0.427,0.549,73.333,56448.000,1.000
-2.173,-2.387,-2.349,-2.367,-2.244,-2.265,-2.314,-2.255,-0.055,0.877,-0.534,-1.801,-0.336,0.427,73.333,56449.000,1.000
-2.056,-2.314,-2.133,-2.286,-2.139,-2.024,-2.133,-2.209,-0.054,0.878,-0.534,-1.709,-0.244,0.458,73.333,56450.000,1.000
-2.230,-2.439,-2.178,-2.447,-2.318,-2.039,-2.258,-2.428,-0.057,0.877,-0.535,-1.678,-0.092,0.366,73.333,56451.000,1.000
-2.562,-2.662,-2.407,-2.721,-2.649,-2.263,-2.545,-2.774,-0.057,0.875,-0.536,-1.740,-0.122,0.458,73.333,56452.000,1.000
-2.882,-2.881,-2.676,-2.951,-2.972,-2.589,-2.786,-3.066,-0.056,0.874,-0.535,-1.678,-0.122,0.336,73.333,56453.000,1.000
-3.024,-3.001,-2.822,-3.010,-3.134,-2.865,-2.824,-3.138,-0.056,0.870,-0.535,-1.678,-0.183,0.305,73.333,56454.000,1.000
-2.918,-2.970,-2.765,-2.880,-3.061,-2.964,-2.654,-2.950,-0.055,0.871,-0.538,-1.587,-0.122,0.336,73.333,56455.000,1.000
-2.589,-2.745,-2.502,-2.599,-2.750,-2.813,-2.355,-2.576,-0.056,0.873,-0.535,-1.404,-0.061,0.366,73.333,56456.000,1.000
-2.095,-2.289,-2.050,-2.176,-2.239,-2.401,-1.963,-2.086,-0.057,0.872,-0.539,-1.434,-0.122,0.305,73.333,56457.000,1.000
-1.529,-1.640,-1.481,-1.637,-1.625,-1.815,-1.487,-1.536,-0.057,0.873,-0.536,-1.312,-0.122,0.336,73.333,56458.000,1.000
-0.996,-0.926,-0.908,-1.050,-1.024,-1.186,-0.952,-0.972,-0.058,0.875,-0.538,-1.221,-0.092,0.244,73.333,56459.000,1.000
-0.572,-0.316,-0.438,-0.514,-0.539,-0.632,-0.420,-0.458,-0.058,0.875,-0.540,-1.190,-0.122,0.244,73.333,56460.000,1.000
-0.232,0.124,-0.085,-0.082,-0.174,-0.178,0.053,-0.017,-0.059,0.877,-0.537,-1.190,-0.061,0.366,73.333,56461.000,1.000
0.137,0.473,0.235,0.291,0.180,0.254,0.473,0.404,-0.058,0.875,-0.534,-1.282,-0.092,0.366,73.333,56462.000,1.000
0.594,0.827,0.598,0.666,0.620,0.728,0.855,0.839,-0.058,0.876,-0.534,-1.190,-0.183,0.275,73.333,56463.000,1.000
1.090,1.213,1.021,1.076,1.154,1.233,1.205,1.272,-0.057,0.879,-0.532,-1.251,-0.092,0.305,73.333,56464.000,1.000
1.523,1.604,1.470,1.508,1.705,1.695,1.524,1.652,-0.056,0.875,-0.534,-1.373,-0.061,0.275,73.333,56465.000,1.000
1.822,1.960,1.883,1.907,2.176,2.043,1.811,1.947,-0.057,0.873,-0.537,-1.373,-0.061,0.397,73.333,56466.000,1.000
1.955,2.210,2.165,2.179,2.476,2.230,2.036,2.129,-0.058,0.873,-0.536,-1.312,0.000,0.397,73.333,56467.000,1.000
1.893,2.255,2.218,2.223,2.517,2.200,2.120,2.146,-0.058,0.875,-0.539,-1.221,-0.122,0.549,73.333,56468.000,1.000
1.677,2.088,2.042,2.037,2.309,1.974,2.039,2.002,-0.058,0.875,-0.538,-1.129,-0.092,0.610,73.333,56469.000,1.000
1.423,1.820,1.751,1.739,1.973,1.670,1.866,1.779,-0.059,0.875,-0.536,-1.068,-0.183,0.488,73.333,56470.000,1.000
1.242,1.600,1.504,1.492,1.669,1.431,1.701,1.589,-0.059,0.875,-0.533,-1.160,-0.305,0.549,73.333,56471.000,1.000
1.150,1.496,1.384,1.383,1.477,1.316,1.579,1.487,-0.060,0.874,-0.533,-1.190,-0.336,0.580,73.333,56472.000,1.000
1.066,1.438,1.328,1.359,1.355,1.250,1.433,1.422,-0.058,0.873,-0.532,-1.190,-0.366,0.519,73.333,56473.000,1.000
0.938,1.344,1.225,1.322,1.231,1.145,1.212,1.336,-0.056,0.874,-0.533,-1.129,-0.366,0.580,73.333,56474.000,1.000
0.782,1.190,1.023,1.218,1.067,0.970,0.944,1.214,-0.055,0.874,-0.534,-1.038,-0.305,0.641,73.333,56475.000,1.000
0.627,0.985,0.741,1.034,0.856,0.735,0.695,1.052,-0.056,0.875,-0.532,-1.007,-0.336,0.519,73.333,56476.000,1.000
0.453,0.712,0.413,0.754,0.579,0.432,0.476,0.823,-0.055,0.876,-0.537,-0.885,-0.336,0.580,73.333,56477.000,1.000
0.199,0.327,0.037,0.338,0.187,0.035,0.210,0.477,-0.056,0.875,-0.536,-0.916,-0.214,0.641,73.333,56478.000,1.000
-0.148,-0.168,-0.371,-0.191,-0.319,-0.433,-0.170,0.010,-0.056,0.876,-0.535,-0.946,-0.214,0.671,73.333,56479.000,1.000
-0.577,-0.750,-0.813,-0.777,-0.902,-0.938,-0.690,-0.568,-0.057,0.876,-0.533,-0.977,-0.336,0.702,73.333,56480.000,1.000
-1.107,-1.412,-1.332,-1.396,-1.535,-1.485,-1.336,-1.256,-0.058,0.874,-0.533,-0.946,-0.336,0.641,73.333,56481.000,1.000
-1.717,-2.105,-1.928,-2.017,-2.158,-2.059,-2.025,-1.981,-0.059,0.875,-0.535,-1.068,-0.366,0.641,73.333,56482.000,1.000
-2.273,-2.671,-2.478,-2.530,-2.638,-2.540,-2.595,-2.567,-0.058,0.875,-0.535,-0.977,-0.336,0.458,73.333,56483.000,1.000
-2.546,-2.868,-2.765,-2.752,-2.799,-2.729,-2.840,-2.795,-0.056,0.875,-0.533,-0.916,-0.275,0.427,73.333,56484.000,1.000
-2.417,-2.592,-2.666,-2.603,-2.607,-2.549,-2.685,-2.598,-0.055,0.876,-0.533,-1.007,-0.366,0.488,73.333,56485.000,1.000
-2.002,-2.016,-2.271,-2.203,-2.229,-2.147,-2.273,-2.146,-0.052,0.875,-0.534,-0.916,-0.336,0.519,73.333,56486.000,1.000
-1.570,-1.487,-1.809,-1.781,-1.905,-1.792,-1.849,-1.723,-0.053,0.872,-0.535,-1.007,-0.183,0.488,73.333,56487.000,1.000
-1.335,-1.249,-1.459,-1.502,-1.758,-1.651,-1.575,-1.514,-0.052,0.868,-0.537,-0.885,-0.214,0.610,73.333,56488.000,1.000
-1.254,-1.225,-1.189,-1.323,-1.670,-1.612,-1.386,-1.436,-0.054,0.868,-0.534,-0.885,-0.275,0.549,73.333,56489.000,1.000
-1.116,-1.152,-0.858,-1.085,-1.424,-1.423,-1.118,-1.273,-0.055,0.871,-0.536,-0.854,-0.275,0.519,73.333,56490.000,1.000
-0.746,-0.827,-0.380,-0.679,-0.903,-0.934,-0.665,-0.876,-0.057,0.873,-0.536,-0.824,-0.366,0.519,73.333,56491.000,1.000
-0.092,-0.192,0.249,-0.076,-0.132,-0.148,-0.017,-0.225,-0.059,0.875,-0.535,-0.732,-0.366,0.305,73.333,56492.000,1.000
0.752,0.653,0.963,0.666,0.751,0.800,0.745,0.568,-0.058,0.874,-0.537,-0.763,-0.458,0.336,73.333,56493.000,1.000
1.620,1.532,1.659,1.437,1.590,1.716,1.507,1.344,-0.059,0.872,-0.535,-0.885,-0.488,0.244,73.333,56494.000,1.000
2.358,2.276,2.248,2.112,2.268,2.420,2.165,1.979,-0.059,0.873,-0.532,-0.916,-0.488,0.244,73.333,56495.000,1.000
2.877,2.785,2.672,2.591,2.726,2.835,2.639,2.423,-0.059,0.877,-0.533,-0.732,-0.580,0.183,73.333,56496.000,1.000
3.130,3.017,2.879,2.811,2.928,2.980,2.853,2.650,-0.060,0.877,-0.533,-0.885,-0.580,0.275,73.333,56497.000,1.000
3.101,2.977,2.821,2.759,2.857,2.913,2.764,2.640,-0.062,0.877,-0.536,-0.916,-0.641,0.153,73.333,56498.000,1.000
2.896,2.777,2.585,2.553,2.614,2.757,2.487,2.471,-0.063,0.875,-0.535,-0.916,-0.824,0.122,73.333,56499.000,1.000
2.690,2.590,2.359,2.374,2.385,2.657,2.246,2.302,-0.061,0.875,-0.534,-0.946,-0.885,0.031,73.333,56500.000,1.000
2.597,2.517,2.283,2.325,2.292,2.673,2.196,2.252,-0.060,0.874,-0.534,-0.977,-0.946,0.122,73.333,56501.000,1.000
2.600,2.544,2.346,2.386,2.313,2.755,2.329,2.326,-0.060,0.876,-0.534,-0.916,-0.946,0.061,73.333,56502.000,1.000
2.593,2.558,2.416,2.435,2.313,2.780,2.492,2.402,-0.058,0.877,-0.535,-0.854,-1.038,0.031,73.333,56503.000,1.000
2.453,2.423,2.342,2.333,2.160,2.626,2.493,2.326,-0.060,0.875,-0.537,-0.916,-1.068,0.153,73.333,56504.000,1.000
2.030,1.989,1.977,1.933,1.749,2.156,2.135,1.933,-0.061,0.875,-0.537,-0.916,-1.038,0.153,73.333,56505.000,1.000
1.196,1.142,1.217,1.122,0.999,1.263,1.292,1.107,-0.057,0.873,-0.537,-0.885,-1.038,0.214,73.333,56506.000,1.000
-0.054,-0.104,0.070,-0.080,-0.088,-0.029,0.007,-0.137,-0.056,0.872,-0.536,-0.854,-1.099,0.366,73.333,56507.000,1.000
-1.573,-1.595,-1.339,-1.520,-1.413,-1.552,-1.521,-1.648,-0.054,0.870,-0.536,-0.885,-1.068,0.427,73.333,56508.000,1.000
-3.084,-3.073,-2.780,-2.943,-2.777,-3.045,-3.002,-3.147,-0.054,0.875,-0.543,-0.854,-0.977,0.488,73.333,56509.000,1.000
-4.282,-4.264,-3.985,-4.076,-3.932,-4.244,-4.154,-4.321,-0.054,0.876,-0.543,-0.763,-0.793,0.458,73.333,56510.000,1.000
-4.934,-4.964,-4.727,-4.719,-4.671,-4.946,-4.802,-4.944,-0.055,0.875,-0.540,-0.793,-0.671,0.580,73.333,56511.000,1.000
-4.961,-5.085,-4.894,-4.811,-4.878,-5.063,-4.902,-4.948,-0.057,0.876,-0.537,-0.763,-0.610,0.671,73.333,56512.000,1.000
-4.454,-4.683,-4.525,-4.439,-4.577,-4.649,-4.523,-4.430,-0.057,0.875,-0.535,-0.763,-0.641,0.641,73.333,56513.000,1.000
-3.586,-3.892,-3.756,-3.729,-3.875,-3.827,-3.773,-3.561,-0.060,0.877,-0.535,-0.763,-0.702,0.610,73.333,56514.000,1.000
-2.568,-2.902,-2.789,-2.826,-2.940,-2.781,-2.814,-2.561,-0.061,0.878,-0.536,-0.824,-0.732,0.610,73.333,56515.000,1.000
-1.630,-1.938,-1.872,-1.922,-1.983,-1.746,-1.871,-1.661,-0.060,0.880,-0.535,-0.885,-0.732,0.580,73.333,56516.000,1.000
-0.950,-1.196,-1.206,-1.202,-1.192,-0.944,-1.147,-1.022,-0.055,0.880,-0.538,-0.946,-0.610,0.580,73.333,56517.000,1.000
-0.599,-0.781,-0.882,-0.770,-0.679,-0.515,-0.758,-0.692,-0.054,0.879,-0.537,-1.068,-0.519,0.641,73.333,56518.000,1.000
-0.521,-0.666,-0.855,-0.607,-0.443,-0.432,-0.684,-0.612,-0.054,0.876,-0.539,-1.190,-0.427,0.641,73.333,56519.000,1.000
-0.659,-0.813,-1.058,-0.687,-0.487,-0.621,-0.864,-0.746,-0.052,0.873,-0.535,-1.221,-0.366,0.641,73.333,56520.000,1.000
-1.034,-1.241,-1.488,-1.056,-0.861,-1.061,-1.282,-1.147,-0.050,0.868,-0.536,-1.282,-0.244,0.671,73.333,56521.000,1.000
-1.637,-1.898,-2.105,-1.705,-1.535,-1.701,-1.883,-1.816,-0.052,0.865,-0.538,-1.251,-0.061,0.610,73.333,56522.000,1.000
-2.336,-2.598,-2.764,-2.467,-2.338,-2.396,-2.520,-2.589,-0.054,0.867,-0.536,-1.251,0.092,0.641,73.333,56523.000,1.000
-2.899,-3.094,-3.246,-3.068,-3.006,-2.935,-2.983,-3.192,-0.054,0.870,-0.538,-1.129,0.214,0.549,73.333,56524.000,1.000
-3.129,-3.231,-3.383,-3.294,-3.319,-3.157,-3.123,-3.411,-0.054,0.874,-0.537,-0.977,0.366,0.519,73.333,56525.000,1.000
-2.950,-2.973,-3.115,-3.076,-3.176,-2.985,-2.887,-3.167,-0.054,0.877,-0.536,-1.007,0.397,0.427,73.333,56526.000,1.000
-2.384,-2.356,-2.461,-2.454,-2.584,-2.409,-2.295,-2.492,-0.053,0.879,-0.540,-1.129,0.397,0.427,73.333,56527.000,1.000
-1.489,-1.435,-1.475,-1.517,-1.620,-1.474,-1.408,-1.481,-0.058,0.882,-0.538,-1.282,0.458,0.427,73.333,56528.000,1.000
-0.294,-0.241,-0.201,-0.314,-0.339,-0.227,-0.259,-0.217,-0.061,0.880,-0.537,-1.312,0.458,0.305,73.333,56529.000,1.000
1.129,1.165,1.273,1.106,1.176,1.246,1.097,1.215,-0.063,0.879,-0.536,-1.373,0.458,0.153,73.333,56530.000,1.000
2.615,2.647,2.773,2.626,2.759,2.780,2.528,2.691,-0.066,0.877,-0.535,-1.434,0.275,0.092,73.333,56531.000,1.000
3.969,4.030,4.100,4.064,4.190,4.161,3.866,4.053,-0.068,0.878,-0.537,-1.282,0.183,-0.061,73.333,56532.000,1.000
4.958,5.069,5.036,5.153,5.203,5.135,4.889,5.076,-0.069,0.875,-0.538,-1.251,0.031,-0.061,73.333,56533.000,1.000
5.320,5.477,5.357,5.591,5.538,5.446,5.340,5.492,-0.070,0.877,-0.539,-1.221,-0.305,-0.153,73.333,56534.000,1.000
4.860,5.035,4.899,5.165,5.040,4.938,4.999,5.101,-0.068,0.877,-0.540,-1.282,-0.519,-0.214,73.333,56535.000,1.000
3.623,3.767,3.693,3.904,3.784,3.670,3.852,3.926,-0.068,0.878,-0.540,-1.282,-0.702,-0.061,73.333,56536.000,1.000
1.929,1.977,2.021,2.128,2.086,1.947,2.166,2.248,-0.068,0.880,-0.541,-1.282,-0.916,0.000,73.333,56537.000,1.000
0.184,0.087,0.275,0.273,0.345,0.164,0.350,0.469,-0.067,0.880,-0.540,-1.373,-1.129,0.031,73.333,56538.000,1.000
-1.263,-1.488,-1.177,-1.251,-1.072,-1.309,-1.181,-1.026,-0.066,0.878,-0.541,-1.587,-1.099,0.092,73.333,56539.000,1.000
-2.161,-2.417,-2.051,-2.137,-1.894,-2.180,-2.098,-1.932,-0.065,0.877,-0.539,-1.709,-1.221,0.214,73.333,56540.000,1.000
-2.309,-2.465,-2.128,-2.171,-1.933,-2.229,-2.168,-2.031,-0.066,0.879,-0.538,-1.831,-1.465,0.366,73.333,56541.000,1.000
-1.566,-1.518,-1.271,-1.249,-1.076,-1.327,-1.276,-1.198,-0.063,0.884,-0.538,-1.923,-1.617,0.366,73.333,56542.000,1.000
0.041,0.316,0.455,0.516,0.605,0.440,0.464,0.485,-0.060,0.886,-0.536,-1.953,-1.678,0.458,73.333,56543.000,1.000
2.263,2.697,2.758,2.789,2.817,2.748,2.717,2.714,-0.056,0.881,-0.534,-2.258,-1.648,0.519,73.333,56544.000,1.000
4.614,5.085,5.130,5.053,5.054,5.062,4.956,4.986,-0.054,0.877,-0.530,-2.197,-1.648,0.427,73.333,56545.000,1.000
6.418,6.818,6.893,6.664,6.668,6.715,6.541,6.645,-0.054,0.874,-0.533,-2.258,-1.678,0.671,73.333,56546.000,1.000
7.002,7.273,7.377,7.019,7.051,7.097,6.893,7.055,-0.051,0.871,-0.536,-2.380,-1.526,0.763,73.333,56547.000,1.000
5.926,6.073,6.164,5.754,5.840,5.856,5.682,5.829,-0.053,0.868,-0.539,-2.350,-1.343,0.916,73.333,56548.000,1.000
3.203,3.283,3.325,2.941,3.104,3.077,2.979,3.044,-0.054,0.867,-0.535,-2.350,-1.221,1.129,73.333,56549.000,1.000
-0.659,-0.568,-0.579,-0.903,-0.666,-0.716,-0.731,-0.762,-0.056,0.866,-0.536,-2.228,-1.221,1.099,73.333,56550.000,1.000
-4.818,-4.662,-4.700,-4.969,-4.691,-4.726,-4.693,-4.778,-0.055,0.867,-0.536,-2.014,-1.038,1.038,73.333,56551.000,1.000
-8.409,-8.194,-8.203,-8.435,-8.172,-8.165,-8.138,-8.215,-0.055,0.869,-0.531,-1.984,-0.946,1.068,73.333,56552.000,1.000
-10.905,-10.673,-10.598,-10.804,-10.609,-10.569,-10.595,-10.608,-0.053,0.873,-0.531,-1.953,-0.763,1.007,73.333,56553.000,1.000
-12.171,-11.958,-11.794,-11.975,-11.873,-11.838,-11.926,-11.842,-0.050,0.875,-0.535,-1.892,-0.610,1.007,73.333,56554.000,1.000
-12.326,-12.141,-11.945,-12.108,-12.082,-12.082,-12.204,-12.028,-0.049,0.876,-0.532,-1.953,-0.488,1.038,73.333,56555.000,1.000
-11.602,-11.434,-11.287,-11.437,-11.447,-11.478,-11.598,-11.366,-0.050,0.878,-0.533,-2.075,-0.336,1.038,73.333,56556.000,1.000
-10.282,-10.122,-10.067,-10.200,-10.203,-10.250,-10.338,-10.097,-0.049,0.876,-0.534,-2.075,-0.183,1.038,73.333,56557.000,1.000
-8.679,-8.518,-8.552,-8.656,-8.613,-8.682,-8.717,-8.510,-0.052,0.872,-0.533,-2.197,0.000,0.977,73.333,56558.000,1.000
-7.023,-6.844,-6.947,-7.017,-6.909,-7.016,-6.995,-6.850,-0.054,0.872,-0.531,-2.075,0.031,0.946,73.333,56559.000,1.000
-5.474,-5.272,-5.414,-5.458,-5.306,-5.447,-5.387,-5.310,-0.053,0.872,-0.533,-2.075,0.061,0.885,73.333,56560.000,1.000
-4.213,-4.009,-4.162,-4.190,-4.050,-4.204,-4.121,-4.097,-0.052,0.871,-0.536,-2.106,0.122,0.793,73.333,56561.000,1.000
-3.389,-3.224,-3.369,-3.378,-3.321,-3.460,-3.358,-3.356,-0.053,0.872,-0.536,-2.045,0.183,0.702,73.333,56562.000,1.000
-2.995,-2.906,-3.043,-3.010,-3.088,-3.195,-3.074,-3.051,-0.052,0.872,-0.531,-1.984,0.397,0.610,73.333,56563.000,1.000
-2.845,-2.830,-2.966,-2.868,-3.089,-3.159,-3.022,-2.941,-0.053,0.874,-0.532,-1.984,0.458,0.458,73.333,56564.000,1.000
-2.698,-2.705,-2.847,-2.688,-2.991,-3.041,-2.875,-2.744,-0.055,0.875,-0.529,-1.923,0.458,0.519,73.333,56565.000,1.000
-2.361,-2.316,-2.443,-2.275,-2.556,-2.625,-2.392,-2.264,-0.055,0.875,-0.532,-1.862,0.488,0.397,73.333,56566.000,1.000
-1.675,-1.542,-1.603,-1.506,-1.672,-1.809,-1.467,-1.400,-0.058,0.874,-0.533,-1.831,0.488,0.305,73.333,56567.000,1.000
-0.541,-0.353,-0.298,-0.335,-0.342,-0.577,-0.126,-0.146,-0.056,0.874,-0.534,-1.740,0.458,0.214,73.333,56568.000,1.000
1.082,1.239,1.428,1.258,1.381,1.074,1.578,1.474,-0.056,0.875,-0.539,-1.709,0.488,0.031,73.333,56569.000,1.000
3.123,3.162,3.453,3.233,3.393,3.083,3.556,3.384,-0.057,0.876,-0.532,-1.648,0.488,0.000,73.333,56570.000,1.000
5.317,5.194,5.520,5.376,5.440,5.207,5.588,5.366,-0.057,0.876,-0.532,-1.587,0.549,0.031,73.333,56571.000,1.000
7.254,6.983,7.272,7.299,7.152,7.063,7.341,7.077,-0.057,0.878,-0.531,-1.587,0.641,0.000,73.333,56572.000,1.000
8.548,8.185,8.376,8.609,8.216,8.297,8.501,8.200,-0.057,0.877,-0.530,-1.678,0.610,0.000,73.333,56573.000,1.000
9.052,8.672,8.726,9.130,8.572,8.785,8.959,8.629,-0.059,0.877,-0.533,-1.648,0.427,0.061,73.333,56574.000,1.000
8.859,8.531,8.451,8.928,8.367,8.620,8.791,8.452,-0.061,0.876,-0.535,-1.495,0.305,0.122,73.333,56575.000,1.000
8.139,7.902,7.742,8.163,7.747,7.957,8.115,7.795,-0.060,0.876,-0.534,-1.434,0.275,0.183,73.333,56576.000,1.000
7.040,6.887,6.717,6.996,6.782,6.921,7.028,6.754,-0.061,0.876,-0.535,-1.373,0.214,0.244,73.333,56577.000,1.000
5.704,5.600,5.458,5.599,5.545,5.638,5.666,5.458,-0.061,0.878,-0.534,-1.312,0.214,0.183,73.333,56578.000,1.000
4.385,4.311,4.186,4.260,4.276,4.355,4.318,4.180,-0.061,0.878,-0.531,-1.312,0.092,0.214,73.333,56579.000,1.000
3.409,3.378,3.235,3.325,3.321,3.389,3.350,3.274,-0.061,0.879,-0.531,-1.373,-0.061,0.275,73.333,56580.000,1.000
2.994,3.024,2.846,3.002,2.914,2.952,2.984,2.966,-0.060,0.881,-0.531,-1.434,-0.122,0.336,73.333,56581.000,1.000
3.129,3.213,3.014,3.238,3.051,3.040,3.180,3.219,-0.061,0.880,-0.533,-1.343,-0.214,0.397,73.333,56582.000,1.000
3.620,3.718,3.528,3.776,3.533,3.475,3.706,3.792,-0.061,0.880,-0.532,-1.373,-0.305,0.519,73.333,56583.000,1.000
4.312,4.361,4.209,4.412,4.200,4.114,4.377,4.491,-0.061,0.879,-0.532,-1.282,-0.458,0.458,73.333,56584.000,1.000
5.143,5.083,4.984,5.073,4.983,4.898,5.114,5.233,-0.060,0.877,-0.530,-1.282,-0.519,0.580,73.333,56585.000,1.000
5.981,5.793,5.733,5.670,5.757,5.702,5.801,5.901,-0.060,0.875,-0.529,-1.129,-0.580,0.641,73.333,56586.000,1.000
6.571,6.297,6.235,6.026,6.284,6.282,6.229,6.289,-0.060,0.871,-0.530,-1.099,-0.549,0.519,73.333,56587.000,1.000
6.628,6.350,6.240,5.940,6.297,6.363,6.171,6.181,-0.057,0.870,-0.532,-1.038,-0.641,0.549,73.333,56588.000,1.000
6.021,5.810,5.646,5.343,5.674,5.819,5.544,5.507,-0.056,0.871,-0.531,-0.916,-0.732,0.610,73.333,56589.000,1.000
4.860,4.742,4.568,4.367,4.520,4.752,4.477,4.399,-0.054,0.873,-0.534,-0.854,-0.732,0.671,73.333,56590.000,1.000
3.472,3.423,3.295,3.283,3.151,3.455,3.265,3.162,-0.052,0.872,-0.529,-0.732,-0.885,0.702,73.333,56591.000,1.000
2.247,2.232,2.170,2.359,1.957,2.274,2.219,2.124,-0.052,0.874,-0.530,-0.641,-0.732,0.793,73.333,56592.000,1.000
1.374,1.367,1.360,1.657,1.136,1.381,1.454,1.403,-0.051,0.873,-0.531,-0.580,-0.580,0.916,73.333,56593.000,1.000
0.780,0.765,0.807,1.038,0.611,0.727,0.865,0.880,-0.051,0.872,-0.529,-0.427,-0.488,0.977,73.333,56594.000,1.000
0.302,0.269,0.363,0.378,0.208,0.203,0.319,0.391,-0.054,0.871,-0.530,-0.244,-0.427,0.916,73.333,56595.000,1.000
-0.130,-0.183,-0.051,-0.282,-0.144,-0.228,-0.190,-0.101,-0.062,0.873,-0.530,-0.305,-0.458,0.977,73.333,56596.000,1.000
-0.487,-0.563,-0.432,-0.800,-0.424,-0.542,-0.575,-0.535,-0.064,0.873,-0.533,-0.275,-0.549,0.854,73.333,56597.000,1.000
-0.800,-0.913,-0.826,-1.159,-0.700,-0.813,-0.862,-0.939,-0.066,0.875,-0.536,-0.183,-0.671,0.732,73.333,56598.000,1.000
-1.244,-1.410,-1.397,-1.556,-1.174,-1.255,-1.258,-1.490,-0.065,0.875,-0.533,-0.214,-0.732,0.610,73.333,56599.000,1.000
-2.049,-2.276,-2.348,-2.278,-2.058,-2.103,-2.035,-2.405,-0.062,0.873,-0.535,-0.244,-0.946,0.427,73.333,56600.000,1.000
-3.297,-3.588,-3.724,-3.462,-3.387,-3.417,-3.297,-3.737,-0.060,0.875,-0.530,-0.183,-1.129,0.275,73.333,56601.000,1.000
-4.781,-5.134,-5.275,-4.918,-4.909,-4.949,-4.824,-5.238,-0.057,0.874,-0.532,-0.275,-1.099,0.092,73.333,56602.000,1.000
-6.103,-6.511,-6.575,-6.237,-6.207,-6.281,-6.190,-6.492,-0.054,0.875,-0.533,-0.244,-1.099,0.000,73.333,56603.000,1.000
-6.895,-7.340,-7.280,-7.027,-6.931,-7.069,-7.022,-7.160,-0.053,0.875,-0.534,-0.244,-1.038,-0.061,73.333,56604.000,1.000
-7.003,-7.442,-7.290,-7.128,-6.958,-7.185,-7.175,-7.144,-0.050,0.878,-0.534,-0.244,-1.038,-0.061,73.333,56605.000,1.000
-6.457,-6.815,-6.660,-6.561,-6.327,-6.643,-6.666,-6.504,-0.048,0.879,-0.535,-0.275,-0.916,0.000,73.333,56606.000,1.000
-5.288,-5.482,-5.396,-5.327,-5.059,-5.427,-5.479,-5.253,-0.051,0.879,-0.532,-0.366,-0.885,0.031,73.333,56607.000,1.000
-3.494,-3.483,-3.482,-3.410,-3.180,-3.518,-3.590,-3.365,-0.053,0.876,-0.532,-0.427,-0.702,0.000,73.333,56608.000,1.000
-1.158,-0.969,-1.025,-0.923,-0.823,-1.027,-1.113,-0.927,-0.054,0.876,-0.532,-0.427,-0.671,0.000,73.333,56609.000,1.000
1.418,1.702,1.635,1.773,1.689,1.690,1.595,1.726,-0.058,0.874,-0.536,-0.397,-0.641,0.000,73.333,56610.000,1.000
3.726,4.014,3.971,4.121,3.887,4.079,3.985,4.050,-0.061,0.874,-0.534,-0.366,-0.610,0.000,73.333,56611.000,1.000
5.249,5.485,5.495,5.598,5.317,5.613,5.534,5.533,-0.058,0.875,-0.532,-0.275,-0.610,0.092,73.333,56612.000,1.000
5.705,5.884,5.962,5.959,5.732,6.026,5.976,5.934,-0.059,0.878,-0.532,-0.244,-0.610,0.122,73.333,56613.000,1.000
5.237,5.383,5.524,5.403,5.260,5.491,5.469,5.432,-0.057,0.880,-0.531,-0.214,-0.580,0.122,73.333,56614.000,1.000
4.291,4.427,4.600,4.422,4.307,4.482,4.469,4.475,-0.056,0.880,-0.534,-0.366,-0.702,0.153,73.333,56615.000,1.000
3.284,3.422,3.569,3.435,3.259,3.435,3.395,3.454,-0.058,0.881,-0.531,-0.549,-0.610,0.214,73.333,56616.000,1.000
2.431,2.577,2.637,2.606,2.331,2.570,2.468,2.558,-0.058,0.882,-0.531,-0.610,-0.702,0.275,73.333,56617.000,1.000
1.784,1.948,1.888,1.944,1.617,1.930,1.756,1.842,-0.059,0.880,-0.531,-0.610,-0.580,0.366,73.333,56618.000,1.000
1.370,1.569,1.407,1.481,1.198,1.530,1.311,1.360,-0.059,0.877,-0.530,-0.610,-0.549,0.427,73.333,56619.000,1.000
1.179,1.411,1.210,1.239,1.079,1.337,1.128,1.126,-0.059,0.877,-0.533,-0.732,-0.671,0.580,73.333,56620.000,1.000
1.050,1.287,1.115,1.081,1.071,1.162,1.025,0.978,-0.059,0.875,-0.536,-0.671,-0.793,0.580,73.333,56621.000,1.000
0.688,0.892,0.785,0.716,0.829,0.712,0.681,0.600,-0.061,0.875,-0.533,-0.671,-0.763,0.549,73.333,56622.000,1.000
-0.213,-0.062,-0.111,-0.173,0.012,-0.281,-0.213,-0.322,-0.061,0.876,-0.533,-0.610,-0.732,0.641,73.333,56623.000,1.000
-1.707,-1.602,-1.631,-1.654,-1.458,-1.826,-1.694,-1.837,-0.061,0.876,-0.533,-0.549,-0.763,0.671,73.333,56624.000,1.000
-3.476,-3.391,-3.433,-3.427,-3.267,-3.579,-3.437,-3.606,-0.060,0.879,-0.531,-0.458,-0.763,0.641,73.333,56625.000,1.000
-5.025,-4.945,-5.003,-5.013,-4.913,-5.059,-4.953,-5.122,-0.058,0.878,-0.531,-0.549,-0.793,0.610,73.333,56626.000,1.000
-5.977,-5.897,-5.945,-6.020,-5.972,-5.913,-5.858,-6.009,-0.057,0.879,-0.531,-0.641,-0.854,0.549,73.333,56627.000,1.000
-6.156,-6.065,-6.082,-6.229,-6.201,-5.986,-5.963,-6.102,-0.057,0.877,-0.531,-0.793,-0.824,0.671,73.333,56628.000,1.000
-5.468,-5.356,-5.351,-5.524,-5.475,-5.218,-5.197,-5.339,-0.057,0.875,-0.531,-0.793,-0.824,0.671,73.333,56629.000,1.000
-3.932,-3.811,-3.815,-3.948,-3.843,-3.664,-3.635,-3.768,-0.057,0.872,-0.532,-0.641,-0.824,0.610,73.333,56630.000,1.000
-1.820,-1.731,-1.760,-1.808,-1.645,-1.606,-1.583,-1.665,-0.055,0.871,-0.533,-0.519,-0.671,0.488,73.333,56631.000,1.000
0.397,0.420,0.380,0.416,0.595,0.528,0.511,0.524,-0.056,0.869,-0.532,-0.488,-0.793,0.488,73.333,56632.000,1.000
2.270,2.220,2.195,2.279,2.400,2.334,2.239,2.356,-0.056,0.870,-0.531,-0.366,-0.610,0.366,73.333,56633.000,1.000
3.560,3.453,3.455,3.537,3.554,3.590,3.388,3.580,-0.057,0.870,-0.533,-0.275,-0.641,0.275,73.333,56634.000,1.000
4.264,4.123,4.152,4.191,4.128,4.293,3.979,4.202,-0.054,0.871,-0.534,-0.122,-0.488,0.244,73.333,56635.000,1.000
4.539,4.376,4.433,4.409,4.340,4.589,4.188,4.411,-0.054,0.873,-0.533,-0.244,-0.397,0.214,73.333,56636.000,1.000
4.552,4.360,4.444,4.364,4.363,4.626,4.174,4.386,-0.053,0.874,-0.532,-0.275,-0.397,0.244,73.333,56637.000,1.000
4.319,4.086,4.194,4.082,4.180,4.409,3.936,4.132,-0.055,0.875,-0.530,-0.275,-0.366,0.305,73.333,56638.000,1.000
3.792,3.517,3.652,3.538,3.708,3.884,3.420,3.584,-0.056,0.875,-0.531,-0.122,-0.275,0.214,73.333,56639.000,1.000
3.008,2.728,2.889,2.800,2.963,3.093,2.685,2.796,-0.057,0.874,-0.530,-0.214,-0.336,0.153,73.333,56640.000,1.000
2.119,1.909,2.064,2.019,2.093,2.191,1.896,1.954,-0.054,0.873,-0.536,-0.183,-0.275,0.092,73.333,56641.000,1.000
1.315,1.255,1.349,1.342,1.293,1.377,1.214,1.265,-0.053,0.874,-0.537,-0.122,-0.183,-0.031,73.333,56642.000,1.000
0.687,0.812,0.807,0.802,0.660,0.750,0.682,0.784,-0.055,0.877,-0.536,-0.092,-0.153,-0.031,73.333,56643.000,1.000
0.204,0.475,0.385,0.331,0.163,0.275,0.238,0.415,-0.055,0.879,-0.534,-0.092,-0.153,-0.031,73.333,56644.000,1.000
-0.230,0.087,-0.029,-0.169,-0.295,-0.161,-0.224,0.013,-0.057,0.880,-0.534,-0.061,-0.122,-0.031,73.333,56645.000,1.000
-0.709,-0.450,-0.528,-0.742,-0.792,-0.649,-0.782,-0.508,-0.057,0.879,-0.533,-0.153,-0.214,0.031,73.333,56646.000,1.000
-1.237,-1.089,-1.096,-1.322,-1.305,-1.169,-1.398,-1.105,-0.061,0.881,-0.531,-0.305,-0.183,0.000,73.333,56647.000,1.000
-1.743,-1.691,-1.629,-1.792,-1.739,-1.621,-1.944,-1.645,-0.062,0.882,-0.534,-0.366,-0.153,-0.122,73.333,56648.000,1.000
-2.062,-2.059,-1.957,-2.017,-1.954,-1.857,-2.237,-1.951,-0.061,0.880,-0.534,-0.458,-0.214,0.000,73.333,56649.000,1.000
-1.988,-1.985,-1.901,-1.863,-1.800,-1.719,-2.089,-1.846,-0.060,0.877,-0.534,-0.519,-0.244,-0.092,73.333,56650.000,1.000
-1.412,-1.369,-1.367,-1.275,-1.210,-1.134,-1.427,-1.256,-0.062,0.876,-0.535,-0.671,-0.214,-0.183,73.333,56651.000,1.000
-0.416,-0.318,-0.437,-0.344,-0.276,-0.187,-0.374,-0.294,-0.062,0.877,-0.537,-0.702,-0.305,0.031,73.333,56652.000,1.000
0.738,0.861,0.642,0.706,0.771,0.884,0.780,0.771,-0.062,0.876,-0.533,-0.671,-0.488,0.031,73.333,56653.000,1.000
1.831,1.917,1.683,1.704,1.750,1.887,1.823,1.749,-0.061,0.874,-0.533,-0.641,-0.488,0.031,73.333,56654.000,1.000
2.823,2.817,2.677,2.646,2.653,2.808,2.757,2.642,-0.061,0.872,-0.536,-0.671,-0.641,0.061,73.333,56655.000,1.000
3.733,3.632,3.668,3.566,3.522,3.689,3.644,3.497,-0.061,0.872,-0.536,-0.671,-0.702,0.061,73.333,56656.000,1.000
4.486,4.347,4.571,4.380,4.298,4.454,4.434,4.259,-0.061,0.873,-0.536,-0.641,-0.671,0.122,73.333,56657.000,1.000
4.884,4.794,5.139,4.871,4.790,4.889,4.934,4.737,-0.059,0.874,-0.534,-0.610,-0.763,0.092,73.333,56658.000,1.000
4.770,4.793,5.154,4.858,4.829,4.819,4.971,4.765,-0.061,0.875,-0.536,-0.641,-0.824,0.122,73.333,56659.000,1.000
4.180,4.316,4.611,4.350,4.407,4.254,4.537,4.350,-0.059,0.876,-0.533,-0.610,-0.824,0.183,73.333,56660.000,1.000
3.309,3.504,3.700,3.530,3.665,3.372,3.776,3.638,-0.057,0.875,-0.533,-0.488,-0.916,0.214,73.333,56661.000,1.000
2.392,2.588,2.686,2.641,2.806,2.401,2.880,2.812,-0.057,0.875,-0.535,-0.549,-1.038,0.214,73.333,56662.000,1.000
1.553,1.723,1.750,1.836,1.961,1.483,1.968,1.975,-0.056,0.877,-0.535,-0.519,-0.916,0.275,73.333,56663.000,1.000
0.780,0.934,0.923,1.121,1.153,0.643,1.059,1.128,-0.056,0.879,-0.533,-0.458,-0.946,0.305,73.333,56664.000,1.000
-0.056,0.104,0.092,0.360,0.281,-0.207,0.085,0.176,-0.056,0.878,-0.537,-0.458,-0.946,0.458,73.333,56665.000,1.000
-1.154,-0.983,-0.969,-0.675,-0.853,-1.262,-1.109,-1.051,-0.055,0.877,-0.538,-0.519,-0.946,0.458,73.333,56666.000,1.000
-2.632,-2.477,-2.442,-2.138,-2.386,-2.687,-2.644,-2.660,-0.057,0.875,-0.538,-0.458,-0.854,0.397,73.333,56667.000,1.000
-4.400,-4.314,-4.290,-3.970,-4.247,-4.453,-4.469,-4.547,-0.056,0.875,-0.532,-0.458,-0.793,0.488,73.333,56668.000,1.000
-6.142,-6.158,-6.192,-5.850,-6.106,-6.271,-6.291,-6.374,-0.058,0.876,-0.532,-0.488,-0.793,0.488,73.333,56669.000,1.000
-7.473,-7.575,-7.694,-7.352,-7.534,-7.729,-7.706,-7.738,-0.059,0.874,-0.535,-0.580,-0.702,0.397,73.333,56670.000,1.000
-8.175,-8.320,-8.498,-8.202,-8.274,-8.548,-8.461,-8.427,-0.058,0.873,-0.532,-0.458,-0.702,0.427,73.333,56671.000,1.000
-8.263,-8.426,-8.573,-8.389,-8.348,-8.701,-8.546,-8.481,-0.057,0.873,-0.536,-0.488,-0.732,0.427,73.333,56672.000,1.000
-7.912,-8.101,-8.097,-8.080,-7.966,-8.350,-8.127,-8.091,-0.056,0.873,-0.535,-0.458,-0.641,0.427,73.333,56673.000,1.000
-7.314,-7.539,-7.307,-7.465,-7.344,-7.690,-7.409,-7.446,-0.056,0.877,-0.535,-0.427,-0.641,0.397,73.333,56674.000,1.000
-6.617,-6.870,-6.428,-6.710,-6.622,-6.878,-6.584,-6.701,-0.058,0.877,-0.535,-0.397,-0.549,0.275,73.333,56675.000,1.000
-5.910,-6.164,-5.626,-5.947,-5.880,-6.040,-5.796,-5.972,-0.056,0.876,-0.536,-0.427,-0.549,0.244,73.333,56676.000,1.000
-5.195,-5.409,-4.940,-5.205,-5.120,-5.225,-5.062,-5.272,-0.057,0.876,-0.534,-0.458,-0.336,0.366,73.333,56677.000,1.000
-4.443,-4.574,-4.304,-4.442,-4.323,-4.431,-4.317,-4.539,-0.054,0.876,-0.535,-0.549,-0.427,0.366,73.333,56678.000,1.000
-3.649,-3.661,-3.613,-3.615,-3.484,-3.633,-3.494,-3.709,-0.054,0.877,-0.536,-0.488,-0.336,0.336,73.333,56679.000,1.000
-2.832,-2.698,-2.794,-2.718,-2.613,-2.817,-2.588,-2.765,-0.055,0.878,-0.538,-0.519,-0.214,0.244,73.333,56680.000,1.000
-2.039,-1.752,-1.881,-1.827,-1.769,-2.010,-1.673,-1.781,-0.056,0.878,-0.539,-0.549,-0.214,0.214,73.333,56681.000,1.000
-1.316,-0.911,-0.989,-1.056,-1.033,-1.274,-0.854,-0.871,-0.056,0.875,-0.536,-0.702,-0.122,0.214,73.333,56682.000,1.000
-0.718,-0.268,-0.272,-0.512,-0.483,-0.684,-0.225,-0.155,-0.056,0.875,-0.536,-0.763,-0.061,0.244,73.333,56683.000,1.000
-0.294,0.110,0.159,-0.247,-0.153,-0.294,0.162,0.293,-0.057,0.875,-0.536,-0.824,-0.031,0.244,73.333,56684.000,1.000
-0.093,0.182,0.239,-0.270,-0.068,-0.149,0.273,0.417,-0.056,0.873,-0.538,-0.793,0.061,0.305,73.333,56685.000,1.000
-0.143,-0.060,-0.032,-0.561,-0.245,-0.263,0.099,0.193,-0.058,0.875,-0.538,-0.824,-0.061,0.366,73.333,56686.000,1.000
-0.382,-0.518,-0.540,-1.011,-0.621,-0.562,-0.285,-0.289,-0.057,0.875,-0.537,-0.885,-0.031,0.427,73.333,56687.000,1.000
-0.715,-1.049,-1.132,-1.487,-1.102,-0.950,-0.786,-0.880,-0.055,0.876,-0.538,-0.824,0.061,0.366,73.333,56688.000,1.000
-1.087,-1.531,-1.684,-1.896,-1.609,-1.366,-1.335,-1.449,-0.056,0.876,-0.540,-0.793,0.061,0.397,73.333,56689.000,1.000
-1.493,-1.923,-2.138,-2.218,-2.096,-1.789,-1.878,-1.929,-0.055,0.875,-0.535,-0.763,0.153,0.458,73.333,56690.000,1.000
-1.961,-2.277,-2.519,-2.502,-2.549,-2.229,-2.381,-2.333,-0.054,0.875,-0.538,-0.793,0.122,0.610,73.333,56691.000,1.000
-2.465,-2.638,-2.864,-2.787,-2.921,-2.656,-2.792,-2.666,-0.056,0.875,-0.537,-0.885,0.183,0.580,73.333,56692.000,1.000
-2.912,-2.997,-3.187,-3.075,-3.161,-3.002,-3.068,-2.914,-0.058,0.875,-0.537,-0.946,0.244,0.641,73.333,56693.000,1.000
-3.220,-3.317,-3.488,-3.360,-3.269,-3.216,-3.220,-3.086,-0.059,0.875,-0.541,-0.916,0.214,0.610,73.333,56694.000,1.000
-3.352,-3.537,-3.735,-3.602,-3.277,-3.283,-3.290,-3.198,-0.058,0.876,-0.539,-0.946,0.122,0.610,73.333,56695.000,1.000
-3.308,-3.585,-3.850,-3.717,-3.198,-3.202,-3.289,-3.223,-0.059,0.876,-0.539,-0.916,0.061,0.580,73.333,56696.000,1.000
-3.102,-3.405,-3.738,-3.596,-3.004,-2.972,-3.177,-3.095,-0.058,0.875,-0.535,-0.977,0.031,0.519,73.333,56697.000,1.000
-2.760,-3.001,-3.364,-3.190,-2.666,-2.604,-2.914,-2.782,-0.057,0.875,-0.539,-1.099,0.000,0.488,73.333,56698.000,1.000
-2.253,-2.386,-2.727,-2.492,-2.145,-2.079,-2.452,-2.266,-0.058,0.874,-0.537,-1.038,-0.061,0.458,73.333,56699.000,1.000
-1.514,-1.555,-1.838,-1.534,-1.406,-1.363,-1.732,-1.529,-0.057,0.873,-0.535,-1.068,-0.031,0.519,73.333,56700.000,1.000
-0.584,-0.574,-0.789,-0.441,-0.517,-0.498,-0.775,-0.619,-0.056,0.872,-0.538,-1.068,0.000,0.580,73.333,56701.000,1.000
0.369,0.414,0.261,0.587,0.363,0.386,0.271,0.324,-0.055,0.870,-0.538,-0.885,0.031,0.580,73.333,56702.000,1.000
1.170,1.270,1.162,1.383,1.084,1.148,1.202,1.146,-0.056,0.872,-0.539,-0.824,-0.092,0.488,73.333,56703.000,1.000
1.777,1.954,1.866,1.930,1.625,1.755,1.920,1.792,-0.056,0.871,-0.537,-0.854,-0.031,0.397,73.333,56704.000,1.000
2.234,2.473,2.383,2.306,2.035,2.231,2.433,2.276,-0.055,0.875,-0.537,-0.854,0.061,0.366,73.333,56705.000,1.000
2.516,2.774,2.658,2.521,2.284,2.526,2.706,2.552,-0.054,0.874,-0.537,-0.763,0.031,0.336,73.333,56706.000,1.000
2.550,2.787,2.625,2.533,2.308,2.554,2.686,2.556,-0.056,0.873,-0.533,-0.824,0.031,0.397,73.333,56707.000,1.000
2.324,2.522,2.318,2.351,2.108,2.314,2.398,2.305,-0.055,0.876,-0.535,-0.854,0.031,0.397,73.333,56708.000,1.000
1.956,2.115,1.895,2.081,1.804,1.947,1.994,1.931,-0.054,0.874,-0.535,-0.916,0.000,0.366,73.333,56709.000,1.000
1.646,1.769,1.570,1.869,1.577,1.658,1.677,1.630,-0.057,0.875,-0.536,-0.916,0.000,0.183,73.333,56710.000,1.000
1.563,1.649,1.504,1.833,1.565,1.591,1.594,1.570,-0.057,0.874,-0.536,-0.946,-0.061,0.153,73.333,56711.000,1.000
1.804,1.848,1.781,2.064,1.837,1.816,1.819,1.845,-0.057,0.873,-0.537,-1.007,-0.031,0.153,73.333,56712.000,1.000
2.341,2.350,2.370,2.563,2.359,2.320,2.310,2.416,-0.058,0.873,-0.540,-0.854,-0.061,0.122,73.333,56713.000,1.000
3.001,3.003,3.087,3.181,2.977,2.970,2.902,3.095,-0.060,0.874,-0.536,-0.977,-0.092,0.122,73.333,56714.000,1.000
3.450,3.486,3.598,3.613,3.391,3.463,3.292,3.550,-0.060,0.875,-0.537,-0.977,-0.122,0.153,73.333,56715.000,1.000
3.310,3.399,3.521,3.504,3.239,3.420,3.132,3.420,-0.060,0.878,-0.535,-0.977,-0.122,0.031,73.333,56716.000,1.000
2.465,2.596,2.725,2.729,2.402,2.689,2.308,2.591,-0.058,0.878,-0.533,-1.068,-0.214,0.000,73.333,56717.000,1.000
1.209,1.343,1.476,1.532,1.156,1.506,1.096,1.335,-0.060,0.877,-0.535,-1.068,-0.397,-0.061,73.333,56718.000,1.000
0.120,0.199,0.332,0.436,0.059,0.398,0.052,0.201,-0.061,0.875,-0.537,-1.038,-0.427,-0.061,73.333,56719.000,1.000
-0.248,-0.287,-0.143,-0.021,-0.351,-0.089,-0.284,-0.272,-0.060,0.875,-0.536,-1.099,-0.427,-0.061,73.333,56720.000,1.000
0.301,0.111,0.284,0.391,0.138,0.302,0.275,0.138,-0.060,0.873,-0.538,-1.007,-0.458,-0.031,73.333,56721.000,1.000
1.534,1.209,1.422,1.488,1.319,1.410,1.496,1.246,-0.060,0.873,-0.538,-0.977,-0.427,-0.031,73.333,56722.000,1.000
2.926,2.519,2.782,2.793,2.692,2.744,2.867,2.579,-0.058,0.873,-0.535,-1.007,-0.519,0.122,73.333,56723.000,1.000
3.955,3.526,3.850,3.800,3.746,3.768,3.866,3.636,-0.059,0.874,-0.536,-0.946,-0.549,0.153,73.333,56724.000,1.000
4.366,3.983,4.353,4.234,4.222,4.215,4.223,4.146,-0.058,0.874,-0.540,-0.946,-0.549,0.244,73.333,56725.000,1.000
4.252,3.986,4.337,4.148,4.191,4.173,4.018,4.152,-0.059,0.877,-0.536,-0.885,-0.610,0.336,73.333,56726.000,1.000
3.908,3.801,4.043,3.821,3.922,3.932,3.563,3.891,-0.058,0.877,-0.534,-0.885,-0.519,0.458,73.333,56727.000,1.000
3.521,3.571,3.638,3.459,3.596,3.666,3.107,3.525,-0.058,0.876,-0.532,-0.977,-0.580,0.580,73.333,56728.000,1.000
3.080,3.256,3.150,3.082,3.213,3.350,2.697,3.065,-0.058,0.876,-0.532,-0.885,-0.549,0.519,73.333,56729.000,1.000
2.568,2.831,2.619,2.683,2.762,2.932,2.317,2.521,-0.059,0.875,-0.535,-1.038,-0.488,0.458,73.333,56730.000,1.000
2.133,2.430,2.210,2.371,2.374,2.508,2.041,2.037,-0.060,0.876,-0.535,-1.068,-0.641,0.610,73.333,56731.000,1.000
2.056,2.323,2.182,2.366,2.312,2.334,2.058,1.887,-0.058,0.875,-0.533,-1.038,-0.641,0.641,73.333,56732.000,1.000
2.487,2.678,2.656,2.775,2.713,2.587,2.478,2.240,-0.057,0.878,-0.531,-1.129,-0.580,0.580,73.333,56733.000,1.000
3.236,3.358,3.415,3.414,3.377,3.136,3.143,2.940,-0.056,0.878,-0.535,-1.190,-0.641,0.519,73.333,56734.000,1.000
3.849,3.964,3.999,3.894,3.878,3.591,3.676,3.556,-0.054,0.877,-0.537,-1.129,-0.549,0.610,73.333,56735.000,1.000
3.883,4.064,3.991,3.852,3.834,3.562,3.716,3.645,-0.052,0.873,-0.538,-1.160,-0.458,0.732,73.333,56736.000,1.000
3.151,3.430,3.240,3.125,3.106,2.881,3.096,2.990,-0.048,0.870,-0.537,-1.221,-0.366,0.763,73.333,56737.000,1.000
1.726,2.080,1.836,1.750,1.767,1.606,1.853,1.630,-0.047,0.868,-0.540,-1.129,-0.153,0.793,73.333,56738.000,1.000
-0.112,0.270,0.057,-0.026,0.060,-0.037,0.210,-0.157,-0.048,0.868,-0.537,-1.068,-0.031,0.854,73.333,56739.000,1.000
-1.918,-1.553,-1.679,-1.782,-1.628,-1.681,-1.447,-1.919,-0.049,0.869,-0.536,-0.885,0.000,0.824,73.333,56740.000,1.000
-3.278,-2.965,-3.007,-3.124,-2.936,-2.978,-2.751,-3.259,-0.050,0.870,-0.537,-0.916,0.061,0.824,73.333,56741.000,1.000
-4.004,-3.771,-3.794,-3.892,-3.699,-3.758,-3.531,-4.019,-0.053,0.875,-0.534,-0.977,0.183,0.916,73.333,56742.000,1.000
-4.195,-4.052,-4.141,-4.184,-3.997,-4.068,-3.863,-4.299,-0.053,0.880,-0.537,-1.068,0.183,0.854,73.333,56743.000,1.000
-4.034,-3.956,-4.165,-4.148,-3.960,-4.010,-3.872,-4.230,-0.052,0.882,-0.538,-1.160,0.427,0.854,73.333,56744.000,1.000
-3.586,-3.523,-3.837,-3.790,-3.587,-3.584,-3.552,-3.808,-0.055,0.881,-0.538,-1.282,0.427,0.671,73.333,56745.000,1.000
-2.834,-2.752,-3.090,-3.052,-2.832,-2.776,-2.842,-2.982,-0.056,0.883,-0.538,-1.434,0.427,0.549,73.333,56746.000,1.000
-1.792,-1.697,-1.954,-1.943,-1.734,-1.660,-1.759,-1.798,-0.060,0.884,-0.540,-1.556,0.244,0.488,73.333,56747.000,1.000
-0.573,-0.499,-0.594,-0.606,-0.458,-0.408,-0.461,-0.441,-0.063,0.885,-0.539,-1.526,0.122,0.427,73.333,56748.000,1.000
0.670,0.684,0.782,0.761,0.817,0.808,0.846,0.875,-0.067,0.882,-0.535,-1.617,-0.092,0.366,73.333,56749.000,1.000
1.828,1.753,2.024,2.008,1.981,1.898,2.022,2.038,-0.069,0.878,-0.532,-1.678,-0.244,0.214,73.333,56750.000,1.000
2.795,2.623,3.014,3.006,2.922,2.777,2.967,2.980,-0.069,0.876,-0.530,-1.648,-0.549,0.061,73.333,56751.000,1.000
3.408,3.162,3.603,3.602,3.469,3.301,3.539,3.575,-0.069,0.875,-0.534,-1.526,-0.732,-0.092,73.333,56752.000,1.000
3.455,3.174,3.593,3.600,3.407,3.277,3.543,3.611,-0.068,0.870,-0.539,-1.556,-0.854,-0.275,73.333,56753.000,1.000
2.797,2.521,2.875,2.890,2.621,2.602,2.857,2.943,-0.069,0.871,-0.539,-1.678,-1.038,-0.488,73.333,56754.000,1.000
1.513,1.264,1.549,1.569,1.236,1.379,1.559,1.648,-0.065,0.875,-0.533,-1.556,-1.160,-0.519,73.333,56755.000,1.000
-0.103,-0.335,-0.089,-0.068,-0.408,-0.118,-0.071,0.030,-0.063,0.872,-0.534,-1.343,-1.343,-0.488,73.333,56756.000,1.000
-1.536,-1.785,-1.540,-1.520,-1.783,-1.438,-1.532,-1.391,-0.063,0.873,-0.531,-1.373,-1.495,-0.488,73.333,56757.000,1.000
-2.167,-2.448,-2.176,-2.155,-2.278,-2.023,-2.184,-1.994,-0.063,0.874,-0.533,-1.465,-1.678,-0.427,73.333,56758.000,1.000
-1.515,-1.792,-1.492,-1.453,-1.446,-1.391,-1.510,-1.298,-0.060,0.875,-0.536,-1.434,-1.678,-0.427,73.333,56759.000,1.000
0.478,0.284,0.589,0.664,0.721,0.574,0.567,0.748,-0.059,0.875,-0.535,-1.312,-1.770,-0.336,73.333,56760.000,1.000
3.339,3.298,3.572,3.688,3.694,3.447,3.539,3.648,-0.056,0.877,-0.533,-1.312,-1.770,-0.153,73.333,56761.000,1.000
6.294,6.413,6.632,6.766,6.660,6.448,6.564,6.603,-0.055,0.877,-0.532,-1.373,-1.678,-0.031,73.333,56762.000,1.000
8.569,8.780,8.946,9.062,8.840,8.751,8.819,8.830,-0.055,0.877,-0.531,-1.373,-1.617,0.061,73.333,56763.000,1.000
9.583,9.778,9.909,9.974,9.680,9.721,9.722,9.757,-0.056,0.874,-0.532,-1.404,-1.587,0.214,73.333,56764.000,1.000
9.035,9.131,9.223,9.242,8.948,9.048,9.018,9.103,-0.054,0.877,-0.533,-1.343,-1.465,0.336,73.333,56765.000,1.000
6.915,6.892,6.930,6.925,6.708,6.774,6.764,6.873,-0.054,0.876,-0.532,-1.343,-1.373,0.427,73.333,56766.000,1.000
3.495,3.378,3.377,3.350,3.278,3.248,3.281,3.352,-0.056,0.875,-0.530,-1.343,-1.282,0.641,73.333,56767.000,1.000
-0.793,-0.968,-0.961,-1.032,-0.928,-1.044,-0.988,-1.027,-0.056,0.874,-0.533,-1.251,-1.251,0.732,73.333,56768.000,1.000
-5.437,-5.629,-5.575,-5.706,-5.473,-5.598,-5.556,-5.745,-0.057,0.874,-0.532,-1.312,-1.251,0.732,73.333,56769.000,1.000
-9.813,-9.970,-9.877,-10.053,-9.804,-9.840,-9.844,-10.165,-0.056,0.875,-0.532,-1.251,-1.099,0.702,73.333,56770.000,1.000
-13.293,-13.350,-13.266,-13.455,-13.305,-13.187,-13.255,-13.635,-0.059,0.876,-0.529,-1.312,-1.038,0.854,73.333,56771.000,1.000
-15.460,-15.365,-15.345,-15.514,-15.531,-15.247,-15.381,-15.732,-0.056,0.874,-0.530,-1.343,-0.946,0.824,73.333,56772.000,1.000
-16.241,-16.002,-16.068,-16.195,-16.385,-15.968,-16.157,-16.414,-0.053,0.874,-0.530,-1.373,-0.793,0.732,73.333,56773.000,1.000
-15.803,-15.526,-15.662,-15.722,-16.032,-15.547,-15.790,-15.914,-0.052,0.873,-0.529,-1.343,-0.824,0.732,73.333,56774.000,1.000
-14.421,-14.266,-14.433,-14.398,-14.743,-14.273,-14.573,-14.554,-0.054,0.874,-0.534,-1.251,-0.641,0.671,73.333,56775.000,1.000
-12.444,-12.507,-12.668,-12.524,-12.844,-12.457,-12.800,-12.658,-0.053,0.873,-0.534,-1.190,-0.488,0.671,73.333,56776.000,1.000
-10.231,-10.468,-10.610,-10.379,-10.666,-10.382,-10.738,-10.512,-0.051,0.871,-0.531,-1.190,-0.336,0.671,73.333,56777.000,1.000
-8.105,-8.373,-8.507,-8.253,-8.524,-8.318,-8.652,-8.384,-0.050,0.873,-0.534,-1.099,-0.244,0.671,73.333,56778.000,1.000
-6.257,-6.426,-6.559,-6.369,-6.620,-6.452,-6.737,-6.458,-0.051,0.872,-0.533,-0.977,-0.122,0.610,73.333,56779.000,1.000
-4.645,-4.688,-4.798,-4.746,-4.941,-4.788,-5.000,-4.722,-0.051,0.875,-0.535,-0.977,-0.092,0.519,73.333,56780.000,1.000
-3.102,-3.097,-3.148,-3.258,-3.347,-3.218,-3.342,-3.056,-0.049,0.873,-0.536,-0.885,0.122,0.549,73.333,56781.000,1.000
-1.513,-1.567,-1.539,-1.780,-1.726,-1.657,-1.687,-1.381,-0.052,0.874,-0.534,-0.824,0.183,0.519,73.333,56782.000,1.000
0.143,-0.011,0.084,-0.213,-0.024,-0.070,0.008,0.325,-0.050,0.875,-0.533,-0.854,0.275,0.488,73.333,56783.000,1.000
1.922,1.713,1.837,1.566,1.842,1.620,1.838,2.128,-0.052,0.874,-0.535,-0.671,0.427,0.488,73.333,56784.000,1.000
3.885,3.699,3.811,3.618,3.918,3.499,3.865,4.093,-0.052,0.875,-0.535,-0.610,0.519,0.458,73.333,56785.000,1.000
5.854,5.740,5.817,5.706,5.977,5.411,5.887,6.034,-0.052,0.876,-0.539,-0.671,0.610,0.366,73.333,56786.000,1.000
7.420,7.373,7.414,7.360,7.569,6.971,7.469,7.548,-0.053,0.875,-0.536,-0.580,0.671,0.214,73.333,56787.000,1.000
8.236,8.213,8.219,8.200,8.344,7.833,8.252,8.305,-0.055,0.877,-0.538,-0.549,0.854,0.153,73.333,56788.000,1.000
8.230,8.180,8.139,8.136,8.266,7.908,8.169,8.241,-0.056,0.878,-0.535,-0.671,0.732,0.153,73.333,56789.000,1.000
7.563,7.457,7.350,7.350,7.541,7.333,7.406,7.521,-0.059,0.877,-0.537,-0.702,0.763,0.244,73.333,56790.000,1.000
6.451,6.317,6.127,6.131,6.423,6.318,6.242,6.386,-0.060,0.875,-0.536,-0.641,0.732,0.214,73.333,56791.000,1.000
5.110,5.019,4.752,4.786,5.157,5.085,4.948,5.089,-0.060,0.875,-0.531,-0.702,0.732,0.153,73.333,56792.000,1.000
3.742,3.755,3.456,3.553,3.943,3.832,3.720,3.839,-0.059,0.877,-0.537,-0.793,0.641,0.092,73.333,56793.000,1.000
2.547,2.657,2.395,2.565,2.917,2.728,2.671,2.781,-0.062,0.877,-0.535,-0.793,0.580,0.031,73.333,56794.000,1.000
1.682,1.818,1.648,1.868,2.148,1.895,1.867,2.006,-0.062,0.878,-0.533,-0.824,0.366,0.244,73.333,56795.000,1.000
1.189,1.268,1.191,1.431,1.627,1.372,1.324,1.527,-0.061,0.879,-0.533,-0.824,0.305,0.275,73.333,56796.000,1.000
1.031,1.016,0.966,1.217,1.335,1.136,1.039,1.326,-0.060,0.879,-0.534,-0.916,0.031,0.214,73.333,56797.000,1.000
1.139,1.056,0.931,1.198,1.271,1.136,1.003,1.366,-0.062,0.882,-0.536,-0.885,-0.122,0.244,73.333,56798.000,1.000
1.454,1.372,1.094,1.374,1.455,1.339,1.235,1.623,-0.063,0.882,-0.533,-0.977,-0.214,0.275,73.333,56799.000,1.000
1.960,1.948,1.515,1.777,1.915,1.767,1.781,2.100,-0.063,0.879,-0.535,-0.946,-0.427,0.366,73.333,56800.000,1.000
2.630,2.708,2.213,2.398,2.618,2.418,2.607,2.762,-0.063,0.877,-0.535,-1.007,-0.549,0.366,73.333,56801.000,1.000
3.399,3.542,3.114,3.162,3.465,3.236,3.569,3.521,-0.063,0.876,-0.536,-1.068,-0.641,0.336,73.333,56802.000,1.000
4.123,4.289,4.011,3.911,4.275,4.050,4.433,4.210,-0.062,0.872,-0.534,-1.160,-0.732,0.427,73.333,56803.000,1.000
4.577,4.726,4.606,4.410,4.799,4.591,4.919,4.601,-0.062,0.872,-0.536,-1.007,-0.977,0.458,73.333,56804.000,1.000
4.645,4.736,4.729,4.519,4.905,4.699,4.894,4.581,-0.062,0.871,-0.534,-0.916,-1.068,0.488,73.333,56805.000,1.000
4.413,4.421,4.469,4.294,4.675,4.447,4.484,4.258,-0.059,0.869,-0.534,-0.763,-1.099,0.397,73.333,56806.000,1.000
4.042,3.980,4.046,3.896,4.269,4.022,3.940,3.842,-0.057,0.870,-0.533,-0.702,-1.129,0.427,73.333,56807.000,1.000
3.554,3.474,3.553,3.388,3.722,3.501,3.382,3.393,-0.056,0.873,-0.536,-0.610,-1.099,0.580,73.333,56808.000,1.000
2.894,2.852,2.968,2.744,3.004,2.880,2.791,2.840,-0.054,0.873,-0.537,-0.519,-1.160,0.610,73.333,56809.000,1.000
2.138,2.151,2.340,2.025,2.208,2.235,2.183,2.192,-0.049,0.871,-0.535,-0.519,-1.129,0.549,73.333,56810.000,1.000
1.451,1.486,1.761,1.358,1.491,1.672,1.611,1.553,-0.048,0.871,-0.535,-0.427,-0.977,0.763,73.333,56811.000,1.000
0.882,0.873,1.207,0.769,0.867,1.157,1.040,0.958,-0.047,0.870,-0.534,-0.366,-0.854,0.854,73.333,56812.000,1.000
0.270,0.180,0.506,0.130,0.170,0.498,0.328,0.296,-0.051,0.869,-0.534,-0.183,-0.824,0.793,73.333,56813.000,1.000
-0.557,-0.700,-0.460,-0.678,-0.738,-0.438,-0.618,-0.552,-0.056,0.870,-0.535,-0.153,-0.641,0.763,73.333,56814.000,1.000
-1.591,-1.721,-1.606,-1.630,-1.806,-1.585,-1.721,-1.581,-0.059,0.871,-0.539,-0.031,-0.702,0.793,73.333,56815.000,1.000
-2.739,-2.809,-2.794,-2.684,-2.935,-2.813,-2.872,-2.744,-0.063,0.872,-0.534,0.031,-0.671,0.793,73.333,56816.000,1.000
-3.934,-3.954,-3.965,-3.853,-4.094,-4.051,-4.036,-4.013,-0.065,0.876,-0.535,0.061,-0.885,0.671,73.333,56817.000,1.000
-5.143,-5.163,-5.119,-5.148,-5.288,-5.267,-5.218,-5.336,-0.063,0.877,-0.536,-0.031,-0.946,0.610,73.333,56818.000,1.000
-6.318,-6.379,-6.233,-6.483,-6.478,-6.410,-6.372,-6.599,-0.060,0.878,-0.537,-0.031,-1.038,0.427,73.333,56819.000,1.000
-7.353,-7.449,-7.205,-7.662,-7.534,-7.372,-7.366,-7.638,-0.058,0.876,-0.534,-0.092,-0.946,0.366,73.333,56820.000,1.000
-8.102,-8.193,-7.899,-8.464,-8.274,-8.027,-8.036,-8.310,-0.057,0.875,-0.536,-0.122,-0.977,0.336,73.333,56821.000,1.000
-8.363,-8.425,-8.137,-8.679,-8.482,-8.211,-8.205,-8.473,-0.056,0.872,-0.534,-0.061,-0.977,0.183,73.333,56822.000,1.000
-7.905,-7.961,-7.713,-8.134,-7.966,-7.730,-7.696,-7.968,-0.056,0.873,-0.537,-0.092,-1.038,0.214,73.333,56823.000,1.000
-6.591,-6.687,-6.485,-6.762,-6.657,-6.460,-6.408,-6.692,-0.055,0.877,-0.539,-0.153,-0.946,0.153,73.333,56824.000,1.000
-4.501,-4.677,-4.508,-4.683,-4.668,-4.476,-4.417,-4.705,-0.054,0.878,-0.537,-0.122,-0.946,0.061,73.333,56825.000,1.000
-1.972,-2.249,-2.115,-2.230,-2.303,-2.108,-2.015,-2.300,-0.055,0.877,-0.536,-0.275,-0.885,0.061,73.333,56826.000,1.000
0.561,0.172,0.260,0.194,0.092,0.234,0.410,0.128,-0.054,0.877,-0.538,-0.336,-0.763,-0.031,73.333,56827.000,1.000
2.747,2.243,2.294,2.286,2.239,2.252,2.527,2.252,-0.056,0.879,-0.537,-0.519,-0.671,-0.031,73.333,56828.000,1.000
4.342,3.765,3.831,3.872,3.927,3.780,4.120,3.866,-0.056,0.878,-0.539,-0.580,-0.702,0.031,73.333,56829.000,1.000
5.180,4.653,4.785,4.854,4.968,4.713,5.067,4.848,-0.056,0.878,-0.539,-0.488,-0.610,0.122,73.333,56830.000,1.000
5.214,4.903,5.106,5.179,5.252,4.997,5.330,5.149,-0.054,0.877,-0.537,-0.610,-0.580,0.031,73.333,56831.000,1.000
4.645,4.677,4.899,4.954,4.910,4.762,5.044,4.901,-0.057,0.877,-0.534,-0.641,-0.580,0.122,73.333,56832.000,1.000
3.844,4.238,4.401,4.425,4.258,4.267,4.472,4.365,-0.059,0.879,-0.535,-0.732,-0.580,0.092,73.333,56833.000,1.000
3.079,3.744,3.772,3.783,3.541,3.702,3.791,3.718,-0.058,0.879,-0.538,-0.885,-0.580,0.214,73.333,56834.000,1.000
2.403,3.187,3.052,3.090,2.833,3.105,3.037,3.002,-0.059,0.878,-0.540,-0.885,-0.488,0.214,73.333,56835.000,1.000
1.737,2.489,2.221,2.325,2.100,2.421,2.177,2.183,-0.058,0.879,-0.542,-1.038,-0.397,0.153,73.333,56836.000,1.000
0.993,1.613,1.257,1.460,1.301,1.600,1.191,1.235,-0.059,0.879,-0.539,-1.129,-0.397,0.244,73.333,56837.000,1.000
0.128,0.580,0.163,0.493,0.420,0.647,0.102,0.170,-0.060,0.878,-0.533,-1.160,-0.458,0.336,73.333,56838.000,1.000
-0.801,-0.505,-0.955,-0.497,-0.490,-0.342,-0.978,-0.896,-0.059,0.876,-0.534,-1.190,-0.427,0.336,73.333,56839.000,1.000
-1.627,-1.445,-1.887,-1.332,-1.286,-1.202,-1.842,-1.763,-0.059,0.876,-0.536,-1.251,-0.366,0.183,73.333,56840.000,1.000
-2.186,-2.062,-2.448,-1.851,-1.846,-1.793,-2.321,-2.277,-0.059,0.872,-0.538,-1.404,-0.275,0.305,73.333,56841.000,1.000
-2.366,-2.237,-2.525,-1.956,-2.084,-2.017,-2.330,-2.354,-0.057,0.870,-0.537,-1.343,-0.336,0.336,73.333,56842.000,1.000
-2.128,-1.955,-2.129,-1.649,-1.959,-1.843,-1.896,-2.000,-0.055,0.870,-0.538,-1.434,-0.397,0.458,73.333,56843.000,1.000
-1.567,-1.357,-1.443,-1.079,-1.528,-1.378,-1.192,-1.357,-0.056,0.869,-0.540,-1.282,-0.397,0.519,73.333,56844.000,1.000
-0.846,-0.645,-0.687,-0.425,-0.897,-0.778,-0.424,-0.602,-0.057,0.873,-0.542,-1.251,-0.244,0.519,73.333,56845.000,1.000
-0.094,0.048,0.030,0.231,-0.155,-0.133,0.290,0.162,-0.059,0.878,-0.537,-1.282,-0.275,0.488,73.333,56846.000,1.000
0.670,0.744,0.736,0.930,0.677,0.569,0.968,0.929,-0.060,0.879,-0.535,-1.312,-0.214,0.580,73.333,56847.000,1.000
1.509,1.559,1.521,1.760,1.628,1.395,1.712,1.764,-0.060,0.879,-0.535,-1.404,-0.275,0.641,73.333,56848.000,1.000
2.517,2.621,2.480,2.809,2.746,2.423,2.648,2.764,-0.061,0.875,-0.537,-1.434,-0.244,0.580,73.333,56849.000,1.000
3.768,3.981,3.687,4.129,4.066,3.709,3.866,4.008,-0.060,0.870,-0.535,-1.617,-0.275,0.671,73.333,56850.000,1.000
5.178,5.499,5.062,5.603,5.492,5.169,5.286,5.410,-0.061,0.869,-0.539,-1.556,-0.366,0.641,73.333,56851.000,1.000
6.460,6.831,6.328,6.912,6.745,6.518,6.610,6.676,-0.061,0.870,-0.540,-1.465,-0.427,0.702,73.333,56852.000,1.000
7.240,7.578,7.115,7.655,7.463,7.361,7.439,7.415,-0.060,0.870,-0.537,-1.282,-0.427,0.641,73.333,56853.000,1.000
7.245,7.481,7.147,7.555,7.386,7.394,7.477,7.358,-0.058,0.869,-0.538,-1.190,-0.458,0.549,73.333,56854.000,1.000
6.406,6.520,6.339,6.580,6.467,6.537,6.638,6.452,-0.057,0.873,-0.536,-1.068,-0.427,0.641,73.333,56855.000,1.000
4.832,4.852,4.779,4.902,4.833,4.918,5.021,4.826,-0.055,0.875,-0.534,-1.160,-0.427,0.519,73.333,56856.000,1.000
2.849,2.818,2.796,2.887,2.810,2.887,2.959,2.814,-0.054,0.876,-0.534,-1.282,-0.366,0.458,73.333,56857.000,1.000
0.926,0.879,0.893,0.996,0.863,0.931,0.949,0.887,-0.053,0.876,-0.537,-1.221,-0.336,0.366,73.333,56858.000,1.000
-0.513,-0.545,-0.474,-0.379,-0.581,-0.525,-0.558,-0.542,-0.055,0.875,-0.536,-1.221,-0.305,0.458,73.333,56859.000,1.000
-1.195,-1.189,-1.048,-0.997,-1.250,-1.230,-1.278,-1.217,-0.056,0.873,-0.537,-1.251,-0.214,0.519,73.333,56860.000,1.000
-1.088,-1.039,-0.843,-0.851,-1.126,-1.169,-1.186,-1.115,-0.055,0.872,-0.538,-1.221,-0.214,0.458,73.333,56861.000,1.000
-0.446,-0.364,-0.144,-0.204,-0.468,-0.577,-0.538,-0.477,-0.056,0.872,-0.540,-1.099,-0.153,0.366,73.333,56862.000,1.000
0.276,0.365,0.592,0.484,0.271,0.128,0.205,0.263,-0.055,0.872,-0.538,-1.068,-0.183,0.275,73.333,56863.000,1.000
0.672,0.732,0.971,0.816,0.690,0.551,0.622,0.699,-0.056,0.875,-0.536,-1.038,-0.092,0.275,73.333,56864.000,1.000
0.641,0.627,0.885,0.694,0.663,0.553,0.570,0.695,-0.058,0.877,-0.536,-1.038,0.000,0.275,73.333,56865.000,1.000
0.297,0.174,0.440,0.250,0.272,0.206,0.142,0.323,-0.057,0.877,-0.535,-0.946,-0.092,0.244,73.333,56866.000,1.000
-0.215,-0.445,-0.195,-0.339,-0.335,-0.345,-0.477,-0.277,-0.059,0.876,-0.538,-1.007,-0.092,0.214,73.333,56867.000,1.000
-0.780,-1.074,-0.865,-0.926,-1.010,-0.966,-1.104,-0.955,-0.059,0.876,-0.535,-1.129,-0.092,0.183,73.333,56868.000,1.000
-1.310,-1.609,-1.460,-1.439,-1.627,-1.560,-1.623,-1.586,-0.058,0.875,-0.535,-1.190,-0.092,0.244,73.333,56869.000,1.000
-1.740,-1.994,-1.920,-1.852,-2.103,-2.062,-2.003,-2.070,-0.059,0.874,-0.533,-1.099,-0.183,0.183,73.333,56870.000,1.000
-2.034,-2.213,-2.224,-2.162,-2.403,-2.420,-2.256,-2.352,-0.062,0.875,-0.533,-1.160,-0.336,0.183,73.333,56871.000,1.000
-2.138,-2.224,-2.327,-2.312,-2.468,-2.546,-2.351,-2.378,-0.062,0.875,-0.536,-0.977,-0.458,0.061,73.333,56872.000,1.000
-1.975,-1.969,-2.167,-2.197,-2.228,-2.340,-2.196,-2.099,-0.062,0.878,-0.535,-0.977,-0.427,0.061,73.333,56873.000,1.000
-1.510,-1.440,-1.708,-1.742,-1.680,-1.774,-1.721,-1.516,-0.061,0.878,-0.533,-0.977,-0.549,0.092,73.333,56874.000,1.000
-0.758,-0.673,-0.961,-0.952,-0.877,-0.902,-0.927,-0.674,-0.062,0.876,-0.531,-1.099,-0.671,0.061,73.333,56875.000,1.000
0.192,0.243,-0.016,0.058,0.077,0.132,0.063,0.310,-0.060,0.877,-0.531,-1.129,-0.824,-0.031,73.333,56876.000,1.000
1.162,1.137,0.951,1.060,1.011,1.097,1.018,1.237,-0.057,0.876,-0.533,-1.099,-0.732,0.000,73.333,56877.000,1.000
1.865,1.729,1.664,1.749,1.655,1.698,1.635,1.833,-0.056,0.872,-0.532,-1.160,-0.824,0.122,73.333,56878.000,1.000
1.998,1.729,1.832,1.835,1.726,1.682,1.654,1.841,-0.057,0.873,-0.534,-1.160,-0.824,0.153,73.333,56879.000,1.000
1.429,1.039,1.331,1.222,1.121,1.000,1.020,1.192,-0.057,0.871,-0.535,-1.129,-0.916,0.275,73.333,56880.000,1.000
0.239,-0.217,0.247,0.033,-0.047,-0.192,-0.121,0.020,-0.061,0.872,-0.533,-1.221,-0.824,0.275,73.333,56881.000,1.000
-1.336,-1.780,-1.201,-1.475,-1.536,-1.648,-1.531,-1.441,-0.058,0.872,-0.534,-1.190,-0.793,0.244,73.333,56882.000,1.000
-3.001,-3.357,-2.763,-3.031,-3.081,-3.134,-2.989,-2.953,-0.056,0.874,-0.534,-1.251,-0.824,0.488,73.333,56883.000,1.000
-4.449,-4.663,-4.173,-4.385,-4.420,-4.428,-4.291,-4.281,-0.058,0.873,-0.534,-1.190,-0.824,0.397,73.333,56884.000,1.000
-5.374,-5.425,-5.136,-5.281,-5.275,-5.272,-5.183,-5.160,-0.058,0.874,-0.536,-1.190,-0.793,0.427,73.333,56885.000,1.000
-5.614,-5.524,-5.471,-5.572,-5.488,-5.511,-5.483,-5.434,-0.058,0.874,-0.536,-1.099,-0.732,0.580,73.333,56886.000,1.000
-5.283,-5.111,-5.255,-5.348,-5.163,-5.228,-5.239,-5.195,-0.057,0.878,-0.533,-1.068,-0.702,0.610,73.333,56887.000,1.000
-4.733,-4.544,-4.793,-4.907,-4.635,-4.721,-4.748,-4.757,-0.057,0.881,-0.533,-1.068,-0.671,0.671,73.333,56888.000,1.000
-4.338,-4.177,-4.420,-4.573,-4.261,-4.325,-4.373,-4.457,-0.059,0.879,-0.533,-1.099,-0.732,0.702,73.333,56889.000,1.000
-4.251,-4.148,-4.280,-4.488,-4.186,-4.185,-4.287,-4.432,-0.057,0.878,-0.533,-1.312,-0.763,0.580,73.333,56890.000,1.000
-4.387,-4.366,-4.336,-4.614,-4.344,-4.256,-4.446,-4.610,-0.054,0.875,-0.533,-1.343,-0.610,0.610,73.333,56891.000,1.000
-4.566,-4.636,-4.487,-4.828,-4.576,-4.407,-4.694,-4.828,-0.054,0.873,-0.530,-1.373,-0.549,0.549,73.333,56892.000,1.000
-4.650,-4.785,-4.623,-4.996,-4.743,-4.523,-4.873,-4.950,-0.056,0.875,-0.532,-1.373,-0.427,0.488,73.333,56893.000,1.000
-4.627,-4.772,-4.694,-5.052,-4.796,-4.573,-4.922,-4.957,-0.055,0.875,-0.536,-1.312,-0.397,0.610,73.333,56894.000,1.000
-4.546,-4.646,-4.695,-4.988,-4.740,-4.560,-4.856,-4.897,-0.054,0.876,-0.536,-1.160,-0.427,0.641,73.333,56895.000,1.000
-4.380,-4.417,-4.571,-4.759,-4.548,-4.427,-4.650,-4.748,-0.052,0.875,-0.533,-1.221,-0.427,0.641,73.333,56896.000,1.000
-3.951,-3.952,-4.137,-4.217,-4.088,-3.993,-4.144,-4.314,-0.053,0.875,-0.532,-1.251,-0.397,0.641,73.333,56897.000,1.000
-3.094,-3.099,-3.233,-3.243,-3.233,-3.104,-3.200,-3.405,-0.054,0.873,-0.533,-1.099,-0.397,0.549,73.333,56898.000,1.000
-1.884,-1.916,-1.962,-1.956,-2.062,-1.851,-1.919,-2.095,-0.053,0.872,-0.535,-1.160,-0.214,0.458,73.333,56899.000,1.000
-0.588,-0.644,-0.623,-0.642,-0.815,-0.512,-0.577,-0.683,-0.054,0.871,-0.536,-1.160,-0.183,0.458,73.333,56900.000,1.000
0.535,0.473,0.518,0.452,0.282,0.650,0.566,0.527,-0.057,0.873,-0.538,-1.160,-0.122,0.458,73.333,56901.000,1.000
1.389,1.337,1.387,1.272,1.147,1.541,1.419,1.422,-0.056,0.875,-0.536,-1.007,-0.244,0.549,73.333,56902.000,1.000
2.014,1.980,2.044,1.904,1.819,2.201,2.029,2.053,-0.057,0.875,-0.534,-0.854,-0.275,0.519,73.333,56903.000,1.000
2.470,2.442,2.533,2.408,2.339,2.684,2.449,2.484,-0.057,0.877,-0.534,-0.916,-0.275,0.305,73.333,56904.000,1.000
2.755,2.721,2.825,2.739,2.692,2.990,2.674,2.720,-0.057,0.878,-0.531,-0.977,-0.153,0.305,73.333,56905.000,1.000
2.789,2.758,2.842,2.785,2.799,3.052,2.647,2.710,-0.055,0.876,-0.532,-0.916,-0.092,0.336,73.333,56906.000,1.000
2.533,2.537,2.563,2.521,2.617,2.835,2.366,2.448,-0.053,0.874,-0.535,-0.854,-0.153,0.336,73.333,56907.000,1.000
2.094,2.151,2.096,2.093,2.236,2.421,1.954,2.042,-0.053,0.875,-0.537,-0.885,0.000,0.275,73.333,56908.000,1.000
1.693,1.787,1.651,1.742,1.851,2.004,1.616,1.686,-0.054,0.877,-0.534,-0.946,0.061,0.244,73.333,56909.000,1.000
1.559,1.656,1.470,1.677,1.690,1.812,1.555,1.578,-0.054,0.876,-0.535,-0.854,0.061,0.305,73.333,56910.000,1.000
1.786,1.857,1.677,1.950,1.873,1.954,1.846,1.805,-0.055,0.878,-0.534,-0.824,0.031,0.275,73.333,56911.000,1.000
2.300,2.338,2.216,2.464,2.363,2.371,2.400,2.308,-0.054,0.878,-0.531,-0.824,0.031,0.366,73.333,56912.000,1.000
2.939,2.951,2.919,3.055,3.016,2.912,3.045,2.944,-0.056,0.878,-0.530,-0.916,0.122,0.305,73.333,56913.000,1.000
3.560,3.545,3.608,3.574,3.671,3.448,3.631,3.562,-0.056,0.878,-0.530,-0.946,-0.031,0.275,73.333,56914.000,1.000
4.099,4.043,4.180,3.958,4.230,3.939,4.098,4.082,-0.057,0.877,-0.535,-0.977,0.122,0.275,73.333,56915.000,1.000
4.469,4.371,4.540,4.161,4.592,4.317,4.382,4.422,-0.056,0.876,-0.536,-1.038,0.092,0.244,73.333,56916.000,1.000
4.530,4.423,4.572,4.117,4.632,4.445,4.373,4.458,-0.057,0.872,-0.535,-1.068,0.092,0.183,73.333,56917.000,1.000
4.208,4.139,4.225,3.797,4.299,4.222,4.025,4.125,-0.056,0.873,-0.536,-0.885,0.214,0.305,73.333,56918.000,1.000
3.601,3.585,3.595,3.276,3.704,3.702,3.450,3.518,-0.056,0.873,-0.537,-0.977,0.092,0.305,73.333,56919.000,1.000
2.972,2.994,2.950,2.776,3.112,3.119,2.909,2.912,-0.058,0.875,-0.535,-0.946,0.000,0.397,73.333,56920.000,1.000
2.601,2.640,2.589,2.536,2.789,2.747,2.650,2.613,-0.058,0.875,-0.537,-0.854,-0.031,0.427,73.333,56921.000,1.000
2.614,2.665,2.659,2.651,2.842,2.728,2.757,2.748,-0.060,0.873,-0.541,-0.946,-0.061,0.488,73.333,56922.000,1.000
2.948,3.030,3.085,3.035,3.194,3.024,3.124,3.195,-0.057,0.870,-0.539,-0.916,-0.153,0.427,73.333,56923.000,1.000
3.446,3.588,3.678,3.534,3.697,3.499,3.584,3.730,-0.058,0.872,-0.537,-0.854,-0.183,0.366,73.333,56924.000,1.000
3.990,4.195,4.276,4.046,4.234,4.032,4.022,4.206,-0.057,0.873,-0.538,-0.732,-0.183,0.336,73.333,56925.000,1.000
4.449,4.684,4.721,4.447,4.678,4.481,4.329,4.531,-0.057,0.878,-0.538,-0.702,-0.305,0.458,73.333,56926.000,1.000
4.673,4.896,4.875,4.592,4.881,4.688,4.391,4.626,-0.056,0.878,-0.535,-0.763,-0.458,0.397,73.333,56927.000,1.000
4.553,4.750,4.672,4.391,4.744,4.551,4.163,4.461,-0.057,0.879,-0.534,-0.885,-0.427,0.519,73.333,56928.000,1.000
4.080,4.257,4.138,3.862,4.250,4.059,3.677,4.062,-0.056,0.877,-0.531,-0.793,-0.366,0.580,73.333,56929.000,1.000
3.370,3.526,3.414,3.157,3.508,3.317,3.057,3.513,-0.057,0.875,-0.535,-1.068,-0.366,0.763,73.333,56930.000,1.000
2.594,2.710,2.670,2.469,2.697,2.500,2.446,2.913,-0.057,0.874,-0.539,-1.221,-0.336,0.641,73.333,56931.000,1.000
1.866,1.933,2.000,1.891,1.955,1.741,1.902,2.310,-0.058,0.875,-0.538,-1.129,-0.427,0.488,73.333,56932.000,1.000
1.197,1.214,1.371,1.364,1.301,1.066,1.361,1.682,-0.056,0.875,-0.536,-1.007,-0.458,0.519,73.333,56933.000,1.000
0.545,0.504,0.696,0.763,0.660,0.410,0.730,0.986,-0.056,0.871,-0.534,-0.946,-0.488,0.519,73.333,56934.000,1.000
-0.130,-0.251,-0.086,0.023,-0.063,-0.316,-0.015,0.203,-0.056,0.871,-0.534,-0.946,-0.488,0.580,73.333,56935.000,1.000
-0.941,-1.161,-1.060,-0.923,-1.014,-1.250,-0.922,-0.750,-0.055,0.874,-0.530,-0.946,-0.427,0.549,73.333,56936.000,1.000
-2.014,-2.344,-2.293,-2.123,-2.286,-2.484,-2.050,-1.965,-0.052,0.873,-0.534,-1.038,-0.366,0.519,73.333,56937.000,1.000
-3.277,-3.706,-3.666,-3.457,-3.724,-3.874,-3.305,-3.329,-0.055,0.873,-0.534,-1.068,-0.427,0.549,73.333,56938.000,1.000
-4.403,-4.882,-4.832,-4.598,-4.923,-5.035,-4.383,-4.490,-0.057,0.872,-0.535,-1.129,-0.488,0.519,73.333,56939.000,1.000
-4.974,-5.414,-5.371,-5.140,-5.433,-5.532,-4.903,-5.036,-0.058,0.873,-0.536,-1.068,-0.519,0.519,73.333,56940.000,1.000
-4.761,-5.077,-5.072,-4.873,-5.062,-5.167,-4.662,-4.775,-0.058,0.872,-0.536,-1.038,-0.549,0.397,73.333,56941.000,1.000
-3.886,-4.051,-4.096,-3.943,-4.016,-4.126,-3.791,-3.879,-0.058,0.874,-0.534,-0.885,-0.549,0.336,73.333,56942.000,1.000
-2.806,-2.856,-2.924,-2.822,-2.817,-2.916,-2.723,-2.817,-0.060,0.876,-0.535,-0.854,-0.641,0.336,73.333,56943.000,1.000
-2.079,-2.071,-2.116,-2.051,-2.036,-2.106,-1.971,-2.105,-0.059,0.877,-0.534,-0.885,-0.793,0.305,73.333,56944.000,1.000
-1.970,-1.942,-1.929,-1.869,-1.917,-1.939,-1.781,-1.964,-0.061,0.876,-0.532,-1.007,-0.793,0.244,73.333,56945.000,1.000
-2.323,-2.290,-2.218,-2.122,-2.286,-2.240,-2.018,-2.243,-0.058,0.877,-0.534,-1.038,-0.732,0.244,73.333,56946.000,1.000
-2.771,-2.734,-2.619,-2.470,-2.755,-2.636,-2.346,-2.613,-0.055,0.878,-0.535,-1.068,-0.793,0.366,73.333,56947.000,1.000
-3.017,-2.967,-2.822,-2.646,-3.004,-2.834,-2.503,-2.808,-0.055,0.876,-0.531,-1.160,-0.824,0.244,73.333,56948.000,1.000
-2.981,-2.908,-2.741,-2.582,-2.940,-2.761,-2.445,-2.757,-0.054,0.873,-0.533,-1.190,-0.732,0.275,73.333,56949.000,1.000
-2.705,-2.609,-2.439,-2.316,-2.613,-2.476,-2.228,-2.494,-0.057,0.871,-0.537,-0.977,-0.824,0.427,73.333,56950.000,1.000
-2.285,-2.179,-2.044,-1.939,-2.144,-2.081,-1.933,-2.107,-0.057,0.871,-0.537,-0.854,-0.854,0.275,73.333,56951.000,1.000
-1.891,-1.786,-1.735,-1.605,-1.727,-1.732,-1.685,-1.765,-0.057,0.873,-0.536,-0.824,-0.824,0.366,73.333,56952.000,1.000
-1.744,-1.626,-1.696,-1.503,-1.592,-1.613,-1.641,-1.676,-0.059,0.874,-0.536,-0.793,-0.824,0.458,73.333,56953.000,1.000
-1.985,-1.816,-2.001,-1.733,-1.860,-1.824,-1.896,-1.948,-0.060,0.876,-0.537,-0.793,-0.763,0.458,73.333,56954.000,1.000
-2.494,-2.243,-2.497,-2.180,-2.387,-2.252,-2.352,-2.448,-0.060,0.878,-0.534,-0.793,-0.946,0.488,73.333,56955.000,1.000
-2.938,-2.628,-2.877,-2.564,-2.828,-2.620,-2.738,-2.853,-0.059,0.880,-0.535,-0.977,-0.946,0.519,73.333,56956.000,1.000
-2.981,-2.690,-2.846,-2.593,-2.849,-2.654,-2.759,-2.840,-0.059,0.881,-0.534,-1.068,-0.916,0.488,73.333,56957.000,1.000
-2.514,-2.318,-2.306,-2.143,-2.338,-2.252,-2.286,-2.288,-0.058,0.881,-0.537,-1.160,-0.916,0.549,73.333,56958.000,1.000
-1.738,-1.658,-1.456,-1.377,-1.493,-1.564,-1.489,-1.397,-0.055,0.880,-0.535,-1.160,-0.916,0.519,73.333,56959.000,1.000
-1.013,-1.020,-0.674,-0.658,-0.688,-0.892,-0.729,-0.565,-0.052,0.877,-0.535,-1.038,-0.824,0.610,73.333,56960.000,1.000
-0.722,-0.763,-0.365,-0.396,-0.323,-0.589,-0.410,-0.215,-0.050,0.874,-0.538,-1.099,-0.824,0.763,73.333,56961.000,1.000
-1.119,-1.148,-0.775,-0.858,-0.668,-0.930,-0.802,-0.612,-0.047,0.870,-0.536,-1.007,-0.671,0.763,73.333,56962.000,1.000
-2.175,-2.182,-1.870,-2.012,-1.723,-1.948,-1.897,-1.734,-0.048,0.865,-0.537,-0.885,-0.519,0.793,73.333,56963.000,1.000
-3.622,-3.628,-3.396,-3.582,-3.253,-3.440,-3.444,-3.318,-0.049,0.865,-0.537,-0.885,-0.458,0.854,73.333,56964.000,1.000
-5.094,-5.123,-4.995,-5.186,-4.894,-5.056,-5.067,-4.985,-0.050,0.866,-0.537,-0.793,-0.366,0.916,73.333,56965.000,1.000
-6.293,-6.341,-6.346,-6.483,-6.285,-6.440,-6.419,-6.392,-0.050,0.869,-0.535,-0.763,-0.275,0.977,73.333,56966.000,1.000
-7.054,-7.104,-7.253,-7.274,-7.189,-7.335,-7.292,-7.327,-0.046,0.871,-0.538,-0.732,-0.214,0.946,73.333,56967.000,1.000
-7.370,-7.417,-7.671,-7.544,-7.564,-7.668,-7.645,-7.736,-0.044,0.875,-0.538,-0.793,-0.122,0.946,73.333,56968.000,1.000
-7.327,-7.384,-7.654,-7.408,-7.511,-7.523,-7.549,-7.670,-0.044,0.877,-0.536,-0.854,0.000,0.916,73.333,56969.000,1.000
-6.957,-7.029,-7.216,-6.944,-7.085,-6.984,-7.056,-7.169,-0.047,0.881,-0.534,-0.946,0.183,0.885,73.333,56970.000,1.000
-6.226,-6.291,-6.357,-6.169,-6.289,-6.094,-6.201,-6.268,-0.050,0.884,-0.537,-0.946,0.366,0.732,73.333,56971.000,1.000
-5.130,-5.157,-5.159,-5.113,-5.166,-4.918,-5.054,-5.057,-0.058,0.884,-0.535,-1.038,0.397,0.671,73.333,56972.000,1.000
-3.741,-3.720,-3.771,-3.835,-3.824,-3.558,-3.709,-3.674,-0.061,0.885,-0.531,-1.038,0.366,0.427,73.333,56973.000,1.000
-2.203,-2.159,-2.334,-2.419,-2.393,-2.134,-2.260,-2.254,-0.065,0.881,-0.536,-1.099,0.214,0.305,73.333,56974.000,1.000
-0.742,-0.698,-0.976,-1.008,-1.032,-0.797,-0.839,-0.934,-0.067,0.879,-0.534,-1.160,0.031,0.183,73.333,56975.000,1.000
0.280,0.330,0.034,0.065,-0.041,0.159,0.241,0.006,-0.069,0.877,-0.537,-1.251,-0.122,0.092,73.333,56976.000,1.000
0.461,0.547,0.303,0.356,0.185,0.348,0.545,0.185,-0.067,0.877,-0.534,-1.251,-0.336,-0.214,73.333,56977.000,1.000
-0.349,-0.199,-0.379,-0.356,-0.547,-0.412,-0.153,-0.582,-0.064,0.875,-0.536,-1.221,-0.580,-0.366,73.333,56978.000,1.000
-1.887,-1.677,-1.825,-1.860,-2.036,-1.899,-1.652,-2.074,-0.065,0.872,-0.540,-1.251,-0.763,-0.427,73.333,56979.000,1.000
-3.575,-3.362,-3.502,-3.584,-3.747,-3.553,-3.391,-3.733,-0.064,0.870,-0.534,-1.221,-1.038,-0.519,73.333,56980.000,1.000
-4.760,-4.623,-4.754,-4.833,-5.023,-4.717,-4.695,-4.898,-0.064,0.871,-0.535,-1.160,-1.251,-0.580,73.333,56981.000,1.000
-4.843,-4.835,-4.943,-4.952,-5.213,-4.795,-4.924,-4.962,-0.064,0.875,-0.536,-1.068,-1.221,-0.580,73.333,56982.000,1.000
-3.429,-3.552,-3.637,-3.531,-3.853,-3.401,-3.647,-3.545,-0.064,0.875,-0.537,-1.099,-1.465,-0.549,73.333,56983.000,1.000
-0.571,-0.780,-0.852,-0.626,-0.945,-0.585,-0.879,-0.707,-0.064,0.877,-0.533,-1.038,-1.556,-0.366,73.333,56984.000,1.000
3.231,3.008,2.938,3.258,3.004,3.162,2.919,3.074,-0.061,0.877,-0.531,-0.977,-1.617,-0.214,73.333,56985.000,1.000
7.248,7.080,6.998,7.376,7.194,7.111,7.022,7.103,-0.060,0.878,-0.531,-1.038,-1.648,-0.153,73.333,56986.000,1.000
10.781,10.714,10.597,10.993,10.840,10.567,10.691,10.688,-0.058,0.878,-0.534,-1.129,-1.709,-0.061,73.333,56987.000,1.000
13.268,13.314,13.144,13.520,13.341,12.987,13.298,13.233,-0.059,0.876,-0.533,-1.190,-1.709,0.031,73.333,56988.000,1.000
14.273,14.416,14.203,14.519,14.283,13.979,14.356,14.262,-0.058,0.875,-0.533,-1.099,-1.709,0.305,73.333,56989.000,1.000
13.621,13.820,13.594,13.824,13.542,13.394,13.673,13.565,-0.058,0.877,-0.535,-1.129,-1.709,0.458,73.333,56990.000,1.000
11.480,11.678,11.465,11.609,11.329,11.377,11.439,11.294,-0.060,0.878,-0.534,-1.099,-1.740,0.641,73.333,56991.000,1.000
8.263,8.401,8.221,8.289,8.086,8.285,8.117,7.880,-0.060,0.878,-0.531,-1.099,-1.770,0.885,73.333,56992.000,1.000
4.454,4.497,4.355,4.366,4.306,4.548,4.243,3.873,-0.060,0.878,-0.533,-1.160,-1.678,1.007,73.333,56993.000,1.000
0.514,0.467,0.338,0.324,0.437,0.599,0.308,-0.181,-0.057,0.876,-0.531,-1.282,-1.648,1.038,73.333,56994.000,1.000
-3.057,-3.160,-3.317,-3.315,-3.064,-3.055,-3.202,-3.745,-0.056,0.876,-0.533,-1.251,-1.617,1.038,73.333,56995.000,1.000
-5.758,-5.881,-6.068,-6.035,-5.731,-5.867,-5.825,-6.343,-0.053,0.875,-0.534,-1.373,-1.526,1.007,73.333,56996.000,1.000
-7.263,-7.389,-7.544,-7.503,-7.232,-7.446,-7.271,-7.694,-0.052,0.874,-0.536,-1.373,-1.465,1.068,73.333,56997.000,1.000
-7.605,-7.740,-7.771,-7.753,-7.571,-7.784,-7.588,-7.866,-0.054,0.873,-0.534,-1.373,-1.373,1.190,73.333,56998.000,1.000
-7.195,-7.350,-7.216,-7.225,-7.149,-7.304,-7.194,-7.303,-0.052,0.874,-0.533,-1.434,-1.129,1.160,73.333,56999.000,1.000
-6.568,-6.732,-6.491,-6.499,-6.508,-6.597,-6.609,-6.575,-0.052,0.874,-0.534,-1.404,-1.007,1.068,73.333,57000.000,1.000
-6.109,-6.256,-6.024,-6.014,-6.055,-6.106,-6.198,-6.086,-0.051,0.875,-0.533,-1.251,-0.916,1.038,73.333,57001.000,1.000
-5.911,-6.026,-5.908,-5.891,-5.894,-5.950,-6.053,-5.927,-0.050,0.876,-0.537,-1.160,-0.763,1.038,73.333,57002.000,1.000
-5.781,-5.867,-5.896,-5.914,-5.809,-5.905,-5.987,-5.883,-0.049,0.873,-0.536,-1.221,-0.641,1.007,73.333,57003.000,1.000
-5.383,-5.444,-5.580,-5.679,-5.418,-5.574,-5.650,-5.568,-0.050,0.876,-0.535,-1.190,-0.519,0.824,73.333,57004.000,1.000
-4.436,-4.453,-4.623,-4.827,-4.400,-4.620,-4.725,-4.638,-0.048,0.874,-0.536,-1.312,-0.275,0.763,73.333,57005.000,1.000
-2.907,-2.859,-3.010,-3.284,-2.734,-3.006,-3.162,-3.035,-0.048,0.874,-0.536,-1.343,-0.061,0.549,73.333,57006.000,1.000
-0.987,-0.881,-0.998,-1.252,-0.680,-0.957,-1.170,-0.970,-0.046,0.873,-0.538,-1.312,0.153,0.488,73.333,57007.000,1.000
1.166,1.292,1.201,1.057,1.520,1.319,1.054,1.340,-0.046,0.873,-0.534,-1.312,0.275,0.336,73.333,57008.000,1.000
3.494,3.600,3.525,3.527,3.776,3.725,3.423,3.769,-0.048,0.873,-0.535,-1.282,0.305,0.305,73.333,57009.000,1.000
5.900,5.974,5.907,6.028,6.035,6.139,5.833,6.183,-0.049,0.875,-0.535,-1.129,0.519,0.366,73.333,57010.000,1.000
8.106,8.157,8.101,8.267,8.102,8.289,8.013,8.320,-0.052,0.876,-0.536,-1.099,0.610,0.305,73.333,57011.000,1.000
9.763,9.788,9.759,9.881,9.677,9.848,9.617,9.876,-0.053,0.877,-0.536,-1.038,0.763,0.183,73.333,57012.000,1.000
10.660,10.623,10.646,10.659,10.534,10.621,10.434,10.675,-0.052,0.880,-0.533,-0.916,0.824,0.061,73.333,57013.000,1.000
10.788,10.650,10.732,10.631,10.626,10.619,10.474,10.721,-0.054,0.879,-0.534,-0.946,0.854,0.061,73.333,57014.000,1.000
10.331,10.091,10.227,10.049,10.137,10.070,9.965,10.212,-0.054,0.877,-0.536,-1.099,0.885,-0.031,73.333,57015.000,1.000
9.575,9.288,9.466,9.258,9.392,9.314,9.233,9.454,-0.054,0.879,-0.533,-1.068,0.854,-0.061,73.333,57016.000,1.000
8.789,8.547,8.741,8.535,8.698,8.654,8.558,8.717,-0.058,0.877,-0.534,-1.129,0.885,-0.183,73.333,57017.000,1.000
8.149,8.033,8.192,7.996,8.211,8.246,8.078,8.134,-0.056,0.877,-0.533,-1.099,0.946,-0.153,73.333,57018.000,1.000
7.706,7.727,7.806,7.623,7.906,8.057,7.782,7.704,-0.059,0.878,-0.532,-1.099,0.916,-0.183,73.333,57019.000,1.000
7.444,7.531,7.532,7.373,7.692,7.962,7.597,7.399,-0.060,0.878,-0.532,-1.099,0.702,-0.122,73.333,57020.000,1.000
7.291,7.348,7.325,7.199,7.478,7.822,7.434,7.190,-0.062,0.878,-0.531,-1.068,0.580,-0.214,73.333,57021.000,1.000
7.133,7.113,7.131,7.023,7.196,7.527,7.213,7.020,-0.062,0.878,-0.533,-1.038,0.458,-0.183,73.333,57022.000,1.000
6.876,6.795,6.890,6.761,6.812,7.053,6.890,6.815,-0.062,0.878,-0.529,-1.129,0.397,-0.061,73.333,57023.000,1.000
6.507,6.406,6.579,6.384,6.351,6.481,6.489,6.528,-0.064,0.879,-0.531,-1.068,0.275,-0.092,73.333,57024.000,1.000
6.102,6.021,6.256,5.973,5.924,5.981,6.116,6.192,-0.064,0.879,-0.534,-1.129,0.153,-0.092,73.333,57025.000,1.000
5.729,5.700,5.970,5.616,5.616,5.666,5.856,5.861,-0.064,0.879,-0.532,-1.190,-0.031,0.000,73.333,57026.000,1.000
5.389,5.435,5.721,5.333,5.419,5.510,5.692,5.554,-0.064,0.877,-0.534,-1.221,-0.305,0.061,73.333,57027.000,1.000
5.062,5.179,5.499,5.100,5.264,5.398,5.534,5.267,-0.064,0.875,-0.534,-1.190,-0.336,0.122,73.333,57028.000,1.000
4.720,4.876,5.268,4.873,5.068,5.204,5.267,4.967,-0.063,0.871,-0.534,-1.160,-0.427,0.183,73.333,57029.000,1.000
4.403,4.564,5.029,4.661,4.833,4.915,4.886,4.675,-0.066,0.869,-0.535,-1.129,-0.549,0.305,73.333,57030.000,1.000
4.221,4.373,4.852,4.554,4.654,4.644,4.535,4.486,-0.066,0.868,-0.535,-1.007,-0.824,0.427,73.333,57031.000,1.000
4.262,4.421,4.820,4.641,4.638,4.527,4.394,4.496,-0.063,0.869,-0.533,-0.854,-0.916,0.488,73.333,57032.000,1.000
4.496,4.684,4.919,4.887,4.783,4.586,4.500,4.680,-0.062,0.871,-0.535,-0.702,-1.007,0.519,73.333,57033.000,1.000
4.698,4.919,4.955,5.047,4.889,4.637,4.629,4.820,-0.059,0.872,-0.538,-0.580,-1.129,0.519,73.333,57034.000,1.000
4.561,4.795,4.658,4.803,4.674,4.411,4.455,4.619,-0.056,0.871,-0.540,-0.610,-1.221,0.549,73.333,57035.000,1.000
3.880,4.090,3.847,3.975,3.939,3.720,3.771,3.889,-0.052,0.870,-0.536,-0.549,-1.190,0.732,73.333,57036.000,1.000
2.641,2.774,2.508,2.592,2.659,2.527,2.571,2.622,-0.052,0.872,-0.535,-0.580,-1.129,0.824,73.333,57037.000,1.000
0.983,0.993,0.777,0.841,0.963,0.916,0.992,0.965,-0.050,0.872,-0.536,-0.549,-1.129,0.885,73.333,57038.000,1.000
-0.859,-0.966,-1.097,-1.013,-0.912,-0.918,-0.750,-0.834,-0.050,0.874,-0.533,-0.397,-0.885,0.885,73.333,57039.000,1.000
-2.564,-2.725,-2.785,-2.670,-2.632,-2.649,-2.381,-2.453,-0.052,0.876,-0.535,-0.244,-0.793,0.916,73.333,57040.000,1.000
-3.906,-4.047,-4.081,-3.961,-3.967,-4.022,-3.724,-3.690,-0.056,0.876,-0.533,-0.366,-0.763,0.885,73.333,57041.000,1.000
-4.924,-5.011,-5.050,-4.958,-4.961,-5.047,-4.830,-4.617,-0.059,0.877,-0.532,-0.427,-0.793,0.885,73.333,57042.000,1.000
-5.811,-5.844,-5.883,-5.843,-5.812,-5.906,-5.851,-5.448,-0.060,0.875,-0.534,-0.549,-0.763,0.793,73.333,57043.000,1.000
-6.706,-6.682,-6.698,-6.728,-6.660,-6.749,-6.853,-6.320,-0.060,0.875,-0.535,-0.641,-0.763,0.641,73.333,57044.000,1.000
-7.556,-7.458,-7.441,-7.551,-7.465,-7.544,-7.746,-7.175,-0.058,0.873,-0.539,-0.702,-0.763,0.458,73.333,57045.000,1.000
-8.182,-8.007,-7.981,-8.167,-8.089,-8.134,-8.372,-7.861,-0.057,0.873,-0.539,-0.610,-0.732,0.336,73.333,57046.000,1.000
-8.411,-8.184,-8.204,-8.433,-8.395,-8.361,-8.590,-8.219,-0.055,0.874,-0.537,-0.458,-0.763,0.275,73.333,57047.000,1.000
-8.143,-7.905,-8.037,-8.235,-8.281,-8.130,-8.303,-8.107,-0.055,0.875,-0.533,-0.458,-0.854,0.244,73.333,57048.000,1.000
-7.379,-7.187,-7.456,-7.527,-7.708,-7.430,-7.508,-7.460,-0.054,0.875,-0.536,-0.488,-0.763,0.183,73.333,57049.000,1.000
-6.151,-6.074,-6.432,-6.297,-6.647,-6.265,-6.238,-6.282,-0.054,0.875,-0.533,-0.488,-0.671,0.214,73.333,57050.000,1.000
-4.498,-4.580,-4.927,-4.565,-5.071,-4.646,-4.544,-4.631,-0.052,0.874,-0.535,-0.580,-0.610,0.122,73.333,57051.000,1.000
-2.508,-2.721,-2.963,-2.428,-3.036,-2.641,-2.520,-2.614,-0.052,0.877,-0.534,-0.671,-0.458,0.061,73.333,57052.000,1.000
-0.370,-0.604,-0.705,-0.114,-0.749,-0.437,-0.350,-0.427,-0.052,0.876,-0.535,-0.854,-0.366,0.122,73.333,57053.000,1.000
1.609,1.493,1.510,2.016,1.422,1.642,1.677,1.625,-0.054,0.875,-0.537,-0.824,-0.275,0.122,73.333,57054.000,1.000
3.152,3.250,3.333,3.650,3.124,3.271,3.297,3.251,-0.056,0.876,-0.538,-0.702,-0.244,0.153,73.333,57055.000,1.000
4.115,4.429,4.532,4.624,4.172,4.251,4.351,4.281,-0.058,0.876,-0.539,-0.702,-0.153,0.244,73.333,57056.000,1.000
4.413,4.859,4.954,4.857,4.490,4.480,4.713,4.607,-0.058,0.875,-0.539,-0.702,-0.092,0.183,73.333,57057.000,1.000
