FZ,C3,CZ,C4,PZ,PO7,OZ,PO8,Counter,Validation,Label
229976.578125,243857.8125,247570.34375,243614.453125,225963.453125,226979.203125,221640.4375,211289.359375,16353.0,1.0,1
229983.453125,243841.625,247574.015625,243602.640625,225826.296875,226974.015625,221597.265625,211271.296875,16354.0,1.0,1
230064.109375,243935.15625,247620.953125,243670.328125,226001.453125,227041.4375,221694.359375,211347.375,16355.0,1.0,1
230086.28125,243987.8125,247642.859375,243713.6875,226241.328125,227085.859375,221787.78125,211406.203125,16356.0,1.0,1
230001.515625,243910.734375,247609.234375,243664.0625,226188.3125,227044.65625,221735.484375,211357.75,16357.0,1.0,1
229962.53125,243845.296875,247579.375,243607.734375,225980.53125,226990.5625,221631.953125,211286.140625,16358.0,1.0,1
229964.140625,243830.28125,247565.34375,243592.265625,225837.03125,226978.9375,221582.78125,211260.734375,16359.0,1.0,1
230054.53125,243930.140625,247611.390625,243666.921875,226011.109375,227047.78125,221686.84375,211343.890625,16360.0,1.0,1
230091.1875,243996.65625,247634.90625,243716.640625,226253.484375,227095.515625,221787.78125,211410.765625,16361.0,1.0,1
230004.46875,243920.125,247597.703125,243668.984375,226197.78125,227051.625,221737.359375,211364.453125,16362.0,1.0,1
229962.453125,243850.21875,247569.09375,243612.03125,225982.5,226997.265625,221634.8125,211293.109375,16363.0,1.0,1
229979.609375,243844.671875,247571.15625,243607.109375,225846.953125,226994.40625,221597.078125,211278.359375,16364.0,1.0,1
230060.53125,243934.078125,247603.15625,243670.5,226010.296875,227052.703125,221690.25,211352.390625,16365.0,1.0,1
230081.984375,243984.046875,247607.265625,243709.84375,226238.375,227088.109375,221779.296875,211407.640625,16366.0,1.0,1
230000.0,243908.140625,247570.4375,243663.796875,226186.609375,227048.3125,221732.09375,211365.796875,16367.0,1.0,1
229952.875,243834.390625,247549.34375,243606.75,225974.1875,226994.9375,221628.375,211294.09375,16368.0,1.0,1
229975.40625,243832.6875,247572.9375,243613.28125,225846.6875,226999.5,221598.6875,211285.15625,16369.0,1.0,1
230062.3125,243923.890625,247620.5,243682.125,226011.46875,227054.65625,221693.015625,211357.296875,16370.0,1.0,1
230086.71875,243974.125,247633.296875,243716.375,226238.640625,227084.890625,221779.828125,211407.90625,16371.0,1.0,1
230004.375,243893.484375,247594.75,243666.484375,226187.140625,227041.078125,221732.71875,211361.859375,16372.0,1.0,1
229969.6875,243828.84375,247561.578125,243614.265625,225981.15625,226991.71875,221637.671875,211293.203125,16373.0,1.0,1
229980.328125,243815.34375,247549.96875,243599.96875,225833.0,226979.203125,221586.625,211267.796875,16374.0,1.0,1
230072.6875,243917.796875,247590.640625,243666.484375,225998.59375,227042.140625,221682.90625,211346.9375,16375.0,1.0,1
230101.109375,243979.765625,247611.390625,243708.140625,226236.59375,227082.46875,221781.0,211408.53125,16376.0,1.0,1
230014.296875,243905.46875,247583.671875,243666.125,226188.578125,227042.421875,221737.359375,211362.578125,16377.0,1.0,1
229982.03125,243852.53125,247570.53125,243621.234375,225991.703125,226999.765625,221650.1875,211302.140625,16378.0,1.0,1
229978.890625,243834.203125,247567.390625,243603.359375,225839.171875,226983.765625,221599.140625,211273.796875,16379.0,1.0,1
230060.265625,243925.671875,247605.125,243666.5625,225990.359375,227039.46875,221689.171875,211342.640625,16380.0,1.0,1
230092.796875,243987.453125,247621.75,243714.765625,226223.453125,227080.40625,221786.171875,211402.71875,16381.0,1.0,1
230011.171875,243917.09375,247581.796875,243670.328125,226173.734375,227041.25,221742.640625,211359.53125,16382.0,1.0,1
229971.390625,243851.375,247552.203125,243613.375,225964.4375,226991.984375,221644.46875,211292.296875,16383.0,1.0,1
229983.1875,243841.546875,247552.828125,243600.765625,225817.546875,226987.515625,221599.859375,211270.84375,16384.0,1.0,1
230071.796875,243937.921875,247596.71875,243669.78125,225979.8125,227053.40625,221697.75,211349.609375,16385.0,1.0,1
230092.984375,243989.953125,247605.390625,243707.875,226210.21875,227088.734375,221788.40625,211403.796875,16386.0,1.0,1
230008.3125,243917.0,247567.578125,243663.171875,226164.890625,227049.828125,221748.09375,211361.765625,16387.0,1.0,1
229968.890625,243850.21875,247538.421875,243607.65625,225961.390625,226997.890625,221650.546875,211291.59375,16388.0,1.0,1
229982.75,243839.9375,247544.859375,243599.15625,225822.71875,226993.515625,221608.96875,211272.625,16389.0,1.0,1
230068.484375,243932.640625,247586.53125,243664.609375,225979.8125,227051.53125,221700.96875,211343.265625,16390.0,1.0,1
230098.171875,243989.515625,247603.0625,243708.0625,226219.953125,227090.515625,221794.671875,211401.734375,16391.0,1.0,1
230011.359375,243911.546875,247569.71875,243663.171875,226177.84375,227050.734375,221750.953125,211360.15625,16392.0,1.0,1
229962.984375,243836.890625,247537.453125,243603.890625,225970.15625,226993.234375,221644.734375,211288.453125,16393.0,1.0,1
229966.203125,243820.171875,247534.9375,243584.765625,225822.453125,226977.5,221588.671875,211260.03125,16394.0,1.0,1
230057.046875,243921.640625,247585.375,243657.09375,225995.28125,227044.828125,221688.8125,211342.8125,16395.0,1.0,1
230091.28125,243984.40625,247605.65625,243707.875,226243.03125,227088.453125,221788.953125,211405.578125,16396.0,1.0,1
230011.890625,243912.703125,247575.796875,243667.46875,226206.546875,227054.21875,221750.140625,211366.515625,16397.0,1.0,1
229968.265625,243841.625,247541.640625,243601.65625,226001.984375,226999.5,221645.0,211292.65625,16398.0,1.0,1
229972.453125,243827.234375,247533.328125,243584.578125,225857.5,226986.09375,221590.28125,211268.078125,16399.0,1.0,1
230052.03125,243916.015625,247574.546875,243651.375,226010.921875,227045.359375,221680.59375,211341.203125,16400.0,1.0,1
230084.671875,243978.0625,247596.359375,243697.953125,226253.390625,227090.421875,221781.078125,211405.21875,16401.0,1.0,1
229993.828125,243897.6875,247557.734375,243647.265625,226205.46875,227048.046875,221733.96875,211357.390625,16402.0,1.0,1
229956.453125,243836.890625,247533.6875,243597.015625,226004.75,226999.671875,221637.5,211291.140625,16403.0,1.0,1
229971.75,243825.0,247535.125,243591.015625,225857.0625,226993.6875,221593.859375,211270.390625,16404.0,1.0,1
230054.359375,243913.25,247572.765625,243655.75,226001.8125,227050.375,221684.078125,211341.390625,16405.0,1.0,1
230082.34375,243970.90625,247584.109375,243700.546875,226235.515625,227093.5625,221782.328125,211401.296875,16406.0,1.0,1
230004.109375,243903.046875,247553.625,243660.21875,226196.890625,227058.953125,221746.390625,211364.09375,16407.0,1.0,1
229967.546875,243841.890625,247527.96875,243607.734375,225989.640625,227010.140625,221651.4375,211298.46875,16408.0,1.0,1
229962.890625,243814.265625,247520.640625,243585.203125,225827.1875,226991.1875,221594.21875,211265.65625,16409.0,1.0,1
230041.84375,243897.421875,247567.3125,243648.59375,225971.046875,227047.0625,221680.40625,211337.0,16410.0,1.0,1
230074.203125,243956.34375,247586.0,243693.125,226204.84375,227086.84375,221777.0625,211396.8125,16411.0,1.0,1
229997.9375,243891.34375,247557.109375,243655.125,226168.46875,227053.046875,221743.984375,211361.6875,16412.0,1.0,1
229957.171875,243825.71875,247528.859375,243604.25,225975.25,227004.859375,221652.515625,211298.109375,16413.0,1.0,1
229963.609375,243812.390625,247524.484375,243583.78125,225823.34375,226989.390625,221600.125,211267.890625,16414.0,1.0,1
230043.453125,243901.078125,247564.453125,243644.125,225967.5625,227044.921875,221688.640625,211336.375,16415.0,1.0,1
230076.171875,243962.421875,247579.015625,243690.265625,226205.125,227085.328125,221787.515625,211398.703125,16416.0,1.0,1
229997.140625,243894.46875,247546.65625,243652.625,226168.1875,227045.1875,221746.390625,211359.53125,16417.0,1.0,1
229958.6875,243830.1875,247522.609375,243603.984375,225972.65625,226995.390625,221648.578125,211292.03125,16418.0,1.0,1
229963.4375,243809.078125,247518.484375,243586.109375,225826.03125,226981.171875,221594.578125,211262.703125,16419.0,1.0,1
230047.203125,243898.578125,247562.125,243647.265625,225975.796875,227040.984375,221683.453125,211334.953125,16420.0,1.0,1
230088.59375,243971.0,247584.109375,243698.75,226224.515625,227089.71875,221787.703125,211402.90625,16421.0,1.0,1
230004.640625,243896.96875,247544.6875,243652.984375,226187.859375,227047.15625,221742.90625,211357.03125,16422.0,1.0,1
229967.546875,243831.96875,247517.15625,243597.28125,225995.453125,226998.78125,221645.359375,211289.078125,16423.0,1.0,1
229981.3125,243822.046875,247521.703125,243586.90625,225860.453125,226998.15625,221600.5625,211269.765625,16424.0,1.0,1
230056.59375,243906.8125,247557.46875,243645.46875,226002.96875,227049.390625,221681.21875,211333.515625,16425.0,1.0,1
230083.234375,243963.046875,247570.703125,243691.515625,226240.25,227087.5625,221774.375,211392.96875,16426.0,1.0,1
230000.4375,243891.34375,247542.09375,243650.296875,226204.84375,227054.484375,221733.421875,211355.25,16427.0,1.0,1
229967.546875,243833.5,247522.875,243598.796875,226011.546875,227006.390625,221640.171875,211290.96875,16428.0,1.0,1
229971.03125,243808.28125,247518.765625,243581.984375,225859.5625,226989.484375,221587.875,211263.25,16429.0,1.0,1
230047.828125,243892.6875,247561.859375,243647.609375,225999.921875,227050.640625,221678.71875,211334.765625,16430.0,1.0,1
230080.90625,243956.96875,247582.5,243692.765625,226237.484375,227094.8125,221779.921875,211399.328125,16431.0,1.0,1
229995.796875,243881.140625,247545.9375,243646.546875,226194.390625,227054.3125,221737.0,211357.296875,16432.0,1.0,1
229958.421875,243816.5,247518.40625,243593.25,225995.90625,227006.390625,221642.046875,211290.515625,16433.0,1.0,1
229965.390625,243796.203125,247511.609375,243574.65625,225844.984375,226989.484375,221590.5625,211262.4375,16434.0,1.0,1
230046.484375,243884.28125,247547.734375,243635.71875,225985.171875,227044.65625,221678.171875,211333.96875,16435.0,1.0,1
230079.75,243946.859375,247567.3125,243681.046875,226217.546875,227083.71875,221772.953125,211395.03125,16436.0,1.0,1
229996.59375,243875.0625,247537.453125,243641.0,226178.75,227048.9375,221732.984375,211354.703125,16437.0,1.0,1
229958.875,243811.140625,247515.71875,243590.578125,225980.4375,227000.578125,221638.203125,211288.640625,16438.0,1.0,1
229968.265625,243798.984375,247514.109375,243576.453125,225829.875,226988.140625,221588.859375,211261.8125,16439.0,1.0,1
230050.328125,243887.046875,247556.671875,243640.015625,225969.53125,227049.390625,221678.0,211334.765625,16440.0,1.0,1
230086.984375,243951.15625,247576.34375,243688.390625,226209.046875,227094.546875,221780.71875,211400.03125,16441.0,1.0,1
230004.640625,243881.328125,247538.96875,243643.6875,226172.65625,227052.875,221736.921875,211356.9375,16442.0,1.0,1
229965.390625,243813.5625,247509.1875,243587.890625,225976.859375,226997.71875,221635.609375,211287.5625,16443.0,1.0,1
229973.71875,243797.28125,247508.484375,243573.046875,225828.625,226984.5625,221585.734375,211263.25,16444.0,1.0,1
230057.484375,243888.03125,247555.6875,243638.3125,225974.71875,227047.953125,221679.78125,211337.90625,16445.0,1.0,1
230096.734375,243957.234375,247578.296875,243685.703125,226215.9375,227091.40625,221779.65625,211400.3125,16446.0,1.0,1
230008.484375,243881.5,247543.4375,243640.109375,226180.359375,227050.90625,221737.453125,211358.46875,16447.0,1.0,1
229965.75,243813.203125,247515.90625,243588.078125,225991.609375,226999.859375,221642.59375,211291.40625,16448.0,1.0,1
229971.65625,243793.34375,247508.203125,243570.375,225842.84375,226985.28125,221590.109375,211264.578125,16449.0,1.0,1
230052.296875,243877.21875,247545.40625,243630.546875,225973.28125,227036.421875,221669.765625,211330.296875,16450.0,1.0,1
230093.15625,243945.875,247569.71875,243681.328125,226214.0625,227079.96875,221770.359375,211394.9375,16451.0,1.0,1
230000.71875,243868.71875,247533.328125,243634.5625,226178.46875,227037.234375,221728.328125,211352.46875,16452.0,1.0,1
229959.234375,243802.921875,247509.28125,243583.59375,225991.875,226993.6875,221640.625,211290.515625,16453.0,1.0,1
229960.390625,243782.078125,247502.671875,243563.65625,225842.9375,226977.0625,221586.078125,211258.78125,16454.0,1.0,1
230038.984375,243868.1875,247544.15625,243626.34375,225975.25,227030.53125,221667.453125,211324.84375,16455.0,1.0,1
230074.390625,243933.1875,247560.15625,243669.609375,226207.890625,227071.375,221763.375,211385.734375,16456.0,1.0,1
229989.453125,243862.546875,247524.65625,243624.375,226171.328125,227034.1875,221724.390625,211346.578125,16457.0,1.0,1
229951.890625,243801.125,247497.84375,243577.796875,225983.75,226987.421875,221635.703125,211286.40625,16458.0,1.0,1
229961.109375,243784.859375,247492.109375,243560.796875,225840.0625,226975.984375,221588.765625,211263.15625,16459.0,1.0,1
230033.34375,243860.9375,247530.921875,243618.203125,225968.546875,227030.96875,221671.640625,211326.984375,16460.0,1.0,1
230069.90625,243929.15625,247554.875,243667.828125,226204.046875,227076.5625,221772.40625,211391.09375,16461.0,1.0,1
229980.953125,243855.84375,247518.21875,243621.59375,226166.40625,227039.28125,221730.921875,211351.671875,16462.0,1.0,1
229940.359375,243793.53125,247491.578125,243568.671875,225978.203125,226992.25,221640.984375,211287.828125,16463.0,1.0,1
229953.0625,243783.25,247487.375,243553.203125,225835.234375,226981.53125,221591.984375,211260.65625,16464.0,1.0,1
230032.0,243867.203125,247525.640625,243614.625,225964.53125,227039.015625,221675.3125,211326.453125,16465.0,1.0,1
230072.78125,243933.8125,247548.625,243664.609375,226200.640625,227085.0625,221775.1875,211390.921875,16466.0,1.0,1
229986.765625,243856.828125,247515.546875,243622.140625,226165.953125,227045.984375,221732.890625,211352.828125,16467.0,1.0,1
229956.09375,243804.703125,247498.28125,243577.078125,225987.40625,227006.65625,221649.46875,211293.828125,16468.0,1.0,1
229963.25,243790.3125,247492.734375,243557.21875,225839.359375,226990.375,221593.234375,211262.0,16469.0,1.0,1
230038.265625,243872.203125,247533.15625,243615.15625,225964.96875,227043.390625,221671.015625,211323.859375,16470.0,1.0,1
230074.390625,243936.765625,247555.328125,243662.28125,226195.46875,227080.953125,221769.375,211386.359375,16471.0,1.0,1
229992.390625,243867.46875,247523.9375,243619.359375,226162.734375,227040.171875,221730.5625,211348.71875,16472.0,1.0,1
229950.109375,243802.203125,247500.609375,243567.0625,225974.453125,226992.34375,221636.59375,211283.71875,16473.0,1.0,1
229964.6875,243791.296875,247506.953125,243558.921875,225836.3125,226986.359375,221589.390625,211263.0625,16474.0,1.0,1
230047.203125,243877.125,247548.796875,243619.90625,225963.546875,227040.625,221668.078125,211327.625,16475.0,1.0,1
230086.28125,243944.09375,247568.296875,243669.703125,226195.28125,227083.09375,221766.953125,211390.65625,16476.0,1.0,1
230000.4375,243871.484375,247532.890625,243629.375,226161.671875,227046.609375,221730.296875,211354.0,16477.0,1.0,1
229964.234375,243811.140625,247507.765625,243579.484375,225980.53125,227000.578125,221643.03125,211292.296875,16478.0,1.0,1
229976.9375,243797.8125,247503.03125,243564.640625,225838.109375,226985.90625,221592.875,211266.828125,16479.0,1.0,1
230051.046875,243875.875,247536.734375,243619.28125,225958.265625,227036.96875,221669.765625,211330.75,16480.0,1.0,1
230085.828125,243938.09375,247554.4375,243665.671875,226187.953125,227079.875,221766.421875,211393.25,16481.0,1.0,1
229995.609375,243862.546875,247516.25,243620.609375,226151.921875,227039.90625,221724.9375,211352.390625,16482.0,1.0,1
229963.4375,243808.1875,247497.03125,243576.265625,225980.703125,227000.296875,221642.234375,211296.953125,16483.0,1.0,1
229975.671875,243795.40625,247494.265625,243558.390625,225839.0,226986.0,221591.265625,211269.5,16484.0,1.0,1
230049.078125,243872.65625,247532.078125,243611.859375,225956.75,227034.1875,221665.65625,211327.625,16485.0,1.0,1
230086.28125,243938.90625,247556.84375,243660.484375,226188.9375,227076.5625,221764.28125,211387.703125,16486.0,1.0,1
230000.0,243864.96875,247523.40625,243617.125,226157.46875,227038.296875,221725.828125,211348.890625,16487.0,1.0,1
229968.53125,243807.65625,247501.140625,243569.5625,225985.265625,226995.46875,221639.546875,211291.40625,16488.0,1.0,1
229984.0,243798.171875,247500.609375,243554.8125,225852.3125,226986.796875,221590.640625,211264.9375,16489.0,1.0,1
230050.25,243867.203125,247532.53125,243606.21875,225971.140625,227034.90625,221662.34375,211321.359375,16490.0,1.0,1
230085.5625,243929.96875,247553.09375,243652.984375,226204.046875,227079.421875,221760.078125,211384.484375,16491.0,1.0,1
229999.375,243859.6875,247519.296875,243609.796875,226176.234375,227041.15625,221725.296875,211348.453125,16492.0,1.0,1
229961.546875,243799.15625,247493.453125,243558.203125,225994.296875,226990.375,221634.984375,211285.6875,16493.0,1.0,1
229973.984375,243788.15625,247492.734375,243551.140625,225862.421875,226984.390625,221591.0,211265.21875,16494.0,1.0,1
230044.4375,243866.65625,247527.609375,243608.359375,225978.203125,227032.84375,221665.03125,211325.5625,16495.0,1.0,1
230076.890625,243931.390625,247546.125,243654.953125,226204.578125,227076.921875,221760.96875,211388.140625,16496.0,1.0,1
229990.078125,243862.8125,247512.40625,243613.28125,226171.859375,227044.46875,221724.9375,211350.421875,16497.0,1.0,1
229953.5,243803.546875,247487.109375,243564.734375,225993.671875,227001.109375,221638.390625,211289.359375,16498.0,1.0,1
229968.53125,243794.875,247487.109375,243554.546875,225854.28125,226992.171875,221588.859375,211265.65625,16499.0,1.0,1
230040.859375,243872.75,247526.0,243610.6875,225967.65625,227043.484375,221662.796875,211327.625,16500.0,1.0,1
230072.953125,243933.265625,247542.984375,243653.421875,226190.8125,227084.796875,221757.390625,211386.453125,16501.0,1.0,1
229988.109375,243862.546875,247509.28125,243614.53125,226161.046875,227051.71875,221726.71875,211353.09375,16502.0,1.0,1
229949.390625,243799.25,247484.609375,243566.796875,225985.71875,227003.078125,221640.796875,211294.453125,16503.0,1.0,1
229962.890625,243786.46875,247477.0,243544.265625,225843.015625,226984.03125,221584.125,211261.375,16504.0,1.0,1
230035.765625,243861.390625,247512.6875,243594.6875,225957.015625,227031.6875,221657.96875,211321.8125,16505.0,1.0,1
230069.5625,243921.296875,247536.46875,243640.375,226181.609375,227072.09375,221754.890625,211384.5625,16506.0,1.0,1
229979.875,243846.71875,247505.703125,243600.765625,226151.75,227036.328125,221721.71875,211349.4375,16507.0,1.0,1
229945.90625,243787.0,247481.828125,243555.34375,225977.75,226992.078125,221640.0,211291.765625,16508.0,1.0,1
229960.484375,243773.046875,247473.875,243538.265625,225838.546875,226977.234375,221589.21875,211263.609375,16509.0,1.0,1
230033.34375,243849.5,247508.75,243595.84375,225956.484375,227031.59375,221665.296875,211326.546875,16510.0,1.0,1
230063.484375,243908.421875,247525.375,243639.75,226174.09375,227069.953125,221756.5,211382.609375,16511.0,1.0,1
229975.140625,243836.4375,247489.515625,243599.15625,226140.75,227031.59375,221722.609375,211345.40625,16512.0,1.0,1
229943.5,243782.984375,247467.890625,243552.75,225974.359375,226988.765625,221643.9375,211288.546875,16513.0,1.0,1
229965.125,243780.390625,247467.265625,243540.59375,225845.25,226977.140625,221596.640625,211264.5,16514.0,1.0,1
230034.859375,243854.6875,247501.234375,243592.09375,225956.390625,227023.90625,221667.0,211321.890625,16515.0,1.0,1
230065.171875,243911.8125,247519.75,243633.484375,226175.609375,227061.28125,221760.515625,211379.921875,16516.0,1.0,1
229984.796875,243847.796875,247489.34375,243596.125,226151.03125,227032.578125,221730.03125,211348.625,16517.0,1.0,1
229951.625,243796.125,247468.875,243554.0,225988.390625,226998.15625,221650.09375,211295.609375,16518.0,1.0,1
229973.71875,243795.5,247471.28125,243544.984375,225862.0625,226993.15625,221604.859375,211272.8125,16519.0,1.0,1
230036.828125,243862.546875,247508.125,243598.078125,225970.421875,227041.34375,221672.8125,211329.859375,16520.0,1.0,1
230063.484375,243915.921875,247521.625,243635.1875,226181.15625,227074.59375,221757.484375,211381.984375,16521.0,1.0,1
229971.828125,243839.21875,247482.640625,243587.625,226141.734375,227034.375,221718.765625,211342.015625,16522.0,1.0,1
229946.359375,243793.4375,247465.296875,243551.234375,225981.875,226998.609375,221643.390625,211293.46875,16523.0,1.0,1
229965.3125,243786.375,247460.375,243538.71875,225853.03125,226989.84375,221599.9375,211272.359375,16524.0,1.0,1
230031.109375,243853.34375,247488.359375,243586.90625,225959.421875,227036.6875,221669.859375,211329.3125,16525.0,1.0,1
230052.484375,243899.125,247498.828125,243620.703125,226165.15625,227065.84375,221753.8125,211379.109375,16526.0,1.0,1
229964.40625,243825.265625,247467.96875,243576.453125,226127.421875,227026.234375,221718.5,211340.3125,16527.0,1.0,1
229931.875,243773.328125,247453.765625,243531.125,225955.9375,226980.1875,221633.109375,211279.875,16528.0,1.0,1
229953.234375,243773.859375,247467.078125,243528.078125,225832.5625,226974.734375,221589.484375,211260.5625,16529.0,1.0,1
230019.484375,243843.421875,247503.203125,243577.609375,225935.109375,227018.09375,221655.375,211314.203125,16530.0,1.0,1
230046.75,243894.109375,247516.25,243616.0625,226143.421875,227053.328125,221740.9375,211369.640625,16531.0,1.0,1
229957.171875,243820.4375,247472.890625,243572.25,226108.109375,227018.0,221701.515625,211327.890625,16532.0,1.0,1
229939.109375,243778.5,247457.421875,243539.796875,225955.859375,226989.03125,221633.109375,211280.140625,16533.0,1.0,1
229970.9375,243783.421875,247460.46875,243535.765625,225840.34375,226987.703125,221593.234375,211262.53125,16534.0,1.0,1
230037.8125,243854.234375,247492.296875,243585.125,225943.953125,227030.34375,221660.5625,211316.0,16535.0,1.0,1
230066.15625,243911.28125,247512.140625,243627.234375,226155.046875,227066.734375,221751.3125,211374.640625,16536.0,1.0,1
229974.0625,243835.734375,247478.078125,243583.0625,226123.484375,227026.5,221718.234375,211339.328125,16537.0,1.0,1
229946.359375,243787.265625,247461.1875,243541.125,225968.28125,226992.34375,221646.609375,211291.046875,16538.0,1.0,1
229971.203125,243787.984375,247460.015625,243530.140625,225846.5,226984.5625,221599.9375,211266.828125,16539.0,1.0,1
230040.765625,243860.9375,247493.015625,243581.09375,225952.0,227033.03125,221665.03125,211322.15625,16540.0,1.0,1
230072.6875,243916.640625,247510.0,243621.59375,226161.484375,227072.640625,221753.640625,211378.125,16541.0,1.0,1
229982.390625,243839.84375,247475.578125,243579.578125,226129.125,227040.890625,221718.3125,211340.84375,16542.0,1.0,1
229950.640625,243784.859375,247455.28125,243541.40625,225974.0,227007.375,221641.78125,211288.640625,16543.0,1.0,1
229974.703125,243782.703125,247449.375,243530.578125,225854.46875,226999.859375,221598.515625,211264.5,16544.0,1.0,1
230044.25,243853.34375,247479.78125,243583.875,225960.953125,227048.140625,221667.265625,211321.453125,16545.0,1.0,1
230077.421875,243911.359375,247496.40625,243623.828125,226169.359375,227084.25,221751.84375,211377.859375,16546.0,1.0,1
229981.21875,243832.0625,247465.296875,243577.96875,226131.53125,227039.546875,221712.6875,211339.59375,16547.0,1.0,1
229947.96875,243781.546875,247459.65625,243537.90625,225978.65625,226998.0625,221638.484375,211289.0,16548.0,1.0,1
229970.9375,243777.703125,247473.515625,243527.453125,225866.890625,226987.609375,221594.671875,211267.453125,16549.0,1.0,1
230037.546875,243845.390625,247511.078125,243571.4375,225967.203125,227029.265625,221656.8125,211317.78125,16550.0,1.0,1
230069.828125,243908.421875,247527.875,243616.234375,226174.546875,227069.953125,221746.578125,211375.890625,16551.0,1.0,1
229975.234375,243831.4375,247477.546875,243571.078125,226131.984375,227031.6875,221706.609375,211337.1875,16552.0,1.0,1
229955.203125,243791.375,247449.734375,243535.5,225979.1875,227000.125,221634.453125,211289.359375,16553.0,1.0,1
229984.53125,243795.046875,247440.890625,243527.28125,225864.75,226994.140625,221592.515625,211269.6875,16554.0,1.0,1
230049.0,243859.15625,247463.5,243573.40625,225958.53125,227035.53125,221651.625,211321.53125,16555.0,1.0,1
230076.984375,243910.390625,247487.015625,243615.15625,226157.828125,227075.9375,221736.921875,211378.578125,16556.0,1.0,1
229988.203125,243838.234375,247466.546875,243575.734375,226121.796875,227045.28125,221703.125,211344.515625,16557.0,1.0,1
229964.0625,243796.75,247463.234375,243535.953125,225972.484375,227013.359375,221631.59375,211294.984375,16558.0,1.0,1
229991.59375,243802.46875,247475.9375,243524.328125,225862.59375,227008.4375,221590.5625,211269.40625,16559.0,1.0,1
230054.265625,243871.765625,247517.0625,243570.546875,225965.328125,227054.84375,221656.359375,211317.6875,16560.0,1.0,1
230068.125,243913.15625,247533.6875,243603.0,226161.125,227082.921875,221737.71875,211366.234375,16561.0,1.0,1
229972.546875,243831.96875,247499.71875,243560.625,226123.9375,227043.9375,221703.65625,211333.34375,16562.0,1.0,1
229954.046875,243792.1875,247485.046875,243524.40625,225978.375,227007.375,221639.015625,211288.453125,16563.0,1.0,1
229983.71875,243794.421875,247483.359375,243511.625,225867.78125,226993.328125,221601.640625,211267.890625,16564.0,1.0,1
230053.109375,243862.8125,247514.375,243558.03125,225965.5,227031.859375,221665.65625,211320.015625,16565.0,1.0,1
230075.375,243911.8125,247535.484375,243602.203125,226167.65625,227064.3125,221755.515625,211376.703125,16566.0,1.0,1
229975.59375,243831.890625,247507.9375,243561.0625,226126.4375,227023.28125,221722.78125,211339.15625,16567.0,1.0,1
229947.15625,243787.09375,247494.53125,243521.90625,225969.4375,226985.46875,221652.96875,211292.03125,16568.0,1.0,1
229977.46875,243796.5625,247499.265625,243513.59375,225862.875,226985.46875,221618.71875,211276.828125,16569.0,1.0,1
230046.578125,243871.21875,247528.421875,243559.453125,225957.46875,227035.4375,221683.453125,211328.875,16570.0,1.0,1
230072.15625,243925.578125,247537.625,243600.59375,226149.0625,227072.71875,221771.421875,211384.03125,16571.0,1.0,1
229975.328125,243847.53125,247487.28125,243556.953125,226100.6875,227031.78125,221735.390625,211349.171875,16572.0,1.0,1
229949.296875,243802.203125,247461.1875,243519.859375,225943.15625,227002.1875,221667.71875,211302.9375,16573.0,1.0,1
229987.75,243818.03125,247462.703125,243516.453125,225833.1875,227004.59375,221634.359375,211289.625,16574.0,1.0,1
230056.765625,243892.5,247498.203125,243564.828125,225928.671875,227057.875,221698.46875,211338.96875,16575.0,1.0,1
230080.28125,243946.5,247519.828125,243603.265625,226120.890625,227097.046875,221780.453125,211385.734375,16576.0,1.0,1
229989.0,243877.484375,247494.4375,243565.453125,226085.484375,227057.25,221746.921875,211349.96875,16577.0,1.0,1
229958.609375,243833.9375,247488.265625,243526.375,225940.921875,227024.796875,221680.140625,211304.8125,16578.0,1.0,1
229989.09375,243842.4375,247496.3125,243508.046875,225838.375,227021.40625,221642.5,211282.921875,16579.0,1.0,1
230059.90625,243917.625,247535.03125,243554.1875,225937.515625,227066.203125,221703.5625,211330.484375,16580.0,1.0,1
230081.625,243967.515625,247555.953125,243597.8125,226136.71875,227103.484375,221786.0,211377.953125,16581.0,1.0,1
229981.40625,243882.84375,247517.5,243553.65625,226098.1875,227056.1875,221743.984375,211334.953125,16582.0,1.0,1
229967.28125,243843.953125,247505.265625,243523.515625,225963.453125,227024.71875,221679.34375,211292.65625,16583.0,1.0,1
230006.53125,243854.140625,247515.453125,243520.296875,225868.328125,227024.984375,221642.6875,211273.703125,16584.0,1.0,1
230073.84375,243918.609375,247550.40625,243564.734375,225960.765625,227068.4375,221698.375,211318.671875,16585.0,1.0,1
230096.296875,243965.1875,247565.609375,243604.609375,226155.046875,227101.421875,221778.3125,211370.71875,16586.0,1.0,1
229999.546875,243887.3125,247529.84375,243567.234375,226121.34375,227066.375,221743.265625,211337.8125,16587.0,1.0,1
229970.9375,243842.25,247507.765625,243527.453125,225978.46875,227030.796875,221670.84375,211289.359375,16588.0,1.0,1
230008.21875,243858.609375,247506.953125,243523.25,225890.859375,227030.171875,221636.953125,211275.140625,16589.0,1.0,1
230068.125,243923.171875,247527.15625,243564.5625,225988.84375,227069.0625,221693.28125,211326.71875,16590.0,1.0,1
230094.953125,243976.984375,247544.515625,243607.734375,226185.625,227106.96875,221777.953125,211386.359375,16591.0,1.0,1
229997.859375,243902.515625,247501.59375,243561.34375,226140.03125,227064.59375,221737.0,211343.078125,16592.0,1.0,1
229973.71875,243863.53125,247483.265625,243525.484375,225994.390625,227031.0625,221668.421875,211294.890625,16593.0,1.0,1
230010.015625,243872.46875,247485.328125,243519.5,225896.21875,227029.1875,221631.59375,211276.828125,16594.0,1.0,1
230076.0,243940.421875,247511.515625,243564.828125,225988.578125,227071.296875,221689.34375,211324.84375,16595.0,1.0,1
230100.578125,243991.296875,247520.71875,243602.109375,226173.46875,227100.890625,221769.90625,211376.4375,16596.0,1.0,1
229999.734375,243907.96875,247476.828125,243556.78125,226124.03125,227057.34375,221729.578125,211336.296875,16597.0,1.0,1
229976.390625,243864.421875,247458.765625,243523.875,225978.734375,227024.796875,221664.40625,211292.5625,16598.0,1.0,1
230014.578125,243876.671875,247461.71875,243523.515625,225888.171875,227026.140625,221636.328125,211280.046875,16599.0,1.0,1
230076.0,243939.625,247484.0625,243564.640625,225975.4375,227063.421875,221692.75,211324.125,16600.0,1.0,1
230090.296875,243979.9375,247492.65625,243595.40625,226152.71875,227089.171875,221768.03125,211373.125,16601.0,1.0,1
229996.0625,243901.265625,247463.78125,243554.71875,226111.0625,227048.40625,221733.96875,211341.125,16602.0,1.0,1
229975.859375,243861.390625,247458.328125,243523.875,225973.46875,227013.625,221673.703125,211298.734375,16603.0,1.0,1
230014.578125,243871.84375,247469.046875,243520.03125,225878.96875,227010.5,221641.515625,211281.03125,16604.0,1.0,1
230074.921875,243931.9375,247501.421875,243561.421875,225963.984375,227045.546875,221691.859375,211323.953125,16605.0,1.0,1
230094.046875,243976.09375,247519.109375,243597.90625,226143.515625,227076.03125,221769.375,211373.125,16606.0,1.0,1
230005.09375,243904.75,247490.953125,243560.53125,226105.25,227044.296875,221737.546875,211341.390625,16607.0,1.0,1
229985.875,243866.578125,247483.625,243529.328125,225968.8125,227017.65625,221679.0625,211300.171875,16608.0,1.0,1
230021.28125,243876.671875,247485.234375,243523.25,225874.9375,227016.125,221644.015625,211281.03125,16609.0,1.0,1
230084.125,243943.828125,247509.1875,243564.203125,225963.984375,227057.875,221699.546875,211324.9375,16610.0,1.0,1
230107.375,243996.21875,247523.9375,243597.09375,226145.03125,227085.953125,221776.515625,211374.015625,16611.0,1.0,1
230008.40625,243915.296875,247488.1875,243552.484375,226100.328125,227044.296875,221736.921875,211335.84375,16612.0,1.0,1
229981.484375,243869.703125,247472.09375,243517.625,225958.359375,227011.84375,221667.890625,211289.984375,16613.0,1.0,1
230025.125,243888.5625,247477.984375,243518.0625,225871.1875,227016.046875,221638.203125,211277.640625,16614.0,1.0,1
230085.203125,243952.140625,247499.453125,243560.265625,225955.859375,227056.984375,221692.75,211322.4375,16615.0,1.0,1
230102.375,243997.375,247507.3125,243598.265625,226133.859375,227089.625,221769.1875,211372.953125,16616.0,1.0,1
230008.671875,243924.15625,247469.140625,243562.328125,226096.125,227057.875,221738.96875,211343.71875,16617.0,1.0,1
229982.03125,243880.15625,247447.59375,243524.59375,225957.90625,227024.265625,221673.171875,211301.15625,16618.0,1.0,1
230024.234375,243896.796875,247456.984375,243520.125,225873.59375,227022.75,221641.78125,211290.6875,16619.0,1.0,1
230086.0,243956.703125,247490.6875,243563.03125,225962.375,227063.25,221694.890625,211335.390625,16620.0,1.0,1
230103.984375,243998.265625,247515.359375,243600.140625,226146.640625,227094.0,221772.140625,211382.25,16621.0,1.0,1
229991.6875,243906.0,247480.84375,243547.390625,226096.21875,227044.03125,221724.671875,211334.234375,16622.0,1.0,1
229964.234375,243860.671875,247472.625,243514.484375,225963.546875,227014.25,221663.6875,211292.03125,16623.0,1.0,1
230011.703125,243882.046875,247479.0625,243513.859375,225882.625,227016.3125,221633.296875,211279.703125,16624.0,1.0,1
230071.515625,243936.9375,247496.234375,243550.96875,225962.921875,227050.015625,221681.296875,211318.234375,16625.0,1.0,1
230090.921875,243975.921875,247502.484375,243589.859375,226145.21875,227085.15625,221759.796875,211369.375,16626.0,1.0,1
229996.421875,243896.34375,247462.875,243553.828125,226109.09375,227053.5,221729.21875,211338.4375,16627.0,1.0,1
229970.140625,243851.109375,247441.15625,243516.09375,225971.40625,227019.171875,221662.34375,211292.921875,16628.0,1.0,1
230015.90625,243871.9375,247451.078125,243516.640625,225893.359375,227023.734375,221632.125,211280.859375,16629.0,1.0,1
230072.15625,243928.53125,247481.921875,243552.484375,225975.078125,227061.453125,221679.875,211318.859375,16630.0,1.0,1
230091.90625,243973.859375,247507.5,243590.578125,226157.109375,227095.609375,221759.359375,211369.734375,16631.0,1.0,1
229990.15625,243891.609375,247478.890625,243552.484375,226121.796875,227060.75,221726.71875,211337.8125,16632.0,1.0,1
229955.46875,243840.203125,247456.359375,243512.609375,225979.28125,227023.734375,221656.359375,211289.796875,16633.0,1.0,1
230000.09375,243855.578125,247454.125,243507.78125,225891.390625,227023.453125,221621.578125,211273.34375,16634.0,1.0,1
230070.359375,243922.0,247475.125,243551.953125,225979.359375,227066.734375,221676.390625,211320.203125,16635.0,1.0,1
230089.5,243966.890625,247484.609375,243587.890625,226160.0625,227099.90625,221757.203125,211372.234375,16636.0,1.0,1
229993.03125,243885.796875,247448.125,243545.609375,226118.84375,227063.15625,221724.671875,211339.15625,16637.0,1.0,1
229971.484375,243846.546875,247437.21875,243514.578125,225984.28125,227033.46875,221664.40625,211299.359375,16638.0,1.0,1
230014.390625,243866.578125,247447.59375,243511.359375,225900.515625,227027.84375,221632.75,211283.625,16639.0,1.0,1
230072.234375,243926.921875,247481.203125,243553.015625,225981.328125,227064.234375,221686.21875,211325.734375,16640.0,1.0,1
230089.859375,243969.125,247496.046875,243585.5625,226157.46875,227091.859375,221761.140625,211372.40625,16641.0,1.0,1
229990.875,243888.921875,247458.765625,243543.71875,226115.171875,227056.453125,221728.25,211338.703125,16642.0,1.0,1
229962.171875,243841.359375,247439.90625,243508.3125,225974.265625,227024.984375,221664.046875,211294.53125,16643.0,1.0,1
230000.0,243854.953125,247442.40625,243505.546875,225885.21875,227020.953125,221628.546875,211279.515625,16644.0,1.0,1
230060.171875,243915.5625,247468.328125,243544.796875,225961.125,227058.859375,221677.28125,211319.578125,16645.0,1.0,1
230085.5625,243962.953125,247485.953125,243582.53125,226141.375,227094.265625,221756.234375,211370.984375,16646.0,1.0,1
229992.125,243888.203125,247450.71875,243542.65625,226100.515625,227057.171875,221722.078125,211338.796875,16647.0,1.0,1
229963.875,243846.640625,247433.90625,243506.4375,225962.109375,227024.53125,221659.75,211295.15625,16648.0,1.0,1
230008.765625,243870.859375,247443.5625,243506.890625,225879.40625,227028.375,221633.734375,211283.0,16649.0,1.0,1
230066.15625,243930.953125,247468.875,243544.265625,225958.09375,227065.578125,221681.578125,211324.40625,16650.0,1.0,1
230085.375,243976.453125,247483.265625,243579.75,226136.90625,227095.25,221758.46875,211374.109375,16651.0,1.0,1
229978.453125,243888.203125,247446.15625,243534.515625,226093.0,227050.640625,221717.515625,211333.875,16652.0,1.0,1
229950.375,243839.75,247431.859375,243500.09375,225955.046875,227018.359375,221652.6875,211291.046875,16653.0,1.0,1
230003.75,243866.84375,247444.1875,243504.75,225875.75,227024.265625,221626.140625,211282.921875,16654.0,1.0,1
230065.4375,243928.078125,247470.296875,243545.15625,225956.5625,227064.3125,221677.015625,211323.59375,16655.0,1.0,1
230085.109375,243969.578125,247483.71875,243578.5,226136.453125,227090.96875,221752.65625,211370.625,16656.0,1.0,1
229982.75,243885.4375,247445.265625,243534.421875,226100.0625,227047.78125,221714.65625,211335.84375,16657.0,1.0,1
229953.5,243838.40625,247430.96875,243499.015625,225963.546875,227012.109375,221647.859375,211295.15625,16658.0,1.0,1
229997.578125,243855.125,247438.5625,243496.078125,225882.0,227011.84375,221619.53125,211283.8125,16659.0,1.0,1
230059.1875,243918.78125,247464.21875,243535.859375,225962.203125,227049.75,221671.5625,211326.015625,16660.0,1.0,1
230083.140625,243967.875,247479.78125,243574.484375,226143.609375,227080.859375,221750.765625,211376.25,16661.0,1.0,1
229980.328125,243884.640625,247440.4375,243531.921875,226102.484375,227038.84375,221715.71875,211335.578125,16662.0,1.0,1
229947.6875,243833.5,247426.3125,243496.609375,225964.609375,227005.765625,221653.765625,211291.859375,16663.0,1.0,1
229995.53125,243853.25,247436.328125,243498.390625,225883.515625,227009.515625,221624.625,211279.875,16664.0,1.0,1
230056.140625,243909.75,247460.28125,243534.96875,225956.75,227044.921875,221668.421875,211318.140625,16665.0,1.0,1
230082.515625,243958.390625,247478.890625,243574.390625,226139.21875,227079.15625,221748.984375,211368.75,16666.0,1.0,1
229981.765625,243877.484375,247442.140625,243531.296875,226100.515625,227039.640625,221715.375,211331.546875,16667.0,1.0,1
229946.078125,243827.328125,247418.71875,243493.484375,225960.140625,227004.953125,221650.453125,211285.328125,16668.0,1.0,1
229996.25,243848.875,247424.875,243494.28125,225875.03125,227009.78125,221623.453125,211273.4375,16669.0,1.0,1
230060.796875,243909.40625,247450.0,243533.625,225951.5625,227051.265625,221671.5625,211316.796875,16670.0,1.0,1
230080.46875,243954.453125,247462.4375,243566.875,226130.640625,227081.484375,221748.890625,211366.875,16671.0,1.0,1
229981.3125,243878.375,247431.234375,243527.625,226099.0,227048.21875,221721.625,211336.46875,16672.0,1.0,1
229955.109375,243835.734375,247418.0,243493.03125,225963.984375,227018.28125,221661.359375,211296.0625,16673.0,1.0,1
230001.96875,243854.859375,247426.140625,243494.90625,225882.625,227022.296875,221633.734375,211285.6875,16674.0,1.0,1
230053.640625,243903.671875,247447.0625,243528.078125,225949.234375,227053.5,221675.140625,211321.8125,16675.0,1.0,1
230080.015625,243950.078125,247463.234375,243565.546875,226127.875,227084.96875,221752.828125,211373.125,16676.0,1.0,1
229989.625,243878.546875,247431.3125,243527.8125,226102.296875,227051.625,221723.421875,211343.53125,16677.0,1.0,1
229950.640625,243826.15625,247407.984375,243487.3125,225962.015625,227013.625,221651.4375,211296.765625,16678.0,1.0,1
229988.828125,243837.15625,247407.453125,243482.84375,225875.390625,227008.703125,221616.578125,211279.34375,16679.0,1.0,1
230049.890625,243896.96875,247431.671875,243520.5625,225948.078125,227045.8125,221663.421875,211317.34375,16680.0,1.0,1
230074.828125,243942.390625,247445.265625,243556.234375,226125.90625,227077.109375,221737.8125,211362.84375,16681.0,1.0,1
229979.25,243864.96875,247411.375,243515.828125,226099.171875,227040.453125,221707.5,211329.578125,16682.0,1.0,1
229944.65625,243814.359375,247395.28125,243479.890625,225964.4375,227006.03125,221643.75,211285.5,16683.0,1.0,1
229989.53125,243829.5625,247403.0625,243475.859375,225879.671875,227006.46875,221612.375,211272.28125,16684.0,1.0,1
230047.734375,243883.46875,247429.0,243513.421875,225952.0,227043.390625,221659.21875,211311.875,16685.0,1.0,1
230075.453125,243935.234375,247449.734375,243556.15625,226135.203125,227079.15625,221739.234375,211366.78125,16686.0,1.0,1
229983.8125,243866.125,247418.890625,243519.046875,226108.296875,227046.171875,221713.484375,211340.046875,16687.0,1.0,1
229945.28125,243809.984375,247397.703125,243481.140625,225969.265625,227012.546875,221649.296875,211294.71875,16688.0,1.0,1
229987.03125,243825.265625,247403.6875,243481.5,225884.859375,227015.234375,221620.859375,211281.578125,16689.0,1.0,1
230044.25,243880.078125,247425.59375,243516.28125,225950.3125,227046.796875,221661.1875,211313.484375,16690.0,1.0,1
230068.84375,243928.53125,247442.40625,243551.140625,226127.609375,227077.015625,221740.3125,211363.734375,16691.0,1.0,1
229970.21875,243850.03125,247411.109375,243509.03125,226096.84375,227039.90625,221710.890625,211331.8125,16692.0,1.0,1
229938.3125,243802.921875,247397.53125,243472.734375,225961.9375,227006.390625,221647.78125,211289.078125,16693.0,1.0,1
229990.875,243827.234375,247408.078125,243479.4375,225883.703125,227009.78125,221621.140625,211281.3125,16694.0,1.0,1
230047.390625,243881.59375,247428.28125,243518.78125,225948.25,227039.203125,221662.625,211319.84375,16695.0,1.0,1
230071.703125,243930.328125,247440.96875,243555.4375,226125.8125,227065.65625,221741.125,211371.515625,16696.0,1.0,1
229972.28125,243854.59375,247409.140625,243517.265625,226098.09375,227031.859375,221718.234375,211340.671875,16697.0,1.0,1
229932.5,243799.78125,247391.265625,243477.5625,225959.078125,226996.453125,221652.34375,211294.984375,16698.0,1.0,1
229978.0,243817.9375,247398.328125,243473.71875,225872.171875,226995.921875,221618.1875,211277.375,16699.0,1.0,1
230041.578125,243882.75,247426.046875,243512.703125,225942.703125,227034.1875,221664.859375,211316.984375,16700.0,1.0,1
230066.96875,243932.28125,247443.5625,243547.65625,226118.296875,227066.46875,221742.1875,211365.96875,16701.0,1.0,1
229969.59375,243856.734375,247410.84375,243507.78125,226087.375,227030.25,221711.34375,211332.53125,16702.0,1.0,1
229938.125,243808.015625,247397.25,243476.671875,225958.171875,227002.0,221651.4375,211293.375,16703.0,1.0,1
229986.859375,243827.328125,247404.5,243477.203125,225875.828125,227008.796875,221621.21875,211281.484375,16704.0,1.0,1
230047.390625,243880.875,247429.0,243512.796875,225940.65625,227044.65625,221663.328125,211320.203125,16705.0,1.0,1
230074.65625,243928.078125,247446.96875,243549.53125,226119.734375,227079.609375,221744.421875,211371.875,16706.0,1.0,1
229972.453125,243844.9375,247404.859375,243502.953125,226085.765625,227039.90625,221710.984375,211331.375,16707.0,1.0,1
229942.6875,243798.796875,247387.59375,243468.171875,225950.125,227007.71875,221645.359375,211285.5,16708.0,1.0,1
229988.46875,243816.5,247396.1875,243469.34375,225867.609375,227008.890625,221614.78125,211274.328125,16709.0,1.0,1
230046.046875,243868.984375,247420.234375,243505.453125,225931.796875,227042.140625,221655.375,211310.984375,16710.0,1.0,1
230068.84375,243913.515625,247437.40625,243538.625,226103.640625,227071.828125,221728.953125,211358.90625,16711.0,1.0,1
229971.484375,243838.40625,247408.078125,243503.140625,226082.359375,227040.8125,221706.875,211332.890625,16712.0,1.0,1
229936.34375,243788.609375,247393.953125,243470.59375,225950.484375,227009.328125,221644.828125,211291.3125,16713.0,1.0,1
229984.625,243809.890625,247402.796875,243472.828125,225869.75,227012.28125,221616.125,211280.328125,16714.0,1.0,1
230044.875,243868.625,247428.015625,243509.390625,225936.1875,227050.46875,221658.765625,211316.078125,16715.0,1.0,1
230059.28125,243910.5625,247438.734375,243542.203125,226112.140625,227081.21875,221733.703125,211364.625,16716.0,1.0,1
229961.546875,243836.4375,247402.171875,243501.34375,226087.28125,227043.9375,221704.453125,211336.296875,16717.0,1.0,1
229929.1875,243789.59375,247385.90625,243467.28125,225954.875,227012.375,221644.46875,211293.546875,16718.0,1.0,1
229984.078125,243815.703125,247396.265625,243468.265625,225876.375,227016.671875,221616.125,211280.59375,16719.0,1.0,1
230043.984375,243873.71875,247416.921875,243501.171875,225941.546875,227049.125,221655.90625,211313.578125,16720.0,1.0,1
230072.59375,243927.375,247437.671875,243540.234375,226120.453125,227083.8125,221735.84375,211364.8125,16721.0,1.0,1
229975.59375,243853.703125,247408.15625,243502.328125,226094.875,227051.171875,221709.828125,211335.9375,16722.0,1.0,1
229934.109375,243798.0,247390.640625,243464.421875,225958.359375,227017.46875,221647.78125,211290.0625,16723.0,1.0,1
229985.515625,243821.515625,247399.671875,243468.4375,225877.984375,227022.390625,221620.234375,211281.578125,16724.0,1.0,1
230040.40625,243873.015625,247417.375,243499.375,225934.75,227050.546875,221656.890625,211314.125,16725.0,1.0,1
230066.421875,243922.546875,247431.140625,243535.765625,226106.765625,227080.234375,221734.5,211363.296875,16726.0,1.0,1
229974.0625,243852.53125,247396.359375,243497.140625,226079.6875,227046.703125,221708.65625,211331.28125,16727.0,1.0,1
229941.4375,243801.9375,247384.015625,243465.40625,225949.234375,227019.890625,221650.546875,211292.296875,16728.0,1.0,1
229984.359375,243817.21875,247388.765625,243463.265625,225865.375,227020.875,221618.09375,211279.515625,16729.0,1.0,1
230040.234375,243871.21875,247413.171875,243498.03125,225923.125,227052.609375,221656.53125,211314.5625,16730.0,1.0,1
230070.71875,243923.96875,247433.203125,243537.5625,226098.90625,227083.546875,221734.046875,211365.609375,16731.0,1.0,1
229976.9375,243850.21875,247403.953125,243500.265625,226075.296875,227048.21875,221707.046875,211331.46875,16732.0,1.0,1
229933.390625,243791.5625,247386.609375,243460.671875,225935.109375,227007.28125,221639.90625,211286.84375,16733.0,1.0,1
229986.3125,243814.625,247401.453125,243468.171875,225858.84375,227012.015625,221618.265625,211283.09375,16734.0,1.0,1
230041.390625,243865.5,247418.984375,243499.46875,225912.21875,227041.34375,221654.578125,211313.671875,16735.0,1.0,1
230071.515625,243919.0625,247438.296875,243541.21875,226091.03125,227076.296875,221733.34375,211369.8125,16736.0,1.0,1
229976.484375,243849.859375,247404.671875,243503.84375,226072.96875,227047.421875,221710.265625,211342.28125,16737.0,1.0,1
229927.125,243786.109375,247377.859375,243457.984375,225931.796875,227009.15625,221641.703125,211291.671875,16738.0,1.0,1
229979.4375,243807.03125,247389.65625,243459.421875,225854.828125,227012.46875,221614.875,211282.015625,16739.0,1.0,1
230045.953125,243870.953125,247414.59375,243494.375,225916.875,227045.28125,221655.28125,211317.15625,16740.0,1.0,1
230066.875,243916.90625,247433.015625,243532.375,226094.078125,227077.8125,221734.59375,211366.78125,16741.0,1.0,1
229969.15625,243843.953125,247400.5625,243495.53125,226071.90625,227041.4375,221707.5,211337.1875,16742.0,1.0,1
229927.40625,243792.453125,247379.640625,243461.828125,225938.0625,227006.296875,221641.25,211292.84375,16743.0,1.0,1
229978.453125,243815.796875,247386.53125,243464.6875,225862.515625,227009.0625,221613.359375,211282.28125,16744.0,1.0,1
230038.359375,243870.328125,247408.609375,243497.046875,225920.625,227041.515625,221652.25,211316.625,16745.0,1.0,1
230070.1875,243923.796875,247428.546875,243535.671875,226101.578125,227079.25,221732.984375,211371.78125,16746.0,1.0,1
229975.953125,243850.296875,247397.4375,243499.828125,226085.3125,227048.5,221709.46875,211344.0625,16747.0,1.0,1
229933.125,243792.453125,247382.328125,243460.484375,225950.3125,227013.796875,221646.53125,211297.125,16748.0,1.0,1
229977.46875,243808.453125,247386.265625,243454.765625,225865.546875,227009.25,221612.015625,211276.203125,16749.0,1.0,1
230044.609375,243871.484375,247414.0625,243494.46875,225929.828125,227046.609375,221654.578125,211314.390625,16750.0,1.0,1
230070.890625,243920.671875,247430.96875,243533.984375,226107.390625,227080.140625,221731.375,211366.6875,16751.0,1.0,1
229967.625,243839.75,247388.9375,243488.375,226079.234375,227036.6875,221696.234375,211330.84375,16752.0,1.0,1
229931.328125,243790.578125,247376.25,243457.359375,225952.359375,227009.0625,221642.046875,211293.828125,16753.0,1.0,1
229979.609375,243809.796875,247382.5,243458.609375,225874.578125,227011.65625,221615.859375,211282.375,16754.0,1.0,1
230036.5625,243861.203125,247404.859375,243489.015625,225929.75,227040.0,221653.046875,211313.671875,16755.0,1.0,1
230068.84375,243918.96875,247429.171875,243529.859375,226111.0625,227075.765625,221735.75,211369.015625,16756.0,1.0,1
229973.4375,243845.5625,247396.984375,243492.234375,226093.71875,227042.859375,221712.859375,211340.140625,16757.0,1.0,1
229926.78125,243782.984375,247374.1875,243451.453125,225953.34375,227005.3125,221643.390625,211293.375,16758.0,1.0,1
229975.859375,243801.578125,247380.171875,243450.46875,225868.765625,227005.21875,221611.484375,211280.234375,16759.0,1.0,1
230037.734375,243861.828125,247400.828125,243483.109375,225922.140625,227038.03125,221650.1875,211314.390625,16760.0,1.0,1
230064.546875,243910.734375,247414.0625,243517.890625,226092.015625,227069.953125,221728.25,211359.890625,16761.0,1.0,1
229976.578125,243845.390625,247387.0625,243489.546875,226082.0,227044.5625,221713.578125,211336.921875,16762.0,1.0,1
229929.359375,243785.578125,247368.109375,243452.171875,225946.375,227008.984375,221651.359375,211292.5625,16763.0,1.0,1
229973.171875,243804.609375,247371.59375,243448.0625,225863.40625,227007.8125,221617.203125,211276.203125,16764.0,1.0,1
230031.203125,243859.15625,247395.28125,243478.375,225914.640625,227035.796875,221648.765625,211306.515625,16765.0,1.0,1
230069.734375,243918.25,247421.9375,243520.84375,226096.21875,227073.53125,221733.875,211364.0,16766.0,1.0,1
229974.703125,243846.453125,247390.109375,243482.75,226080.390625,227038.390625,221709.375,211333.78125,16767.0,1.0,1
229926.328125,243785.484375,247369.359375,243443.40625,225943.25,227001.109375,221642.5,211286.484375,16768.0,1.0,1
229979.609375,243808.015625,247378.84375,243446.890625,225865.109375,227003.875,221615.140625,211275.3125,16769.0,1.0,1
230035.9375,243859.0625,247398.78125,243479.625,225915.703125,227031.859375,221648.3125,211304.375,16770.0,1.0,1
230066.0625,243909.9375,247418.09375,243518.953125,226089.609375,227064.3125,221724.9375,211356.3125,16771.0,1.0,1
229977.640625,243845.734375,247391.890625,243489.28125,226084.59375,227039.109375,221707.671875,211334.328125,16772.0,1.0,1
229935.625,243792.359375,247375.171875,243452.4375,225955.40625,227006.109375,221644.921875,211291.5,16773.0,1.0,1
229984.625,243814.453125,247381.25,243449.578125,225875.390625,227005.671875,221612.8125,211277.28125,16774.0,1.0,1
230038.359375,243861.65625,247401.015625,243479.4375,225928.671875,227040.0,221649.125,211310.90625,16775.0,1.0,1
230069.90625,243913.0625,247420.40625,243519.9375,226103.90625,227074.515625,221730.125,211364.09375,16776.0,1.0,1
229976.3125,243842.703125,247384.734375,243481.671875,226087.09375,227039.546875,221708.484375,211335.84375,16777.0,1.0,1
229930.703125,243783.609375,247362.5625,243440.453125,225949.859375,227001.28125,221644.375,211287.921875,16778.0,1.0,1
229979.25,243803.984375,247369.8125,243441.0,225868.859375,226998.96875,221612.8125,211274.15625,16779.0,1.0,1
230036.75,243858.53125,247394.125,243477.109375,225922.140625,227033.921875,221650.09375,211310.8125,16780.0,1.0,1
230067.234375,243907.171875,247409.234375,243513.0625,226092.46875,227064.3125,221724.75,211361.140625,16781.0,1.0,1
229974.96875,243837.609375,247375.078125,243476.9375,226079.859375,227032.765625,221705.71875,211335.21875,16782.0,1.0,1
229924.453125,243776.625,247351.921875,243436.34375,225942.53125,226996.453125,221640.359375,211287.65625,16783.0,1.0,1
229973.71875,243797.109375,247360.6875,243438.9375,225862.0625,226999.046875,221612.8125,211277.28125,16784.0,1.0,1
230037.734375,243859.421875,247385.625,243474.34375,225916.0625,227032.046875,221650.546875,211312.515625,16785.0,1.0,1
230084.125,243926.5625,247416.75,243524.59375,226103.1875,227078.625,221741.46875,211376.078125,16786.0,1.0,1
229985.25,243848.953125,247381.25,243483.203125,226086.125,227041.515625,221715.1875,211343.265625,16787.0,1.0,1
229941.96875,243794.875,247368.375,243447.609375,225955.5,227008.171875,221654.578125,211302.046875,16788.0,1.0,1
229996.875,243823.65625,247375.96875,243447.171875,225874.21875,227011.5625,221625.609375,211288.71875,16789.0,1.0,1
230051.140625,243873.015625,247393.234375,243474.796875,225920.984375,227043.046875,221658.6875,211317.6875,16790.0,1.0,1
230074.828125,243919.859375,247407.359375,243509.21875,226088.703125,227072.71875,221735.21875,211367.140625,16791.0,1.0,1
229979.96875,243850.484375,247375.890625,243475.59375,226073.6875,227040.8125,221715.1875,211343.71875,16792.0,1.0,1
229931.15625,243790.40625,247356.21875,243436.609375,225935.734375,227003.875,221651.265625,211296.953125,16793.0,1.0,1
229976.9375,243804.171875,247364.4375,243435.8125,225853.5625,227000.125,221618.71875,211283.265625,16794.0,1.0,1
230031.921875,243849.046875,247382.0625,243463.609375,225897.109375,227024.71875,221646.96875,211308.84375,16795.0,1.0,1
230066.25,243902.875,247399.765625,243502.515625,226069.21875,227057.34375,221724.84375,211361.328125,16796.0,1.0,1
229971.296875,243832.78125,247369.359375,243470.5,226061.265625,227026.046875,221706.0625,211337.0,16797.0,1.0,1
229914.25,243763.484375,247343.171875,243427.234375,225920.265625,226985.640625,221634.09375,211283.8125,16798.0,1.0,1
229973.171875,243795.5,247358.0,243435.09375,225849.546875,226995.65625,221610.140625,211277.375,16799.0,1.0,1
230028.15625,243845.46875,247377.765625,243460.671875,225892.28125,227018.8125,221635.53125,211303.65625,16800.0,1.0,1
230064.1875,243905.015625,247402.796875,243503.140625,226069.125,227054.75,221716.0,211359.265625,16801.0,1.0,1
229976.484375,243844.125,247373.921875,243472.734375,226064.75,227026.953125,221700.4375,211338.703125,16802.0,1.0,1
229930.96875,243789.421875,247353.71875,243436.53125,225937.703125,226996.546875,221642.59375,211298.46875,16803.0,1.0,1
229982.75,243814.53125,247361.5,243441.265625,225865.734375,227004.953125,221622.03125,211291.40625,16804.0,1.0,1
230043.453125,243870.328125,247378.75,243470.671875,225913.46875,227037.046875,221656.984375,211321.359375,16805.0,1.0,1
230074.65625,243919.953125,247392.609375,243508.40625,226083.96875,227067.890625,221728.78125,211370.09375,16806.0,1.0,1
229972.453125,243841.359375,247356.75,243470.59375,226073.875,227036.609375,221705.4375,211342.8125,16807.0,1.0,1
229919.359375,243778.328125,247337.625,243425.4375,225933.765625,227000.296875,221636.59375,211292.65625,16808.0,1.0,1
229976.75,243805.0625,247351.125,243429.109375,225861.34375,227007.09375,221610.9375,211281.21875,16809.0,1.0,1
230040.40625,243859.0625,247370.875,243460.671875,225913.390625,227040.453125,221643.484375,211311.078125,16810.0,1.0,1
230065.359375,243903.859375,247384.015625,243496.78125,226085.140625,227073.96875,221719.390625,211360.34375,16811.0,1.0,1
229970.84375,243830.90625,247348.078125,243457.984375,226073.328125,227039.109375,221695.703125,211332.53125,16812.0,1.0,1
229925.078125,243771.0,247327.25,243421.78125,225941.375,226998.96875,221633.203125,211287.5625,16813.0,1.0,1
229982.75,243796.125,247342.0,243427.046875,225868.953125,227001.90625,221606.828125,211278.4375,16814.0,1.0,1
230038.4375,243844.671875,247368.828125,243454.671875,225915.171875,227027.75,221635.609375,211304.28125,16815.0,1.0,1
230068.84375,243897.78125,247396.546875,243493.03125,226087.375,227060.46875,221712.234375,211353.1875,16816.0,1.0,1
229973.0,243828.046875,247372.40625,243458.25,226078.515625,227026.953125,221688.8125,211325.734375,16817.0,1.0,1
229925.4375,243773.59375,247356.9375,243420.609375,225947.890625,226992.53125,221627.21875,211282.375,16818.0,1.0,1
229980.0625,243800.0625,247362.75,243423.5625,225873.15625,226994.84375,221600.921875,211273.703125,16819.0,1.0,1
230040.953125,243855.21875,247372.84375,243455.296875,225918.484375,227030.609375,221633.734375,211308.484375,16820.0,1.0,1
230079.21875,243911.90625,247379.28125,243494.90625,226088.4375,227070.671875,221712.859375,211362.84375,16821.0,1.0,1
229994.359375,243850.296875,247346.5625,243467.375,226086.65625,227049.75,221704.375,211347.203125,16822.0,1.0,1
229933.5625,243777.34375,247318.40625,243422.84375,225943.421875,227011.5625,221639.28125,211295.78125,16823.0,1.0,1
229990.875,243804.703125,247334.84375,243426.515625,225872.796875,227022.5625,221618.265625,211285.859375,16824.0,1.0,1
230048.09375,243856.828125,247365.875,243454.234375,225917.859375,227052.78125,221647.515625,211312.59375,16825.0,1.0,1
230076.796875,243909.21875,247400.390625,243491.6875,226084.6875,227079.78125,221720.46875,211360.703125,16826.0,1.0,1
229987.03125,243842.875,247385.546875,243460.75,226084.6875,227050.28125,221704.640625,211338.078125,16827.0,1.0,1
229929.984375,243777.4375,247370.703125,243418.5625,225950.046875,227007.90625,221639.8125,211287.390625,16828.0,1.0,1
229983.8125,243804.703125,247382.234375,243420.25,225876.734375,227007.015625,221613.625,211277.90625,16829.0,1.0,1
230049.890625,243863.359375,247404.234375,243454.5,225931.890625,227042.328125,221652.34375,211313.3125,16830.0,1.0,1
230081.71875,243912.890625,247419.609375,243484.359375,226098.640625,227067.265625,221727.34375,211361.40625,16831.0,1.0,1
229985.953125,243837.96875,247389.65625,243445.375,226093.359375,227030.53125,221712.59375,211334.140625,16832.0,1.0,1
229927.484375,243768.3125,247369.09375,243403.0,225955.046875,226984.5625,221648.3125,211284.4375,16833.0,1.0,1
229983.8125,243800.234375,247387.59375,243411.046875,225885.3125,226991.1875,221629.359375,211281.125,16834.0,1.0,1
230041.75,243856.5625,247406.28125,243434.734375,225929.03125,227022.390625,221665.484375,211314.46875,16835.0,1.0,1
230070.625,243908.140625,247418.53125,243466.484375,226094.25,227055.109375,221748.359375,211368.296875,16836.0,1.0,1
229983.015625,243850.484375,247382.328125,243435.984375,226087.734375,227026.671875,221735.65625,211344.515625,16837.0,1.0,1
229932.765625,243794.515625,247354.078125,243402.90625,225949.421875,226991.1875,221675.5,211301.15625,16838.0,1.0,1
229980.78125,243820.265625,247357.109375,243405.5,225865.375,226993.234375,221649.921875,211292.65625,16839.0,1.0,1
230033.890625,243871.3125,247369.625,243429.734375,225893.984375,227021.5,221679.15625,211320.015625,16840.0,1.0,1
230068.578125,243931.21875,247392.0625,243471.390625,226052.234375,227059.671875,221759.0,211374.28125,16841.0,1.0,1
229984.265625,243877.03125,247371.953125,243448.421875,226049.109375,227037.140625,221748.453125,211355.953125,16842.0,1.0,1
229935.53125,243824.28125,247360.328125,243415.6875,225917.046875,227007.1875,221691.234375,211314.203125,16843.0,1.0,1
229985.78125,243849.859375,247368.90625,243409.96875,225832.5625,227008.078125,221657.25,211296.234375,16844.0,1.0,1
230039.609375,243900.28125,247390.1875,243430.984375,225866.0,227031.0625,221678.984375,211316.4375,16845.0,1.0,1
230087.890625,243973.5,247427.828125,243486.765625,226051.875,227083.09375,221773.03125,211379.03125,16846.0,1.0,1
229996.515625,243906.1875,247402.0,243454.5,226052.40625,227055.375,221757.84375,211354.265625,16847.0,1.0,1
229945.453125,243845.109375,247384.375,243414.796875,225923.671875,227017.734375,221693.90625,211307.859375,16848.0,1.0,1
230000.265625,243866.578125,247397.25,243414.359375,225852.59375,227018.71875,221664.3125,211292.65625,16849.0,1.0,1
230059.359375,243914.859375,247420.765625,243441.171875,225896.21875,227045.28125,221689.0,211315.8125,16850.0,1.0,1
230093.703125,243968.046875,247444.8125,243482.390625,226069.75,227081.125,221762.21875,211365.4375,16851.0,1.0,1
229999.734375,243894.734375,247420.40625,243451.28125,226074.859375,227054.03125,221742.375,211336.296875,16852.0,1.0,1
229944.65625,243831.265625,247413.96875,243414.265625,225948.34375,227019.171875,221676.5625,211279.25,16853.0,1.0,1
229998.03125,243856.109375,247433.828125,243416.953125,225882.359375,227024.796875,221649.921875,211262.53125,16854.0,1.0,1
230053.90625,243904.578125,247451.078125,243442.421875,225923.671875,227051.359375,221673.25,211288.09375,16855.0,1.0,1
230088.78125,243959.921875,247471.46875,243484.1875,226096.3125,227086.765625,221748.71875,211343.625,16856.0,1.0,1
230005.359375,243903.046875,247440.53125,243457.71875,226108.109375,227060.46875,221736.296875,211325.296875,16857.0,1.0,1
229950.46875,243842.703125,247408.703125,243421.328125,225984.546875,227024.53125,221675.3125,211284.609375,16858.0,1.0,1
230005.09375,243869.078125,247402.625,243419.0,225911.6875,227025.0625,221643.125,211275.3125,16859.0,1.0,1
230065.0,243920.3125,247406.828125,243442.15625,225949.421875,227051.171875,221664.765625,211302.578125,16860.0,1.0,1
230104.96875,243983.421875,247422.5625,243482.125,226118.84375,227088.375,221744.515625,211358.640625,16861.0,1.0,1
230018.234375,243925.578125,247396.359375,243456.640625,226121.703125,227062.53125,221736.296875,211341.203125,16862.0,1.0,1
229966.296875,243868.546875,247375.34375,243420.4375,225988.9375,227027.21875,221676.5625,211299.546875,16863.0,1.0,1
230019.671875,243894.734375,247383.484375,243422.40625,225912.578125,227030.875,221650.015625,211289.625,16864.0,1.0,1
230076.984375,243943.90625,247394.125,243447.25,225942.4375,227056.71875,221673.96875,211313.578125,16865.0,1.0,1
230115.78125,244002.5625,247401.8125,243488.203125,226105.78125,227089.984375,221751.125,211366.515625,16866.0,1.0,1
230020.109375,243934.796875,247352.46875,243450.828125,226098.546875,227051.796875,221733.15625,211341.65625,16867.0,1.0,1
229964.5,243873.28125,247326.53125,243414.171875,225966.84375,227016.21875,221676.46875,211305.09375,16868.0,1.0,1
230021.09375,243902.15625,247341.734375,243421.59375,225899.078125,227027.9375,221659.046875,211299.640625,16869.0,1.0,1
230077.953125,243948.46875,247363.1875,243446.8125,225932.78125,227052.078125,221684.078125,211320.375,16870.0,1.0,1
230113.984375,244000.234375,247388.765625,243482.84375,226091.84375,227079.78125,221754.265625,211367.671875,16871.0,1.0,1
230024.859375,243936.3125,247370.25,243450.828125,226091.921875,227050.546875,221739.515625,211344.34375,16872.0,1.0,1
229962.890625,243865.765625,247355.0625,243410.15625,225954.59375,227011.75,221675.9375,211295.15625,16873.0,1.0,1
230013.5,243886.59375,247367.125,243413.1875,225876.546875,227014.078125,221645.359375,211282.375,16874.0,1.0,1
230072.859375,243937.921875,247384.65625,243443.765625,225910.25,227046.890625,221674.421875,211310.546875,16875.0,1.0,1
230112.828125,243996.390625,247403.0625,243485.25,226075.65625,227082.5625,221754.625,211364.1875,16876.0,1.0,1
230016.71875,243924.59375,247367.390625,243450.46875,226076.015625,227050.640625,221740.140625,211341.46875,16877.0,1.0,1
229956.453125,243857.640625,247346.46875,243409.703125,225941.640625,227013.453125,221676.5625,211298.109375,16878.0,1.0,1
230013.3125,243887.234375,247362.828125,243414.625,225868.6875,227019.890625,221653.59375,211290.25,16879.0,1.0,1
230071.515625,243937.46875,247377.5,243436.96875,225900.234375,227045.359375,221675.40625,211311.34375,16880.0,1.0,1
230108.8125,243995.140625,247396.984375,243475.15625,226063.234375,227080.953125,221749.34375,211361.6875,16881.0,1.0,1
230021.984375,243938.375,247367.9375,243450.203125,226074.859375,227056.71875,221742.1875,211345.140625,16882.0,1.0,1
229953.78125,243865.046875,247337.984375,243406.84375,225939.125,227017.296875,221679.515625,211300.078125,16883.0,1.0,1
230001.421875,243886.6875,247340.484375,243404.875,225863.40625,227017.375,221650.015625,211291.234375,16884.0,1.0,1
230059.1875,243941.40625,247359.078125,243430.453125,225897.640625,227045.359375,221673.796875,211313.9375,16885.0,1.0,1
230093.875,243999.34375,247382.0625,243472.734375,226061.4375,227082.015625,221750.140625,211361.953125,16886.0,1.0,1
230005.8125,243934.515625,247354.078125,243443.59375,226067.875,227054.390625,221735.390625,211341.65625,16887.0,1.0,1
229939.203125,243859.515625,247328.328125,243398.96875,225930.90625,227012.640625,221665.484375,211294.0,16888.0,1.0,1
230001.34375,243892.859375,247347.8125,243409.34375,225871.984375,227025.609375,221646.34375,211293.546875,16889.0,1.0,1
230063.484375,243944.265625,247371.421875,243439.125,225914.359375,227054.65625,221674.515625,211320.015625,16890.0,1.0,1
230103.984375,244000.953125,247391.984375,243479.703125,226081.640625,227089.984375,221749.875,211370.0,16891.0,1.0,1
230015.015625,243934.703125,247360.59375,243446.09375,226090.5,227062.171875,221735.125,211346.578125,16892.0,1.0,1
229947.609375,243860.9375,247336.375,243401.484375,225959.96875,227023.1875,221669.6875,211295.78125,16893.0,1.0,1
229995.171875,243877.125,247343.4375,243404.515625,225889.328125,227025.15625,221642.046875,211282.109375,16894.0,1.0,1
230057.75,243924.6875,247358.984375,243431.875,225926.796875,227051.890625,221666.546875,211306.25,16895.0,1.0,1
230097.453125,243980.828125,247376.15625,243469.421875,226090.046875,227086.21875,221735.9375,211358.546875,16896.0,1.0,1
230007.15625,243911.640625,247345.671875,243436.796875,226099.96875,227057.4375,221722.34375,211338.703125,16897.0,1.0,1
229942.0625,243835.734375,247324.828125,243393.4375,225966.84375,227014.609375,221658.328125,211290.328125,16898.0,1.0,1
230001.78125,243866.484375,247348.796875,243402.734375,225903.109375,227023.8125,221638.484375,211283.984375,16899.0,1.0,1
230061.59375,243919.140625,247378.21875,243433.671875,225941.1875,227055.828125,221663.6875,211302.21875,16900.0,1.0,1
230102.28125,243974.9375,247405.75,243476.9375,226109.625,227092.75,221738.875,211354.265625,16901.0,1.0,1
230016.71875,243912.171875,247374.28125,243447.25,226119.734375,227063.15625,221725.109375,211337.984375,16902.0,1.0,1
229951.0,243839.21875,247342.53125,243402.28125,225982.9375,227020.421875,221658.0625,211289.171875,16903.0,1.0,1
230010.90625,243867.015625,247348.078125,243406.390625,225911.140625,227023.015625,221632.578125,211281.3125,16904.0,1.0,1
230068.21875,243912.703125,247356.390625,243430.0,225938.328125,227049.125,221654.21875,211305.265625,16905.0,1.0,1
230106.75,243969.125,247374.28125,243468.359375,226097.65625,227084.609375,221729.046875,211358.28125,16906.0,1.0,1
230019.578125,243910.296875,247349.875,243442.875,226111.78125,227059.578125,221723.0625,211343.171875,16907.0,1.0,1
229953.328125,243840.203125,247329.65625,243400.859375,225975.34375,227018.71875,221660.375,211294.890625,16908.0,1.0,1
230009.03125,243867.921875,247347.8125,243407.203125,225901.578125,227022.125,221637.671875,211287.203125,16909.0,1.0,1
230060.96875,243912.890625,247362.75,243434.375,225929.75,227048.671875,221662.171875,211310.1875,16910.0,1.0,1
230089.21875,243960.71875,247373.390625,243467.90625,226081.375,227076.84375,221731.46875,211356.765625,16911.0,1.0,1
230007.328125,243904.390625,247341.109375,243440.734375,226091.84375,227049.75,221723.328125,211342.734375,16912.0,1.0,1
229946.4375,243838.859375,247307.21875,243400.578125,225956.5625,227011.75,221662.078125,211301.25,16913.0,1.0,1
229997.046875,243863.171875,247307.40625,243398.796875,225875.5625,227007.8125,221630.78125,211289.0,16914.0,1.0,1
230061.15625,243917.265625,247320.28125,243424.71875,225905.34375,227035.171875,221655.640625,211315.640625,16915.0,1.0,1
230100.140625,243975.109375,247339.234375,243460.21875,226062.96875,227067.984375,221726.90625,211365.609375,16916.0,1.0,1
230023.25,243926.5625,247320.359375,243435.90625,226084.328125,227047.0625,221723.765625,211350.859375,16917.0,1.0,1
229953.0625,243853.34375,247302.65625,243392.53125,225952.8125,227008.265625,221662.171875,211300.078125,16918.0,1.0,1
229995.265625,243868.8125,247314.375,243390.03125,225875.390625,227007.546875,221632.21875,211285.328125,16919.0,1.0,1
230053.375,243915.03125,247335.390625,243415.34375,225903.109375,227033.828125,221654.296875,211308.125,16920.0,1.0,1
230095.484375,243971.09375,247355.40625,243453.609375,226066.984375,227069.0625,221729.578125,211359.359375,16921.0,1.0,1
230021.28125,243918.875,247330.828125,243429.375,226089.0625,227048.859375,221725.828125,211345.328125,16922.0,1.0,1
229954.40625,243844.671875,247306.328125,243389.40625,225956.390625,227012.28125,221663.515625,211299.8125,16923.0,1.0,1
229997.578125,243857.90625,247312.59375,243389.40625,225874.765625,227008.703125,221631.328125,211284.4375,16924.0,1.0,1
230053.90625,243904.03125,247335.296875,243419.359375,225907.21875,227037.140625,221656.09375,211308.84375,16925.0,1.0,1
230096.109375,243962.59375,247360.78125,243459.859375,226073.6875,227072.640625,221731.375,211359.796875,16926.0,1.0,1
230015.640625,243907.078125,247339.5,243429.1875,226093.53125,227047.875,221722.875,211343.4375,16927.0,1.0,1
229945.90625,243834.296875,247322.25,243384.765625,225962.375,227006.296875,221656.453125,211293.546875,16928.0,1.0,1
229987.03125,243849.40625,247333.953125,243381.8125,225881.28125,227001.5625,221621.046875,211274.59375,16929.0,1.0,1
230049.890625,243899.390625,247355.328125,243411.671875,225911.6875,227031.953125,221645.546875,211298.921875,16930.0,1.0,1
230094.046875,243957.59375,247374.015625,243452.984375,226076.375,227070.3125,221724.390625,211353.015625,16931.0,1.0,1
230017.15625,243903.953125,247346.203125,243431.25,226102.125,227050.46875,221723.859375,211343.0,16932.0,1.0,1
229946.625,243829.109375,247315.0,243386.90625,225965.953125,227007.90625,221657.4375,211293.109375,16933.0,1.0,1
229991.5,243843.953125,247315.1875,243384.3125,225884.953125,227005.046875,221625.515625,211279.34375,16934.0,1.0,1
230048.8125,243889.109375,247326.625,243408.546875,225909.265625,227031.953125,221648.9375,211302.765625,16935.0,1.0,1
230089.859375,243947.3125,247347.09375,243449.3125,226067.703125,227070.125,221726.640625,211354.625,16936.0,1.0,1
230017.703125,243902.34375,247326.53125,243430.171875,226096.84375,227055.5625,221729.140625,211347.28125,16937.0,1.0,1
229936.96875,243818.03125,247294.265625,243380.640625,225958.625,227009.328125,221659.21875,211294.71875,16938.0,1.0,1
229984.796875,243838.140625,247303.109375,243381.890625,225879.859375,227008.171875,221629.0,211282.015625,16939.0,1.0,1
230051.140625,243893.65625,247321.96875,243408.359375,225905.34375,227037.859375,221649.65625,211305.4375,16940.0,1.0,1
230089.859375,243949.09375,247339.046875,243446.546875,226064.390625,227072.1875,221721.8125,211354.890625,16941.0,1.0,1
230011.53125,243894.296875,247313.484375,243422.84375,226092.46875,227052.78125,221719.484375,211344.96875,16942.0,1.0,1
229939.015625,243816.328125,247283.078125,243376.265625,225959.703125,227011.03125,221654.03125,211297.125,16943.0,1.0,1
229979.171875,243826.515625,247288.359375,243373.765625,225876.8125,227007.1875,221623.28125,211280.140625,16944.0,1.0,1
230045.5,243881.59375,247308.5625,243401.484375,225903.453125,227034.375,221645.625,211305.265625,16945.0,1.0,1
230089.140625,243941.40625,247330.640625,243443.59375,226068.234375,227075.046875,221720.015625,211358.015625,16946.0,1.0,1
230008.765625,243885.796875,247306.59375,243418.015625,226095.59375,227050.546875,221714.46875,211341.828125,16947.0,1.0,1
229933.84375,243806.578125,247281.390625,243371.53125,225962.296875,227006.03125,221649.390625,211293.734375,16948.0,1.0,1
229978.71875,243822.765625,247290.328125,243370.0,225883.703125,227005.84375,221618.359375,211280.59375,16949.0,1.0,1
230039.25,243874.171875,247310.078125,243398.96875,225914.28125,227035.53125,221642.953125,211304.734375,16950.0,1.0,1
230075.8125,243929.609375,247326.359375,243433.484375,226072.34375,227068.078125,221713.3125,211354.171875,16951.0,1.0,1
229999.90625,243879.265625,247304.546875,243410.6875,226103.640625,227047.953125,221713.046875,211343.625,16952.0,1.0,1
229933.65625,243811.859375,247287.203125,243373.046875,225978.46875,227015.328125,221660.109375,211301.328125,16953.0,1.0,1
229981.9375,243831.171875,247295.875,243372.59375,225898.28125,227015.40625,221629.890625,211285.5,16954.0,1.0,1
230044.96875,243880.875,247308.828125,243395.84375,225918.65625,227040.09375,221645.265625,211304.90625,16955.0,1.0,1
230086.0,243935.59375,247327.421875,243435.90625,226075.296875,227073.171875,221715.546875,211354.0,16956.0,1.0,1
230004.109375,243881.328125,247304.546875,243413.015625,226102.84375,227052.078125,221715.28125,211341.203125,16957.0,1.0,1
229929.1875,243805.15625,247279.15625,243370.8125,225970.609375,227012.734375,221655.828125,211296.0625,16958.0,1.0,1
229981.484375,243828.390625,247288.8125,243371.4375,225893.265625,227014.4375,221630.15625,211284.171875,16959.0,1.0,1
230037.453125,243874.359375,247305.078125,243392.53125,225912.75,227038.921875,221644.640625,211301.6875,16960.0,1.0,1
230079.390625,243931.21875,247326.171875,243430.796875,226065.828125,227069.6875,221711.609375,211349.25,16961.0,1.0,1
230007.421875,243883.375,247309.015625,243414.359375,226101.859375,227052.703125,221719.03125,211344.6875,16962.0,1.0,1
229940.359375,243812.296875,247289.15625,243372.515625,225976.5,227018.546875,221662.078125,211301.59375,16963.0,1.0,1
229986.5,243826.515625,247294.796875,243367.59375,225892.46875,227012.734375,221627.65625,211283.265625,16964.0,1.0,1
230045.5,243870.6875,247310.984375,243393.34375,225911.5,227036.328125,221646.25,211305.4375,16965.0,1.0,1
230089.859375,243931.9375,247331.90625,243437.59375,226068.859375,227072.453125,221723.765625,211360.96875,16966.0,1.0,1
230016.625,243883.109375,247308.296875,243418.828125,226100.875,227052.515625,221726.09375,211352.46875,16967.0,1.0,1
229935.625,243802.015625,247276.828125,243368.671875,225960.765625,227003.515625,221654.75,211296.5,16968.0,1.0,1
229980.78125,243823.21875,247288.8125,243371.53125,225880.84375,227006.5625,221625.875,211283.453125,16969.0,1.0,1
230036.203125,243865.671875,247303.828125,243393.34375,225895.328125,227028.109375,221639.28125,211301.515625,16970.0,1.0,1
230082.703125,243926.828125,247327.25,243435.1875,226055.984375,227066.375,221716.625,211358.734375,16971.0,1.0,1
230012.96875,243885.796875,247307.140625,243414.890625,226094.078125,227048.046875,221719.921875,211349.25,16972.0,1.0,1
229939.375,243808.28125,247283.265625,243371.078125,225966.140625,227008.171875,221658.0625,211302.859375,16973.0,1.0,1
229985.25,243823.84375,247298.015625,243374.125,225888.34375,227010.5,221628.828125,211294.359375,16974.0,1.0,1
230041.484375,243865.953125,247311.15625,243392.0,225899.890625,227031.5,221639.015625,211306.703125,16975.0,1.0,1
230090.921875,243928.71875,247333.515625,243432.234375,226056.609375,227071.65625,221714.65625,211356.5,16976.0,1.0,1
230017.875,243879.359375,247309.71875,243413.28125,226093.625,227054.390625,221720.734375,211345.859375,16977.0,1.0,1
229938.03125,243794.6875,247280.671875,243365.71875,225963.453125,227011.296875,221658.140625,211296.421875,16978.0,1.0,1
229982.390625,243808.546875,247289.078125,243362.046875,225882.453125,227009.15625,221625.609375,211282.828125,16979.0,1.0,1
230044.078125,243857.8125,247309.90625,243387.265625,225903.640625,227034.8125,221642.40625,211303.484375,16980.0,1.0,1
230083.953125,243915.484375,247332.609375,243426.78125,226060.71875,227068.609375,221714.296875,211351.84375,16981.0,1.0,1
230007.328125,243864.15625,247305.875,243405.40625,226093.359375,227044.734375,221715.640625,211340.140625,16982.0,1.0,1
229921.953125,243777.875,247273.421875,243358.5625,225959.875,227001.90625,221649.65625,211290.6875,16983.0,1.0,1
229968.265625,243797.109375,247283.265625,243358.296875,225882.1875,227006.65625,221620.5,211277.546875,16984.0,1.0,1
230031.296875,243847.984375,247300.25,243381.359375,225904.0,227035.4375,221641.34375,211300.796875,16985.0,1.0,1
230074.921875,243909.671875,247321.703125,243421.0625,226061.078125,227073.265625,221716.53125,211353.015625,16986.0,1.0,1
230005.984375,243870.328125,247303.015625,243401.921875,226101.765625,227055.296875,221721.8125,211345.046875,16987.0,1.0,1
229922.125,243784.9375,247272.078125,243351.765625,225968.015625,227007.015625,221652.15625,211293.734375,16988.0,1.0,1
229966.921875,243803.71875,247281.65625,243348.453125,225885.3125,227006.828125,221620.0625,211280.40625,16989.0,1.0,1
230036.03125,243858.4375,247301.234375,243375.546875,225907.578125,227035.703125,221641.078125,211304.1875,16990.0,1.0,1
230081.0,243919.234375,247319.203125,243420.171875,226065.203125,227071.375,221714.828125,211355.78125,16991.0,1.0,1
230009.65625,243875.6875,247296.671875,243403.796875,226107.03125,227055.375,221718.40625,211349.703125,16992.0,1.0,1
229933.203125,243798.09375,247270.296875,243359.90625,225974.8125,227014.25,221655.640625,211305.71875,16993.0,1.0,1
229972.453125,243809.171875,247272.71875,243350.78125,225881.546875,227006.828125,221617.46875,211282.015625,16994.0,1.0,1
230032.453125,243856.734375,247289.34375,243375.640625,225893.0,227034.1875,221633.734375,211299.546875,16995.0,1.0,1
230079.65625,243919.953125,247315.265625,243421.859375,226051.34375,227077.546875,221711.796875,211356.671875,16996.0,1.0,1
230011.0,243876.859375,247293.0,243403.0,226093.265625,227061.453125,221718.9375,211351.671875,16997.0,1.0,1
229928.46875,243792.984375,247261.0,243353.015625,225957.28125,227015.328125,221652.515625,211300.265625,16998.0,1.0,1
229973.4375,243809.703125,247268.328125,243349.53125,225871.90625,227012.546875,221619.796875,211284.078125,16999.0,1.0,1
230038.171875,243859.6875,247288.71875,243375.46875,225888.625,227035.703125,221636.59375,211302.765625,17000.0,1.0,1
230085.375,243920.671875,247315.359375,243422.21875,226048.75,227074.875,221713.765625,211356.765625,17001.0,1.0,1
230018.0625,243880.34375,247297.828125,243407.296875,226096.75,227059.84375,221725.296875,211353.28125,17002.0,1.0,1
229932.9375,243794.15625,247267.796875,243353.640625,225960.765625,227011.21875,221657.078125,211298.5625,17003.0,1.0,1
229983.1875,243814.1875,247280.40625,243351.859375,225880.296875,227011.296875,221627.578125,211287.109375,17004.0,1.0,1
230049.34375,243865.328125,247300.875,243375.90625,225896.578125,227036.96875,221644.296875,211308.3125,17005.0,1.0,1
230087.171875,243915.65625,247318.484375,243412.75,226043.375,227067.625,221711.609375,211354.796875,17006.0,1.0,1
230012.34375,243866.3125,247294.4375,243395.21875,226083.53125,227045.28125,221718.40625,211345.953125,17007.0,1.0,1
229932.234375,243787.890625,247266.453125,243354.09375,225957.640625,227004.0625,221661.546875,211298.296875,17008.0,1.0,1
229974.34375,243802.921875,247274.59375,243351.59375,225877.0,227002.984375,221633.5625,211283.546875,17009.0,1.0,1
230036.296875,243853.34375,247296.40625,243372.15625,225890.3125,227029.71875,221646.96875,211303.921875,17010.0,1.0,1
230087.4375,243918.4375,247324.125,243414.359375,226046.875,227069.0625,221719.84375,211357.296875,17011.0,1.0,1
230023.515625,243879.359375,247302.484375,243398.53125,226094.875,227054.484375,221727.890625,211351.9375,17012.0,1.0,1
229939.828125,243796.390625,247268.78125,243349.359375,225960.59375,227008.265625,221659.578125,211302.5,17013.0,1.0,1
229980.953125,243811.859375,247274.59375,243345.515625,225876.734375,227007.71875,221627.921875,211288.71875,17014.0,1.0,1
230045.421875,243864.609375,247293.28125,243370.90625,225892.8125,227036.421875,221644.296875,211307.234375,17015.0,1.0,1
230085.65625,243920.21875,247311.96875,243412.125,226042.75,227072.71875,221715.28125,211355.875,17016.0,1.0,1
230012.96875,243875.609375,247285.9375,243390.921875,226087.375,227050.546875,221720.90625,211349.078125,17017.0,1.0,1
229925.34375,243789.953125,247255.015625,243340.859375,225956.125,227004.421875,221656.453125,211298.65625,17018.0,1.0,1
229965.046875,243803.71875,247261.890625,243335.765625,225869.125,226999.59375,221622.46875,211281.578125,17019.0,1.0,1
230032.453125,243855.390625,247282.1875,243359.8125,225885.671875,227026.40625,221637.671875,211299.90625,17020.0,1.0,1
230081.984375,243917.625,247305.4375,243403.625,226041.765625,227065.65625,221711.25,211351.046875,17021.0,1.0,1
230017.25,243880.34375,247285.59375,243389.40625,226090.953125,227052.078125,221720.203125,211345.671875,17022.0,1.0,1
229931.78125,243796.125,247255.71875,243339.515625,225960.59375,227010.40625,221654.296875,211297.046875,17023.0,1.0,1
229976.75,243810.6875,247265.828125,243338.71875,225876.375,227010.234375,221623.015625,211281.84375,17024.0,1.0,1
230040.234375,243860.9375,247284.328125,243366.15625,225894.421875,227038.21875,221641.96875,211302.140625,17025.0,1.0,1
230084.046875,243918.25,247309.640625,243410.15625,226051.515625,227076.203125,221716.703125,211356.140625,17026.0,1.0,1
230015.375,243874.0,247288.890625,243391.828125,226099.4375,227058.515625,221723.765625,211351.21875,17027.0,1.0,1
229927.75,243787.453125,247254.03125,243339.515625,225964.609375,227013.265625,221655.640625,211299.1875,17028.0,1.0,1
229970.765625,243804.609375,247260.734375,243336.390625,225882.890625,227011.125,221625.0625,211286.84375,17029.0,1.0,1
230022.703125,243842.875,247266.71875,243350.96875,225890.765625,227029.265625,221633.734375,211298.03125,17030.0,1.0,1
230064.546875,243898.484375,247287.546875,243392.890625,226042.390625,227067.1875,221706.421875,211349.796875,17031.0,1.0,1
230001.078125,243860.046875,247271.453125,243381.453125,226092.46875,227054.65625,221720.828125,211347.90625,17032.0,1.0,1
229919.53125,243777.609375,247239.8125,243330.75,225960.59375,227006.921875,221655.828125,211297.390625,17033.0,1.0,1
229975.140625,243804.96875,247256.53125,243333.53125,225887.984375,227010.234375,221630.78125,211292.484375,17034.0,1.0,1
230033.34375,243848.953125,247270.46875,243351.328125,225896.3125,227028.375,221638.203125,211304.546875,17035.0,1.0,1
230079.84375,243906.625,247297.75,243394.765625,226045.265625,227065.390625,221710.0,211357.921875,17036.0,1.0,1
230020.109375,243872.828125,247282.546875,243382.25,226097.109375,227051.625,221721.71875,211358.46875,17037.0,1.0,1
229930.171875,243784.9375,247250.09375,243334.6875,225964.796875,227007.1875,221658.953125,211305.890625,17038.0,1.0,1
229964.5,243793.96875,247250.453125,243326.109375,225872.34375,226997.71875,221621.765625,211283.0,17039.0,1.0,1
230032.90625,243851.640625,247267.4375,243354.0,225890.5,227027.84375,221641.515625,211301.875,17040.0,1.0,1
230080.828125,243915.125,247287.734375,243395.671875,226040.609375,227067.453125,221712.59375,211353.453125,17041.0,1.0,1
230008.3125,243869.796875,247261.796875,243375.90625,226082.8125,227048.140625,221715.8125,211347.5625,17042.0,1.0,1
229928.828125,243789.6875,247237.21875,243332.359375,225957.90625,227008.703125,221658.5,211305.625,17043.0,1.0,1
229974.703125,243803.359375,247247.5,243329.234375,225875.921875,227006.03125,221627.484375,211291.59375,17044.0,1.0,1
230037.453125,243851.46875,247263.234375,243348.109375,225882.453125,227024.796875,221639.90625,211305.171875,17045.0,1.0,1
230088.421875,243917.265625,247287.734375,243390.578125,226033.28125,227062.359375,221715.8125,211357.125,17046.0,1.0,1
230014.484375,243872.65625,247263.140625,243370.640625,226082.0,227044.828125,221721.171875,211349.96875,17047.0,1.0,1
229920.515625,243783.96875,247231.671875,243319.671875,225948.078125,226996.640625,221651.359375,211297.21875,17048.0,1.0,1
229969.875,243808.640625,247244.28125,243323.6875,225872.703125,226998.515625,221624.265625,211284.34375,17049.0,1.0,1
230037.546875,243858.265625,247263.859375,243351.140625,225888.265625,227026.140625,221640.71875,211303.125,17050.0,1.0,1
230080.015625,243911.453125,247284.78125,243388.25,226032.390625,227060.03125,221708.125,211349.25,17051.0,1.0,1
230013.59375,243868.71875,247266.90625,243373.5,226085.140625,227045.71875,221720.46875,211348.265625,17052.0,1.0,1
229920.421875,243773.328125,247236.5,243322.4375,225951.375,226997.265625,221651.796875,211295.15625,17053.0,1.0,1
229968.96875,243793.265625,247251.875,243323.6875,225871.1875,226997.71875,221624.078125,211283.546875,17054.0,1.0,1
230039.34375,243845.828125,247272.625,243350.0625,225886.296875,227028.5625,221641.515625,211304.90625,17055.0,1.0,1
230083.5,243902.0625,247287.015625,243388.25,226031.3125,227064.140625,221710.359375,211352.390625,17056.0,1.0,1
230019.484375,243864.96875,247267.078125,243371.703125,226082.265625,227048.671875,221718.765625,211347.28125,17057.0,1.0,1
229927.75,243775.375,247237.65625,243324.953125,225954.59375,227008.625,221657.25,211300.171875,17058.0,1.0,1
229968.171875,243790.125,247245.0,243319.21875,225871.265625,227006.203125,221626.59375,211285.953125,17059.0,1.0,1
230038.265625,243845.03125,247264.671875,243343.09375,225884.59375,227032.140625,221642.59375,211307.859375,17060.0,1.0,1
230075.8125,243896.796875,247276.28125,243374.5625,226023.078125,227061.1875,221704.546875,211350.0625,17061.0,1.0,1
229999.375,243848.25,247251.171875,243357.765625,226067.515625,227042.59375,221708.84375,211341.125,17062.0,1.0,1
229914.34375,243764.65625,247223.71875,243314.9375,225936.8125,227002.453125,221648.21875,211294.265625,17063.0,1.0,1
229970.140625,243794.78125,247236.859375,243318.859375,225863.5,227007.640625,221626.40625,211286.484375,17064.0,1.0,1
230042.828125,243852.453125,247258.671875,243345.78125,225883.609375,227038.390625,221645.90625,211307.953125,17065.0,1.0,1
230086.71875,243911.1875,247280.765625,243385.390625,226028.265625,227076.65625,221715.015625,211357.921875,17066.0,1.0,1
230023.953125,243876.046875,247264.3125,243373.21875,226086.46875,227067.1875,221730.921875,211359.53125,17067.0,1.0,1
229926.6875,243782.0,247229.34375,243320.296875,225951.203125,227017.109375,221667.09375,211307.046875,17068.0,1.0,1
229965.484375,243792.90625,247234.796875,243315.375,225867.34375,227013.09375,221634.0,211291.140625,17069.0,1.0,1
230034.421875,243844.671875,247252.78125,243339.609375,225877.359375,227035.984375,221647.421875,211309.015625,17070.0,1.0,1
230086.984375,243905.828125,247277.984375,243383.15625,226021.828125,227071.375,221718.140625,211360.25,17071.0,1.0,1
230016.984375,243863.0,247256.0,243364.109375,226072.171875,227052.875,221724.046875,211352.390625,17072.0,1.0,1
229920.96875,243768.765625,247224.609375,243313.140625,225939.9375,227005.125,221656.53125,211299.359375,17073.0,1.0,1
229963.34375,243778.859375,247235.34375,243312.703125,225860.28125,227003.515625,221624.53125,211284.609375,17074.0,1.0,1
230030.75,243828.125,247250.53125,243331.734375,225867.609375,227021.578125,221629.265625,211297.3125,17075.0,1.0,1
230080.46875,243893.390625,247277.71875,243377.421875,226019.59375,227061.453125,221701.515625,211352.203125,17076.0,1.0,1
230018.0625,243857.71875,247261.625,243364.46875,226074.859375,227045.71875,221712.234375,211350.140625,17077.0,1.0,1
229917.828125,243763.21875,247226.75,243311.984375,225939.125,226995.75,221642.953125,211295.15625,17078.0,1.0,1
229952.875,243773.859375,247231.859375,243306.890625,225851.515625,226989.03125,221605.84375,211278.359375,17079.0,1.0,1
230033.078125,243839.84375,247257.15625,243337.46875,225870.203125,227021.5,221626.859375,211304.28125,17080.0,1.0,1
230088.59375,243907.4375,247281.03125,243381.71875,226018.703125,227062.703125,221702.21875,211358.1875,17081.0,1.0,1
230026.734375,243870.15625,247258.5,243367.59375,226075.65625,227050.46875,221716.265625,211355.609375,17082.0,1.0,1
229933.75,243778.15625,247219.515625,243315.46875,225944.3125,227003.875,221650.546875,211303.03125,17083.0,1.0,1
229973.890625,243790.578125,247223.453125,243312.421875,225857.5,226998.34375,221616.3125,211287.109375,17084.0,1.0,1
230039.15625,243841.546875,247239.71875,243335.671875,225864.484375,227022.5625,221628.203125,211302.046875,17085.0,1.0,1
230079.125,243893.125,247256.53125,243369.921875,226002.96875,227059.21875,221695.4375,211347.015625,17086.0,1.0,1
230017.703125,243857.71875,247240.078125,243359.015625,226060.90625,227050.28125,221711.875,211347.46875,17087.0,1.0,1
229919.796875,243766.171875,247205.5625,243305.546875,225925.71875,226999.671875,221648.046875,211295.609375,17088.0,1.0,1
229963.078125,243784.59375,247212.09375,243303.484375,225844.09375,226999.765625,221619.4375,211284.796875,17089.0,1.0,1
230027.625,243830.359375,247218.625,243323.6875,225851.953125,227022.296875,221627.75,211298.109375,17090.0,1.0,1
230074.734375,243888.203125,247231.9375,243364.46875,225993.9375,227057.875,221694.09375,211346.296875,17091.0,1.0,1
230018.59375,243857.359375,247215.578125,243354.453125,226058.046875,227047.78125,221711.703125,211350.421875,17092.0,1.0,1
229916.84375,243756.78125,247184.015625,243300.625,225927.15625,226999.40625,221644.203125,211298.46875,17093.0,1.0,1
229955.5625,243770.1875,247204.3125,243299.109375,225848.109375,226995.203125,221612.734375,211284.96875,17094.0,1.0,1
230020.296875,243823.21875,247238.828125,243323.609375,225864.5625,227018.90625,221623.015625,211304.109375,17095.0,1.0,1
230064.546875,243879.71875,247273.515625,243362.40625,226004.40625,227052.421875,221686.9375,211348.265625,17096.0,1.0,1
230011.171875,243854.953125,247266.90625,243358.03125,226075.125,227047.59375,221709.015625,211350.859375,17097.0,1.0,1
229909.421875,243756.875,247221.921875,243301.796875,225943.875,226994.3125,221642.046875,211296.140625,17098.0,1.0,1
229948.59375,243764.65625,247209.5,243294.8125,225858.21875,226981.703125,221607.453125,211281.3125,17099.0,1.0,1
230027.53125,243817.125,247211.640625,243320.828125,225875.203125,227008.625,221630.25,211311.25,17100.0,1.0,1
230084.125,243878.640625,247210.9375,243361.953125,226017.546875,227049.296875,221701.421875,211376.796875,17101.0,1.0,1
230030.75,243848.328125,247172.046875,243347.390625,226075.65625,227034.640625,221711.53125,211376.171875,17102.0,1.0,1
229937.953125,243760.265625,247154.25,243295.265625,225946.640625,226988.5,221647.6875,211313.3125,17103.0,1.0,1
229983.015625,243783.15625,247184.203125,243294.546875,225871.359375,226993.78125,221621.3125,211297.21875,17104.0,1.0,1
230044.515625,243836.359375,247224.796875,243317.34375,225882.265625,227021.5,221632.84375,211312.15625,17105.0,1.0,1
230083.140625,243891.15625,247279.953125,243357.21875,226020.671875,227061.453125,221700.4375,211359.09375,17106.0,1.0,1
230010.90625,243853.15625,247266.09375,243340.5,226080.390625,227048.765625,221710.453125,211351.9375,17107.0,1.0,1
229919.359375,243771.71875,247242.84375,243295.53125,225959.703125,227009.78125,221651.890625,211304.734375,17108.0,1.0,1
229960.03125,243785.75,247243.03125,243295.0,225878.96875,227006.46875,221620.953125,211292.296875,17109.0,1.0,1
230034.515625,243841.359375,247247.046875,243315.828125,225885.578125,227026.328125,221636.25,211310.984375,17110.0,1.0,1
230089.21875,243901.359375,247269.40625,243351.40625,226025.671875,227059.9375,221710.8125,211364.1875,17111.0,1.0,1
230036.828125,243870.15625,247252.859375,243336.125,226090.5,227047.59375,221735.9375,211369.546875,17112.0,1.0,1
229943.046875,243781.09375,247223.890625,243286.328125,225959.875,226997.625,221676.75,211318.953125,17113.0,1.0,1
229980.421875,243795.9375,247241.6875,243286.59375,225875.03125,226992.796875,221648.40625,211303.390625,17114.0,1.0,1
230045.234375,243849.9375,247268.0625,243308.140625,225877.359375,227012.375,221658.765625,211316.625,17115.0,1.0,1
230085.5625,243908.421875,247288.8125,243343.546875,226007.265625,227045.0,221724.75,211360.78125,17116.0,1.0,1
230026.375,243883.46875,247269.21875,243338.359375,226066.359375,227038.125,221747.203125,211364.453125,17117.0,1.0,1
229921.765625,243789.59375,247230.0625,243291.421875,225929.484375,226990.375,221684.25,211315.015625,17118.0,1.0,1
229965.046875,243808.734375,247240.078125,243295.4375,225844.625,226992.4375,221658.953125,211306.96875,17119.0,1.0,1
230046.3125,243876.59375,247259.390625,243321.453125,225851.515625,227022.75,221676.296875,211324.9375,17120.0,1.0,1
230100.765625,243944.453125,247284.25,243360.984375,225984.734375,227064.046875,221747.015625,211376.078125,17121.0,1.0,1
230045.78125,243920.84375,247270.75,243350.0625,226046.328125,227057.25,221765.609375,211377.421875,17122.0,1.0,1
229946.171875,243830.09375,247243.125,243298.84375,225914.1875,227009.15625,221701.0625,211324.046875,17123.0,1.0,1
229978.09375,243836.625,247253.046875,243291.6875,225820.21875,226999.671875,221662.96875,211301.421875,17124.0,1.0,1
230058.109375,243897.15625,247283.984375,243321.109375,225833.984375,227033.921875,221679.34375,211319.578125,17125.0,1.0,1
230113.8125,243962.953125,247314.28125,243360.625,225972.125,227069.859375,221745.671875,211363.921875,17126.0,1.0,1
230051.578125,243926.296875,247300.78125,243348.734375,226038.28125,227056.265625,221762.125,211362.578125,17127.0,1.0,1
229956.015625,243836.078125,247276.015625,243302.234375,225917.671875,227016.21875,221701.421875,211315.90625,17128.0,1.0,1
230003.21875,243851.015625,247286.65625,243300.453125,225841.5,227016.9375,221665.75,211298.03125,17129.0,1.0,1
230077.875,243902.0625,247304.546875,243322.078125,225854.640625,227041.96875,221671.203125,211310.359375,17130.0,1.0,1
230124.71875,243956.15625,247330.375,243360.265625,225990.984375,227075.671875,221731.90625,211352.65625,17131.0,1.0,1
230067.953125,243923.53125,247322.15625,243355.796875,226066.359375,227068.96875,221750.328125,211356.046875,17132.0,1.0,1
229963.515625,243825.796875,247292.65625,243304.03125,225946.546875,227022.296875,221682.640625,211302.140625,17133.0,1.0,1
230000.53125,243839.484375,247304.625,243298.921875,225872.171875,227020.6875,221649.125,211284.703125,17134.0,1.0,1
230070.1875,243895.453125,247322.78125,243321.90625,225892.015625,227048.859375,221663.953125,211299.90625,17135.0,1.0,1
230117.390625,243956.421875,247339.3125,243360.171875,226034.53125,227086.84375,221726.90625,211347.28125,17136.0,1.0,1
230070.8125,243940.328125,247322.421875,243358.65625,226116.25,227086.046875,221752.203125,211358.015625,17137.0,1.0,1
229971.203125,243850.84375,247277.625,243306.703125,225992.78125,227037.046875,221685.953125,211306.515625,17138.0,1.0,1
230002.40625,243861.125,247273.78125,243295.0,225909.8125,227024.4375,221647.234375,211288.1875,17139.0,1.0,1
230073.765625,243919.140625,247287.90625,243318.15625,225925.28125,227048.5,221658.765625,211307.953125,17140.0,1.0,1
230125.171875,243983.78125,247302.578125,243362.3125,226060.640625,227087.390625,221725.109375,211358.28125,17141.0,1.0,1
230069.5625,243956.25,247278.171875,243355.34375,226125.71875,227078.453125,221745.046875,211362.671875,17142.0,1.0,1
229966.296875,243860.671875,247230.328125,243304.03125,225996.078125,227032.765625,221682.28125,211316.796875,17143.0,1.0,1
230005.8125,243874.796875,247227.828125,243299.015625,225911.140625,227028.375,221650.09375,211303.65625,17144.0,1.0,1
230075.015625,243927.453125,247240.609375,243321.8125,225914.359375,227051.53125,221661.453125,211317.78125,17145.0,1.0,1
230122.9375,243985.390625,247256.078125,243362.140625,226038.90625,227083.359375,221724.671875,211362.84375,17146.0,1.0,1
230068.75,243958.3125,247238.203125,243353.90625,226102.125,227070.9375,221742.734375,211367.671875,17147.0,1.0,1
229968.890625,243867.015625,247206.734375,243300.71875,225971.140625,227024.265625,221682.203125,211317.25,17148.0,1.0,1
230006.609375,243879.265625,247219.96875,243294.640625,225885.40625,227022.828125,221654.484375,211301.15625,17149.0,1.0,1
230075.71875,243929.15625,247244.453125,243314.125,225889.15625,227044.203125,221663.515625,211312.421875,17150.0,1.0,1
230118.90625,243980.65625,247268.234375,243348.734375,226006.90625,227071.296875,221719.484375,211354.625,17151.0,1.0,1
230066.703125,243954.453125,247252.6875,243342.921875,226071.640625,227056.984375,221740.484375,211360.4375,17152.0,1.0,1
229966.109375,243858.265625,247223.1875,243297.234375,225943.15625,227011.390625,221680.671875,211312.328125,17153.0,1.0,1
230002.859375,243867.015625,247230.59375,243295.4375,225857.328125,227008.265625,221650.640625,211293.546875,17154.0,1.0,1
230075.8125,243918.875,247247.3125,243315.734375,225860.359375,227029.890625,221661.640625,211306.421875,17155.0,1.0,1
230117.84375,243968.859375,247265.828125,243350.515625,225985.171875,227061.1875,221722.515625,211352.109375,17156.0,1.0,1
230069.28125,243947.75,247256.625,243345.15625,226055.453125,227053.953125,221743.890625,211359.796875,17157.0,1.0,1
229967.984375,243857.0,247227.734375,243294.546875,225928.671875,227008.625,221683.09375,211311.34375,17158.0,1.0,1
230002.140625,243867.46875,247236.328125,243287.484375,225840.609375,227003.96875,221651.53125,211292.65625,17159.0,1.0,1
230070.453125,243918.703125,247256.703125,243309.84375,225851.515625,227032.9375,221666.546875,211310.546875,17160.0,1.0,1
230117.921875,243977.703125,247271.734375,243343.625,225978.65625,227067.1875,221723.421875,211352.203125,17161.0,1.0,1
230073.21875,243960.625,247255.28125,243342.375,226057.328125,227064.40625,221748.359375,211361.765625,17162.0,1.0,1
229967.1875,243864.78125,247213.796875,243293.03125,225935.828125,227018.984375,221687.65625,211317.0625,17163.0,1.0,1
229995.53125,243871.046875,247209.5,243282.125,225845.96875,227007.546875,221648.578125,211297.390625,17164.0,1.0,1
230073.9375,243930.5,247229.265625,243308.5,225861.890625,227036.96875,221658.59375,211314.828125,17165.0,1.0,1
230119.171875,243985.21875,247251.875,243347.828125,225994.75,227072.453125,221718.140625,211358.640625,17166.0,1.0,1
230058.5625,243950.890625,247241.859375,243337.109375,226066.984375,227060.5625,221736.109375,211360.703125,17167.0,1.0,1
229957.0,243854.765625,247214.15625,243284.625,225946.28125,227012.90625,221671.296875,211310.359375,17168.0,1.0,1
229995.078125,243868.625,247229.4375,243282.484375,225868.5,227010.40625,221638.484375,211294.984375,17169.0,1.0,1
230068.84375,243923.796875,247252.59375,243307.328125,225882.8125,227034.640625,221650.546875,211308.125,17170.0,1.0,1
230111.3125,243971.53125,247274.328125,243342.65625,226012.265625,227067.625,221709.828125,211349.875,17171.0,1.0,1
230063.484375,243946.59375,247259.921875,243338.359375,226090.59375,227062.984375,221731.015625,211356.40625,17172.0,1.0,1
229958.421875,243846.640625,247215.046875,243285.703125,225965.78125,227013.359375,221663.953125,211302.578125,17173.0,1.0,1
229994.28125,243852.265625,247219.0625,243282.296875,225884.421875,227011.5625,221633.109375,211287.75,17174.0,1.0,1
230068.75,243901.53125,247233.734375,243301.875,225890.234375,227035.078125,221639.375,211298.296875,17175.0,1.0,1
230121.859375,243962.234375,247259.125,243347.390625,226027.734375,227074.328125,221705.09375,211346.03125,17176.0,1.0,1
230083.140625,243949.0,247264.3125,243354.0,226117.046875,227080.6875,221739.234375,211361.5,17177.0,1.0,1
229969.234375,243842.875,247233.546875,243299.109375,225989.015625,227029.0,221672.453125,211305.09375,17178.0,1.0,1
229997.5,243845.03125,247240.25,243290.609375,225897.5625,227016.75,221631.953125,211280.140625,17179.0,1.0,1
230073.9375,243900.546875,247266.09375,243316.8125,225908.375,227043.484375,221644.296875,211297.578125,17180.0,1.0,1
230122.84375,243956.875,247288.09375,243354.1875,226033.640625,227076.84375,221705.09375,211341.828125,17181.0,1.0,1
230076.0,243935.328125,247269.40625,243346.84375,226105.875,227069.0625,221726.09375,211349.796875,17182.0,1.0,1
229973.53125,243841.1875,247223.453125,243290.078125,225978.109375,227018.28125,221663.15625,211299.8125,17183.0,1.0,1
230005.359375,243847.796875,247220.5,243283.375,225893.796875,227014.25,221633.734375,211289.4375,17184.0,1.0,1
230072.15625,243898.140625,247230.515625,243304.375,225898.984375,227037.3125,221645.359375,211306.078125,17185.0,1.0,1
230122.3125,243959.734375,247249.203125,243342.203125,226023.53125,227073.265625,221708.578125,211352.109375,17186.0,1.0,1
230077.609375,243944.0,247243.921875,243337.546875,226101.578125,227067.890625,221739.234375,211362.125,17187.0,1.0,1
229960.921875,243835.90625,247206.015625,243278.453125,225971.765625,227013.171875,221673.890625,211305.4375,17188.0,1.0,1
229986.140625,243839.9375,247211.828125,243268.625,225881.015625,227006.203125,221637.5,211287.75,17189.0,1.0,1
230054.796875,243896.078125,247232.75,243294.1875,225890.671875,227031.421875,221648.84375,211306.34375,17190.0,1.0,1
230100.578125,243953.828125,247246.15625,243333.265625,226012.171875,227062.703125,221709.203125,211350.6875,17191.0,1.0,1
230053.828125,243935.6875,247222.109375,243328.078125,226085.21875,227056.359375,221733.609375,211358.734375,17192.0,1.0,1
229945.8125,243837.96875,247171.953125,243270.40625,225954.0625,227009.421875,221669.5,211307.59375,17193.0,1.0,1
229986.859375,243853.609375,247177.5,243269.515625,225870.46875,227009.328125,221646.703125,211298.734375,17194.0,1.0,1
230068.125,243916.109375,247196.984375,243297.40625,225879.40625,227037.3125,221659.84375,211317.515625,17195.0,1.0,1
230120.421875,243978.875,247222.015625,243338.625,226004.84375,227074.59375,221721.625,211360.703125,17196.0,1.0,1
230071.515625,243958.9375,247217.71875,243333.96875,226084.15625,227069.5,221748.0,211366.953125,17197.0,1.0,1
229955.296875,243853.4375,247185.265625,243277.203125,225956.296875,227015.234375,221679.609375,211309.46875,17198.0,1.0,1
229979.703125,243851.375,247196.8125,243269.953125,225866.265625,227007.71875,221644.46875,211289.359375,17199.0,1.0,1
230054.09375,243902.6875,247221.921875,243292.578125,225871.1875,227033.828125,221656.625,211305.984375,17200.0,1.0,1
230106.84375,243962.328125,247240.171875,243325.65625,225988.671875,227063.25,221711.34375,211348.453125,17201.0,1.0,1
230067.5,243949.09375,247231.5,243326.375,226072.265625,227060.125,221738.078125,211357.125,17202.0,1.0,1
229958.609375,243849.859375,247192.953125,243275.0625,225953.171875,227010.5,221675.5,211305.0,17203.0,1.0,1
229988.46875,243850.65625,247201.0,243271.390625,225869.84375,227006.109375,221643.9375,211289.0,17204.0,1.0,1
230058.296875,243895.984375,247222.28125,243292.40625,225873.859375,227028.828125,221648.3125,211301.421875,17205.0,1.0,1
230105.40625,243945.515625,247247.671875,243327.09375,225997.421875,227062.984375,221704.90625,211343.0,17206.0,1.0,1
230064.375,243926.5625,247243.921875,243323.875,226082.71875,227056.453125,221732.4375,211351.75,17207.0,1.0,1
229955.734375,243828.75,247210.390625,243272.015625,225967.109375,227007.546875,221670.578125,211301.15625,17208.0,1.0,1
229980.953125,243833.9375,247216.203125,243266.03125,225882.71875,227002.890625,221635.34375,211285.953125,17209.0,1.0,1
230046.9375,243881.859375,247228.984375,243285.421875,225882.625,227023.546875,221637.9375,211295.515625,17210.0,1.0,1
230096.828125,243937.828125,247243.296875,243322.265625,225999.03125,227053.6875,221694.984375,211332.171875,17211.0,1.0,1
230062.578125,243927.375,247230.328125,243326.28125,226089.421875,227054.21875,221729.140625,211345.671875,17212.0,1.0,1
229952.34375,243830.984375,247189.390625,243274.703125,225970.25,227004.859375,221668.15625,211295.515625,17213.0,1.0,1
229974.96875,243831.34375,247198.953125,243270.046875,225879.671875,226999.5,221635.078125,211282.203125,17214.0,1.0,1
230053.28125,243884.71875,247221.03125,243296.515625,225879.671875,227025.421875,221644.734375,211300.4375,17215.0,1.0,1
230103.984375,243941.046875,247239.625,243332.71875,226002.171875,227060.125,221704.015625,211344.875,17216.0,1.0,1
230059.71875,243924.859375,247225.328125,243324.40625,226085.484375,227053.140625,221727.890625,211353.015625,17217.0,1.0,1
229952.4375,243827.6875,247186.25,243273.625,225965.78125,227005.40625,221666.8125,211305.890625,17218.0,1.0,1
229982.03125,243833.84375,247192.25,243272.28125,225875.921875,227001.203125,221636.421875,211293.28125,17219.0,1.0,1
230044.875,243880.34375,247203.6875,243289.453125,225868.59375,227019.890625,221636.59375,211301.15625,17220.0,1.0,1
230098.171875,243939.34375,247226.671875,243328.25,225989.296875,227055.828125,221695.703125,211344.6875,17221.0,1.0,1
230065.0,243932.375,247219.515625,243328.609375,226078.96875,227055.015625,221727.609375,211355.421875,17222.0,1.0,1
229958.25,243832.59375,247184.828125,243279.265625,225958.53125,227007.8125,221669.328125,211304.90625,17223.0,1.0,1
229980.234375,243828.3125,247191.0,243272.109375,225867.34375,226999.953125,221635.796875,211289.984375,17224.0,1.0,1
230056.140625,243881.5,247207.171875,243292.3125,225871.1875,227023.453125,221644.828125,211304.546875,17225.0,1.0,1
230108.453125,243938.90625,247224.796875,243329.78125,225990.546875,227054.75,221703.296875,211347.203125,17226.0,1.0,1
230069.015625,243928.078125,247212.984375,243328.703125,226078.515625,227050.90625,221732.71875,211357.75,17227.0,1.0,1
229964.5,243836.4375,247180.625,243281.046875,225967.03125,227010.671875,221676.203125,211311.96875,17228.0,1.0,1
229990.703125,243837.0625,247189.109375,243271.84375,225881.46875,227004.6875,221641.078125,211293.203125,17229.0,1.0,1
230068.125,243893.125,247211.203125,243292.765625,225883.25,227028.375,221647.421875,211303.921875,17230.0,1.0,1
230115.0625,243946.859375,247231.765625,243325.921875,225999.03125,227056.984375,221701.515625,211340.578125,17231.0,1.0,1
230069.46875,243928.53125,247220.40625,243323.421875,226088.796875,227054.3125,221730.5625,211353.015625,17232.0,1.0,1
229956.71875,243825.625,247182.5,243273.453125,225973.828125,227009.15625,221670.671875,211304.28125,17233.0,1.0,1
229981.046875,243827.234375,247182.140625,243266.03125,225881.640625,227000.84375,221633.296875,211284.171875,17234.0,1.0,1
230057.3125,243882.046875,247197.703125,243284.71875,225880.75,227022.484375,221636.515625,211294.625,17235.0,1.0,1
230103.703125,243935.0625,247213.875,243317.4375,225996.796875,227054.3125,221695.15625,211338.25,17236.0,1.0,1
230055.609375,243912.078125,247200.375,243310.1875,226076.015625,227045.09375,221718.40625,211345.671875,17237.0,1.0,1
229947.6875,243816.328125,247167.75,243257.53125,225957.1875,226996.109375,221657.25,211297.390625,17238.0,1.0,1
229969.421875,243813.28125,247174.625,243249.125,225865.640625,226991.09375,221622.75,211280.328125,17239.0,1.0,1
230046.75,243869.703125,247198.421875,243277.03125,225868.5,227017.734375,221631.140625,211296.0625,17240.0,1.0,1
230100.84375,243933.0,247220.5,243320.03125,225986.34375,227053.328125,221690.328125,211339.234375,17241.0,1.0,1
230049.4375,243907.515625,247196.171875,243310.1875,226066.625,227041.25,221713.3125,211343.4375,17242.0,1.0,1
229939.734375,243806.40625,247160.234375,243255.921875,225951.203125,226995.46875,221657.25,211299.453125,17243.0,1.0,1
229962.984375,243807.203125,247167.21875,243247.609375,225858.390625,226989.671875,221621.484375,211281.03125,17244.0,1.0,1
230040.046875,243863.265625,247192.328125,243274.25,225858.9375,227016.3125,221630.34375,211294.09375,17245.0,1.0,1
230091.1875,243918.34375,247218.4375,243313.6875,225979.546875,227054.125,221691.765625,211337.28125,17246.0,1.0,1
230064.375,243919.140625,247217.453125,243318.328125,226081.109375,227057.96875,221730.921875,211356.671875,17247.0,1.0,1
229956.8125,243826.96875,247185.546875,243267.71875,225974.265625,227012.1875,221676.828125,211309.46875,17248.0,1.0,1
229970.046875,243816.6875,247186.4375,243259.046875,225880.484375,227002.359375,221637.5,211287.296875,17249.0,1.0,1
230050.15625,243873.71875,247205.203125,243285.703125,225886.203125,227031.5,221646.4375,211305.359375,17250.0,1.0,1
230097.359375,243923.4375,247214.78125,243314.9375,225989.734375,227056.90625,221692.921875,211338.609375,17251.0,1.0,1
230053.015625,243905.015625,247201.453125,243312.875,226071.015625,227051.796875,221720.203125,211347.90625,17252.0,1.0,1
229932.671875,243797.28125,247161.40625,243253.328125,225946.828125,226999.59375,221656.53125,211292.921875,17253.0,1.0,1
229952.4375,243792.359375,247168.375,243241.796875,225848.46875,226989.84375,221620.59375,211273.4375,17254.0,1.0,1
230029.953125,243845.65625,247186.703125,243263.53125,225850.078125,227011.21875,221624.078125,211287.390625,17255.0,1.0,1
230080.90625,243900.546875,247208.34375,243300.0,225966.671875,227044.375,221676.828125,211327.4375,17256.0,1.0,1
230045.6875,243891.078125,247200.5625,243300.453125,226061.625,227044.03125,221708.125,211340.3125,17257.0,1.0,1
229929.8125,243786.734375,247159.171875,243244.390625,225948.34375,226994.84375,221646.609375,211290.515625,17258.0,1.0,1
229957.625,243788.078125,247164.53125,243239.296875,225861.53125,226989.9375,221613.796875,211275.765625,17259.0,1.0,1
230031.015625,243835.734375,247181.96875,243261.109375,225859.734375,227013.625,221616.125,211287.390625,17260.0,1.0,1
230088.78125,243899.390625,247204.765625,243301.875,225980.53125,227051.890625,221674.234375,211333.15625,17261.0,1.0,1
230062.578125,243895.8125,247200.828125,243307.421875,226086.296875,227058.328125,221714.921875,211351.9375,17262.0,1.0,1
229951.09375,243797.1875,247165.0625,243253.875,225974.890625,227010.9375,221655.90625,211298.828125,17263.0,1.0,1
229962.890625,243786.109375,247164.171875,243239.65625,225875.921875,226998.0625,221613.984375,211273.890625,17264.0,1.0,1
230040.234375,243841.359375,247179.546875,243260.484375,225870.375,227019.171875,221619.4375,211284.4375,17265.0,1.0,1
230092.71875,243898.40625,247196.625,243297.5,225982.671875,227053.328125,221677.90625,211327.796875,17266.0,1.0,1
230065.4375,243896.703125,247186.515625,243302.59375,226086.03125,227058.328125,221717.953125,211349.96875,17267.0,1.0,1
229944.828125,243788.515625,247141.734375,243246.359375,225969.078125,227005.046875,221654.578125,211299.90625,17268.0,1.0,1
229966.46875,243790.046875,247146.109375,243238.3125,225870.5625,226993.953125,221617.921875,211282.015625,17269.0,1.0,1
230040.140625,243844.484375,247163.1875,243260.84375,225864.921875,227013.890625,221621.484375,211294.171875,17270.0,1.0,1
230090.75,243901.265625,247178.65625,243294.1875,225974.71875,227043.671875,221672.625,211332.796875,17271.0,1.0,1
230058.5625,243897.15625,247170.25,243297.046875,226070.828125,227044.296875,221708.125,211349.171875,17272.0,1.0,1
229945.015625,243797.015625,247130.203125,243245.1875,225957.015625,226995.828125,221651.171875,211300.890625,17273.0,1.0,1
229961.1875,243789.421875,247127.6875,243234.90625,225858.84375,226984.125,221616.84375,211284.609375,17274.0,1.0,1
230037.109375,243845.390625,247145.21875,243258.34375,225853.484375,227008.984375,221625.15625,211298.46875,17275.0,1.0,1
230087.171875,243900.640625,247167.21875,243295.890625,225962.5625,227042.421875,221678.171875,211338.96875,17276.0,1.0,1
230057.75,243896.703125,247162.828125,243297.59375,226056.875,227042.765625,221713.21875,211355.0625,17277.0,1.0,1
229938.3125,243788.15625,247119.46875,243238.671875,225934.484375,226988.328125,221649.75,211300.96875,17278.0,1.0,1
229957.796875,243783.875,247125.71875,243231.0625,225836.046875,226982.15625,221616.578125,211282.5625,17279.0,1.0,1
230036.390625,243839.84375,247147.1875,243253.953125,225829.34375,227006.921875,221622.75,211292.921875,17280.0,1.0,1
230095.21875,243902.15625,247176.15625,243297.859375,225944.9375,227047.0625,221682.203125,211335.84375,17281.0,1.0,1
230064.640625,243895.453125,247173.375,243302.0625,226044.09375,227046.703125,221715.90625,211351.75,17282.0,1.0,1
229950.5625,243792.1875,247137.34375,243242.953125,225926.796875,226991.28125,221653.59375,211297.671875,17283.0,1.0,1
229969.328125,243784.40625,247148.703125,243233.125,225832.296875,226982.421875,221620.15625,211276.203125,17284.0,1.0,1
230047.828125,243839.125,247172.671875,243256.8125,225834.796875,227011.75,221628.828125,211290.421875,17285.0,1.0,1
230091.015625,243886.515625,247187.421875,243286.859375,225939.765625,227040.359375,221677.015625,211326.1875,17286.0,1.0,1
230058.375,243878.375,247185.359375,243289.90625,226040.875,227039.375,221711.34375,211343.0,17287.0,1.0,1
229950.640625,243786.28125,247152.90625,243238.765625,225933.859375,226992.703125,221654.65625,211294.71875,17288.0,1.0,1
229960.125,243775.640625,247153.171875,243224.1875,225830.765625,226979.203125,221610.046875,211269.5,17289.0,1.0,1
230033.609375,243825.171875,247172.671875,243243.671875,225825.3125,227000.296875,221610.84375,211281.390625,17290.0,1.0,1
230082.703125,243880.15625,247194.75,243282.390625,225941.640625,227035.984375,221667.0,211324.9375,17291.0,1.0,1
230056.765625,243883.5625,247191.34375,243289.90625,226050.171875,227041.078125,221707.234375,211347.640625,17292.0,1.0,1
229945.90625,243787.1875,247152.640625,243237.421875,225949.59375,226995.03125,221652.6875,211301.328125,17293.0,1.0,1
229955.828125,243774.390625,247152.28125,243222.390625,225849.90625,226983.140625,221612.90625,211277.28125,17294.0,1.0,1
230032.984375,243825.71875,247170.96875,243243.234375,225843.28125,227007.90625,221615.5,211289.171875,17295.0,1.0,1
230093.421875,243885.265625,247193.40625,243285.703125,225960.59375,227047.875,221674.78125,211338.703125,17296.0,1.0,1
230067.140625,243883.921875,247185.265625,243290.875,226064.75,227049.296875,221710.890625,211354.4375,17297.0,1.0,1
229954.578125,243785.484375,247143.609375,243234.015625,225954.953125,226997.265625,221646.796875,211299.90625,17298.0,1.0,1
229963.515625,243774.75,247142.796875,243221.953125,225856.515625,226986.09375,221607.1875,211277.734375,17299.0,1.0,1
230033.703125,243826.15625,247160.59375,243242.875,225850.4375,227010.5,221613.265625,211287.203125,17300.0,1.0,1
230088.0625,243886.6875,247187.5,243283.375,225961.9375,227053.234375,221671.46875,211330.203125,17301.0,1.0,1
230064.8125,243890.09375,247186.96875,243290.34375,226071.640625,227061.90625,221712.234375,211351.125,17302.0,1.0,1
229948.40625,243790.9375,247150.671875,243236.25,225967.46875,227012.28125,221653.859375,211300.703125,17303.0,1.0,1
229951.1875,243770.546875,247149.859375,243219.359375,225862.59375,226994.140625,221610.84375,211274.15625,17304.0,1.0,1
230028.15625,243824.28125,247166.859375,243239.5625,225854.109375,227015.0625,221616.484375,211285.78125,17305.0,1.0,1
230088.0625,243883.734375,247183.84375,243277.828125,225960.140625,227049.125,221674.6875,211330.65625,17306.0,1.0,1
230066.609375,243886.0625,247174.90625,243285.421875,226065.90625,227051.890625,221716.703125,211350.421875,17307.0,1.0,1
229950.90625,243786.109375,247132.96875,243232.234375,225956.296875,227000.390625,221658.421875,211299.1875,17308.0,1.0,1
229958.875,243773.953125,247134.40625,243218.640625,225850.703125,226986.625,221616.125,211273.796875,17309.0,1.0,1
230032.1875,243826.609375,247159.34375,243238.765625,225837.03125,227007.28125,221618.359375,211283.09375,17310.0,1.0,1
230087.703125,243889.734375,247185.625,243277.296875,225946.203125,227046.078125,221675.9375,211324.9375,17311.0,1.0,1
230063.203125,243890.625,247184.28125,243286.046875,226055.265625,227051.09375,221717.25,211347.46875,17312.0,1.0,1
229947.78125,243789.859375,247147.625,243231.609375,225947.09375,226999.140625,221659.671875,211298.828125,17313.0,1.0,1
229955.828125,243776.09375,247143.96875,243215.25,225842.03125,226981.625,221614.875,211275.21875,17314.0,1.0,1
230031.734375,243829.921875,247156.03125,243236.078125,225832.015625,227001.90625,221617.015625,211285.953125,17315.0,1.0,1
230087.4375,243891.078125,247175.796875,243275.328125,225938.0625,227037.3125,221674.59375,211327.078125,17316.0,1.0,1
230061.515625,243890.453125,247175.078125,243283.1875,226043.109375,227042.234375,221715.8125,211347.90625,17317.0,1.0,1
229954.125,243799.96875,247142.796875,243232.40625,225943.328125,226996.375,221663.328125,211303.203125,17318.0,1.0,1
229954.671875,243781.375,247135.734375,243210.78125,225838.109375,226976.515625,221618.8125,211272.359375,17319.0,1.0,1
230023.6875,243824.828125,247152.09375,243228.390625,225825.046875,226997.078125,221619.171875,211282.203125,17320.0,1.0,1
230081.359375,243883.375,247173.296875,243263.703125,225924.46875,227030.96875,221669.859375,211320.640625,17321.0,1.0,1
230061.234375,243888.921875,247169.09375,243274.96875,226034.703125,227033.65625,221710.625,211342.8125,17322.0,1.0,1
229946.625,243791.109375,247127.0625,243225.96875,225934.390625,226988.140625,221657.34375,211296.6875,17323.0,1.0,1
229952.34375,243776.453125,247125.640625,243210.859375,225832.65625,226975.09375,221616.9375,211271.65625,17324.0,1.0,1
230030.578125,243829.65625,247145.9375,243230.171875,225827.109375,226996.8125,221620.0625,211283.265625,17325.0,1.0,1
230089.21875,243890.71875,247170.4375,243267.90625,225934.3125,227032.140625,221673.078125,211324.578125,17326.0,1.0,1
230058.5625,243883.296875,247163.359375,243272.734375,226040.34375,227032.578125,221709.28125,211341.46875,17327.0,1.0,1
229946.265625,243784.5,247129.03125,243222.390625,225941.375,226985.015625,221655.5625,211294.09375,17328.0,1.0,1
229960.65625,243779.140625,247136.359375,243214.796875,225852.234375,226979.734375,221623.453125,211278.171875,17329.0,1.0,1
230034.515625,243827.5,247152.453125,243231.96875,225842.75,227000.125,221621.671875,211282.921875,17330.0,1.0,1
230075.546875,243872.109375,247168.109375,243261.203125,225938.953125,227026.765625,221667.53125,211315.09375,17331.0,1.0,1
230058.46875,243880.703125,247172.046875,243276.9375,226056.34375,227041.515625,221713.484375,211341.46875,17332.0,1.0,1
229952.609375,243791.828125,247139.578125,243229.546875,225963.890625,227000.578125,221664.3125,211299.71875,17333.0,1.0,1
229951.0,243769.390625,247129.03125,243207.203125,225850.171875,226972.859375,221613.4375,211268.078125,17334.0,1.0,1
230028.78125,243823.484375,247147.546875,243229.734375,225837.390625,226991.453125,221617.640625,211277.28125,17335.0,1.0,1
230082.078125,243878.015625,247171.5,243266.203125,225938.328125,227027.03125,221672.1875,211315.28125,17336.0,1.0,1
230056.59375,243877.75,247169.796875,243268.0,226043.46875,227029.1875,221707.953125,211334.5,17337.0,1.0,1
229950.375,243787.453125,247138.421875,243217.484375,225948.78125,226985.8125,221658.6875,211294.09375,17338.0,1.0,1
229952.703125,243769.5625,247142.453125,243204.0625,225844.1875,226975.1875,221617.203125,211269.5,17339.0,1.0,1
230029.328125,243822.859375,247166.3125,243229.375,225832.828125,226999.765625,221622.109375,211279.0625,17340.0,1.0,1
230090.75,243890.625,247189.921875,243270.046875,225937.171875,227038.390625,221679.96875,211322.4375,17341.0,1.0,1
230069.375,243894.203125,247181.875,243275.859375,226044.90625,227043.3125,221721.625,211345.671875,17342.0,1.0,1
229951.890625,243788.796875,247137.34375,243222.578125,225947.09375,226996.8125,221668.421875,211299.640625,17343.0,1.0,1
229953.0625,243767.78125,247130.375,243203.359375,225836.671875,226979.296875,221622.109375,211272.09375,17344.0,1.0,1
230034.15625,243826.15625,247150.84375,243228.03125,225826.921875,227004.234375,221629.984375,211287.390625,17345.0,1.0,1
230096.296875,243892.953125,247176.78125,243268.4375,225932.609375,227041.78125,221685.78125,211330.296875,17346.0,1.0,1
230073.765625,243894.921875,247178.46875,243277.03125,226046.421875,227050.640625,221730.296875,211351.671875,17347.0,1.0,1
229948.59375,243785.65625,247139.765625,243220.703125,225943.0625,226997.71875,221673.703125,211300.34375,17348.0,1.0,1
229950.828125,243770.46875,247141.734375,243204.34375,225835.0625,226982.0625,221634.28125,211277.640625,17349.0,1.0,1
230031.203125,243830.1875,247160.859375,243226.328125,225824.875,227007.09375,221637.671875,211290.515625,17350.0,1.0,1
230083.859375,243886.953125,247173.65625,243256.90625,225922.6875,227039.46875,221682.828125,211324.3125,17351.0,1.0,1
230065.625,243892.140625,247170.4375,243271.125,226039.8125,227049.203125,221728.328125,211350.953125,17352.0,1.0,1
229945.90625,243785.84375,247125.453125,243215.875,225936.625,226995.03125,221668.421875,211301.59375,17353.0,1.0,1
229935.71875,243752.578125,247113.65625,243187.078125,225814.40625,226963.921875,221610.21875,211264.046875,17354.0,1.0,1
230014.390625,243804.34375,247134.21875,243208.53125,225800.28125,226982.953125,221609.421875,211271.015625,17355.0,1.0,1
230080.734375,243872.109375,247163.1875,243252.171875,225908.015625,227022.75,221668.34375,211315.546875,17356.0,1.0,1
230058.296875,243874.359375,247165.421875,243263.078125,226022.546875,227030.96875,221714.46875,211339.59375,17357.0,1.0,1
229939.46875,243776.09375,247129.21875,243211.484375,225925.546875,226984.03125,221662.34375,211292.484375,17358.0,1.0,1
229941.703125,243759.28125,247128.859375,243197.09375,225820.578125,226966.6875,221620.0625,211268.078125,17359.0,1.0,1
230024.140625,243818.109375,247153.171875,243224.71875,225815.21875,226994.21875,221627.390625,211284.609375,17360.0,1.0,1
230084.75,243883.375,247174.71875,243261.46875,225914.546875,227029.453125,221678.796875,211323.765625,17361.0,1.0,1
230072.421875,243892.40625,247169.890625,243271.03125,226030.6875,227037.046875,221721.359375,211346.84375,17362.0,1.0,1
229949.03125,243782.359375,247121.078125,243210.234375,225930.546875,226984.125,221662.171875,211295.609375,17363.0,1.0,1
229944.828125,243759.203125,247114.1875,243190.5625,225819.15625,226967.84375,221617.828125,211268.96875,17364.0,1.0,1
230023.953125,243818.03125,247135.203125,243212.375,225808.328125,226992.703125,221620.859375,211278.625,17365.0,1.0,1
230077.15625,243874.171875,247156.03125,243246.359375,225900.859375,227023.375,221667.890625,211311.171875,17366.0,1.0,1
