EEG 1,EEG 2,EEG 3,EEG 4,EEG 5,EEG 6,EEG 7,EEG 8,Accelerometer X,Accelerometer Y,Accelerometer Z,Gyroscope X,Gyroscope Y,Gyroscope Z,Battery Level,Counter,Validation Indicator
3.852,4.219,4.034,0.478,5.401,6.040,-1.795,4.798,-0.082,0.915,-0.451,-0.763,-1.160,0.031,60.000,9233.000,1.000
6.183,6.143,5.074,1.399,4.957,8.808,0.481,4.566,-0.079,0.916,-0.453,-0.732,-1.190,0.000,60.000,9234.000,1.000
10.162,8.830,6.796,2.457,4.487,11.124,4.853,3.914,-0.079,0.917,-0.452,-0.732,-1.160,0.092,60.000,9235.000,1.000
14.764,11.622,8.705,3.508,4.048,12.289,9.071,2.765,-0.080,0.920,-0.452,-0.793,-1.068,0.122,60.000,9236.000,1.000
19.582,14.591,10.713,5.020,4.224,12.539,11.718,1.537,-0.083,0.921,-0.452,-0.946,-0.946,0.214,60.000,9237.000,1.000
23.927,17.454,12.521,7.060,5.177,12.420,12.346,0.370,-0.082,0.920,-0.450,-0.916,-0.946,0.214,60.000,9238.000,1.000
27.181,19.543,13.613,9.068,6.530,12.343,11.495,-0.912,-0.084,0.919,-0.454,-0.885,-0.885,0.305,60.000,9239.000,1.000
28.725,20.233,13.528,10.191,7.632,12.375,10.119,-2.401,-0.084,0.918,-0.454,-1.007,-0.916,0.366,60.000,9240.000,1.000
28.696,19.934,12.496,10.275,8.292,12.706,9.515,-3.640,-0.085,0.917,-0.454,-0.977,-0.702,0.397,60.000,9241.000,1.000
28.208,20.035,11.277,9.951,8.857,13.687,10.768,-4.048,-0.085,0.918,-0.452,-1.007,-0.793,0.458,60.000,9242.000,1.000
27.724,21.248,10.252,9.608,9.314,15.179,13.408,-3.683,-0.086,0.917,-0.448,-1.007,-0.824,0.427,60.000,9243.000,1.000
26.972,23.112,9.394,9.234,9.252,16.606,15.877,-2.966,-0.086,0.918,-0.449,-1.068,-0.916,0.427,60.000,9244.000,1.000
24.876,24.163,8.275,8.441,8.071,17.065,16.426,-2.441,-0.089,0.918,-0.448,-1.160,-0.946,0.397,60.000,9245.000,1.000
20.895,23.376,6.614,7.106,5.811,15.990,14.444,-2.396,-0.089,0.919,-0.452,-1.190,-0.977,0.427,60.000,9246.000,1.000
15.978,21.180,4.533,5.681,3.420,13.520,10.614,-2.711,-0.088,0.919,-0.450,-1.282,-0.946,0.366,60.000,9247.000,1.000
11.273,18.583,2.141,4.583,1.825,10.167,5.743,-3.087,-0.089,0.918,-0.452,-1.282,-0.946,0.305,60.000,9248.000,1.000
7.934,16.702,-0.284,4.155,1.585,6.860,1.105,-2.963,-0.088,0.916,-0.451,-1.221,-1.007,0.336,60.000,9249.000,1.000
6.132,15.913,-2.500,4.251,2.455,4.403,-1.717,-1.954,-0.086,0.916,-0.451,-1.312,-1.190,0.427,60.000,9250.000,1.000
5.088,15.742,-4.259,4.298,3.603,3.113,-1.468,-0.080,-0.084,0.915,-0.448,-1.343,-1.160,0.458,60.000,9251.000,1.000
4.073,15.563,-5.306,3.774,4.186,2.708,1.600,2.175,-0.084,0.916,-0.449,-1.404,-1.190,0.397,60.000,9252.000,1.000
2.616,14.949,-5.605,2.492,3.560,2.344,5.101,3.965,-0.084,0.917,-0.448,-1.404,-1.160,0.397,60.000,9253.000,1.000
1.262,14.173,-5.015,1.083,1.854,1.515,6.787,4.901,-0.087,0.916,-0.450,-1.373,-1.190,0.397,60.000,9254.000,1.000
0.419,13.357,-3.576,0.295,-0.330,0.397,6.178,5.272,-0.086,0.916,-0.450,-1.312,-1.190,0.519,60.000,9255.000,1.000
0.089,12.310,-1.547,0.443,-2.252,-0.349,4.599,5.746,-0.086,0.914,-0.449,-1.312,-1.129,0.397,60.000,9256.000,1.000
0.474,11.167,0.671,1.296,-3.348,-0.341,3.688,6.675,-0.088,0.914,-0.449,-1.343,-1.160,0.427,60.000,9257.000,1.000
1.473,10.262,2.571,2.222,-3.582,0.068,3.734,7.743,-0.085,0.913,-0.447,-1.312,-1.099,0.427,60.000,9258.000,1.000
3.248,10.234,4.106,3.082,-2.860,0.671,4.327,8.690,-0.084,0.911,-0.448,-1.312,-1.068,0.336,60.000,9259.000,1.000
5.559,11.198,5.354,3.955,-1.258,1.578,4.674,9.452,-0.085,0.912,-0.446,-1.221,-1.099,0.397,60.000,9260.000,1.000
7.911,12.625,6.337,4.851,0.767,2.950,4.096,10.039,-0.085,0.912,-0.448,-1.251,-1.038,0.336,60.000,9261.000,1.000
10.093,13.911,7.037,5.788,2.613,4.613,2.542,10.439,-0.085,0.914,-0.447,-1.282,-1.007,0.366,60.000,9262.000,1.000
11.350,14.281,7.190,6.533,3.543,5.784,0.200,10.514,-0.083,0.914,-0.450,-1.190,-1.007,0.305,60.000,9263.000,1.000
11.125,13.419,6.702,6.932,3.259,5.765,-2.340,10.267,-0.084,0.912,-0.448,-1.068,-0.946,0.275,60.000,9264.000,1.000
9.249,11.469,5.667,6.898,1.943,4.316,-4.742,9.685,-0.085,0.912,-0.451,-1.129,-0.977,0.336,60.000,9265.000,1.000
6.383,9.047,4.401,6.609,0.249,1.870,-6.842,8.785,-0.085,0.914,-0.450,-1.007,-0.854,0.305,60.000,9266.000,1.000
3.888,7.054,3.253,6.427,-1.029,-0.692,-8.117,7.676,-0.085,0.916,-0.450,-1.038,-0.977,0.244,60.000,9267.000,1.000
2.424,5.947,2.311,6.484,-1.548,-2.508,-7.953,6.505,-0.086,0.916,-0.449,-0.977,-0.854,0.183,60.000,9268.000,1.000
2.375,5.965,1.821,6.954,-1.129,-2.748,-5.748,5.658,-0.084,0.917,-0.449,-0.885,-0.916,0.244,60.000,9269.000,1.000
3.435,6.680,1.826,7.677,-0.057,-1.362,-2.210,5.196,-0.084,0.919,-0.447,-0.946,-0.854,0.183,60.000,9270.000,1.000
4.941,7.232,2.132,8.236,1.094,0.808,0.920,4.798,-0.084,0.920,-0.449,-0.977,-0.763,0.244,60.000,9271.000,1.000
6.630,7.135,2.533,8.303,2.009,2.685,2.623,4.257,-0.083,0.919,-0.450,-1.068,-0.793,0.275,60.000,9272.000,1.000
7.948,6.121,2.665,7.446,2.425,3.367,2.863,3.441,-0.085,0.919,-0.448,-1.129,-0.793,0.214,60.000,9273.000,1.000
8.600,4.408,2.320,5.503,2.213,2.660,2.225,2.185,-0.085,0.919,-0.449,-1.221,-0.732,0.244,60.000,9274.000,1.000
8.275,2.319,1.399,2.618,1.231,0.916,0.925,0.136,-0.087,0.921,-0.450,-1.251,-0.763,0.244,60.000,9275.000,1.000
7.063,0.317,0.192,-0.523,-0.255,-0.987,-0.679,-2.546,-0.087,0.920,-0.450,-1.373,-0.793,0.244,60.000,9276.000,1.000
5.846,-0.913,-0.595,-2.835,-1.380,-1.899,-1.505,-4.806,-0.087,0.919,-0.452,-1.282,-0.702,0.275,60.000,9277.000,1.000
5.169,-1.126,-0.465,-3.723,-1.501,-1.251,-0.945,-5.685,-0.088,0.918,-0.447,-1.312,-0.702,0.275,60.000,9278.000,1.000
5.756,-0.042,0.819,-3.088,-0.424,0.757,0.864,-5.085,-0.089,0.917,-0.452,-1.373,-0.641,0.244,60.000,9279.000,1.000
7.947,2.318,2.900,-1.464,1.270,3.065,2.989,-3.800,-0.088,0.917,-0.454,-1.312,-0.671,0.305,60.000,9280.000,1.000
11.124,5.082,5.032,0.248,2.550,4.495,4.536,-2.685,-0.088,0.917,-0.451,-1.312,-0.702,0.397,60.000,9281.000,1.000
13.994,6.854,6.521,1.271,2.772,4.697,5.359,-2.153,-0.088,0.916,-0.450,-1.312,-0.763,0.397,60.000,9282.000,1.000
14.913,6.449,6.792,1.081,1.895,4.031,5.472,-2.349,-0.087,0.915,-0.448,-1.190,-0.763,0.397,60.000,9283.000,1.000
13.623,4.118,5.786,-0.168,0.570,3.126,5.142,-3.039,-0.085,0.915,-0.450,-1.221,-0.763,0.427,60.000,9284.000,1.000
10.832,0.954,3.782,-2.029,-0.563,2.296,4.550,-3.905,-0.086,0.916,-0.449,-1.251,-0.641,0.488,60.000,9285.000,1.000
7.524,-1.842,1.451,-3.857,-1.074,1.820,4.026,-4.675,-0.083,0.917,-0.448,-1.221,-0.549,0.458,60.000,9286.000,1.000
4.639,-3.266,-0.397,-4.901,-0.697,2.019,4.042,-5.208,-0.084,0.916,-0.445,-1.190,-0.580,0.458,60.000,9287.000,1.000
2.007,-3.288,-1.547,-4.968,0.217,2.567,4.191,-5.659,-0.084,0.918,-0.443,-1.221,-0.549,0.458,60.000,9288.000,1.000
-0.642,-2.433,-2.161,-4.262,1.094,2.711,3.806,-6.079,-0.084,0.915,-0.445,-1.282,-0.549,0.580,60.000,9289.000,1.000
-3.452,-1.482,-2.679,-3.365,1.361,1.687,2.488,-6.379,-0.083,0.916,-0.446,-1.160,-0.488,0.610,60.000,9290.000,1.000
-6.350,-1.068,-3.514,-2.899,0.790,-0.740,0.375,-6.302,-0.082,0.917,-0.447,-1.221,-0.458,0.702,60.000,9291.000,1.000
-9.154,-1.592,-4.819,-3.193,-0.398,-4.127,-2.083,-5.644,-0.082,0.915,-0.447,-1.221,-0.336,0.732,60.000,9292.000,1.000
-12.236,-3.524,-6.574,-4.348,-1.926,-7.654,-4.601,-4.635,-0.082,0.916,-0.451,-1.160,-0.336,0.702,60.000,9293.000,1.000
-15.183,-6.427,-8.330,-5.894,-3.166,-10.133,-6.375,-3.584,-0.084,0.917,-0.451,-1.099,-0.275,0.671,60.000,9294.000,1.000
-17.200,-9.271,-9.755,-7.315,-3.560,-10.854,-6.859,-2.800,-0.083,0.917,-0.450,-1.129,-0.214,0.610,60.000,9295.000,1.000
-17.675,-11.073,-10.716,-8.230,-2.924,-10.001,-6.444,-2.343,-0.084,0.918,-0.448,-1.160,-0.305,0.702,60.000,9296.000,1.000
-16.196,-11.174,-11.006,-8.294,-1.425,-8.293,-5.981,-1.907,-0.084,0.918,-0.446,-1.160,-0.305,0.702,60.000,9297.000,1.000
-13.495,-9.984,-10.616,-7.694,0.218,-6.669,-6.262,-1.305,-0.085,0.916,-0.445,-1.160,-0.214,0.732,60.000,9298.000,1.000
-10.502,-8.413,-9.573,-6.883,1.368,-5.731,-7.007,-0.506,-0.084,0.918,-0.446,-1.343,-0.183,0.671,60.000,9299.000,1.000
-8.132,-7.472,-8.105,-6.399,1.641,-5.828,-7.468,0.231,-0.085,0.918,-0.448,-1.343,-0.183,0.641,60.000,9300.000,1.000
-6.914,-7.703,-6.490,-6.451,1.040,-6.920,-7.129,0.490,-0.085,0.918,-0.448,-1.343,-0.183,0.641,60.000,9301.000,1.000
-6.449,-8.651,-4.838,-6.672,0.071,-8.419,-5.993,0.056,-0.086,0.918,-0.445,-1.343,-0.122,0.610,60.000,9302.000,1.000
-6.263,-9.550,-3.223,-6.513,-0.711,-9.638,-4.882,-0.851,-0.084,0.917,-0.445,-1.373,-0.122,0.671,60.000,9303.000,1.000
-5.591,-9.612,-1.555,-5.345,-0.782,-9.919,-4.365,-1.452,-0.081,0.917,-0.446,-1.465,-0.122,0.702,60.000,9304.000,1.000
-4.138,-8.637,-0.012,-3.115,-0.197,-9.092,-4.781,-1.248,-0.082,0.917,-0.448,-1.434,-0.122,0.763,60.000,9305.000,1.000
-2.193,-6.962,1.074,-0.426,0.457,-7.477,-6.266,-0.373,-0.081,0.918,-0.448,-1.404,-0.153,0.732,60.000,9306.000,1.000
-0.304,-5.223,1.498,1.812,0.528,-5.630,-8.300,0.560,-0.082,0.917,-0.445,-1.343,-0.031,0.641,60.000,9307.000,1.000
0.343,-4.473,1.038,2.615,-0.569,-4.214,-9.938,0.614,-0.084,0.917,-0.446,-1.373,-0.031,0.610,60.000,9308.000,1.000
-0.550,-5.145,-0.122,1.870,-2.686,-3.372,-9.970,-0.604,-0.084,0.916,-0.445,-1.251,0.061,0.610,60.000,9309.000,1.000
-2.490,-7.077,-1.638,0.179,-5.209,-2.981,-8.333,-2.766,-0.085,0.913,-0.446,-1.373,0.031,0.580,60.000,9310.000,1.000
-4.602,-9.709,-3.126,-1.611,-7.414,-2.881,-6.198,-5.234,-0.084,0.914,-0.447,-1.373,0.092,0.488,60.000,9311.000,1.000
-5.719,-12.008,-4.189,-2.744,-8.694,-2.943,-4.728,-7.472,-0.084,0.916,-0.447,-1.465,0.061,0.549,60.000,9312.000,1.000
-5.671,-13.277,-4.733,-3.100,-9.108,-3.338,-4.710,-9.270,-0.083,0.916,-0.444,-1.373,0.122,0.519,60.000,9313.000,1.000
-4.863,-13.124,-4.651,-2.785,-8.900,-4.025,-5.787,-10.327,-0.086,0.917,-0.447,-1.343,0.031,0.397,60.000,9314.000,1.000
-4.115,-11.648,-3.968,-2.045,-8.276,-4.633,-6.898,-10.288,-0.085,0.916,-0.451,-1.343,0.061,0.458,60.000,9315.000,1.000
-3.824,-9.178,-2.754,-1.061,-7.234,-4.496,-6.829,-8.867,-0.083,0.917,-0.451,-1.282,0.000,0.458,60.000,9316.000,1.000
-3.471,-6.096,-1.062,0.123,-5.633,-2.971,-4.673,-6.122,-0.083,0.915,-0.448,-1.190,-0.092,0.549,60.000,9317.000,1.000
-3.102,-3.462,0.679,1.163,-3.785,-0.205,-0.828,-2.749,-0.083,0.916,-0.448,-1.160,-0.153,0.549,60.000,9318.000,1.000
-2.954,-2.205,2.040,1.761,-2.110,3.031,3.495,0.389,-0.083,0.917,-0.447,-1.190,-0.061,0.580,60.000,9319.000,1.000
-3.402,-2.736,2.662,1.670,-1.008,5.600,6.731,2.502,-0.082,0.918,-0.449,-1.282,-0.092,0.610,60.000,9320.000,1.000
-4.433,-4.740,2.488,0.957,-0.596,6.665,7.929,3.232,-0.084,0.919,-0.449,-1.282,-0.153,0.610,60.000,9321.000,1.000
-5.049,-6.952,1.894,0.175,-0.456,6.193,7.413,2.881,-0.082,0.918,-0.448,-1.282,-0.153,0.488,60.000,9322.000,1.000
-4.663,-8.069,1.216,-0.314,-0.199,4.608,5.933,2.004,-0.082,0.918,-0.448,-1.373,-0.214,0.549,60.000,9323.000,1.000
-3.249,-7.254,0.705,-0.427,0.423,2.612,4.451,1.179,-0.083,0.918,-0.447,-1.373,-0.122,0.549,60.000,9324.000,1.000
-1.553,-4.785,0.230,-0.434,1.263,0.624,3.521,0.586,-0.085,0.917,-0.449,-1.404,0.000,0.549,60.000,9325.000,1.000
-0.337,-1.708,-0.458,-0.486,2.024,-1.303,3.310,0.177,-0.083,0.917,-0.447,-1.312,-0.061,0.580,60.000,9326.000,1.000
0.221,0.856,-1.492,-0.420,2.518,-3.247,3.720,0.013,-0.082,0.917,-0.446,-1.373,-0.153,0.580,60.000,9327.000,1.000
-0.560,1.566,-3.203,-0.411,2.302,-5.463,3.625,0.038,-0.082,0.919,-0.448,-1.465,-0.214,0.549,60.000,9328.000,1.000
-2.882,-0.147,-5.595,-0.682,1.196,-7.824,1.859,0.117,-0.081,0.917,-0.449,-1.312,-0.153,0.549,60.000,9329.000,1.000
-6.168,-3.730,-8.152,-1.319,-0.560,-9.807,-1.725,-0.078,-0.082,0.918,-0.448,-1.343,-0.092,0.702,60.000,9330.000,1.000
-9.192,-7.752,-9.960,-2.067,-2.356,-10.752,-5.875,-0.637,-0.083,0.917,-0.448,-1.373,-0.092,0.671,60.000,9331.000,1.000
-10.473,-10.436,-10.266,-2.449,-3.480,-10.317,-8.855,-1.029,-0.085,0.916,-0.447,-1.373,-0.122,0.610,60.000,9332.000,1.000
-9.864,-10.946,-9.203,-2.403,-3.809,-8.923,-10.131,-0.773,-0.085,0.917,-0.448,-1.373,-0.061,0.702,60.000,9333.000,1.000
-8.093,-9.488,-7.330,-1.968,-3.511,-7.183,-9.941,0.080,-0.086,0.915,-0.450,-1.312,-0.153,0.641,60.000,9334.000,1.000
-6.461,-7.235,-5.321,-1.287,-2.944,-5.713,-8.882,0.815,-0.086,0.916,-0.450,-1.282,-0.214,0.580,60.000,9335.000,1.000
-5.879,-5.451,-3.597,-0.523,-2.411,-4.886,-7.460,0.670,-0.086,0.916,-0.448,-1.312,-0.275,0.610,60.000,9336.000,1.000
-6.116,-4.628,-2.300,0.153,-2.006,-4.593,-5.876,-0.578,-0.086,0.915,-0.449,-1.312,-0.336,0.580,60.000,9337.000,1.000
-7.025,-4.919,-1.737,0.205,-1.978,-4.548,-4.551,-2.656,-0.086,0.916,-0.449,-1.343,-0.336,0.549,60.000,9338.000,1.000
-8.194,-5.826,-1.890,-0.629,-2.170,-4.130,-3.325,-4.636,-0.084,0.914,-0.446,-1.343,-0.427,0.458,60.000,9339.000,1.000
-9.105,-6.460,-2.331,-2.143,-2.048,-2.785,-1.654,-5.454,-0.084,0.914,-0.447,-1.343,-0.427,0.519,60.000,9340.000,1.000
-9.223,-6.027,-2.376,-3.747,-1.142,-0.429,0.666,-4.600,-0.085,0.916,-0.447,-1.282,-0.458,0.519,60.000,9341.000,1.000
-8.139,-4.258,-1.552,-4.826,0.533,2.400,3.141,-2.484,-0.084,0.917,-0.445,-1.312,-0.366,0.458,60.000,9342.000,1.000
-6.752,-2.054,-0.267,-5.422,2.086,4.521,4.461,-0.241,-0.084,0.917,-0.448,-1.312,-0.458,0.458,60.000,9343.000,1.000
-6.044,-0.479,0.793,-5.709,2.659,5.102,4.024,1.344,-0.084,0.918,-0.446,-1.282,-0.671,0.519,60.000,9344.000,1.000
-6.222,0.024,1.313,-5.718,2.060,4.347,2.285,2.260,-0.084,0.915,-0.447,-1.221,-0.610,0.519,60.000,9345.000,1.000
-6.177,0.116,1.812,-5.197,1.050,3.616,0.500,3.150,-0.086,0.916,-0.448,-1.282,-0.641,0.488,60.000,9346.000,1.000
-4.190,0.962,3.172,-3.873,0.830,4.409,0.175,4.615,-0.085,0.917,-0.448,-1.221,-0.610,0.580,60.000,9347.000,1.000
-0.582,2.294,5.251,-2.326,1.533,6.638,1.553,6.301,-0.086,0.917,-0.448,-1.160,-0.580,0.488,60.000,9348.000,1.000
2.918,2.882,6.978,-1.450,2.245,8.796,3.686,7.312,-0.085,0.918,-0.447,-1.221,-0.702,0.427,60.000,9349.000,1.000
4.770,1.962,7.248,-1.715,1.886,9.290,5.078,6.915,-0.087,0.920,-0.444,-1.221,-0.702,0.458,60.000,9350.000,1.000
4.887,0.041,5.926,-2.752,0.280,7.840,5.113,5.064,-0.089,0.920,-0.446,-1.251,-0.763,0.488,60.000,9351.000,1.000
4.548,-1.589,3.828,-3.750,-1.690,5.497,4.603,2.371,-0.088,0.921,-0.445,-1.312,-0.977,0.488,60.000,9352.000,1.000
4.350,-2.352,1.730,-4.446,-3.207,3.251,3.925,-0.408,-0.089,0.919,-0.442,-1.434,-0.885,0.519,60.000,9353.000,1.000
4.297,-2.304,0.180,-4.899,-3.797,1.598,2.651,-2.442,-0.086,0.921,-0.445,-1.556,-0.977,0.427,60.000,9354.000,1.000
3.735,-2.103,-0.870,-5.425,-3.643,0.391,0.153,-3.340,-0.087,0.918,-0.447,-1.526,-0.977,0.427,60.000,9355.000,1.000
2.029,-2.494,-1.944,-6.283,-3.469,-0.946,-3.439,-3.304,-0.086,0.917,-0.447,-1.648,-1.129,0.397,60.000,9356.000,1.000
-0.438,-3.476,-3.441,-7.236,-3.830,-2.879,-7.001,-2.797,-0.085,0.917,-0.449,-1.587,-1.129,0.427,60.000,9357.000,1.000
-3.435,-4.967,-5.608,-8.056,-5.039,-5.641,-9.694,-2.551,-0.086,0.917,-0.445,-1.404,-1.190,0.458,60.000,9358.000,1.000
-6.922,-7.053,-8.372,-8.707,-7.078,-9.020,-11.331,-3.198,-0.085,0.917,-0.447,-1.312,-1.160,0.427,60.000,9359.000,1.000
-11.170,-10.139,-11.631,-9.546,-9.991,-12.755,-12.653,-5.097,-0.085,0.916,-0.448,-1.373,-1.129,0.366,60.000,9360.000,1.000
-16.049,-14.337,-15.114,-10.833,-13.678,-16.540,-14.549,-8.183,-0.083,0.915,-0.447,-1.495,-1.160,0.519,60.000,9361.000,1.000
-20.255,-18.785,-18.069,-12.194,-17.416,-19.741,-17.052,-11.969,-0.085,0.913,-0.449,-1.343,-1.038,0.580,60.000,9362.000,1.000
-22.508,-22.175,-19.503,-12.942,-20.169,-21.603,-19.717,-15.744,-0.084,0.911,-0.448,-1.251,-1.099,0.580,60.000,9363.000,1.000
-21.637,-22.944,-18.284,-12.120,-20.670,-21.323,-21.424,-18.372,-0.082,0.910,-0.449,-1.221,-0.977,0.580,60.000,9364.000,1.000
-17.574,-20.381,-14.074,-9.287,-18.270,-18.759,-21.112,-18.823,-0.081,0.911,-0.449,-1.099,-0.916,0.580,60.000,9365.000,1.000
-11.413,-15.052,-7.711,-4.836,-13.378,-14.546,-18.386,-16.621,-0.081,0.914,-0.449,-0.977,-0.916,0.549,60.000,9366.000,1.000
-4.338,-8.149,-0.711,0.423,-7.114,-9.568,-13.487,-11.931,-0.082,0.915,-0.448,-0.916,-0.854,0.549,60.000,9367.000,1.000
2.032,-1.443,5.174,5.401,-1.161,-4.824,-7.614,-5.767,-0.082,0.919,-0.445,-0.793,-0.854,0.549,60.000,9368.000,1.000
6.623,3.755,8.889,9.402,3.191,-0.896,-1.946,0.534,-0.081,0.923,-0.446,-0.854,-0.824,0.580,60.000,9369.000,1.000
9.112,7.149,10.251,12.128,5.501,2.067,2.725,5.804,-0.084,0.922,-0.446,-1.068,-0.732,0.549,60.000,9370.000,1.000
10.005,9.385,9.825,13.594,6.234,4.264,6.178,9.486,-0.084,0.923,-0.450,-1.190,-0.641,0.519,60.000,9371.000,1.000
10.641,11.494,8.609,14.120,6.389,6.138,8.885,11.649,-0.082,0.925,-0.449,-1.312,-0.610,0.458,60.000,9372.000,1.000
11.782,13.821,7.486,14.015,6.665,8.037,11.359,12.600,-0.084,0.924,-0.446,-1.587,-0.610,0.366,60.000,9373.000,1.000
13.889,16.391,7.306,13.838,7.557,10.278,14.136,12.937,-0.081,0.921,-0.451,-1.709,-0.458,0.488,60.000,9374.000,1.000
16.592,18.809,8.313,13.860,9.031,12.473,16.689,13.043,-0.076,0.916,-0.450,-1.709,-0.366,0.519,60.000,9375.000,1.000
18.646,20.251,9.947,13.827,10.455,13.527,17.441,12.828,-0.075,0.913,-0.451,-1.770,-0.244,0.580,60.000,9376.000,1.000
19.001,20.107,11.405,13.386,11.173,12.690,15.431,12.105,-0.074,0.908,-0.449,-1.648,-0.061,0.641,60.000,9377.000,1.000
16.935,18.165,12.101,12.293,10.754,10.174,11.046,10.814,-0.075,0.909,-0.450,-1.495,0.153,0.580,60.000,9378.000,1.000
13.137,15.234,12.283,11.011,9.622,7.338,6.347,9.337,-0.078,0.911,-0.453,-1.312,0.275,0.702,60.000,9379.000,1.000
8.959,12.540,12.497,10.270,8.737,5.752,3.631,8.225,-0.079,0.917,-0.449,-1.251,0.366,0.763,60.000,9380.000,1.000
5.667,11.198,13.084,10.585,9.087,6.399,4.101,8.005,-0.080,0.922,-0.445,-1.434,0.519,0.732,60.000,9381.000,1.000
4.543,12.185,14.166,12.155,11.338,9.324,7.623,9.040,-0.079,0.924,-0.445,-1.465,0.549,0.885,60.000,9382.000,1.000
5.760,15.451,15.392,14.364,15.081,13.397,12.665,10.988,-0.079,0.927,-0.445,-1.678,0.519,0.885,60.000,9383.000,1.000
8.820,20.060,16.314,16.210,19.182,17.256,17.707,12.979,-0.081,0.926,-0.447,-1.801,0.641,0.793,60.000,9384.000,1.000
12.476,24.427,16.506,16.727,22.251,19.986,21.562,14.019,-0.085,0.922,-0.448,-1.862,0.641,0.763,60.000,9385.000,1.000
15.489,27.287,15.924,15.681,23.407,21.504,23.447,13.682,-0.090,0.919,-0.448,-1.862,0.580,0.732,60.000,9386.000,1.000
17.836,28.692,15.061,13.847,22.763,22.445,23.562,12.289,-0.096,0.920,-0.446,-1.862,0.397,0.702,60.000,9387.000,1.000
19.510,29.017,14.244,11.991,20.667,23.272,22.553,10.172,-0.099,0.920,-0.443,-1.831,0.183,0.580,60.000,9388.000,1.000
20.388,28.440,13.644,10.516,17.570,24.140,21.348,7.560,-0.098,0.919,-0.444,-1.770,0.031,0.549,60.000,9389.000,1.000
20.050,26.832,13.301,9.361,14.015,24.874,20.443,4.730,-0.097,0.920,-0.444,-1.740,-0.275,0.427,60.000,9390.000,1.000
18.380,24.433,13.283,8.400,10.806,25.181,19.812,2.285,-0.098,0.919,-0.441,-1.770,-0.580,0.458,60.000,9391.000,1.000
16.262,22.294,13.550,7.676,8.893,24.790,19.230,0.977,-0.095,0.918,-0.443,-1.801,-0.732,0.397,60.000,9392.000,1.000
14.086,20.973,13.408,6.857,8.479,23.218,17.880,0.956,-0.095,0.919,-0.445,-1.801,-0.977,0.336,60.000,9393.000,1.000
11.700,20.150,12.043,5.551,9.083,20.231,15.144,1.774,-0.094,0.918,-0.448,-1.801,-1.221,0.214,60.000,9394.000,1.000
8.203,18.708,8.941,3.477,9.657,15.966,10.852,2.475,-0.092,0.918,-0.448,-1.770,-1.190,0.214,60.000,9395.000,1.000
2.761,15.743,4.382,0.803,9.193,11.214,5.686,2.118,-0.090,0.920,-0.450,-1.770,-1.282,0.153,60.000,9396.000,1.000
-3.728,11.769,-0.425,-1.653,7.519,7.327,1.320,0.406,-0.088,0.921,-0.452,-1.740,-1.343,0.244,60.000,9397.000,1.000
-9.156,8.224,-4.223,-3.152,5.008,5.098,-1.148,-2.316,-0.083,0.921,-0.449,-1.831,-1.434,0.366,60.000,9398.000,1.000
-11.017,6.708,-6.184,-3.293,2.352,4.367,-1.718,-5.089,-0.081,0.921,-0.448,-1.831,-1.465,0.458,60.000,9399.000,1.000
-9.071,7.171,-6.578,-2.689,-0.289,3.920,-1.775,-7.219,-0.081,0.921,-0.445,-1.801,-1.434,0.519,60.000,9400.000,1.000
-5.812,7.677,-6.439,-2.616,-3.244,2.366,-3.003,-8.758,-0.079,0.920,-0.442,-1.740,-1.343,0.610,60.000,9401.000,1.000
-3.011,6.842,-6.195,-3.411,-6.002,-0.434,-5.323,-9.803,-0.077,0.921,-0.444,-1.801,-1.251,0.793,60.000,9402.000,1.000
0.049,5.251,-5.302,-4.122,-7.115,-3.346,-7.030,-10.034,-0.077,0.918,-0.443,-1.801,-1.221,0.763,60.000,9403.000,1.000
5.479,4.825,-2.987,-3.512,-5.352,-4.898,-6.161,-9.027,-0.076,0.915,-0.444,-1.587,-1.129,0.793,60.000,9404.000,1.000
12.189,5.713,0.096,-2.001,-1.660,-4.952,-2.986,-7.287,-0.076,0.916,-0.444,-1.495,-0.916,0.916,60.000,9405.000,1.000
15.137,5.352,2.054,-1.382,1.173,-4.850,-0.194,-5.940,-0.074,0.915,-0.441,-1.526,-0.793,1.007,60.000,9406.000,1.000
11.572,2.021,2.009,-2.150,1.565,-5.509,0.284,-5.125,-0.076,0.916,-0.445,-1.434,-0.610,0.854,60.000,9407.000,1.000
5.269,-2.308,1.075,-2.499,0.772,-6.219,-0.724,-3.555,-0.076,0.914,-0.446,-1.465,-0.549,1.038,60.000,9408.000,1.000
3.303,-3.577,0.978,-0.305,1.304,-5.586,-0.870,0.065,-0.076,0.914,-0.444,-1.312,-0.336,1.007,60.000,9409.000,1.000
6.862,-1.018,1.406,3.522,3.265,-4.040,-0.273,4.845,-0.075,0.914,-0.445,-1.282,-0.214,0.946,60.000,9410.000,1.000
9.482,1.580,0.369,5.575,4.092,-3.687,-1.679,8.287,-0.077,0.916,-0.442,-1.221,-0.031,0.824,60.000,9411.000,1.000
6.140,0.871,-2.727,4.163,2.299,-5.400,-5.979,9.202,-0.077,0.914,-0.441,-1.221,0.031,0.854,60.000,9412.000,1.000
-0.317,-2.254,-6.037,1.165,-0.493,-7.619,-10.217,8.755,-0.075,0.916,-0.441,-1.068,0.214,0.641,60.000,9413.000,1.000
-2.497,-4.048,-7.190,-0.176,-1.391,-8.061,-10.397,8.749,-0.075,0.914,-0.444,-1.099,0.366,0.702,60.000,9414.000,1.000
1.507,-3.275,-6.325,0.753,-0.157,-6.606,-6.732,9.159,-0.075,0.913,-0.441,-0.946,0.458,0.702,60.000,9415.000,1.000
5.769,-2.702,-5.803,1.676,0.502,-5.180,-3.553,8.510,-0.074,0.914,-0.440,-0.977,0.580,0.580,60.000,9416.000,1.000
5.216,-4.555,-6.887,0.972,-1.164,-4.939,-3.593,6.440,-0.075,0.912,-0.443,-0.885,0.702,0.427,60.000,9417.000,1.000
1.618,-7.506,-8.352,-0.462,-3.797,-5.135,-5.227,4.508,-0.075,0.914,-0.442,-0.854,0.885,0.366,60.000,9418.000,1.000
0.742,-8.476,-8.191,-0.658,-4.654,-4.441,-5.024,4.521,-0.076,0.914,-0.445,-0.732,0.916,0.305,60.000,9419.000,1.000
4.163,-7.086,-6.460,0.394,-3.276,-3.099,-2.680,6.179,-0.077,0.913,-0.447,-0.641,1.099,0.244,60.000,9420.000,1.000
7.598,-6.150,-5.034,0.731,-1.913,-2.597,-1.244,7.299,-0.076,0.916,-0.445,-0.549,1.190,0.122,60.000,9421.000,1.000
7.293,-7.750,-5.024,-0.807,-2.523,-3.551,-2.744,6.126,-0.076,0.918,-0.443,-0.580,1.312,0.061,60.000,9422.000,1.000
4.002,-11.091,-5.838,-3.378,-4.957,-5.093,-6.074,2.750,-0.076,0.921,-0.444,-0.641,1.282,0.061,60.000,9423.000,1.000
1.760,-13.422,-6.070,-5.045,-7.445,-5.756,-8.362,-1.110,-0.077,0.919,-0.445,-0.732,1.343,0.031,60.000,9424.000,1.000
2.535,-13.366,-5.375,-5.154,-8.976,-5.207,-8.495,-3.969,-0.081,0.918,-0.445,-0.702,1.526,0.061,60.000,9425.000,1.000
4.328,-12.241,-4.647,-4.874,-10.149,-4.372,-7.743,-5.600,-0.080,0.919,-0.446,-0.763,1.465,0.092,60.000,9426.000,1.000
4.720,-12.009,-4.604,-5.524,-11.741,-4.107,-7.175,-6.416,-0.080,0.919,-0.446,-0.732,1.404,0.092,60.000,9427.000,1.000
3.181,-13.593,-5.278,-7.505,-13.916,-4.762,-6.738,-6.858,-0.081,0.920,-0.445,-0.732,1.373,0.061,60.000,9428.000,1.000
1.295,-16.278,-6.115,-10.034,-16.155,-6.178,-5.734,-7.195,-0.083,0.923,-0.445,-0.732,1.373,0.061,60.000,9429.000,1.000
0.167,-19.110,-6.829,-12.224,-18.159,-8.261,-4.505,-7.956,-0.084,0.925,-0.447,-0.885,1.251,0.031,60.000,9430.000,1.000
-0.689,-21.742,-7.497,-13.724,-20.029,-11.047,-4.468,-9.571,-0.085,0.924,-0.446,-0.916,1.099,0.122,60.000,9431.000,1.000
-2.050,-23.933,-8.122,-14.555,-21.626,-14.311,-6.474,-11.744,-0.087,0.923,-0.446,-1.068,1.007,0.183,60.000,9432.000,1.000
-4.995,-25.777,-8.838,-15.233,-22.685,-17.669,-10.403,-13.931,-0.086,0.922,-0.445,-1.068,0.916,0.336,60.000,9433.000,1.000
-9.533,-27.021,-9.462,-15.968,-22.566,-20.177,-14.567,-15.554,-0.086,0.924,-0.445,-1.129,0.885,0.336,60.000,9434.000,1.000
-14.182,-26.984,-9.481,-16.323,-20.573,-20.664,-16.381,-16.151,-0.088,0.924,-0.444,-1.190,0.641,0.214,60.000,9435.000,1.000
-16.851,-25.138,-8.446,-15.597,-16.543,-18.542,-14.078,-15.424,-0.090,0.924,-0.444,-1.129,0.488,0.275,60.000,9436.000,1.000
-16.529,-21.847,-6.493,-13.625,-11.278,-14.420,-8.274,-13.430,-0.089,0.925,-0.442,-1.190,0.244,0.305,60.000,9437.000,1.000
-15.416,-19.082,-4.749,-11.472,-6.737,-10.186,-2.414,-10.960,-0.090,0.925,-0.442,-1.221,0.122,0.397,60.000,9438.000,1.000
-16.272,-18.428,-4.066,-10.079,-4.338,-7.420,0.380,-8.807,-0.089,0.925,-0.444,-1.312,-0.061,0.458,60.000,9439.000,1.000
-19.365,-19.460,-4.137,-9.260,-3.774,-6.336,-0.012,-7.108,-0.088,0.924,-0.443,-1.312,-0.153,0.427,60.000,9440.000,1.000
-22.453,-20.329,-3.853,-8.096,-3.562,-6.132,-1.103,-5.444,-0.086,0.923,-0.446,-1.282,-0.305,0.458,60.000,9441.000,1.000
-23.331,-19.574,-2.514,-6.106,-2.601,-6.111,-0.697,-3.654,-0.086,0.921,-0.445,-1.312,-0.458,0.519,60.000,9442.000,1.000
-23.018,-17.868,-0.890,-4.223,-1.428,-6.488,0.462,-2.438,-0.085,0.917,-0.443,-1.129,-0.610,0.549,60.000,9443.000,1.000
-23.624,-16.659,-0.131,-3.601,-0.994,-7.470,0.672,-2.252,-0.084,0.914,-0.445,-1.160,-0.671,0.519,60.000,9444.000,1.000
-25.147,-16.272,-0.477,-4.293,-1.287,-8.574,-0.129,-2.450,-0.082,0.915,-0.447,-1.068,-0.793,0.519,60.000,9445.000,1.000
-25.243,-15.627,-1.026,-5.082,-1.247,-8.838,-0.308,-1.731,-0.082,0.914,-0.449,-1.007,-0.854,0.549,60.000,9446.000,1.000
-22.312,-13.853,-0.891,-4.783,-0.025,-7.860,1.109,0.440,-0.078,0.916,-0.447,-0.916,-0.854,0.549,60.000,9447.000,1.000
-19.006,-12.312,-0.620,-3.907,1.470,-6.761,2.106,2.924,-0.077,0.917,-0.446,-0.763,-0.916,0.549,60.000,9448.000,1.000
-18.895,-12.740,-1.115,-3.502,1.859,-6.769,0.255,4.420,-0.075,0.917,-0.447,-0.671,-0.885,0.610,60.000,9449.000,1.000
-21.753,-14.606,-2.260,-3.539,1.158,-7.716,-3.989,5.005,-0.076,0.914,-0.445,-0.610,-0.885,0.671,60.000,9450.000,1.000
-23.598,-15.309,-3.030,-3.004,0.808,-8.262,-7.515,5.883,-0.081,0.915,-0.445,-0.580,-0.793,0.641,60.000,9451.000,1.000
-21.456,-13.119,-2.884,-1.518,1.827,-7.481,-7.845,7.729,-0.085,0.917,-0.447,-0.427,-0.885,0.488,60.000,9452.000,1.000
-17.972,-9.887,-2.778,-0.580,3.017,-6.135,-6.079,9.475,-0.090,0.919,-0.445,-0.488,-0.854,0.427,60.000,9453.000,1.000
-17.546,-8.684,-3.564,-1.632,2.628,-5.351,-4.737,9.733,-0.090,0.919,-0.445,-0.397,-1.007,0.305,60.000,9454.000,1.000
-20.292,-10.016,-4.562,-3.956,0.794,-5.036,-4.482,8.576,-0.088,0.918,-0.445,-0.366,-1.190,0.122,60.000,9455.000,1.000
-21.443,-11.163,-4.121,-5.069,-0.357,-3.954,-3.593,7.468,-0.086,0.917,-0.447,-0.397,-1.251,0.031,60.000,9456.000,1.000
-17.056,-9.451,-1.724,-3.405,0.706,-1.523,-0.651,7.351,-0.084,0.915,-0.445,-0.305,-1.373,-0.092,60.000,9457.000,1.000
-10.064,-6.126,0.764,-0.417,2.560,0.814,2.594,7.334,-0.084,0.916,-0.446,-0.244,-1.495,-0.153,60.000,9458.000,1.000
-6.301,-4.358,1.363,1.568,2.988,1.482,3.707,6.425,-0.083,0.914,-0.442,-0.244,-1.495,-0.244,60.000,9459.000,1.000
-7.002,-4.915,0.176,2.142,1.980,0.777,2.845,5.099,-0.083,0.912,-0.445,-0.244,-1.495,-0.275,60.000,9460.000,1.000
-7.666,-5.276,-1.132,2.715,1.471,0.327,2.345,4.414,-0.086,0.913,-0.445,-0.275,-1.434,-0.397,60.000,9461.000,1.000
-4.589,-3.126,-1.695,3.964,2.440,0.872,3.354,4.169,-0.086,0.913,-0.446,-0.244,-1.495,-0.427,60.000,9462.000,1.000
-1.478,-0.215,-2.813,4.106,2.964,1.087,3.456,2.629,-0.087,0.911,-0.448,-0.305,-1.556,-0.427,60.000,9463.000,1.000
-4.310,0.205,-5.557,1.568,0.970,-0.138,0.261,-1.085,-0.088,0.913,-0.448,-0.153,-1.617,-0.458,60.000,9464.000,1.000
-11.746,-1.468,-8.427,-2.058,-2.384,-1.541,-4.426,-5.351,-0.087,0.913,-0.447,0.031,-1.617,-0.397,60.000,9465.000,1.000
-14.606,-0.793,-8.568,-3.166,-3.420,-0.533,-5.721,-7.415,-0.084,0.913,-0.448,0.214,-1.740,-0.458,60.000,9466.000,1.000
-6.913,4.907,-5.536,-0.740,-0.562,3.374,-1.529,-6.723,-0.087,0.916,-0.447,0.153,-1.770,-0.275,60.000,9467.000,1.000
4.326,11.379,-2.878,1.241,2.599,6.834,3.491,-6.313,-0.087,0.916,-0.443,0.244,-1.709,-0.366,60.000,9468.000,1.000
7.049,11.976,-3.983,-1.493,1.523,6.264,3.214,-9.263,-0.085,0.917,-0.442,0.092,-1.801,-0.275,60.000,9469.000,1.000
-0.958,5.874,-7.850,-7.955,-3.481,2.054,-2.550,-14.805,-0.084,0.919,-0.446,0.092,-1.770,-0.214,60.000,9470.000,1.000
-9.463,-0.627,-10.018,-12.611,-7.363,-1.745,-7.795,-18.816,-0.084,0.919,-0.444,0.061,-1.678,-0.122,60.000,9471.000,1.000
-8.219,-1.239,-7.552,-11.521,-6.094,-1.815,-7.329,-18.065,-0.084,0.919,-0.443,0.153,-1.740,0.000,60.000,9472.000,1.000
0.645,3.095,-2.331,-6.758,-1.323,1.007,-2.904,-13.496,-0.084,0.919,-0.446,0.092,-1.709,0.061,60.000,9473.000,1.000
7.425,6.899,1.792,-3.126,2.343,3.724,0.121,-8.481,-0.084,0.918,-0.444,-0.122,-1.740,0.214,60.000,9474.000,1.000
7.565,7.581,3.246,-2.615,2.784,4.863,-0.452,-5.256,-0.083,0.920,-0.445,-0.031,-1.678,0.275,60.000,9475.000,1.000
5.741,7.804,3.523,-3.104,1.978,5.426,-1.881,-3.586,-0.084,0.921,-0.447,-0.092,-1.617,0.305,60.000,9476.000,1.000
8.211,10.909,4.451,-1.780,2.758,6.736,-0.859,-2.318,-0.084,0.920,-0.446,0.000,-1.587,0.336,60.000,9477.000,1.000
13.786,15.681,5.598,1.214,4.976,8.234,1.703,-1.389,-0.084,0.919,-0.449,-0.092,-1.678,0.397,60.000,9478.000,1.000
16.832,18.525,5.703,4.012,6.657,8.779,2.947,-1.222,-0.082,0.921,-0.450,-0.031,-1.587,0.458,60.000,9479.000,1.000
15.215,18.387,4.883,5.859,7.068,8.542,2.402,-1.370,-0.083,0.923,-0.443,-0.153,-1.587,0.519,60.000,9480.000,1.000
12.263,17.590,4.592,7.635,7.349,8.741,2.250,-0.536,-0.082,0.922,-0.447,-0.336,-1.526,0.671,60.000,9481.000,1.000
11.937,18.498,5.761,10.088,8.532,9.826,4.038,2.030,-0.083,0.924,-0.450,-0.549,-1.373,0.580,60.000,9482.000,1.000
13.440,20.307,7.463,12.235,9.693,10.501,6.172,5.398,-0.082,0.923,-0.448,-0.610,-1.282,0.610,60.000,9483.000,1.000
13.535,20.746,8.346,12.745,9.411,9.534,6.477,8.020,-0.083,0.922,-0.451,-0.793,-1.160,0.671,60.000,9484.000,1.000
10.698,18.857,8.053,11.430,7.560,7.293,4.829,9.033,-0.082,0.922,-0.450,-0.824,-1.190,0.702,60.000,9485.000,1.000
6.325,15.774,7.334,9.363,5.465,5.585,3.197,8.681,-0.083,0.921,-0.449,-1.007,-1.099,0.610,60.000,9486.000,1.000
3.562,13.777,7.282,8.083,4.845,6.309,4.058,7.965,-0.084,0.921,-0.448,-1.068,-0.946,0.671,60.000,9487.000,1.000
4.195,14.026,8.178,8.225,6.170,9.709,7.902,7.690,-0.082,0.921,-0.445,-1.190,-0.885,0.610,60.000,9488.000,1.000
7.967,15.974,9.559,9.392,8.583,14.241,13.034,8.111,-0.081,0.922,-0.447,-1.373,-0.793,0.671,60.000,9489.000,1.000
12.276,17.459,10.329,10.194,10.267,17.233,16.154,8.588,-0.081,0.919,-0.445,-1.495,-0.580,0.610,60.000,9490.000,1.000
13.611,16.111,9.552,9.225,9.560,16.506,14.229,8.082,-0.080,0.918,-0.444,-1.495,-0.519,0.580,60.000,9491.000,1.000
11.622,12.120,7.868,6.947,6.784,12.431,7.755,6.622,-0.081,0.915,-0.446,-1.556,-0.488,0.458,60.000,9492.000,1.000
9.847,8.461,7.113,5.548,4.122,7.820,0.899,5.471,-0.081,0.913,-0.446,-1.709,-0.366,0.458,60.000,9493.000,1.000
12.242,8.254,8.512,6.837,3.645,5.709,-1.884,5.699,-0.080,0.914,-0.446,-1.648,-0.305,0.488,60.000,9494.000,1.000
17.154,10.817,10.809,9.745,4.752,6.469,-0.596,6.539,-0.079,0.914,-0.446,-1.495,-0.183,0.366,60.000,9495.000,1.000
18.220,12.202,11.492,11.425,4.872,7.992,0.724,6.266,-0.080,0.911,-0.444,-1.556,-0.153,0.366,60.000,9496.000,1.000
13.569,10.736,10.090,11.124,3.210,8.736,-0.192,4.520,-0.079,0.910,-0.443,-1.495,0.092,0.366,60.000,9497.000,1.000
9.344,9.281,8.714,11.001,1.890,9.061,-1.321,2.653,-0.080,0.909,-0.445,-1.495,0.153,0.305,60.000,9498.000,1.000
12.540,11.439,9.459,13.109,3.165,9.838,0.279,1.935,-0.079,0.912,-0.443,-1.404,0.244,0.305,60.000,9499.000,1.000
20.304,15.654,11.236,15.734,5.567,10.088,2.991,1.287,-0.081,0.913,-0.443,-1.434,0.275,0.275,60.000,9500.000,1.000
22.054,16.290,10.996,15.003,5.166,8.020,2.220,-1.661,-0.082,0.917,-0.446,-1.282,0.305,0.183,60.000,9501.000,1.000
14.475,11.742,8.399,10.671,1.376,4.642,-1.840,-6.750,-0.083,0.919,-0.444,-1.190,0.366,0.244,60.000,9502.000,1.000
7.459,7.495,6.644,7.308,-1.538,3.628,-3.017,-10.605,-0.083,0.922,-0.443,-1.251,0.427,0.183,60.000,9503.000,1.000
12.020,9.449,8.066,8.781,0.249,6.805,2.943,-10.494,-0.085,0.924,-0.440,-1.434,0.427,0.153,60.000,9504.000,1.000
23.240,14.682,9.786,12.205,3.920,10.470,10.548,-8.342,-0.086,0.925,-0.444,-1.556,0.458,0.214,60.000,9505.000,1.000
24.005,13.773,6.911,10.894,2.686,8.960,9.634,-8.486,-0.086,0.924,-0.443,-1.648,0.336,0.214,60.000,9506.000,1.000
9.707,4.648,0.350,4.162,-4.202,2.363,-0.472,-11.215,-0.089,0.921,-0.444,-1.526,0.366,0.092,60.000,9507.000,1.000
-0.985,-1.702,-2.485,-0.186,-8.506,-2.612,-7.816,-11.613,-0.091,0.922,-0.446,-1.465,0.275,0.122,60.000,9508.000,1.000
11.711,5.882,3.344,4.373,-2.941,-0.769,-1.922,-6.239,-0.091,0.922,-0.447,-1.373,0.336,0.000,60.000,9509.000,1.000
38.169,21.438,12.144,12.573,7.430,3.944,10.895,0.597,-0.091,0.923,-0.445,-1.404,0.183,0.061,60.000,9510.000,1.000
46.128,26.175,13.180,12.464,9.701,2.913,13.789,1.101,-0.092,0.924,-0.445,-1.282,0.031,0.000,60.000,9511.000,1.000
21.998,12.303,4.342,1.319,-0.157,-5.343,1.500,-5.590,-0.093,0.925,-0.443,-1.190,-0.061,0.061,60.000,9512.000,1.000
-9.730,-6.056,-4.931,-9.898,-11.411,-12.726,-12.364,-11.550,-0.091,0.921,-0.448,-1.129,-0.092,0.031,60.000,9513.000,1.000
-15.490,-9.570,-5.240,-9.681,-11.460,-11.731,-12.294,-9.495,-0.093,0.921,-0.444,-1.099,-0.214,0.000,60.000,9514.000,1.000
5.593,2.514,1.258,-0.344,-1.480,-5.155,-0.592,-1.687,-0.092,0.919,-0.444,-1.160,-0.397,-0.031,60.000,9515.000,1.000
22.452,12.691,4.717,5.640,5.958,-2.056,6.686,3.623,-0.089,0.916,-0.446,-1.007,-0.427,0.092,60.000,9516.000,1.000
13.877,8.758,1.125,2.152,3.776,-5.602,1.771,3.090,-0.088,0.913,-0.443,-0.824,-0.488,0.031,60.000,9517.000,1.000
-6.551,-2.056,-3.486,-4.127,-1.801,-9.746,-5.913,1.396,-0.086,0.913,-0.441,-0.671,-0.610,0.153,60.000,9518.000,1.000
-11.597,-4.844,-2.256,-4.088,-1.241,-7.914,-3.768,3.758,-0.087,0.912,-0.441,-0.549,-0.641,0.092,60.000,9519.000,1.000
2.484,2.232,2.715,1.266,4.763,-1.924,6.425,8.358,-0.083,0.909,-0.445,-0.366,-0.641,0.153,60.000,9520.000,1.000
13.058,6.570,3.484,3.090,6.835,0.884,11.419,9.047,-0.085,0.907,-0.445,-0.092,-0.610,0.275,60.000,9521.000,1.000
3.916,-0.302,-2.576,-2.334,0.542,-2.217,4.949,4.187,-0.084,0.908,-0.447,0.153,-0.641,0.427,60.000,9522.000,1.000
-14.080,-11.481,-9.573,-8.686,-7.642,-6.361,-4.708,-0.834,-0.084,0.908,-0.446,0.397,-0.580,0.458,60.000,9523.000,1.000
-19.224,-14.401,-11.011,-8.134,-8.856,-6.029,-6.111,-0.046,-0.083,0.910,-0.447,0.641,-0.488,0.366,60.000,9524.000,1.000
-9.648,-8.353,-8.509,-2.168,-3.667,-2.690,-0.076,5.685,-0.081,0.912,-0.445,0.763,-0.427,0.397,60.000,9525.000,1.000
-5.522,-5.328,-9.199,0.357,-0.916,-2.510,2.037,10.189,-0.082,0.912,-0.444,0.946,-0.366,0.397,60.000,9526.000,1.000
-18.280,-12.071,-14.912,-4.009,-4.680,-6.974,-4.442,10.611,-0.081,0.915,-0.445,1.068,-0.305,0.366,60.000,9527.000,1.000
-31.158,-19.066,-18.632,-7.847,-7.915,-9.944,-9.641,10.997,-0.079,0.915,-0.445,1.099,-0.244,0.427,60.000,9528.000,1.000
-19.992,-12.597,-13.604,-2.764,-2.000,-5.638,-2.369,15.823,-0.080,0.916,-0.448,1.099,-0.214,0.458,60.000,9529.000,1.000
8.420,3.549,-4.328,6.926,8.937,1.928,11.060,21.510,-0.078,0.919,-0.448,1.190,-0.122,0.488,60.000,9530.000,1.000
16.833,8.618,-2.603,7.407,10.490,2.556,11.201,19.329,-0.079,0.919,-0.448,1.099,0.031,0.366,60.000,9531.000,1.000
-13.724,-7.736,-11.323,-5.559,-2.427,-6.096,-7.920,7.998,-0.079,0.921,-0.445,1.007,0.153,0.275,60.000,9532.000,1.000
-52.317,-28.216,-18.668,-18.177,-15.871,-13.840,-26.908,-1.892,-0.080,0.922,-0.447,0.977,0.153,0.336,60.000,9533.000,1.000
-50.776,-26.403,-12.016,-14.126,-12.148,-10.036,-22.423,0.645,-0.081,0.920,-0.447,0.977,0.214,0.366,60.000,9534.000,1.000
-4.172,-0.120,5.086,4.250,7.653,2.241,2.998,13.057,-0.082,0.922,-0.444,0.763,0.244,0.244,60.000,9535.000,1.000
41.149,24.698,16.200,17.809,24.029,9.406,22.835,21.764,-0.082,0.923,-0.444,0.580,0.244,0.183,60.000,9536.000,1.000
43.989,25.598,11.935,13.807,22.573,4.319,18.952,18.387,-0.081,0.921,-0.445,0.458,0.305,0.122,60.000,9537.000,1.000
14.139,8.624,0.108,-0.320,9.545,-5.607,1.485,8.482,-0.084,0.923,-0.443,0.336,0.336,0.031,60.000,9538.000,1.000
-5.958,-2.574,-5.161,-8.125,1.708,-8.351,-6.447,3.179,-0.084,0.924,-0.445,0.061,0.366,0.061,60.000,9539.000,1.000
4.381,2.866,-0.620,-4.583,5.005,-2.053,2.055,5.344,-0.083,0.924,-0.445,-0.061,0.397,0.000,60.000,9540.000,1.000
24.649,13.036,4.619,0.575,9.926,4.398,12.341,8.004,-0.083,0.923,-0.447,-0.214,0.427,0.000,60.000,9541.000,1.000
27.033,12.850,2.689,-1.924,6.737,3.830,10.090,4.977,-0.083,0.922,-0.445,-0.397,0.397,0.031,60.000,9542.000,1.000
11.134,2.968,-4.088,-9.723,-2.483,-1.550,-1.790,-1.893,-0.084,0.918,-0.447,-0.458,0.519,-0.092,60.000,9543.000,1.000
-0.686,-3.678,-7.986,-13.646,-8.286,-4.717,-9.326,-6.400,-0.086,0.915,-0.449,-0.580,0.458,-0.031,60.000,9544.000,1.000
4.367,-0.255,-6.463,-10.308,-6.843,-3.137,-5.844,-6.333,-0.086,0.915,-0.455,-0.549,0.366,0.031,60.000,9545.000,1.000
14.467,5.883,-4.263,-5.492,-3.832,-0.596,1.929,-5.286,-0.084,0.915,-0.451,-0.549,0.275,0.000,60.000,9546.000,1.000
12.680,4.645,-5.705,-5.304,-5.490,-0.705,5.366,-6.772,-0.084,0.915,-0.447,-0.641,0.214,0.092,60.000,9547.000,1.000
0.022,-3.575,-9.023,-8.579,-10.529,-2.161,4.638,-9.729,-0.085,0.918,-0.446,-0.580,0.214,0.183,60.000,9548.000,1.000
-6.477,-8.957,-9.057,-9.178,-12.273,-0.895,6.647,-10.374,-0.087,0.917,-0.448,-0.671,0.244,0.244,60.000,9549.000,1.000
1.887,-6.174,-4.835,-5.073,-8.203,3.553,13.345,-7.961,-0.087,0.917,-0.448,-0.641,0.061,0.244,60.000,9550.000,1.000
12.821,-1.639,-1.359,-1.441,-3.742,6.505,17.320,-6.287,-0.086,0.915,-0.450,-0.671,0.000,0.305,60.000,9551.000,1.000
9.636,-4.156,-2.981,-3.444,-4.976,4.031,11.607,-8.638,-0.089,0.915,-0.449,-0.732,-0.092,0.427,60.000,9552.000,1.000
-7.941,-13.603,-8.008,-9.500,-11.099,-2.118,-0.842,-13.495,-0.087,0.917,-0.447,-0.763,-0.122,0.488,60.000,9553.000,1.000
-23.371,-21.125,-10.636,-12.937,-15.427,-6.209,-9.479,-16.078,-0.088,0.917,-0.449,-0.824,-0.336,0.519,60.000,9554.000,1.000
-23.242,-20.022,-7.952,-10.115,-13.643,-5.051,-7.858,-14.032,-0.089,0.918,-0.448,-0.946,-0.488,0.610,60.000,9555.000,1.000
-11.417,-12.934,-2.865,-4.309,-8.359,-0.996,0.266,-9.825,-0.086,0.920,-0.448,-1.007,-0.580,0.732,60.000,9556.000,1.000
-2.164,-7.767,-0.213,-1.313,-5.268,1.363,6.269,-7.545,-0.088,0.920,-0.447,-1.129,-0.702,0.702,60.000,9557.000,1.000
-5.834,-10.047,-2.206,-3.856,-7.485,-0.525,4.364,-9.115,-0.086,0.920,-0.447,-1.129,-0.763,0.763,60.000,9558.000,1.000
-19.163,-17.685,-6.439,-9.177,-12.576,-4.993,-3.511,-12.692,-0.087,0.919,-0.447,-1.343,-0.854,0.732,60.000,9559.000,1.000
-28.579,-22.873,-8.259,-11.774,-14.860,-8.081,-9.831,-14.431,-0.086,0.920,-0.450,-1.343,-0.916,0.824,60.000,9560.000,1.000
-23.149,-19.500,-5.158,-8.565,-10.801,-7.513,-8.812,-11.935,-0.085,0.919,-0.453,-1.312,-0.977,0.946,60.000,9561.000,1.000
-5.689,-9.444,0.609,-1.908,-2.656,-4.999,-2.258,-6.559,-0.084,0.918,-0.450,-1.404,-1.068,0.885,60.000,9562.000,1.000
7.600,-2.024,3.570,1.996,2.845,-4.823,1.257,-2.507,-0.083,0.918,-0.449,-1.312,-1.068,0.946,60.000,9563.000,1.000
4.305,-3.922,1.114,-0.116,1.708,-8.625,-3.776,-2.220,-0.085,0.919,-0.446,-1.251,-1.129,1.007,60.000,9564.000,1.000
-10.118,-11.483,-3.477,-4.809,-2.833,-13.073,-12.963,-3.814,-0.083,0.919,-0.446,-1.251,-1.099,1.007,60.000,9565.000,1.000
-19.233,-15.247,-5.105,-6.150,-4.387,-13.698,-17.170,-3.660,-0.080,0.919,-0.444,-1.343,-1.129,1.038,60.000,9566.000,1.000
-15.270,-11.211,-3.027,-2.911,-1.147,-10.278,-13.413,-0.884,-0.078,0.916,-0.445,-1.343,-1.038,1.038,60.000,9567.000,1.000
-8.854,-5.912,-1.839,-0.320,1.763,-7.397,-8.632,1.483,-0.077,0.916,-0.446,-1.373,-1.007,0.946,60.000,9568.000,1.000
-13.394,-7.200,-4.851,-2.716,-0.351,-8.389,-9.651,1.084,-0.076,0.916,-0.451,-1.465,-0.916,0.916,60.000,9569.000,1.000
-26.264,-13.643,-9.315,-7.499,-5.077,-11.218,-14.037,-0.195,-0.074,0.919,-0.450,-1.434,-0.763,1.007,60.000,9570.000,1.000
-32.016,-16.478,-9.757,-8.386,-5.888,-11.489,-14.086,1.419,-0.073,0.918,-0.450,-1.495,-0.702,1.038,60.000,9571.000,1.000
-22.563,-11.003,-4.785,-3.400,-0.544,-8.139,-7.452,6.542,-0.073,0.920,-0.449,-1.465,-0.610,1.038,60.000,9572.000,1.000
-9.163,-3.394,0.915,2.281,5.500,-4.801,-0.936,11.255,-0.073,0.920,-0.448,-1.587,-0.488,0.977,60.000,9573.000,1.000
-7.086,-2.185,2.913,3.491,6.387,-4.372,-0.967,12.125,-0.075,0.919,-0.446,-1.648,-0.244,0.916,60.000,9574.000,1.000
-14.782,-6.587,2.514,1.900,3.517,-4.856,-4.784,10.570,-0.077,0.918,-0.448,-1.587,-0.061,0.793,60.000,9575.000,1.000
-16.246,-7.694,4.252,3.361,3.360,-2.033,-4.210,10.730,-0.077,0.916,-0.448,-1.526,0.061,0.763,60.000,9576.000,1.000
-3.511,-1.072,9.011,9.380,8.336,4.460,3.046,13.498,-0.076,0.912,-0.449,-1.495,0.153,0.549,60.000,9577.000,1.000
9.541,5.411,11.726,13.700,12.356,9.301,8.757,14.409,-0.078,0.914,-0.448,-1.495,0.275,0.519,60.000,9578.000,1.000
5.533,2.196,8.602,10.722,9.116,8.312,5.339,9.817,-0.079,0.915,-0.446,-1.434,0.275,0.488,60.000,9579.000,1.000
-11.180,-7.761,3.322,3.912,1.495,4.452,-3.077,2.551,-0.081,0.914,-0.445,-1.404,0.397,0.336,60.000,9580.000,1.000
-18.031,-11.542,3.046,2.123,-1.447,4.340,-5.492,-1.081,-0.083,0.916,-0.448,-1.495,0.397,0.183,60.000,9581.000,1.000
-2.526,-2.453,9.187,8.391,3.949,9.794,1.742,1.021,-0.084,0.916,-0.450,-1.526,0.458,0.061,60.000,9582.000,1.000
20.000,10.376,14.725,15.299,10.517,15.061,9.351,4.182,-0.082,0.913,-0.451,-1.465,0.488,0.000,60.000,9583.000,1.000
25.735,13.318,12.996,14.422,9.520,14.368,7.569,3.498,-0.083,0.916,-0.448,-1.404,0.549,-0.122,60.000,9584.000,1.000
12.282,5.089,5.890,6.783,1.677,9.129,-1.001,-0.014,-0.083,0.916,-0.448,-1.251,0.519,-0.183,60.000,9585.000,1.000
-0.222,-2.797,0.961,0.779,-4.481,5.569,-5.172,-1.611,-0.083,0.916,-0.446,-1.160,0.580,-0.244,60.000,9586.000,1.000
3.548,-1.613,1.750,1.054,-4.043,6.402,0.082,0.135,-0.084,0.914,-0.445,-1.129,0.488,-0.336,60.000,9587.000,1.000
13.285,2.748,3.387,2.471,-2.377,7.072,6.351,0.598,-0.084,0.912,-0.446,-1.038,0.488,-0.366,60.000,9588.000,1.000
8.839,-1.211,-0.028,-1.914,-7.146,2.333,3.247,-4.781,-0.086,0.911,-0.448,-0.854,0.427,-0.397,60.000,9589.000,1.000
-11.067,-14.205,-7.147,-10.727,-17.333,-6.340,-7.774,-14.150,-0.085,0.910,-0.450,-0.671,0.397,-0.336,60.000,9590.000,1.000
-26.522,-24.676,-11.111,-15.731,-24.096,-12.278,-15.405,-21.131,-0.087,0.908,-0.452,-0.610,0.275,-0.366,60.000,9591.000,1.000
-22.110,-23.227,-8.433,-12.362,-21.664,-11.579,-12.746,-22.288,-0.085,0.908,-0.448,-0.397,0.305,-0.305,60.000,9592.000,1.000
-7.428,-14.430,-3.679,-5.840,-14.456,-7.526,-6.177,-20.814,-0.088,0.906,-0.448,-0.153,0.214,-0.275,60.000,9593.000,1.000
-2.515,-9.089,-2.809,-3.639,-10.254,-5.155,-5.571,-21.097,-0.090,0.908,-0.450,0.153,0.092,-0.214,60.000,9594.000,1.000
-9.879,-9.011,-4.948,-5.369,-9.671,-4.335,-10.049,-22.190,-0.090,0.909,-0.451,0.183,0.000,-0.122,60.000,9595.000,1.000
-11.569,-5.362,-3.823,-3.797,-6.140,-0.738,-8.901,-18.972,-0.088,0.913,-0.448,0.366,-0.122,-0.153,60.000,9596.000,1.000
4.961,7.551,3.078,4.450,3.836,6.913,3.180,-9.584,-0.089,0.916,-0.451,0.519,-0.092,-0.092,60.000,9597.000,1.000
25.232,21.042,9.623,12.372,13.587,13.155,16.039,0.379,-0.090,0.919,-0.451,0.549,-0.275,-0.031,60.000,9598.000,1.000
24.671,21.797,8.916,11.276,14.220,12.571,16.231,4.167,-0.093,0.920,-0.447,0.397,-0.458,0.031,60.000,9599.000,1.000
2.471,10.148,3.012,2.965,7.018,7.544,5.335,2.322,-0.095,0.923,-0.446,0.244,-0.641,-0.031,60.000,9600.000,1.000
-14.298,1.540,0.883,-1.552,2.875,5.844,-0.953,1.737,-0.095,0.924,-0.443,0.244,-0.854,0.092,60.000,9601.000,1.000
-4.133,7.739,6.719,3.988,8.547,10.531,7.243,6.317,-0.094,0.920,-0.444,0.153,-1.007,0.122,60.000,9602.000,1.000
19.136,20.712,13.458,12.054,16.908,14.972,19.767,11.325,-0.093,0.917,-0.447,0.031,-1.160,0.214,60.000,9603.000,1.000
24.074,22.987,11.881,11.109,16.176,11.323,19.437,10.138,-0.090,0.911,-0.446,0.000,-1.312,0.336,60.000,9604.000,1.000
3.153,10.737,2.870,0.933,5.767,1.169,4.735,3.781,-0.086,0.906,-0.449,-0.031,-1.434,0.397,60.000,9605.000,1.000
-17.659,-1.251,-3.489,-6.904,-2.452,-5.884,-8.284,0.238,-0.085,0.904,-0.449,0.153,-1.343,0.397,60.000,9606.000,1.000
-12.955,1.251,-0.560,-3.711,1.009,-3.809,-6.750,4.559,-0.084,0.905,-0.451,0.275,-1.282,0.397,60.000,9607.000,1.000
8.292,13.155,6.503,5.152,11.199,2.589,2.626,12.401,-0.083,0.906,-0.448,0.427,-1.373,0.488,60.000,9608.000,1.000
16.444,18.007,8.412,8.246,16.243,4.832,4.541,16.144,-0.084,0.913,-0.447,0.519,-1.465,0.427,60.000,9609.000,1.000
1.047,10.246,3.875,3.067,12.861,1.531,-3.960,14.577,-0.083,0.918,-0.449,0.366,-1.495,0.580,60.000,9610.000,1.000
-17.381,1.333,0.104,-2.019,8.986,-1.360,-11.148,13.289,-0.083,0.922,-0.450,0.275,-1.465,0.641,60.000,9611.000,1.000
-16.168,3.293,2.383,0.014,11.710,0.387,-7.543,16.247,-0.083,0.927,-0.449,0.153,-1.556,0.702,60.000,9612.000,1.000
-0.806,12.121,6.895,5.244,17.124,3.309,0.886,20.105,-0.084,0.926,-0.448,-0.061,-1.404,0.702,60.000,9613.000,1.000
5.770,14.688,7.180,5.491,16.599,2.097,2.115,19.375,-0.087,0.926,-0.452,-0.122,-1.495,0.671,60.000,9614.000,1.000
-3.889,7.418,3.785,0.331,9.331,-2.103,-4.897,14.138,-0.089,0.927,-0.459,-0.275,-1.526,0.641,60.000,9615.000,1.000
-12.477,0.766,3.621,-2.400,3.623,-2.677,-8.886,9.839,-0.092,0.927,-0.454,-0.366,-1.587,0.641,60.000,9616.000,1.000
-2.178,4.971,10.441,2.547,5.877,3.719,-1.242,10.094,-0.095,0.928,-0.453,-0.549,-1.709,0.488,60.000,9617.000,1.000
19.810,15.751,18.846,9.890,11.643,11.849,11.918,11.857,-0.095,0.925,-0.451,-0.763,-1.831,0.366,60.000,9618.000,1.000
31.123,20.366,20.843,10.618,11.756,13.975,17.739,9.981,-0.094,0.922,-0.449,-0.854,-2.045,0.275,60.000,9619.000,1.000
23.755,14.445,15.518,3.557,4.369,8.816,12.393,4.285,-0.094,0.921,-0.454,-0.977,-2.167,0.153,60.000,9620.000,1.000
13.046,6.872,9.461,-3.540,-2.947,2.260,4.255,-0.233,-0.094,0.921,-0.453,-1.099,-2.380,0.092,60.000,9621.000,1.000
16.207,7.499,8.265,-3.907,-2.798,-0.060,2.395,0.202,-0.094,0.918,-0.451,-1.221,-2.502,0.031,60.000,9622.000,1.000
28.225,13.574,9.705,-0.161,2.792,0.897,5.051,3.214,-0.089,0.915,-0.451,-1.312,-2.472,0.000,60.000,9623.000,1.000
30.009,14.528,8.071,0.603,6.435,1.033,4.504,3.868,-0.088,0.916,-0.453,-1.312,-2.563,0.061,60.000,9624.000,1.000
15.303,7.159,2.503,-3.058,5.803,0.094,-0.509,1.209,-0.085,0.917,-0.448,-1.404,-2.563,-0.092,60.000,9625.000,1.000
-1.085,-0.062,-2.098,-5.540,5.808,1.976,-2.905,-1.135,-0.084,0.916,-0.449,-1.526,-2.472,-0.153,60.000,9626.000,1.000
-3.051,1.497,-2.061,-2.461,10.506,8.506,2.477,-0.580,-0.082,0.916,-0.449,-1.556,-2.380,-0.031,60.000,9627.000,1.000
4.964,8.436,-0.395,2.582,15.908,15.400,10.359,0.331,-0.081,0.917,-0.449,-1.556,-2.228,0.031,60.000,9628.000,1.000
6.066,10.569,-2.303,3.055,14.971,17.147,11.847,-2.197,-0.079,0.914,-0.448,-1.587,-2.075,0.092,60.000,9629.000,1.000
-4.672,5.088,-7.882,-1.590,7.185,13.648,6.212,-7.562,-0.077,0.914,-0.449,-1.648,-2.045,0.153,60.000,9630.000,1.000
-13.688,-0.080,-11.918,-5.186,-0.344,10.036,1.719,-11.181,-0.078,0.913,-0.446,-1.526,-1.770,0.244,60.000,9631.000,1.000
-7.607,2.747,-10.669,-2.852,-1.425,10.417,4.924,-10.308,-0.076,0.914,-0.445,-1.556,-1.587,0.366,60.000,9632.000,1.000
7.071,9.964,-7.086,2.249,1.492,12.928,11.305,-8.048,-0.077,0.912,-0.446,-1.526,-1.434,0.458,60.000,9633.000,1.000
12.982,12.086,-6.315,3.641,1.632,13.221,11.681,-9.140,-0.074,0.912,-0.448,-1.587,-1.129,0.488,60.000,9634.000,1.000
5.770,7.045,-8.463,0.503,-2.508,10.745,5.045,-13.476,-0.074,0.912,-0.446,-1.526,-0.793,0.610,60.000,9635.000,1.000
-0.387,2.917,-8.710,-1.496,-5.453,9.174,0.082,-16.106,-0.074,0.914,-0.446,-1.495,-0.610,0.702,60.000,9636.000,1.000
7.692,6.952,-4.363,1.781,-2.723,10.801,3.376,-13.514,-0.075,0.915,-0.443,-1.404,-0.397,0.641,60.000,9637.000,1.000
21.725,14.379,0.216,6.360,1.763,12.263,9.020,-8.312,-0.076,0.915,-0.447,-1.404,-0.214,0.641,60.000,9638.000,1.000
22.128,14.380,-0.809,5.682,0.718,9.054,6.538,-5.382,-0.077,0.916,-0.448,-1.434,0.000,0.580,60.000,9639.000,1.000
5.841,5.527,-6.303,0.549,-5.888,2.460,-3.492,-5.225,-0.076,0.917,-0.447,-1.404,0.183,0.610,60.000,9640.000,1.000
-6.995,-0.959,-8.780,-0.732,-9.722,-1.166,-8.514,-3.691,-0.078,0.917,-0.446,-1.373,0.366,0.671,60.000,9641.000,1.000
1.285,4.302,-4.021,6.722,-4.961,1.410,-0.490,1.538,-0.076,0.915,-0.445,-1.465,0.519,0.732,60.000,9642.000,1.000
19.076,14.345,2.253,15.952,2.278,4.826,10.763,6.074,-0.077,0.914,-0.447,-1.404,0.763,0.702,60.000,9643.000,1.000
19.312,14.139,1.665,16.202,1.129,1.699,9.012,4.074,-0.076,0.914,-0.447,-1.343,0.854,0.702,60.000,9644.000,1.000
-2.463,1.650,-5.151,7.435,-9.071,-7.199,-6.537,-3.008,-0.078,0.915,-0.448,-1.282,0.946,0.641,60.000,9645.000,1.000
-18.867,-7.787,-8.757,1.206,-16.803,-13.283,-18.962,-6.817,-0.078,0.913,-0.447,-1.221,1.099,0.641,60.000,9646.000,1.000
-5.581,-1.213,-3.404,5.737,-13.050,-11.223,-14.900,-2.364,-0.076,0.915,-0.448,-1.068,1.190,0.610,60.000,9647.000,1.000
23.725,13.157,4.375,14.304,-3.933,-6.479,-2.410,4.918,-0.079,0.916,-0.448,-1.160,1.343,0.488,60.000,9648.000,1.000
33.901,16.039,4.344,14.351,-2.424,-7.730,0.530,6.210,-0.081,0.915,-0.446,-1.007,1.434,0.549,60.000,9649.000,1.000
14.522,2.774,-3.594,4.680,-10.578,-14.842,-9.492,0.933,-0.080,0.916,-0.447,-0.977,1.465,0.458,60.000,9650.000,1.000
-6.792,-10.190,-9.298,-2.830,-16.737,-18.929,-17.280,-2.743,-0.082,0.917,-0.448,-0.977,1.404,0.458,60.000,9651.000,1.000
-2.848,-7.556,-6.507,0.271,-11.872,-14.692,-10.815,0.614,-0.081,0.920,-0.447,-0.977,1.465,0.458,60.000,9652.000,1.000
11.499,1.533,-2.828,5.631,-4.052,-9.083,-0.481,5.187,-0.080,0.920,-0.447,-0.946,1.495,0.397,60.000,9653.000,1.000
-1.429,-4.964,-9.148,-0.770,-8.130,-12.039,-5.236,2.005,-0.081,0.921,-0.448,-1.068,1.556,0.458,60.000,9654.000,1.000
-43.659,-28.530,-22.161,-16.931,-23.158,-21.229,-23.232,-7.011,-0.084,0.922,-0.449,-1.007,1.495,0.336,60.000,9655.000,1.000
-68.931,-43.212,-26.000,-24.524,-30.524,-23.418,-30.307,-9.965,-0.085,0.921,-0.447,-1.007,1.465,0.336,60.000,9656.000,1.000
-40.954,-28.785,-13.022,-12.951,-18.057,-12.339,-11.708,-1.081,-0.085,0.923,-0.448,-1.129,1.312,0.275,60.000,9657.000,1.000
13.724,-0.232,4.128,4.464,1.877,1.048,15.327,9.866,-0.087,0.922,-0.445,-1.251,1.129,0.305,60.000,9658.000,1.000
36.255,9.944,7.847,6.759,7.333,1.928,22.355,9.415,-0.088,0.921,-0.445,-1.343,1.007,0.427,60.000,9659.000,1.000
9.273,-7.147,-2.510,-7.937,-5.391,-9.646,5.611,-2.426,-0.090,0.922,-0.442,-1.343,0.977,0.397,60.000,9660.000,1.000
-25.255,-27.671,-11.437,-21.185,-18.519,-19.857,-11.273,-12.804,-0.088,0.920,-0.444,-1.465,0.763,0.366,60.000,9661.000,1.000
-24.181,-28.024,-8.379,-18.781,-16.939,-19.517,-9.218,-12.838,-0.089,0.917,-0.447,-1.434,0.580,0.244,60.000,9662.000,1.000
1.722,-14.966,-0.718,-8.116,-7.057,-15.010,2.620,-8.074,-0.090,0.917,-0.449,-1.465,0.519,0.366,60.000,9663.000,1.000
9.721,-12.283,-1.266,-5.298,-5.041,-17.116,3.393,-8.703,-0.092,0.918,-0.443,-1.343,0.275,0.305,60.000,9664.000,1.000
-12.539,-25.896,-9.585,-12.217,-13.238,-25.000,-8.880,-14.736,-0.090,0.917,-0.445,-1.312,0.061,0.153,60.000,9665.000,1.000
-32.068,-36.544,-13.084,-15.432,-17.889,-27.712,-15.765,-16.722,-0.092,0.919,-0.442,-1.312,-0.061,0.122,60.000,9666.000,1.000
-18.961,-27.624,-4.927,-6.389,-9.482,-19.870,-5.655,-9.746,-0.090,0.917,-0.442,-1.160,-0.366,0.305,60.000,9667.000,1.000
10.554,-9.020,6.144,5.654,3.089,-9.699,8.520,-1.059,-0.090,0.917,-0.446,-1.221,-0.458,0.244,60.000,9668.000,1.000
17.215,-3.392,7.896,6.475,4.845,-7.878,6.894,-0.390,-0.092,0.917,-0.449,-1.282,-0.549,0.366,60.000,9669.000,1.000
-8.326,-16.192,0.479,-4.012,-5.162,-13.712,-10.448,-7.182,-0.093,0.917,-0.448,-1.160,-0.641,0.305,60.000,9670.000,1.000
-35.830,-30.407,-5.176,-12.507,-13.591,-17.155,-24.105,-11.971,-0.092,0.914,-0.445,-1.099,-0.824,0.305,60.000,9671.000,1.000
-35.756,-29.322,-1.987,-9.558,-10.280,-12.009,-19.852,-8.600,-0.091,0.912,-0.447,-0.946,-0.916,0.366,60.000,9672.000,1.000
-13.471,-15.802,5.369,-0.069,0.282,-2.779,-4.506,-0.932,-0.090,0.910,-0.445,-0.946,-1.038,0.366,60.000,9673.000,1.000
4.602,-4.545,8.415,5.280,7.078,2.549,5.729,3.558,-0.088,0.909,-0.445,-0.793,-1.099,0.336,60.000,9674.000,1.000
4.548,-3.409,5.157,2.833,5.866,1.745,4.389,2.433,-0.086,0.911,-0.445,-0.641,-1.221,0.275,60.000,9675.000,1.000
-5.953,-8.384,0.049,-2.873,1.012,-1.435,-2.265,-1.071,-0.085,0.911,-0.446,-0.488,-1.373,0.458,60.000,9676.000,1.000
-13.262,-12.021,-2.464,-6.390,-1.760,-2.840,-5.678,-2.938,-0.083,0.910,-0.444,-0.458,-1.465,0.488,60.000,9677.000,1.000
-12.752,-11.544,-1.884,-6.551,-1.016,-1.675,-3.858,-2.008,-0.080,0.910,-0.448,-0.305,-1.404,0.580,60.000,9678.000,1.000
-7.561,-8.317,0.013,-5.025,1.599,0.696,0.171,0.590,-0.079,0.910,-0.449,-0.244,-1.282,0.549,60.000,9679.000,1.000
-3.282,-5.214,1.134,-4.101,3.756,2.462,2.689,2.842,-0.081,0.912,-0.446,0.122,-1.221,0.549,60.000,9680.000,1.000
-6.041,-5.737,-0.309,-5.952,3.199,1.999,1.032,2.911,-0.084,0.915,-0.446,0.336,-1.190,0.519,60.000,9681.000,1.000
-17.001,-10.874,-4.117,-10.539,-0.290,-0.632,-4.246,0.971,-0.086,0.916,-0.447,0.336,-1.099,0.458,60.000,9682.000,1.000
-27.655,-16.202,-7.315,-14.403,-3.513,-3.049,-8.538,-0.220,-0.091,0.919,-0.444,0.366,-1.038,0.397,60.000,9683.000,1.000
-25.571,-14.848,-6.565,-13.427,-2.302,-2.560,-6.537,2.342,-0.092,0.916,-0.448,0.305,-1.099,0.305,60.000,9684.000,1.000
-10.917,-6.792,-2.928,-8.732,2.558,-0.096,0.383,7.868,-0.089,0.917,-0.448,0.244,-1.282,0.214,60.000,9685.000,1.000
-0.888,-1.445,-1.711,-6.897,4.586,-0.035,3.436,11.746,-0.089,0.918,-0.448,0.214,-1.282,0.122,60.000,9686.000,1.000
-8.330,-5.776,-5.251,-11.335,0.098,-4.143,-2.209,11.231,-0.084,0.918,-0.450,0.183,-1.373,0.092,60.000,9687.000,1.000
-22.788,-14.041,-8.926,-16.735,-5.678,-8.279,-9.333,9.152,-0.085,0.918,-0.450,0.305,-1.434,0.092,60.000,9688.000,1.000
-22.088,-14.323,-6.745,-15.119,-4.389,-7.220,-6.638,10.167,-0.083,0.917,-0.449,0.336,-1.312,0.000,60.000,9689.000,1.000
-3.749,-5.544,-0.464,-7.307,3.445,-2.502,4.733,13.583,-0.083,0.917,-0.453,0.275,-1.312,-0.092,60.000,9690.000,1.000
7.891,-0.782,1.327,-3.297,7.406,-1.548,10.094,13.423,-0.083,0.916,-0.450,0.183,-1.221,0.000,60.000,9691.000,1.000
-5.613,-9.111,-5.090,-8.748,1.090,-7.394,0.907,7.141,-0.085,0.917,-0.455,0.122,-1.068,-0.061,60.000,9692.000,1.000
-29.345,-21.331,-12.531,-16.480,-8.424,-13.598,-12.290,0.430,-0.084,0.916,-0.455,0.214,-1.068,0.031,60.000,9693.000,1.000
-31.798,-20.175,-11.319,-15.172,-8.974,-11.804,-12.248,0.928,-0.083,0.917,-0.454,0.122,-1.129,0.061,60.000,9694.000,1.000
-7.352,-3.758,-2.205,-4.885,0.328,-2.891,1.857,7.981,-0.084,0.918,-0.450,0.214,-1.099,0.031,60.000,9695.000,1.000
13.656,9.834,4.120,2.214,7.342,3.827,12.549,12.567,-0.083,0.919,-0.452,0.153,-1.007,0.092,60.000,9696.000,1.000
5.198,5.837,1.463,-1.653,3.484,3.236,8.050,8.795,-0.083,0.918,-0.452,0.061,-0.885,0.092,60.000,9697.000,1.000
-19.442,-7.796,-3.846,-9.457,-4.685,0.857,-1.901,1.069,-0.083,0.920,-0.451,0.031,-0.793,0.122,60.000,9698.000,1.000
-25.261,-10.986,-1.985,-9.004,-4.523,4.581,0.306,-2.513,-0.081,0.918,-0.453,0.092,-0.641,0.244,60.000,9699.000,1.000
-3.368,1.275,6.308,0.058,4.858,12.906,15.139,-1.300,-0.079,0.916,-0.452,-0.061,-0.580,0.183,60.000,9700.000,1.000
16.775,12.403,10.426,5.596,10.853,16.344,24.342,-2.067,-0.078,0.915,-0.449,-0.122,-0.519,0.244,60.000,9701.000,1.000
9.130,8.044,4.943,0.305,4.965,10.730,15.980,-8.089,-0.079,0.916,-0.449,-0.183,-0.427,0.275,60.000,9702.000,1.000
-12.878,-3.941,-2.559,-7.851,-5.359,3.485,0.604,-13.585,-0.082,0.914,-0.449,-0.153,-0.336,0.366,60.000,9703.000,1.000
-14.654,-4.211,-1.327,-6.144,-6.533,4.523,-2.486,-11.223,-0.079,0.914,-0.449,-0.214,-0.214,0.488,60.000,9704.000,1.000
11.305,10.898,7.935,5.304,2.708,13.312,9.237,-2.792,-0.080,0.916,-0.451,-0.244,-0.092,0.458,60.000,9705.000,1.000
33.931,23.541,13.822,13.226,9.635,19.619,18.902,2.191,-0.083,0.917,-0.451,-0.305,0.061,0.610,60.000,9706.000,1.000
26.000,18.781,9.728,9.169,5.352,17.273,14.266,-1.170,-0.083,0.917,-0.449,-0.458,0.153,0.641,60.000,9707.000,1.000
0.090,4.376,2.137,0.267,-3.352,11.635,3.793,-7.116,-0.082,0.918,-0.451,-0.519,0.214,0.671,60.000,9708.000,1.000
-9.088,-0.026,1.393,-0.814,-3.436,11.653,4.260,-7.097,-0.080,0.918,-0.446,-0.580,0.183,0.641,60.000,9709.000,1.000
8.349,10.573,7.561,6.944,6.494,17.452,17.039,-1.089,-0.080,0.918,-0.450,-0.824,0.366,0.732,60.000,9710.000,1.000
25.300,20.387,10.772,12.056,14.268,20.457,25.752,2.802,-0.080,0.918,-0.452,-0.977,0.336,0.641,60.000,9711.000,1.000
16.834,15.393,5.484,7.147,10.945,15.722,18.801,-0.175,-0.082,0.916,-0.454,-1.038,0.458,0.702,60.000,9712.000,1.000
-6.155,2.058,-2.005,-0.937,2.301,8.541,4.208,-5.200,-0.083,0.916,-0.451,-1.129,0.458,0.793,60.000,9713.000,1.000
-12.747,-1.928,-2.257,-0.512,0.458,7.162,-1.785,-4.660,-0.083,0.914,-0.448,-1.160,0.397,0.641,60.000,9714.000,1.000
5.418,8.310,4.402,8.952,7.427,11.696,3.878,1.444,-0.085,0.915,-0.448,-1.282,0.458,0.610,60.000,9715.000,1.000
23.515,18.970,8.612,16.186,13.105,14.523,8.850,5.871,-0.085,0.915,-0.450,-1.312,0.427,0.610,60.000,9716.000,1.000
19.038,17.485,5.226,13.643,10.115,11.391,4.455,4.590,-0.086,0.916,-0.450,-1.434,0.397,0.641,60.000,9717.000,1.000
1.354,8.806,-0.099,6.888,3.654,6.863,-2.727,2.002,-0.085,0.917,-0.450,-1.526,0.275,0.549,60.000,9718.000,1.000
-2.623,7.395,1.182,6.447,3.945,7.590,-1.022,4.505,-0.088,0.917,-0.448,-1.678,0.305,0.397,60.000,9719.000,1.000
14.240,16.858,8.921,13.591,11.989,12.834,9.094,11.339,-0.087,0.919,-0.446,-1.831,0.336,0.458,60.000,9720.000,1.000
30.139,25.252,14.634,19.251,18.119,15.310,14.753,15.297,-0.088,0.920,-0.447,-1.923,0.305,0.458,60.000,9721.000,1.000
25.454,22.297,13.101,17.122,15.307,11.231,8.290,12.325,-0.088,0.919,-0.447,-2.045,0.061,0.366,60.000,9722.000,1.000
8.436,13.111,8.508,11.759,7.984,5.083,-2.849,6.414,-0.090,0.919,-0.448,-2.167,0.061,0.336,60.000,9723.000,1.000
2.973,11.060,8.054,11.868,5.569,3.658,-5.930,4.075,-0.089,0.918,-0.452,-2.228,-0.183,0.427,60.000,9724.000,1.000
16.330,19.814,12.046,18.289,9.862,7.471,0.616,5.980,-0.090,0.918,-0.452,-2.228,-0.214,0.427,60.000,9725.000,1.000
30.727,28.949,14.066,23.146,13.358,10.911,5.903,6.964,-0.088,0.917,-0.451,-2.197,-0.366,0.427,60.000,9726.000,1.000
29.363,28.790,10.602,21.060,10.365,10.413,2.092,3.832,-0.090,0.916,-0.447,-2.197,-0.488,0.458,60.000,9727.000,1.000
17.860,22.445,5.766,15.795,4.293,8.487,-5.942,-0.610,-0.089,0.917,-0.444,-2.258,-0.671,0.488,60.000,9728.000,1.000
14.621,20.297,5.663,14.512,2.449,9.337,-7.975,-1.684,-0.087,0.918,-0.449,-2.258,-0.702,0.519,60.000,9729.000,1.000
24.749,25.276,10.163,17.820,5.906,12.418,-2.377,0.748,-0.088,0.917,-0.446,-2.319,-0.763,0.488,60.000,9730.000,1.000
33.494,29.231,13.192,19.265,8.311,12.971,2.247,2.241,-0.088,0.919,-0.448,-2.228,-0.946,0.488,60.000,9731.000,1.000
28.002,25.258,11.002,14.790,5.217,8.904,-0.241,-0.054,-0.091,0.916,-0.448,-2.258,-1.099,0.519,60.000,9732.000,1.000
14.225,16.982,6.215,7.991,-0.136,3.595,-5.827,-4.031,-0.091,0.917,-0.449,-2.228,-1.160,0.458,60.000,9733.000,1.000
8.039,13.130,3.540,5.131,-1.466,1.566,-6.580,-5.730,-0.089,0.917,-0.449,-2.106,-1.160,0.458,60.000,9734.000,1.000
13.707,15.455,3.411,6.927,2.023,2.790,-1.847,-4.585,-0.090,0.917,-0.448,-2.136,-1.312,0.488,60.000,9735.000,1.000
19.131,16.802,2.098,8.096,4.769,3.166,0.899,-3.770,-0.090,0.916,-0.452,-2.014,-1.343,0.488,60.000,9736.000,1.000
14.029,11.856,-2.170,5.091,2.813,0.472,-3.133,-5.333,-0.091,0.917,-0.450,-1.923,-1.495,0.458,60.000,9737.000,1.000
3.137,4.080,-6.556,0.412,-1.294,-3.013,-9.884,-7.552,-0.091,0.913,-0.448,-1.831,-1.495,0.549,60.000,9738.000,1.000
-0.943,0.965,-7.153,-1.059,-2.111,-3.634,-11.757,-7.405,-0.091,0.915,-0.449,-1.862,-1.648,0.519,60.000,9739.000,1.000
5.306,4.359,-4.070,1.406,1.591,-1.064,-7.131,-4.776,-0.089,0.915,-0.446,-1.709,-1.740,0.397,60.000,9740.000,1.000
12.196,8.408,-1.311,3.637,5.602,1.468,-1.689,-2.658,-0.089,0.916,-0.447,-1.648,-1.801,0.488,60.000,9741.000,1.000
10.970,7.778,-1.510,2.574,6.426,1.642,-0.190,-2.969,-0.086,0.915,-0.448,-1.465,-1.831,0.488,60.000,9742.000,1.000
4.142,3.645,-3.433,-0.305,5.185,0.310,-1.619,-4.346,-0.087,0.914,-0.450,-1.404,-1.831,0.397,60.000,9743.000,1.000
0.545,1.015,-4.429,-1.682,5.146,-0.535,-2.190,-4.172,-0.087,0.914,-0.450,-1.251,-1.740,0.427,60.000,9744.000,1.000
2.933,1.722,-4.178,-1.108,6.818,-0.962,-1.303,-2.010,-0.088,0.913,-0.451,-1.190,-1.740,0.336,60.000,9745.000,1.000
4.991,2.566,-4.601,-1.211,7.388,-2.824,-2.016,0.204,-0.085,0.912,-0.446,-1.068,-1.678,0.336,60.000,9746.000,1.000
1.784,0.967,-6.242,-3.299,5.181,-6.273,-5.302,1.259,-0.083,0.913,-0.447,-0.793,-1.587,0.458,60.000,9747.000,1.000
-3.487,-1.397,-7.299,-5.605,1.842,-8.915,-8.061,1.970,-0.081,0.912,-0.448,-0.671,-1.526,0.427,60.000,9748.000,1.000
-3.886,-0.999,-5.962,-5.667,0.189,-8.445,-6.784,3.649,-0.080,0.911,-0.450,-0.519,-1.373,0.427,60.000,9749.000,1.000
1.513,2.182,-3.126,-3.791,0.471,-5.770,-2.359,5.892,-0.080,0.912,-0.448,-0.427,-1.251,0.458,60.000,9750.000,1.000
5.755,3.857,-1.692,-2.824,0.110,-4.365,0.388,6.875,-0.080,0.913,-0.448,-0.427,-1.221,0.488,60.000,9751.000,1.000
3.690,1.233,-2.797,-3.996,-2.225,-6.012,-0.993,6.103,-0.079,0.914,-0.449,-0.214,-0.977,0.458,60.000,9752.000,1.000
-1.919,-3.601,-4.648,-5.439,-4.737,-8.982,-3.799,5.151,-0.080,0.914,-0.450,-0.092,-0.885,0.458,60.000,9753.000,1.000
-4.149,-6.201,-4.747,-4.620,-4.724,-10.178,-3.615,5.754,-0.081,0.914,-0.451,-0.031,-0.641,0.427,60.000,9754.000,1.000
-0.932,-5.193,-3.022,-1.796,-2.236,-8.691,-0.051,7.464,-0.081,0.915,-0.453,0.031,-0.458,0.458,60.000,9755.000,1.000
2.254,-3.775,-1.792,0.037,-0.346,-6.427,2.597,8.040,-0.080,0.916,-0.448,0.061,-0.397,0.366,60.000,9756.000,1.000
0.746,-4.759,-2.340,-0.882,-1.127,-5.107,1.283,6.479,-0.080,0.913,-0.449,0.153,-0.244,0.366,60.000,9757.000,1.000
-3.263,-7.036,-3.531,-3.161,-3.445,-4.571,-2.293,4.214,-0.081,0.914,-0.450,0.092,-0.031,0.427,60.000,9758.000,1.000
-3.656,-7.210,-3.485,-4.065,-4.580,-3.796,-3.964,3.424,-0.081,0.915,-0.448,0.122,0.031,0.458,60.000,9759.000,1.000
0.796,-4.524,-2.335,-3.164,-3.897,-3.136,-2.719,4.224,-0.080,0.914,-0.452,0.275,0.153,0.366,60.000,9760.000,1.000
3.416,-2.559,-2.300,-3.051,-3.783,-4.275,-2.267,4.477,-0.082,0.914,-0.453,0.244,0.366,0.336,60.000,9761.000,1.000
-1.305,-4.306,-4.400,-5.432,-5.914,-7.396,-5.352,2.917,-0.084,0.913,-0.454,0.336,0.336,0.366,60.000,9762.000,1.000
-10.113,-8.246,-6.925,-8.687,-8.781,-10.276,-9.667,0.792,-0.082,0.913,-0.453,0.427,0.488,0.305,60.000,9763.000,1.000
-13.968,-9.922,-7.169,-9.587,-9.335,-10.216,-10.080,0.292,-0.082,0.914,-0.450,0.305,0.427,0.366,60.000,9764.000,1.000
-9.113,-7.561,-4.757,-7.349,-7.017,-6.982,-5.099,1.604,-0.080,0.918,-0.451,0.122,0.549,0.244,60.000,9765.000,1.000
-2.153,-4.530,-2.227,-4.734,-4.862,-3.235,0.802,2.522,-0.081,0.916,-0.450,0.153,0.519,0.275,60.000,9766.000,1.000
-1.155,-4.571,-1.627,-4.302,-5.553,-1.433,2.909,1.430,-0.082,0.916,-0.449,0.061,0.610,0.336,60.000,9767.000,1.000
-6.699,-7.434,-2.352,-5.699,-8.426,-1.684,1.093,-0.887,-0.083,0.916,-0.450,0.031,0.702,0.214,60.000,9768.000,1.000
-12.219,-9.484,-2.140,-6.458,-10.378,-2.219,-0.888,-2.280,-0.084,0.916,-0.448,-0.061,0.671,0.183,60.000,9769.000,1.000
-12.541,-8.375,-0.055,-5.289,-9.593,-1.791,-0.373,-1.874,-0.084,0.915,-0.449,-0.153,0.610,0.214,60.000,9770.000,1.000
-9.720,-5.879,2.347,-3.647,-7.477,-0.891,1.322,-1.031,-0.086,0.913,-0.451,-0.275,0.580,0.214,60.000,9771.000,1.000
-8.141,-4.707,3.362,-3.269,-6.176,-0.223,2.032,-1.386,-0.086,0.915,-0.451,-0.336,0.610,0.336,60.000,9772.000,1.000
-8.507,-5.112,2.907,-4.143,-6.195,0.252,1.660,-3.178,-0.085,0.916,-0.451,-0.427,0.580,0.366,60.000,9773.000,1.000
-7.432,-4.929,2.277,-4.759,-6.264,1.033,2.017,-5.208,-0.086,0.915,-0.451,-0.427,0.549,0.397,60.000,9774.000,1.000
-3.186,-3.114,2.236,-4.305,-5.425,1.951,3.793,-6.379,-0.085,0.915,-0.451,-0.549,0.519,0.427,60.000,9775.000,1.000
0.437,-1.996,2.022,-3.821,-4.493,1.849,4.927,-6.820,-0.084,0.916,-0.452,-0.671,0.427,0.427,60.000,9776.000,1.000
-0.549,-3.945,1.060,-4.183,-4.283,0.241,3.810,-6.949,-0.084,0.917,-0.453,-0.793,0.427,0.458,60.000,9777.000,1.000
-4.697,-7.770,0.252,-4.523,-3.909,-1.619,1.760,-6.544,-0.084,0.920,-0.452,-0.977,0.397,0.549,60.000,9778.000,1.000
-6.198,-9.404,1.300,-2.974,-1.433,-1.548,1.792,-4.894,-0.085,0.921,-0.451,-1.190,0.397,0.580,60.000,9779.000,1.000
-2.652,-6.951,4.246,0.566,3.203,0.965,4.481,-2.161,-0.083,0.921,-0.449,-1.312,0.336,0.519,60.000,9780.000,1.000
1.140,-3.212,6.851,3.659,7.211,3.940,6.814,0.194,-0.081,0.921,-0.451,-1.526,0.244,0.610,60.000,9781.000,1.000
0.278,-1.503,7.386,4.326,8.221,5.478,6.503,0.869,-0.084,0.923,-0.448,-1.709,0.183,0.641,60.000,9782.000,1.000
-4.230,-2.073,6.268,2.939,6.582,5.405,4.311,-0.388,-0.087,0.920,-0.450,-1.984,0.275,0.671,60.000,9783.000,1.000
-6.894,-2.570,5.360,1.527,4.692,4.837,2.809,-2.709,-0.085,0.921,-0.450,-2.167,0.153,0.824,60.000,9784.000,1.000
-4.609,-1.469,5.794,1.315,4.206,4.488,3.321,-5.022,-0.086,0.924,-0.450,-2.197,0.092,0.854,60.000,9785.000,1.000
-0.253,-0.055,7.013,1.611,4.545,3.881,4.536,-6.775,-0.083,0.923,-0.448,-2.441,0.092,0.763,60.000,9786.000,1.000
2.319,0.011,8.276,1.678,4.660,2.510,4.734,-7.467,-0.084,0.923,-0.449,-2.472,0.092,0.885,60.000,9787.000,1.000
2.444,-1.266,9.420,1.736,4.293,0.407,3.172,-6.835,-0.085,0.921,-0.448,-2.625,0.092,0.916,60.000,9788.000,1.000
2.295,-2.301,10.676,2.456,3.848,-1.937,0.467,-5.240,-0.085,0.921,-0.451,-2.686,0.000,0.946,60.000,9789.000,1.000
2.891,-2.214,11.766,3.550,3.215,-4.305,-2.450,-3.893,-0.084,0.919,-0.452,-2.747,-0.122,0.916,60.000,9790.000,1.000
2.137,-2.296,11.752,3.569,1.374,-6.931,-5.326,-4.171,-0.082,0.917,-0.450,-2.716,-0.092,0.946,60.000,9791.000,1.000
-1.006,-3.676,10.478,2.029,-1.821,-9.374,-7.442,-5.884,-0.081,0.916,-0.448,-2.686,-0.061,0.854,60.000,9792.000,1.000
-4.629,-5.808,8.747,0.134,-5.130,-10.625,-7.948,-7.239,-0.080,0.916,-0.448,-2.594,-0.061,0.916,60.000,9793.000,1.000
-5.963,-7.188,7.424,-0.397,-7.018,-10.055,-6.840,-6.469,-0.081,0.913,-0.447,-2.533,-0.122,0.763,60.000,9794.000,1.000
-5.376,-7.611,6.292,0.605,-7.423,-8.411,-5.802,-3.661,-0.080,0.910,-0.449,-2.502,-0.061,0.763,60.000,9795.000,1.000
-6.763,-8.747,4.306,1.482,-7.900,-7.397,-7.263,-0.621,-0.079,0.912,-0.448,-2.411,-0.031,0.732,60.000,9796.000,1.000
-11.068,-10.808,1.706,1.458,-8.985,-7.470,-10.740,1.417,-0.081,0.910,-0.449,-2.319,-0.061,0.702,60.000,9797.000,1.000
-13.331,-11.054,0.308,1.943,-8.999,-7.251,-12.188,2.843,-0.080,0.910,-0.450,-2.319,0.000,0.702,60.000,9798.000,1.000
-7.994,-6.798,1.435,4.658,-6.081,-5.240,-7.846,4.500,-0.079,0.911,-0.448,-2.045,-0.031,0.732,60.000,9799.000,1.000
1.358,-0.715,3.169,8.023,-1.974,-2.565,-0.099,5.360,-0.078,0.911,-0.451,-2.106,0.061,0.732,60.000,9800.000,1.000
2.093,-0.273,1.494,7.600,-1.633,-2.449,3.064,2.950,-0.080,0.910,-0.447,-1.923,-0.061,0.763,60.000,9801.000,1.000
-11.093,-8.119,-4.054,2.462,-6.476,-5.359,-1.766,-2.485,-0.081,0.911,-0.448,-1.831,0.031,0.732,60.000,9802.000,1.000
-25.875,-16.704,-8.637,-2.055,-11.070,-7.323,-7.842,-6.608,-0.080,0.913,-0.446,-1.709,-0.031,0.732,60.000,9803.000,1.000
-24.349,-15.728,-7.499,-0.089,-8.869,-4.564,-5.805,-5.263,-0.082,0.912,-0.446,-1.526,-0.122,0.732,60.000,9804.000,1.000
-6.132,-5.202,-2.595,6.613,-0.999,0.857,3.680,0.062,-0.083,0.913,-0.445,-1.465,-0.092,0.580,60.000,9805.000,1.000
8.316,3.034,-1.052,9.609,3.969,2.648,9.539,3.247,-0.083,0.914,-0.443,-1.526,-0.122,0.580,60.000,9806.000,1.000
3.322,0.026,-5.940,4.491,0.895,-1.564,4.992,1.089,-0.083,0.917,-0.444,-1.495,-0.153,0.610,60.000,9807.000,1.000
-12.010,-9.024,-12.117,-3.251,-5.249,-6.843,-3.338,-2.806,-0.084,0.919,-0.445,-1.495,-0.336,0.580,60.000,9808.000,1.000
-15.510,-11.447,-12.449,-4.897,-5.602,-6.729,-3.747,-2.804,-0.086,0.923,-0.445,-1.465,-0.305,0.427,60.000,9809.000,1.000
-1.801,-4.088,-7.170,0.103,0.751,-1.525,4.767,1.078,-0.087,0.923,-0.445,-1.495,-0.488,0.427,60.000,9810.000,1.000
9.648,2.125,-3.837,3.364,5.319,2.032,10.742,3.159,-0.088,0.923,-0.443,-1.678,-0.458,0.305,60.000,9811.000,1.000
2.085,-2.044,-6.896,-0.464,2.343,0.218,6.668,0.461,-0.087,0.922,-0.443,-1.740,-0.641,0.336,60.000,9812.000,1.000
-14.830,-10.745,-11.748,-6.293,-3.017,-2.753,-0.401,-2.801,-0.089,0.922,-0.444,-1.801,-0.793,0.366,60.000,9813.000,1.000
-16.873,-10.088,-10.897,-5.308,-1.338,-0.495,1.764,-0.562,-0.090,0.921,-0.442,-1.892,-0.916,0.397,60.000,9814.000,1.000
2.123,3.086,-4.094,2.951,8.145,6.716,13.343,6.846,-0.091,0.918,-0.441,-1.892,-1.007,0.214,60.000,9815.000,1.000
20.790,15.978,1.272,9.495,15.835,11.989,21.074,12.629,-0.094,0.916,-0.444,-1.740,-1.190,0.214,60.000,9816.000,1.000
18.803,16.546,0.411,7.924,14.395,11.149,15.930,12.188,-0.093,0.913,-0.445,-1.648,-1.373,0.061,60.000,9817.000,1.000
2.701,8.371,-2.989,2.379,7.797,7.937,4.607,8.355,-0.093,0.912,-0.447,-1.556,-1.526,0.000,60.000,9818.000,1.000
-4.263,4.694,-2.433,1.385,5.474,8.670,0.656,6.929,-0.091,0.913,-0.449,-1.556,-1.709,0.122,60.000,9819.000,1.000
5.608,9.965,1.858,5.787,9.436,13.353,6.959,8.611,-0.090,0.913,-0.452,-1.404,-1.740,0.061,60.000,9820.000,1.000
13.865,13.893,2.775,7.330,11.670,15.309,12.526,8.358,-0.090,0.914,-0.451,-1.282,-1.862,0.031,60.000,9821.000,1.000
3.266,6.896,-3.546,0.651,5.864,10.348,8.370,3.179,-0.087,0.912,-0.451,-1.099,-1.953,0.092,60.000,9822.000,1.000
-16.013,-5.274,-11.764,-8.487,-3.393,2.424,-0.262,-2.994,-0.087,0.910,-0.452,-0.946,-1.862,0.183,60.000,9823.000,1.000
-17.834,-7.964,-13.703,-10.063,-6.387,-1.536,-1.393,-4.021,-0.087,0.911,-0.448,-0.824,-1.984,0.305,60.000,9824.000,1.000
0.373,0.307,-10.394,-4.696,-3.131,-1.870,4.320,-0.840,-0.086,0.911,-0.449,-0.702,-1.953,0.305,60.000,9825.000,1.000
4.854,0.829,-12.645,-5.493,-6.224,-6.787,0.219,-2.003,-0.084,0.909,-0.452,-0.488,-1.862,0.336,60.000,9826.000,1.000
-28.785,-19.509,-24.907,-19.044,-22.309,-18.919,-21.571,-11.163,-0.081,0.910,-0.451,-0.214,-1.831,0.397,60.000,9827.000,1.000
-67.693,-41.651,-33.945,-30.438,-36.123,-26.209,-39.820,-17.999,-0.081,0.911,-0.453,0.031,-1.801,0.458,60.000,9828.000,1.000
-47.870,-29.763,-22.215,-17.750,-24.140,-13.863,-23.433,-8.588,-0.081,0.912,-0.452,0.153,-1.740,0.580,60.000,9829.000,1.000
37.095,18.798,5.237,15.178,11.429,12.613,23.349,13.263,-0.081,0.917,-0.452,0.214,-1.770,0.641,60.000,9830.000,1.000
101.894,55.495,18.539,33.236,34.746,26.212,51.888,24.044,-0.081,0.920,-0.450,0.153,-1.587,0.732,60.000,9831.000,1.000
61.588,33.339,-2.363,9.950,16.115,9.099,23.438,7.951,-0.081,0.924,-0.448,0.092,-1.617,0.702,60.000,9832.000,1.000
-57.511,-31.809,-39.346,-36.055,-28.420,-22.861,-38.850,-20.506,-0.083,0.929,-0.444,0.061,-1.373,0.702,60.000,9833.000,1.000
-137.130,-73.685,-53.821,-58.596,-51.778,-36.023,-71.415,-30.645,-0.084,0.933,-0.448,-0.275,-1.312,0.702,60.000,9834.000,1.000
-100.781,-50.796,-30.891,-36.632,-29.767,-17.636,-42.900,-10.960,-0.082,0.933,-0.449,-0.488,-1.221,0.610,60.000,9835.000,1.000
6.197,10.102,5.913,4.512,13.763,11.709,13.636,19.128,-0.079,0.935,-0.445,-0.824,-1.160,0.519,60.000,9836.000,1.000
82.576,52.221,25.044,26.809,38.928,25.097,45.280,33.806,-0.078,0.930,-0.443,-1.038,-0.946,0.519,60.000,9837.000,1.000
80.673,49.751,18.898,19.004,31.687,16.897,34.961,26.844,-0.076,0.925,-0.445,-1.312,-0.793,0.488,60.000,9838.000,1.000
32.090,21.105,2.831,-1.758,8.477,1.176,5.784,11.036,-0.074,0.915,-0.448,-1.404,-0.580,0.397,60.000,9839.000,1.000
-9.557,-3.638,-7.127,-15.654,-9.221,-8.073,-14.390,0.040,-0.074,0.911,-0.448,-1.434,-0.397,0.305,60.000,9840.000,1.000
-21.686,-11.854,-7.715,-17.509,-14.152,-8.413,-18.196,-2.970,-0.075,0.905,-0.448,-1.404,-0.183,0.336,60.000,9841.000,1.000
-13.409,-8.258,-4.045,-12.948,-10.983,-4.771,-13.730,-2.043,-0.074,0.903,-0.448,-1.343,0.092,0.336,60.000,9842.000,1.000
-2.787,-2.624,-1.389,-8.816,-6.786,-2.143,-10.556,-1.548,-0.075,0.903,-0.448,-1.221,0.214,0.336,60.000,9843.000,1.000
-0.285,-0.996,-1.281,-7.895,-5.144,-2.121,-12.104,-2.785,-0.075,0.905,-0.448,-1.099,0.366,0.336,60.000,9844.000,1.000
-4.198,-2.828,-1.782,-8.396,-4.929,-2.972,-15.282,-4.141,-0.073,0.906,-0.447,-1.068,0.458,0.397,60.000,9845.000,1.000
-4.946,-2.828,0.151,-6.457,-2.353,-1.555,-14.187,-2.947,-0.074,0.910,-0.448,-1.160,0.671,0.458,60.000,9846.000,1.000
5.282,3.603,5.714,-0.070,4.965,3.916,-5.291,1.882,-0.075,0.914,-0.452,-1.160,0.702,0.427,60.000,9847.000,1.000
21.483,13.573,11.827,7.438,13.817,11.091,7.436,7.414,-0.081,0.918,-0.451,-1.251,0.916,0.427,60.000,9848.000,1.000
28.761,18.223,13.500,9.927,17.434,15.112,15.134,8.618,-0.085,0.919,-0.448,-1.312,1.038,0.397,60.000,9849.000,1.000
13.685,9.629,7.515,3.127,10.586,12.236,10.391,2.090,-0.089,0.921,-0.446,-1.404,0.885,0.244,60.000,9850.000,1.000
-29.224,-15.125,-6.200,-13.507,-7.869,1.779,-9.229,-12.236,-0.095,0.921,-0.448,-1.495,0.702,0.305,60.000,9851.000,1.000
-83.402,-46.150,-20.518,-32.100,-29.857,-10.127,-33.530,-28.016,-0.099,0.923,-0.447,-1.678,0.549,0.244,60.000,9852.000,1.000
-90.458,-50.182,-16.745,-30.641,-31.909,-7.189,-31.453,-29.425,-0.101,0.920,-0.446,-1.892,0.275,0.183,60.000,9853.000,1.000
25.484,15.137,24.137,14.935,12.889,26.856,31.967,-0.411,-0.101,0.921,-0.446,-1.923,-0.061,0.092,60.000,9854.000,1.000
257.238,144.722,90.410,93.659,96.100,81.458,143.441,50.382,-0.100,0.923,-0.447,-1.953,-0.305,0.061,60.000,9855.000,1.000
450.537,251.201,129.778,144.409,155.471,111.417,218.517,81.595,-0.098,0.923,-0.446,-2.045,-0.702,-0.061,60.000,9856.000,1.000
419.197,230.996,95.458,107.861,126.103,77.268,172.126,55.623,-0.097,0.922,-0.443,-2.228,-0.946,0.061,60.000,9857.000,1.000
145.886,76.602,2.015,-4.032,14.364,-6.867,16.472,-16.768,-0.096,0.925,-0.445,-2.350,-1.129,0.000,60.000,9858.000,1.000
-176.754,-102.515,-81.602,-110.096,-98.658,-80.330,-137.533,-81.440,-0.094,0.926,-0.445,-2.472,-1.312,0.061,60.000,9859.000,1.000
-331.706,-185.581,-99.932,-139.086,-136.167,-95.296,-187.703,-94.485,-0.093,0.926,-0.443,-2.563,-1.465,0.214,60.000,9860.000,1.000
-277.153,-151.459,-60.939,-94.570,-96.195,-59.809,-133.482,-62.153,-0.092,0.925,-0.440,-2.777,-1.587,0.305,60.000,9861.000,1.000
-141.203,-73.307,-14.403,-35.113,-36.626,-18.132,-53.399,-24.020,-0.089,0.927,-0.441,-2.808,-1.648,0.458,60.000,9862.000,1.000
-56.314,-24.890,5.021,-6.033,-6.073,-0.603,-12.241,-7.613,-0.088,0.926,-0.444,-2.808,-1.862,0.702,60.000,9863.000,1.000
-38.653,-14.216,3.854,-3.190,-3.349,-1.111,-8.149,-7.400,-0.087,0.925,-0.446,-2.899,-1.862,0.885,60.000,9864.000,1.000
-25.161,-5.890,5.693,1.595,-0.340,1.272,-3.817,-4.074,-0.085,0.923,-0.445,-2.930,-1.923,1.038,60.000,9865.000,1.000
15.856,16.842,16.507,17.516,13.646,11.640,14.796,7.201,-0.081,0.921,-0.441,-2.899,-1.892,1.251,60.000,9866.000,1.000
48.026,32.946,21.816,27.963,22.543,16.971,26.545,14.060,-0.080,0.920,-0.444,-2.930,-1.892,1.282,60.000,9867.000,1.000
26.953,18.290,10.317,17.903,10.502,7.163,10.492,6.296,-0.079,0.919,-0.445,-2.930,-1.831,1.373,60.000,9868.000,1.000
-33.159,-17.566,-8.833,-3.474,-13.791,-9.789,-22.184,-9.283,-0.078,0.917,-0.447,-2.869,-1.678,1.495,60.000,9869.000,1.000
-70.694,-39.173,-15.954,-12.485,-25.675,-16.758,-39.075,-16.308,-0.077,0.914,-0.446,-2.747,-1.617,1.495,60.000,9870.000,1.000
-47.572,-25.631,-3.997,1.155,-13.328,-7.785,-24.232,-7.812,-0.078,0.914,-0.442,-2.686,-1.495,1.465,60.000,9871.000,1.000
10.020,7.526,14.206,23.624,9.862,6.140,5.190,7.062,-0.078,0.916,-0.444,-2.594,-1.373,1.587,60.000,9872.000,1.000
41.076,25.920,20.021,32.546,20.436,9.742,18.237,13.683,-0.079,0.915,-0.445,-2.472,-1.343,1.526,60.000,9873.000,1.000
14.136,12.423,8.453,20.686,9.593,-0.280,2.960,7.364,-0.078,0.914,-0.444,-2.350,-1.160,1.373,60.000,9874.000,1.000
-41.646,-16.251,-7.408,2.740,-8.572,-12.548,-22.129,-2.494,-0.078,0.914,-0.442,-2.136,-1.068,1.251,60.000,9875.000,1.000
-69.288,-28.628,-10.779,-0.955,-12.881,-13.653,-29.006,-3.052,-0.076,0.914,-0.441,-1.984,-0.854,1.160,60.000,9876.000,1.000
-42.974,-11.477,1.511,14.388,2.715,-2.100,-9.637,8.315,-0.077,0.912,-0.445,-1.892,-0.824,1.068,60.000,9877.000,1.000
4.924,15.725,15.582,32.551,22.132,9.766,15.133,20.788,-0.076,0.915,-0.443,-1.709,-0.641,1.007,60.000,9878.000,1.000
21.436,22.824,16.248,34.315,24.868,9.482,19.304,22.311,-0.075,0.912,-0.443,-1.678,-0.397,0.916,60.000,9879.000,1.000
-5.239,3.927,4.529,19.365,9.504,-1.221,1.649,13.558,-0.073,0.912,-0.440,-1.404,-0.244,0.763,60.000,9880.000,1.000
-33.154,-16.313,-3.959,6.172,-4.881,-8.703,-13.880,6.769,-0.073,0.914,-0.439,-1.404,-0.061,0.702,60.000,9881.000,1.000
-18.283,-12.483,2.142,9.851,-1.255,-3.733,-7.174,10.953,-0.074,0.915,-0.441,-1.160,0.183,0.488,60.000,9882.000,1.000
27.543,9.093,15.027,22.756,13.909,6.325,12.132,20.204,-0.073,0.917,-0.439,-1.007,0.397,0.305,60.000,9883.000,1.000
49.118,17.936,17.330,24.044,18.747,6.456,16.642,21.011,-0.074,0.913,-0.444,-0.946,0.549,0.336,60.000,9884.000,1.000
19.471,-0.362,5.094,7.535,4.852,-6.024,-2.319,10.083,-0.077,0.912,-0.444,-0.671,0.671,0.214,60.000,9885.000,1.000
-22.468,-23.807,-6.215,-8.883,-10.962,-16.731,-21.606,-0.691,-0.077,0.910,-0.443,-0.519,0.702,0.275,60.000,9886.000,1.000
-19.215,-21.157,-1.167,-5.474,-7.925,-11.839,-14.698,0.932,-0.079,0.913,-0.444,-0.336,0.793,0.214,60.000,9887.000,1.000
28.159,5.510,14.352,12.353,10.105,3.125,12.020,10.985,-0.080,0.913,-0.441,-0.122,0.824,0.061,60.000,9888.000,1.000
58.566,21.435,19.993,19.941,18.517,9.823,25.873,14.155,-0.082,0.916,-0.440,0.000,0.824,0.000,60.000,9889.000,1.000
31.614,4.853,7.921,5.871,4.677,1.268,10.904,4.318,-0.081,0.917,-0.443,0.061,0.854,-0.183,60.000,9890.000,1.000
-16.946,-23.077,-6.302,-12.388,-14.352,-8.827,-10.316,-6.866,-0.083,0.914,-0.440,0.092,0.946,-0.275,60.000,9891.000,1.000
-20.023,-24.632,-3.867,-10.934,-13.300,-4.207,-5.686,-5.182,-0.085,0.916,-0.442,0.275,0.824,-0.244,60.000,9892.000,1.000
29.568,3.274,11.116,7.694,6.755,10.949,21.901,5.936,-0.087,0.915,-0.440,0.305,0.793,-0.244,60.000,9893.000,1.000
67.024,23.509,16.337,17.034,18.728,16.649,36.700,9.024,-0.090,0.919,-0.444,0.397,0.610,-0.244,60.000,9894.000,1.000
41.375,7.786,1.297,2.096,5.385,3.739,17.819,-3.980,-0.090,0.918,-0.446,0.427,0.549,-0.336,60.000,9895.000,1.000
-17.327,-26.145,-18.280,-20.538,-17.926,-13.597,-12.392,-20.402,-0.090,0.919,-0.449,0.427,0.458,-0.275,60.000,9896.000,1.000
-37.359,-37.718,-20.506,-24.163,-23.275,-15.776,-16.799,-22.683,-0.090,0.918,-0.447,0.458,0.275,-0.275,60.000,9897.000,1.000
-0.113,-17.004,-5.993,-7.153,-6.845,-3.120,7.606,-11.152,-0.090,0.919,-0.442,0.366,0.122,-0.214,60.000,9898.000,1.000
38.768,4.441,4.147,6.235,7.775,6.050,27.585,-2.589,-0.089,0.919,-0.443,0.458,-0.153,-0.122,60.000,9899.000,1.000
26.361,-2.611,-3.175,-1.139,2.218,0.432,19.167,-7.497,-0.091,0.920,-0.445,0.458,-0.275,-0.092,60.000,9900.000,1.000
-20.493,-28.153,-17.404,-18.320,-13.886,-11.045,-2.890,-17.474,-0.090,0.921,-0.447,0.305,-0.427,0.000,60.000,9901.000,1.000
-41.895,-38.656,-19.892,-22.531,-17.711,-13.023,-7.397,-17.614,-0.091,0.920,-0.444,0.366,-0.488,0.122,60.000,9902.000,1.000
-15.862,-22.252,-8.786,-9.628,-4.248,-4.727,10.715,-6.543,-0.090,0.918,-0.443,0.397,-0.580,0.183,60.000,9903.000,1.000
17.376,-1.779,0.414,2.578,8.757,0.369,25.476,2.973,-0.090,0.920,-0.444,0.305,-0.793,0.183,60.000,9904.000,1.000
13.830,-1.861,-3.306,-0.432,5.808,-6.455,15.983,1.691,-0.088,0.918,-0.448,0.244,-0.885,0.305,60.000,9905.000,1.000
-18.116,-17.599,-13.007,-11.947,-6.961,-18.057,-7.136,-4.853,-0.086,0.914,-0.447,0.366,-0.977,0.336,60.000,9906.000,1.000
-33.706,-23.895,-14.404,-14.819,-11.569,-21.257,-17.197,-4.792,-0.085,0.912,-0.446,0.397,-0.977,0.458,60.000,9907.000,1.000
-14.085,-10.768,-5.427,-5.212,-2.818,-14.127,-6.888,3.808,-0.085,0.911,-0.448,0.549,-1.129,0.488,60.000,9908.000,1.000
12.850,5.303,2.609,4.015,6.708,-6.782,5.720,11.513,-0.083,0.911,-0.452,0.610,-1.190,0.458,60.000,9909.000,1.000
14.928,6.121,1.488,2.275,5.529,-6.568,4.707,11.106,-0.081,0.912,-0.449,0.671,-1.190,0.549,60.000,9910.000,1.000
-3.093,-4.817,-3.861,-5.519,-2.126,-9.290,-3.804,6.340,-0.082,0.913,-0.448,0.641,-1.221,0.610,60.000,9911.000,1.000
-10.569,-9.200,-3.415,-7.174,-3.665,-6.516,-3.091,5.658,-0.078,0.916,-0.450,0.763,-1.160,0.519,60.000,9912.000,1.000
3.264,-0.504,3.176,-0.939,3.378,1.524,8.549,10.096,-0.075,0.916,-0.449,0.702,-1.129,0.671,60.000,9913.000,1.000
14.673,7.711,6.276,2.588,8.204,6.030,14.901,12.538,-0.074,0.916,-0.449,0.671,-0.946,0.671,60.000,9914.000,1.000
-2.963,0.058,-1.042,-5.299,1.095,0.942,2.657,7.467,-0.077,0.917,-0.452,0.732,-0.824,0.732,60.000,9915.000,1.000
-50.918,-24.492,-16.046,-22.411,-16.462,-11.143,-24.955,-3.444,-0.077,0.917,-0.448,0.671,-0.824,0.763,60.000,9916.000,1.000
-106.336,-53.258,-29.825,-38.823,-34.345,-22.318,-52.463,-13.807,-0.082,0.917,-0.449,0.641,-0.702,0.732,60.000,9917.000,1.000
-136.122,-67.743,-32.770,-43.157,-40.315,-24.351,-61.950,-16.458,-0.083,0.918,-0.453,0.549,-0.671,0.671,60.000,9918.000,1.000
-108.274,-50.122,-17.715,-26.416,-24.237,-11.329,-39.574,-5.684,-0.086,0.917,-0.454,0.610,-0.641,0.519,60.000,9919.000,1.000
-17.853,2.079,12.680,9.188,12.700,14.220,11.740,16.856,-0.089,0.917,-0.454,0.580,-0.610,0.336,60.000,9920.000,1.000
86.675,61.436,40.518,43.024,49.853,36.937,62.297,37.516,-0.086,0.916,-0.451,0.549,-0.885,0.244,60.000,9921.000,1.000
131.424,86.706,45.193,49.777,60.276,39.584,75.251,40.163,-0.085,0.915,-0.449,0.458,-0.885,0.061,60.000,9922.000,1.000
87.349,61.999,24.390,24.860,37.210,20.878,42.916,22.737,-0.083,0.916,-0.449,0.427,-0.916,0.092,60.000,9923.000,1.000
4.633,15.547,-1.371,-8.160,3.459,-1.156,-2.175,1.197,-0.081,0.914,-0.450,0.183,-0.916,-0.061,60.000,9924.000,1.000
-39.635,-9.782,-10.205,-21.724,-12.179,-7.969,-21.234,-7.203,-0.083,0.915,-0.452,0.122,-0.885,-0.153,60.000,9925.000,1.000
-26.783,-3.921,-2.775,-14.191,-6.454,-0.757,-11.821,-2.993,-0.083,0.913,-0.451,0.000,-0.854,-0.214,60.000,9926.000,1.000
-6.335,5.554,2.710,-6.801,-0.458,4.460,-3.652,-0.774,-0.083,0.917,-0.454,0.092,-0.793,-0.336,60.000,9927.000,1.000
-16.138,-1.798,-1.686,-11.055,-6.613,0.922,-12.399,-7.013,-0.083,0.916,-0.450,0.031,-0.702,-0.488,60.000,9928.000,1.000
-16.151,-2.926,0.655,-8.846,-6.786,2.995,-11.820,-8.333,-0.083,0.916,-0.452,0.000,-0.793,-0.458,60.000,9929.000,1.000
61.435,39.935,27.543,22.427,23.440,25.757,30.712,10.029,-0.084,0.916,-0.452,-0.061,-0.793,-0.305,60.000,9930.000,1.000
198.934,116.067,65.373,69.451,72.258,57.255,97.140,37.867,-0.085,0.918,-0.450,-0.092,-0.763,-0.336,60.000,9931.000,1.000
281.309,160.709,76.834,87.909,94.007,65.670,125.061,45.579,-0.084,0.920,-0.453,-0.153,-0.824,-0.336,60.000,9932.000,1.000
216.770,123.155,43.000,51.605,59.072,35.580,76.304,17.730,-0.085,0.920,-0.454,-0.153,-0.854,-0.214,60.000,9933.000,1.000
43.417,25.886,-12.621,-15.120,-10.149,-11.818,-16.594,-27.211,-0.085,0.919,-0.451,-0.336,-0.793,-0.183,60.000,9934.000,1.000
-108.595,-57.849,-48.125,-62.052,-61.767,-40.102,-83.211,-55.621,-0.085,0.919,-0.450,-0.305,-0.702,-0.092,60.000,9935.000,1.000
-149.034,-78.396,-45.142,-63.595,-66.732,-34.212,-86.004,-52.557,-0.084,0.920,-0.450,-0.397,-0.793,-0.061,60.000,9936.000,1.000
-97.217,-47.770,-19.996,-36.067,-39.499,-9.639,-46.462,-31.386,-0.086,0.921,-0.451,-0.458,-0.763,-0.061,60.000,9937.000,1.000
-34.797,-12.211,-0.360,-12.264,-13.739,8.796,-11.024,-14.885,-0.085,0.921,-0.450,-0.641,-0.793,0.122,60.000,9938.000,1.000
-15.724,-1.740,1.854,-8.084,-7.405,11.024,-3.693,-12.749,-0.087,0.920,-0.454,-0.671,-0.824,0.153,60.000,9939.000,1.000
-29.658,-10.197,-4.991,-14.771,-12.983,5.205,-13.127,-17.801,-0.085,0.920,-0.455,-0.671,-0.824,0.305,60.000,9940.000,1.000
-37.589,-15.493,-7.878,-16.624,-14.709,3.226,-16.470,-19.021,-0.086,0.919,-0.453,-0.793,-0.854,0.427,60.000,9941.000,1.000
-21.044,-7.065,-3.219,-8.625,-7.041,8.045,-5.262,-13.253,-0.087,0.917,-0.451,-0.763,-0.946,0.488,60.000,9942.000,1.000
1.495,5.086,1.663,0.733,1.621,12.808,8.487,-6.507,-0.089,0.920,-0.448,-0.916,-0.916,0.519,60.000,9943.000,1.000
0.084,4.649,-1.300,1.075,0.381,10.283,8.238,-5.814,-0.087,0.919,-0.446,-1.038,-0.916,0.519,60.000,9944.000,1.000
-29.211,-10.427,-10.579,-6.998,-10.560,1.893,-6.883,-10.545,-0.087,0.919,-0.448,-1.099,-0.946,0.488,60.000,9945.000,1.000
-56.705,-24.007,-15.890,-11.863,-19.040,-3.359,-19.921,-12.453,-0.086,0.918,-0.449,-1.221,-0.885,0.519,60.000,9946.000,1.000
-49.075,-18.361,-9.171,-3.455,-13.606,1.491,-14.183,-4.689,-0.085,0.919,-0.451,-1.190,-0.977,0.488,60.000,9947.000,1.000
-10.452,3.304,4.334,12.991,1.621,11.844,5.087,8.420,-0.085,0.915,-0.448,-1.282,-0.977,0.610,60.000,9948.000,1.000
17.071,17.167,10.210,20.612,9.566,15.256,14.315,14.566,-0.086,0.914,-0.450,-1.373,-1.038,0.580,60.000,9949.000,1.000
2.121,6.359,1.774,10.792,0.435,6.226,0.108,8.021,-0.085,0.914,-0.450,-1.282,-1.099,0.580,60.000,9950.000,1.000
-36.070,-17.155,-11.070,-5.070,-15.081,-6.194,-22.706,-2.574,-0.084,0.914,-0.447,-1.312,-1.129,0.519,60.000,9951.000,1.000
-47.365,-24.502,-12.721,-7.503,-16.964,-8.162,-26.882,-3.557,-0.084,0.915,-0.448,-1.282,-1.099,0.488,60.000,9952.000,1.000
-14.534,-6.123,-1.840,6.601,-1.238,1.393,-7.339,6.704,-0.083,0.913,-0.447,-1.251,-1.129,0.641,60.000,9953.000,1.000
22.005,14.874,6.479,19.348,13.831,8.993,11.355,15.678,-0.084,0.912,-0.448,-1.373,-1.068,0.641,60.000,9954.000,1.000
16.042,12.368,0.566,14.875,10.880,4.151,6.755,13.177,-0.085,0.913,-0.448,-1.282,-1.038,0.549,60.000,9955.000,1.000
-23.224,-8.656,-12.152,0.042,-4.163,-6.956,-12.340,4.670,-0.084,0.912,-0.444,-1.373,-1.099,0.549,60.000,9956.000,1.000
-40.486,-17.690,-14.188,-4.107,-9.469,-9.415,-17.126,3.995,-0.083,0.914,-0.447,-1.404,-1.068,0.580,60.000,9957.000,1.000
-8.477,-0.067,-1.915,8.755,2.948,-0.221,1.536,13.816,-0.084,0.915,-0.447,-1.373,-1.007,0.610,60.000,9958.000,1.000
33.234,21.988,8.769,20.813,15.818,7.035,19.530,21.154,-0.086,0.917,-0.445,-1.343,-1.007,0.519,60.000,9959.000,1.000
30.425,18.900,3.710,14.092,10.007,0.561,11.595,14.716,-0.085,0.918,-0.446,-1.404,-1.038,0.519,60.000,9960.000,1.000
-12.833,-6.089,-10.252,-4.785,-9.101,-13.154,-14.355,0.461,-0.083,0.918,-0.447,-1.495,-1.068,0.488,60.000,9961.000,1.000
-37.127,-19.602,-13.645,-12.075,-17.291,-16.774,-25.735,-5.093,-0.084,0.918,-0.446,-1.404,-0.977,0.427,60.000,9962.000,1.000
-7.578,-3.045,-0.894,1.302,-3.835,-5.329,-8.392,3.686,-0.084,0.918,-0.449,-1.343,-1.129,0.458,60.000,9963.000,1.000
38.796,22.062,11.892,17.530,14.070,7.052,14.777,14.644,-0.086,0.919,-0.448,-1.373,-1.099,0.519,60.000,9964.000,1.000
43.553,23.357,8.665,16.043,14.679,6.234,15.177,14.480,-0.085,0.919,-0.448,-1.404,-1.099,0.458,60.000,9965.000,1.000
4.537,0.647,-5.445,0.479,0.305,-3.592,-4.014,5.716,-0.086,0.920,-0.449,-1.526,-1.068,0.488,60.000,9966.000,1.000
-21.661,-13.869,-11.106,-6.720,-6.376,-6.180,-13.118,2.288,-0.085,0.920,-0.447,-1.617,-1.038,0.488,60.000,9967.000,1.000
1.724,-0.052,-1.530,4.323,5.730,3.684,2.028,9.411,-0.088,0.920,-0.447,-1.740,-1.068,0.458,60.000,9968.000,1.000
41.434,22.808,8.399,17.479,20.657,12.851,20.507,16.118,-0.087,0.920,-0.449,-1.801,-1.038,0.488,60.000,9969.000,1.000
41.347,23.226,2.957,13.353,17.655,8.218,15.950,10.701,-0.086,0.919,-0.448,-1.862,-1.160,0.458,60.000,9970.000,1.000
-1.079,0.038,-13.023,-4.222,-0.573,-5.172,-7.172,-2.834,-0.087,0.919,-0.448,-1.831,-1.099,0.458,60.000,9971.000,1.000
-30.924,-16.186,-20.270,-12.910,-11.049,-10.186,-18.716,-9.233,-0.086,0.917,-0.448,-1.740,-1.160,0.519,60.000,9972.000,1.000
-11.219,-5.291,-11.171,-2.301,-1.635,-0.570,-4.073,-2.284,-0.086,0.917,-0.452,-1.617,-1.190,0.519,60.000,9973.000,1.000
27.635,15.616,0.537,12.317,13.100,10.984,16.068,7.189,-0.085,0.916,-0.447,-1.526,-1.099,0.427,60.000,9974.000,1.000
31.201,16.624,-1.020,11.158,12.376,10.092,14.236,6.183,-0.084,0.915,-0.449,-1.587,-1.099,0.488,60.000,9975.000,1.000
-6.002,-4.825,-13.009,-4.050,-3.223,-0.914,-7.423,-3.704,-0.084,0.917,-0.454,-1.434,-1.099,0.397,60.000,9976.000,1.000
-33.993,-20.888,-18.227,-13.032,-13.002,-6.841,-20.307,-9.139,-0.085,0.915,-0.452,-1.343,-1.099,0.458,60.000,9977.000,1.000
-16.580,-11.981,-9.056,-5.111,-4.767,-0.682,-8.627,-3.794,-0.085,0.916,-0.452,-1.373,-1.007,0.488,60.000,9978.000,1.000
20.728,7.219,2.645,7.105,9.317,7.694,10.309,3.459,-0.084,0.915,-0.449,-1.221,-1.038,0.427,60.000,9979.000,1.000
27.893,9.188,2.255,6.131,10.306,6.059,11.297,1.368,-0.086,0.913,-0.447,-1.129,-1.038,0.366,60.000,9980.000,1.000
-3.212,-9.549,-8.521,-7.027,-2.545,-3.904,-5.257,-8.601,-0.086,0.916,-0.448,-1.129,-0.977,0.427,60.000,9981.000,1.000
-29.635,-24.268,-14.446,-14.587,-11.547,-9.385,-14.803,-14.289,-0.083,0.916,-0.450,-0.977,-0.946,0.427,60.000,9982.000,1.000
-16.942,-16.118,-7.578,-6.390,-5.076,-4.309,-2.931,-9.343,-0.082,0.916,-0.447,-0.885,-0.916,0.458,60.000,9983.000,1.000
16.498,3.568,3.179,7.200,7.666,3.021,15.959,-1.088,-0.082,0.918,-0.448,-0.854,-0.854,0.458,60.000,9984.000,1.000
28.101,10.353,5.386,10.158,10.344,1.781,19.276,0.030,-0.082,0.917,-0.449,-0.763,-0.763,0.519,60.000,9985.000,1.000
7.221,-1.467,-0.799,1.263,0.688,-7.517,5.074,-6.159,-0.081,0.918,-0.448,-0.763,-0.763,0.549,60.000,9986.000,1.000
-13.779,-13.218,-3.982,-5.671,-7.733,-14.293,-7.132,-10.156,-0.081,0.918,-0.446,-0.702,-0.641,0.519,60.000,9987.000,1.000
-6.605,-8.940,1.843,-1.580,-4.966,-12.512,-3.901,-6.285,-0.081,0.917,-0.446,-0.732,-0.580,0.397,60.000,9988.000,1.000
16.128,4.110,9.559,6.542,2.782,-7.779,5.763,0.348,-0.082,0.917,-0.447,-0.610,-0.580,0.397,60.000,9989.000,1.000
22.509,8.164,9.646,6.986,3.538,-8.238,5.699,1.933,-0.083,0.919,-0.449,-0.549,-0.366,0.336,60.000,9990.000,1.000
5.118,-0.529,2.835,-0.700,-3.948,-13.575,-5.164,-1.663,-0.083,0.918,-0.448,-0.580,-0.305,0.336,60.000,9991.000,1.000
-10.319,-7.458,-1.259,-5.578,-9.033,-16.064,-12.173,-3.427,-0.082,0.919,-0.444,-0.732,-0.336,0.427,60.000,9992.000,1.000
-2.611,-1.364,2.242,-1.115,-4.872,-12.164,-6.581,0.259,-0.082,0.918,-0.448,-0.793,-0.214,0.397,60.000,9993.000,1.000
16.348,10.279,7.457,6.289,2.253,-7.333,2.594,4.789,-0.084,0.917,-0.448,-0.580,-0.244,0.427,60.000,9994.000,1.000
20.565,12.695,6.860,7.022,2.434,-7.890,2.081,4.375,-0.088,0.916,-0.449,-0.702,-0.305,0.427,60.000,9995.000,1.000
5.241,3.664,1.432,0.959,-4.497,-12.421,-7.938,-0.094,-0.086,0.916,-0.450,-0.671,-0.305,0.397,60.000,9996.000,1.000
-7.307,-3.783,-0.874,-2.805,-8.867,-13.488,-14.043,-2.354,-0.086,0.915,-0.448,-0.641,-0.275,0.244,60.000,9997.000,1.000
0.158,0.074,3.344,0.900,-4.922,-7.978,-8.053,0.271,-0.086,0.914,-0.450,-0.580,-0.275,0.275,60.000,9998.000,1.000
16.433,8.842,8.377,6.532,1.535,-1.256,2.557,3.363,-0.088,0.915,-0.450,-0.671,-0.305,0.336,60.000,9999.000,1.000
18.915,10.042,7.528,6.184,1.669,0.069,5.378,1.768,-0.086,0.918,-0.449,-0.732,-0.305,0.336,60.000,10000.000,1.000
3.315,1.543,1.579,-0.029,-5.048,-3.935,-1.678,-3.725,-0.086,0.917,-0.447,-0.702,-0.214,0.336,60.000,10001.000,1.000
-11.179,-5.988,-2.372,-4.266,-10.441,-7.078,-8.506,-7.308,-0.085,0.915,-0.450,-0.732,-0.244,0.366,60.000,10002.000,1.000
-8.664,-4.091,-0.557,-1.996,-8.927,-5.612,-7.102,-5.836,-0.085,0.915,-0.447,-0.671,-0.305,0.427,60.000,10003.000,1.000
3.528,2.743,3.168,2.322,-4.177,-2.373,-1.070,-2.332,-0.085,0.916,-0.448,-0.763,-0.366,0.427,60.000,10004.000,1.000
7.618,4.548,3.486,2.154,-2.835,-1.595,1.443,-1.238,-0.083,0.917,-0.447,-0.702,-0.366,0.397,60.000,10005.000,1.000
-1.211,-1.183,0.478,-2.642,-5.809,-3.042,-1.245,-2.962,-0.086,0.916,-0.449,-0.671,-0.336,0.366,60.000,10006.000,1.000
-9.528,-6.794,-0.809,-5.934,-7.640,-2.545,-2.586,-3.924,-0.086,0.918,-0.448,-0.671,-0.458,0.366,60.000,10007.000,1.000
-6.143,-5.999,2.026,-4.326,-5.083,1.319,1.649,-2.225,-0.088,0.918,-0.451,-0.702,-0.458,0.458,60.000,10008.000,1.000
2.517,-2.261,5.496,-1.507,-1.792,4.825,6.997,-0.351,-0.087,0.917,-0.451,-0.793,-0.458,0.427,60.000,10009.000,1.000
3.333,-2.533,5.548,-2.262,-2.644,4.293,7.191,-1.313,-0.084,0.915,-0.450,-0.793,-0.427,0.458,60.000,10010.000,1.000
-5.273,-7.210,2.860,-5.978,-7.001,0.780,2.734,-4.481,-0.083,0.914,-0.454,-0.732,-0.549,0.519,60.000,10011.000,1.000
-10.354,-8.767,2.005,-7.280,-8.994,-1.089,0.715,-6.163,-0.085,0.916,-0.451,-0.671,-0.702,0.610,60.000,10012.000,1.000
-2.776,-2.393,4.877,-3.714,-5.435,0.736,4.691,-4.869,-0.083,0.916,-0.452,-0.702,-0.702,0.549,60.000,10013.000,1.000
10.170,7.070,8.326,0.987,0.217,3.654,9.985,-3.252,-0.084,0.916,-0.451,-0.580,-0.763,0.519,60.000,10014.000,1.000
15.417,11.594,8.860,2.229,3.030,4.600,10.802,-4.141,-0.083,0.915,-0.449,-0.702,-0.732,0.458,60.000,10015.000,1.000
10.281,9.286,6.873,-0.052,2.487,3.637,7.575,-6.854,-0.085,0.914,-0.448,-0.763,-0.641,0.427,60.000,10016.000,1.000
5.304,6.027,5.940,-1.685,2.598,3.404,6.353,-7.871,-0.083,0.915,-0.449,-0.854,-0.702,0.488,60.000,10017.000,1.000
6.760,5.640,6.824,-1.216,4.814,4.284,8.687,-6.094,-0.086,0.915,-0.451,-0.885,-0.763,0.488,60.000,10018.000,1.000
3.842,2.691,5.164,-3.260,4.186,2.748,6.868,-5.095,-0.086,0.917,-0.451,-0.854,-0.824,0.427,60.000,10019.000,1.000
-16.515,-9.383,-2.175,-11.641,-3.718,-3.299,-5.473,-8.062,-0.085,0.916,-0.451,-0.885,-0.854,0.458,60.000,10020.000,1.000
-45.788,-25.284,-10.543,-21.471,-14.084,-9.379,-20.983,-12.181,-0.084,0.917,-0.448,-0.885,-0.793,0.488,60.000,10021.000,1.000
-55.085,-28.832,-10.558,-21.942,-15.132,-7.444,-22.619,-10.663,-0.084,0.918,-0.453,-1.007,-0.824,0.458,60.000,10022.000,1.000
-29.774,-12.509,-0.055,-10.033,-2.639,3.760,-4.713,-2.020,-0.084,0.920,-0.451,-1.129,-0.824,0.427,60.000,10023.000,1.000
9.260,10.973,11.968,4.112,13.262,15.636,17.926,6.957,-0.083,0.920,-0.450,-1.251,-0.793,0.458,60.000,10024.000,1.000
29.796,22.865,15.751,8.880,19.700,19.304,26.993,9.527,-0.081,0.918,-0.448,-1.312,-0.763,0.366,60.000,10025.000,1.000
24.567,19.009,11.264,4.018,15.185,14.827,20.324,6.689,-0.080,0.917,-0.452,-1.343,-0.824,0.427,60.000,10026.000,1.000
15.393,11.981,6.604,-0.730,9.353,9.558,11.129,4.825,-0.082,0.916,-0.451,-1.312,-0.763,0.458,60.000,10027.000,1.000
18.284,11.168,5.965,-0.102,8.331,7.481,7.774,6.044,-0.083,0.916,-0.452,-1.221,-0.702,0.519,60.000,10028.000,1.000
18.348,8.641,4.158,-0.659,6.216,4.415,2.614,4.860,-0.083,0.916,-0.454,-1.129,-0.641,0.519,60.000,10029.000,1.000
-6.161,-7.206,-3.786,-9.533,-4.317,-3.662,-13.347,-3.141,-0.082,0.917,-0.450,-1.160,-0.732,0.427,60.000,10030.000,1.000
-40.271,-27.378,-10.883,-19.295,-16.164,-10.475,-29.673,-11.673,-0.085,0.918,-0.454,-1.129,-0.702,0.458,60.000,10031.000,1.000
-36.469,-25.174,-3.805,-13.191,-11.841,-4.460,-23.008,-8.645,-0.087,0.918,-0.448,-1.160,-0.702,0.488,60.000,10032.000,1.000
4.016,-2.196,11.144,3.580,4.774,8.612,0.039,2.337,-0.087,0.917,-0.448,-1.190,-0.793,0.397,60.000,10033.000,1.000
-18.912,-15.626,0.583,-8.194,-6.211,-0.451,-14.858,-4.875,-0.087,0.919,-0.448,-1.251,-0.854,0.366,60.000,10034.000,1.000
-183.399,-108.907,-50.657,-69.776,-69.407,-44.403,-99.133,-43.261,-0.088,0.918,-0.450,-1.282,-0.946,0.458,60.000,10035.000,1.000
-366.727,-211.809,-93.289,-125.274,-130.457,-79.830,-177.861,-75.021,-0.084,0.917,-0.452,-1.282,-0.916,0.397,60.000,10036.000,1.000
-316.516,-182.903,-55.992,-85.942,-96.005,-45.207,-127.230,-44.027,-0.086,0.916,-0.451,-1.282,-0.854,0.366,60.000,10037.000,1.000
15.348,2.438,50.807,44.123,36.559,48.827,51.692,42.044,-0.088,0.916,-0.445,-1.404,-0.946,0.366,60.000,10038.000,1.000
324.594,172.228,119.568,138.729,140.457,107.864,186.830,98.459,-0.088,0.917,-0.451,-1.526,-1.068,0.366,60.000,10039.000,1.000
284.388,145.869,71.096,93.833,102.372,64.270,130.527,62.036,-0.086,0.916,-0.448,-1.556,-1.129,0.427,60.000,10040.000,1.000
-30.642,-30.365,-36.017,-31.675,-25.961,-28.696,-41.514,-21.545,-0.085,0.918,-0.445,-1.526,-1.099,0.488,60.000,10041.000,1.000
-214.583,-128.209,-71.071,-80.333,-82.713,-56.701,-111.671,-48.768,-0.085,0.921,-0.449,-1.709,-1.129,0.366,60.000,10042.000,1.000
-33.466,-20.933,5.597,7.727,2.660,12.686,8.421,12.345,-0.085,0.921,-0.442,-1.740,-1.190,0.488,60.000,10043.000,1.000
303.238,169.606,99.456,127.412,128.799,94.695,177.223,87.089,-0.080,0.920,-0.445,-1.770,-1.099,0.641,60.000,10044.000,1.000
430.902,239.484,105.958,147.748,157.602,98.259,211.006,92.252,-0.082,0.918,-0.447,-1.831,-1.068,0.610,60.000,10045.000,1.000
258.120,141.280,29.373,62.277,73.907,29.244,95.388,30.960,-0.083,0.915,-0.446,-1.831,-1.038,0.702,60.000,10046.000,1.000
12.659,4.850,-42.102,-27.136,-21.099,-33.875,-30.828,-26.665,-0.084,0.913,-0.448,-1.770,-1.068,0.732,60.000,10047.000,1.000
-64.017,-35.668,-46.068,-39.307,-39.810,-37.092,-52.551,-30.806,-0.086,0.910,-0.446,-1.831,-1.068,0.763,60.000,10048.000,1.000
47.308,28.387,0.842,13.570,11.194,3.801,17.368,5.361,-0.087,0.909,-0.445,-1.831,-1.068,0.732,60.000,10049.000,1.000
190.055,108.795,41.430,64.344,64.702,38.381,87.475,36.287,-0.088,0.911,-0.442,-1.801,-1.099,0.641,60.000,10050.000,1.000
213.816,122.353,37.928,63.509,67.127,34.231,87.797,32.272,-0.087,0.913,-0.444,-1.801,-1.190,0.671,60.000,10051.000,1.000
93.786,56.289,-3.370,14.031,17.693,-2.341,20.164,-0.814,-0.086,0.915,-0.447,-1.709,-1.282,0.488,60.000,10052.000,1.000
-72.373,-34.553,-45.823,-41.118,-41.154,-38.985,-57.235,-33.207,-0.088,0.917,-0.450,-1.678,-1.343,0.458,60.000,10053.000,1.000
-152.083,-76.827,-53.705,-56.127,-60.919,-44.749,-80.574,-36.926,-0.087,0.917,-0.449,-1.556,-1.251,0.458,60.000,10054.000,1.000
-90.711,-41.338,-22.408,-21.205,-28.206,-16.350,-34.358,-9.560,-0.085,0.918,-0.449,-1.526,-1.221,0.519,60.000,10055.000,1.000
35.824,28.539,15.866,26.767,21.462,17.208,32.235,22.120,-0.085,0.918,-0.448,-1.465,-1.160,0.458,60.000,10056.000,1.000
95.076,59.253,23.359,39.851,38.033,22.651,52.878,27.671,-0.086,0.918,-0.451,-1.495,-1.160,0.305,60.000,10057.000,1.000
24.174,17.232,-7.615,4.452,4.417,-6.092,6.830,1.562,-0.086,0.920,-0.449,-1.343,-1.068,0.336,60.000,10058.000,1.000
-126.502,-68.153,-52.464,-51.867,-53.645,-46.558,-70.041,-35.490,-0.087,0.920,-0.448,-1.343,-1.068,0.214,60.000,10059.000,1.000
-249.577,-136.913,-78.539,-88.265,-94.380,-69.883,-122.306,-56.677,-0.088,0.918,-0.450,-1.343,-1.129,0.183,60.000,10060.000,1.000
-258.525,-141.640,-67.224,-79.032,-89.375,-60.421,-113.806,-47.228,-0.089,0.919,-0.453,-1.373,-1.099,0.153,60.000,10061.000,1.000
-142.271,-77.186,-24.745,-28.931,-40.678,-24.483,-49.251,-12.807,-0.088,0.918,-0.451,-1.373,-1.129,0.275,60.000,10062.000,1.000
18.082,10.865,19.178,26.676,17.221,11.766,24.351,22.144,-0.088,0.915,-0.449,-1.160,-1.160,0.275,60.000,10063.000,1.000
109.485,60.363,34.477,48.893,43.624,22.769,53.741,33.237,-0.087,0.915,-0.450,-1.160,-1.190,0.275,60.000,10064.000,1.000
93.540,51.440,20.326,32.798,30.794,8.768,31.220,19.865,-0.088,0.919,-0.448,-1.221,-1.190,0.305,60.000,10065.000,1.000
37.015,21.979,3.962,9.868,9.139,-6.046,-0.746,4.352,-0.087,0.921,-0.449,-1.160,-1.221,0.519,60.000,10066.000,1.000
19.492,15.358,5.915,7.520,7.281,-3.944,-4.213,3.962,-0.086,0.921,-0.446,-1.160,-1.160,0.519,60.000,10067.000,1.000
33.421,25.651,15.268,16.138,16.740,5.227,8.400,10.681,-0.083,0.920,-0.444,-1.221,-1.190,0.488,60.000,10068.000,1.000
13.407,15.644,9.631,9.068,10.086,1.753,0.626,6.834,-0.085,0.921,-0.445,-1.251,-1.190,0.366,60.000,10069.000,1.000
-53.647,-21.312,-10.016,-14.962,-15.204,-13.581,-29.741,-7.110,-0.087,0.922,-0.441,-1.282,-1.007,0.336,60.000,10070.000,1.000
-104.909,-49.480,-21.371,-30.379,-32.858,-21.398,-47.540,-13.970,-0.087,0.921,-0.440,-1.373,-1.129,0.397,60.000,10071.000,1.000
-92.347,-42.467,-13.543,-22.675,-26.203,-12.406,-32.295,-5.796,-0.085,0.917,-0.444,-1.434,-1.038,0.336,60.000,10072.000,1.000
-47.268,-18.552,-0.764,-7.424,-9.956,0.707,-5.834,5.390,-0.084,0.911,-0.446,-1.465,-0.977,0.488,60.000,10073.000,1.000
-26.777,-9.484,1.082,-4.353,-5.310,3.990,2.946,6.455,-0.081,0.906,-0.447,-1.312,-0.885,0.580,60.000,10074.000,1.000
-34.519,-16.274,-3.969,-10.139,-10.608,1.035,-2.984,0.520,-0.079,0.898,-0.452,-1.099,-0.793,0.549,60.000,10075.000,1.000
-35.733,-18.716,-3.945,-10.477,-11.479,2.183,-4.199,-2.410,-0.078,0.898,-0.452,-0.793,-0.702,0.458,60.000,10076.000,1.000
-25.102,-13.752,-0.135,-5.874,-7.369,6.032,-0.463,-2.398,-0.079,0.898,-0.450,-0.427,-0.519,0.488,60.000,10077.000,1.000
-32.091,-17.934,-2.854,-8.593,-10.075,3.486,-7.289,-6.587,-0.081,0.899,-0.448,-0.214,-0.397,0.488,60.000,10078.000,1.000
-59.755,-32.835,-10.686,-17.960,-18.938,-3.913,-22.355,-13.231,-0.080,0.904,-0.448,0.031,-0.427,0.488,60.000,10079.000,1.000
-67.089,-35.722,-10.252,-18.022,-17.400,-4.029,-22.551,-11.815,-0.081,0.911,-0.448,0.092,-0.336,0.488,60.000,10080.000,1.000
-33.968,-16.368,0.816,-4.356,-0.288,5.338,-1.866,-1.025,-0.081,0.916,-0.450,0.061,-0.183,0.488,60.000,10081.000,1.000
-2.313,0.790,6.700,5.002,13.518,10.160,13.028,5.910,-0.081,0.919,-0.453,0.000,-0.183,0.519,60.000,10082.000,1.000
-18.019,-9.641,-3.297,-4.348,7.213,0.921,0.018,-0.260,-0.082,0.923,-0.454,-0.153,-0.061,0.488,60.000,10083.000,1.000
-55.463,-32.149,-15.583,-18.440,-6.727,-10.522,-22.056,-9.460,-0.086,0.923,-0.454,-0.244,0.031,0.580,60.000,10084.000,1.000
-47.850,-28.823,-10.106,-13.241,-3.132,-6.634,-17.757,-5.932,-0.091,0.925,-0.455,-0.305,-0.092,0.549,60.000,10085.000,1.000
9.771,2.481,8.260,7.421,16.218,8.410,10.605,6.956,-0.093,0.927,-0.452,-0.336,-0.092,0.397,60.000,10086.000,1.000
43.189,19.584,14.150,13.774,21.683,12.722,22.709,9.592,-0.095,0.929,-0.452,-0.458,-0.305,0.305,60.000,10087.000,1.000
4.507,-3.956,-1.341,-6.665,-0.728,-1.235,-0.733,-4.900,-0.098,0.928,-0.447,-0.763,-0.458,0.153,60.000,10088.000,1.000
-49.873,-35.752,-14.813,-27.007,-24.217,-13.220,-25.241,-17.690,-0.098,0.928,-0.447,-0.885,-0.671,0.092,60.000,10089.000,1.000
-32.637,-26.877,-2.697,-16.814,-15.788,-3.316,-9.625,-9.410,-0.098,0.929,-0.450,-1.160,-0.916,-0.092,60.000,10090.000,1.000
45.427,16.044,22.610,12.440,15.373,17.094,31.036,10.764,-0.096,0.929,-0.447,-1.404,-1.038,-0.061,60.000,10091.000,1.000
82.209,35.951,27.493,20.701,27.939,18.966,41.868,16.036,-0.096,0.929,-0.447,-1.678,-1.221,-0.061,60.000,10092.000,1.000
25.726,4.752,4.050,-4.660,5.683,-3.448,4.742,-0.782,-0.094,0.927,-0.449,-1.984,-1.373,-0.031,60.000,10093.000,1.000
-47.933,-34.429,-17.136,-29.207,-18.549,-22.430,-33.164,-16.277,-0.092,0.927,-0.450,-2.197,-1.587,-0.031,60.000,10094.000,1.000
-36.747,-25.399,-8.668,-18.513,-8.407,-13.912,-22.834,-8.906,-0.090,0.925,-0.449,-2.350,-1.617,-0.031,60.000,10095.000,1.000
43.175,21.419,14.948,12.762,23.468,9.067,17.731,9.991,-0.088,0.925,-0.447,-2.502,-1.617,-0.031,60.000,10096.000,1.000
78.247,42.322,17.601,20.743,32.041,14.817,28.451,11.904,-0.086,0.921,-0.446,-2.594,-1.648,0.061,60.000,10097.000,1.000
15.567,8.877,-7.525,-6.334,2.809,-2.606,-8.662,-8.301,-0.086,0.918,-0.447,-2.716,-1.617,0.122,60.000,10098.000,1.000
-62.294,-32.075,-27.803,-31.127,-27.144,-15.163,-43.597,-24.257,-0.083,0.918,-0.443,-2.838,-1.617,0.183,60.000,10099.000,1.000
-51.135,-23.289,-16.347,-18.757,-19.959,-0.518,-27.450,-14.375,-0.082,0.917,-0.442,-2.899,-1.587,0.305,60.000,10100.000,1.000
30.410,23.190,10.483,14.730,10.869,25.846,19.314,8.121,-0.082,0.916,-0.446,-2.930,-1.495,0.458,60.000,10101.000,1.000
68.769,43.655,16.299,25.327,20.361,31.818,35.954,13.813,-0.081,0.917,-0.443,-3.113,-1.404,0.641,60.000,10102.000,1.000
13.264,11.304,-5.015,2.010,-5.270,12.621,5.417,-2.481,-0.081,0.915,-0.443,-3.082,-1.312,0.702,60.000,10103.000,1.000
-55.833,-27.426,-21.623,-18.891,-30.242,-3.354,-23.695,-15.350,-0.079,0.914,-0.444,-3.113,-1.190,0.763,60.000,10104.000,1.000
-40.762,-17.905,-8.567,-4.880,-19.631,5.795,-6.313,-4.632,-0.079,0.913,-0.445,-3.113,-1.099,0.854,60.000,10105.000,1.000
38.164,27.273,17.524,27.569,12.048,25.627,35.807,16.513,-0.080,0.912,-0.442,-3.082,-0.977,1.038,60.000,10106.000,1.000
73.968,47.659,22.296,36.796,21.956,26.712,45.267,20.296,-0.079,0.913,-0.442,-3.174,-0.824,1.068,60.000,10107.000,1.000
21.799,18.847,1.072,13.318,-1.843,5.728,8.436,2.371,-0.080,0.912,-0.443,-3.021,-0.732,1.129,60.000,10108.000,1.000
-42.239,-15.924,-15.589,-8.512,-25.153,-10.459,-26.697,-13.033,-0.080,0.916,-0.441,-3.143,-0.641,1.160,60.000,10109.000,1.000
-29.089,-7.394,-4.341,1.249,-15.575,-2.152,-16.661,-6.659,-0.081,0.916,-0.439,-3.174,-0.519,1.160,60.000,10110.000,1.000
41.361,32.227,19.699,27.653,13.686,16.570,19.600,10.420,-0.080,0.917,-0.441,-3.143,-0.397,1.190,60.000,10111.000,1.000
73.046,49.146,25.396,33.639,24.164,18.493,30.323,14.000,-0.080,0.917,-0.438,-3.296,-0.275,1.129,60.000,10112.000,1.000
27.946,23.154,8.104,11.405,5.246,0.557,2.552,0.511,-0.079,0.915,-0.441,-3.235,-0.122,1.099,60.000,10113.000,1.000
-25.140,-6.443,-5.890,-8.427,-13.250,-13.173,-22.796,-9.145,-0.079,0.915,-0.440,-3.204,0.061,1.190,60.000,10114.000,1.000
-9.089,3.058,3.070,-0.179,-3.904,-5.289,-9.617,0.496,-0.075,0.916,-0.440,-3.296,0.214,1.282,60.000,10115.000,1.000
55.700,39.028,21.373,22.116,20.720,11.705,23.819,18.025,-0.075,0.917,-0.439,-3.204,0.397,1.221,60.000,10116.000,1.000
84.086,53.306,22.885,26.227,27.456,14.432,32.633,21.686,-0.075,0.919,-0.441,-3.235,0.641,1.221,60.000,10117.000,1.000
44.239,28.895,5.559,6.528,8.779,1.004,7.454,8.983,-0.075,0.920,-0.436,-3.418,0.732,1.099,60.000,10118.000,1.000
-3.105,0.910,-6.655,-9.767,-8.228,-7.875,-15.057,-1.222,-0.075,0.919,-0.443,-3.357,0.854,1.129,60.000,10119.000,1.000
7.881,6.292,2.646,-1.055,-0.108,1.505,-4.328,4.697,-0.077,0.920,-0.442,-3.448,1.007,1.068,60.000,10120.000,1.000
58.629,33.836,20.374,19.668,21.457,17.172,22.911,17.204,-0.078,0.920,-0.441,-3.418,1.099,0.946,60.000,10121.000,1.000
77.205,42.804,23.227,24.454,27.569,18.793,28.347,18.347,-0.079,0.922,-0.439,-3.479,1.251,0.977,60.000,10122.000,1.000
38.513,19.585,9.067,8.436,11.541,5.049,4.874,6.532,-0.081,0.922,-0.440,-3.510,1.312,0.916,60.000,10123.000,1.000
-5.307,-5.984,-1.986,-5.612,-4.084,-5.815,-15.742,-2.432,-0.083,0.923,-0.439,-3.479,1.373,0.824,60.000,10124.000,1.000
0.350,-3.315,4.064,0.269,0.234,-1.238,-7.436,2.225,-0.084,0.924,-0.444,-3.479,1.373,0.793,60.000,10125.000,1.000
39.558,18.192,17.007,15.543,15.165,9.713,15.818,11.934,-0.083,0.923,-0.442,-3.510,1.434,0.793,60.000,10126.000,1.000
53.857,25.752,18.535,18.006,17.857,10.752,22.085,11.831,-0.084,0.922,-0.438,-3.357,1.312,0.702,60.000,10127.000,1.000
23.778,9.025,7.303,4.461,3.805,0.594,4.971,1.068,-0.086,0.922,-0.441,-3.418,1.282,0.671,60.000,10128.000,1.000
-9.119,-8.496,-1.000,-6.680,-8.607,-7.011,-10.699,-7.135,-0.087,0.920,-0.442,-3.387,1.190,0.732,60.000,10129.000,1.000
-3.086,-4.200,3.841,-1.719,-4.383,-3.043,-4.709,-3.944,-0.087,0.922,-0.441,-3.357,1.099,0.702,60.000,10130.000,1.000
27.677,12.840,13.284,10.374,8.328,5.209,12.099,3.928,-0.087,0.921,-0.440,-3.204,1.007,0.671,60.000,10131.000,1.000
37.335,16.648,13.404,12.171,11.359,5.810,16.017,4.778,-0.086,0.921,-0.442,-3.082,0.885,0.671,60.000,10132.000,1.000
11.633,0.061,3.823,1.439,1.267,-1.524,3.436,-2.475,-0.089,0.923,-0.439,-3.113,0.854,0.671,60.000,10133.000,1.000
-16.779,-17.498,-3.212,-7.728,-7.943,-6.469,-6.728,-8.369,-0.089,0.924,-0.439,-3.021,0.732,0.641,60.000,10134.000,1.000
-15.579,-17.548,-0.262,-5.259,-5.262,-3.163,-0.977,-6.728,-0.091,0.924,-0.436,-2.899,0.519,0.671,60.000,10135.000,1.000
4.965,-6.436,5.771,1.804,2.774,2.014,10.511,-2.796,-0.093,0.922,-0.438,-2.869,0.336,0.671,60.000,10136.000,1.000
11.094,-3.744,4.380,0.680,2.794,0.159,9.728,-5.004,-0.094,0.921,-0.441,-2.747,0.244,0.671,60.000,10137.000,1.000
-7.719,-15.279,-4.489,-9.687,-7.073,-8.203,-4.750,-13.368,-0.094,0.918,-0.440,-2.686,0.031,0.763,60.000,10138.000,1.000
-28.420,-27.506,-11.436,-18.306,-15.810,-14.434,-17.130,-19.891,-0.092,0.918,-0.438,-2.563,-0.061,0.702,60.000,10139.000,1.000
-28.519,-27.506,-10.464,-17.117,-14.633,-13.175,-15.467,-19.073,-0.092,0.918,-0.439,-2.441,-0.336,0.793,60.000,10140.000,1.000
-15.324,-19.661,-6.017,-10.511,-7.591,-8.602,-5.860,-14.087,-0.093,0.918,-0.440,-2.350,-0.519,0.702,60.000,10141.000,1.000
-11.406,-17.081,-5.360,-7.367,-4.127,-7.701,-1.876,-10.899,-0.091,0.916,-0.437,-2.136,-0.732,0.793,60.000,10142.000,1.000
-22.972,-23.499,-9.021,-9.274,-6.535,-11.460,-7.163,-10.398,-0.091,0.912,-0.437,-2.075,-0.763,0.824,60.000,10143.000,1.000
-34.441,-30.182,-11.681,-10.386,-8.873,-15.097,-13.556,-8.918,-0.089,0.909,-0.440,-1.892,-1.038,0.793,60.000,10144.000,1.000
-32.054,-29.235,-10.460,-6.918,-6.468,-15.296,-13.760,-4.781,-0.087,0.907,-0.441,-1.617,-1.099,0.824,60.000,10145.000,1.000
-22.616,-24.228,-8.824,-2.625,-2.292,-14.277,-10.539,-1.212,-0.083,0.909,-0.442,-1.343,-1.129,1.038,60.000,10146.000,1.000
-21.438,-23.487,-10.867,-2.715,-1.590,-15.375,-10.273,-1.643,-0.079,0.908,-0.442,-1.038,-1.129,1.038,60.000,10147.000,1.000
-30.849,-28.258,-15.566,-6.541,-4.292,-18.020,-13.258,-5.069,-0.078,0.911,-0.444,-0.946,-1.160,1.099,60.000,10148.000,1.000
-38.858,-32.199,-18.555,-8.973,-5.705,-19.024,-14.302,-7.442,-0.076,0.913,-0.442,-0.793,-1.099,1.251,60.000,10149.000,1.000
-36.566,-30.836,-18.040,-7.515,-3.359,-17.471,-10.910,-6.546,-0.077,0.914,-0.440,-0.580,-0.977,1.251,60.000,10150.000,1.000
-29.847,-27.436,-16.727,-5.366,-0.285,-16.062,-7.044,-4.022,-0.079,0.917,-0.440,-0.519,-0.824,1.282,60.000,10151.000,1.000
-29.040,-27.115,-17.165,-6.157,0.011,-16.836,-6.652,-2.044,-0.082,0.917,-0.438,-0.610,-0.763,1.343,60.000,10152.000,1.000
-34.485,-29.495,-18.276,-9.028,-1.622,-18.445,-8.218,-0.444,-0.086,0.916,-0.437,-0.763,-0.824,1.282,60.000,10153.000,1.000
-37.170,-29.611,-17.212,-10.236,-1.623,-18.236,-7.465,2.199,-0.087,0.920,-0.438,-0.793,-0.916,1.190,60.000,10154.000,1.000
-31.452,-24.776,-13.401,-8.341,1.160,-15.866,-3.582,5.682,-0.087,0.920,-0.441,-0.793,-0.916,1.129,60.000,10155.000,1.000
-22.766,-18.402,-9.624,-6.181,3.572,-13.930,-0.996,7.614,-0.085,0.922,-0.441,-0.824,-1.007,1.038,60.000,10156.000,1.000
-18.761,-14.847,-8.175,-6.484,2.681,-14.151,-3.162,6.559,-0.084,0.922,-0.441,-0.885,-1.038,0.946,60.000,10157.000,1.000
-18.918,-13.815,-8.214,-8.315,-0.412,-15.027,-7.940,3.959,-0.082,0.922,-0.440,-0.946,-1.038,0.946,60.000,10158.000,1.000
-16.618,-11.779,-7.448,-8.778,-2.285,-13.815,-10.343,2.389,-0.081,0.924,-0.438,-1.068,-0.916,0.885,60.000,10159.000,1.000
-9.177,-7.449,-5.365,-6.969,-1.550,-9.938,-8.538,2.650,-0.077,0.924,-0.435,-1.190,-0.885,0.732,60.000,10160.000,1.000
-2.668,-4.087,-4.030,-5.229,-0.532,-5.836,-6.115,3.084,-0.078,0.926,-0.434,-1.404,-0.763,0.732,60.000,10161.000,1.000
-3.418,-4.602,-4.891,-5.580,-1.699,-3.807,-6.825,2.161,-0.079,0.925,-0.440,-1.526,-0.549,0.671,60.000,10162.000,1.000
-9.555,-7.314,-6.652,-7.102,-4.525,-3.556,-9.879,0.296,-0.082,0.924,-0.441,-1.709,-0.519,0.610,60.000,10163.000,1.000
-13.400,-7.884,-6.744,-7.426,-6.518,-3.006,-11.357,-1.047,-0.080,0.923,-0.442,-1.831,-0.458,0.580,60.000,10164.000,1.000
-10.504,-4.408,-4.342,-5.865,-6.463,-0.901,-9.175,-1.394,-0.081,0.923,-0.442,-1.801,-0.488,0.580,60.000,10165.000,1.000
-4.708,0.214,-1.411,-4.311,-5.946,1.817,-5.656,-1.889,-0.080,0.922,-0.439,-1.831,-0.336,0.549,60.000,10166.000,1.000
-1.596,2.416,0.156,-4.156,-6.618,3.957,-3.497,-3.343,-0.080,0.922,-0.435,-1.953,-0.366,0.458,60.000,10167.000,1.000
-1.289,2.195,0.628,-4.389,-7.954,5.660,-2.187,-5.060,-0.080,0.925,-0.437,-1.923,-0.275,0.458,60.000,10168.000,1.000
0.465,2.399,1.423,-3.121,-8.279,7.713,0.564,-5.868,-0.080,0.924,-0.436,-1.984,-0.275,0.488,60.000,10169.000,1.000
5.852,4.793,2.904,-0.128,-7.146,10.091,5.119,-5.707,-0.079,0.923,-0.437,-2.014,-0.122,0.549,60.000,10170.000,1.000
11.288,7.626,3.708,2.512,-6.140,11.707,8.643,-5.822,-0.077,0.924,-0.437,-2.136,-0.061,0.610,60.000,10171.000,1.000
12.973,8.773,2.988,3.218,-6.391,12.177,9.102,-6.938,-0.079,0.928,-0.436,-2.136,-0.031,0.610,60.000,10172.000,1.000
11.876,8.679,1.591,2.578,-7.119,12.187,7.722,-8.487,-0.079,0.928,-0.440,-2.136,-0.031,0.641,60.000,10173.000,1.000
11.663,9.212,0.891,2.121,-6.943,12.245,7.010,-9.536,-0.082,0.931,-0.441,-2.136,0.092,0.488,60.000,10174.000,1.000
13.720,10.899,1.198,2.348,-5.729,11.925,7.761,-9.842,-0.082,0.933,-0.437,-2.106,0.092,0.549,60.000,10175.000,1.000
15.153,11.917,1.489,2.283,-4.869,10.420,8.379,-9.967,-0.083,0.935,-0.437,-2.167,0.092,0.702,60.000,10176.000,1.000
13.733,10.981,1.270,1.591,-4.965,8.249,8.156,-9.963,-0.083,0.936,-0.436,-2.289,0.153,0.702,60.000,10177.000,1.000
10.996,9.107,1.165,1.289,-4.954,7.003,8.368,-9.140,-0.084,0.936,-0.434,-2.289,0.153,0.641,60.000,10178.000,1.000
9.832,8.240,1.940,2.374,-3.596,7.595,10.052,-7.093,-0.084,0.932,-0.432,-2.380,0.214,0.702,60.000,10179.000,1.000
10.993,9.232,3.672,4.626,-0.887,9.393,12.509,-4.393,-0.085,0.930,-0.435,-2.411,0.153,0.702,60.000,10180.000,1.000
11.945,10.949,5.578,6.603,1.829,10.734,13.899,-2.255,-0.085,0.926,-0.435,-2.319,0.031,0.732,60.000,10181.000,1.000
10.832,12.283,7.081,7.393,3.623,10.578,13.608,-1.271,-0.083,0.921,-0.434,-2.319,-0.061,0.702,60.000,10182.000,1.000
8.608,13.342,8.011,7.242,4.645,8.930,12.160,-1.315,-0.083,0.918,-0.434,-2.197,0.000,0.641,60.000,10183.000,1.000
7.234,14.657,8.179,6.809,5.440,6.354,9.917,-2.026,-0.082,0.917,-0.438,-1.953,0.000,0.671,60.000,10184.000,1.000
7.038,15.935,7.200,6.311,6.078,3.375,6.815,-2.993,-0.080,0.917,-0.437,-1.740,-0.061,0.641,60.000,10185.000,1.000
5.475,15.499,4.557,5.106,5.690,-0.064,2.507,-3.945,-0.079,0.915,-0.439,-1.343,-0.031,0.519,60.000,10186.000,1.000
1.121,12.666,0.796,3.091,4.010,-3.611,-1.950,-4.336,-0.078,0.914,-0.438,-0.977,-0.061,0.580,60.000,10187.000,1.000
-3.755,9.092,-2.472,1.352,2.250,-5.985,-4.327,-3.472,-0.080,0.911,-0.439,-0.671,0.000,0.580,60.000,10188.000,1.000
-5.558,7.101,-3.829,1.248,2.000,-5.831,-3.390,-1.066,-0.080,0.909,-0.438,-0.336,0.000,0.580,60.000,10189.000,1.000
-3.338,7.294,-3.245,3.038,3.468,-3.089,-0.164,2.359,-0.081,0.908,-0.440,0.000,-0.031,0.427,60.000,10190.000,1.000
-0.594,7.632,-2.333,5.235,4.743,0.445,2.425,5.505,-0.082,0.908,-0.442,0.397,-0.031,0.427,60.000,10191.000,1.000
-0.714,6.171,-2.497,6.432,4.008,2.886,2.487,7.583,-0.083,0.907,-0.443,0.824,0.061,0.336,60.000,10192.000,1.000
-3.183,3.277,-3.739,6.592,1.403,3.705,0.524,8.840,-0.083,0.908,-0.442,1.221,0.000,0.336,60.000,10193.000,1.000
-4.789,1.006,-5.043,6.558,-1.404,3.599,-1.564,9.898,-0.083,0.910,-0.443,1.648,-0.153,0.183,60.000,10194.000,1.000
-3.593,0.711,-5.602,6.775,-3.024,3.326,-2.324,10.801,-0.083,0.911,-0.446,2.075,-0.214,0.092,60.000,10195.000,1.000
-1.835,1.192,-5.759,6.503,-3.763,2.671,-2.410,10.745,-0.083,0.913,-0.443,2.441,-0.275,0.000,60.000,10196.000,1.000
-2.115,0.952,-5.819,5.359,-4.205,1.427,-2.897,9.486,-0.083,0.916,-0.442,2.747,-0.153,-0.061,60.000,10197.000,1.000
-3.630,0.382,-5.352,4.122,-3.946,0.133,-3.515,7.981,-0.083,0.917,-0.441,2.838,-0.183,-0.061,60.000,10198.000,1.000
-3.186,1.073,-3.808,3.862,-2.098,-0.357,-3.006,7.526,-0.083,0.916,-0.438,2.991,-0.183,-0.122,60.000,10199.000,1.000
1.113,3.762,-1.372,4.713,1.465,0.238,-0.794,8.567,-0.084,0.918,-0.442,3.174,-0.305,-0.153,60.000,10200.000,1.000
6.783,6.767,0.726,5.339,5.278,1.126,1.584,10.154,-0.083,0.921,-0.442,3.174,-0.244,-0.275,60.000,10201.000,1.000
10.079,7.896,1.670,4.634,7.757,1.596,2.437,11.188,-0.086,0.921,-0.444,3.235,-0.244,-0.336,60.000,10202.000,1.000
9.991,6.733,1.846,2.906,8.555,1.676,1.768,11.514,-0.085,0.923,-0.446,3.296,-0.305,-0.427,60.000,10203.000,1.000
8.880,4.992,2.358,1.449,8.592,1.888,1.139,11.908,-0.086,0.923,-0.442,3.235,-0.427,-0.427,60.000,10204.000,1.000
10.041,5.031,3.946,1.304,9.168,2.812,2.099,13.204,-0.086,0.921,-0.445,3.235,-0.458,-0.458,60.000,10205.000,1.000
13.653,7.259,5.895,1.969,10.476,4.311,4.022,15.154,-0.087,0.920,-0.444,3.143,-0.519,-0.519,60.000,10206.000,1.000
17.266,10.182,6.775,2.087,11.711,5.658,5.048,16.681,-0.087,0.918,-0.446,3.082,-0.641,-0.580,60.000,10207.000,1.000
18.010,11.691,5.533,0.491,11.763,5.869,3.810,16.593,-0.087,0.917,-0.446,2.991,-0.732,-0.458,60.000,10208.000,1.000
14.772,10.610,2.407,-2.877,10.167,4.567,0.541,14.486,-0.087,0.915,-0.446,2.899,-0.793,-0.549,60.000,10209.000,1.000
9.835,8.044,-0.800,-6.420,7.919,2.789,-2.611,11.327,-0.088,0.916,-0.448,2.747,-0.916,-0.610,60.000,10210.000,1.000
6.801,6.346,-2.054,-8.046,6.599,2.149,-3.251,8.661,-0.086,0.917,-0.446,2.563,-0.946,-0.549,60.000,10211.000,1.000
7.861,7.260,-0.439,-6.629,7.144,3.569,-0.134,7.511,-0.085,0.917,-0.445,2.350,-1.099,-0.519,60.000,10212.000,1.000
10.981,9.763,2.690,-3.403,8.534,6.058,5.234,7.268,-0.086,0.917,-0.443,2.380,-1.099,-0.458,60.000,10213.000,1.000
11.260,10.583,4.598,-1.089,8.457,7.347,9.101,6.158,-0.087,0.917,-0.447,2.289,-1.068,-0.397,60.000,10214.000,1.000
6.841,8.015,3.834,-0.954,6.020,6.361,9.176,3.347,-0.087,0.916,-0.446,2.167,-1.282,-0.244,60.000,10215.000,1.000
0.871,3.739,1.325,-1.829,2.780,4.395,6.882,-0.135,-0.086,0.915,-0.445,2.106,-1.312,-0.214,60.000,10216.000,1.000
-1.691,1.200,-0.623,-1.659,1.292,3.934,5.977,-2.356,-0.086,0.916,-0.445,1.892,-1.312,-0.122,60.000,10217.000,1.000
-0.316,1.395,-0.861,-0.442,1.997,5.646,7.778,-2.690,-0.084,0.919,-0.450,1.617,-1.373,-0.214,60.000,10218.000,1.000
0.389,1.720,-0.046,-0.331,2.668,7.623,9.600,-2.338,-0.087,0.918,-0.449,1.465,-1.526,-0.183,60.000,10219.000,1.000
-2.178,0.208,1.396,-2.252,1.650,8.028,8.882,-2.493,-0.086,0.917,-0.446,1.282,-1.465,-0.153,60.000,10220.000,1.000
-4.522,-1.344,4.228,-4.265,-0.049,7.041,6.221,-3.021,-0.086,0.916,-0.447,1.007,-1.465,-0.061,60.000,10221.000,1.000
-0.880,0.708,9.143,-3.617,-0.204,6.093,4.182,-3.081,-0.087,0.916,-0.450,0.946,-1.404,0.061,60.000,10222.000,1.000
7.859,6.106,14.418,-0.704,0.947,5.239,2.978,-3.108,-0.086,0.918,-0.449,0.732,-1.526,0.122,60.000,10223.000,1.000
13.388,9.844,16.834,1.046,0.618,3.137,0.220,-4.588,-0.085,0.916,-0.448,0.549,-1.617,0.244,60.000,10224.000,1.000
11.205,9.108,15.722,0.027,-2.044,0.113,-3.900,-7.359,-0.085,0.918,-0.448,0.305,-1.587,0.244,60.000,10225.000,1.000
7.487,7.658,14.124,-1.214,-3.893,-1.019,-4.889,-8.915,-0.086,0.920,-0.449,0.122,-1.465,0.183,60.000,10226.000,1.000
11.957,11.318,15.338,0.758,-1.302,1.982,1.020,-7.068,-0.083,0.922,-0.448,0.092,-1.465,0.244,60.000,10227.000,1.000
23.454,19.118,18.339,4.828,4.247,6.948,9.962,-3.179,-0.083,0.923,-0.449,-0.305,-1.404,0.244,60.000,10228.000,1.000
29.065,23.025,18.791,5.966,6.860,8.864,12.742,-1.057,-0.082,0.925,-0.449,-0.549,-1.434,0.244,60.000,10229.000,1.000
20.895,18.259,14.943,2.025,3.600,5.917,5.847,-2.365,-0.084,0.924,-0.453,-0.763,-1.434,0.305,60.000,10230.000,1.000
6.954,9.714,10.031,-3.085,-1.741,1.671,-3.923,-4.765,-0.083,0.925,-0.453,-1.007,-1.404,0.397,60.000,10231.000,1.000
2.281,6.453,8.427,-3.846,-3.029,0.836,-6.893,-4.860,-0.083,0.926,-0.451,-1.282,-1.312,0.427,60.000,10232.000,1.000
10.143,10.592,10.024,-0.068,0.644,3.541,-1.804,-2.595,-0.082,0.926,-0.451,-1.465,-1.343,0.336,60.000,10233.000,1.000
18.382,15.228,10.629,3.117,4.194,5.662,3.607,-1.069,-0.083,0.929,-0.452,-1.587,-1.190,0.397,60.000,10234.000,1.000
16.127,14.000,7.912,2.291,3.572,4.442,3.243,-1.988,-0.084,0.928,-0.455,-1.770,-1.160,0.366,60.000,10235.000,1.000
6.945,8.614,4.316,-0.197,0.537,1.446,-0.556,-3.329,-0.084,0.929,-0.453,-2.014,-1.129,0.336,60.000,10236.000,1.000
3.215,5.894,3.899,0.478,-0.089,0.138,-1.044,-1.845,-0.084,0.927,-0.454,-2.136,-1.068,0.305,60.000,10237.000,1.000
8.922,8.218,6.883,5.021,2.810,1.171,3.442,2.469,-0.084,0.927,-0.456,-2.350,-1.038,0.305,60.000,10238.000,1.000
14.547,10.564,9.413,9.097,5.206,1.746,7.410,6.117,-0.086,0.927,-0.453,-2.594,-1.007,0.366,60.000,10239.000,1.000
10.953,8.140,8.774,9.206,3.653,-0.244,5.937,6.482,-0.089,0.925,-0.450,-2.747,-0.916,0.366,60.000,10240.000,1.000
1.188,2.817,6.448,6.675,-0.447,-3.498,0.366,4.620,-0.087,0.923,-0.452,-2.808,-0.885,0.336,60.000,10241.000,1.000
-3.730,0.735,5.818,5.430,-2.879,-4.973,-4.190,3.460,-0.089,0.924,-0.449,-2.899,-0.916,0.336,60.000,10242.000,1.000
0.338,4.082,7.442,6.547,-2.290,-3.798,-6.040,3.793,-0.088,0.922,-0.451,-3.052,-0.916,0.336,60.000,10243.000,1.000
5.671,8.363,8.642,7.315,-1.532,-1.827,-8.239,3.630,-0.088,0.919,-0.451,-3.052,-0.916,0.336,60.000,10244.000,1.000
4.135,8.825,7.643,5.728,-3.118,-0.547,-12.677,1.420,-0.088,0.918,-0.453,-2.991,-0.946,0.397,60.000,10245.000,1.000
-2.883,5.946,5.658,3.093,-6.114,0.404,-17.061,-1.963,-0.088,0.917,-0.451,-2.899,-1.007,0.275,60.000,10246.000,1.000
-7.264,3.979,4.992,2.158,-7.686,2.034,-17.710,-4.492,-0.087,0.917,-0.451,-2.899,-0.977,0.397,60.000,10247.000,1.000
-5.578,4.768,5.659,3.262,-7.131,3.883,-14.533,-5.699,-0.086,0.917,-0.453,-2.747,-0.977,0.305,60.000,10248.000,1.000
-3.001,5.580,5.496,4.070,-6.505,4.458,-11.060,-6.744,-0.088,0.915,-0.450,-2.594,-0.916,0.305,60.000,10249.000,1.000
-4.877,3.623,3.438,3.057,-7.183,3.640,-9.502,-8.104,-0.090,0.913,-0.449,-2.533,-0.916,0.275,60.000,10250.000,1.000
-9.883,-0.375,0.654,1.083,-8.204,2.883,-8.839,-8.991,-0.090,0.913,-0.452,-2.411,-0.916,0.305,60.000,10251.000,1.000
-12.043,-3.240,-1.022,0.003,-7.771,3.424,-6.947,-8.571,-0.087,0.911,-0.450,-2.289,-0.916,0.275,60.000,10252.000,1.000
-9.123,-3.769,-1.503,0.062,-5.949,4.524,-3.986,-7.320,-0.087,0.911,-0.449,-2.197,-0.946,0.214,60.000,10253.000,1.000
-5.738,-4.183,-2.415,-0.326,-4.737,4.142,-2.327,-6.585,-0.089,0.910,-0.449,-2.014,-0.946,0.244,60.000,10254.000,1.000
-6.937,-6.733,-4.866,-2.200,-5.425,1.266,-3.175,-7.037,-0.092,0.908,-0.449,-1.892,-1.068,0.305,60.000,10255.000,1.000
-12.838,-11.333,-8.472,-4.892,-7.358,-3.286,-5.346,-8.246,-0.089,0.908,-0.451,-1.740,-1.068,0.336,60.000,10256.000,1.000
-18.975,-15.895,-11.858,-6.612,-8.619,-7.605,-6.352,-9.037,-0.088,0.909,-0.450,-1.587,-1.129,0.366,60.000,10257.000,1.000
-21.796,-18.774,-14.251,-6.464,-8.112,-10.433,-5.148,-8.681,-0.090,0.908,-0.447,-1.495,-1.099,0.336,60.000,10258.000,1.000
