EEG 1,EEG 2,EEG 3,EEG 4,EEG 5,EEG 6,EEG 7,EEG 8,Accelerometer X,Accelerometer Y,Accelerometer Z,Gyroscope X,Gyroscope Y,Gyroscope Z,Battery Level,Counter,Validation Indicator
8.706,2.499,5.132,10.175,0.343,-7.747,-7.301,5.632,-0.086,0.910,-0.450,-0.549,1.007,0.305,60.000,15777.000,1.000
9.852,0.651,4.262,9.400,-1.502,-8.839,-8.463,4.418,-0.087,0.910,-0.448,-0.458,1.160,0.031,60.000,15778.000,1.000
11.040,-1.157,3.424,8.046,-3.443,-9.650,-9.657,1.178,-0.090,0.909,-0.448,-0.305,1.312,0.000,60.000,15779.000,1.000
11.663,-2.571,2.859,6.186,-5.455,-10.372,-10.345,-3.287,-0.090,0.909,-0.451,-0.244,1.343,-0.153,60.000,15780.000,1.000
11.049,-3.553,2.796,4.188,-7.175,-10.946,-10.321,-7.590,-0.091,0.911,-0.449,-0.092,1.282,-0.366,60.000,15781.000,1.000
9.877,-3.831,3.709,2.837,-7.850,-10.862,-8.982,-10.282,-0.092,0.914,-0.448,-0.092,1.312,-0.183,60.000,15782.000,1.000
9.269,-3.338,5.698,2.545,-7.228,-9.758,-5.871,-10.715,-0.093,0.915,-0.446,0.000,1.404,-0.214,60.000,15783.000,1.000
9.682,-2.489,8.271,3.017,-5.908,-7.724,-1.362,-9.340,-0.092,0.915,-0.445,0.000,1.373,-0.183,60.000,15784.000,1.000
10.964,-1.868,10.657,3.608,-4.840,-5.281,3.210,-7.399,-0.093,0.918,-0.447,0.061,1.343,-0.275,60.000,15785.000,1.000
12.131,-2.221,11.962,3.549,-4.937,-3.445,5.605,-6.332,-0.096,0.917,-0.446,0.000,1.434,-0.275,60.000,15786.000,1.000
13.050,-3.392,11.955,2.823,-6.014,-2.846,4.742,-6.614,-0.098,0.917,-0.446,0.000,1.282,-0.366,60.000,15787.000,1.000
14.263,-4.516,10.936,1.909,-7.009,-3.452,1.476,-7.796,-0.098,0.918,-0.451,0.000,1.221,-0.336,60.000,15788.000,1.000
16.193,-4.797,9.368,1.171,-6.898,-4.711,-2.143,-9.136,-0.098,0.917,-0.448,-0.031,1.129,-0.336,60.000,15789.000,1.000
18.869,-4.012,7.622,0.558,-5.421,-5.802,-4.147,-9.964,-0.098,0.916,-0.452,0.000,1.038,-0.275,60.000,15790.000,1.000
21.089,-3.065,5.713,-0.481,-3.445,-6.121,-3.876,-9.892,-0.098,0.917,-0.452,-0.153,0.885,-0.092,60.000,15791.000,1.000
21.920,-2.844,3.927,-1.950,-1.772,-5.214,-1.243,-8.584,-0.097,0.918,-0.450,-0.214,0.824,-0.122,60.000,15792.000,1.000
20.987,-3.722,2.597,-3.295,-0.560,-3.301,3.041,-6.098,-0.098,0.918,-0.450,-0.244,0.763,-0.031,60.000,15793.000,1.000
18.324,-5.502,1.793,-3.917,0.554,-1.294,7.301,-2.837,-0.098,0.921,-0.452,-0.244,0.549,0.092,60.000,15794.000,1.000
14.521,-7.446,1.420,-3.525,2.078,-0.079,9.900,0.868,-0.099,0.921,-0.454,-0.366,0.427,0.214,60.000,15795.000,1.000
9.821,-9.059,1.136,-2.468,3.976,-0.112,10.037,4.556,-0.098,0.922,-0.450,-0.366,0.336,0.214,60.000,15796.000,1.000
4.896,-9.832,0.820,-1.117,6.029,-1.074,8.515,7.685,-0.101,0.921,-0.448,-0.488,0.214,0.366,60.000,15797.000,1.000
0.397,-9.597,0.407,0.093,7.878,-2.404,6.436,9.671,-0.101,0.919,-0.450,-0.549,0.031,0.427,60.000,15798.000,1.000
-3.338,-8.646,-0.098,0.716,9.301,-3.451,4.416,10.219,-0.101,0.920,-0.449,-0.549,0.000,0.488,60.000,15799.000,1.000
-5.964,-7.364,-0.448,0.635,10.522,-3.409,3.239,9.550,-0.098,0.920,-0.446,-0.610,-0.092,0.549,60.000,15800.000,1.000
-7.995,-6.546,-0.446,-0.180,11.657,-1.995,3.591,8.219,-0.096,0.920,-0.447,-0.732,-0.244,0.610,60.000,15801.000,1.000
-9.885,-6.746,0.224,-1.382,12.701,0.456,5.729,7.070,-0.096,0.915,-0.447,-0.824,-0.305,0.702,60.000,15802.000,1.000
-11.820,-8.008,1.608,-2.529,13.375,3.117,8.503,6.540,-0.097,0.912,-0.445,-0.885,-0.427,0.671,60.000,15803.000,1.000
-13.546,-9.650,3.396,-3.252,13.350,5.216,10.002,6.501,-0.094,0.910,-0.450,-0.916,-0.488,0.763,60.000,15804.000,1.000
-14.363,-10.497,5.149,-3.314,12.554,6.309,9.180,6.735,-0.093,0.909,-0.454,-0.916,-0.458,0.763,60.000,15805.000,1.000
-14.410,-10.060,6.331,-2.891,10.997,6.157,6.210,7.234,-0.091,0.910,-0.451,-0.824,-0.519,0.763,60.000,15806.000,1.000
-13.790,-8.288,7.018,-1.935,9.327,5.372,2.837,8.472,-0.088,0.911,-0.450,-0.763,-0.397,0.824,60.000,15807.000,1.000
-12.668,-5.657,7.584,-0.445,8.384,5.023,0.885,10.590,-0.085,0.910,-0.452,-0.610,-0.366,0.854,60.000,15808.000,1.000
-11.430,-2.969,8.211,1.244,8.492,5.863,0.983,12.896,-0.084,0.911,-0.451,-0.641,-0.275,1.038,60.000,15809.000,1.000
-10.310,-0.726,8.829,2.710,9.395,7.927,2.701,14.410,-0.085,0.911,-0.448,-0.519,-0.275,1.007,60.000,15810.000,1.000
-10.088,0.595,9.035,3.393,10.254,10.393,4.734,14.473,-0.089,0.911,-0.447,-0.427,-0.122,1.007,60.000,15811.000,1.000
-10.907,1.095,8.775,3.249,10.533,12.496,6.240,13.409,-0.093,0.912,-0.448,-0.427,-0.092,0.885,60.000,15812.000,1.000
-12.245,1.300,8.289,2.687,10.129,13.851,7.022,12.151,-0.098,0.915,-0.448,-0.458,-0.061,0.763,60.000,15813.000,1.000
-13.327,1.798,7.908,2.273,9.223,14.426,7.345,11.481,-0.099,0.914,-0.450,-0.458,-0.183,0.671,60.000,15814.000,1.000
-13.355,2.967,7.909,2.395,8.114,14.459,7.696,11.409,-0.099,0.915,-0.449,-0.336,-0.336,0.580,60.000,15815.000,1.000
-12.671,4.269,8.071,2.692,6.686,14.046,7.829,10.985,-0.098,0.918,-0.449,-0.397,-0.427,0.519,60.000,15816.000,1.000
-11.454,5.245,8.139,2.773,4.945,13.426,7.533,9.417,-0.096,0.918,-0.448,-0.488,-0.488,0.427,60.000,15817.000,1.000
-9.398,6.045,7.921,2.562,3.213,12.852,6.953,6.749,-0.096,0.917,-0.448,-0.641,-0.519,0.366,60.000,15818.000,1.000
-6.281,7.072,7.448,2.342,2.036,12.494,6.486,3.814,-0.094,0.915,-0.451,-0.610,-0.580,0.305,60.000,15819.000,1.000
-2.320,8.523,6.998,2.517,1.920,12.436,6.500,1.599,-0.093,0.914,-0.448,-0.641,-0.610,0.275,60.000,15820.000,1.000
1.139,9.921,6.545,2.927,2.714,12.408,6.501,0.332,-0.092,0.912,-0.448,-0.580,-0.580,0.183,60.000,15821.000,1.000
3.136,10.983,6.005,3.255,4.032,12.155,5.951,-0.352,-0.093,0.912,-0.451,-0.610,-0.488,0.122,60.000,15822.000,1.000
3.404,11.712,5.266,3.193,5.331,11.415,4.908,-1.040,-0.092,0.914,-0.448,-0.580,-0.580,0.122,60.000,15823.000,1.000
2.317,12.243,4.316,2.699,6.101,10.169,4.158,-2.098,-0.094,0.914,-0.454,-0.519,-0.671,0.061,60.000,15824.000,1.000
0.907,12.725,3.276,2.131,6.188,8.887,4.475,-3.434,-0.096,0.913,-0.454,-0.580,-0.702,0.092,60.000,15825.000,1.000
-0.354,12.791,2.127,1.734,5.627,8.099,5.505,-4.628,-0.097,0.913,-0.451,-0.641,-0.702,-0.031,60.000,15826.000,1.000
-0.851,12.440,1.207,1.826,5.029,8.305,6.863,-4.898,-0.096,0.915,-0.453,-0.580,-0.610,0.031,60.000,15827.000,1.000
-0.271,12.022,0.863,2.369,4.971,9.365,8.217,-3.937,-0.094,0.916,-0.451,-0.580,-0.671,0.031,60.000,15828.000,1.000
0.940,11.768,1.106,2.936,5.433,10.456,8.942,-2.270,-0.093,0.916,-0.450,-0.641,-0.763,0.031,60.000,15829.000,1.000
2.236,11.812,1.736,3.242,6.027,10.785,8.572,-0.693,-0.092,0.915,-0.455,-0.702,-0.763,0.153,60.000,15830.000,1.000
2.937,11.961,2.218,3.040,6.117,9.919,6.807,0.109,-0.092,0.916,-0.453,-0.732,-0.793,0.153,60.000,15831.000,1.000
3.307,12.322,2.162,2.390,5.473,8.199,4.156,0.059,-0.091,0.915,-0.453,-0.702,-0.824,0.244,60.000,15832.000,1.000
3.777,12.949,1.352,1.382,4.164,6.333,1.510,-0.423,-0.090,0.913,-0.454,-0.702,-0.793,0.275,60.000,15833.000,1.000
4.274,13.550,-0.098,0.157,2.471,4.999,-0.310,-0.613,-0.093,0.916,-0.456,-0.641,-0.671,0.244,60.000,15834.000,1.000
4.718,13.812,-1.644,-0.896,0.976,4.607,-0.682,0.221,-0.093,0.917,-0.455,-0.610,-0.610,0.397,60.000,15835.000,1.000
4.678,13.297,-2.807,-1.538,0.056,5.014,0.274,2.193,-0.092,0.917,-0.450,-0.671,-0.580,0.366,60.000,15836.000,1.000
4.428,12.228,-3.153,-1.516,-0.014,5.991,2.262,4.849,-0.092,0.918,-0.450,-0.702,-0.580,0.366,60.000,15837.000,1.000
4.372,11.173,-2.826,-0.991,0.547,7.044,4.365,7.141,-0.092,0.919,-0.451,-0.824,-0.580,0.458,60.000,15838.000,1.000
4.350,10.424,-2.540,-0.556,1.094,7.418,5.224,7.889,-0.092,0.919,-0.451,-0.793,-0.519,0.580,60.000,15839.000,1.000
4.120,9.994,-2.869,-0.645,1.207,6.573,4.250,6.568,-0.092,0.918,-0.452,-0.824,-0.427,0.580,60.000,15840.000,1.000
3.132,9.486,-4.018,-1.389,0.671,4.359,1.766,3.578,-0.091,0.918,-0.452,-0.977,-0.519,0.702,60.000,15841.000,1.000
1.724,8.994,-5.497,-2.255,-0.221,1.474,-0.766,0.246,-0.089,0.918,-0.451,-0.946,-0.427,0.702,60.000,15842.000,1.000
0.585,8.839,-6.723,-2.730,-1.129,-1.075,-2.064,-2.211,-0.089,0.917,-0.448,-1.129,-0.366,0.702,60.000,15843.000,1.000
-0.050,8.939,-7.427,-2.775,-2.014,-2.692,-2.048,-3.369,-0.091,0.916,-0.449,-1.160,-0.366,0.641,60.000,15844.000,1.000
-0.023,9.107,-7.485,-2.485,-2.842,-3.321,-1.296,-3.332,-0.093,0.915,-0.453,-1.251,-0.427,0.641,60.000,15845.000,1.000
0.458,9.195,-7.006,-2.030,-3.590,-3.419,-0.627,-2.441,-0.092,0.913,-0.455,-1.282,-0.366,0.610,60.000,15846.000,1.000
1.495,9.409,-6.106,-1.397,-4.025,-3.447,-0.366,-0.962,-0.091,0.913,-0.454,-1.282,-0.305,0.610,60.000,15847.000,1.000
2.517,9.310,-5.275,-0.868,-4.314,-3.903,-0.752,0.612,-0.091,0.916,-0.449,-1.404,-0.244,0.580,60.000,15848.000,1.000
2.395,7.992,-5.033,-0.853,-4.966,-5.011,-1.754,1.779,-0.092,0.916,-0.449,-1.465,-0.183,0.488,60.000,15849.000,1.000
1.193,5.573,-5.283,-1.256,-6.080,-6.433,-2.782,2.569,-0.091,0.918,-0.448,-1.495,-0.092,0.549,60.000,15850.000,1.000
-0.303,2.896,-5.758,-1.867,-7.541,-7.906,-3.838,3.159,-0.090,0.914,-0.451,-1.495,0.000,0.519,60.000,15851.000,1.000
-0.789,1.043,-6.138,-2.372,-8.989,-9.215,-5.180,3.631,-0.093,0.914,-0.452,-1.526,-0.061,0.641,60.000,15852.000,1.000
0.252,0.416,-6.338,-2.672,-10.208,-10.259,-6.857,3.727,-0.092,0.913,-0.453,-1.495,-0.061,0.610,60.000,15853.000,1.000
2.088,0.440,-6.356,-2.890,-11.231,-10.923,-8.393,3.112,-0.091,0.911,-0.451,-1.617,-0.031,0.519,60.000,15854.000,1.000
3.950,0.384,-5.958,-3.022,-11.961,-10.861,-8.950,1.791,-0.092,0.911,-0.455,-1.587,-0.031,0.458,60.000,15855.000,1.000
5.225,-0.208,-5.013,-3.132,-12.296,-9.854,-8.467,0.035,-0.092,0.913,-0.452,-1.617,-0.061,0.488,60.000,15856.000,1.000
6.241,-0.980,-3.414,-3.071,-11.911,-7.859,-7.271,-1.456,-0.092,0.911,-0.451,-1.678,0.000,0.427,60.000,15857.000,1.000
7.306,-1.530,-1.441,-2.737,-10.640,-5.287,-5.744,-1.997,-0.092,0.911,-0.451,-1.709,-0.031,0.610,60.000,15858.000,1.000
8.311,-1.708,0.295,-2.102,-8.592,-2.722,-3.910,-1.421,-0.090,0.913,-0.449,-1.678,-0.061,0.519,60.000,15859.000,1.000
9.506,-1.154,1.302,-1.038,-5.969,-0.512,-1.607,-0.305,-0.093,0.915,-0.449,-1.740,-0.244,0.519,60.000,15860.000,1.000
10.711,0.055,1.276,0.295,-3.357,0.969,0.401,0.174,-0.094,0.915,-0.454,-1.770,-0.183,0.488,60.000,15861.000,1.000
11.710,1.522,0.564,1.743,-1.171,1.672,1.380,-0.632,-0.094,0.915,-0.453,-1.831,-0.183,0.519,60.000,15862.000,1.000
11.996,2.579,-0.301,2.940,0.376,1.752,1.204,-2.504,-0.095,0.914,-0.455,-1.892,-0.122,0.519,60.000,15863.000,1.000
11.145,2.760,-0.970,3.465,1.271,1.524,0.425,-4.610,-0.095,0.916,-0.454,-1.892,-0.153,0.519,60.000,15864.000,1.000
9.677,2.271,-1.247,3.285,1.814,1.458,0.070,-5.969,-0.094,0.916,-0.452,-1.923,-0.214,0.580,60.000,15865.000,1.000
7.916,1.254,-1.392,2.396,2.069,1.651,0.434,-6.245,-0.095,0.918,-0.452,-2.075,-0.214,0.549,60.000,15866.000,1.000
6.178,0.042,-1.521,1.111,2.184,2.072,1.352,-5.648,-0.097,0.917,-0.450,-2.167,-0.336,0.519,60.000,15867.000,1.000
4.476,-0.934,-1.429,-0.034,2.423,2.630,2.343,-4.623,-0.096,0.918,-0.450,-2.258,-0.458,0.488,60.000,15868.000,1.000
2.740,-1.274,-0.712,-0.465,3.071,3.288,3.096,-3.474,-0.096,0.917,-0.452,-2.289,-0.610,0.458,60.000,15869.000,1.000
1.516,-0.590,0.736,0.140,4.336,4.008,4.089,-2.308,-0.093,0.916,-0.452,-2.411,-0.641,0.580,60.000,15870.000,1.000
0.773,0.620,1.920,1.127,5.695,4.099,5.550,-1.406,-0.094,0.916,-0.451,-2.594,-0.763,0.610,60.000,15871.000,1.000
0.300,1.449,1.536,1.568,6.338,2.747,7.021,-0.886,-0.094,0.915,-0.453,-2.594,-0.824,0.580,60.000,15872.000,1.000
-0.244,1.150,-1.090,0.903,5.577,-0.273,7.200,-0.893,-0.095,0.915,-0.452,-2.655,-0.824,0.641,60.000,15873.000,1.000
-1.154,-0.382,-5.484,-0.742,3.247,-4.226,5.047,-1.798,-0.093,0.914,-0.452,-2.808,-0.885,0.702,60.000,15874.000,1.000
-2.155,-2.412,-10.187,-2.625,0.009,-7.734,1.130,-3.745,-0.094,0.916,-0.450,-2.899,-0.885,0.763,60.000,15875.000,1.000
-3.375,-4.410,-13.822,-4.227,-3.342,-9.897,-3.198,-6.498,-0.093,0.915,-0.450,-2.960,-0.854,0.702,60.000,15876.000,1.000
-4.563,-6.083,-15.535,-5.207,-6.089,-10.606,-6.495,-9.363,-0.092,0.916,-0.447,-2.991,-0.885,0.610,60.000,15877.000,1.000
-4.790,-7.199,-15.291,-5.300,-7.796,-10.446,-8.023,-11.433,-0.090,0.916,-0.446,-3.113,-0.854,0.702,60.000,15878.000,1.000
-2.965,-7.361,-13.599,-4.296,-8.260,-10.122,-7.838,-11.809,-0.090,0.917,-0.445,-3.174,-0.885,0.824,60.000,15879.000,1.000
0.432,-6.675,-11.421,-2.674,-7.817,-10.232,-6.834,-10.371,-0.088,0.916,-0.447,-3.204,-0.824,0.977,60.000,15880.000,1.000
1.587,-6.912,-10.224,-2.157,-7.838,-11.399,-7.008,-8.414,-0.089,0.916,-0.447,-3.204,-0.824,0.977,60.000,15881.000,1.000
-2.191,-9.174,-10.318,-3.556,-8.932,-13.065,-9.021,-7.208,-0.089,0.914,-0.447,-3.204,-0.732,0.946,60.000,15882.000,1.000
-8.182,-11.704,-10.255,-5.323,-9.774,-13.408,-11.096,-6.714,-0.087,0.916,-0.445,-3.204,-0.641,0.946,60.000,15883.000,1.000
-10.416,-11.327,-8.315,-5.029,-8.455,-11.069,-10.981,-5.936,-0.088,0.918,-0.448,-3.174,-0.519,0.977,60.000,15884.000,1.000
-6.694,-7.404,-4.585,-2.279,-4.994,-6.924,-8.879,-4.466,-0.091,0.917,-0.449,-3.113,-0.488,0.916,60.000,15885.000,1.000
-2.534,-3.790,-1.346,0.299,-2.168,-3.854,-8.139,-3.311,-0.089,0.917,-0.446,-3.235,-0.397,1.038,60.000,15886.000,1.000
-3.658,-4.090,-0.065,0.524,-2.090,-3.469,-10.543,-3.040,-0.087,0.917,-0.444,-3.265,-0.427,1.160,60.000,15887.000,1.000
-7.997,-6.866,0.485,-0.513,-3.323,-4.240,-13.066,-2.325,-0.087,0.919,-0.446,-3.296,-0.366,1.160,60.000,15888.000,1.000
-8.121,-7.322,2.495,0.071,-2.446,-3.379,-10.967,0.780,-0.086,0.920,-0.442,-3.296,-0.214,1.099,60.000,15889.000,1.000
-1.102,-3.458,5.963,2.998,1.573,-0.294,-3.879,6.027,-0.086,0.922,-0.442,-3.296,-0.092,1.068,60.000,15890.000,1.000
6.350,0.856,8.088,5.288,5.524,2.503,2.528,10.182,-0.088,0.921,-0.442,-3.510,-0.092,0.977,60.000,15891.000,1.000
6.801,1.283,7.050,4.307,6.174,2.931,3.291,10.389,-0.089,0.921,-0.443,-3.571,-0.061,0.977,60.000,15892.000,1.000
1.655,-1.302,4.569,1.305,4.297,1.978,-0.098,7.203,-0.088,0.921,-0.442,-3.693,0.092,1.068,60.000,15893.000,1.000
-1.247,-2.311,3.970,-0.204,3.346,2.197,-2.006,3.669,-0.089,0.919,-0.437,-3.693,0.122,1.099,60.000,15894.000,1.000
1.347,0.091,6.012,0.831,4.648,4.094,-0.058,1.657,-0.089,0.920,-0.437,-3.693,0.122,1.068,60.000,15895.000,1.000
2.406,1.790,7.663,1.220,5.196,5.068,1.482,0.053,-0.090,0.921,-0.436,-3.662,0.214,1.068,60.000,15896.000,1.000
-4.393,-0.951,6.758,-1.434,2.437,3.447,-1.150,-2.115,-0.087,0.923,-0.436,-3.784,0.214,0.946,60.000,15897.000,1.000
-12.084,-4.467,5.834,-4.077,-0.750,1.723,-4.020,-2.681,-0.087,0.922,-0.437,-3.662,0.183,0.916,60.000,15898.000,1.000
-5.909,-0.733,9.212,-1.216,1.298,3.854,0.427,1.318,-0.087,0.921,-0.437,-3.662,0.305,1.068,60.000,15899.000,1.000
15.310,10.872,15.989,6.665,8.465,9.125,11.448,8.070,-0.087,0.918,-0.438,-3.540,0.397,1.007,60.000,15900.000,1.000
30.055,18.492,18.885,10.946,12.139,11.273,16.945,10.585,-0.087,0.915,-0.439,-3.387,0.427,1.007,60.000,15901.000,1.000
18.630,11.363,13.466,5.448,5.724,6.598,8.353,4.787,-0.087,0.916,-0.438,-3.204,0.458,0.854,60.000,15902.000,1.000
-8.784,-4.673,5.264,-4.264,-5.344,0.006,-6.101,-4.477,-0.087,0.912,-0.439,-2.930,0.519,0.854,60.000,15903.000,1.000
-20.721,-12.000,4.103,-6.566,-8.819,-0.111,-9.155,-8.224,-0.088,0.909,-0.437,-2.655,0.458,0.885,60.000,15904.000,1.000
-3.326,-2.990,11.657,1.401,-1.046,7.245,4.155,-3.887,-0.088,0.910,-0.442,-2.380,0.427,0.885,60.000,15905.000,1.000
19.999,9.136,18.433,9.120,7.384,13.279,18.674,1.734,-0.089,0.912,-0.441,-2.167,0.397,0.793,60.000,15906.000,1.000
19.100,7.781,16.069,6.589,5.462,10.641,18.203,1.897,-0.090,0.915,-0.437,-1.831,0.458,0.854,60.000,15907.000,1.000
-3.414,-4.952,8.111,-2.314,-3.650,3.043,5.746,-1.526,-0.091,0.917,-0.439,-1.526,0.366,0.671,60.000,15908.000,1.000
-16.489,-11.373,4.974,-4.946,-6.851,0.392,-1.612,-1.565,-0.094,0.917,-0.439,-1.160,0.366,0.702,60.000,15909.000,1.000
-2.115,-1.862,10.090,3.390,1.580,6.083,4.671,3.700,-0.093,0.918,-0.439,-1.007,0.214,0.610,60.000,15910.000,1.000
21.024,12.337,15.667,13.202,12.447,13.066,14.407,8.243,-0.092,0.921,-0.439,-0.854,0.275,0.549,60.000,15911.000,1.000
24.185,14.781,13.876,13.783,14.300,13.835,14.421,6.564,-0.091,0.923,-0.440,-0.641,0.214,0.488,60.000,15912.000,1.000
6.131,4.945,6.899,6.571,7.787,9.561,6.078,1.036,-0.094,0.922,-0.441,-0.549,0.000,0.610,60.000,15913.000,1.000
-7.552,-2.568,3.211,1.953,3.317,7.127,1.780,-1.253,-0.093,0.921,-0.439,-0.336,-0.061,0.641,60.000,15914.000,1.000
0.503,2.026,6.119,5.122,6.705,9.266,7.281,2.403,-0.093,0.920,-0.438,-0.214,-0.092,0.549,60.000,15915.000,1.000
16.879,10.996,9.603,9.691,11.910,10.977,13.766,6.962,-0.093,0.921,-0.440,0.092,-0.122,0.397,60.000,15916.000,1.000
18.042,10.971,7.177,7.636,10.494,7.115,10.772,6.731,-0.093,0.920,-0.441,0.305,-0.183,0.427,60.000,15917.000,1.000
2.185,0.966,0.431,0.310,3.175,-0.426,0.156,2.555,-0.091,0.920,-0.440,0.580,-0.061,0.336,60.000,15918.000,1.000
-10.214,-7.393,-3.701,-3.890,-1.689,-5.260,-7.038,-0.006,-0.091,0.917,-0.442,0.793,-0.092,0.397,60.000,15919.000,1.000
-4.985,-5.894,-2.381,-1.012,0.534,-4.734,-5.290,1.715,-0.089,0.914,-0.443,0.854,-0.061,0.397,60.000,15920.000,1.000
6.555,-0.367,-0.461,3.223,4.745,-3.029,-1.598,4.246,-0.089,0.914,-0.441,1.068,-0.183,0.366,60.000,15921.000,1.000
4.769,-1.244,-3.104,1.877,3.954,-4.716,-4.776,3.531,-0.087,0.911,-0.441,1.282,-0.061,0.427,60.000,15922.000,1.000
-11.108,-8.875,-8.617,-3.809,-1.019,-8.568,-13.184,0.717,-0.085,0.912,-0.440,1.404,-0.061,0.305,60.000,15923.000,1.000
-22.099,-13.324,-10.731,-6.300,-2.861,-9.599,-16.956,0.527,-0.086,0.908,-0.439,1.648,0.000,0.214,60.000,15924.000,1.000
-15.179,-8.307,-7.111,-2.007,2.023,-6.326,-11.584,4.633,-0.085,0.909,-0.440,1.709,0.061,0.214,60.000,15925.000,1.000
-2.042,-0.946,-3.008,3.443,7.782,-3.591,-5.170,8.829,-0.085,0.909,-0.440,1.923,0.122,0.183,60.000,15926.000,1.000
-2.698,-2.274,-3.948,3.203,6.931,-5.852,-7.065,8.703,-0.085,0.907,-0.443,2.167,0.183,0.061,60.000,15927.000,1.000
-16.176,-11.226,-7.686,-0.691,1.013,-10.354,-13.656,5.976,-0.083,0.906,-0.442,2.380,0.153,0.061,60.000,15928.000,1.000
-18.764,-14.240,-6.711,0.803,-0.632,-10.014,-11.583,6.718,-0.083,0.906,-0.443,2.472,0.397,0.031,60.000,15929.000,1.000
2.436,-4.172,0.433,10.401,5.694,-3.668,2.882,12.301,-0.083,0.906,-0.446,2.686,0.488,-0.092,60.000,15930.000,1.000
23.283,5.480,4.239,17.287,9.925,0.026,13.594,15.085,-0.083,0.907,-0.448,2.777,0.549,-0.092,60.000,15931.000,1.000
9.657,-3.782,-3.870,10.061,0.682,-6.568,3.460,7.807,-0.082,0.910,-0.449,2.899,0.702,-0.153,60.000,15932.000,1.000
-33.389,-28.279,-18.097,-6.285,-17.018,-18.407,-20.658,-5.240,-0.083,0.909,-0.447,3.021,0.763,-0.244,60.000,15933.000,1.000
-59.538,-41.854,-22.787,-13.647,-24.280,-21.971,-32.248,-11.395,-0.085,0.911,-0.451,3.143,0.763,-0.336,60.000,15934.000,1.000
-37.719,-27.747,-11.812,-3.270,-11.388,-12.044,-17.478,-5.046,-0.087,0.913,-0.448,3.052,0.793,-0.305,60.000,15935.000,1.000
3.221,-2.841,1.865,11.097,7.595,0.276,5.051,4.413,-0.087,0.914,-0.449,3.113,0.977,-0.397,60.000,15936.000,1.000
10.082,3.023,2.572,10.666,11.980,1.818,8.355,4.908,-0.089,0.918,-0.451,3.021,0.946,-0.458,60.000,15937.000,1.000
-18.585,-10.704,-5.656,-1.260,3.307,-3.713,-4.062,-0.945,-0.091,0.918,-0.450,2.960,1.007,-0.519,60.000,15938.000,1.000
-18.811,-8.598,-1.687,0.049,6.471,1.471,1.934,2.420,-0.090,0.919,-0.447,2.808,1.007,-0.580,60.000,15939.000,1.000
51.172,31.516,21.986,25.334,33.780,22.820,41.780,20.059,-0.092,0.921,-0.446,2.563,0.916,-0.610,60.000,15940.000,1.000
124.016,71.026,38.892,44.801,55.723,36.737,73.922,31.065,-0.093,0.919,-0.450,2.411,0.977,-0.793,60.000,15941.000,1.000
81.696,44.610,16.691,18.443,29.919,15.691,40.988,10.579,-0.093,0.918,-0.452,2.167,0.824,-0.763,60.000,15942.000,1.000
-84.536,-50.574,-35.372,-46.232,-38.498,-31.018,-48.800,-33.354,-0.095,0.920,-0.450,1.923,0.732,-0.702,60.000,15943.000,1.000
-227.704,-130.954,-66.753,-89.704,-88.490,-58.643,-112.816,-60.345,-0.097,0.920,-0.449,1.831,0.580,-0.671,60.000,15944.000,1.000
-201.383,-115.356,-42.617,-66.413,-69.404,-37.083,-84.796,-42.580,-0.099,0.918,-0.449,1.617,0.366,-0.610,60.000,15945.000,1.000
-31.190,-19.792,13.578,0.270,-1.106,12.540,6.158,1.674,-0.102,0.916,-0.453,1.404,0.183,-0.488,60.000,15946.000,1.000
118.913,63.662,48.005,46.021,50.140,42.991,71.086,29.852,-0.104,0.915,-0.452,1.251,0.000,-0.519,60.000,15947.000,1.000
128.610,69.042,35.277,36.041,44.424,32.327,58.970,21.231,-0.105,0.916,-0.452,1.190,-0.275,-0.519,60.000,15948.000,1.000
23.283,11.816,-3.621,-8.635,-0.264,-0.908,-3.595,-8.669,-0.104,0.916,-0.450,1.007,-0.610,-0.366,60.000,15949.000,1.000
-85.216,-45.536,-31.436,-43.732,-38.527,-24.193,-55.080,-31.083,-0.105,0.916,-0.451,0.885,-0.916,-0.275,60.000,15950.000,1.000
-103.631,-51.913,-26.277,-40.417,-38.327,-18.443,-53.194,-28.461,-0.106,0.917,-0.452,0.793,-1.221,-0.244,60.000,15951.000,1.000
-11.193,3.123,8.967,0.876,2.420,13.839,3.846,-2.160,-0.106,0.919,-0.448,0.641,-1.404,-0.275,60.000,15952.000,1.000
126.730,82.084,48.131,50.431,54.412,49.768,75.671,28.128,-0.106,0.919,-0.448,0.519,-1.740,-0.183,60.000,15953.000,1.000
195.902,120.856,57.657,66.918,74.253,59.950,103.735,36.293,-0.105,0.919,-0.452,0.397,-1.984,-0.122,60.000,15954.000,1.000
136.356,86.739,28.560,36.140,44.536,36.449,65.733,14.780,-0.104,0.920,-0.453,0.183,-2.289,0.000,60.000,15955.000,1.000
15.168,18.403,-9.537,-8.857,-3.089,4.783,5.326,-13.817,-0.105,0.921,-0.456,0.153,-2.441,0.061,60.000,15956.000,1.000
-40.586,-12.940,-19.037,-21.677,-20.250,-3.095,-13.187,-20.312,-0.105,0.918,-0.453,0.092,-2.686,0.305,60.000,15957.000,1.000
7.316,12.999,1.160,2.493,1.030,12.752,18.392,-3.955,-0.103,0.915,-0.453,0.031,-2.991,0.427,60.000,15958.000,1.000
68.041,44.645,16.428,23.138,21.034,21.870,44.830,7.994,-0.103,0.914,-0.452,-0.092,-3.204,0.519,60.000,15959.000,1.000
47.513,30.174,3.246,9.045,6.661,4.766,22.618,-2.791,-0.103,0.911,-0.452,-0.061,-3.387,0.610,60.000,15960.000,1.000
-30.224,-15.508,-21.401,-22.500,-26.248,-22.143,-24.282,-22.485,-0.099,0.910,-0.453,-0.061,-3.479,0.763,60.000,15961.000,1.000
-64.024,-35.433,-25.531,-32.084,-37.197,-29.996,-40.152,-25.467,-0.098,0.908,-0.458,0.031,-3.693,0.793,60.000,15962.000,1.000
-16.197,-9.476,-6.020,-11.853,-16.374,-16.123,-13.141,-9.181,-0.095,0.908,-0.459,0.031,-3.754,0.946,60.000,15963.000,1.000
41.653,21.432,9.270,6.934,4.788,-5.125,12.690,4.122,-0.094,0.905,-0.458,0.214,-3.784,1.099,60.000,15964.000,1.000
31.802,14.368,0.806,-1.176,-1.514,-13.852,0.231,-1.366,-0.093,0.907,-0.458,0.183,-3.723,1.099,60.000,15965.000,1.000
-28.099,-19.273,-17.997,-23.115,-23.796,-30.183,-33.227,-15.226,-0.091,0.906,-0.457,0.275,-3.723,1.068,60.000,15966.000,1.000
-56.857,-33.279,-21.173,-27.909,-29.976,-31.514,-43.466,-16.767,-0.089,0.910,-0.459,0.458,-3.754,1.099,60.000,15967.000,1.000
-21.873,-10.305,-5.361,-9.120,-11.403,-15.620,-19.478,-2.884,-0.091,0.912,-0.459,0.427,-3.723,1.099,60.000,15968.000,1.000
23.896,18.330,8.053,9.095,8.207,-1.938,6.026,9.926,-0.091,0.916,-0.460,0.549,-3.571,1.129,60.000,15969.000,1.000
20.812,18.306,3.170,6.546,7.031,-4.472,3.988,9.116,-0.088,0.918,-0.455,0.549,-3.540,1.129,60.000,15970.000,1.000
-20.491,-4.305,-11.343,-8.153,-7.704,-15.173,-15.314,1.089,-0.088,0.920,-0.459,0.305,-3.296,1.160,60.000,15971.000,1.000
-41.713,-16.534,-16.692,-12.627,-13.171,-17.326,-21.394,-0.026,-0.087,0.919,-0.462,0.275,-3.174,1.099,60.000,15972.000,1.000
-19.268,-5.280,-9.626,-1.978,-3.167,-8.525,-6.542,7.692,-0.084,0.918,-0.461,0.183,-2.960,1.068,60.000,15973.000,1.000
8.863,8.086,-4.118,6.960,5.632,-1.825,6.720,12.866,-0.079,0.917,-0.462,0.092,-2.655,0.946,60.000,15974.000,1.000
2.175,1.476,-9.567,1.226,-0.865,-5.931,-0.016,8.087,-0.078,0.910,-0.465,0.061,-2.380,0.916,60.000,15975.000,1.000
-26.718,-16.984,-17.876,-10.736,-14.824,-13.585,-16.043,0.077,-0.078,0.906,-0.465,0.244,-2.075,0.854,60.000,15976.000,1.000
-33.389,-21.787,-15.708,-12.029,-18.196,-12.516,-17.992,-0.208,-0.078,0.903,-0.463,0.488,-1.740,0.763,60.000,15977.000,1.000
-7.450,-7.263,-4.362,-1.968,-8.523,-3.217,-3.796,6.517,-0.078,0.905,-0.463,0.671,-1.465,0.702,60.000,15978.000,1.000
11.966,4.279,1.497,3.025,-1.974,1.954,4.649,8.939,-0.079,0.906,-0.465,0.763,-1.190,0.610,60.000,15979.000,1.000
-5.831,-4.531,-5.079,-6.172,-9.081,-2.926,-5.880,1.880,-0.079,0.909,-0.463,0.763,-0.916,0.458,60.000,15980.000,1.000
-36.083,-19.988,-12.931,-17.246,-18.644,-8.510,-19.866,-5.617,-0.076,0.914,-0.462,0.732,-0.580,0.397,60.000,15981.000,1.000
-30.656,-15.615,-8.056,-13.066,-13.136,-3.423,-14.231,-2.483,-0.076,0.918,-0.461,0.702,-0.305,0.366,60.000,15982.000,1.000
11.169,8.277,5.496,2.736,4.519,8.133,7.089,7.836,-0.075,0.920,-0.463,0.458,0.000,0.458,60.000,15983.000,1.000
35.893,21.514,9.884,8.835,12.235,10.687,15.981,10.650,-0.078,0.919,-0.459,0.244,0.336,0.458,60.000,15984.000,1.000
6.839,4.391,-2.024,-4.962,-1.868,-1.225,-1.641,-0.506,-0.081,0.918,-0.460,0.183,0.580,0.366,60.000,15985.000,1.000
-47.990,-26.319,-17.006,-24.355,-23.900,-15.321,-27.083,-15.683,-0.084,0.917,-0.459,0.244,0.763,0.275,60.000,15986.000,1.000
-72.119,-38.864,-18.165,-28.898,-31.951,-16.688,-32.780,-21.251,-0.089,0.916,-0.462,0.153,0.977,0.275,60.000,15987.000,1.000
-46.070,-23.230,-4.120,-15.418,-21.181,-4.457,-14.088,-15.073,-0.093,0.914,-0.461,0.183,1.038,0.183,60.000,15988.000,1.000
2.444,4.186,13.183,2.983,-4.272,10.721,11.668,-5.252,-0.096,0.913,-0.459,0.183,1.038,0.031,60.000,15989.000,1.000
39.094,23.984,23.327,14.133,6.187,19.969,28.333,0.884,-0.099,0.911,-0.457,0.092,0.946,-0.061,60.000,15990.000,1.000
48.976,28.132,23.414,14.548,6.533,21.074,30.978,1.120,-0.101,0.910,-0.456,0.031,0.732,-0.153,60.000,15991.000,1.000
32.669,17.553,15.007,6.008,-1.211,15.404,21.097,-3.961,-0.101,0.906,-0.457,0.031,0.732,-0.305,60.000,15992.000,1.000
-0.726,-1.829,1.939,-7.247,-12.591,6.044,3.429,-12.188,-0.101,0.906,-0.460,0.122,0.519,-0.427,60.000,15993.000,1.000
-31.929,-18.552,-9.003,-17.592,-20.140,-1.370,-12.046,-18.782,-0.103,0.906,-0.460,0.122,0.366,-0.519,60.000,15994.000,1.000
-38.961,-20.451,-11.178,-17.195,-16.497,-1.209,-14.203,-18.711,-0.101,0.906,-0.463,0.153,0.153,-0.427,60.000,15995.000,1.000
-18.338,-6.580,-4.839,-6.056,-2.321,6.286,-2.041,-12.090,-0.101,0.907,-0.460,0.153,-0.031,-0.427,60.000,15996.000,1.000
9.743,10.781,2.791,7.082,12.970,14.881,13.592,-4.374,-0.099,0.909,-0.460,0.153,-0.092,-0.427,60.000,15997.000,1.000
21.402,18.090,4.824,13.092,19.849,18.542,20.641,-0.759,-0.098,0.911,-0.459,0.183,-0.214,-0.336,60.000,15998.000,1.000
11.996,13.145,1.137,10.845,17.213,16.944,16.906,-1.334,-0.097,0.912,-0.460,0.214,-0.336,-0.336,60.000,15999.000,1.000
-2.781,4.972,-2.939,6.556,11.623,14.334,10.039,-2.195,-0.097,0.913,-0.459,0.153,-0.336,-0.092,60.000,16000.000,1.000
-7.271,2.124,-3.551,5.532,8.781,13.624,7.317,-0.739,-0.098,0.915,-0.458,0.153,-0.397,0.061,60.000,16001.000,1.000
-0.229,5.009,-1.558,7.523,8.670,13.939,9.105,1.969,-0.095,0.913,-0.458,0.000,-0.397,0.122,60.000,16002.000,1.000
7.884,7.762,-0.456,8.657,7.569,12.672,10.439,3.025,-0.093,0.915,-0.458,0.000,-0.458,0.244,60.000,16003.000,1.000
7.716,5.474,-2.165,6.431,3.135,8.798,7.337,1.091,-0.091,0.913,-0.458,-0.153,-0.610,0.427,60.000,16004.000,1.000
1.425,-0.177,-4.752,2.830,-2.462,4.204,1.708,-1.849,-0.092,0.915,-0.458,-0.214,-0.488,0.641,60.000,16005.000,1.000
0.473,-2.430,-4.411,2.474,-4.424,1.762,-0.478,-2.086,-0.092,0.913,-0.457,-0.397,-0.458,0.702,60.000,16006.000,1.000
14.342,4.222,0.799,8.245,0.280,2.703,4.778,2.532,-0.090,0.915,-0.454,-0.549,-0.458,0.763,60.000,16007.000,1.000
37.048,16.533,7.716,16.981,8.520,4.525,13.092,9.513,-0.092,0.915,-0.456,-0.702,-0.458,0.793,60.000,16008.000,1.000
48.825,23.535,10.271,21.309,12.723,2.824,14.121,13.397,-0.090,0.917,-0.455,-0.793,-0.488,0.946,60.000,16009.000,1.000
36.916,18.238,6.275,17.600,9.009,-3.574,3.250,11.642,-0.090,0.916,-0.455,-0.946,-0.458,0.946,60.000,16010.000,1.000
9.951,5.443,0.034,9.945,1.572,-10.764,-12.292,7.319,-0.092,0.913,-0.454,-1.007,-0.519,1.007,60.000,16011.000,1.000
-10.276,-3.140,-1.960,5.891,-1.572,-13.214,-20.034,5.916,-0.090,0.913,-0.455,-1.221,-0.519,0.885,60.000,16012.000,1.000
-11.870,-1.669,1.905,8.123,2.581,-9.670,-15.604,9.410,-0.091,0.914,-0.455,-1.465,-0.580,0.885,60.000,16013.000,1.000
-3.162,4.498,7.188,12.281,9.263,-4.307,-6.567,14.632,-0.089,0.915,-0.457,-1.617,-0.610,0.854,60.000,16014.000,1.000
1.450,6.994,9.382,13.402,12.533,-1.476,-2.210,17.687,-0.090,0.914,-0.455,-1.770,-0.519,0.854,60.000,16015.000,1.000
-1.080,4.218,8.715,11.727,11.813,-1.318,-3.905,18.113,-0.090,0.913,-0.455,-1.862,-0.458,0.824,60.000,16016.000,1.000
-1.493,1.836,8.881,11.490,11.247,-0.863,-5.980,18.251,-0.089,0.911,-0.457,-1.984,-0.427,0.732,60.000,16017.000,1.000
4.844,3.117,11.087,13.885,12.628,0.763,-5.285,18.783,-0.088,0.912,-0.455,-2.045,-0.397,0.732,60.000,16018.000,1.000
7.916,3.114,12.000,14.403,12.134,0.707,-5.708,17.321,-0.086,0.912,-0.458,-2.106,-0.305,0.702,60.000,16019.000,1.000
-2.558,-3.464,9.088,9.393,6.452,-2.826,-10.868,12.450,-0.086,0.912,-0.456,-2.197,-0.244,0.641,60.000,16020.000,1.000
-18.618,-12.211,5.395,2.480,-0.684,-6.592,-16.413,7.024,-0.089,0.915,-0.459,-2.258,-0.122,0.610,60.000,16021.000,1.000
-18.796,-11.758,6.751,1.528,-1.272,-5.098,-13.272,5.796,-0.089,0.914,-0.458,-2.350,-0.153,0.519,60.000,16022.000,1.000
3.537,0.822,13.327,7.880,6.155,1.843,-0.578,8.976,-0.089,0.915,-0.458,-2.502,0.000,0.458,60.000,16023.000,1.000
27.103,13.364,17.881,13.111,12.914,7.689,10.377,10.914,-0.090,0.917,-0.456,-2.441,-0.031,0.458,60.000,16024.000,1.000
27.368,12.458,14.537,9.348,10.480,7.025,9.273,6.921,-0.092,0.917,-0.455,-2.472,0.000,0.427,60.000,16025.000,1.000
6.165,-0.608,6.101,-0.915,0.846,2.002,-0.738,-0.901,-0.094,0.917,-0.455,-2.625,0.031,0.397,60.000,16026.000,1.000
-10.791,-11.596,0.849,-7.767,-5.888,-0.484,-6.569,-6.070,-0.094,0.916,-0.453,-2.655,0.000,0.275,60.000,16027.000,1.000
-6.125,-11.041,2.331,-6.270,-4.125,2.373,-1.263,-5.723,-0.094,0.918,-0.450,-2.747,-0.061,0.214,60.000,16028.000,1.000
9.892,-4.463,5.820,-1.771,1.147,6.275,8.444,-3.522,-0.094,0.917,-0.451,-2.747,-0.214,0.275,60.000,16029.000,1.000
16.415,-2.739,5.470,-1.840,2.087,6.056,12.030,-4.150,-0.094,0.917,-0.449,-2.930,-0.275,0.305,60.000,16030.000,1.000
7.967,-8.367,1.345,-7.197,-2.480,1.764,7.369,-7.800,-0.094,0.916,-0.451,-2.960,-0.305,0.183,60.000,16031.000,1.000
-1.667,-13.889,-1.572,-11.963,-6.803,-2.208,1.520,-10.789,-0.094,0.915,-0.452,-2.960,-0.427,0.214,60.000,16032.000,1.000
0.118,-12.912,-0.546,-11.939,-6.515,-3.253,0.212,-10.856,-0.095,0.916,-0.452,-2.991,-0.427,0.275,60.000,16033.000,1.000
9.033,-8.055,1.647,-9.318,-3.750,-3.255,1.204,-9.683,-0.094,0.916,-0.452,-2.899,-0.519,0.366,60.000,16034.000,1.000
11.884,-6.398,0.905,-8.697,-3.202,-5.000,-0.482,-10.030,-0.095,0.917,-0.454,-2.899,-0.671,0.336,60.000,16035.000,1.000
2.848,-10.999,-3.523,-11.570,-6.362,-8.512,-5.386,-12.382,-0.094,0.917,-0.450,-2.838,-0.763,0.397,60.000,16036.000,1.000
-10.417,-17.682,-8.566,-15.050,-10.121,-11.012,-8.679,-14.503,-0.093,0.916,-0.449,-2.808,-0.824,0.427,60.000,16037.000,1.000
-17.258,-20.565,-11.235,-15.848,-10.952,-10.350,-6.556,-14.289,-0.095,0.918,-0.449,-2.899,-0.854,0.366,60.000,16038.000,1.000
-16.141,-18.739,-11.551,-13.901,-8.810,-7.325,-0.969,-12.017,-0.094,0.919,-0.450,-2.869,-0.946,0.458,60.000,16039.000,1.000
-13.834,-16.096,-11.543,-11.674,-6.349,-4.541,3.123,-9.520,-0.094,0.917,-0.449,-2.930,-1.007,0.427,60.000,16040.000,1.000
-17.013,-16.786,-12.843,-11.476,-6.016,-4.167,2.760,-8.235,-0.094,0.917,-0.450,-2.808,-0.916,0.488,60.000,16041.000,1.000
-24.746,-20.777,-14.703,-12.925,-7.420,-5.971,-0.120,-7.715,-0.094,0.918,-0.450,-2.777,-1.038,0.580,60.000,16042.000,1.000
-30.609,-24.731,-15.171,-13.819,-8.215,-8.007,-1.668,-6.514,-0.094,0.917,-0.451,-2.747,-1.099,0.580,60.000,16043.000,1.000
-30.149,-25.918,-13.429,-12.724,-6.898,-8.755,-0.772,-3.948,-0.094,0.915,-0.450,-2.686,-1.038,0.641,60.000,16044.000,1.000
-24.443,-24.209,-10.350,-10.047,-4.049,-8.206,0.508,-0.592,-0.094,0.912,-0.447,-2.716,-1.068,0.549,60.000,16045.000,1.000
-19.017,-21.990,-7.728,-7.618,-1.826,-7.590,-0.692,2.258,-0.093,0.909,-0.449,-2.533,-1.160,0.610,60.000,16046.000,1.000
-17.471,-21.113,-6.320,-6.449,-1.452,-7.497,-4.447,4.015,-0.092,0.907,-0.449,-2.441,-1.099,0.610,60.000,16047.000,1.000
-18.148,-20.974,-5.431,-5.832,-2.080,-7.175,-7.889,5.073,-0.092,0.907,-0.451,-2.289,-1.099,0.641,60.000,16048.000,1.000
-17.136,-19.683,-4.095,-4.591,-2.039,-5.540,-8.114,6.051,-0.091,0.907,-0.449,-2.197,-1.190,0.671,60.000,16049.000,1.000
-13.008,-16.483,-2.257,-2.657,-0.652,-2.615,-4.866,7.076,-0.091,0.907,-0.450,-2.075,-1.068,0.671,60.000,16050.000,1.000
-9.340,-13.376,-1.170,-1.571,0.817,-0.054,-1.268,7.454,-0.089,0.909,-0.450,-1.923,-0.946,0.671,60.000,16051.000,1.000
-9.566,-12.345,-1.536,-2.196,1.221,0.889,0.009,6.942,-0.086,0.907,-0.452,-1.740,-0.885,0.732,60.000,16052.000,1.000
-12.328,-12.687,-2.562,-3.430,1.114,0.617,-0.536,6.422,-0.084,0.906,-0.449,-1.770,-0.885,0.793,60.000,16053.000,1.000
-13.270,-11.973,-3.052,-3.449,1.910,0.309,-0.664,7.068,-0.086,0.908,-0.446,-1.465,-0.793,0.854,60.000,16054.000,1.000
-10.130,-8.862,-2.885,-1.690,4.055,0.491,0.632,9.061,-0.091,0.908,-0.445,-1.373,-0.702,0.793,60.000,16055.000,1.000
-6.599,-5.345,-3.534,-0.006,5.747,0.230,1.136,10.938,-0.096,0.909,-0.449,-1.221,-0.702,0.732,60.000,16056.000,1.000
-7.473,-4.205,-5.937,-0.367,5.027,-1.420,-1.595,11.133,-0.098,0.909,-0.448,-1.190,-0.793,0.671,60.000,16057.000,1.000
-12.139,-5.564,-8.940,-2.384,2.229,-4.060,-6.666,9.589,-0.098,0.910,-0.448,-1.129,-0.793,0.488,60.000,16058.000,1.000
-14.795,-6.779,-10.138,-3.588,-0.227,-6.058,-10.037,7.775,-0.099,0.911,-0.446,-1.007,-0.916,0.458,60.000,16059.000,1.000
-10.949,-5.509,-8.268,-2.093,-0.374,-6.001,-8.488,7.129,-0.098,0.912,-0.447,-0.946,-0.946,0.427,60.000,16060.000,1.000
-4.069,-3.172,-5.004,0.872,0.764,-4.460,-3.945,7.297,-0.096,0.910,-0.446,-0.885,-1.068,0.336,60.000,16061.000,1.000
-1.091,-2.743,-2.744,2.883,0.984,-2.861,-0.910,7.060,-0.095,0.911,-0.450,-0.793,-1.190,0.336,60.000,16062.000,1.000
-3.514,-4.412,-1.831,3.423,0.050,-1.587,-0.996,6.106,-0.095,0.913,-0.448,-0.702,-1.221,0.214,60.000,16063.000,1.000
-5.800,-5.101,-0.675,4.126,-0.084,0.094,-1.659,5.231,-0.093,0.913,-0.449,-0.732,-1.251,0.153,60.000,16064.000,1.000
-2.599,-2.294,1.789,6.203,2.023,2.423,-0.172,4.893,-0.093,0.914,-0.451,-0.671,-1.190,0.153,60.000,16065.000,1.000
3.125,2.003,4.209,8.092,4.739,3.948,1.930,3.974,-0.095,0.916,-0.449,-0.549,-1.221,0.183,60.000,16066.000,1.000
4.458,4.077,4.882,7.638,5.490,3.456,1.697,1.371,-0.093,0.918,-0.452,-0.763,-1.160,0.275,60.000,16067.000,1.000
0.335,3.583,4.165,5.172,4.118,1.863,-0.311,-2.304,-0.091,0.919,-0.451,-0.732,-1.099,0.427,60.000,16068.000,1.000
-2.580,4.038,4.040,3.343,3.051,1.432,-0.345,-5.192,-0.088,0.918,-0.453,-0.732,-1.068,0.397,60.000,16069.000,1.000
2.071,8.403,5.570,4.024,4.276,3.245,3.636,-6.214,-0.090,0.918,-0.451,-0.732,-1.190,0.397,60.000,16070.000,1.000
11.114,14.506,7.050,5.606,6.292,5.499,8.184,-6.551,-0.091,0.919,-0.450,-0.763,-1.129,0.519,60.000,16071.000,1.000
16.091,17.782,6.402,5.397,6.238,5.817,8.453,-7.791,-0.090,0.919,-0.454,-0.702,-0.946,0.549,60.000,16072.000,1.000
14.161,17.085,4.094,3.361,3.845,4.130,4.066,-9.614,-0.089,0.919,-0.451,-0.702,-0.824,0.671,60.000,16073.000,1.000
11.129,15.915,2.750,2.250,1.836,2.589,-0.518,-10.126,-0.089,0.919,-0.450,-0.671,-0.671,0.671,60.000,16074.000,1.000
13.457,17.847,3.901,4.005,2.365,2.776,-1.116,-8.384,-0.090,0.919,-0.454,-0.671,-0.610,0.641,60.000,16075.000,1.000
18.312,21.102,5.453,6.504,3.541,3.308,0.805,-6.184,-0.089,0.917,-0.457,-0.763,-0.488,0.763,60.000,16076.000,1.000
17.498,20.999,4.332,6.270,1.945,1.991,0.746,-5.789,-0.088,0.915,-0.455,-0.702,-0.366,0.824,60.000,16077.000,1.000
8.942,16.445,0.472,3.064,-2.665,-0.814,-2.591,-6.914,-0.089,0.915,-0.453,-0.671,-0.397,0.885,60.000,16078.000,1.000
0.179,11.749,-2.835,0.371,-6.610,-2.107,-5.449,-6.870,-0.089,0.917,-0.453,-0.702,-0.183,0.854,60.000,16079.000,1.000
-0.298,11.709,-2.537,1.382,-6.194,0.521,-3.275,-3.655,-0.088,0.917,-0.451,-0.763,-0.092,0.854,60.000,16080.000,1.000
5.582,15.241,0.421,4.855,-2.217,5.711,3.218,1.236,-0.086,0.917,-0.449,-0.763,0.000,0.793,60.000,16081.000,1.000
8.600,17.157,2.667,7.003,1.406,9.833,9.154,4.388,-0.085,0.916,-0.448,-0.854,0.092,0.854,60.000,16082.000,1.000
4.307,14.938,2.408,6.157,2.339,10.659,11.196,4.166,-0.087,0.917,-0.450,-0.854,0.214,0.702,60.000,16083.000,1.000
-2.070,11.532,0.839,4.260,1.787,8.880,10.303,1.997,-0.087,0.913,-0.453,-0.854,0.244,0.702,60.000,16084.000,1.000
-2.753,11.332,-0.072,3.937,1.947,6.326,8.943,0.034,-0.088,0.915,-0.452,-0.793,0.275,0.641,60.000,16085.000,1.000
1.854,14.076,-0.486,4.825,2.361,3.394,6.673,-1.585,-0.089,0.911,-0.451,-0.732,0.427,0.641,60.000,16086.000,1.000
5.057,16.005,-1.593,4.877,1.147,-0.064,1.938,-3.643,-0.089,0.911,-0.451,-0.732,0.397,0.610,60.000,16087.000,1.000
3.548,15.321,-3.229,3.623,-1.739,-2.954,-4.003,-5.674,-0.090,0.913,-0.451,-0.580,0.427,0.366,60.000,16088.000,1.000
1.326,14.163,-3.703,2.730,-4.009,-3.331,-7.161,-6.103,-0.090,0.913,-0.452,-0.519,0.458,0.366,60.000,16089.000,1.000
4.115,15.384,-1.940,3.589,-3.665,-0.439,-4.809,-4.301,-0.091,0.911,-0.450,-0.549,0.458,0.305,60.000,16090.000,1.000
10.737,18.049,0.561,4.823,-1.768,3.849,0.667,-1.911,-0.093,0.909,-0.449,-0.458,0.397,0.183,60.000,16091.000,1.000
15.114,18.953,1.650,4.188,-0.745,6.982,4.632,-0.836,-0.092,0.910,-0.451,-0.427,0.397,0.153,60.000,16092.000,1.000
14.391,17.034,1.134,1.567,-1.294,8.119,5.270,-1.087,-0.093,0.911,-0.449,-0.427,0.397,0.183,60.000,16093.000,1.000
12.115,14.723,0.816,-0.818,-1.887,8.307,4.629,-1.267,-0.095,0.911,-0.449,-0.397,0.275,0.122,60.000,16094.000,1.000
13.631,15.116,2.300,-0.866,-0.910,8.775,5.249,-0.617,-0.097,0.910,-0.450,-0.397,0.244,0.092,60.000,16095.000,1.000
18.410,17.669,4.704,0.668,0.785,9.117,6.145,-0.246,-0.094,0.910,-0.450,-0.336,0.244,0.031,60.000,16096.000,1.000
21.453,19.148,5.931,1.444,1.158,8.308,4.840,-1.532,-0.095,0.909,-0.452,-0.244,0.153,0.000,60.000,16097.000,1.000
19.975,17.569,4.991,0.253,-0.394,6.236,1.253,-4.487,-0.097,0.910,-0.449,-0.366,-0.092,-0.092,60.000,16098.000,1.000
16.191,13.934,2.658,-2.133,-2.494,3.831,-1.964,-7.804,-0.097,0.911,-0.452,-0.305,-0.183,-0.061,60.000,16099.000,1.000
13.998,10.506,0.269,-4.303,-3.493,2.108,-2.339,-10.064,-0.098,0.913,-0.449,-0.214,-0.366,-0.031,60.000,16100.000,1.000
12.872,7.340,-2.166,-6.338,-3.817,0.775,-1.070,-11.230,-0.098,0.913,-0.450,-0.214,-0.580,0.000,60.000,16101.000,1.000
9.651,3.211,-5.125,-8.851,-4.830,-0.930,-1.129,-11.973,-0.100,0.913,-0.446,-0.214,-0.671,0.092,60.000,16102.000,1.000
4.178,-1.386,-8.020,-11.181,-6.372,-2.783,-3.261,-12.241,-0.101,0.911,-0.451,-0.214,-0.793,0.214,60.000,16103.000,1.000
0.294,-4.030,-9.272,-11.619,-6.578,-3.555,-5.212,-11.043,-0.100,0.912,-0.449,-0.214,-0.977,0.275,60.000,16104.000,1.000
1.497,-3.103,-7.894,-9.284,-4.020,-2.394,-4.503,-7.705,-0.100,0.913,-0.450,-0.244,-1.129,0.305,60.000,16105.000,1.000
5.564,-0.632,-5.094,-5.841,0.014,-0.235,-1.751,-3.381,-0.098,0.913,-0.453,-0.183,-1.251,0.275,60.000,16106.000,1.000
7.594,0.110,-2.856,-3.648,3.105,1.510,0.982,-0.017,-0.099,0.915,-0.452,-0.275,-1.434,0.366,60.000,16107.000,1.000
5.934,-1.638,-2.032,-3.401,4.271,2.465,2.832,1.420,-0.097,0.914,-0.455,-0.336,-1.526,0.488,60.000,16108.000,1.000
3.182,-3.903,-2.175,-4.117,4.247,2.983,4.043,1.325,-0.099,0.916,-0.451,-0.275,-1.556,0.549,60.000,16109.000,1.000
2.770,-4.420,-2.596,-4.681,4.002,3.033,4.708,0.604,-0.097,0.916,-0.449,-0.336,-1.709,0.610,60.000,16110.000,1.000
4.202,-3.456,-3.533,-5.427,3.156,1.670,3.867,-0.445,-0.094,0.916,-0.450,-0.305,-1.709,0.610,60.000,16111.000,1.000
4.755,-2.647,-5.162,-6.972,1.194,-1.452,1.393,-1.713,-0.094,0.916,-0.450,-0.366,-1.770,0.610,60.000,16112.000,1.000
3.421,-2.662,-6.703,-8.755,-1.076,-5.193,-1.211,-2.749,-0.094,0.916,-0.450,-0.305,-1.862,0.580,60.000,16113.000,1.000
1.784,-2.711,-6.852,-9.289,-1.950,-7.719,-2.195,-2.840,-0.092,0.917,-0.451,-0.336,-1.831,0.610,60.000,16114.000,1.000
2.326,-1.452,-4.796,-7.478,-0.311,-7.837,-0.761,-1.463,-0.091,0.917,-0.452,-0.397,-1.831,0.702,60.000,16115.000,1.000
4.795,0.986,-1.214,-4.034,2.889,-6.109,1.938,1.011,-0.090,0.915,-0.456,-0.305,-1.770,0.671,60.000,16116.000,1.000
7.015,3.413,2.618,-0.466,5.758,-3.917,4.254,3.750,-0.090,0.915,-0.452,-0.397,-1.709,0.702,60.000,16117.000,1.000
7.469,4.886,5.671,2.199,7.072,-2.328,5.252,5.897,-0.088,0.916,-0.448,-0.397,-1.740,0.671,60.000,16118.000,1.000
6.406,5.272,7.410,3.778,6.828,-1.725,4.776,6.840,-0.090,0.915,-0.449,-0.519,-1.648,0.549,60.000,16119.000,1.000
5.514,5.187,7.978,4.781,6.050,-1.904,3.424,6.593,-0.087,0.914,-0.453,-0.580,-1.495,0.427,60.000,16120.000,1.000
4.920,4.598,7.656,5.341,5.407,-2.789,1.437,5.561,-0.087,0.914,-0.453,-0.641,-1.404,0.427,60.000,16121.000,1.000
3.613,3.269,7.055,5.398,5.044,-4.142,-0.895,4.562,-0.085,0.912,-0.455,-0.580,-1.373,0.427,60.000,16122.000,1.000
1.303,1.542,6.885,5.041,4.829,-5.496,-3.042,4.279,-0.085,0.911,-0.453,-0.488,-1.251,0.366,60.000,16123.000,1.000
-1.088,0.115,7.503,4.600,4.584,-6.381,-4.477,4.752,-0.086,0.912,-0.454,-0.519,-1.099,0.397,60.000,16124.000,1.000
-1.813,-0.272,8.941,4.731,4.512,-6.259,-4.424,5.776,-0.086,0.911,-0.455,-0.488,-0.977,0.336,60.000,16125.000,1.000
-0.894,0.062,10.542,5.573,4.557,-5.110,-3.010,6.929,-0.089,0.912,-0.455,-0.610,-0.885,0.305,60.000,16126.000,1.000
0.438,0.372,11.630,6.907,4.474,-3.340,-1.112,7.874,-0.088,0.914,-0.455,-0.519,-0.732,0.244,60.000,16127.000,1.000
1.360,0.292,12.006,8.394,4.029,-1.530,0.494,8.501,-0.088,0.915,-0.453,-0.580,-0.610,0.244,60.000,16128.000,1.000
1.926,-0.155,11.916,9.663,3.095,-0.140,1.740,8.890,-0.088,0.916,-0.453,-0.580,-0.519,0.214,60.000,16129.000,1.000
3.115,-0.478,11.814,10.598,1.888,0.773,3.161,9.065,-0.089,0.915,-0.454,-0.671,-0.336,0.275,60.000,16130.000,1.000
4.643,-0.746,11.431,10.759,0.299,0.949,4.119,8.396,-0.087,0.916,-0.454,-0.763,-0.244,0.183,60.000,16131.000,1.000
5.454,-1.293,10.224,9.760,-1.784,0.143,3.456,6.254,-0.088,0.915,-0.452,-0.854,-0.092,0.244,60.000,16132.000,1.000
5.078,-2.213,8.141,7.678,-4.025,-1.493,1.166,2.834,-0.089,0.913,-0.449,-0.977,0.000,0.275,60.000,16133.000,1.000
4.024,-3.312,5.878,5.057,-5.682,-3.284,-1.178,-0.731,-0.091,0.912,-0.451,-1.007,0.061,0.366,60.000,16134.000,1.000
3.794,-3.942,4.544,2.712,-5.909,-4.220,-1.572,-2.989,-0.094,0.911,-0.453,-1.007,-0.031,0.336,60.000,16135.000,1.000
4.545,-4.147,4.419,0.744,-4.929,-4.007,-0.186,-3.490,-0.093,0.912,-0.455,-1.099,0.092,0.366,60.000,16136.000,1.000
5.291,-4.510,5.077,-1.031,-3.667,-3.056,1.225,-2.796,-0.093,0.912,-0.456,-1.190,0.183,0.366,60.000,16137.000,1.000
4.860,-5.627,5.806,-2.678,-2.969,-2.204,1.168,-1.919,-0.093,0.912,-0.454,-1.190,0.183,0.305,60.000,16138.000,1.000
2.486,-7.697,5.990,-4.171,-3.197,-2.219,-0.734,-1.633,-0.093,0.910,-0.453,-1.160,0.275,0.397,60.000,16139.000,1.000
-0.664,-9.652,5.710,-4.994,-3.695,-2.817,-3.278,-1.739,-0.093,0.911,-0.454,-1.221,0.214,0.427,60.000,16140.000,1.000
-2.639,-10.037,5.302,-4.612,-3.431,-2.865,-4.698,-1.536,-0.094,0.912,-0.452,-1.251,0.092,0.488,60.000,16141.000,1.000
-1.897,-7.938,5.117,-2.764,-1.614,-1.155,-3.346,-0.525,-0.093,0.910,-0.455,-1.282,0.183,0.427,60.000,16142.000,1.000
1.028,-4.088,4.982,-0.101,1.388,2.329,0.796,0.899,-0.093,0.910,-0.454,-1.251,0.183,0.427,60.000,16143.000,1.000
3.461,-0.744,4.200,1.971,4.052,6.239,5.567,1.767,-0.094,0.913,-0.451,-1.221,0.122,0.488,60.000,16144.000,1.000
3.786,0.618,2.586,2.774,5.329,9.246,8.860,1.731,-0.095,0.914,-0.453,-1.221,0.122,0.488,60.000,16145.000,1.000
2.109,0.010,0.564,2.579,5.234,10.706,9.878,1.140,-0.094,0.916,-0.454,-1.343,0.031,0.549,60.000,16146.000,1.000
-0.193,-1.458,-1.034,2.220,4.687,10.861,9.336,0.616,-0.095,0.916,-0.453,-1.434,-0.061,0.580,60.000,16147.000,1.000
-2.274,-2.929,-1.812,2.144,4.394,10.171,7.992,0.433,-0.096,0.915,-0.456,-1.526,-0.061,0.641,60.000,16148.000,1.000
-4.522,-4.242,-2.057,2.237,4.289,8.904,5.930,0.574,-0.094,0.918,-0.452,-1.556,-0.092,0.610,60.000,16149.000,1.000
-6.620,-4.811,-2.021,2.630,4.344,7.473,3.834,1.249,-0.093,0.917,-0.453,-1.648,-0.153,0.610,60.000,16150.000,1.000
-8.215,-4.443,-2.106,3.233,4.376,5.946,2.470,2.378,-0.092,0.914,-0.449,-1.709,-0.244,0.702,60.000,16151.000,1.000
-9.096,-3.682,-2.577,3.676,4.107,4.192,2.148,3.535,-0.094,0.916,-0.452,-1.770,-0.214,0.671,60.000,16152.000,1.000
-9.225,-3.233,-3.420,3.545,3.313,2.218,2.266,4.194,-0.093,0.915,-0.454,-1.831,-0.275,0.885,60.000,16153.000,1.000
-8.930,-3.377,-4.392,2.732,2.005,0.258,1.554,3.980,-0.094,0.915,-0.454,-1.892,-0.275,0.824,60.000,16154.000,1.000
-7.996,-3.498,-4.958,1.786,0.780,-1.206,-0.314,2.927,-0.094,0.916,-0.452,-1.892,-0.366,0.824,60.000,16155.000,1.000
-6.593,-3.191,-4.989,1.107,0.092,-1.974,-2.616,1.296,-0.093,0.915,-0.452,-1.831,-0.427,0.977,60.000,16156.000,1.000
-4.886,-2.327,-4.596,0.918,0.164,-1.872,-3.952,-0.143,-0.090,0.916,-0.453,-1.862,-0.458,0.854,60.000,16157.000,1.000
-3.126,-0.968,-3.979,1.245,0.907,-0.781,-3.605,-0.469,-0.089,0.916,-0.453,-1.892,-0.366,0.885,60.000,16158.000,1.000
-2.190,0.424,-3.412,1.817,1.818,1.027,-2.222,0.612,-0.089,0.914,-0.454,-1.953,-0.397,0.885,60.000,16159.000,1.000
-2.557,1.370,-3.046,2.405,2.378,2.873,-0.871,2.589,-0.091,0.915,-0.455,-1.984,-0.305,0.793,60.000,16160.000,1.000
-4.772,0.995,-3.303,2.408,1.787,3.464,-1.090,4.237,-0.090,0.915,-0.456,-2.045,-0.305,0.885,60.000,16161.000,1.000
-8.480,-1.055,-4.400,1.435,-0.286,1.946,-3.669,4.677,-0.093,0.915,-0.454,-2.106,-0.336,0.916,60.000,16162.000,1.000
-12.367,-4.126,-6.173,-0.260,-3.248,-1.292,-7.871,3.798,-0.093,0.916,-0.455,-1.953,-0.366,0.885,60.000,16163.000,1.000
-15.442,-7.236,-8.291,-2.070,-6.119,-4.904,-12.064,1.889,-0.092,0.914,-0.451,-2.045,-0.427,0.854,60.000,16164.000,1.000
-16.876,-9.214,-10.119,-3.246,-7.946,-7.298,-14.482,-0.420,-0.093,0.913,-0.450,-1.953,-0.427,0.824,60.000,16165.000,1.000
-16.947,-9.580,-11.213,-3.609,-8.549,-7.779,-14.790,-2.467,-0.093,0.911,-0.450,-1.923,-0.488,0.732,60.000,16166.000,1.000
-16.349,-8.560,-11.227,-3.243,-8.136,-6.458,-13.584,-3.509,-0.092,0.910,-0.451,-1.892,-0.458,0.763,60.000,16167.000,1.000
-15.682,-6.964,-10.099,-2.352,-7.001,-3.984,-11.393,-3.093,-0.091,0.910,-0.449,-1.923,-0.610,0.732,60.000,16168.000,1.000
-15.444,-5.836,-8.258,-1.295,-5.488,-1.309,-8.382,-1.384,-0.091,0.912,-0.450,-1.923,-0.671,0.854,60.000,16169.000,1.000
-15.229,-5.441,-6.217,-0.188,-3.637,0.912,-4.411,1.111,-0.092,0.911,-0.449,-1.862,-0.702,0.763,60.000,16170.000,1.000
-15.245,-5.937,-4.729,0.552,-1.819,2.106,-0.587,3.339,-0.091,0.912,-0.450,-1.770,-0.732,0.671,60.000,16171.000,1.000
-15.981,-7.309,-4.241,0.472,-0.590,1.993,1.337,4.194,-0.093,0.911,-0.451,-1.678,-0.702,0.671,60.000,16172.000,1.000
-17.138,-8.950,-4.486,-0.430,-0.197,0.856,0.653,3.369,-0.094,0.913,-0.454,-1.648,-0.793,0.580,60.000,16173.000,1.000
-17.478,-9.661,-4.591,-1.543,-0.417,-0.369,-1.581,1.703,-0.094,0.916,-0.452,-1.709,-0.885,0.580,60.000,16174.000,1.000
-15.147,-8.057,-3.579,-1.837,-0.642,-0.456,-3.153,0.501,-0.094,0.913,-0.446,-1.617,-0.946,0.610,60.000,16175.000,1.000
-10.543,-4.617,-1.662,-1.220,-0.970,0.721,-3.140,0.017,-0.095,0.914,-0.448,-1.648,-1.038,0.549,60.000,16176.000,1.000
-5.870,-1.338,0.107,-0.406,-1.947,2.234,-2.071,-0.485,-0.096,0.913,-0.448,-1.587,-1.068,0.397,60.000,16177.000,1.000
-2.786,0.325,0.914,-0.009,-3.723,3.104,-0.743,-1.727,-0.095,0.912,-0.448,-1.495,-1.221,0.427,60.000,16178.000,1.000
-1.429,0.452,0.803,-0.015,-5.772,3.119,0.506,-3.617,-0.094,0.912,-0.450,-1.404,-1.190,0.488,60.000,16179.000,1.000
-0.522,0.302,0.585,0.202,-7.145,2.838,2.011,-5.313,-0.096,0.913,-0.452,-1.404,-1.312,0.488,60.000,16180.000,1.000
0.265,0.476,0.710,0.788,-7.629,2.487,3.599,-6.318,-0.096,0.913,-0.450,-1.343,-1.434,0.549,60.000,16181.000,1.000
0.813,1.068,1.317,1.646,-7.375,2.189,5.126,-6.480,-0.097,0.913,-0.451,-1.373,-1.495,0.549,60.000,16182.000,1.000
1.637,2.307,2.378,2.794,-6.269,2.333,7.031,-5.650,-0.099,0.914,-0.451,-1.343,-1.648,0.458,60.000,16183.000,1.000
3.264,4.166,3.534,4.073,-4.198,3.142,9.856,-3.808,-0.097,0.917,-0.449,-1.404,-1.587,0.458,60.000,16184.000,1.000
5.684,6.219,4.204,5.023,-1.452,4.230,13.677,-1.298,-0.094,0.917,-0.446,-1.465,-1.709,0.397,60.000,16185.000,1.000
6.794,7.046,3.412,4.523,0.596,4.346,16.799,0.868,-0.095,0.917,-0.448,-1.526,-1.862,0.366,60.000,16186.000,1.000
4.383,5.448,0.837,2.011,0.620,2.678,17.091,1.910,-0.094,0.918,-0.450,-1.556,-1.923,0.427,60.000,16187.000,1.000
-1.225,1.727,-2.643,-1.723,-1.459,-0.395,13.839,1.809,-0.094,0.916,-0.451,-1.526,-1.923,0.549,60.000,16188.000,1.000
-7.469,-2.695,-5.763,-5.377,-4.823,-4.076,7.709,0.773,-0.094,0.914,-0.449,-1.587,-1.923,0.610,60.000,16189.000,1.000
-11.516,-6.419,-7.750,-8.217,-8.566,-7.879,0.146,-1.153,-0.094,0.910,-0.453,-1.526,-1.953,0.610,60.000,16190.000,1.000
-13.504,-9.638,-8.908,-10.776,-12.492,-11.825,-7.655,-4.109,-0.093,0.910,-0.451,-1.373,-1.953,0.702,60.000,16191.000,1.000
-15.065,-12.875,-9.578,-13.474,-16.232,-15.387,-14.077,-7.512,-0.092,0.907,-0.454,-1.251,-1.923,0.702,60.000,16192.000,1.000
-16.435,-15.409,-9.458,-15.574,-18.717,-17.360,-17.362,-9.892,-0.091,0.906,-0.453,-1.099,-1.923,0.671,60.000,16193.000,1.000
-16.321,-15.863,-8.016,-15.756,-18.832,-16.917,-17.061,-9.824,-0.091,0.908,-0.453,-0.885,-1.892,0.702,60.000,16194.000,1.000
-13.108,-13.326,-5.060,-13.205,-16.080,-14.260,-14.136,-7.044,-0.091,0.910,-0.452,-0.793,-1.770,0.793,60.000,16195.000,1.000
-7.655,-8.761,-1.519,-8.878,-11.533,-10.842,-10.808,-3.171,-0.089,0.912,-0.454,-0.763,-1.709,0.824,60.000,16196.000,1.000
-2.396,-4.146,1.385,-4.615,-7.076,-8.175,-8.838,-0.372,-0.092,0.912,-0.455,-0.793,-1.709,0.885,60.000,16197.000,1.000
0.943,-1.018,2.967,-1.756,-4.179,-6.964,-8.515,0.240,-0.091,0.916,-0.453,-0.885,-1.678,0.793,60.000,16198.000,1.000
2.160,0.125,3.175,-0.647,-3.296,-7.078,-9.117,-0.991,-0.092,0.919,-0.448,-0.946,-1.526,0.732,60.000,16199.000,1.000
2.600,0.016,2.531,-0.625,-3.655,-7.693,-9.389,-2.661,-0.092,0.921,-0.448,-1.007,-1.434,0.702,60.000,16200.000,1.000
2.753,-0.723,1.380,-1.038,-4.397,-8.129,-8.966,-3.427,-0.091,0.920,-0.445,-1.129,-1.373,0.549,60.000,16201.000,1.000
2.623,-1.484,0.137,-1.289,-4.873,-7.824,-7.964,-2.405,-0.088,0.920,-0.447,-1.129,-1.190,0.549,60.000,16202.000,1.000
2.839,-1.400,-0.592,-0.815,-4.588,-6.309,-6.124,0.511,-0.085,0.918,-0.451,-1.221,-1.190,0.610,60.000,16203.000,1.000
4.130,-0.034,-0.360,0.566,-3.331,-3.393,-2.873,4.488,-0.083,0.915,-0.452,-1.282,-1.038,0.549,60.000,16204.000,1.000
7.013,2.437,1.012,2.673,-1.007,0.814,2.111,8.274,-0.083,0.911,-0.453,-1.312,-0.824,0.519,60.000,16205.000,1.000
10.156,4.702,2.853,4.491,1.741,5.190,7.090,10.489,-0.081,0.907,-0.456,-1.190,-0.641,0.580,60.000,16206.000,1.000
11.576,5.449,4.185,4.915,3.968,8.028,9.284,10.405,-0.080,0.907,-0.454,-1.068,-0.427,0.641,60.000,16207.000,1.000
10.579,4.548,4.510,3.616,5.245,8.198,7.470,8.344,-0.082,0.909,-0.452,-1.038,-0.336,0.610,60.000,16208.000,1.000
7.987,2.946,4.102,1.236,5.897,6.062,3.181,5.434,-0.083,0.910,-0.454,-0.916,-0.122,0.763,60.000,16209.000,1.000
5.652,2.001,3.700,-0.911,6.744,3.342,-0.373,2.988,-0.085,0.914,-0.453,-0.977,0.031,0.854,60.000,16210.000,1.000
3.866,1.766,3.335,-2.223,7.802,1.374,-1.815,1.394,-0.085,0.918,-0.451,-1.129,0.153,0.763,60.000,16211.000,1.000
1.966,1.525,2.767,-2.739,8.559,0.611,-1.954,0.441,-0.085,0.920,-0.451,-1.221,0.183,0.793,60.000,16212.000,1.000
0.056,1.039,2.203,-2.566,8.850,0.982,-1.872,-0.006,-0.085,0.924,-0.451,-1.312,0.275,0.885,60.000,16213.000,1.000
-1.047,0.560,2.174,-1.810,8.902,2.129,-1.832,0.004,-0.086,0.926,-0.452,-1.373,0.366,0.854,60.000,16214.000,1.000
0.124,0.889,3.284,-0.431,9.228,3.799,-1.042,0.440,-0.090,0.926,-0.452,-1.526,0.397,0.793,60.000,16215.000,1.000
3.804,2.427,5.433,1.209,9.823,5.670,0.976,0.931,-0.095,0.926,-0.450,-1.801,0.397,0.763,60.000,16216.000,1.000
9.005,4.939,8.038,2.661,10.281,7.581,4.094,1.076,-0.099,0.923,-0.453,-1.862,0.458,0.671,60.000,16217.000,1.000
14.212,7.571,10.356,3.637,10.044,9.376,7.440,0.655,-0.104,0.921,-0.453,-1.984,0.275,0.641,60.000,16218.000,1.000
18.046,9.406,11.812,4.007,8.693,10.826,9.727,-0.311,-0.108,0.920,-0.451,-2.136,0.000,0.610,60.000,16219.000,1.000
20.719,10.660,12.501,4.079,6.639,12.102,10.674,-1.446,-0.110,0.917,-0.451,-2.167,-0.275,0.488,60.000,16220.000,1.000
22.489,11.677,12.548,3.869,4.534,13.231,10.519,-2.643,-0.109,0.915,-0.454,-2.258,-0.610,0.397,60.000,16221.000,1.000
23.199,12.391,11.986,3.171,3.051,13.986,9.708,-4.032,-0.109,0.916,-0.451,-2.228,-0.793,0.305,60.000,16222.000,1.000
22.488,12.426,10.686,1.843,2.673,14.021,8.519,-5.667,-0.107,0.917,-0.449,-2.167,-1.038,0.183,60.000,16223.000,1.000
19.796,11.284,8.393,-0.009,3.358,13.094,6.760,-7.243,-0.104,0.915,-0.450,-2.136,-1.312,0.183,60.000,16224.000,1.000
15.639,9.293,5.342,-1.633,4.875,11.525,4.739,-7.891,-0.103,0.914,-0.449,-2.167,-1.617,0.153,60.000,16225.000,1.000
10.686,7.102,2.007,-2.428,6.548,9.787,3.105,-7.057,-0.099,0.914,-0.450,-2.106,-1.801,0.153,60.000,16226.000,1.000
5.697,5.378,-1.029,-2.243,7.662,8.410,2.782,-5.002,-0.098,0.915,-0.448,-2.045,-1.892,0.214,60.000,16227.000,1.000
1.386,4.367,-3.517,-1.468,7.729,7.669,4.048,-2.719,-0.096,0.915,-0.450,-2.106,-2.014,0.305,60.000,16228.000,1.000
-2.037,3.672,-5.673,-0.798,6.535,7.385,5.893,-1.185,-0.095,0.917,-0.448,-2.167,-2.106,0.458,60.000,16229.000,1.000
-3.684,3.377,-7.390,-0.349,4.754,7.521,7.565,-0.406,-0.093,0.917,-0.446,-2.075,-2.167,0.549,60.000,16230.000,1.000
-3.064,3.612,-8.359,-0.027,3.275,7.978,8.948,0.082,-0.091,0.918,-0.445,-2.106,-2.197,0.580,60.000,16231.000,1.000
-0.398,4.245,-8.215,0.272,2.645,8.550,10.387,0.553,-0.091,0.917,-0.445,-2.106,-2.136,0.732,60.000,16232.000,1.000
3.557,5.017,-6.963,0.554,2.799,8.868,11.769,0.845,-0.089,0.915,-0.446,-2.197,-2.136,0.824,60.000,16233.000,1.000
7.536,5.697,-5.137,0.752,3.212,8.486,12.009,0.809,-0.088,0.913,-0.447,-2.228,-2.045,0.854,60.000,16234.000,1.000
10.907,6.481,-3.261,1.117,3.704,7.260,10.352,1.001,-0.086,0.912,-0.449,-2.167,-1.953,0.946,60.000,16235.000,1.000
12.820,7.156,-2.025,1.617,4.179,5.028,6.685,2.021,-0.086,0.912,-0.448,-2.075,-1.801,1.038,60.000,16236.000,1.000
12.897,7.604,-1.734,2.120,4.768,2.051,2.148,3.936,-0.087,0.914,-0.448,-2.014,-1.709,1.129,60.000,16237.000,1.000
11.605,8.230,-2.103,2.542,5.695,-0.906,-1.409,6.041,-0.087,0.915,-0.443,-2.075,-1.648,1.129,60.000,16238.000,1.000
9.180,9.139,-2.783,2.562,6.690,-3.338,-3.106,7.152,-0.088,0.916,-0.445,-2.075,-1.556,1.160,60.000,16239.000,1.000
6.150,10.239,-3.465,2.093,7.366,-5.178,-3.113,6.706,-0.084,0.917,-0.445,-2.045,-1.434,1.190,60.000,16240.000,1.000
2.807,11.012,-4.157,1.251,7.421,-6.767,-2.458,5.179,-0.086,0.916,-0.446,-2.045,-1.312,1.068,60.000,16241.000,1.000
-0.298,11.068,-4.736,0.583,7.125,-8.205,-1.854,3.964,-0.087,0.917,-0.447,-2.045,-1.129,1.068,60.000,16242.000,1.000
-2.456,10.476,-4.878,0.699,7.026,-9.199,-1.466,4.283,-0.088,0.915,-0.445,-2.106,-1.007,0.885,60.000,16243.000,1.000
-3.597,9.578,-4.268,1.748,7.308,-9.229,-1.362,6.270,-0.089,0.915,-0.445,-2.136,-1.007,0.793,60.000,16244.000,1.000
-3.310,9.251,-2.520,3.763,8.095,-7.639,-1.051,9.148,-0.088,0.915,-0.444,-2.075,-0.885,0.854,60.000,16245.000,1.000
-1.585,9.804,0.093,6.376,9.145,-4.576,-0.270,11.538,-0.088,0.913,-0.445,-1.984,-0.885,0.824,60.000,16246.000,1.000
1.297,10.804,2.785,9.069,10.032,-0.965,0.905,12.447,-0.091,0.912,-0.445,-1.892,-0.824,0.854,60.000,16247.000,1.000
4.559,11.319,4.605,11.140,10.160,1.786,1.776,11.585,-0.090,0.912,-0.444,-1.862,-0.732,0.763,60.000,16248.000,1.000
6.388,10.054,4.729,11.538,8.630,2.137,0.918,8.986,-0.093,0.910,-0.445,-1.770,-0.641,0.732,60.000,16249.000,1.000
5.866,6.629,3.202,9.785,5.170,-0.411,-2.213,5.177,-0.094,0.911,-0.447,-1.709,-0.641,0.824,60.000,16250.000,1.000
3.451,1.842,0.769,6.355,0.431,-4.917,-6.875,1.091,-0.093,0.910,-0.446,-1.526,-0.671,0.885,60.000,16251.000,1.000
1.146,-2.425,-1.308,2.824,-3.927,-9.167,-10.952,-1.992,-0.093,0.911,-0.445,-1.434,-0.671,0.916,60.000,16252.000,1.000
0.791,-4.599,-2.152,0.696,-6.337,-11.146,-12.264,-3.286,-0.093,0.911,-0.445,-1.312,-0.702,0.946,60.000,16253.000,1.000
1.934,-4.903,-2.021,0.038,-6.699,-10.532,-10.479,-3.343,-0.091,0.914,-0.446,-1.312,-0.702,1.007,60.000,16254.000,1.000
3.350,-4.384,-1.513,0.074,-5.881,-8.257,-6.803,-3.314,-0.093,0.915,-0.447,-1.251,-0.641,0.916,60.000,16255.000,1.000
4.024,-4.110,-1.012,-0.067,-5.039,-5.570,-3.302,-3.955,-0.090,0.917,-0.444,-1.282,-0.641,1.129,60.000,16256.000,1.000
4.171,-4.406,-0.267,-0.577,-4.783,-3.085,-1.184,-5.030,-0.090,0.918,-0.444,-1.190,-0.610,1.160,60.000,16257.000,1.000
4.510,-5.171,1.029,-1.173,-5.184,-1.007,-0.195,-6.004,-0.091,0.917,-0.443,-1.160,-0.610,1.190,60.000,16258.000,1.000
4.566,-6.759,2.475,-1.836,-6.350,0.190,0.221,-6.900,-0.089,0.916,-0.444,-1.129,-0.641,1.221,60.000,16259.000,1.000
3.725,-9.330,3.467,-2.559,-8.127,0.114,0.414,-7.949,-0.088,0.914,-0.443,-1.160,-0.580,1.190,60.000,16260.000,1.000
1.733,-12.660,3.508,-3.405,-10.219,-1.415,0.019,-9.263,-0.088,0.915,-0.444,-1.007,-0.519,1.221,60.000,16261.000,1.000
-0.385,-15.764,2.675,-4.218,-12.026,-4.120,-1.140,-10.505,-0.089,0.916,-0.445,-1.038,-0.427,1.251,60.000,16262.000,1.000
-1.242,-17.550,1.379,-4.884,-12.900,-7.456,-2.765,-11.191,-0.091,0.916,-0.447,-1.007,-0.366,1.129,60.000,16263.000,1.000
-1.296,-18.099,-0.128,-5.672,-12.640,-10.830,-4.654,-11.076,-0.091,0.917,-0.444,-0.946,-0.336,0.916,60.000,16264.000,1.000
-2.034,-18.208,-1.587,-6.619,-11.220,-13.437,-6.216,-9.978,-0.090,0.919,-0.446,-0.977,-0.336,0.793,60.000,16265.000,1.000
-5.004,-18.844,-3.009,-7.578,-8.992,-14.903,-6.857,-7.997,-0.087,0.920,-0.444,-1.007,-0.153,0.793,60.000,16266.000,1.000
-9.814,-19.955,-4.237,-7.964,-6.197,-15.239,-5.979,-5.207,-0.088,0.920,-0.446,-1.099,-0.092,0.671,60.000,16267.000,1.000
-14.409,-20.639,-4.960,-7.197,-2.870,-14.716,-3.737,-1.730,-0.086,0.920,-0.448,-1.099,0.000,0.610,60.000,16268.000,1.000
-17.807,-20.708,-5.329,-5.635,0.540,-13.972,-1.766,1.741,-0.086,0.920,-0.446,-1.068,0.092,0.397,60.000,16269.000,1.000
-20.267,-20.638,-5.786,-4.201,3.418,-13.542,-1.496,4.227,-0.088,0.921,-0.448,-1.129,0.214,0.366,60.000,16270.000,1.000
-22.773,-21.061,-6.789,-3.785,5.154,-13.774,-3.031,5.040,-0.087,0.924,-0.446,-1.129,0.305,0.183,60.000,16271.000,1.000
-25.007,-21.536,-7.994,-4.283,5.752,-14.422,-4.868,4.585,-0.088,0.924,-0.446,-1.099,0.305,0.153,60.000,16272.000,1.000
-25.399,-20.877,-8.545,-4.890,5.551,-14.926,-5.626,3.960,-0.087,0.921,-0.444,-1.099,0.488,0.092,60.000,16273.000,1.000
-23.371,-18.771,-7.939,-5.096,4.448,-14.984,-5.724,3.916,-0.088,0.919,-0.447,-1.129,0.580,0.061,60.000,16274.000,1.000
-19.084,-15.571,-5.839,-4.494,2.547,-14.215,-5.996,4.802,-0.090,0.916,-0.446,-1.068,0.580,0.000,60.000,16275.000,1.000
-13.574,-12.134,-2.286,-3.046,0.333,-12.314,-6.738,6.385,-0.088,0.913,-0.445,-1.007,0.671,-0.031,60.000,16276.000,1.000
-7.890,-9.194,2.299,-1.034,-1.384,-9.139,-7.315,7.915,-0.089,0.911,-0.446,-0.854,0.732,-0.122,60.000,16277.000,1.000
-2.905,-7.131,6.974,0.896,-2.176,-5.005,-6.912,8.285,-0.086,0.909,-0.448,-0.732,0.793,-0.153,60.000,16278.000,1.000
0.040,-6.223,10.347,1.768,-2.664,-0.903,-5.721,6.464,-0.086,0.910,-0.451,-0.580,0.793,-0.061,60.000,16279.000,1.000
0.566,-6.007,11.538,1.191,-3.716,2.100,-4.688,2.360,-0.084,0.911,-0.452,-0.397,0.885,0.122,60.000,16280.000,1.000
-0.877,-5.821,10.474,-0.544,-5.915,3.287,-5.280,-3.185,-0.082,0.911,-0.451,-0.244,1.038,0.153,60.000,16281.000,1.000
-3.029,-5.137,8.111,-2.399,-8.928,3.054,-7.763,-8.564,-0.084,0.912,-0.451,-0.122,1.068,0.275,60.000,16282.000,1.000
-4.655,-3.907,5.728,-3.273,-11.680,2.616,-10.409,-12.072,-0.086,0.913,-0.449,0.061,1.221,0.275,60.000,16283.000,1.000
-5.818,-2.822,3.958,-2.960,-13.210,2.890,-11.037,-12.835,-0.091,0.914,-0.449,0.092,1.190,0.305,60.000,16284.000,1.000
-6.733,-2.260,2.976,-1.852,-12.869,4.261,-8.603,-11.027,-0.094,0.916,-0.449,0.092,1.160,0.366,60.000,16285.000,1.000
-7.821,-2.174,2.562,-0.684,-10.767,6.506,-4.452,-7.825,-0.097,0.918,-0.449,0.031,1.160,0.305,60.000,16286.000,1.000
-8.949,-1.881,2.612,0.256,-7.331,9.386,-0.555,-4.537,-0.098,0.917,-0.447,0.092,1.007,0.214,60.000,16287.000,1.000
-9.496,-0.710,3.039,1.116,-3.045,12.627,2.376,-2.160,-0.099,0.915,-0.450,0.183,0.732,0.214,60.000,16288.000,1.000
-9.642,0.845,3.349,1.780,1.236,15.480,4.545,-1.422,-0.097,0.915,-0.451,0.214,0.580,0.244,60.000,16289.000,1.000
-9.649,1.869,3.024,2.088,4.714,17.100,6.348,-2.388,-0.097,0.914,-0.449,0.275,0.397,0.122,60.000,16290.000,1.000
-10.214,1.480,1.539,1.711,6.664,16.750,7.179,-4.494,-0.095,0.911,-0.448,0.214,0.183,0.122,60.000,16291.000,1.000
-11.696,-0.396,-1.027,0.613,7.020,14.494,6.363,-6.566,-0.093,0.911,-0.452,0.122,0.122,0.122,60.000,16292.000,1.000
-13.590,-2.835,-3.876,-0.847,6.537,11.237,4.252,-7.420,-0.093,0.912,-0.448,0.122,0.122,0.061,60.000,16293.000,1.000
-15.136,-4.565,-6.036,-2.270,6.150,8.077,1.924,-6.585,-0.094,0.911,-0.449,0.122,0.000,0.000,60.000,16294.000,1.000
-15.048,-4.181,-6.619,-3.051,6.695,6.139,1.069,-4.311,-0.093,0.912,-0.450,0.183,0.000,0.092,60.000,16295.000,1.000
-13.352,-1.554,-5.630,-2.991,8.140,5.949,2.674,-1.626,-0.093,0.914,-0.450,0.061,-0.153,0.061,60.000,16296.000,1.000
-11.284,2.089,-3.759,-2.279,9.856,7.188,6.531,0.454,-0.092,0.914,-0.455,0.153,-0.244,0.031,60.000,16297.000,1.000
-9.747,5.251,-1.890,-1.288,11.201,8.597,11.031,1.519,-0.090,0.914,-0.454,0.122,-0.275,0.061,60.000,16298.000,1.000
-8.652,7.089,-0.735,-0.406,11.791,8.668,13.740,1.753,-0.092,0.912,-0.453,0.000,-0.244,0.092,60.000,16299.000,1.000
-6.577,8.162,-0.292,0.415,11.866,7.122,13.772,1.914,-0.090,0.914,-0.454,0.061,-0.336,0.061,60.000,16300.000,1.000
-3.385,8.919,-0.420,0.924,11.375,4.617,11.877,2.540,-0.090,0.913,-0.454,-0.031,-0.366,0.092,60.000,16301.000,1.000
-0.505,9.073,-0.964,0.682,9.878,2.010,9.276,3.659,-0.088,0.912,-0.454,0.000,-0.244,0.153,60.000,16302.000,1.000
0.956,8.302,-1.695,-0.378,7.226,-0.052,6.488,4.855,-0.089,0.912,-0.454,0.061,-0.244,0.092,60.000,16303.000,1.000
1.145,6.761,-2.336,-1.864,3.889,-1.147,3.341,5.571,-0.089,0.911,-0.456,0.061,-0.214,0.031,60.000,16304.000,1.000
1.727,5.410,-2.425,-2.931,0.945,-0.985,0.312,5.704,-0.088,0.909,-0.454,0.061,-0.214,0.061,60.000,16305.000,1.000
3.195,4.632,-2.153,-3.335,-1.226,-0.191,-2.121,5.226,-0.088,0.911,-0.455,0.061,-0.244,0.092,60.000,16306.000,1.000
4.495,4.140,-2.190,-3.377,-3.055,0.211,-3.723,4.109,-0.089,0.909,-0.456,0.092,-0.153,0.153,60.000,16307.000,1.000
4.660,3.817,-3.036,-3.316,-4.998,-0.182,-4.474,2.502,-0.091,0.908,-0.454,0.031,-0.214,0.153,60.000,16308.000,1.000
3.462,3.721,-4.720,-3.242,-7.122,-1.028,-4.722,0.811,-0.091,0.908,-0.454,0.031,-0.214,0.183,60.000,16309.000,1.000
1.888,4.098,-6.613,-2.898,-8.862,-1.540,-4.381,-0.277,-0.088,0.910,-0.455,0.122,-0.153,0.183,60.000,16310.000,1.000
0.240,4.546,-8.298,-2.404,-9.975,-1.480,-3.596,-0.554,-0.086,0.912,-0.453,0.183,-0.092,0.061,60.000,16311.000,1.000
-1.907,4.472,-9.738,-2.153,-10.775,-1.152,-2.888,-0.349,-0.086,0.912,-0.454,0.092,-0.153,0.031,60.000,16312.000,1.000
-4.726,3.693,-11.046,-2.387,-11.696,-0.920,-2.704,-0.151,-0.086,0.914,-0.456,0.000,0.092,-0.031,60.000,16313.000,1.000
-7.862,2.391,-12.151,-2.985,-12.797,-0.852,-2.930,-0.216,-0.089,0.911,-0.455,0.000,0.031,-0.122,60.000,16314.000,1.000
-9.489,1.661,-12.275,-3.063,-13.068,-0.341,-2.342,-0.145,-0.090,0.915,-0.455,-0.092,0.000,-0.092,60.000,16315.000,1.000
-8.345,2.440,-10.712,-1.879,-11.350,1.169,-0.338,0.508,-0.087,0.916,-0.448,-0.153,-0.031,-0.244,60.000,16316.000,1.000
-4.753,4.767,-7.363,0.624,-7.282,3.753,2.470,1.820,-0.089,0.916,-0.450,-0.336,0.122,-0.244,60.000,16317.000,1.000
-0.203,7.621,-3.038,3.659,-1.903,6.664,4.969,3.329,-0.088,0.918,-0.450,-0.305,0.244,-0.488,60.000,16318.000,1.000
3.454,9.320,0.747,5.885,2.623,8.392,6.171,4.225,-0.091,0.919,-0.451,-0.397,0.244,-0.427,60.000,16319.000,1.000
6.087,9.257,2.972,6.683,4.748,7.958,6.142,4.076,-0.090,0.917,-0.452,-0.641,0.153,-0.336,60.000,16320.000,1.000
8.257,7.877,3.342,6.173,4.114,5.478,5.244,2.783,-0.093,0.919,-0.451,-0.641,0.183,-0.427,60.000,16321.000,1.000
10.528,6.406,2.390,5.053,1.623,2.219,4.086,0.733,-0.095,0.919,-0.454,-0.732,0.183,-0.366,60.000,16322.000,1.000
13.402,6.308,1.178,4.164,-1.002,-0.220,3.600,-1.228,-0.094,0.919,-0.454,-0.824,0.153,-0.366,60.000,16323.000,1.000
16.667,8.029,0.615,3.887,-2.271,-0.944,4.301,-2.323,-0.093,0.918,-0.452,-0.946,0.092,-0.488,60.000,16324.000,1.000
20.160,10.988,1.182,4.305,-1.550,0.032,5.993,-2.247,-0.094,0.919,-0.451,-1.160,0.031,-0.336,60.000,16325.000,1.000
23.028,13.694,2.415,4.906,0.331,1.603,7.179,-1.543,-0.093,0.921,-0.452,-1.312,0.031,-0.488,60.000,16326.000,1.000
24.366,14.971,3.684,5.223,2.222,2.711,6.774,-0.725,-0.095,0.920,-0.452,-1.465,0.031,-0.519,60.000,16327.000,1.000
24.074,14.750,4.875,5.378,3.834,3.294,5.463,0.262,-0.095,0.921,-0.453,-1.556,-0.092,-0.397,60.000,16328.000,1.000
22.493,13.577,6.063,5.679,5.391,3.773,4.355,1.472,-0.096,0.922,-0.451,-1.740,-0.183,-0.275,60.000,16329.000,1.000
20.875,12.444,7.374,6.373,7.179,4.400,4.022,2.657,-0.097,0.920,-0.450,-1.892,-0.244,-0.183,60.000,16330.000,1.000
19.727,11.553,8.471,6.979,8.661,4.689,3.860,3.101,-0.097,0.920,-0.448,-1.953,-0.214,-0.122,60.000,16331.000,1.000
18.693,10.458,8.902,6.847,8.905,4.056,2.972,2.273,-0.098,0.918,-0.452,-1.984,-0.458,0.153,60.000,16332.000,1.000
17.416,8.994,8.520,5.924,7.612,2.552,0.911,0.301,-0.102,0.918,-0.451,-2.014,-0.488,0.153,60.000,16333.000,1.000
15.556,7.329,7.538,4.721,5.435,0.988,-2.114,-2.165,-0.099,0.919,-0.452,-2.075,-0.702,0.366,60.000,16334.000,1.000
13.841,6.150,6.681,4.227,3.828,0.719,-4.443,-4.099,-0.100,0.917,-0.449,-2.106,-0.732,0.458,60.000,16335.000,1.000
12.923,5.722,6.288,4.732,3.527,2.162,-4.490,-5.028,-0.100,0.917,-0.450,-2.075,-0.763,0.458,60.000,16336.000,1.000
12.940,5.819,6.180,5.637,4.105,4.318,-2.217,-5.334,-0.099,0.917,-0.450,-2.197,-0.977,0.549,60.000,16337.000,1.000
13.377,5.957,6.003,6.125,4.586,5.623,0.587,-5.741,-0.097,0.917,-0.450,-2.167,-1.038,0.671,60.000,16338.000,1.000
12.779,5.321,5.460,5.744,4.119,5.049,1.440,-6.540,-0.098,0.918,-0.449,-2.289,-1.129,0.854,60.000,16339.000,1.000
10.867,4.007,4.934,5.140,3.033,3.111,-0.030,-6.920,-0.097,0.917,-0.449,-2.319,-1.282,0.916,60.000,16340.000,1.000
8.516,2.900,5.086,5.312,2.405,1.292,-1.937,-5.641,-0.097,0.918,-0.450,-2.228,-1.282,0.946,60.000,16341.000,1.000
7.050,2.913,6.297,6.770,3.108,0.963,-1.943,-2.086,-0.097,0.916,-0.450,-2.228,-1.404,0.977,60.000,16342.000,1.000
7.119,4.147,8.073,9.035,4.954,2.260,0.344,2.924,-0.096,0.916,-0.448,-2.228,-1.434,1.038,60.000,16343.000,1.000
7.692,5.549,9.167,10.920,6.721,4.007,2.806,7.555,-0.095,0.917,-0.447,-2.258,-1.465,0.977,60.000,16344.000,1.000
7.761,6.217,8.875,11.753,7.550,5.121,3.608,10.661,-0.094,0.917,-0.446,-2.350,-1.556,1.038,60.000,16345.000,1.000
6.691,5.742,7.227,11.299,7.178,5.043,2.466,12.193,-0.094,0.917,-0.450,-2.380,-1.587,1.160,60.000,16346.000,1.000
4.729,4.435,4.823,9.707,5.871,3.728,0.344,12.706,-0.092,0.916,-0.450,-2.380,-1.587,1.160,60.000,16347.000,1.000
2.705,2.960,2.315,7.389,4.117,1.439,-1.710,12.642,-0.091,0.917,-0.448,-2.319,-1.678,1.129,60.000,16348.000,1.000
0.846,1.660,0.080,4.676,2.238,-1.336,-3.210,12.138,-0.088,0.916,-0.447,-2.258,-1.526,1.068,60.000,16349.000,1.000
-0.284,1.176,-1.360,2.094,0.754,-3.620,-3.348,11.454,-0.090,0.914,-0.450,-2.167,-1.526,1.038,60.000,16350.000,1.000
-0.507,1.742,-1.889,-0.184,-0.154,-4.883,-2.046,10.621,-0.088,0.914,-0.449,-2.106,-1.526,1.068,60.000,16351.000,1.000
-0.087,2.863,-1.825,-2.186,-0.671,-5.439,-0.501,9.554,-0.090,0.914,-0.450,-2.106,-1.495,1.099,60.000,16352.000,1.000
0.423,3.659,-1.651,-3.837,-1.055,-6.101,-0.320,8.398,-0.089,0.915,-0.445,-2.075,-1.312,1.038,60.000,16353.000,1.000
-0.208,3.151,-1.869,-5.161,-1.666,-7.593,-2.500,7.386,-0.088,0.914,-0.445,-2.045,-1.068,0.977,60.000,16354.000,1.000
-2.098,1.439,-2.373,-5.934,-2.339,-9.633,-6.296,6.767,-0.088,0.916,-0.444,-2.075,-1.007,0.977,60.000,16355.000,1.000
-4.354,-0.620,-2.740,-6.000,-2.565,-11.240,-10.133,6.551,-0.090,0.918,-0.444,-2.045,-0.977,0.854,60.000,16356.000,1.000
-5.488,-1.898,-2.433,-5.177,-1.663,-11.330,-12.208,6.798,-0.089,0.917,-0.446,-2.014,-0.946,0.885,60.000,16357.000,1.000
-4.375,-1.613,-1.215,-3.380,0.687,-9.449,-11.074,7.588,-0.091,0.916,-0.444,-1.953,-0.885,0.946,60.000,16358.000,1.000
-1.647,-0.143,0.499,-1.051,3.802,-6.160,-6.761,8.701,-0.089,0.917,-0.441,-1.984,-0.763,0.824,60.000,16359.000,1.000
1.494,1.599,2.184,1.237,6.631,-2.393,-0.614,9.775,-0.087,0.917,-0.447,-1.923,-0.702,0.763,60.000,16360.000,1.000
3.549,2.303,3.226,2.656,8.106,0.814,4.832,10.107,-0.089,0.917,-0.446,-2.045,-0.549,0.702,60.000,16361.000,1.000
3.904,1.232,3.418,2.709,7.841,2.926,7.613,9.114,-0.089,0.917,-0.447,-2.075,-0.519,0.702,60.000,16362.000,1.000
3.308,-1.062,3.111,1.578,6.277,4.080,7.730,6.781,-0.090,0.916,-0.444,-2.014,-0.397,0.610,60.000,16363.000,1.000
2.464,-3.472,2.725,-0.284,3.989,4.583,6.467,3.575,-0.089,0.917,-0.444,-1.923,-0.366,0.641,60.000,16364.000,1.000
2.351,-4.646,2.761,-2.015,1.789,4.908,5.581,0.459,-0.089,0.918,-0.445,-1.892,-0.336,0.702,60.000,16365.000,1.000
3.334,-4.157,3.244,-3.011,0.229,5.229,5.695,-1.851,-0.091,0.916,-0.447,-1.862,-0.244,0.519,60.000,16366.000,1.000
5.082,-2.660,3.820,-3.176,-0.549,5.461,6.364,-3.263,-0.090,0.919,-0.447,-1.953,-0.275,0.488,60.000,16367.000,1.000
6.766,-1.257,4.100,-2.820,-0.760,5.419,6.981,-4.201,-0.089,0.916,-0.448,-1.770,-0.092,0.488,60.000,16368.000,1.000
6.890,-1.083,3.785,-2.463,-0.970,4.822,6.987,-5.272,-0.090,0.914,-0.446,-1.770,-0.153,0.519,60.000,16369.000,1.000
5.103,-2.252,3.045,-2.113,-1.394,3.724,6.483,-6.674,-0.090,0.915,-0.442,-1.770,-0.122,0.580,60.000,16370.000,1.000
1.989,-4.341,1.965,-1.688,-2.073,2.231,5.606,-8.349,-0.091,0.916,-0.445,-1.801,-0.061,0.427,60.000,16371.000,1.000
-1.076,-6.568,0.603,-1.095,-2.749,0.650,4.661,-9.828,-0.092,0.917,-0.447,-1.831,0.000,0.519,60.000,16372.000,1.000
-2.433,-7.817,-0.818,-0.216,-2.895,-0.459,4.174,-10.403,-0.091,0.916,-0.447,-1.831,-0.031,0.397,60.000,16373.000,1.000
-1.897,-7.598,-2.203,0.651,-2.455,-0.765,4.155,-9.887,-0.089,0.915,-0.445,-1.678,0.000,0.397,60.000,16374.000,1.000
-0.305,-6.139,-3.523,1.024,-1.773,-0.298,4.482,-8.729,-0.091,0.917,-0.445,-1.709,0.061,0.458,60.000,16375.000,1.000
0.717,-4.515,-5.065,0.251,-1.496,0.308,4.845,-7.846,-0.092,0.916,-0.445,-1.678,-0.092,0.458,60.000,16376.000,1.000
0.276,-3.623,-6.854,-1.736,-1.819,0.509,5.322,-7.768,-0.091,0.918,-0.443,-1.678,0.031,0.427,60.000,16377.000,1.000
-1.257,-3.614,-8.520,-4.276,-2.485,0.161,5.983,-8.374,-0.091,0.915,-0.443,-1.801,0.031,0.458,60.000,16378.000,1.000
-3.723,-4.557,-9.871,-6.749,-3.539,-0.915,5.951,-9.363,-0.091,0.914,-0.446,-1.709,0.092,0.458,60.000,16379.000,1.000
-6.496,-5.966,-10.651,-8.416,-4.812,-2.562,4.755,-10.169,-0.092,0.914,-0.447,-1.709,0.092,0.580,60.000,16380.000,1.000
-8.800,-7.111,-10.733,-8.726,-5.896,-4.415,2.579,-10.195,-0.092,0.913,-0.445,-1.648,0.153,0.641,60.000,16381.000,1.000
-9.821,-7.328,-10.074,-7.553,-6.324,-6.024,-0.050,-8.964,-0.093,0.912,-0.446,-1.495,0.000,0.610,60.000,16382.000,1.000
-9.403,-6.590,-8.876,-5.508,-5.979,-7.083,-2.617,-6.498,-0.093,0.910,-0.446,-1.343,0.092,0.549,60.000,16383.000,1.000
-9.094,-6.030,-7.749,-3.930,-5.435,-7.733,-5.191,-3.693,-0.092,0.911,-0.444,-1.282,0.153,0.580,60.000,16384.000,1.000
-10.024,-6.457,-7.061,-3.680,-5.139,-8.309,-7.908,-1.748,-0.092,0.912,-0.447,-1.160,0.183,0.519,60.000,16385.000,1.000
-12.125,-7.722,-6.935,-4.892,-5.234,-9.271,-10.941,-1.577,-0.092,0.911,-0.449,-1.160,0.275,0.641,60.000,16386.000,1.000
-14.038,-8.753,-7.048,-6.958,-5.431,-10.517,-13.739,-3.045,-0.091,0.910,-0.453,-1.160,0.214,0.549,60.000,16387.000,1.000
-14.245,-8.572,-6.932,-9.039,-5.370,-11.376,-15.324,-5.101,-0.091,0.908,-0.449,-0.916,0.244,0.549,60.000,16388.000,1.000
-12.905,-7.610,-6.553,-10.800,-5.213,-11.382,-15.551,-6.567,-0.091,0.909,-0.447,-0.732,0.214,0.549,60.000,16389.000,1.000
-10.666,-6.759,-5.876,-11.931,-5.081,-10.250,-14.452,-6.521,-0.089,0.908,-0.446,-0.488,0.183,0.610,60.000,16390.000,1.000
-8.447,-6.678,-5.011,-12.290,-5.240,-8.214,-12.415,-5.101,-0.091,0.910,-0.445,-0.519,0.214,0.580,60.000,16391.000,1.000
-6.805,-7.178,-4.033,-11.832,-6.041,-5.824,-10.065,-3.392,-0.090,0.910,-0.442,-0.336,0.244,0.580,60.000,16392.000,1.000
-5.686,-7.509,-2.895,-10.697,-7.652,-3.628,-7.873,-2.523,-0.090,0.910,-0.444,-0.214,0.305,0.641,60.000,16393.000,1.000
-5.434,-7.571,-1.760,-9.470,-10.109,-2.181,-6.258,-2.978,-0.089,0.910,-0.444,-0.031,0.214,0.580,60.000,16394.000,1.000
-5.870,-7.501,-0.766,-8.503,-12.877,-1.652,-5.064,-4.221,-0.088,0.913,-0.445,0.061,0.244,0.793,60.000,16395.000,1.000
-6.763,-7.516,-0.198,-7.927,-15.341,-1.955,-4.228,-5.386,-0.088,0.914,-0.444,0.214,0.244,0.641,60.000,16396.000,1.000
-7.788,-7.538,-0.103,-7.553,-16.944,-2.584,-3.610,-5.735,-0.088,0.916,-0.443,0.397,0.183,0.732,60.000,16397.000,1.000
-8.573,-7.322,-0.213,-7.092,-17.268,-2.945,-2.779,-5.016,-0.088,0.917,-0.447,0.427,0.244,0.732,60.000,16398.000,1.000
-9.485,-7.154,-0.292,-6.648,-16.438,-2.991,-1.642,-3.682,-0.090,0.918,-0.449,0.610,0.214,0.824,60.000,16399.000,1.000
-10.332,-7.091,0.164,-6.252,-14.707,-2.862,-0.128,-2.304,-0.089,0.919,-0.447,0.610,0.336,0.824,60.000,16400.000,1.000
-10.874,-7.085,1.344,-6.033,-12.697,-2.869,1.313,-1.448,-0.089,0.919,-0.449,0.488,0.214,0.854,60.000,16401.000,1.000
-10.956,-7.018,2.920,-5.954,-11.028,-3.227,2.132,-1.369,-0.092,0.918,-0.448,0.549,0.183,0.732,60.000,16402.000,1.000
-10.205,-6.624,4.261,-5.600,-9.764,-3.880,2.340,-1.844,-0.092,0.918,-0.448,0.549,0.092,0.732,60.000,16403.000,1.000
-8.511,-5.730,4.755,-4.629,-8.602,-4.644,2.209,-2.360,-0.093,0.920,-0.449,0.580,0.183,0.793,60.000,16404.000,1.000
-5.319,-3.769,4.522,-2.720,-6.888,-4.922,2.487,-2.097,-0.096,0.920,-0.450,0.671,0.061,0.854,60.000,16405.000,1.000
-1.119,-0.744,3.986,-0.074,-4.399,-4.155,3.499,-0.544,-0.095,0.921,-0.448,0.610,-0.031,0.824,60.000,16406.000,1.000
2.463,2.531,3.604,2.762,-1.392,-2.055,5.114,2.285,-0.094,0.923,-0.447,0.458,-0.122,0.946,60.000,16407.000,1.000
4.110,5.085,3.544,5.113,1.628,1.098,7.020,5.790,-0.093,0.924,-0.448,0.336,-0.275,0.977,60.000,16408.000,1.000
3.325,6.050,3.436,6.215,3.919,4.329,8.590,8.909,-0.094,0.924,-0.446,0.275,-0.336,0.946,60.000,16409.000,1.000
1.548,5.708,3.179,6.130,5.382,6.997,9.992,11.005,-0.094,0.925,-0.448,0.244,-0.397,1.099,60.000,16410.000,1.000
0.442,4.927,2.911,5.436,6.354,8.969,11.801,11.869,-0.096,0.923,-0.447,0.153,-0.580,1.068,60.000,16411.000,1.000
0.342,4.125,2.713,4.603,7.036,10.203,13.994,11.310,-0.094,0.921,-0.446,0.122,-0.580,1.068,60.000,16412.000,1.000
0.071,2.682,2.210,3.518,7.020,10.084,14.940,8.839,-0.095,0.920,-0.446,-0.031,-0.702,1.221,60.000,16413.000,1.000
-2.277,-0.626,0.697,1.641,5.443,7.589,11.937,4.221,-0.095,0.917,-0.447,-0.122,-0.824,1.282,60.000,16414.000,1.000
-6.371,-5.398,-1.535,-0.577,2.634,3.042,4.700,-1.068,-0.095,0.918,-0.449,-0.061,-0.763,1.282,60.000,16415.000,1.000
-10.317,-9.846,-3.422,-1.957,0.179,-1.768,-4.095,-4.532,-0.095,0.916,-0.449,-0.061,-0.916,1.434,60.000,16416.000,1.000
-12.604,-12.485,-4.250,-1.782,-0.431,-5.095,-11.342,-5.025,-0.094,0.916,-0.448,-0.153,-1.068,1.465,60.000,16417.000,1.000
-12.993,-13.135,-4.452,-0.558,0.802,-6.641,-15.986,-4.069,-0.093,0.914,-0.446,-0.183,-1.160,1.526,60.000,16418.000,1.000
-12.597,-12.798,-5.191,0.361,2.253,-7.426,-19.162,-4.444,-0.090,0.912,-0.448,-0.122,-1.099,1.495,60.000,16419.000,1.000
-11.891,-12.116,-6.878,0.304,2.444,-8.271,-21.764,-7.504,-0.093,0.911,-0.447,-0.031,-1.160,1.495,60.000,16420.000,1.000
-11.062,-11.365,-9.101,-0.572,0.979,-9.362,-23.837,-12.446,-0.093,0.912,-0.451,-0.031,-1.190,1.465,60.000,16421.000,1.000
-10.109,-10.497,-10.854,-1.432,-1.116,-10.078,-24.524,-16.825,-0.091,0.916,-0.453,-0.031,-1.312,1.434,60.000,16422.000,1.000
-8.799,-9.299,-11.124,-1.309,-2.087,-9.384,-22.635,-18.052,-0.092,0.919,-0.448,-0.092,-1.312,1.495,60.000,16423.000,1.000
-7.761,-8.310,-9.879,-0.151,-1.110,-6.998,-18.210,-15.345,-0.089,0.918,-0.446,-0.397,-1.282,1.434,60.000,16424.000,1.000
-7.464,-8.197,-7.898,1.401,1.420,-3.655,-12.523,-10.106,-0.088,0.919,-0.448,-0.427,-1.190,1.343,60.000,16425.000,1.000
-8.304,-9.319,-6.404,2.305,4.046,-0.903,-7.809,-4.970,-0.087,0.919,-0.447,-0.549,-1.160,1.221,60.000,16426.000,1.000
-10.116,-11.100,-5.959,2.081,5.410,0.081,-5.711,-1.802,-0.084,0.918,-0.448,-0.519,-1.129,1.251,60.000,16427.000,1.000
-11.977,-12.297,-6.119,1.235,5.118,-0.827,-6.123,-0.684,-0.083,0.917,-0.452,-0.671,-1.068,1.160,60.000,16428.000,1.000
-13.479,-12.450,-6.388,0.408,3.385,-3.213,-7.953,-0.741,-0.082,0.915,-0.453,-0.702,-1.068,1.068,60.000,16429.000,1.000
-14.049,-11.705,-6.483,0.135,1.117,-6.240,-9.640,-1.065,-0.079,0.911,-0.454,-0.702,-0.885,1.038,60.000,16430.000,1.000
-13.524,-10.671,-6.439,0.510,-0.595,-8.970,-10.368,-1.388,-0.078,0.908,-0.452,-0.549,-0.732,1.007,60.000,16431.000,1.000
-11.942,-9.587,-6.004,1.584,-0.774,-10.363,-9.865,-1.594,-0.078,0.910,-0.450,-0.427,-0.641,1.038,60.000,16432.000,1.000
-9.024,-7.830,-4.492,3.564,1.127,-9.590,-7.683,-1.196,-0.081,0.912,-0.452,-0.275,-0.519,0.977,60.000,16433.000,1.000
-5.034,-4.894,-1.479,6.326,4.690,-6.673,-3.694,0.338,-0.084,0.914,-0.452,-0.336,-0.427,0.854,60.000,16434.000,1.000
-0.081,-0.603,2.981,9.595,9.047,-2.301,1.722,3.189,-0.085,0.916,-0.452,-0.549,-0.275,0.854,60.000,16435.000,1.000
5.242,4.344,7.838,12.639,12.995,2.101,6.902,6.618,-0.085,0.917,-0.449,-0.580,-0.153,0.763,60.000,16436.000,1.000
10.236,8.852,11.677,14.721,15.674,5.127,10.124,9.585,-0.083,0.918,-0.453,-0.671,-0.061,0.702,60.000,16437.000,1.000
14.622,12.206,13.654,15.553,17.012,6.263,11.283,11.523,-0.084,0.919,-0.452,-0.641,-0.122,0.580,60.000,16438.000,1.000
17.579,13.892,13.649,14.916,17.099,5.864,11.375,12.255,-0.086,0.918,-0.453,-0.732,-0.092,0.519,60.000,16439.000,1.000
18.981,14.225,12.490,13.003,16.213,5.064,11.701,12.050,-0.089,0.921,-0.455,-0.916,-0.153,0.427,60.000,16440.000,1.000
19.408,13.838,11.180,10.277,14.518,4.839,12.353,11.260,-0.093,0.922,-0.454,-0.885,-0.153,0.305,60.000,16441.000,1.000
19.977,13.378,10.448,7.518,12.220,5.595,12.588,10.202,-0.096,0.921,-0.455,-0.946,-0.214,0.244,60.000,16442.000,1.000
21.648,13.506,10.562,5.516,9.674,7.209,12.107,9.111,-0.099,0.920,-0.452,-1.007,-0.366,0.092,60.000,16443.000,1.000
23.665,14.301,11.151,4.454,7.040,9.141,11.110,8.095,-0.100,0.919,-0.453,-0.977,-0.580,-0.061,60.000,16444.000,1.000
24.975,15.717,11.860,4.413,4.823,11.156,10.462,7.561,-0.103,0.918,-0.452,-1.038,-0.824,-0.153,60.000,16445.000,1.000
24.914,17.371,12.318,5.226,3.575,13.169,10.601,7.813,-0.101,0.918,-0.454,-1.038,-1.007,-0.183,60.000,16446.000,1.000
23.828,18.858,12.293,6.492,3.629,15.152,11.499,8.845,-0.098,0.917,-0.455,-1.160,-1.129,-0.275,60.000,16447.000,1.000
22.730,20.013,11.732,7.645,4.934,17.082,13.114,10.260,-0.099,0.918,-0.452,-1.160,-1.404,-0.366,60.000,16448.000,1.000
21.613,20.430,10.545,7.888,6.719,18.732,14.939,11.150,-0.099,0.916,-0.454,-1.190,-1.587,-0.397,60.000,16449.000,1.000
20.511,20.276,9.149,7.087,8.281,20.106,16.595,10.845,-0.095,0.915,-0.450,-1.251,-1.770,-0.397,60.000,16450.000,1.000
19.411,19.941,8.097,5.594,9.067,21.052,17.479,9.216,-0.092,0.915,-0.449,-1.343,-1.801,-0.427,60.000,16451.000,1.000
18.243,19.534,7.736,3.895,8.766,21.189,16.903,6.697,-0.091,0.917,-0.453,-1.312,-1.953,-0.336,60.000,16452.000,1.000
17.194,19.026,8.117,2.451,7.538,20.297,14.714,4.014,-0.090,0.916,-0.454,-1.343,-1.862,-0.305,60.000,16453.000,1.000
16.150,18.357,8.954,1.461,5.843,18.502,11.318,1.799,-0.086,0.915,-0.451,-1.312,-1.892,-0.153,60.000,16454.000,1.000
15.579,18.085,10.045,1.220,4.533,16.519,8.170,0.679,-0.086,0.915,-0.449,-1.221,-2.014,-0.092,60.000,16455.000,1.000
15.430,18.333,10.860,1.556,3.943,14.912,6.657,0.784,-0.084,0.917,-0.450,-1.251,-1.984,0.000,60.000,16456.000,1.000
15.016,18.476,10.874,1.986,3.780,13.844,7.365,1.822,-0.083,0.917,-0.450,-1.343,-1.801,0.122,60.000,16457.000,1.000
13.968,17.980,10.089,2.342,3.661,13.215,9.751,3.376,-0.083,0.914,-0.448,-1.343,-1.678,0.275,60.000,16458.000,1.000
11.972,16.739,8.785,2.647,3.163,12.559,11.872,4.831,-0.083,0.912,-0.448,-1.282,-1.587,0.397,60.000,16459.000,1.000
9.707,15.615,7.552,3.215,2.297,11.566,12.246,5.744,-0.084,0.911,-0.450,-1.221,-1.404,0.519,60.000,16460.000,1.000
7.852,15.390,6.675,4.028,1.143,10.091,10.790,5.801,-0.083,0.910,-0.448,-1.190,-1.282,0.580,60.000,16461.000,1.000
6.779,16.297,6.160,4.896,-0.154,8.339,8.822,5.090,-0.083,0.910,-0.450,-1.129,-1.190,0.580,60.000,16462.000,1.000
6.813,18.261,6.006,5.817,-1.242,6.744,7.746,4.232,-0.083,0.909,-0.451,-1.099,-1.038,0.641,60.000,16463.000,1.000
7.244,20.480,6.062,6.628,-2.007,5.364,7.304,3.793,-0.083,0.908,-0.448,-1.007,-1.007,0.702,60.000,16464.000,1.000
7.382,22.150,6.346,7.287,-2.278,4.049,6.570,3.971,-0.086,0.909,-0.447,-1.007,-0.854,0.702,60.000,16465.000,1.000
6.641,22.702,6.734,7.646,-2.128,2.359,4.794,4.366,-0.086,0.911,-0.450,-0.885,-0.763,0.610,60.000,16466.000,1.000
5.115,22.317,7.087,7.699,-1.733,0.168,2.157,4.622,-0.086,0.910,-0.446,-0.885,-0.702,0.549,60.000,16467.000,1.000
3.861,22.001,7.363,7.720,-1.081,-1.815,-0.287,4.869,-0.085,0.911,-0.448,-0.793,-0.580,0.458,60.000,16468.000,1.000
3.322,22.190,7.254,7.649,-0.331,-2.699,-1.995,5.199,-0.086,0.908,-0.447,-0.824,-0.519,0.488,60.000,16469.000,1.000
3.600,22.523,6.551,7.347,0.466,-2.059,-2.928,5.513,-0.083,0.909,-0.449,-0.793,-0.519,0.336,60.000,16470.000,1.000
4.005,21.782,5.032,6.503,1.083,-0.603,-3.762,5.388,-0.081,0.909,-0.447,-0.763,-0.458,0.275,60.000,16471.000,1.000
3.731,18.993,2.744,4.952,1.235,0.521,-5.104,4.572,-0.084,0.910,-0.446,-0.732,-0.336,0.183,60.000,16472.000,1.000
2.770,14.379,0.122,2.831,0.825,0.744,-6.617,3.295,-0.086,0.910,-0.448,-0.732,-0.275,0.092,60.000,16473.000,1.000
1.040,8.659,-2.526,0.164,-0.412,0.054,-7.619,1.874,-0.087,0.911,-0.451,-0.610,-0.244,0.031,60.000,16474.000,1.000
-0.876,3.050,-4.790,-2.689,-2.415,-0.962,-7.129,0.672,-0.085,0.913,-0.447,-0.519,-0.153,-0.153,60.000,16475.000,1.000
-2.278,-1.365,-6.330,-5.201,-4.791,-1.605,-4.858,-0.176,-0.085,0.913,-0.448,-0.671,-0.061,-0.183,60.000,16476.000,1.000
-2.614,-3.989,-6.860,-6.885,-6.875,-1.421,-1.508,-0.712,-0.085,0.915,-0.448,-0.763,-0.061,-0.275,60.000,16477.000,1.000
-1.608,-4.928,-6.456,-7.721,-8.244,-0.835,1.490,-1.272,-0.089,0.918,-0.447,-0.854,0.031,-0.366,60.000,16478.000,1.000
-0.239,-5.411,-5.883,-8.520,-9.414,-1.296,2.270,-2.556,-0.085,0.920,-0.447,-0.946,0.061,-0.305,60.000,16479.000,1.000
0.728,-6.553,-5.655,-9.771,-10.972,-3.590,0.239,-4.743,-0.084,0.919,-0.449,-1.068,0.031,-0.397,60.000,16480.000,1.000
0.806,-8.976,-5.806,-11.377,-13.207,-7.110,-3.968,-7.365,-0.087,0.916,-0.450,-1.160,0.122,-0.397,60.000,16481.000,1.000
0.054,-12.441,-5.924,-12.818,-15.819,-10.347,-8.889,-9.524,-0.090,0.917,-0.451,-1.190,-0.031,-0.366,60.000,16482.000,1.000
-0.723,-15.773,-5.616,-13.602,-17.926,-12.067,-12.569,-10.392,-0.090,0.918,-0.450,-1.160,0.031,-0.397,60.000,16483.000,1.000
-1.321,-18.023,-5.151,-13.830,-18.858,-12.229,-13.704,-9.906,-0.093,0.918,-0.450,-1.129,-0.031,-0.305,60.000,16484.000,1.000
-1.490,-18.582,-4.804,-13.546,-18.144,-11.298,-11.694,-8.482,-0.093,0.918,-0.448,-1.190,-0.122,-0.244,60.000,16485.000,1.000
-1.551,-17.857,-4.775,-12.884,-15.968,-9.850,-7.330,-6.840,-0.093,0.921,-0.448,-1.251,-0.183,-0.122,60.000,16486.000,1.000
-2.235,-16.996,-5.151,-12.099,-13.024,-8.275,-2.388,-5.589,-0.091,0.921,-0.450,-1.282,-0.305,-0.183,60.000,16487.000,1.000
-3.661,-16.708,-5.811,-11.310,-9.906,-6.721,1.475,-4.906,-0.093,0.922,-0.452,-1.312,-0.366,-0.244,60.000,16488.000,1.000
-5.667,-17.025,-6.512,-10.585,-6.986,-5.346,3.121,-4.616,-0.095,0.922,-0.452,-1.312,-0.427,-0.031,60.000,16489.000,1.000
-7.105,-17.025,-6.635,-9.594,-3.974,-4.066,2.886,-4.195,-0.095,0.920,-0.449,-1.312,-0.610,-0.031,60.000,16490.000,1.000
-7.443,-16.302,-6.165,-8.392,-0.862,-3.312,1.464,-3.663,-0.097,0.920,-0.448,-1.282,-0.702,-0.031,60.000,16491.000,1.000
-7.641,-15.729,-5.926,-7.612,1.523,-4.022,-0.884,-3.754,-0.095,0.920,-0.452,-1.343,-0.763,0.061,60.000,16492.000,1.000
-8.952,-16.324,-6.665,-7.688,2.368,-6.438,-3.734,-5.061,-0.095,0.920,-0.450,-1.312,-0.793,0.153,60.000,16493.000,1.000
-12.240,-18.269,-8.440,-8.544,1.646,-9.568,-6.412,-7.397,-0.095,0.920,-0.449,-1.373,-0.916,0.183,60.000,16494.000,1.000
-16.609,-20.273,-10.307,-9.397,0.520,-11.634,-7.625,-9.606,-0.095,0.917,-0.452,-1.343,-0.977,0.244,60.000,16495.000,1.000
-20.822,-21.258,-11.338,-9.746,0.048,-11.726,-6.715,-10.689,-0.096,0.917,-0.449,-1.526,-1.129,0.122,60.000,16496.000,1.000
-24.227,-21.338,-11.262,-9.703,0.332,-10.366,-4.425,-10.546,-0.097,0.917,-0.445,-1.465,-1.221,0.275,60.000,16497.000,1.000
-26.351,-21.110,-10.478,-9.592,0.745,-8.807,-2.417,-9.770,-0.095,0.914,-0.445,-1.343,-1.343,0.366,60.000,16498.000,1.000
-27.502,-21.342,-9.841,-9.815,0.309,-8.194,-2.504,-9.125,-0.096,0.911,-0.445,-1.465,-1.404,0.305,60.000,16499.000,1.000
-27.695,-22.073,-9.574,-10.178,-1.160,-8.562,-4.721,-8.575,-0.094,0.911,-0.446,-1.373,-1.434,0.275,60.000,16500.000,1.000
-27.068,-22.907,-9.323,-10.322,-3.162,-9.324,-7.547,-7.495,-0.090,0.909,-0.450,-1.343,-1.556,0.275,60.000,16501.000,1.000
-25.978,-23.357,-8.534,-10.077,-5.000,-9.906,-9.228,-5.491,-0.086,0.907,-0.451,-1.282,-1.556,0.214,60.000,16502.000,1.000
-24.597,-23.040,-6.849,-9.366,-6.097,-9.892,-8.963,-2.983,-0.084,0.909,-0.453,-1.251,-1.495,0.244,60.000,16503.000,1.000
-23.548,-22.280,-4.572,-8.244,-6.427,-9.156,-7.464,-0.964,-0.084,0.910,-0.449,-1.221,-1.343,0.275,60.000,16504.000,1.000
-22.591,-21.174,-2.179,-6.441,-6.052,-7.642,-5.449,0.055,-0.085,0.907,-0.448,-1.129,-1.251,0.397,60.000,16505.000,1.000
-21.258,-19.759,-0.366,-4.044,-5.373,-5.900,-3.428,0.032,-0.088,0.908,-0.449,-0.977,-1.282,0.427,60.000,16506.000,1.000
-19.641,-18.429,0.277,-1.773,-5.024,-4.794,-1.652,-0.650,-0.092,0.909,-0.447,-0.946,-1.129,0.305,60.000,16507.000,1.000
-18.145,-17.738,-0.308,-0.417,-5.358,-4.838,-0.206,-1.253,-0.096,0.911,-0.448,-1.099,-1.129,0.183,60.000,16508.000,1.000
-17.670,-18.284,-1.865,-0.505,-6.556,-6.311,0.054,-1.420,-0.098,0.911,-0.448,-1.068,-1.160,0.122,60.000,16509.000,1.000
-18.099,-19.718,-3.715,-1.632,-8.257,-8.956,-1.597,-1.267,-0.097,0.911,-0.446,-1.160,-1.221,0.000,60.000,16510.000,1.000
-18.833,-21.232,-5.335,-2.918,-9.887,-12.089,-5.203,-1.222,-0.096,0.911,-0.450,-1.007,-1.312,-0.031,60.000,16511.000,1.000
-19.190,-22.028,-6.435,-3.410,-10.759,-14.695,-9.756,-1.393,-0.096,0.910,-0.452,-0.977,-1.343,-0.153,60.000,16512.000,1.000
-18.338,-21.431,-6.845,-2.473,-10.188,-15.875,-13.409,-1.349,-0.094,0.911,-0.452,-0.885,-1.434,-0.183,60.000,16513.000,1.000
-16.600,-19.762,-6.854,-0.580,-8.199,-15.628,-14.864,-0.781,-0.093,0.913,-0.451,-0.854,-1.373,-0.183,60.000,16514.000,1.000
-14.617,-17.780,-6.841,1.211,-5.219,-14.428,-13.638,0.313,-0.092,0.915,-0.450,-0.854,-1.312,-0.336,60.000,16515.000,1.000
-13.288,-16.268,-7.254,1.802,-2.055,-12.855,-10.645,1.467,-0.089,0.913,-0.448,-0.793,-1.282,-0.366,60.000,16516.000,1.000
-13.056,-15.287,-8.105,0.959,0.577,-11.018,-7.328,2.255,-0.088,0.911,-0.451,-0.732,-1.190,-0.427,60.000,16517.000,1.000
-13.185,-13.975,-8.733,-0.391,2.633,-8.498,-4.317,2.739,-0.088,0.912,-0.448,-0.641,-1.099,-0.427,60.000,16518.000,1.000
-13.125,-11.943,-8.641,-1.266,4.316,-5.165,-1.766,3.150,-0.088,0.913,-0.447,-0.519,-1.129,-0.305,60.000,16519.000,1.000
-12.206,-9.242,-7.677,-1.050,5.951,-1.217,0.631,3.795,-0.092,0.913,-0.449,-0.458,-1.129,-0.305,60.000,16520.000,1.000
-10.379,-6.324,-6.271,0.062,7.352,2.731,2.591,4.650,-0.091,0.912,-0.450,-0.458,-0.946,-0.183,60.000,16521.000,1.000
-8.158,-3.561,-4.952,1.444,7.999,6.125,3.414,5.401,-0.092,0.912,-0.450,-0.305,-1.038,-0.244,60.000,16522.000,1.000
-5.612,-0.774,-3.867,2.675,7.764,8.945,3.331,5.639,-0.091,0.916,-0.448,-0.275,-1.038,-0.183,60.000,16523.000,1.000
-2.892,2.063,-3.109,3.389,6.731,11.181,3.153,4.811,-0.092,0.916,-0.451,-0.366,-1.038,-0.122,60.000,16524.000,1.000
0.387,5.050,-2.547,3.658,5.316,12.667,3.723,2.789,-0.092,0.917,-0.450,-0.366,-1.007,-0.122,60.000,16525.000,1.000
4.219,8.037,-2.101,3.707,3.931,13.070,4.955,-0.094,-0.093,0.921,-0.452,-0.397,-0.946,-0.092,60.000,16526.000,1.000
7.970,10.605,-1.667,3.811,3.024,12.450,6.277,-3.194,-0.094,0.920,-0.454,-0.397,-0.885,0.061,60.000,16527.000,1.000
11.169,12.425,-1.107,4.209,3.021,11.309,7.200,-5.828,-0.096,0.919,-0.452,-0.305,-0.885,0.031,60.000,16528.000,1.000
13.190,13.103,-0.616,4.671,3.652,9.888,6.839,-7.619,-0.094,0.917,-0.453,-0.275,-0.793,0.183,60.000,16529.000,1.000
14.298,12.951,-0.250,5.065,4.398,8.381,4.997,-8.288,-0.094,0.917,-0.447,-0.275,-0.763,0.305,60.000,16530.000,1.000
14.770,12.525,-0.031,5.257,4.638,6.816,2.283,-8.005,-0.097,0.917,-0.450,-0.336,-0.793,0.336,60.000,16531.000,1.000
14.462,12.152,0.120,5.180,3.981,5.103,-0.283,-7.278,-0.096,0.918,-0.449,-0.305,-0.916,0.336,60.000,16532.000,1.000
13.373,11.850,0.408,5.025,2.553,3.221,-1.892,-6.443,-0.094,0.921,-0.449,-0.488,-0.824,0.397,60.000,16533.000,1.000
11.277,11.042,0.765,4.897,0.626,1.154,-2.874,-5.631,-0.092,0.918,-0.447,-0.458,-0.793,0.336,60.000,16534.000,1.000
9.139,9.933,1.226,5.130,-1.016,-0.657,-3.569,-4.696,-0.094,0.919,-0.450,-0.519,-0.732,0.397,60.000,16535.000,1.000
8.134,9.323,1.692,5.767,-1.669,-1.825,-4.065,-3.738,-0.095,0.918,-0.449,-0.641,-0.732,0.427,60.000,16536.000,1.000
8.249,9.455,1.901,6.367,-1.359,-2.420,-4.367,-3.146,-0.096,0.917,-0.448,-0.671,-0.793,0.397,60.000,16537.000,1.000
8.708,9.868,1.717,6.478,-0.679,-2.737,-4.422,-3.228,-0.094,0.915,-0.450,-0.580,-0.793,0.336,60.000,16538.000,1.000
8.595,9.919,1.199,6.001,-0.339,-2.968,-4.322,-3.917,-0.093,0.914,-0.448,-0.580,-0.793,0.397,60.000,16539.000,1.000
8.526,9.949,0.862,5.703,-0.237,-2.745,-3.579,-4.396,-0.094,0.915,-0.450,-0.580,-0.763,0.275,60.000,16540.000,1.000
9.097,10.208,0.789,6.111,-0.145,-2.033,-2.353,-4.038,-0.092,0.916,-0.448,-0.549,-0.732,0.275,60.000,16541.000,1.000
9.703,10.113,0.536,6.915,-0.208,-1.369,-1.814,-2.940,-0.094,0.913,-0.447,-0.610,-0.641,0.244,60.000,16542.000,1.000
9.700,9.171,-0.050,7.646,-0.417,-1.115,-2.575,-1.400,-0.092,0.911,-0.446,-0.610,-0.580,0.244,60.000,16543.000,1.000
8.805,7.396,-0.764,8.009,-0.566,-1.268,-4.161,0.371,-0.091,0.911,-0.450,-0.580,-0.458,0.336,60.000,16544.000,1.000
8.108,5.777,-1.013,8.306,-0.093,-1.272,-4.996,2.431,-0.092,0.913,-0.450,-0.580,-0.488,0.275,60.000,16545.000,1.000
8.614,5.207,-0.486,8.807,1.186,-0.622,-4.053,4.658,-0.092,0.911,-0.453,-0.488,-0.519,0.244,60.000,16546.000,1.000
10.247,5.788,0.642,9.425,2.810,0.677,-1.736,6.675,-0.092,0.912,-0.451,-0.397,-0.641,0.336,60.000,16547.000,1.000
12.240,7.001,1.834,9.775,4.005,2.024,0.695,7.993,-0.092,0.910,-0.448,-0.397,-0.610,0.305,60.000,16548.000,1.000
12.964,7.673,2.330,9.159,3.923,2.495,1.876,8.127,-0.092,0.911,-0.448,-0.458,-0.610,0.305,60.000,16549.000,1.000
11.998,7.355,2.121,7.649,2.773,2.048,1.926,7.329,-0.092,0.909,-0.451,-0.427,-0.610,0.366,60.000,16550.000,1.000
10.089,6.357,1.665,5.914,1.512,1.337,1.654,6.338,-0.091,0.911,-0.451,-0.397,-0.519,0.366,60.000,16551.000,1.000
8.129,5.058,1.333,4.552,0.848,0.903,1.439,5.873,-0.092,0.911,-0.449,-0.305,-0.458,0.305,60.000,16552.000,1.000
6.832,3.818,1.293,3.792,0.859,0.850,1.351,6.384,-0.093,0.911,-0.448,-0.153,-0.458,0.244,60.000,16553.000,1.000
6.058,2.809,1.453,3.291,1.103,0.950,1.233,7.669,-0.092,0.911,-0.450,-0.214,-0.366,0.244,60.000,16554.000,1.000
6.060,2.641,2.001,2.855,1.604,1.388,1.539,9.043,-0.092,0.915,-0.451,-0.244,-0.366,0.244,60.000,16555.000,1.000
6.803,3.536,2.902,2.311,2.525,2.357,2.630,9.487,-0.093,0.916,-0.447,-0.183,-0.519,0.305,60.000,16556.000,1.000
7.677,4.941,3.652,1.549,3.754,3.708,4.333,8.369,-0.093,0.915,-0.446,-0.244,-0.458,0.244,60.000,16557.000,1.000
8.404,6.202,3.663,0.713,4.980,5.087,6.206,5.957,-0.092,0.916,-0.447,-0.305,-0.305,0.244,60.000,16558.000,1.000
8.403,6.481,2.530,-0.227,5.570,5.979,7.430,3.082,-0.093,0.917,-0.447,-0.336,-0.275,0.305,60.000,16559.000,1.000
7.774,5.634,0.775,-1.027,5.392,6.392,7.916,1.002,-0.093,0.917,-0.448,-0.397,-0.336,0.183,60.000,16560.000,1.000
7.021,4.252,-0.667,-1.398,4.726,6.613,7.848,0.556,-0.095,0.915,-0.449,-0.458,-0.275,0.183,60.000,16561.000,1.000
6.781,3.363,-1.098,-1.202,3.992,6.906,7.299,1.593,-0.095,0.914,-0.453,-0.488,-0.305,0.244,60.000,16562.000,1.000
7.872,4.014,-0.247,-0.439,3.749,7.475,6.723,3.192,-0.095,0.915,-0.451,-0.397,-0.427,0.214,60.000,16563.000,1.000
9.908,6.036,1.492,0.413,4.087,8.110,6.355,4.123,-0.096,0.915,-0.448,-0.397,-0.397,0.214,60.000,16564.000,1.000
12.047,8.354,3.616,0.944,4.778,8.456,6.259,3.838,-0.098,0.916,-0.451,-0.580,-0.458,0.244,60.000,16565.000,1.000
13.072,9.517,5.510,0.854,5.240,8.081,6.061,2.661,-0.097,0.918,-0.452,-0.641,-0.427,0.122,60.000,16566.000,1.000
12.248,8.919,6.798,0.228,5.075,6.970,5.650,1.560,-0.096,0.917,-0.450,-0.732,-0.519,0.275,60.000,16567.000,1.000
10.505,7.630,7.706,-0.307,4.596,5.825,5.719,1.459,-0.094,0.915,-0.451,-0.732,-0.427,0.214,60.000,16568.000,1.000
9.035,7.052,8.496,-0.429,4.128,5.329,6.616,2.378,-0.093,0.916,-0.452,-0.732,-0.458,0.244,60.000,16569.000,1.000
8.876,8.013,9.324,-0.201,3.817,5.813,8.340,3.754,-0.093,0.916,-0.450,-0.854,-0.671,0.244,60.000,16570.000,1.000
9.653,9.857,9.879,-0.240,3.222,6.817,10.173,4.683,-0.093,0.915,-0.452,-0.824,-0.610,0.183,60.000,16571.000,1.000
10.054,11.166,9.844,-1.086,1.801,7.579,11.112,4.397,-0.092,0.916,-0.451,-0.916,-0.549,0.366,60.000,16572.000,1.000
9.782,11.400,9.503,-2.425,-0.226,7.853,10.914,2.873,-0.091,0.915,-0.449,-0.916,-0.610,0.305,60.000,16573.000,1.000
9.115,10.697,9.344,-3.573,-2.280,7.796,9.766,0.777,-0.093,0.915,-0.449,-0.824,-0.488,0.305,60.000,16574.000,1.000
8.948,9.731,9.907,-3.811,-3.716,7.842,8.385,-0.799,-0.094,0.916,-0.451,-0.916,-0.519,0.397,60.000,16575.000,1.000
9.363,8.745,11.082,-3.211,-4.513,7.934,7.170,-1.360,-0.092,0.916,-0.452,-0.854,-0.519,0.427,60.000,16576.000,1.000
9.441,7.378,12.134,-2.482,-5.071,7.487,6.043,-1.209,-0.092,0.916,-0.452,-0.946,-0.580,0.397,60.000,16577.000,1.000
8.724,5.593,12.344,-2.086,-5.488,6.028,4.828,-0.833,-0.091,0.915,-0.452,-0.916,-0.580,0.458,60.000,16578.000,1.000
7.020,3.710,11.234,-2.163,-5.712,3.502,2.967,-0.615,-0.090,0.917,-0.450,-0.946,-0.458,0.641,60.000,16579.000,1.000
5.205,2.765,9.243,-2.197,-5.207,0.888,0.794,-0.375,-0.092,0.913,-0.452,-1.007,-0.427,0.641,60.000,16580.000,1.000
4.256,3.538,7.247,-1.684,-3.511,-0.509,-0.635,0.353,-0.092,0.912,-0.453,-0.977,-0.366,0.641,60.000,16581.000,1.000
4.446,5.861,5.861,-0.536,-0.777,-0.091,-0.640,1.803,-0.091,0.915,-0.451,-1.007,-0.336,0.610,60.000,16582.000,1.000
5.537,8.924,5.074,1.023,2.229,1.544,0.321,3.456,-0.090,0.915,-0.449,-1.068,-0.305,0.580,60.000,16583.000,1.000
6.010,11.111,4.117,2.201,4.078,2.701,0.372,4.000,-0.091,0.914,-0.450,-1.068,-0.214,0.549,60.000,16584.000,1.000
4.783,11.224,2.595,2.470,3.954,2.191,-1.572,2.752,-0.090,0.914,-0.450,-1.068,-0.275,0.580,60.000,16585.000,1.000
1.857,9.129,0.836,1.919,2.275,0.198,-4.792,0.345,-0.090,0.914,-0.449,-1.068,-0.244,0.580,60.000,16586.000,1.000
-1.561,5.986,-0.304,1.257,0.535,-1.865,-7.121,-1.684,-0.090,0.915,-0.449,-0.977,-0.214,0.641,60.000,16587.000,1.000
-3.421,3.724,-0.065,1.297,0.396,-2.374,-6.201,-1.963,-0.091,0.913,-0.448,-0.885,-0.183,0.610,60.000,16588.000,1.000
-3.227,3.065,1.238,1.920,2.154,-1.032,-1.733,-0.441,-0.090,0.915,-0.447,-0.885,-0.183,0.488,60.000,16589.000,1.000
-1.627,3.583,2.649,2.552,4.891,1.200,4.437,1.850,-0.090,0.915,-0.452,-0.885,-0.061,0.549,60.000,16590.000,1.000
0.103,4.360,3.087,2.571,6.999,2.898,9.103,3.393,-0.089,0.915,-0.452,-0.916,0.031,0.702,60.000,16591.000,1.000
0.902,4.774,2.131,1.773,7.206,3.354,9.819,3.243,-0.090,0.916,-0.454,-0.916,0.092,0.702,60.000,16592.000,1.000
0.719,4.788,0.327,0.522,5.451,2.890,6.682,1.641,-0.092,0.913,-0.453,-0.854,0.031,0.702,60.000,16593.000,1.000
-0.541,4.144,-1.586,-0.929,2.454,2.008,1.545,-0.548,-0.091,0.910,-0.452,-0.824,-0.061,0.580,60.000,16594.000,1.000
-2.038,3.161,-2.731,-2.103,-0.370,1.365,-2.732,-2.178,-0.091,0.913,-0.453,-0.793,0.000,0.580,60.000,16595.000,1.000
-2.645,2.530,-2.679,-2.599,-1.890,1.288,-4.219,-2.548,-0.090,0.913,-0.454,-0.702,0.031,0.641,60.000,16596.000,1.000
-2.088,2.408,-1.791,-2.469,-2.040,1.473,-3.089,-1.793,-0.091,0.912,-0.452,-0.641,0.031,0.671,60.000,16597.000,1.000
-0.858,2.280,-0.863,-2.114,-1.543,1.344,-0.857,-0.704,-0.091,0.915,-0.451,-0.671,0.183,0.610,60.000,16598.000,1.000
-0.433,1.141,-0.755,-2.237,-1.500,0.385,0.542,-0.463,-0.090,0.913,-0.454,-0.641,0.061,0.671,60.000,16599.000,1.000
-1.288,-0.959,-1.500,-2.948,-2.218,-1.255,0.419,-1.710,-0.092,0.915,-0.450,-0.641,0.092,0.702,60.000,16600.000,1.000
-2.890,-3.110,-2.625,-3.948,-3.313,-3.246,-1.045,-4.277,-0.091,0.917,-0.451,-0.641,0.092,0.641,60.000,16601.000,1.000
-4.417,-4.470,-3.610,-4.869,-4.247,-5.398,-3.506,-7.316,-0.093,0.915,-0.452,-0.641,0.092,0.702,60.000,16602.000,1.000
-4.964,-4.612,-4.112,-5.250,-4.581,-7.422,-6.393,-9.685,-0.092,0.914,-0.454,-0.671,0.092,0.641,60.000,16603.000,1.000
-5.032,-4.296,-4.442,-5.022,-4.578,-9.153,-9.499,-10.790,-0.093,0.914,-0.455,-0.610,0.092,0.610,60.000,16604.000,1.000
-5.306,-4.477,-4.974,-4.175,-4.612,-10.283,-12.252,-10.605,-0.094,0.911,-0.452,-0.671,0.031,0.641,60.000,16605.000,1.000
-5.954,-5.513,-5.800,-2.904,-4.787,-10.619,-13.742,-9.507,-0.095,0.910,-0.453,-0.610,0.061,0.641,60.000,16606.000,1.000
-6.481,-6.879,-6.472,-1.507,-4.719,-10.180,-13.148,-7.839,-0.094,0.912,-0.451,-0.519,0.092,0.610,60.000,16607.000,1.000
-6.078,-7.609,-6.258,-0.166,-3.758,-9.176,-10.449,-5.824,-0.094,0.911,-0.453,-0.458,-0.031,0.671,60.000,16608.000,1.000
-5.399,-7.773,-5.137,0.670,-2.033,-8.269,-7.423,-4.014,-0.094,0.915,-0.453,-0.336,-0.214,0.671,60.000,16609.000,1.000
-5.130,-7.762,-3.547,0.871,-0.099,-7.955,-5.882,-2.819,-0.093,0.912,-0.453,-0.336,-0.275,0.763,60.000,16610.000,1.000
-5.165,-7.581,-2.078,0.600,1.510,-8.487,-6.252,-2.258,-0.095,0.913,-0.452,-0.336,-0.366,1.007,60.000,16611.000,1.000
-4.709,-6.788,-0.997,0.160,2.776,-9.661,-7.350,-1.886,-0.096,0.915,-0.452,-0.397,-0.549,1.007,60.000,16612.000,1.000
-2.794,-4.867,-0.086,-0.088,4.339,-10.574,-7.411,-1.026,-0.096,0.916,-0.452,-0.336,-0.610,1.007,60.000,16613.000,1.000
-0.156,-2.378,0.683,-0.261,6.601,-10.380,-6.114,0.525,-0.095,0.916,-0.450,-0.336,-0.580,1.190,60.000,16614.000,1.000
2.076,-0.199,1.348,-0.380,9.843,-8.644,-3.981,2.622,-0.094,0.914,-0.450,-0.458,-0.702,1.343,60.000,16615.000,1.000
3.229,0.948,1.824,-0.372,14.025,-5.698,-1.624,4.793,-0.095,0.916,-0.452,-0.458,-0.824,1.312,60.000,16616.000,1.000
3.258,0.736,1.928,-0.243,18.607,-2.454,0.584,6.420,-0.096,0.917,-0.451,-0.549,-0.793,1.465,60.000,16617.000,1.000
2.718,-0.526,1.496,-0.123,22.687,0.070,2.470,6.988,-0.095,0.920,-0.455,-0.641,-0.916,1.495,60.000,16618.000,1.000
1.322,-2.603,0.196,-0.582,25.083,1.059,3.440,6.118,-0.092,0.921,-0.451,-0.641,-0.916,1.434,60.000,16619.000,1.000
-0.716,-4.730,-1.702,-1.716,25.663,0.901,3.763,4.252,-0.092,0.920,-0.453,-0.763,-1.068,1.495,60.000,16620.000,1.000
-2.533,-5.932,-3.458,-3.038,25.417,0.785,4.518,2.470,-0.091,0.921,-0.451,-0.854,-1.099,1.678,60.000,16621.000,1.000
-3.429,-5.746,-4.421,-3.892,25.466,1.568,6.458,1.832,-0.089,0.919,-0.450,-1.068,-1.068,1.831,60.000,16622.000,1.000
-3.300,-4.436,-4.467,-3.866,26.155,3.081,9.095,2.703,-0.089,0.918,-0.451,-1.221,-1.038,1.648,60.000,16623.000,1.000
-3.736,-3.471,-4.384,-3.486,26.379,3.971,10.067,4.133,-0.089,0.916,-0.451,-1.404,-1.099,1.678,60.000,16624.000,1.000
-5.906,-4.053,-4.856,-3.399,24.900,3.115,7.368,4.710,-0.089,0.913,-0.450,-1.495,-1.007,1.648,60.000,16625.000,1.000
-9.499,-6.193,-5.977,-3.784,21.466,0.457,1.089,3.561,-0.089,0.911,-0.449,-1.526,-1.007,1.740,60.000,16626.000,1.000
-13.201,-8.798,-7.244,-4.171,17.065,-2.961,-6.447,0.964,-0.087,0.910,-0.450,-1.678,-1.160,1.648,60.000,16627.000,1.000
-15.581,-10.363,-7.806,-3.745,13.373,-5.550,-11.891,-1.689,-0.088,0.911,-0.449,-1.678,-1.129,1.648,60.000,16628.000,1.000
-16.783,-10.361,-7.156,-2.226,11.434,-6.174,-13.103,-2.888,-0.087,0.910,-0.453,-1.526,-1.068,1.495,60.000,16629.000,1.000
-16.860,-8.615,-4.947,0.476,11.704,-4.228,-9.458,-1.772,-0.087,0.912,-0.452,-1.587,-1.038,1.373,60.000,16630.000,1.000
-15.190,-5.161,-1.399,4.136,13.933,-0.090,-2.446,1.071,-0.089,0.912,-0.454,-1.617,-0.977,1.251,60.000,16631.000,1.000
-11.290,-0.593,2.571,8.038,17.108,4.903,4.834,3.992,-0.091,0.914,-0.455,-1.709,-0.854,1.099,60.000,16632.000,1.000
-5.753,3.793,5.837,11.147,19.732,9.130,9.764,5.502,-0.088,0.914,-0.453,-1.740,-0.793,0.916,60.000,16633.000,1.000
-1.574,5.649,7.369,12.127,19.934,11.070,11.095,4.968,-0.091,0.913,-0.456,-1.801,-0.732,0.763,60.000,16634.000,1.000
-1.075,3.680,7.274,10.682,16.953,10.319,9.706,3.195,-0.091,0.910,-0.453,-1.892,-0.732,0.671,60.000,16635.000,1.000
-3.580,-0.965,6.581,7.880,11.711,7.765,7.457,1.652,-0.091,0.912,-0.451,-1.892,-0.732,0.519,60.000,16636.000,1.000
-6.233,-5.571,6.198,5.189,5.997,4.903,5.698,1.149,-0.090,0.910,-0.451,-1.831,-0.732,0.397,60.000,16637.000,1.000
-6.666,-7.994,6.075,3.231,1.016,2.769,4.660,1.226,-0.089,0.910,-0.451,-1.740,-0.641,0.336,60.000,16638.000,1.000
-5.810,-8.517,5.143,1.158,-3.758,1.089,3.059,0.527,-0.088,0.909,-0.452,-1.709,-0.610,0.275,60.000,16639.000,1.000
-5.425,-8.283,2.948,-1.711,-9.118,-0.680,0.004,-1.601,-0.089,0.912,-0.450,-1.587,-0.549,0.214,60.000,16640.000,1.000
-5.754,-7.820,0.287,-4.960,-14.780,-2.456,-4.022,-4.611,-0.090,0.911,-0.451,-1.556,-0.519,0.214,60.000,16641.000,1.000
-5.344,-6.810,-1.240,-7.281,-19.272,-3.325,-7.332,-7.206,-0.088,0.909,-0.448,-1.495,-0.366,0.244,60.000,16642.000,1.000
-2.290,-4.490,-0.288,-7.352,-20.865,-2.203,-7.978,-8.152,-0.090,0.910,-0.451,-1.312,-0.458,0.214,60.000,16643.000,1.000
2.908,-1.028,2.837,-5.255,-19.360,0.734,-5.960,-7.346,-0.091,0.911,-0.453,-1.312,-0.366,0.244,60.000,16644.000,1.000
8.338,2.891,6.715,-2.057,-15.995,4.264,-2.863,-5.530,-0.090,0.913,-0.450,-1.160,-0.305,0.305,60.000,16645.000,1.000
12.306,6.529,9.903,1.082,-12.493,7.136,-0.398,-3.602,-0.091,0.915,-0.450,-1.190,-0.336,0.305,60.000,16646.000,1.000
14.441,9.452,11.887,3.689,-9.953,9.020,1.024,-1.969,-0.092,0.918,-0.449,-1.160,-0.275,0.397,60.000,16647.000,1.000
15.792,11.799,13.030,5.997,-8.438,10.429,2.403,-0.446,-0.090,0.919,-0.453,-1.221,-0.214,0.519,60.000,16648.000,1.000
16.494,13.366,13.427,7.856,-7.893,11.618,4.305,1.088,-0.094,0.917,-0.451,-1.312,-0.183,0.458,60.000,16649.000,1.000
16.166,13.846,12.977,8.906,-8.144,12.607,6.685,2.616,-0.094,0.918,-0.449,-1.251,-0.244,0.519,60.000,16650.000,1.000
14.383,12.849,11.473,8.724,-9.104,13.126,8.876,3.709,-0.092,0.917,-0.446,-1.373,-0.275,0.549,60.000,16651.000,1.000
11.342,10.489,8.912,7.223,-10.620,12.876,10.274,3.869,-0.090,0.915,-0.446,-1.343,-0.214,0.641,60.000,16652.000,1.000
8.440,8.048,5.804,5.087,-12.046,12.019,11.093,3.230,-0.088,0.916,-0.449,-1.434,-0.244,0.732,60.000,16653.000,1.000
6.034,6.304,2.581,2.952,-12.991,10.701,11.088,2.208,-0.086,0.914,-0.447,-1.465,-0.153,0.732,60.000,16654.000,1.000
3.526,4.966,-0.361,1.200,-13.429,9.008,9.738,1.341,-0.083,0.908,-0.452,-1.251,0.061,0.824,60.000,16655.000,1.000
0.142,3.165,-2.825,-0.188,-13.778,6.891,6.842,1.069,-0.085,0.906,-0.454,-1.068,0.092,0.946,60.000,16656.000,1.000
-4.102,0.570,-4.679,-1.282,-14.533,4.451,2.934,1.719,-0.086,0.907,-0.456,-1.099,0.183,1.007,60.000,16657.000,1.000
-8.178,-2.277,-5.826,-1.937,-15.800,1.986,-1.089,3.266,-0.086,0.910,-0.452,-0.885,0.214,1.007,60.000,16658.000,1.000
-12.054,-5.330,-6.752,-2.401,-17.689,-0.625,-5.143,4.866,-0.087,0.914,-0.450,-0.763,0.214,0.946,60.000,16659.000,1.000
-15.593,-8.417,-7.822,-2.732,-19.693,-3.287,-8.689,5.928,-0.085,0.916,-0.448,-0.824,0.305,1.099,60.000,16660.000,1.000
-18.020,-10.779,-8.990,-2.785,-20.847,-5.515,-10.432,6.634,-0.087,0.919,-0.447,-0.854,0.427,1.160,60.000,16661.000,1.000
-18.574,-11.555,-9.917,-2.537,-20.490,-6.808,-9.395,7.298,-0.087,0.922,-0.448,-0.916,0.397,1.099,60.000,16662.000,1.000
-16.784,-10.335,-10.090,-2.008,-18.559,-6.946,-5.635,7.824,-0.089,0.924,-0.450,-0.977,0.458,0.977,60.000,16663.000,1.000
-13.430,-7.833,-9.433,-1.469,-15.896,-6.331,-0.760,7.792,-0.092,0.924,-0.448,-1.251,0.427,0.854,60.000,16664.000,1.000
-9.034,-4.753,-8.076,-0.918,-13.484,-5.415,3.536,7.262,-0.094,0.924,-0.451,-1.373,0.397,0.916,60.000,16665.000,1.000
-4.185,-1.781,-6.550,-0.497,-12.437,-4.781,5.849,6.385,-0.099,0.920,-0.449,-1.434,0.244,0.793,60.000,16666.000,1.000
-0.383,-0.087,-5.692,-0.802,-13.876,-5.168,5.088,4.835,-0.102,0.919,-0.446,-1.434,0.000,0.641,60.000,16667.000,1.000
1.292,-0.447,-5.943,-2.180,-17.874,-6.810,1.414,2.298,-0.104,0.915,-0.449,-1.495,-0.214,0.427,60.000,16668.000,1.000
0.622,-2.807,-7.120,-4.374,-23.161,-9.289,-3.639,-0.968,-0.107,0.914,-0.451,-1.434,-0.427,0.214,60.000,16669.000,1.000
-0.902,-5.828,-8.247,-6.224,-27.377,-11.601,-7.292,-3.885,-0.105,0.915,-0.450,-1.343,-0.671,0.061,60.000,16670.000,1.000
-1.986,-8.306,-8.711,-6.892,-28.930,-13.232,-7.999,-5.606,-0.104,0.917,-0.449,-1.404,-0.854,-0.122,60.000,16671.000,1.000
-3.067,-10.269,-8.917,-6.652,-28.115,-14.496,-6.914,-6.166,-0.102,0.917,-0.450,-1.404,-1.221,-0.183,60.000,16672.000,1.000
-4.871,-11.994,-9.522,-6.162,-26.046,-15.639,-6.061,-5.994,-0.099,0.916,-0.449,-1.465,-1.404,-0.153,60.000,16673.000,1.000
-7.754,-13.521,-10.893,-5.989,-23.719,-16.443,-6.612,-5.629,-0.096,0.915,-0.450,-1.526,-1.495,-0.122,60.000,16674.000,1.000
-10.739,-14.293,-12.658,-6.048,-21.360,-16.191,-7.810,-5.412,-0.094,0.915,-0.452,-1.495,-1.648,-0.214,60.000,16675.000,1.000
-13.253,-14.376,-14.498,-6.294,-19.221,-14.705,-8.582,-5.829,-0.091,0.917,-0.449,-1.495,-1.648,-0.244,60.000,16676.000,1.000
-16.127,-14.843,-16.513,-7.105,-18.021,-12.709,-8.928,-7.341,-0.089,0.916,-0.450,-1.495,-1.648,-0.183,60.000,16677.000,1.000
-19.421,-16.093,-18.496,-8.509,-18.079,-10.894,-9.031,-9.662,-0.088,0.914,-0.451,-1.404,-1.556,-0.214,60.000,16678.000,1.000
-22.009,-17.481,-19.921,-10.097,-19.109,-9.575,-8.814,-11.927,-0.088,0.916,-0.450,-1.373,-1.526,-0.061,60.000,16679.000,1.000
-21.691,-17.511,-20.029,-10.987,-20.078,-8.501,-7.512,-13.127,-0.088,0.915,-0.450,-1.251,-1.556,-0.031,60.000,16680.000,1.000
-17.402,-15.180,-18.387,-10.516,-19.879,-7.238,-4.774,-12.831,-0.089,0.912,-0.452,-1.282,-1.404,-0.031,60.000,16681.000,1.000
-10.567,-10.962,-15.081,-8.656,-17.951,-5.562,-1.374,-11.391,-0.091,0.909,-0.447,-1.221,-1.343,-0.031,60.000,16682.000,1.000
-3.779,-6.423,-10.801,-5.961,-14.541,-3.806,1.306,-9.706,-0.090,0.905,-0.448,-1.038,-1.190,-0.153,60.000,16683.000,1.000
0.610,-3.159,-6.758,-3.401,-10.693,-2.642,1.858,-8.670,-0.089,0.902,-0.451,-0.763,-1.190,-0.153,60.000,16684.000,1.000
3.163,-0.600,-3.207,-0.978,-6.733,-1.568,0.797,-7.920,-0.088,0.902,-0.450,-0.702,-1.129,-0.366,60.000,16685.000,1.000
5.674,2.711,0.225,1.743,-2.521,0.382,-0.177,-6.508,-0.086,0.902,-0.449,-0.305,-1.068,-0.641,60.000,16686.000,1.000
8.159,6.515,3.330,4.453,1.411,3.177,-0.199,-4.226,-0.084,0.905,-0.446,-0.031,-0.854,-0.610,60.000,16687.000,1.000
9.683,9.411,5.455,6.550,4.325,6.154,0.658,-1.495,-0.082,0.909,-0.447,-0.031,-0.732,-0.793,60.000,16688.000,1.000
9.430,10.334,5.890,7.580,5.796,8.514,1.392,0.980,-0.083,0.915,-0.443,0.000,-0.702,-0.824,60.000,16689.000,1.000
8.047,9.656,4.521,7.598,6.114,9.725,1.218,2.635,-0.080,0.918,-0.445,-0.092,-0.458,-0.946,60.000,16690.000,1.000
6.381,8.148,1.654,6.665,5.618,9.417,0.102,3.147,-0.080,0.916,-0.446,0.000,-0.336,-1.038,60.000,16691.000,1.000
4.707,6.339,-1.990,4.831,4.386,7.696,-1.123,2.804,-0.080,0.916,-0.446,-0.031,-0.122,-1.007,60.000,16692.000,1.000
4.022,5.185,-5.198,2.580,2.746,5.494,-1.195,2.449,-0.078,0.915,-0.449,0.031,-0.061,-0.977,60.000,16693.000,1.000
5.212,5.393,-7.019,0.380,1.107,3.878,0.070,2.513,-0.080,0.917,-0.448,0.031,0.153,-1.038,60.000,16694.000,1.000
8.882,7.188,-6.828,-1.193,0.141,3.685,2.289,2.939,-0.079,0.916,-0.451,0.153,0.244,-1.068,60.000,16695.000,1.000
14.159,9.663,-4.725,-1.876,0.154,4.833,4.648,3.370,-0.078,0.917,-0.450,0.275,0.519,-1.068,60.000,16696.000,1.000
18.875,11.124,-1.429,-1.808,0.841,6.434,6.206,3.614,-0.078,0.917,-0.449,0.275,0.824,-1.007,60.000,16697.000,1.000
21.917,10.806,2.388,-1.109,1.929,7.627,6.731,3.880,-0.081,0.917,-0.446,0.244,1.007,-0.916,60.000,16698.000,1.000
23.037,8.939,5.928,-0.314,2.980,7.638,5.957,4.057,-0.084,0.917,-0.447,0.183,1.099,-0.854,60.000,16699.000,1.000
23.000,6.677,8.667,0.076,3.732,6.234,3.873,3.827,-0.085,0.922,-0.446,0.244,1.282,-0.793,60.000,16700.000,1.000
22.487,5.047,10.339,-0.243,4.020,3.682,0.717,2.982,-0.087,0.921,-0.449,0.122,1.434,-0.732,60.000,16701.000,1.000
21.635,4.289,11.103,-1.199,3.878,0.698,-2.865,1.809,-0.090,0.921,-0.451,0.153,1.495,-0.610,60.000,16702.000,1.000
21.124,4.430,11.795,-2.073,3.974,-1.615,-5.395,1.133,-0.092,0.920,-0.448,0.000,1.495,-0.610,60.000,16703.000,1.000
20.993,4.871,13.010,-2.387,4.776,-2.666,-5.833,1.322,-0.094,0.919,-0.447,0.031,1.495,-0.488,60.000,16704.000,1.000
20.760,4.829,14.796,-2.068,6.261,-2.435,-4.025,1.968,-0.092,0.920,-0.449,-0.122,1.434,-0.366,60.000,16705.000,1.000
19.383,3.518,16.459,-1.553,7.723,-1.496,-1.329,2.094,-0.091,0.921,-0.448,-0.244,1.282,-0.275,60.000,16706.000,1.000
16.015,0.557,17.112,-1.323,8.312,-0.699,0.053,1.074,-0.093,0.918,-0.449,-0.336,1.312,-0.214,60.000,16707.000,1.000
11.442,-3.349,16.532,-1.232,8.007,-0.618,-0.930,-0.700,-0.094,0.916,-0.449,-0.427,1.282,-0.214,60.000,16708.000,1.000
6.511,-7.430,14.774,-1.191,7.116,-1.820,-4.182,-2.588,-0.094,0.916,-0.448,-0.488,1.068,-0.153,60.000,16709.000,1.000
1.820,-11.029,12.191,-1.183,6.135,-4.442,-8.469,-4.109,-0.095,0.915,-0.450,-0.427,1.007,-0.061,60.000,16710.000,1.000
-2.605,-13.773,9.342,-1.185,5.574,-7.842,-12.114,-5.026,-0.094,0.916,-0.448,-0.458,0.824,0.122,60.000,16711.000,1.000
-6.884,-15.417,7.081,-0.887,6.019,-10.609,-13.436,-5.085,-0.094,0.915,-0.449,-0.397,0.732,0.183,60.000,16712.000,1.000
-10.187,-15.457,6.346,0.322,8.147,-11.307,-11.077,-4.031,-0.097,0.915,-0.445,-0.336,0.641,0.366,60.000,16713.000,1.000
-12.308,-14.178,7.022,2.258,11.720,-9.965,-5.849,-2.292,-0.095,0.916,-0.448,-0.427,0.519,0.366,60.000,16714.000,1.000
-13.663,-12.380,8.176,4.131,15.823,-7.758,-0.351,-0.659,-0.096,0.918,-0.450,-0.549,0.275,0.488,60.000,16715.000,1.000
-15.426,-11.127,8.659,4.953,19.290,-6.039,2.574,0.064,-0.095,0.919,-0.448,-0.641,0.183,0.580,60.000,16716.000,1.000
-18.547,-11.003,8.012,4.216,21.319,-5.379,1.783,-0.422,-0.096,0.918,-0.446,-0.641,0.061,0.580,60.000,16717.000,1.000
-21.644,-10.967,6.999,2.485,22.103,-5.261,-1.088,-1.440,-0.096,0.917,-0.449,-0.641,-0.092,0.702,60.000,16718.000,1.000
-22.958,-9.944,6.381,0.384,21.866,-5.265,-3.808,-2.262,-0.096,0.917,-0.452,-0.671,-0.275,0.671,60.000,16719.000,1.000
-21.985,-8.093,6.304,-1.708,20.566,-5.449,-5.090,-2.676,-0.096,0.918,-0.452,-0.793,-0.427,0.671,60.000,16720.000,1.000
-20.074,-6.778,6.251,-3.664,18.032,-6.174,-5.050,-2.896,-0.096,0.915,-0.451,-0.702,-0.397,0.702,60.000,16721.000,1.000
-18.813,-6.967,5.734,-5.247,14.519,-7.521,-4.243,-3.008,-0.095,0.915,-0.453,-0.610,-0.580,0.793,60.000,16722.000,1.000
-17.609,-7.791,4.996,-5.774,11.176,-8.823,-2.522,-2.708,-0.095,0.912,-0.450,-0.641,-0.671,0.824,60.000,16723.000,1.000
-15.312,-8.002,4.388,-4.975,8.974,-9.390,-0.196,-1.939,-0.092,0.910,-0.452,-0.610,-0.885,0.854,60.000,16724.000,1.000
-11.455,-6.984,4.076,-3.184,8.192,-8.928,1.816,-0.957,-0.093,0.909,-0.452,-0.488,-0.854,0.824,60.000,16725.000,1.000
-7.213,-5.182,3.751,-1.327,8.236,-7.835,2.400,-0.253,-0.092,0.908,-0.453,-0.427,-0.916,0.763,60.000,16726.000,1.000
-4.503,-3.524,3.024,-0.128,8.349,-6.629,1.329,-0.085,-0.090,0.908,-0.452,-0.366,-0.946,0.671,60.000,16727.000,1.000
-3.594,-2.187,2.018,0.728,8.542,-5.201,-0.023,-0.109,-0.090,0.908,-0.454,-0.336,-0.946,0.641,60.000,16728.000,1.000
-3.932,-1.139,0.831,1.734,8.903,-3.404,-0.402,0.101,-0.086,0.908,-0.455,-0.305,-0.977,0.610,60.000,16729.000,1.000
-4.626,-0.291,-0.458,3.164,9.326,-1.270,0.644,0.976,-0.085,0.911,-0.457,-0.183,-0.946,0.641,60.000,16730.000,1.000
-5.602,0.010,-2.005,4.758,9.336,0.704,2.397,2.593,-0.086,0.911,-0.457,-0.122,-0.763,0.702,60.000,16731.000,1.000
-7.474,-0.708,-3.989,6.076,8.518,1.804,3.563,4.605,-0.087,0.912,-0.458,-0.092,-0.580,0.702,60.000,16732.000,1.000
-9.602,-1.849,-6.054,7.190,7.266,1.880,3.734,6.674,-0.090,0.909,-0.456,-0.061,-0.549,0.549,60.000,16733.000,1.000
-11.086,-2.607,-7.812,8.119,6.085,1.218,3.083,8.348,-0.095,0.910,-0.456,-0.122,-0.519,0.488,60.000,16734.000,1.000
-11.191,-2.463,-8.897,8.871,5.381,0.573,2.407,9.324,-0.097,0.911,-0.455,-0.061,-0.641,0.305,60.000,16735.000,1.000
-10.146,-1.583,-9.194,9.262,5.232,0.629,2.391,9.439,-0.098,0.911,-0.455,0.031,-0.732,0.244,60.000,16736.000,1.000
-8.806,-0.418,-8.657,9.088,5.537,1.662,3.187,8.794,-0.099,0.913,-0.452,-0.061,-0.885,0.244,60.000,16737.000,1.000
-6.849,1.324,-6.913,8.719,6.489,3.629,4.991,7.940,-0.096,0.913,-0.452,-0.122,-0.885,0.122,60.000,16738.000,1.000
-3.819,3.853,-3.963,8.515,7.926,5.867,7.521,7.355,-0.095,0.915,-0.454,-0.153,-0.946,0.092,60.000,16739.000,1.000
0.573,7.075,-0.275,8.674,9.457,7.728,10.376,7.391,-0.094,0.915,-0.455,-0.153,-0.977,0.031,60.000,16740.000,1.000
5.604,10.365,3.056,8.835,10.514,8.845,12.673,7.905,-0.093,0.914,-0.455,-0.244,-1.007,0.000,60.000,16741.000,1.000
9.600,12.817,4.804,8.230,10.566,9.148,13.162,8.152,-0.093,0.913,-0.456,-0.305,-1.160,-0.061,60.000,16742.000,1.000
11.730,14.072,4.630,6.584,9.625,8.882,11.617,7.394,-0.092,0.914,-0.458,-0.397,-1.160,-0.122,60.000,16743.000,1.000
11.579,13.781,2.976,4.070,7.808,8.042,8.696,5.287,-0.094,0.915,-0.457,-0.458,-1.129,-0.214,60.000,16744.000,1.000
9.707,12.070,0.955,1.473,5.582,6.708,5.810,2.318,-0.095,0.915,-0.457,-0.458,-1.099,-0.183,60.000,16745.000,1.000
6.973,9.502,-0.484,-0.526,3.478,5.139,4.003,-0.653,-0.095,0.916,-0.454,-0.549,-1.190,-0.153,60.000,16746.000,1.000
3.891,6.718,-1.063,-1.854,1.781,3.595,3.307,-2.806,-0.096,0.915,-0.453,-0.580,-1.221,-0.031,60.000,16747.000,1.000
1.571,4.628,-0.886,-2.630,0.793,2.229,3.435,-3.532,-0.095,0.916,-0.458,-0.671,-1.190,-0.061,60.000,16748.000,1.000
0.700,3.601,-0.505,-3.260,0.427,0.931,3.791,-3.067,-0.096,0.917,-0.458,-0.732,-1.190,0.061,60.000,16749.000,1.000
1.877,3.901,-0.211,-3.817,0.626,0.186,4.318,-2.071,-0.098,0.918,-0.457,-0.793,-1.190,0.214,60.000,16750.000,1.000
5.076,5.626,-0.098,-4.124,1.242,0.700,4.957,-1.233,-0.096,0.918,-0.455,-0.885,-1.282,0.214,60.000,16751.000,1.000
9.211,8.331,-0.346,-4.080,1.867,2.471,5.133,-1.116,-0.097,0.918,-0.455,-0.946,-1.251,0.397,60.000,16752.000,1.000
13.407,11.504,-0.992,-3.532,2.350,5.041,4.767,-1.836,-0.098,0.917,-0.456,-1.068,-1.190,0.397,60.000,16753.000,1.000
16.377,14.145,-2.215,-2.829,2.512,7.770,4.021,-3.261,-0.094,0.916,-0.454,-1.099,-1.282,0.458,60.000,16754.000,1.000
17.325,15.515,-3.948,-2.413,2.385,10.348,3.466,-4.855,-0.092,0.917,-0.458,-1.099,-1.221,0.641,60.000,16755.000,1.000
16.267,15.657,-5.921,-2.583,2.087,12.558,3.614,-5.956,-0.092,0.915,-0.459,-1.221,-1.312,0.824,60.000,16756.000,1.000
13.831,15.239,-7.721,-3.294,1.705,14.247,4.642,-6.120,-0.094,0.914,-0.456,-1.221,-1.251,0.763,60.000,16757.000,1.000
11.392,15.169,-8.653,-3.849,1.628,15.744,6.740,-5.164,-0.093,0.917,-0.455,-1.221,-1.190,0.732,60.000,16758.000,1.000
9.183,15.201,-8.412,-3.757,2.019,17.266,9.182,-3.497,-0.094,0.918,-0.452,-1.190,-1.160,0.824,60.000,16759.000,1.000
6.982,14.620,-7.013,-2.909,2.866,18.622,10.793,-1.783,-0.093,0.917,-0.452,-1.282,-1.190,0.977,60.000,16760.000,1.000
4.704,13.074,-4.932,-1.775,3.715,18.999,10.521,-0.777,-0.093,0.916,-0.453,-1.404,-1.190,1.099,60.000,16761.000,1.000
2.364,10.727,-2.928,-1.086,3.799,17.535,8.116,-0.914,-0.092,0.912,-0.454,-1.465,-1.221,1.099,60.000,16762.000,1.000
0.728,8.539,-1.392,-0.984,2.933,14.366,4.673,-1.794,-0.089,0.911,-0.452,-1.617,-1.068,1.099,60.000,16763.000,1.000
-0.070,7.262,-0.564,-1.364,1.259,10.373,1.162,-2.718,-0.087,0.911,-0.456,-1.556,-1.038,1.160,60.000,16764.000,1.000
-0.104,7.275,-0.314,-1.859,-0.754,6.784,-1.667,-2.987,-0.089,0.911,-0.452,-1.495,-0.946,1.160,60.000,16765.000,1.000
0.565,8.327,-0.423,-2.126,-2.629,4.356,-3.353,-2.291,-0.089,0.912,-0.455,-1.465,-0.793,1.190,60.000,16766.000,1.000
1.859,9.671,-0.847,-1.974,-4.148,3.049,-3.957,-0.750,-0.089,0.912,-0.454,-1.556,-0.671,1.099,60.000,16767.000,1.000
3.925,10.685,-1.582,-1.210,-5.219,2.484,-3.813,1.409,-0.088,0.910,-0.454,-1.434,-0.610,1.038,60.000,16768.000,1.000
5.348,10.282,-2.908,-0.239,-6.273,1.999,-4.016,3.562,-0.088,0.911,-0.455,-1.373,-0.488,1.068,60.000,16769.000,1.000
4.619,7.903,-4.697,0.482,-7.520,1.289,-5.201,4.973,-0.089,0.909,-0.456,-1.282,-0.519,1.068,60.000,16770.000,1.000
1.837,4.273,-6.359,0.790,-8.587,0.505,-6.934,5.098,-0.088,0.907,-0.458,-1.251,-0.549,0.946,60.000,16771.000,1.000
-1.296,1.036,-7.183,0.821,-8.771,0.179,-8.010,3.982,-0.091,0.908,-0.452,-1.160,-0.397,0.946,60.000,16772.000,1.000
-2.522,-0.084,-6.598,0.928,-7.451,1.067,-7.059,2.423,-0.088,0.909,-0.453,-1.099,-0.336,0.916,60.000,16773.000,1.000
-1.981,0.882,-4.949,0.841,-5.243,3.056,-4.303,1.271,-0.088,0.908,-0.452,-1.038,-0.305,0.793,60.000,16774.000,1.000
-1.113,2.695,-2.943,0.264,-3.314,5.259,-0.965,1.297,-0.088,0.910,-0.455,-1.099,-0.275,0.671,60.000,16775.000,1.000
-0.694,4.133,-1.130,-0.653,-2.325,6.579,1.717,2.773,-0.087,0.909,-0.455,-1.007,-0.275,0.763,60.000,16776.000,1.000
-0.419,4.714,0.326,-1.447,-2.057,6.419,3.046,5.145,-0.090,0.911,-0.452,-0.977,-0.183,0.671,60.000,16777.000,1.000
0.649,4.923,1.670,-1.619,-1.760,5.061,3.253,7.307,-0.090,0.912,-0.452,-0.977,-0.092,0.671,60.000,16778.000,1.000
1.800,4.844,2.731,-1.483,-1.481,2.883,2.341,7.873,-0.089,0.913,-0.454,-0.946,-0.122,0.610,60.000,16779.000,1.000
2.077,4.520,3.298,-1.477,-1.625,0.479,0.549,6.332,-0.090,0.913,-0.455,-1.007,-0.092,0.610,60.000,16780.000,1.000
1.818,4.438,3.429,-1.676,-2.233,-1.289,-1.400,3.500,-0.090,0.915,-0.454,-1.007,-0.061,0.458,60.000,16781.000,1.000
2.215,5.150,3.414,-1.919,-2.935,-1.625,-2.716,0.882,-0.089,0.914,-0.456,-1.038,-0.031,0.458,60.000,16782.000,1.000
4.373,6.833,3.683,-1.846,-3.189,-0.138,-2.599,-0.222,-0.090,0.916,-0.454,-1.068,-0.061,0.580,60.000,16783.000,1.000
7.230,8.395,4.160,-1.500,-3.105,2.484,-1.203,0.364,-0.092,0.917,-0.454,-1.129,-0.092,0.458,60.000,16784.000,1.000
9.206,8.723,4.716,-0.898,-2.924,5.043,0.826,2.051,-0.092,0.917,-0.454,-1.160,-0.153,0.458,60.000,16785.000,1.000
9.734,7.513,5.284,-0.054,-2.776,6.440,2.545,3.830,-0.092,0.917,-0.454,-1.251,-0.153,0.519,60.000,16786.000,1.000
9.353,5.255,5.800,0.870,-2.775,6.227,3.117,4.569,-0.092,0.917,-0.454,-1.251,-0.092,0.427,60.000,16787.000,1.000
9.648,3.343,6.414,1.866,-2.732,4.910,2.704,3.611,-0.092,0.916,-0.454,-1.282,-0.153,0.458,60.000,16788.000,1.000
10.745,2.528,6.891,2.578,-2.746,3.025,1.572,0.844,-0.092,0.916,-0.453,-1.373,-0.183,0.488,60.000,16789.000,1.000
11.623,2.657,6.942,2.791,-2.872,1.015,0.316,-2.937,-0.094,0.916,-0.449,-1.312,-0.244,0.458,60.000,16790.000,1.000
11.286,3.055,6.495,2.706,-2.972,-0.766,-0.209,-6.426,-0.095,0.916,-0.447,-1.373,-0.305,0.488,60.000,16791.000,1.000
9.395,3.000,5.727,2.696,-2.914,-2.142,0.451,-8.662,-0.095,0.914,-0.444,-1.373,-0.336,0.427,60.000,16792.000,1.000
6.845,2.411,4.995,3.095,-2.598,-3.166,1.986,-9.452,-0.095,0.916,-0.450,-1.465,-0.488,0.397,60.000,16793.000,1.000
4.008,1.213,4.159,3.541,-2.514,-4.467,2.654,-9.413,-0.094,0.913,-0.453,-1.556,-0.488,0.458,60.000,16794.000,1.000
1.118,-0.420,3.005,3.567,-3.114,-6.426,1.123,-8.923,-0.093,0.914,-0.454,-1.556,-0.519,0.488,60.000,16795.000,1.000
-1.654,-2.351,1.421,2.892,-4.485,-8.741,-2.209,-7.837,-0.091,0.912,-0.454,-1.587,-0.580,0.458,60.000,16796.000,1.000
-4.335,-4.682,-0.497,1.537,-6.321,-10.529,-5.498,-5.978,-0.092,0.911,-0.453,-1.556,-0.641,0.458,60.000,16797.000,1.000
-6.178,-6.861,-2.225,0.105,-7.704,-10.608,-6.389,-3.521,-0.094,0.911,-0.451,-1.434,-0.671,0.519,60.000,16798.000,1.000
-6.975,-8.293,-3.567,-1.068,-8.026,-8.698,-4.380,-1.385,-0.094,0.912,-0.452,-1.373,-0.702,0.519,60.000,16799.000,1.000
-6.812,-8.534,-4.516,-1.902,-7.159,-5.639,-0.807,-0.479,-0.092,0.913,-0.456,-1.221,-0.702,0.519,60.000,16800.000,1.000
-6.160,-7.796,-5.146,-2.553,-5.543,-2.969,2.229,-1.140,-0.088,0.914,-0.452,-1.190,-0.580,0.549,60.000,16801.000,1.000
-5.925,-7.036,-5.478,-3.185,-3.913,-1.938,3.198,-2.873,-0.091,0.912,-0.452,-1.312,-0.519,0.580,60.000,16802.000,1.000
-6.003,-6.690,-5.108,-3.366,-2.388,-2.463,2.364,-4.233,-0.090,0.912,-0.450,-1.190,-0.519,0.702,60.000,16803.000,1.000
-6.039,-6.704,-3.677,-2.634,-0.752,-3.584,0.719,-3.733,-0.087,0.912,-0.453,-1.282,-0.366,0.671,60.000,16804.000,1.000
-5.357,-6.528,-0.969,-0.689,1.302,-4.130,-0.585,-0.672,-0.084,0.913,-0.454,-1.221,-0.336,0.671,60.000,16805.000,1.000
-4.013,-6.109,2.307,1.911,3.326,-3.923,-1.251,3.934,-0.086,0.911,-0.452,-1.038,-0.305,0.793,60.000,16806.000,1.000
