EEG 1,EEG 2,EEG 3,EEG 4,EEG 5,EEG 6,EEG 7,EEG 8,Accelerometer X,Accelerometer Y,Accelerometer Z,Gyroscope X,Gyroscope Y,Gyroscope Z,Battery Level,Counter,Validation Indicator
-5.514,-11.409,-11.406,-9.116,-2.625,-8.339,-10.161,-2.886,-0.090,0.919,-0.445,-0.519,-0.275,0.336,60.000,43009.000,1.000
-5.057,-10.597,-10.891,-9.576,-3.310,-6.962,-9.172,-0.965,-0.090,0.918,-0.444,-0.519,-0.366,0.366,60.000,43010.000,1.000
-4.457,-9.022,-9.722,-9.523,-3.085,-4.411,-6.405,0.353,-0.091,0.918,-0.441,-0.458,-0.336,0.427,60.000,43011.000,1.000
-3.906,-7.054,-8.418,-8.974,-2.129,-1.417,-3.507,0.621,-0.090,0.918,-0.442,-0.549,-0.366,0.458,60.000,43012.000,1.000
-3.170,-5.035,-7.436,-8.002,-0.761,1.374,-1.546,0.379,-0.090,0.919,-0.440,-0.549,-0.549,0.519,60.000,43013.000,1.000
-1.800,-3.228,-6.960,-6.632,0.702,3.626,-0.575,0.498,-0.092,0.917,-0.444,-0.549,-0.549,0.397,60.000,43014.000,1.000
-0.281,-2.080,-7.036,-5.057,1.822,5.248,-0.200,1.528,-0.091,0.917,-0.443,-0.641,-0.488,0.305,60.000,43015.000,1.000
0.854,-1.624,-7.290,-3.275,2.533,6.589,0.574,3.580,-0.091,0.917,-0.441,-0.519,-0.610,0.275,60.000,43016.000,1.000
1.036,-1.874,-7.426,-1.532,2.693,7.722,2.113,5.841,-0.092,0.916,-0.443,-0.549,-0.702,0.275,60.000,43017.000,1.000
-0.046,-2.948,-7.360,-0.376,1.965,8.200,3.650,6.983,-0.093,0.917,-0.439,-0.519,-0.793,0.305,60.000,43018.000,1.000
-1.567,-4.383,-6.791,0.038,0.551,7.745,4.587,6.443,-0.094,0.919,-0.442,-0.549,-0.885,0.153,60.000,43019.000,1.000
-2.622,-5.491,-5.343,0.043,-0.864,6.492,4.894,4.776,-0.094,0.918,-0.443,-0.580,-0.946,0.183,60.000,43020.000,1.000
-2.351,-5.453,-2.653,0.438,-1.381,5.071,5.113,3.150,-0.094,0.920,-0.443,-0.702,-0.946,0.092,60.000,43021.000,1.000
-0.685,-3.966,1.012,1.686,-0.677,3.961,5.465,2.280,-0.095,0.918,-0.447,-0.702,-1.038,0.031,60.000,43022.000,1.000
1.828,-1.251,4.857,3.691,0.973,3.234,5.912,2.297,-0.096,0.919,-0.445,-0.854,-1.129,0.061,60.000,43023.000,1.000
4.801,2.311,8.103,6.013,3.131,2.780,6.687,3.051,-0.094,0.920,-0.439,-0.885,-1.221,0.092,60.000,43024.000,1.000
6.900,5.331,9.841,7.480,4.744,2.141,7.535,3.879,-0.094,0.917,-0.439,-0.885,-1.221,0.031,60.000,43025.000,1.000
6.717,6.113,9.464,6.915,4.646,0.890,7.896,3.977,-0.092,0.918,-0.440,-0.885,-1.221,-0.122,60.000,43026.000,1.000
3.682,3.838,6.967,3.945,2.198,-1.236,6.984,2.855,-0.093,0.918,-0.442,-0.977,-1.312,-0.092,60.000,43027.000,1.000
-1.253,-0.684,3.290,-0.517,-2.183,-4.032,4.468,0.691,-0.094,0.915,-0.443,-0.916,-1.282,-0.061,60.000,43028.000,1.000
-5.818,-5.404,0.079,-4.630,-7.050,-6.708,1.087,-1.759,-0.091,0.917,-0.440,-0.885,-1.495,-0.031,60.000,43029.000,1.000
-8.779,-8.956,-1.558,-7.076,-11.078,-8.746,-2.491,-3.905,-0.091,0.917,-0.444,-0.854,-1.343,0.031,60.000,43030.000,1.000
-9.989,-11.011,-1.448,-7.489,-13.498,-10.204,-5.887,-5.520,-0.091,0.915,-0.447,-0.854,-1.373,0.092,60.000,43031.000,1.000
-9.982,-11.909,-0.238,-6.367,-14.225,-11.534,-8.909,-6.620,-0.091,0.913,-0.446,-0.793,-1.282,0.122,60.000,43032.000,1.000
-9.120,-11.866,1.378,-4.324,-13.406,-12.781,-11.040,-6.834,-0.090,0.913,-0.448,-0.732,-1.373,0.153,60.000,43033.000,1.000
-7.096,-10.680,3.077,-1.678,-11.116,-13.325,-11.472,-5.562,-0.088,0.914,-0.444,-0.702,-1.282,0.214,60.000,43034.000,1.000
-4.239,-8.588,4.479,1.032,-7.911,-12.665,-10.310,-3.137,-0.089,0.913,-0.445,-0.549,-1.160,0.214,60.000,43035.000,1.000
-0.764,-5.727,5.556,3.521,-4.340,-10.557,-8.075,-0.627,-0.089,0.916,-0.442,-0.458,-1.160,0.275,60.000,43036.000,1.000
3.082,-2.233,6.492,5.706,-0.872,-7.453,-5.525,0.849,-0.090,0.917,-0.444,-0.427,-1.068,0.305,60.000,43037.000,1.000
6.603,1.304,7.368,7.395,2.011,-4.407,-3.418,0.650,-0.091,0.920,-0.445,-0.458,-1.038,0.305,60.000,43038.000,1.000
9.275,4.268,8.175,8.458,4.124,-2.074,-1.657,-0.914,-0.094,0.924,-0.447,-0.702,-0.977,0.305,60.000,43039.000,1.000
10.508,6.220,8.712,8.861,5.444,-0.319,0.382,-2.597,-0.092,0.927,-0.445,-0.916,-0.885,0.397,60.000,43040.000,1.000
10.543,7.496,9.037,9.054,6.332,1.637,3.542,-2.636,-0.091,0.928,-0.444,-1.068,-0.885,0.366,60.000,43041.000,1.000
9.866,8.481,9.227,9.436,7.106,4.188,7.770,-0.180,-0.089,0.924,-0.444,-1.099,-0.824,0.336,60.000,43042.000,1.000
8.865,9.167,9.248,10.010,7.808,6.919,11.828,3.915,-0.087,0.919,-0.447,-1.190,-0.702,0.275,60.000,43043.000,1.000
8.127,9.453,9.052,10.522,8.354,8.959,14.062,7.703,-0.085,0.916,-0.448,-1.312,-0.580,0.305,60.000,43044.000,1.000
7.236,8.670,8.358,10.266,8.234,9.363,13.055,9.405,-0.084,0.912,-0.449,-1.251,-0.427,0.397,60.000,43045.000,1.000
5.798,6.533,7.237,8.897,7.251,8.183,9.412,8.783,-0.083,0.909,-0.448,-1.129,-0.366,0.488,60.000,43046.000,1.000
3.899,3.598,6.053,6.681,5.808,6.449,5.443,6.870,-0.081,0.908,-0.446,-0.916,-0.214,0.427,60.000,43047.000,1.000
1.814,0.801,5.054,4.280,4.602,5.239,3.197,4.849,-0.082,0.911,-0.447,-0.824,0.031,0.519,60.000,43048.000,1.000
0.062,-0.949,4.194,2.560,4.249,4.911,3.137,3.491,-0.082,0.913,-0.447,-0.916,0.153,0.641,60.000,43049.000,1.000
-1.389,-1.417,3.107,2.065,4.742,4.983,4.039,3.095,-0.083,0.918,-0.445,-1.007,0.214,0.732,60.000,43050.000,1.000
-2.208,-0.482,1.938,3.145,5.956,5.204,5.009,3.830,-0.080,0.922,-0.447,-1.099,0.336,0.916,60.000,43051.000,1.000
-2.025,1.710,1.267,5.552,7.645,5.700,6.018,5.471,-0.083,0.925,-0.440,-1.282,0.549,0.977,60.000,43052.000,1.000
-0.869,4.539,1.585,8.404,9.290,6.547,7.370,7.424,-0.087,0.929,-0.442,-1.343,0.732,0.977,60.000,43053.000,1.000
1.292,7.367,3.025,10.803,10.309,7.581,9.345,9.097,-0.093,0.931,-0.440,-1.495,0.854,0.824,60.000,43054.000,1.000
4.105,9.520,5.244,12.136,10.116,8.386,11.565,9.953,-0.098,0.932,-0.439,-1.556,0.793,0.854,60.000,43055.000,1.000
7.838,11.075,8.057,12.703,8.878,8.942,13.700,9.873,-0.103,0.932,-0.442,-1.831,0.671,0.763,60.000,43056.000,1.000
12.569,12.278,11.111,13.038,7.109,9.346,15.273,8.917,-0.107,0.929,-0.439,-1.831,0.397,0.641,60.000,43057.000,1.000
17.312,12.848,13.622,13.192,5.063,9.499,15.605,7.205,-0.108,0.925,-0.440,-2.106,0.153,0.549,60.000,43058.000,1.000
20.968,12.637,14.866,12.970,3.020,9.270,14.451,5.164,-0.107,0.922,-0.445,-2.167,-0.031,0.275,60.000,43059.000,1.000
22.350,11.688,14.316,12.039,1.188,8.243,11.583,3.187,-0.106,0.921,-0.445,-2.167,-0.336,0.061,60.000,43060.000,1.000
21.266,10.437,12.105,10.436,-0.034,6.211,7.309,1.435,-0.105,0.917,-0.446,-2.136,-0.580,-0.061,60.000,43061.000,1.000
18.242,9.108,8.828,8.353,-0.357,3.477,2.527,-0.331,-0.102,0.915,-0.447,-2.106,-0.793,-0.183,60.000,43062.000,1.000
13.906,7.503,5.244,5.975,0.146,0.891,-1.505,-2.454,-0.100,0.914,-0.441,-2.045,-0.977,-0.183,60.000,43063.000,1.000
8.886,5.535,1.982,3.568,1.119,-0.606,-3.624,-4.931,-0.099,0.914,-0.444,-1.953,-1.221,-0.122,60.000,43064.000,1.000
2.773,2.999,-1.018,1.123,1.755,-0.853,-4.021,-7.360,-0.096,0.915,-0.439,-1.953,-1.343,-0.183,60.000,43065.000,1.000
-4.494,0.244,-3.986,-1.156,1.658,-0.086,-3.596,-8.784,-0.093,0.915,-0.441,-1.770,-1.282,-0.061,60.000,43066.000,1.000
-12.053,-1.984,-7.000,-2.955,0.990,1.351,-3.266,-8.474,-0.092,0.916,-0.443,-1.709,-1.282,-0.061,60.000,43067.000,1.000
-18.420,-3.039,-9.746,-4.001,0.146,3.148,-3.393,-6.644,-0.090,0.915,-0.445,-1.709,-1.404,0.000,60.000,43068.000,1.000
-21.797,-2.460,-11.463,-3.965,-0.377,5.184,-3.415,-4.272,-0.090,0.915,-0.443,-1.556,-1.343,0.183,60.000,43069.000,1.000
-21.808,-0.728,-11.691,-3.040,-0.545,7.122,-2.773,-2.552,-0.090,0.915,-0.443,-1.373,-1.373,0.336,60.000,43070.000,1.000
-18.962,1.335,-10.267,-1.666,-0.424,8.596,-0.886,-1.930,-0.091,0.915,-0.440,-1.221,-1.282,0.427,60.000,43071.000,1.000
-14.268,3.025,-7.529,-0.380,-0.129,9.200,2.327,-2.061,-0.089,0.916,-0.439,-1.068,-1.221,0.488,60.000,43072.000,1.000
-8.823,4.110,-4.200,0.534,0.237,8.817,6.187,-2.107,-0.085,0.917,-0.442,-0.977,-1.068,0.580,60.000,43073.000,1.000
-2.997,5.161,-0.880,1.420,0.929,8.009,9.869,-1.001,-0.086,0.918,-0.441,-1.068,-0.977,0.641,60.000,43074.000,1.000
2.511,6.509,1.797,2.539,2.022,7.307,12.329,1.654,-0.085,0.919,-0.440,-1.007,-0.885,0.763,60.000,43075.000,1.000
7.054,8.082,3.305,3.836,3.368,6.797,13.040,5.114,-0.086,0.919,-0.440,-0.977,-0.824,0.946,60.000,43076.000,1.000
9.873,9.295,3.173,4.715,4.413,5.847,11.829,7.641,-0.087,0.919,-0.440,-1.099,-0.641,0.946,60.000,43077.000,1.000
10.291,9.461,1.362,4.507,4.508,3.560,8.597,7.856,-0.088,0.919,-0.440,-1.221,-0.488,0.977,60.000,43078.000,1.000
8.727,8.661,-1.388,3.217,3.592,-0.390,3.671,5.993,-0.088,0.917,-0.442,-1.099,-0.519,1.007,60.000,43079.000,1.000
5.688,7.099,-4.234,1.219,1.945,-5.711,-2.573,3.324,-0.087,0.917,-0.444,-1.190,-0.366,0.946,60.000,43080.000,1.000
1.925,5.004,-6.402,-0.736,0.278,-11.359,-9.057,1.277,-0.086,0.916,-0.442,-0.977,-0.214,0.916,60.000,43081.000,1.000
-1.819,2.491,-7.504,-2.027,-0.731,-16.041,-14.161,0.685,-0.087,0.916,-0.442,-0.946,-0.122,0.885,60.000,43082.000,1.000
-4.803,-0.212,-7.530,-2.391,-0.783,-18.670,-16.479,1.729,-0.085,0.916,-0.442,-1.038,-0.092,0.854,60.000,43083.000,1.000
-5.941,-2.397,-6.523,-1.604,0.250,-18.600,-15.537,4.281,-0.085,0.918,-0.442,-0.977,0.031,0.854,60.000,43084.000,1.000
-5.483,-3.994,-4.879,0.060,1.856,-16.295,-12.792,7.608,-0.084,0.920,-0.442,-1.038,0.183,0.824,60.000,43085.000,1.000
-4.435,-5.374,-3.058,1.981,3.154,-13.008,-10.301,10.468,-0.083,0.918,-0.445,-0.977,0.153,0.671,60.000,43086.000,1.000
-3.538,-6.743,-1.369,3.454,3.415,-10.095,-9.271,11.765,-0.083,0.918,-0.444,-1.068,0.397,0.549,60.000,43087.000,1.000
-2.692,-7.837,0.257,4.180,2.731,-8.187,-9.387,11.449,-0.084,0.919,-0.443,-1.129,0.549,0.488,60.000,43088.000,1.000
-0.982,-8.063,2.125,4.424,2.038,-7.013,-9.170,10.339,-0.084,0.917,-0.446,-1.160,0.671,0.488,60.000,43089.000,1.000
1.480,-7.499,3.926,4.174,1.826,-6.306,-7.907,9.055,-0.084,0.920,-0.444,-1.160,0.824,0.427,60.000,43090.000,1.000
4.110,-6.346,5.101,3.364,2.063,-5.836,-5.833,8.022,-0.084,0.918,-0.444,-1.190,1.007,0.275,60.000,43091.000,1.000
6.086,-4.876,5.292,2.028,2.428,-5.374,-3.910,7.425,-0.085,0.918,-0.445,-1.251,1.007,0.305,60.000,43092.000,1.000
6.367,-3.792,4.524,0.161,2.373,-4.766,-3.218,6.941,-0.085,0.918,-0.444,-1.282,1.038,0.336,60.000,43093.000,1.000
4.721,-3.708,3.038,-2.342,1.314,-4.017,-3.807,5.795,-0.087,0.919,-0.446,-1.160,1.007,0.244,60.000,43094.000,1.000
1.476,-5.000,0.691,-5.872,-1.413,-3.590,-4.925,3.129,-0.088,0.917,-0.443,-1.038,1.007,0.153,60.000,43095.000,1.000
-2.171,-7.291,-2.539,-10.339,-5.769,-3.781,-5.435,-1.019,-0.089,0.918,-0.442,-0.977,1.099,0.061,60.000,43096.000,1.000
-5.744,-10.207,-6.442,-15.307,-11.169,-4.652,-5.426,-5.767,-0.092,0.919,-0.442,-1.068,1.007,0.061,60.000,43097.000,1.000
-10.191,-13.796,-10.560,-20.296,-16.887,-6.136,-6.475,-10.040,-0.091,0.918,-0.442,-1.099,0.916,0.153,60.000,43098.000,1.000
-15.019,-17.228,-13.651,-24.198,-21.521,-7.542,-8.980,-12.927,-0.093,0.918,-0.440,-1.282,0.854,0.183,60.000,43099.000,1.000
-16.898,-18.410,-14.058,-25.427,-23.178,-7.664,-10.789,-13.994,-0.094,0.918,-0.439,-1.465,0.732,0.214,60.000,43100.000,1.000
-11.922,-15.318,-11.058,-23.062,-20.738,-5.697,-9.071,-13.503,-0.096,0.917,-0.444,-1.526,0.671,0.336,60.000,43101.000,1.000
-2.930,-10.033,-7.012,-19.194,-16.477,-3.095,-5.077,-13.269,-0.094,0.918,-0.443,-1.556,0.488,0.305,60.000,43102.000,1.000
-0.755,-9.263,-6.454,-18.297,-15.543,-3.046,-4.373,-16.004,-0.094,0.918,-0.442,-1.495,0.458,0.305,60.000,43103.000,1.000
-11.787,-16.878,-11.176,-21.992,-20.260,-6.634,-9.762,-22.107,-0.095,0.918,-0.442,-1.404,0.275,0.183,60.000,43104.000,1.000
-26.812,-27.292,-17.229,-25.736,-26.069,-10.592,-16.133,-27.785,-0.097,0.920,-0.440,-1.404,0.153,0.244,60.000,43105.000,1.000
-28.208,-29.690,-18.474,-22.925,-25.412,-10.256,-15.015,-28.105,-0.099,0.920,-0.440,-1.312,-0.031,0.336,60.000,43106.000,1.000
-14.366,-22.277,-14.780,-14.364,-17.916,-6.124,-6.850,-23.407,-0.095,0.919,-0.444,-1.282,-0.183,0.427,60.000,43107.000,1.000
-7.987,-17.344,-13.202,-9.621,-12.825,-4.374,-3.145,-19.853,-0.097,0.920,-0.443,-1.282,-0.305,0.458,60.000,43108.000,1.000
-26.252,-24.625,-17.408,-14.237,-16.210,-7.697,-9.876,-20.789,-0.095,0.920,-0.441,-1.373,-0.397,0.427,60.000,43109.000,1.000
-45.511,-31.564,-18.594,-17.922,-18.127,-8.081,-12.701,-19.665,-0.093,0.921,-0.440,-1.404,-0.397,0.366,60.000,43110.000,1.000
-16.908,-12.011,-4.077,-3.740,-1.185,5.021,9.895,-6.872,-0.092,0.919,-0.442,-1.404,-0.610,0.427,60.000,43111.000,1.000
59.202,32.559,19.940,23.902,30.516,25.131,49.487,12.732,-0.090,0.918,-0.441,-1.434,-0.671,0.427,60.000,43112.000,1.000
98.569,54.710,25.172,32.190,42.651,27.108,59.552,17.542,-0.089,0.914,-0.439,-1.434,-0.763,0.549,60.000,43113.000,1.000
26.155,13.858,-4.029,-0.452,10.696,-1.860,9.852,-4.168,-0.088,0.908,-0.444,-1.495,-0.732,0.580,60.000,43114.000,1.000
-100.826,-56.123,-39.640,-44.212,-36.655,-35.978,-58.552,-30.690,-0.085,0.908,-0.443,-1.282,-0.763,0.549,60.000,43115.000,1.000
-131.335,-70.705,-35.868,-44.014,-41.245,-34.817,-67.691,-26.928,-0.084,0.908,-0.441,-1.068,-0.671,0.580,60.000,43116.000,1.000
-13.097,-2.761,9.909,7.535,8.904,3.247,-2.850,8.905,-0.085,0.910,-0.441,-0.977,-0.641,0.549,60.000,43117.000,1.000
121.224,71.843,47.080,52.521,56.583,33.505,59.341,37.597,-0.081,0.914,-0.440,-0.854,-0.610,0.671,60.000,43118.000,1.000
115.172,66.553,34.426,39.231,46.015,20.554,45.749,27.235,-0.079,0.917,-0.441,-0.702,-0.458,0.732,60.000,43119.000,1.000
-16.747,-8.251,-9.056,-13.296,-7.489,-17.995,-22.687,-7.207,-0.080,0.919,-0.442,-0.641,-0.427,0.671,60.000,43120.000,1.000
-119.831,-65.189,-32.280,-43.533,-41.352,-37.254,-64.512,-25.479,-0.084,0.920,-0.440,-0.824,-0.366,0.580,60.000,43121.000,1.000
-101.088,-53.382,-17.350,-26.213,-26.288,-22.260,-43.606,-12.981,-0.087,0.921,-0.439,-0.763,-0.214,0.610,60.000,43122.000,1.000
-25.867,-10.593,5.855,4.637,5.476,-0.028,-3.610,7.381,-0.090,0.920,-0.438,-0.732,-0.061,0.549,60.000,43123.000,1.000
-2.649,2.705,6.827,9.624,12.468,2.309,2.618,11.401,-0.093,0.920,-0.439,-0.854,-0.061,0.427,60.000,43124.000,1.000
-40.156,-17.637,-7.671,-6.985,-3.743,-9.303,-19.748,3.183,-0.094,0.920,-0.443,-0.824,-0.214,0.458,60.000,43125.000,1.000
-60.918,-28.522,-10.668,-13.299,-11.341,-11.086,-27.302,2.634,-0.096,0.918,-0.439,-0.824,-0.244,0.305,60.000,43126.000,1.000
-23.873,-7.959,4.893,1.897,2.826,3.331,-4.117,15.019,-0.093,0.918,-0.437,-0.824,-0.305,0.153,60.000,43127.000,1.000
25.176,18.230,19.791,17.741,19.027,17.436,21.011,25.964,-0.090,0.916,-0.438,-0.824,-0.336,0.031,60.000,43128.000,1.000
28.487,18.776,18.136,14.709,17.105,17.533,19.826,23.711,-0.090,0.916,-0.437,-0.824,-0.336,-0.122,60.000,43129.000,1.000
-7.384,-1.590,6.750,-0.406,2.888,9.286,0.444,13.674,-0.090,0.916,-0.439,-0.763,-0.458,-0.244,60.000,43130.000,1.000
-31.050,-13.979,2.159,-7.681,-3.748,6.490,-9.400,8.396,-0.089,0.915,-0.438,-0.824,-0.397,-0.305,60.000,43131.000,1.000
-17.595,-5.075,8.252,-0.961,3.696,12.198,-0.207,10.652,-0.091,0.915,-0.438,-0.763,-0.305,-0.336,60.000,43132.000,1.000
9.810,11.467,15.135,8.673,13.811,18.082,12.993,12.914,-0.089,0.912,-0.437,-0.702,-0.214,-0.397,60.000,43133.000,1.000
22.072,19.045,15.180,11.222,15.783,18.146,16.071,9.860,-0.089,0.912,-0.437,-0.671,-0.214,-0.458,60.000,43134.000,1.000
17.026,16.343,10.532,7.956,10.665,14.690,10.969,3.970,-0.088,0.911,-0.438,-0.641,-0.153,-0.549,60.000,43135.000,1.000
8.935,11.219,6.653,4.842,5.198,12.477,6.741,0.005,-0.090,0.909,-0.437,-0.580,-0.153,-0.580,60.000,43136.000,1.000
5.169,7.718,5.066,3.757,2.251,12.600,6.413,-1.039,-0.090,0.909,-0.438,-0.519,-0.275,-0.580,60.000,43137.000,1.000
5.166,5.751,4.728,3.562,1.066,13.794,7.883,-0.843,-0.091,0.914,-0.437,-0.427,-0.183,-0.671,60.000,43138.000,1.000
10.864,7.001,5.648,4.481,1.825,15.570,10.663,-0.452,-0.090,0.916,-0.438,-0.458,-0.275,-0.610,60.000,43139.000,1.000
21.662,11.746,6.967,5.974,3.978,16.704,13.737,-1.051,-0.093,0.919,-0.438,-0.580,-0.244,-0.488,60.000,43140.000,1.000
28.100,14.980,5.848,4.939,4.277,14.583,13.001,-4.537,-0.095,0.921,-0.440,-0.671,-0.214,-0.458,60.000,43141.000,1.000
22.430,12.241,1.363,-0.005,0.897,8.687,6.668,-10.731,-0.091,0.924,-0.440,-0.732,-0.244,-0.305,60.000,43142.000,1.000
13.634,8.145,-2.062,-4.020,-1.681,3.399,1.469,-15.192,-0.093,0.926,-0.441,-0.977,-0.214,-0.214,60.000,43143.000,1.000
19.543,12.161,0.908,-0.725,3.091,3.805,6.517,-13.094,-0.090,0.928,-0.435,-1.129,-0.183,-0.214,60.000,43144.000,1.000
39.159,23.345,8.120,7.694,13.265,8.112,18.963,-5.896,-0.090,0.928,-0.436,-1.312,-0.153,-0.031,60.000,43145.000,1.000
49.705,29.019,11.704,11.829,19.018,9.373,25.363,-0.088,-0.092,0.928,-0.436,-1.434,-0.275,0.061,60.000,43146.000,1.000
37.281,21.882,8.735,7.646,15.453,5.132,19.408,0.966,-0.092,0.930,-0.433,-1.678,-0.336,0.214,60.000,43147.000,1.000
18.965,11.859,5.855,2.919,9.965,1.445,11.419,0.965,-0.093,0.931,-0.435,-1.831,-0.244,0.275,60.000,43148.000,1.000
21.798,13.943,10.058,6.977,12.454,4.583,14.354,4.442,-0.094,0.931,-0.438,-2.014,-0.275,0.427,60.000,43149.000,1.000
42.571,25.873,17.293,16.229,20.191,10.956,23.598,8.566,-0.095,0.931,-0.439,-2.167,-0.275,0.549,60.000,43150.000,1.000
49.756,29.871,17.189,18.129,20.881,11.406,22.346,6.515,-0.094,0.932,-0.437,-2.533,-0.336,0.519,60.000,43151.000,1.000
27.701,17.610,7.866,8.851,10.467,4.157,6.108,-1.804,-0.095,0.932,-0.434,-2.594,-0.366,0.641,60.000,43152.000,1.000
1.452,3.590,-0.036,-0.122,0.541,-1.824,-8.347,-7.296,-0.096,0.933,-0.436,-2.686,-0.488,0.641,60.000,43153.000,1.000
5.000,6.797,3.242,3.299,3.787,1.535,-3.899,-2.437,-0.095,0.933,-0.433,-2.838,-0.580,0.732,60.000,43154.000,1.000
32.592,23.565,12.876,14.715,15.850,9.815,12.559,8.263,-0.097,0.931,-0.437,-2.930,-0.702,0.854,60.000,43155.000,1.000
45.252,31.839,15.980,19.296,20.724,12.085,18.757,13.785,-0.098,0.929,-0.437,-2.991,-0.946,0.793,60.000,43156.000,1.000
24.700,21.493,9.297,12.528,12.520,6.136,7.196,10.813,-0.097,0.931,-0.434,-2.930,-0.885,0.793,60.000,43157.000,1.000
-0.447,8.527,3.560,6.553,3.389,1.675,-4.735,7.326,-0.098,0.930,-0.436,-2.960,-1.099,0.793,60.000,43158.000,1.000
6.025,12.705,8.081,12.726,6.175,6.592,1.002,10.575,-0.096,0.930,-0.435,-2.991,-1.129,0.854,60.000,43159.000,1.000
34.483,27.981,16.346,23.888,15.020,14.772,16.706,15.835,-0.096,0.927,-0.436,-2.991,-1.190,0.854,60.000,43160.000,1.000
41.241,29.999,14.778,23.638,13.302,14.245,19.566,13.081,-0.096,0.927,-0.439,-3.021,-1.343,0.854,60.000,43161.000,1.000
10.206,10.701,2.337,9.802,-2.175,4.121,3.767,2.060,-0.096,0.926,-0.437,-2.869,-1.373,0.885,60.000,43162.000,1.000
-22.092,-8.612,-6.779,-1.052,-15.010,-3.495,-10.947,-5.740,-0.094,0.925,-0.438,-2.655,-1.373,0.793,60.000,43163.000,1.000
-14.505,-4.819,-1.837,4.803,-10.419,0.351,-6.111,-1.718,-0.096,0.921,-0.443,-2.350,-1.373,0.946,60.000,43164.000,1.000
20.363,14.743,9.176,18.901,3.949,8.688,9.016,7.902,-0.092,0.922,-0.443,-2.197,-1.556,0.916,60.000,43165.000,1.000
32.589,22.219,10.517,21.979,8.201,8.475,10.738,10.492,-0.093,0.923,-0.443,-1.892,-1.587,0.916,60.000,43166.000,1.000
4.097,7.736,0.373,10.271,-2.650,-0.930,-5.096,3.989,-0.091,0.923,-0.440,-1.678,-1.434,1.068,60.000,43167.000,1.000
-25.590,-7.029,-6.807,0.400,-12.136,-6.651,-16.507,-0.984,-0.090,0.921,-0.441,-1.373,-1.434,1.007,60.000,43168.000,1.000
-13.154,1.015,-0.462,6.293,-5.294,-0.172,-5.696,3.602,-0.090,0.918,-0.440,-0.946,-1.404,0.977,60.000,43169.000,1.000
26.590,22.687,10.630,19.066,9.600,9.859,14.370,11.263,-0.090,0.916,-0.440,-0.580,-1.404,0.885,60.000,43170.000,1.000
40.220,28.368,10.310,19.256,12.182,9.029,16.631,9.914,-0.091,0.916,-0.445,-0.183,-1.373,0.946,60.000,43171.000,1.000
9.316,8.879,-2.618,4.055,-1.706,-3.157,-3.177,-1.092,-0.090,0.912,-0.449,0.336,-1.343,1.007,60.000,43172.000,1.000
-24.272,-11.537,-12.638,-8.366,-14.014,-12.365,-20.353,-9.553,-0.092,0.907,-0.449,0.793,-1.221,0.763,60.000,43173.000,1.000
-15.621,-7.784,-8.609,-3.299,-8.855,-8.412,-14.080,-6.533,-0.089,0.908,-0.449,1.373,-1.190,0.732,60.000,43174.000,1.000
20.630,11.576,0.779,10.221,5.555,1.147,4.398,1.795,-0.088,0.905,-0.447,1.862,-1.038,0.641,60.000,43175.000,1.000
31.452,16.937,-0.367,12.460,8.901,2.166,8.643,3.494,-0.090,0.907,-0.448,2.319,-1.038,0.732,60.000,43176.000,1.000
-1.131,-1.438,-12.900,0.240,-2.943,-6.631,-5.778,-2.437,-0.087,0.908,-0.450,2.686,-0.885,0.641,60.000,43177.000,1.000
-36.447,-20.910,-21.670,-9.379,-12.652,-12.613,-15.612,-5.098,-0.088,0.910,-0.449,3.052,-0.824,0.488,60.000,43178.000,1.000
-31.458,-18.031,-16.540,-3.172,-5.631,-7.282,-2.902,2.490,-0.087,0.913,-0.447,3.357,-0.702,0.397,60.000,43179.000,1.000
-0.204,-1.169,-6.769,9.307,9.198,1.232,18.188,12.312,-0.086,0.911,-0.449,3.510,-0.610,0.305,60.000,43180.000,1.000
7.808,2.200,-7.928,9.241,11.755,-0.530,19.876,11.510,-0.085,0.910,-0.450,3.876,-0.458,0.214,60.000,43181.000,1.000
-23.208,-16.106,-20.619,-5.556,-2.186,-12.929,-2.170,-0.637,-0.087,0.907,-0.449,4.059,-0.275,0.092,60.000,43182.000,1.000
-55.085,-34.542,-30.194,-18.232,-16.477,-23.084,-23.913,-12.037,-0.086,0.906,-0.454,4.456,-0.244,-0.092,60.000,43183.000,1.000
-48.636,-31.661,-26.532,-15.768,-16.759,-21.956,-24.530,-13.332,-0.086,0.905,-0.453,4.608,-0.061,-0.214,60.000,43184.000,1.000
-17.188,-15.393,-17.217,-6.094,-9.049,-15.573,-12.112,-8.821,-0.085,0.906,-0.453,4.883,0.092,-0.336,60.000,43185.000,1.000
-5.800,-10.690,-16.005,-5.847,-9.153,-15.215,-8.830,-8.247,-0.085,0.906,-0.452,5.035,0.275,-0.488,60.000,43186.000,1.000
-29.004,-24.720,-24.035,-17.371,-19.576,-21.688,-19.397,-12.564,-0.084,0.909,-0.452,5.066,0.427,-0.488,60.000,43187.000,1.000
-53.402,-37.906,-29.172,-26.368,-26.146,-24.939,-26.276,-13.335,-0.083,0.908,-0.450,5.127,0.641,-0.641,60.000,43188.000,1.000
-44.786,-31.185,-22.978,-21.916,-17.831,-18.415,-15.507,-5.492,-0.085,0.910,-0.449,5.127,0.732,-0.702,60.000,43189.000,1.000
-14.859,-12.243,-12.328,-11.556,-2.807,-8.796,2.528,4.388,-0.085,0.909,-0.451,5.066,0.854,-0.732,60.000,43190.000,1.000
-2.152,-3.762,-9.172,-9.967,2.440,-6.843,7.383,6.576,-0.083,0.910,-0.451,4.974,1.068,-0.824,60.000,43191.000,1.000
-18.648,-12.585,-14.199,-18.687,-5.340,-12.998,-4.141,0.785,-0.085,0.909,-0.453,4.761,1.190,-0.824,60.000,43192.000,1.000
-36.626,-22.669,-16.960,-24.975,-13.506,-17.535,-15.329,-4.263,-0.085,0.911,-0.451,4.639,1.282,-0.793,60.000,43193.000,1.000
-28.583,-18.394,-10.729,-19.708,-11.390,-13.887,-12.618,-2.562,-0.086,0.911,-0.453,4.425,1.373,-0.793,60.000,43194.000,1.000
-4.771,-5.863,-1.696,-9.890,-4.342,-7.134,-3.153,1.856,-0.087,0.913,-0.453,4.242,1.404,-0.885,60.000,43195.000,1.000
4.035,-2.505,0.507,-8.241,-4.614,-5.781,-2.542,1.705,-0.089,0.914,-0.450,3.998,1.434,-0.854,60.000,43196.000,1.000
-10.171,-12.192,-3.714,-15.906,-13.736,-9.752,-12.554,-3.438,-0.090,0.914,-0.450,3.784,1.495,-0.854,60.000,43197.000,1.000
-23.605,-20.581,-4.836,-21.782,-20.703,-11.129,-19.489,-7.317,-0.089,0.914,-0.449,3.418,1.373,-0.793,60.000,43198.000,1.000
-14.057,-14.817,2.923,-17.675,-16.846,-5.474,-13.009,-5.993,-0.094,0.915,-0.452,3.082,1.343,-0.641,60.000,43199.000,1.000
8.628,-1.126,13.726,-9.037,-7.479,1.600,-0.124,-3.409,-0.095,0.916,-0.452,2.777,1.282,-0.549,60.000,43200.000,1.000
17.639,4.248,18.022,-6.480,-4.038,2.228,5.270,-5.499,-0.095,0.915,-0.451,2.533,1.282,-0.427,60.000,43201.000,1.000
5.145,-3.818,14.023,-11.487,-9.124,-3.264,0.482,-11.863,-0.097,0.917,-0.449,2.258,1.190,-0.458,60.000,43202.000,1.000
-9.919,-14.416,8.085,-15.474,-14.525,-7.115,-4.489,-16.273,-0.100,0.917,-0.452,1.923,1.007,-0.427,60.000,43203.000,1.000
-8.036,-15.532,5.589,-11.602,-12.788,-4.003,-1.358,-14.715,-0.099,0.921,-0.453,1.526,0.854,-0.305,60.000,43204.000,1.000
5.791,-9.016,4.619,-3.677,-6.823,2.561,5.312,-10.502,-0.101,0.921,-0.454,1.251,0.580,-0.153,60.000,43205.000,1.000
12.725,-5.033,1.368,0.294,-4.157,6.106,6.333,-9.119,-0.101,0.922,-0.455,1.007,0.336,-0.214,60.000,43206.000,1.000
7.248,-6.589,-2.377,-0.916,-5.967,5.827,1.589,-10.928,-0.101,0.921,-0.452,0.580,0.092,-0.061,60.000,43207.000,1.000
2.509,-6.427,-0.943,-1.362,-6.364,6.387,-0.319,-11.535,-0.102,0.924,-0.453,0.305,-0.092,0.153,60.000,43208.000,1.000
10.460,1.500,7.307,3.070,-1.251,10.624,5.670,-8.340,-0.103,0.924,-0.451,0.000,-0.336,0.183,60.000,43209.000,1.000
23.583,11.713,16.296,8.392,5.111,14.989,13.013,-4.610,-0.104,0.926,-0.456,-0.244,-0.549,0.336,60.000,43210.000,1.000
25.695,14.027,19.138,8.401,5.876,14.628,12.461,-4.888,-0.105,0.924,-0.454,-0.519,-0.763,0.397,60.000,43211.000,1.000
14.846,7.214,16.010,3.474,0.887,10.053,4.814,-8.768,-0.107,0.923,-0.456,-0.763,-1.160,0.397,60.000,43212.000,1.000
6.211,0.679,12.975,0.145,-3.241,6.357,-0.023,-11.476,-0.108,0.924,-0.458,-0.793,-1.373,0.488,60.000,43213.000,1.000
12.429,2.743,14.186,2.744,-1.522,6.809,4.304,-9.913,-0.106,0.922,-0.458,-0.916,-1.617,0.580,60.000,43214.000,1.000
25.513,9.669,16.777,7.454,2.795,8.693,11.608,-6.648,-0.105,0.922,-0.455,-1.160,-1.831,0.702,60.000,43215.000,1.000
27.807,11.638,15.797,7.960,3.343,7.766,11.680,-5.898,-0.105,0.922,-0.454,-1.343,-2.045,0.793,60.000,43216.000,1.000
16.139,6.576,11.444,4.232,-0.224,4.464,4.114,-7.558,-0.104,0.919,-0.454,-1.465,-2.350,0.793,60.000,43217.000,1.000
5.765,2.622,8.652,2.280,-1.866,3.151,-1.387,-7.496,-0.104,0.917,-0.452,-1.556,-2.533,0.824,60.000,43218.000,1.000
10.269,7.107,10.346,5.911,2.640,6.036,2.213,-3.278,-0.101,0.917,-0.455,-1.648,-2.777,0.885,60.000,43219.000,1.000
22.368,15.882,13.038,10.953,9.379,9.668,9.379,2.131,-0.100,0.917,-0.450,-1.801,-2.869,0.946,60.000,43220.000,1.000
24.026,18.813,11.682,10.895,11.517,9.620,9.832,4.269,-0.098,0.916,-0.451,-1.740,-2.991,0.885,60.000,43221.000,1.000
10.574,13.015,6.345,5.495,8.114,6.126,2.255,2.682,-0.097,0.915,-0.451,-1.740,-3.143,0.977,60.000,43222.000,1.000
-4.089,5.850,1.781,0.902,4.753,3.267,-4.572,1.062,-0.095,0.913,-0.451,-1.740,-3.204,0.824,60.000,43223.000,1.000
-5.770,5.141,1.241,2.055,6.271,3.630,-3.188,2.613,-0.092,0.914,-0.453,-1.709,-3.204,0.793,60.000,43224.000,1.000
0.993,8.649,1.975,6.394,10.267,4.761,2.579,6.083,-0.093,0.916,-0.454,-1.587,-3.265,0.824,60.000,43225.000,1.000
0.826,8.323,-0.571,8.030,11.063,2.947,3.703,8.264,-0.090,0.918,-0.453,-1.648,-3.296,0.885,60.000,43226.000,1.000
-10.798,2.090,-6.360,5.659,7.868,-1.528,-1.771,8.754,-0.090,0.918,-0.451,-1.678,-3.204,0.824,60.000,43227.000,1.000
-22.389,-3.663,-10.995,3.354,5.577,-4.860,-7.185,10.183,-0.088,0.919,-0.449,-1.678,-3.021,0.885,60.000,43228.000,1.000
-21.824,-2.753,-11.440,4.498,8.085,-4.521,-6.383,14.322,-0.087,0.917,-0.450,-1.678,-2.960,0.671,60.000,43229.000,1.000
-12.777,2.030,-10.014,6.792,12.666,-2.485,-1.672,19.172,-0.081,0.915,-0.449,-1.678,-2.716,0.732,60.000,43230.000,1.000
-8.325,3.203,-10.534,6.004,13.914,-2.041,0.675,21.586,-0.082,0.914,-0.452,-1.678,-2.563,0.793,60.000,43231.000,1.000
-13.155,-1.255,-13.013,2.010,10.795,-3.492,-1.185,21.107,-0.082,0.913,-0.450,-1.648,-2.472,0.580,60.000,43232.000,1.000
-19.263,-6.031,-14.129,-1.384,7.163,-4.426,-3.921,19.764,-0.085,0.912,-0.450,-1.587,-2.228,0.580,60.000,43233.000,1.000
-17.510,-5.616,-11.789,-1.468,6.421,-3.228,-4.462,18.873,-0.086,0.913,-0.450,-1.526,-2.045,0.488,60.000,43234.000,1.000
-10.195,-1.433,-8.178,-0.246,7.033,-1.512,-4.593,17.067,-0.085,0.915,-0.450,-1.373,-1.831,0.458,60.000,43235.000,1.000
-6.074,1.306,-6.600,-1.062,5.551,-1.549,-7.331,12.813,-0.085,0.916,-0.451,-1.312,-1.678,0.336,60.000,43236.000,1.000
-7.970,0.573,-7.490,-4.107,1.562,-3.326,-12.118,7.068,-0.085,0.917,-0.450,-1.160,-1.312,0.366,60.000,43237.000,1.000
-10.612,-1.321,-8.632,-6.781,-2.265,-5.144,-15.823,2.384,-0.084,0.912,-0.452,-1.160,-1.129,0.244,60.000,43238.000,1.000
-8.205,-1.497,-7.957,-6.991,-3.537,-5.696,-16.243,0.328,-0.085,0.912,-0.450,-1.099,-1.038,0.061,60.000,43239.000,1.000
-2.852,-0.741,-5.957,-5.816,-3.128,-5.496,-14.573,0.021,-0.087,0.910,-0.452,-0.916,-0.824,0.153,60.000,43240.000,1.000
-0.605,-1.451,-4.150,-5.405,-3.276,-5.407,-12.877,-0.062,-0.086,0.908,-0.456,-0.793,-0.549,0.183,60.000,43241.000,1.000
-2.768,-3.576,-2.920,-6.052,-4.509,-5.241,-11.424,-0.432,-0.088,0.906,-0.455,-0.519,-0.427,0.153,60.000,43242.000,1.000
-5.336,-4.980,-1.857,-6.605,-5.858,-4.499,-9.508,-1.142,-0.087,0.906,-0.451,-0.366,-0.244,0.183,60.000,43243.000,1.000
-4.786,-4.454,-1.054,-6.463,-6.804,-3.411,-6.965,-2.507,-0.087,0.906,-0.448,-0.214,-0.061,0.214,60.000,43244.000,1.000
-3.620,-3.964,-1.742,-6.748,-8.524,-3.166,-5.185,-4.962,-0.090,0.907,-0.450,-0.122,0.031,0.244,60.000,43245.000,1.000
-5.981,-5.667,-4.285,-8.079,-11.634,-4.053,-4.770,-7.817,-0.091,0.909,-0.453,0.000,0.092,0.244,60.000,43246.000,1.000
-11.429,-8.944,-7.106,-9.134,-14.616,-4.734,-4.267,-9.520,-0.094,0.910,-0.452,0.183,0.183,0.275,60.000,43247.000,1.000
-15.914,-11.542,-8.222,-8.216,-15.416,-3.813,-2.132,-9.259,-0.096,0.909,-0.452,0.275,0.275,0.122,60.000,43248.000,1.000
-15.969,-11.652,-6.928,-4.988,-13.236,-1.178,1.700,-7.610,-0.096,0.908,-0.452,0.336,0.153,0.244,60.000,43249.000,1.000
-12.979,-9.909,-4.634,-1.292,-9.464,1.652,5.052,-6.319,-0.097,0.908,-0.450,0.458,0.092,0.305,60.000,43250.000,1.000
-10.409,-8.012,-3.075,0.826,-5.950,3.319,6.051,-6.558,-0.097,0.909,-0.451,0.580,0.061,0.305,60.000,43251.000,1.000
-9.452,-6.697,-2.728,0.851,-3.458,3.773,5.186,-7.877,-0.098,0.910,-0.449,0.702,0.122,0.366,60.000,43252.000,1.000
-9.264,-5.871,-3.083,-0.530,-1.961,3.655,4.238,-8.942,-0.096,0.911,-0.448,0.854,0.000,0.336,60.000,43253.000,1.000
-8.289,-4.957,-3.246,-2.022,-0.915,3.672,4.699,-8.594,-0.095,0.910,-0.453,0.854,-0.061,0.397,60.000,43254.000,1.000
-6.496,-3.959,-2.882,-2.831,-0.046,3.820,6.058,-6.781,-0.096,0.911,-0.449,0.793,-0.092,0.458,60.000,43255.000,1.000
-4.215,-2.954,-1.887,-2.568,0.815,3.729,6.982,-4.090,-0.094,0.913,-0.446,0.763,-0.153,0.580,60.000,43256.000,1.000
-1.621,-2.018,-0.417,-1.389,1.556,2.855,6.684,-1.241,-0.094,0.914,-0.449,0.763,-0.122,0.519,60.000,43257.000,1.000
-0.120,-1.910,0.849,-0.271,1.503,0.667,5.145,1.078,-0.094,0.914,-0.447,0.702,-0.183,0.580,60.000,43258.000,1.000
-0.433,-2.706,1.698,0.245,0.723,-2.282,3.568,2.758,-0.091,0.916,-0.450,0.641,-0.092,0.519,60.000,43259.000,1.000
-1.812,-3.473,2.463,0.391,0.132,-4.715,2.627,3.941,-0.090,0.920,-0.450,0.610,-0.153,0.671,60.000,43260.000,1.000
-1.830,-2.580,3.813,1.080,0.961,-5.469,2.137,4.913,-0.092,0.922,-0.449,0.488,-0.092,0.763,60.000,43261.000,1.000
1.375,0.787,5.903,2.880,3.624,-4.542,1.788,5.851,-0.092,0.919,-0.449,0.214,-0.092,0.580,60.000,43262.000,1.000
6.337,5.144,7.873,5.050,6.888,-3.348,1.303,6.462,-0.088,0.917,-0.449,0.122,0.092,0.580,60.000,43263.000,1.000
10.329,8.290,8.952,6.516,9.115,-3.191,0.992,6.530,-0.087,0.915,-0.451,-0.061,0.092,0.580,60.000,43264.000,1.000
11.340,8.907,9.003,6.669,9.370,-4.323,0.950,6.295,-0.088,0.914,-0.452,-0.244,0.183,0.519,60.000,43265.000,1.000
10.170,7.870,8.886,6.213,8.427,-5.605,1.345,6.780,-0.089,0.914,-0.452,-0.214,0.336,0.427,60.000,43266.000,1.000
9.633,7.323,9.682,6.549,8.080,-5.504,2.450,8.890,-0.088,0.914,-0.453,-0.397,0.336,0.427,60.000,43267.000,1.000
11.232,8.354,11.521,8.255,9.341,-3.468,3.919,12.147,-0.088,0.915,-0.451,-0.519,0.488,0.336,60.000,43268.000,1.000
14.543,10.687,13.700,10.911,11.982,-0.008,5.202,15.074,-0.088,0.917,-0.451,-0.671,0.549,0.183,60.000,43269.000,1.000
16.796,12.615,14.885,13.081,14.355,3.403,5.330,16.135,-0.088,0.916,-0.453,-0.763,0.580,0.061,60.000,43270.000,1.000
16.162,12.989,14.450,13.742,14.992,5.713,4.348,15.101,-0.090,0.915,-0.451,-0.824,0.580,-0.061,60.000,43271.000,1.000
14.624,12.820,13.114,13.337,14.041,7.232,3.853,13.273,-0.091,0.914,-0.455,-1.007,0.610,-0.183,60.000,43272.000,1.000
15.310,13.642,11.841,12.840,12.434,8.713,4.928,12.059,-0.091,0.914,-0.453,-1.038,0.732,-0.275,60.000,43273.000,1.000
18.198,15.152,10.613,12.307,10.301,9.983,6.712,11.468,-0.094,0.915,-0.454,-1.068,0.793,-0.366,60.000,43274.000,1.000
17.461,13.905,7.766,9.855,5.842,9.285,6.212,9.640,-0.094,0.912,-0.447,-1.068,0.641,-0.458,60.000,43275.000,1.000
8.554,7.395,2.446,4.354,-1.948,5.688,2.188,5.233,-0.093,0.913,-0.450,-1.099,0.641,-0.519,60.000,43276.000,1.000
-2.818,-1.005,-2.926,-1.582,-10.103,1.363,-1.847,-0.317,-0.093,0.912,-0.449,-1.129,0.610,-0.610,60.000,43277.000,1.000
-4.164,-4.126,-4.461,-3.431,-13.544,-0.140,-0.830,-4.047,-0.094,0.911,-0.449,-1.160,0.580,-0.580,60.000,43278.000,1.000
7.953,0.060,-1.974,-0.698,-11.389,1.432,4.769,-5.561,-0.097,0.912,-0.446,-1.221,0.549,-0.702,60.000,43279.000,1.000
13.014,0.170,-2.547,-1.490,-12.067,-0.057,3.894,-9.923,-0.096,0.912,-0.448,-1.312,0.427,-0.610,60.000,43280.000,1.000
-17.681,-19.386,-13.561,-14.937,-25.767,-10.797,-15.188,-22.233,-0.097,0.913,-0.448,-1.282,0.305,-0.519,60.000,43281.000,1.000
-77.324,-53.928,-29.679,-35.444,-47.606,-25.652,-44.616,-37.608,-0.100,0.912,-0.449,-1.312,0.244,-0.488,60.000,43282.000,1.000
-108.299,-70.713,-32.472,-40.926,-54.598,-28.271,-54.313,-41.330,-0.102,0.917,-0.448,-1.312,0.092,-0.366,60.000,43283.000,1.000
-57.363,-40.577,-10.501,-16.184,-29.346,-8.955,-22.580,-24.694,-0.103,0.917,-0.447,-1.434,-0.122,-0.336,60.000,43284.000,1.000
49.590,20.640,21.650,22.828,13.436,19.036,30.483,0.473,-0.103,0.919,-0.447,-1.495,-0.183,-0.336,60.000,43285.000,1.000
120.593,60.903,35.647,41.302,37.439,30.794,58.004,11.492,-0.104,0.923,-0.448,-1.434,-0.397,-0.305,60.000,43286.000,1.000
102.237,51.091,23.101,26.150,26.491,19.249,41.154,1.158,-0.104,0.924,-0.450,-1.526,-0.549,-0.214,60.000,43287.000,1.000
48.807,22.486,7.883,4.205,5.946,5.483,15.249,-12.095,-0.101,0.924,-0.450,-1.648,-0.854,-0.153,60.000,43288.000,1.000
55.209,27.996,16.361,9.318,11.311,12.580,25.954,-6.850,-0.099,0.921,-0.449,-1.709,-1.038,0.092,60.000,43289.000,1.000
124.330,68.185,39.594,35.143,38.698,33.025,64.362,11.370,-0.097,0.917,-0.449,-1.740,-1.099,0.275,60.000,43290.000,1.000
151.751,84.180,41.569,40.007,46.273,36.185,72.832,15.269,-0.094,0.912,-0.450,-1.740,-1.221,0.458,60.000,43291.000,1.000
63.295,35.206,7.348,2.887,10.475,9.578,21.788,-7.314,-0.093,0.909,-0.449,-1.526,-1.312,0.549,60.000,43292.000,1.000
-76.895,-42.191,-33.555,-44.617,-38.365,-21.934,-45.567,-34.691,-0.094,0.908,-0.450,-1.312,-1.312,0.671,60.000,43293.000,1.000
-137.374,-75.004,-41.719,-55.205,-50.955,-26.246,-63.589,-37.316,-0.094,0.908,-0.448,-1.190,-1.434,0.824,60.000,43294.000,1.000
-78.968,-42.288,-15.541,-23.735,-19.366,-3.906,-24.630,-14.228,-0.095,0.909,-0.449,-1.007,-1.404,0.946,60.000,43295.000,1.000
7.474,5.285,10.332,10.215,16.836,14.996,16.663,8.165,-0.095,0.910,-0.447,-0.946,-1.495,1.068,60.000,43296.000,1.000
22.830,13.588,9.553,13.633,22.010,9.513,14.704,10.154,-0.092,0.915,-0.445,-0.977,-1.587,1.221,60.000,43297.000,1.000
-27.064,-13.200,-8.041,-4.044,3.723,-9.548,-16.396,-0.116,-0.093,0.916,-0.445,-0.977,-1.740,1.343,60.000,43298.000,1.000
-61.249,-30.454,-15.904,-11.276,-5.351,-17.876,-30.835,-2.094,-0.093,0.916,-0.448,-1.038,-1.617,1.434,60.000,43299.000,1.000
-37.181,-15.941,-6.308,2.566,7.961,-8.668,-12.061,9.565,-0.096,0.918,-0.445,-1.038,-1.709,1.434,60.000,43300.000,1.000
6.685,8.137,4.792,18.673,25.708,3.543,13.834,21.569,-0.099,0.917,-0.444,-1.038,-1.953,1.343,60.000,43301.000,1.000
14.566,11.329,2.397,17.541,26.813,4.556,17.727,21.727,-0.103,0.919,-0.444,-1.007,-2.197,1.282,60.000,43302.000,1.000
-16.926,-7.172,-9.664,2.355,12.400,-3.608,1.196,13.094,-0.105,0.915,-0.447,-0.946,-2.350,1.221,60.000,43303.000,1.000
-44.668,-22.884,-16.574,-8.640,0.122,-8.931,-12.269,7.495,-0.109,0.910,-0.445,-0.977,-2.563,1.007,60.000,43304.000,1.000
-37.120,-18.580,-11.527,-5.418,0.859,-5.522,-8.770,10.420,-0.110,0.910,-0.442,-0.946,-2.869,0.916,60.000,43305.000,1.000
-5.598,-1.260,-1.305,5.157,8.819,1.389,3.545,16.697,-0.108,0.907,-0.446,-0.885,-3.204,0.702,60.000,43306.000,1.000
16.241,9.884,3.456,10.012,11.508,3.372,8.190,18.189,-0.103,0.908,-0.443,-0.702,-3.510,0.549,60.000,43307.000,1.000
8.647,4.097,-1.016,3.554,3.549,-2.311,-1.898,12.290,-0.101,0.906,-0.444,-0.610,-3.754,0.488,60.000,43308.000,1.000
-18.249,-12.203,-9.388,-8.292,-8.906,-10.659,-18.762,3.756,-0.098,0.907,-0.446,-0.641,-3.784,0.336,60.000,43309.000,1.000
-37.532,-23.401,-13.368,-14.966,-14.927,-14.055,-27.847,-0.410,-0.094,0.912,-0.446,-0.580,-3.845,0.275,60.000,43310.000,1.000
-30.138,-18.704,-9.231,-10.856,-8.669,-9.023,-20.959,2.580,-0.091,0.917,-0.449,-0.641,-3.784,0.244,60.000,43311.000,1.000
-3.742,-2.516,-1.802,-0.882,4.513,0.032,-5.098,8.277,-0.091,0.917,-0.448,-0.610,-3.754,0.336,60.000,43312.000,1.000
11.711,8.139,-0.514,3.452,11.760,4.464,2.505,8.768,-0.088,0.919,-0.449,-0.732,-3.662,0.244,60.000,43313.000,1.000
-3.326,1.850,-8.606,-3.167,6.195,1.073,-6.540,1.463,-0.086,0.919,-0.452,-0.793,-3.540,0.397,60.000,43314.000,1.000
-31.759,-12.443,-17.738,-12.455,-4.407,-3.492,-20.121,-6.770,-0.084,0.920,-0.449,-0.854,-3.357,0.458,60.000,43315.000,1.000
-35.452,-13.901,-16.177,-11.046,-5.673,-0.049,-17.920,-6.316,-0.081,0.921,-0.443,-0.854,-3.021,0.488,60.000,43316.000,1.000
-2.748,3.798,-3.577,2.118,5.017,10.876,2.667,3.217,-0.081,0.920,-0.442,-0.763,-2.716,0.610,60.000,43317.000,1.000
31.526,21.396,6.842,12.071,13.303,17.969,20.166,10.957,-0.082,0.919,-0.447,-0.824,-2.441,0.793,60.000,43318.000,1.000
28.216,17.767,4.626,6.376,6.108,13.235,15.357,7.670,-0.081,0.919,-0.449,-1.160,-2.106,0.824,60.000,43319.000,1.000
-4.437,-1.572,-4.284,-7.822,-10.104,2.813,-3.542,-2.730,-0.078,0.918,-0.451,-1.160,-1.923,0.793,60.000,43320.000,1.000
-19.015,-9.855,-5.120,-11.644,-16.019,-0.279,-10.516,-8.374,-0.079,0.919,-0.450,-1.099,-1.801,0.824,60.000,43321.000,1.000
8.248,5.660,5.503,0.804,-4.535,6.685,3.990,-5.308,-0.077,0.918,-0.451,-1.099,-1.465,0.885,60.000,43322.000,1.000
43.059,25.412,14.047,13.662,9.000,12.057,19.687,-2.468,-0.079,0.917,-0.450,-1.038,-1.068,1.007,60.000,43323.000,1.000
38.298,23.640,8.284,10.323,7.122,5.880,14.395,-8.177,-0.078,0.917,-0.446,-1.007,-0.763,1.007,60.000,43324.000,1.000
-1.764,3.512,-5.528,-4.090,-6.180,-5.754,-5.002,-17.221,-0.078,0.916,-0.448,-1.068,-0.244,0.946,60.000,43325.000,1.000
-24.741,-6.066,-9.828,-8.998,-10.316,-7.635,-10.572,-16.681,-0.079,0.913,-0.445,-1.068,0.061,1.068,60.000,43326.000,1.000
-0.217,10.424,0.837,3.631,3.679,4.180,8.499,-3.913,-0.079,0.913,-0.443,-1.038,0.458,1.007,60.000,43327.000,1.000
37.062,32.417,11.709,17.360,19.531,15.962,29.245,7.899,-0.079,0.913,-0.444,-1.038,0.824,0.916,60.000,43328.000,1.000
33.519,30.147,7.558,13.252,16.929,14.006,24.797,5.863,-0.075,0.913,-0.450,-0.946,1.038,0.977,60.000,43329.000,1.000
-10.149,4.798,-6.778,-4.400,-1.315,2.363,0.027,-6.178,-0.078,0.912,-0.449,-0.854,1.221,0.946,60.000,43330.000,1.000
-37.634,-11.866,-12.603,-13.128,-12.575,-2.824,-14.394,-12.684,-0.077,0.911,-0.451,-0.702,1.617,0.854,60.000,43331.000,1.000
-12.676,0.252,-2.757,-2.410,-4.716,4.677,-2.635,-6.866,-0.079,0.910,-0.450,-0.732,1.923,0.793,60.000,43332.000,1.000
29.559,21.657,8.231,11.718,7.351,12.542,15.243,0.872,-0.078,0.908,-0.446,-0.610,2.106,0.671,60.000,43333.000,1.000
29.729,19.927,4.401,8.942,2.828,7.357,11.765,-1.700,-0.079,0.908,-0.448,-0.549,2.411,0.580,60.000,43334.000,1.000
-12.734,-4.750,-8.686,-6.511,-14.999,-5.752,-9.038,-10.910,-0.083,0.907,-0.451,-0.458,2.594,0.458,60.000,43335.000,1.000
-34.577,-17.690,-10.103,-10.359,-21.427,-8.612,-15.481,-11.472,-0.082,0.908,-0.448,-0.427,2.777,0.366,60.000,43336.000,1.000
2.840,1.153,6.575,6.770,-5.480,4.202,5.929,1.145,-0.083,0.906,-0.449,-0.366,2.777,0.275,60.000,43337.000,1.000
47.706,22.073,19.955,20.996,9.452,14.205,24.114,10.577,-0.084,0.903,-0.448,-0.214,2.899,0.214,60.000,43338.000,1.000
18.309,0.743,7.562,4.701,-6.052,2.528,1.587,-0.116,-0.086,0.903,-0.448,-0.122,3.082,0.153,60.000,43339.000,1.000
-75.264,-54.766,-19.382,-30.662,-42.486,-20.456,-47.047,-21.730,-0.088,0.905,-0.446,0.031,3.082,0.031,60.000,43340.000,1.000
-118.878,-79.471,-23.874,-40.423,-54.301,-23.001,-61.206,-25.176,-0.090,0.904,-0.448,0.153,3.143,-0.031,60.000,43341.000,1.000
-39.654,-33.707,7.240,-5.439,-19.273,4.943,-13.631,-0.215,-0.092,0.903,-0.449,0.305,2.899,-0.153,60.000,43342.000,1.000
79.583,34.359,39.275,34.879,24.337,32.239,42.992,25.897,-0.095,0.905,-0.448,0.397,2.808,-0.305,60.000,43343.000,1.000
97.366,45.008,32.944,30.836,24.107,25.131,40.136,22.152,-0.097,0.905,-0.447,0.610,2.655,-0.366,60.000,43344.000,1.000
7.278,-4.710,-0.389,-8.436,-13.929,-5.432,-11.526,-3.085,-0.099,0.908,-0.449,0.732,2.411,-0.397,60.000,43345.000,1.000
-40.674,-30.642,-9.934,-22.418,-28.259,-14.910,-29.713,-10.466,-0.099,0.911,-0.449,0.702,2.258,-0.397,60.000,43346.000,1.000
56.447,23.791,24.692,18.004,14.284,13.956,27.227,16.448,-0.101,0.914,-0.448,0.641,1.984,-0.488,60.000,43347.000,1.000
197.296,101.041,60.203,64.414,66.642,43.309,94.676,45.023,-0.101,0.919,-0.447,0.641,1.770,-0.458,60.000,43348.000,1.000
198.511,99.618,44.994,52.041,60.100,28.981,82.714,35.473,-0.101,0.922,-0.448,0.549,1.495,-0.458,60.000,43349.000,1.000
35.566,7.942,-11.795,-14.046,-4.963,-20.303,-4.804,-5.985,-0.102,0.926,-0.445,0.458,1.160,-0.458,60.000,43350.000,1.000
-125.819,-80.670,-51.879,-65.449,-59.854,-54.119,-75.364,-35.499,-0.101,0.927,-0.448,0.275,0.946,-0.458,60.000,43351.000,1.000
-142.333,-87.662,-41.988,-57.842,-55.649,-44.593,-66.162,-28.109,-0.100,0.929,-0.446,0.092,0.610,-0.214,60.000,43352.000,1.000
-56.558,-38.672,-9.643,-19.802,-17.918,-16.259,-13.894,-4.948,-0.101,0.933,-0.444,-0.153,0.336,-0.031,60.000,43353.000,1.000
-8.054,-11.786,1.188,-4.673,-1.652,-6.903,8.201,0.835,-0.099,0.932,-0.445,-0.427,0.000,-0.031,60.000,43354.000,1.000
-43.851,-31.984,-13.828,-21.278,-18.717,-19.607,-14.256,-13.319,-0.100,0.934,-0.445,-0.610,-0.092,-0.031,60.000,43355.000,1.000
-83.024,-53.316,-23.625,-33.792,-33.301,-27.510,-33.715,-23.175,-0.101,0.932,-0.443,-0.854,-0.336,0.031,60.000,43356.000,1.000
-52.834,-35.936,-10.465,-18.905,-19.379,-16.151,-17.276,-15.020,-0.103,0.931,-0.440,-1.068,-0.610,0.031,60.000,43357.000,1.000
10.533,-1.214,7.783,3.850,5.011,-1.854,10.400,-2.481,-0.103,0.929,-0.441,-1.312,-0.946,0.000,60.000,43358.000,1.000
25.357,5.375,7.273,4.768,8.586,-5.090,9.411,-3.818,-0.104,0.928,-0.442,-1.556,-1.251,0.061,60.000,43359.000,1.000
-20.729,-21.643,-8.860,-14.739,-9.567,-21.908,-19.383,-16.584,-0.106,0.926,-0.442,-1.801,-1.587,0.153,60.000,43360.000,1.000
-62.668,-44.790,-17.705,-27.408,-22.530,-31.084,-39.896,-23.093,-0.106,0.922,-0.446,-1.801,-1.862,0.153,60.000,43361.000,1.000
-50.622,-36.363,-8.382,-17.987,-13.704,-22.588,-30.896,-15.086,-0.106,0.922,-0.444,-1.831,-2.197,0.214,60.000,43362.000,1.000
-8.023,-10.220,6.610,0.252,4.456,-7.583,-8.873,-2.604,-0.104,0.921,-0.445,-1.770,-2.502,0.244,60.000,43363.000,1.000
13.243,4.273,11.596,7.810,11.927,-0.426,0.685,1.797,-0.100,0.923,-0.446,-1.709,-2.747,0.183,60.000,43364.000,1.000
-0.071,-0.373,6.514,2.871,6.290,-1.877,-5.153,-1.961,-0.097,0.923,-0.446,-1.495,-2.930,0.244,60.000,43365.000,1.000
-19.228,-8.507,2.229,-2.113,0.437,-2.933,-10.608,-4.967,-0.095,0.924,-0.447,-1.526,-3.021,0.214,60.000,43366.000,1.000
-20.026,-7.250,4.416,0.508,2.941,1.084,-5.785,-2.273,-0.094,0.922,-0.446,-1.495,-3.113,0.244,60.000,43367.000,1.000
-8.534,-0.267,8.849,6.535,9.704,6.365,3.815,2.959,-0.094,0.924,-0.443,-1.465,-3.174,0.244,60.000,43368.000,1.000
-1.038,3.725,10.401,9.839,13.741,8.635,10.022,6.373,-0.097,0.922,-0.442,-1.404,-3.204,0.183,60.000,43369.000,1.000
-2.840,2.374,8.614,9.504,13.287,7.923,11.209,7.129,-0.098,0.920,-0.443,-1.343,-3.204,0.031,60.000,43370.000,1.000
-10.341,-1.882,5.395,7.459,10.125,6.137,9.364,6.450,-0.100,0.918,-0.446,-1.343,-3.357,0.061,60.000,43371.000,1.000
-19.355,-6.494,2.360,5.126,6.252,4.536,6.273,5.529,-0.100,0.915,-0.445,-1.221,-3.448,0.092,60.000,43372.000,1.000
-24.018,-8.133,1.540,4.328,4.446,4.473,4.953,5.836,-0.099,0.913,-0.444,-1.038,-3.448,0.000,60.000,43373.000,1.000
-15.994,-2.367,5.099,7.628,8.119,7.359,9.432,8.872,-0.097,0.911,-0.446,-1.007,-3.479,-0.122,60.000,43374.000,1.000
1.760,8.533,10.725,13.164,15.561,10.944,16.873,12.882,-0.094,0.910,-0.445,-0.946,-3.510,-0.183,60.000,43375.000,1.000
10.670,13.540,11.855,14.114,19.123,9.927,17.089,13.207,-0.092,0.906,-0.447,-0.671,-3.448,-0.275,60.000,43376.000,1.000
-1.565,5.632,5.777,7.446,14.523,2.928,5.552,8.371,-0.092,0.905,-0.445,-0.397,-3.326,-0.427,60.000,43377.000,1.000
-20.296,-6.504,-1.239,0.160,8.150,-3.773,-7.423,3.666,-0.093,0.900,-0.444,0.000,-3.174,-0.366,60.000,43378.000,1.000
-17.959,-6.602,-0.648,1.986,10.331,-2.659,-6.769,5.697,-0.094,0.899,-0.445,0.183,-3.113,-0.366,60.000,43379.000,1.000
6.677,6.652,6.159,11.067,20.208,4.480,6.541,13.029,-0.092,0.899,-0.445,0.336,-3.021,-0.610,60.000,43380.000,1.000
22.159,15.766,8.804,14.648,25.028,7.859,14.823,17.041,-0.091,0.900,-0.447,0.641,-2.777,-0.702,60.000,43381.000,1.000
6.248,8.018,2.217,6.224,17.237,2.467,6.730,13.088,-0.093,0.901,-0.450,0.824,-2.625,-0.702,60.000,43382.000,1.000
-21.117,-6.079,-5.806,-4.571,5.667,-5.242,-7.612,6.610,-0.090,0.899,-0.451,1.038,-2.441,-0.763,60.000,43383.000,1.000
-21.376,-5.986,-4.822,-3.950,4.500,-6.090,-10.213,5.555,-0.091,0.899,-0.448,1.434,-2.380,-0.732,60.000,43384.000,1.000
9.068,9.431,2.957,6.529,13.204,-1.383,-0.827,8.908,-0.089,0.898,-0.448,1.770,-2.197,-0.671,60.000,43385.000,1.000
32.159,19.107,5.250,11.602,16.918,-0.790,3.275,8.543,-0.090,0.899,-0.451,2.167,-1.862,-0.763,60.000,43386.000,1.000
20.084,8.832,-2.835,3.600,7.544,-7.613,-6.624,1.765,-0.090,0.904,-0.451,2.472,-1.709,-0.702,60.000,43387.000,1.000
-6.367,-8.356,-11.291,-6.444,-4.210,-12.762,-16.556,-3.813,-0.089,0.904,-0.451,2.655,-1.556,-0.763,60.000,43388.000,1.000
-5.333,-8.471,-8.194,-3.303,-2.596,-6.255,-7.851,-0.161,-0.089,0.905,-0.450,2.747,-1.251,-0.824,60.000,43389.000,1.000
26.979,10.199,3.249,10.716,10.767,8.085,15.090,9.090,-0.087,0.905,-0.449,2.838,-1.099,-0.793,60.000,43390.000,1.000
49.963,24.217,8.396,18.133,18.053,16.251,27.941,12.252,-0.087,0.905,-0.449,2.838,-0.885,-0.793,60.000,43391.000,1.000
34.620,16.983,0.821,9.765,8.935,11.654,17.666,4.733,-0.089,0.904,-0.449,2.899,-0.671,-0.793,60.000,43392.000,1.000
3.014,0.729,-9.413,-3.393,-6.039,2.623,-1.240,-4.961,-0.090,0.905,-0.451,3.082,-0.519,-0.824,60.000,43393.000,1.000
-1.400,-0.519,-9.477,-5.210,-9.796,0.531,-6.401,-6.307,-0.092,0.906,-0.453,3.265,-0.336,-0.793,60.000,43394.000,1.000
26.264,15.553,-1.412,3.550,-1.944,4.463,2.637,-0.651,-0.094,0.905,-0.454,3.418,-0.305,-0.824,60.000,43395.000,1.000
46.634,26.956,1.379,7.298,1.772,4.099,6.202,1.493,-0.096,0.908,-0.456,3.448,-0.153,-0.793,60.000,43396.000,1.000
31.168,18.367,-6.842,-1.957,-7.826,-4.256,-6.119,-4.530,-0.097,0.910,-0.454,3.479,-0.183,-0.702,60.000,43397.000,1.000
0.149,1.708,-16.331,-13.605,-20.635,-11.581,-20.386,-11.126,-0.097,0.913,-0.455,3.418,-0.153,-0.763,60.000,43398.000,1.000
-5.556,-0.259,-14.968,-12.829,-20.871,-7.890,-16.888,-8.741,-0.098,0.915,-0.456,3.387,-0.031,-0.702,60.000,43399.000,1.000
18.953,14.540,-4.923,-1.181,-8.830,3.573,2.015,0.802,-0.099,0.915,-0.455,3.357,-0.061,-0.793,60.000,43400.000,1.000
37.678,25.496,0.754,5.921,0.018,10.280,14.719,6.712,-0.099,0.916,-0.459,3.326,0.000,-0.732,60.000,43401.000,1.000
25.063,18.480,-3.898,0.496,-3.540,6.909,9.498,3.556,-0.099,0.917,-0.457,3.174,-0.031,-0.732,60.000,43402.000,1.000
-0.039,4.476,-10.438,-7.908,-10.979,1.464,-1.088,-2.374,-0.099,0.920,-0.456,3.052,-0.061,-0.702,60.000,43403.000,1.000
-1.262,4.039,-8.017,-5.730,-8.699,3.846,1.690,-2.107,-0.101,0.919,-0.457,2.808,-0.122,-0.641,60.000,43404.000,1.000
23.925,18.417,1.446,5.644,2.474,12.155,16.468,3.850,-0.104,0.918,-0.457,2.777,-0.153,-0.641,60.000,43405.000,1.000
41.438,28.290,6.452,12.317,8.756,16.011,24.613,7.179,-0.105,0.918,-0.460,2.655,-0.214,-0.549,60.000,43406.000,1.000
28.708,21.115,2.105,7.356,2.927,11.279,16.757,3.786,-0.106,0.918,-0.457,2.686,-0.397,-0.549,60.000,43407.000,1.000
4.631,7.722,-3.875,-0.589,-6.183,5.187,4.881,-1.161,-0.106,0.917,-0.457,2.533,-0.488,-0.458,60.000,43408.000,1.000
2.596,6.538,-2.518,-0.122,-6.334,5.795,4.964,-1.351,-0.106,0.915,-0.459,2.502,-0.580,-0.397,60.000,43409.000,1.000
22.860,16.820,3.179,6.253,0.448,10.190,13.751,0.816,-0.107,0.913,-0.462,2.472,-0.763,-0.458,60.000,43410.000,1.000
32.650,19.848,2.760,6.124,1.014,8.822,13.664,-2.259,-0.110,0.914,-0.463,2.441,-0.946,-0.214,60.000,43411.000,1.000
12.905,5.961,-6.250,-4.392,-9.720,-0.561,-1.577,-11.588,-0.109,0.913,-0.465,2.533,-1.129,-0.214,60.000,43412.000,1.000
-15.156,-11.365,-14.155,-14.355,-21.041,-9.266,-17.280,-18.703,-0.108,0.914,-0.465,2.563,-1.404,-0.092,60.000,43413.000,1.000
-17.783,-12.469,-11.293,-11.785,-19.813,-8.466,-16.025,-15.689,-0.107,0.915,-0.465,2.716,-1.526,0.000,60.000,43414.000,1.000
5.384,2.378,-0.994,0.168,-7.795,-0.591,-0.588,-5.551,-0.108,0.915,-0.466,2.747,-1.617,-0.031,60.000,43415.000,1.000
21.760,13.884,5.004,7.404,1.032,4.461,10.290,1.509,-0.106,0.915,-0.467,2.899,-1.801,0.061,60.000,43416.000,1.000
10.725,9.522,1.951,3.323,-1.152,2.401,6.643,0.586,-0.105,0.913,-0.468,3.143,-1.984,0.153,60.000,43417.000,1.000
-10.458,-1.721,-2.909,-3.811,-7.277,-1.064,-1.654,-3.342,-0.104,0.911,-0.467,3.235,-2.045,0.336,60.000,43418.000,1.000
-11.681,-3.166,-1.063,-2.924,-6.366,0.895,-0.141,-3.397,-0.101,0.909,-0.471,3.510,-2.197,0.336,60.000,43419.000,1.000
7.539,5.884,5.095,4.392,0.615,5.953,9.017,-0.538,-0.101,0.908,-0.468,3.662,-2.289,0.458,60.000,43420.000,1.000
18.490,10.242,6.113,6.934,2.829,6.018,10.571,-1.239,-0.102,0.906,-0.469,3.906,-2.228,0.488,60.000,43421.000,1.000
4.303,1.296,-0.797,0.247,-4.180,-0.950,-1.356,-7.134,-0.102,0.903,-0.473,4.089,-2.258,0.671,60.000,43422.000,1.000
-17.549,-10.892,-7.877,-7.330,-11.805,-7.785,-14.547,-11.911,-0.101,0.903,-0.474,4.456,-2.197,0.580,60.000,43423.000,1.000
-19.359,-11.068,-7.159,-6.052,-9.627,-7.278,-14.389,-9.381,-0.100,0.903,-0.476,4.700,-2.228,0.458,60.000,43424.000,1.000
-1.975,-0.310,-1.474,1.561,0.128,-1.830,-3.566,-2.131,-0.100,0.903,-0.476,4.944,-2.228,0.549,60.000,43425.000,1.000
7.081,5.306,-0.155,4.537,5.674,0.205,2.247,1.830,-0.101,0.902,-0.477,5.066,-2.258,0.580,60.000,43426.000,1.000
-7.679,-3.262,-6.055,-1.233,1.521,-4.126,-4.287,-0.488,-0.099,0.901,-0.473,5.249,-2.258,0.397,60.000,43427.000,1.000
-29.733,-16.535,-12.285,-7.930,-5.182,-9.200,-13.740,-3.936,-0.098,0.899,-0.474,5.371,-2.167,0.275,60.000,43428.000,1.000
-33.378,-19.421,-11.734,-6.479,-4.785,-8.747,-13.370,-2.469,-0.097,0.899,-0.477,5.585,-2.167,0.214,60.000,43429.000,1.000
-18.877,-11.582,-6.814,1.004,1.551,-4.525,-4.804,2.723,-0.096,0.898,-0.476,5.737,-2.136,-0.092,60.000,43430.000,1.000
-10.117,-6.540,-5.493,4.574,4.181,-3.245,-0.632,5.475,-0.096,0.896,-0.474,5.798,-1.953,-0.153,60.000,43431.000,1.000
-20.276,-12.078,-9.875,0.133,-1.149,-6.727,-5.988,3.402,-0.094,0.895,-0.474,5.890,-1.862,-0.153,60.000,43432.000,1.000
-35.462,-20.509,-13.659,-5.992,-7.908,-9.658,-12.334,0.614,-0.092,0.895,-0.470,5.829,-1.831,-0.336,60.000,43433.000,1.000
-34.828,-19.847,-10.540,-6.191,-7.851,-7.130,-9.870,1.587,-0.092,0.893,-0.471,5.768,-1.740,-0.519,60.000,43434.000,1.000
-19.870,-10.762,-2.650,-2.239,-2.483,-1.951,-1.642,4.565,-0.091,0.893,-0.472,5.798,-1.526,-0.671,60.000,43435.000,1.000
-11.235,-5.096,2.643,-1.936,-0.282,-0.811,1.038,4.531,-0.091,0.895,-0.472,5.737,-1.404,-0.763,60.000,43436.000,1.000
-19.602,-9.224,2.079,-7.401,-4.421,-5.109,-5.810,0.915,-0.088,0.896,-0.471,5.646,-1.221,-0.732,60.000,43437.000,1.000
-33.028,-16.627,-0.910,-12.364,-8.968,-9.477,-14.417,-1.528,-0.089,0.892,-0.473,5.585,-1.099,-0.946,60.000,43438.000,1.000
-33.639,-17.289,-1.699,-10.481,-6.939,-8.515,-15.224,1.192,-0.091,0.894,-0.472,5.554,-1.038,-1.099,60.000,43439.000,1.000
-21.049,-11.016,-0.608,-3.622,0.524,-3.168,-8.495,7.250,-0.092,0.894,-0.475,5.493,-0.854,-1.190,60.000,43440.000,1.000
-10.001,-5.922,-0.827,1.301,6.404,1.682,-1.938,11.705,-0.093,0.894,-0.476,5.371,-0.549,-1.282,60.000,43441.000,1.000
-8.757,-6.049,-2.307,1.468,7.039,3.864,0.304,12.451,-0.092,0.895,-0.476,5.219,-0.397,-1.404,60.000,43442.000,1.000
-10.542,-6.907,-1.534,0.402,5.100,5.339,0.969,11.294,-0.095,0.897,-0.474,5.066,-0.336,-1.495,60.000,43443.000,1.000
-5.079,-2.739,3.325,2.277,4.597,8.216,3.729,10.298,-0.098,0.898,-0.476,4.974,-0.275,-1.434,60.000,43444.000,1.000
5.773,4.469,8.745,5.780,4.913,10.917,6.536,8.543,-0.101,0.900,-0.476,4.730,-0.275,-1.526,60.000,43445.000,1.000
11.514,7.839,9.962,6.582,2.806,10.604,5.034,4.229,-0.101,0.900,-0.472,4.578,-0.244,-1.526,60.000,43446.000,1.000
9.010,5.559,7.141,4.045,-1.429,7.745,0.163,-1.537,-0.101,0.903,-0.470,4.333,-0.244,-1.465,60.000,43447.000,1.000
6.241,2.930,4.935,1.969,-3.522,5.774,-2.246,-5.231,-0.101,0.903,-0.471,4.181,-0.214,-1.495,60.000,43448.000,1.000
11.763,5.633,7.136,3.684,-0.213,7.098,1.853,-4.664,-0.104,0.905,-0.475,4.028,-0.275,-1.587,60.000,43449.000,1.000
22.795,12.322,12.298,7.377,6.076,9.899,8.928,-1.875,-0.106,0.906,-0.478,3.693,-0.244,-1.587,60.000,43450.000,1.000
29.361,16.997,16.274,8.627,9.873,10.653,11.856,-0.925,-0.108,0.907,-0.477,3.387,-0.488,-1.526,60.000,43451.000,1.000
27.801,17.073,17.622,6.230,8.994,8.868,8.627,-3.526,-0.106,0.908,-0.476,3.204,-0.610,-1.526,60.000,43452.000,1.000
23.799,15.399,18.387,3.067,5.857,7.319,3.653,-7.954,-0.109,0.908,-0.477,2.991,-0.732,-1.434,60.000,43453.000,1.000
24.760,16.199,20.838,2.561,3.999,8.584,2.249,-11.284,-0.111,0.909,-0.479,2.655,-1.007,-1.343,60.000,43454.000,1.000
30.068,19.521,23.911,4.566,3.835,11.681,4.391,-12.588,-0.113,0.908,-0.479,2.380,-1.160,-1.160,60.000,43455.000,1.000
32.946,21.815,24.708,6.414,3.484,13.544,6.284,-12.806,-0.112,0.909,-0.479,2.228,-1.282,-0.977,60.000,43456.000,1.000
30.564,21.282,22.582,7.057,2.696,12.973,6.562,-12.326,-0.112,0.909,-0.477,2.014,-1.617,-0.824,60.000,43457.000,1.000
26.983,19.682,19.719,7.926,3.340,11.517,7.544,-10.404,-0.113,0.908,-0.482,1.801,-1.740,-0.580,60.000,43458.000,1.000
27.835,19.828,18.624,10.604,6.797,11.267,11.609,-6.549,-0.113,0.910,-0.482,1.556,-1.984,-0.427,60.000,43459.000,1.000
31.949,21.231,19.132,13.851,11.155,11.867,16.512,-2.356,-0.114,0.911,-0.480,1.312,-2.197,-0.366,60.000,43460.000,1.000
32.718,20.743,19.278,14.933,13.001,11.227,17.233,-0.376,-0.112,0.910,-0.482,1.129,-2.350,-0.061,60.000,43461.000,1.000
27.246,17.189,18.201,13.213,11.487,8.561,12.282,-1.185,-0.113,0.912,-0.482,1.038,-2.502,0.122,60.000,43462.000,1.000
19.331,12.734,16.635,10.516,8.886,5.177,5.504,-2.852,-0.112,0.911,-0.481,0.885,-2.655,0.275,60.000,43463.000,1.000
14.932,10.514,15.551,8.926,8.089,2.902,2.145,-3.100,-0.109,0.909,-0.482,0.763,-2.716,0.519,60.000,43464.000,1.000
14.168,10.435,14.277,8.054,9.249,1.699,2.625,-1.909,-0.109,0.909,-0.481,0.549,-2.930,0.580,60.000,43465.000,1.000
12.054,9.735,11.593,6.086,10.355,0.365,3.302,-0.597,-0.110,0.909,-0.484,0.458,-3.052,0.793,60.000,43466.000,1.000
6.412,7.360,7.875,2.754,10.437,-1.332,2.451,0.516,-0.109,0.911,-0.485,0.397,-3.235,0.885,60.000,43467.000,1.000
0.248,5.057,4.662,-0.484,10.321,-2.727,1.908,2.045,-0.107,0.911,-0.484,0.275,-3.326,1.007,60.000,43468.000,1.000
-2.084,5.128,3.080,-2.095,11.213,-3.335,4.005,4.302,-0.108,0.912,-0.482,0.153,-3.326,0.946,60.000,43469.000,1.000
-1.997,6.499,2.208,-2.696,12.292,-4.030,7.076,6.345,-0.107,0.910,-0.482,-0.031,-3.418,1.038,60.000,43470.000,1.000
-5.438,5.554,0.313,-4.069,11.494,-6.007,7.069,7.185,-0.107,0.910,-0.484,-0.183,-3.448,1.160,60.000,43471.000,1.000
-13.991,1.102,-2.675,-6.265,8.537,-8.986,3.135,7.271,-0.108,0.908,-0.487,-0.397,-3.418,1.312,60.000,43472.000,1.000
-22.083,-4.110,-5.200,-7.376,5.383,-11.539,-1.433,7.863,-0.107,0.907,-0.488,-0.427,-3.479,1.251,60.000,43473.000,1.000
-22.931,-6.419,-5.919,-5.733,4.166,-12.535,-3.012,9.575,-0.106,0.904,-0.487,-0.458,-3.479,1.251,60.000,43474.000,1.000
-18.627,-6.599,-6.009,-2.900,4.032,-12.780,-2.653,11.132,-0.103,0.901,-0.488,-0.427,-3.357,1.251,60.000,43475.000,1.000
-18.585,-9.132,-7.786,-2.170,2.196,-13.766,-4.314,10.772,-0.102,0.902,-0.485,-0.488,-3.387,1.221,60.000,43476.000,1.000
-26.739,-15.621,-11.201,-4.097,-1.681,-15.089,-8.735,8.663,-0.104,0.901,-0.484,-0.397,-3.296,1.221,60.000,43477.000,1.000
-36.191,-22.166,-13.617,-5.817,-4.533,-14.743,-12.441,6.721,-0.103,0.899,-0.490,-0.336,-3.204,1.160,60.000,43478.000,1.000
-37.259,-23.631,-12.815,-4.563,-3.297,-11.515,-11.849,6.470,-0.101,0.899,-0.489,-0.427,-3.082,1.160,60.000,43479.000,1.000
-31.298,-21.064,-10.398,-1.948,0.450,-7.199,-8.411,6.876,-0.099,0.899,-0.489,-0.397,-2.991,1.007,60.000,43480.000,1.000
-29.429,-20.692,-10.002,-2.157,1.926,-4.687,-6.704,5.737,-0.099,0.897,-0.483,-0.458,-2.869,0.885,60.000,43481.000,1.000
-36.468,-24.919,-12.439,-6.076,-0.668,-4.266,-8.001,2.918,-0.098,0.896,-0.482,-0.488,-2.686,0.824,60.000,43482.000,1.000
-43.852,-28.943,-14.973,-10.037,-4.234,-3.648,-9.210,0.531,-0.096,0.895,-0.482,-0.519,-2.625,0.763,60.000,43483.000,1.000
-39.931,-26.876,-15.007,-10.250,-4.961,-1.165,-7.356,0.222,-0.096,0.896,-0.482,-0.610,-2.441,0.732,60.000,43484.000,1.000
-26.471,-20.399,-14.031,-8.046,-3.937,1.342,-4.672,0.587,-0.096,0.895,-0.482,-0.580,-2.319,0.641,60.000,43485.000,1.000
-17.269,-17.154,-15.614,-7.999,-5.704,0.713,-5.920,-1.118,-0.095,0.893,-0.483,-0.458,-2.197,0.519,60.000,43486.000,1.000
-20.129,-20.788,-20.208,-11.538,-11.640,-3.140,-11.368,-5.178,-0.092,0.893,-0.484,-0.519,-2.014,0.580,60.000,43487.000,1.000
-28.119,-26.926,-24.381,-15.324,-17.880,-7.028,-16.051,-8.937,-0.093,0.893,-0.482,-0.458,-1.770,0.488,60.000,43488.000,1.000
-28.615,-28.446,-24.599,-15.359,-19.587,-7.945,-15.020,-9.582,-0.094,0.892,-0.482,-0.488,-1.556,0.488,60.000,43489.000,1.000
-19.453,-24.041,-21.478,-12.137,-16.795,-6.493,-9.257,-7.369,-0.093,0.893,-0.478,-0.488,-1.373,0.427,60.000,43490.000,1.000
-9.983,-18.554,-18.448,-9.510,-13.666,-5.451,-3.860,-4.998,-0.091,0.892,-0.476,-0.397,-1.038,0.336,60.000,43491.000,1.000
-7.358,-15.704,-17.137,-9.456,-12.774,-5.932,-1.476,-4.338,-0.092,0.894,-0.479,-0.519,-0.854,0.336,60.000,43492.000,1.000
-9.272,-14.565,-16.303,-10.620,-13.071,-6.791,-0.796,-5.205,-0.094,0.894,-0.482,-0.519,-0.641,0.336,60.000,43493.000,1.000
-8.979,-12.221,-14.175,-10.838,-12.400,-6.625,0.323,-6.591,-0.094,0.893,-0.480,-0.671,-0.305,0.336,60.000,43494.000,1.000
-5.546,-8.779,-11.205,-10.310,-10.929,-5.781,1.157,-8.412,-0.094,0.891,-0.479,-0.580,-0.122,0.275,60.000,43495.000,1.000
-3.841,-6.881,-8.980,-10.564,-10.237,-5.270,-0.239,-10.729,-0.095,0.893,-0.482,-0.641,0.000,0.275,60.000,43496.000,1.000
-5.885,-7.249,-7.659,-11.491,-10.285,-4.974,-3.200,-12.459,-0.095,0.894,-0.481,-0.702,0.122,0.336,60.000,43497.000,1.000
-8.325,-7.891,-6.205,-11.502,-9.523,-4.171,-5.011,-12.368,-0.095,0.896,-0.479,-0.824,0.275,0.244,60.000,43498.000,1.000
-6.416,-6.291,-3.774,-9.288,-6.602,-2.399,-3.465,-10.208,-0.100,0.895,-0.476,-0.885,0.458,0.244,60.000,43499.000,1.000
-0.587,-2.696,-1.108,-5.664,-2.338,-0.330,0.294,-7.176,-0.101,0.897,-0.480,-1.007,0.641,0.183,60.000,43500.000,1.000
4.357,0.414,0.427,-2.588,1.090,0.928,3.055,-4.687,-0.102,0.901,-0.481,-1.129,0.641,0.244,60.000,43501.000,1.000
6.007,1.746,0.727,-0.797,2.692,1.181,3.474,-2.890,-0.104,0.904,-0.478,-1.129,0.610,0.336,60.000,43502.000,1.000
6.014,1.912,0.694,0.265,3.003,0.936,2.746,-1.078,-0.105,0.906,-0.478,-1.404,0.671,0.427,60.000,43503.000,1.000
7.419,2.321,1.191,1.511,3.119,0.845,2.903,1.273,-0.107,0.907,-0.477,-1.526,0.702,0.427,60.000,43504.000,1.000
9.841,2.853,1.844,2.744,3.011,0.814,3.870,3.595,-0.107,0.909,-0.478,-1.709,0.610,0.366,60.000,43505.000,1.000
10.440,2.411,1.877,3.198,1.922,0.433,4.010,4.912,-0.107,0.910,-0.478,-1.953,0.580,0.427,60.000,43506.000,1.000
9.370,1.729,1.682,3.193,0.209,-0.046,3.164,5.151,-0.105,0.910,-0.479,-2.106,0.458,0.427,60.000,43507.000,1.000
9.742,2.956,2.303,3.722,-0.904,-0.115,2.701,5.103,-0.107,0.912,-0.481,-2.289,0.305,0.549,60.000,43508.000,1.000
13.824,7.103,4.180,5.228,-0.746,0.378,3.659,5.487,-0.107,0.910,-0.478,-2.441,0.153,0.732,60.000,43509.000,1.000
18.630,11.586,5.929,6.337,-0.700,0.514,4.384,5.547,-0.111,0.910,-0.479,-2.502,0.092,0.854,60.000,43510.000,1.000
19.062,12.747,5.822,5.466,-2.554,-0.528,2.477,4.034,-0.113,0.910,-0.478,-2.686,-0.092,0.916,60.000,43511.000,1.000
15.608,10.845,4.309,3.528,-5.472,-1.710,-1.096,1.523,-0.113,0.910,-0.475,-2.930,-0.214,0.946,60.000,43512.000,1.000
14.131,9.737,3.506,3.065,-6.628,-0.957,-2.802,0.134,-0.110,0.910,-0.477,-2.991,-0.397,1.038,60.000,43513.000,1.000
19.126,12.495,4.811,5.414,-4.255,2.611,-0.522,1.247,-0.110,0.910,-0.474,-3.204,-0.549,1.099,60.000,43514.000,1.000
26.609,17.087,6.904,8.577,-0.254,7.040,3.165,3.663,-0.111,0.910,-0.476,-3.296,-0.702,1.068,60.000,43515.000,1.000
28.103,18.726,7.569,9.568,1.987,9.552,4.107,5.204,-0.111,0.910,-0.474,-3.448,-0.916,1.099,60.000,43516.000,1.000
21.991,16.288,6.825,8.327,1.974,9.707,2.278,5.528,-0.111,0.907,-0.470,-3.601,-1.007,1.221,60.000,43517.000,1.000
15.158,13.030,6.409,7.205,2.029,8.987,1.262,6.121,-0.111,0.906,-0.471,-3.571,-1.160,1.343,60.000,43518.000,1.000
14.242,11.927,7.112,7.667,3.871,8.396,3.478,8.247,-0.109,0.905,-0.473,-3.571,-1.312,1.221,60.000,43519.000,1.000
15.803,10.934,6.833,7.717,5.582,6.811,6.224,10.820,-0.107,0.903,-0.473,-3.662,-1.434,1.312,60.000,43520.000,1.000
10.724,5.823,3.085,4.477,3.950,2.955,5.074,11.478,-0.105,0.902,-0.475,-3.632,-1.526,1.282,60.000,43521.000,1.000
-1.065,-2.467,-2.922,-0.999,-0.388,-1.737,0.629,9.670,-0.106,0.900,-0.476,-3.540,-1.587,1.404,60.000,43522.000,1.000
-7.869,-7.449,-7.054,-4.223,-3.001,-4.234,-1.906,7.063,-0.106,0.899,-0.474,-3.510,-1.648,1.404,60.000,43523.000,1.000
-1.817,-5.510,-7.507,-3.243,-1.692,-4.059,-0.343,4.570,-0.104,0.896,-0.476,-3.357,-1.770,1.373,60.000,43524.000,1.000
-0.552,-6.774,-10.126,-5.121,-3.494,-6.989,-4.118,-1.429,-0.103,0.894,-0.472,-3.204,-1.770,1.343,60.000,43525.000,1.000
-39.847,-30.412,-23.850,-21.086,-20.256,-20.576,-28.271,-16.186,-0.102,0.893,-0.475,-2.991,-1.801,1.373,60.000,43526.000,1.000
-122.405,-76.804,-45.253,-48.016,-49.589,-41.051,-68.746,-35.656,-0.102,0.891,-0.474,-2.838,-1.801,1.312,60.000,43527.000,1.000
-181.340,-108.325,-52.251,-59.510,-64.539,-48.682,-89.660,-42.310,-0.100,0.891,-0.473,-2.686,-1.740,1.373,60.000,43528.000,1.000
-132.912,-79.130,-25.038,-29.799,-37.007,-26.341,-54.683,-21.304,-0.099,0.893,-0.473,-2.472,-1.740,1.312,60.000,43529.000,1.000
15.777,5.464,24.174,29.243,23.218,15.080,22.215,17.107,-0.101,0.895,-0.473,-2.289,-1.740,1.221,60.000,43530.000,1.000
149.660,80.690,56.546,71.380,69.062,42.064,79.217,42.368,-0.102,0.898,-0.469,-2.228,-1.678,1.160,60.000,43531.000,1.000
167.826,91.022,49.155,66.162,66.777,35.438,73.771,36.728,-0.104,0.900,-0.471,-2.197,-1.526,1.099,60.000,43532.000,1.000
98.715,53.382,21.787,34.217,34.831,12.785,32.060,15.758,-0.104,0.904,-0.468,-2.167,-1.556,0.977,60.000,43533.000,1.000
57.525,31.816,11.395,20.070,19.108,5.598,14.359,8.164,-0.105,0.904,-0.467,-2.228,-1.526,0.793,60.000,43534.000,1.000
93.326,52.162,24.470,34.404,33.105,18.336,36.306,18.778,-0.104,0.904,-0.464,-2.289,-1.526,0.641,60.000,43535.000,1.000
128.006,69.846,30.724,42.327,42.298,24.000,50.651,23.918,-0.102,0.902,-0.463,-2.228,-1.465,0.580,60.000,43536.000,1.000
70.534,35.044,7.054,14.013,14.308,2.716,15.325,5.588,-0.100,0.897,-0.470,-2.350,-1.434,0.458,60.000,43537.000,1.000
-50.628,-34.454,-28.569,-31.626,-33.787,-29.330,-45.370,-22.329,-0.097,0.895,-0.466,-2.380,-1.343,0.397,60.000,43538.000,1.000
-115.735,-71.045,-38.684,-48.748,-54.455,-39.105,-68.578,-30.739,-0.096,0.892,-0.463,-2.289,-1.190,0.244,60.000,43539.000,1.000
-64.347,-41.778,-14.235,-22.542,-29.484,-18.378,-32.519,-12.341,-0.095,0.891,-0.464,-2.136,-1.038,0.244,60.000,43540.000,1.000
33.324,13.349,15.261,13.913,9.132,7.552,18.236,10.299,-0.097,0.892,-0.469,-1.801,-0.885,0.366,60.000,43541.000,1.000
69.388,34.501,19.565,22.448,20.969,12.616,30.354,13.867,-0.097,0.895,-0.468,-1.740,-0.732,0.397,60.000,43542.000,1.000
23.222,10.984,1.472,2.858,3.140,-1.050,2.180,0.540,-0.096,0.899,-0.465,-1.801,-0.671,0.336,60.000,43543.000,1.000
-33.155,-17.186,-12.746,-14.492,-14.296,-11.441,-24.475,-9.439,-0.097,0.901,-0.466,-1.801,-0.671,0.397,60.000,43544.000,1.000
-35.728,-15.588,-7.920,-9.468,-9.622,-6.137,-20.298,-4.646,-0.100,0.906,-0.465,-1.923,-0.610,0.519,60.000,43545.000,1.000
3.198,7.768,5.990,8.050,8.231,6.137,2.736,6.843,-0.104,0.909,-0.464,-2.045,-0.458,0.519,60.000,43546.000,1.000
28.969,22.353,11.541,16.886,17.335,10.812,15.809,11.350,-0.107,0.915,-0.469,-2.228,-0.397,0.427,60.000,43547.000,1.000
15.340,14.143,4.783,10.451,9.891,5.083,8.888,5.782,-0.112,0.916,-0.466,-2.350,-0.519,0.458,60.000,43548.000,1.000
-13.705,-2.996,-3.651,0.243,-2.736,-1.597,-3.232,-1.665,-0.118,0.915,-0.464,-2.594,-0.610,0.336,60.000,43549.000,1.000
-21.761,-8.558,-3.414,-1.060,-6.798,-0.393,-3.047,-2.930,-0.123,0.914,-0.462,-2.747,-0.854,0.397,60.000,43550.000,1.000
-0.436,2.281,5.064,6.881,-0.746,7.973,10.675,1.827,-0.122,0.914,-0.463,-2.869,-1.190,0.366,60.000,43551.000,1.000
27.903,17.153,13.302,14.169,6.041,15.693,24.449,6.205,-0.120,0.914,-0.463,-2.960,-1.373,0.275,60.000,43552.000,1.000
35.264,20.455,13.778,11.430,3.972,15.855,24.235,4.503,-0.121,0.913,-0.464,-3.143,-1.709,0.336,60.000,43553.000,1.000
15.446,8.805,6.950,-0.994,-7.054,8.638,8.910,-2.748,-0.119,0.912,-0.466,-3.387,-1.984,0.244,60.000,43554.000,1.000
-10.460,-5.789,0.469,-13.201,-17.284,0.732,-8.649,-9.232,-0.119,0.909,-0.466,-3.448,-2.258,0.305,60.000,43555.000,1.000
-14.507,-7.416,1.724,-14.780,-16.067,-0.890,-13.326,-8.781,-0.117,0.910,-0.466,-3.632,-2.472,0.305,60.000,43556.000,1.000
8.042,6.754,9.601,-5.684,-3.179,3.889,-3.150,-2.258,-0.113,0.912,-0.465,-3.662,-2.655,0.305,60.000,43557.000,1.000
29.230,20.992,14.260,2.356,9.090,7.593,7.250,2.147,-0.111,0.912,-0.465,-3.662,-2.655,0.427,60.000,43558.000,1.000
19.269,18.355,8.496,-0.804,9.306,4.390,3.937,-1.704,-0.107,0.910,-0.469,-3.662,-2.625,0.488,60.000,43559.000,1.000
-15.172,2.239,-2.387,-10.630,0.990,-1.549,-8.061,-9.613,-0.105,0.911,-0.462,-3.662,-2.686,0.580,60.000,43560.000,1.000
-34.770,-5.798,-5.570,-12.374,-0.970,-0.175,-9.638,-11.087,-0.102,0.910,-0.461,-3.723,-2.686,0.763,60.000,43561.000,1.000
-15.871,6.943,3.272,-0.113,10.326,11.064,7.274,-2.477,-0.103,0.910,-0.460,-3.784,-2.686,0.824,60.000,43562.000,1.000
15.172,25.475,12.961,13.479,22.733,21.754,25.893,7.310,-0.100,0.907,-0.459,-3.723,-2.472,1.068,60.000,43563.000,1.000
13.746,25.235,10.710,12.639,20.033,20.829,24.595,7.918,-0.098,0.905,-0.460,-3.693,-2.289,1.190,60.000,43564.000,1.000
-23.131,5.096,-0.745,-0.252,4.217,11.031,5.725,1.223,-0.098,0.905,-0.462,-3.632,-2.075,1.221,60.000,43565.000,1.000
-48.652,-8.883,-5.940,-6.431,-5.155,5.960,-5.607,-0.885,-0.099,0.902,-0.463,-3.540,-1.831,1.434,60.000,43566.000,1.000
-26.839,2.713,2.545,4.493,3.822,12.044,5.672,7.064,-0.099,0.902,-0.464,-3.418,-1.709,1.526,60.000,43567.000,1.000
14.678,24.161,12.498,18.781,17.915,18.849,22.250,15.137,-0.098,0.902,-0.461,-3.174,-1.556,1.465,60.000,43568.000,1.000
17.771,23.867,7.976,16.047,15.505,13.099,16.818,10.730,-0.097,0.901,-0.464,-3.052,-1.282,1.587,60.000,43569.000,1.000
-25.901,-1.368,-7.575,-1.834,-2.959,-1.477,-8.616,-3.017,-0.097,0.902,-0.460,-2.899,-1.190,1.465,60.000,43570.000,1.000
-56.120,-17.238,-13.083,-10.029,-12.233,-6.158,-20.644,-8.451,-0.095,0.903,-0.460,-2.777,-1.007,1.434,60.000,43571.000,1.000
-23.571,2.939,1.788,6.128,4.286,7.747,1.086,3.814,-0.095,0.903,-0.460,-2.777,-0.824,1.434,60.000,43572.000,1.000
30.464,34.420,17.871,25.983,26.683,22.757,28.793,19.035,-0.093,0.900,-0.461,-2.594,-0.641,1.312,60.000,43573.000,1.000
15.700,25.995,8.388,16.603,19.972,14.963,16.909,14.834,-0.095,0.901,-0.465,-2.625,-0.244,1.251,60.000,43574.000,1.000
-77.574,-27.038,-21.444,-18.980,-15.510,-11.161,-31.682,-6.965,-0.093,0.897,-0.467,-2.472,-0.061,1.221,60.000,43575.000,1.000
-133.818,-59.326,-31.926,-34.472,-33.167,-21.039,-53.825,-16.787,-0.093,0.896,-0.465,-2.411,0.031,1.190,60.000,43576.000,1.000
-49.436,-13.548,0.719,1.676,1.981,5.722,-4.682,4.483,-0.094,0.894,-0.464,-2.197,0.244,1.007,60.000,43577.000,1.000
104.986,69.699,43.155,53.249,55.753,39.877,67.502,33.153,-0.093,0.893,-0.462,-2.014,0.458,0.916,60.000,43578.000,1.000
143.552,86.898,40.069,52.823,57.809,33.877,68.936,28.383,-0.091,0.891,-0.462,-1.862,0.671,0.763,60.000,43579.000,1.000
4.291,5.486,-11.501,-8.319,-5.329,-13.607,-15.536,-11.609,-0.093,0.890,-0.458,-1.648,0.946,0.732,60.000,43580.000,1.000
-151.455,-83.070,-51.591,-60.512,-64.126,-49.719,-91.453,-41.444,-0.093,0.889,-0.459,-1.221,1.251,0.458,60.000,43581.000,1.000
-138.244,-76.457,-33.252,-43.157,-52.443,-34.141,-72.466,-26.319,-0.091,0.889,-0.460,-1.068,1.465,0.427,60.000,43582.000,1.000
14.881,6.792,16.368,16.620,7.322,8.768,8.805,11.959,-0.092,0.892,-0.461,-0.824,1.648,0.244,60.000,43583.000,1.000
114.833,58.634,35.070,43.514,38.273,25.055,50.208,25.480,-0.094,0.894,-0.459,-0.641,1.801,0.092,60.000,43584.000,1.000
62.734,25.980,7.450,13.229,10.896,1.886,15.327,3.075,-0.098,0.897,-0.461,-0.610,2.014,0.000,60.000,43585.000,1.000
-36.405,-30.997,-21.897,-24.135,-26.891,-22.239,-30.594,-20.079,-0.099,0.900,-0.459,-0.519,2.106,-0.092,60.000,43586.000,1.000
-39.524,-33.328,-14.090,-19.171,-23.039,-14.685,-20.343,-13.714,-0.100,0.900,-0.460,-0.488,2.167,-0.122,60.000,43587.000,1.000
42.304,11.088,14.299,12.713,9.904,9.379,26.216,8.937,-0.102,0.901,-0.461,-0.458,2.167,-0.153,60.000,43588.000,1.000
82.626,31.567,21.293,21.503,21.044,14.057,40.904,14.655,-0.104,0.902,-0.462,-0.427,2.075,-0.244,60.000,43589.000,1.000
24.729,-2.357,-1.676,-6.229,-5.925,-6.912,4.644,-3.776,-0.109,0.903,-0.464,-0.366,2.045,-0.275,60.000,43590.000,1.000
-50.770,-45.291,-22.958,-34.049,-35.268,-25.712,-32.727,-21.995,-0.110,0.904,-0.466,-0.397,1.862,-0.305,60.000,43591.000,1.000
-48.281,-44.747,-17.327,-29.440,-32.242,-21.185,-25.833,-19.950,-0.111,0.906,-0.465,-0.427,1.709,-0.305,60.000,43592.000,1.000
15.738,-10.645,2.083,-5.426,-8.026,-5.481,7.862,-6.715,-0.112,0.904,-0.465,-0.397,1.465,-0.214,60.000,43593.000,1.000
50.215,6.629,6.978,3.348,1.857,-3.066,20.109,-3.402,-0.113,0.905,-0.467,-0.427,1.343,-0.183,60.000,43594.000,1.000
17.085,-13.077,-6.984,-11.674,-12.989,-17.111,-1.751,-13.683,-0.112,0.909,-0.468,-0.519,1.221,-0.183,60.000,43595.000,1.000
-29.637,-39.034,-18.353,-26.647,-28.679,-28.630,-24.800,-21.920,-0.113,0.912,-0.463,-0.488,0.977,-0.061,60.000,43596.000,1.000
-28.697,-37.577,-11.770,-21.615,-23.512,-24.277,-20.170,-16.725,-0.113,0.914,-0.466,-0.671,0.793,0.092,60.000,43597.000,1.000
8.470,-16.145,2.862,-5.861,-5.939,-12.535,0.809,-5.501,-0.112,0.914,-0.462,-0.885,0.519,0.183,60.000,43598.000,1.000
26.739,-5.827,7.376,-0.543,1.624,-8.765,8.943,-2.017,-0.111,0.915,-0.464,-1.099,0.275,0.305,60.000,43599.000,1.000
5.630,-17.342,-0.776,-9.756,-6.521,-14.842,-3.068,-8.343,-0.112,0.915,-0.464,-1.221,0.122,0.519,60.000,43600.000,1.000
-22.587,-31.933,-9.132,-19.054,-15.936,-20.055,-16.861,-14.919,-0.109,0.917,-0.462,-1.465,-0.061,0.488,60.000,43601.000,1.000
-24.410,-30.975,-8.949,-17.296,-14.281,-17.359,-16.765,-14.693,-0.110,0.917,-0.463,-1.648,-0.214,0.671,60.000,43602.000,1.000
-6.949,-19.016,-4.730,-9.538,-5.985,-11.376,-7.947,-10.751,-0.108,0.916,-0.463,-1.770,-0.397,0.732,60.000,43603.000,1.000
2.365,-11.592,-4.146,-5.996,-1.785,-9.191,-3.077,-8.883,-0.106,0.915,-0.464,-1.923,-0.458,0.946,60.000,43604.000,1.000
-5.212,-13.428,-7.221,-8.116,-3.659,-10.781,-4.330,-9.269,-0.104,0.912,-0.463,-2.014,-0.488,1.129,60.000,43605.000,1.000
-16.102,-17.090,-8.765,-10.049,-5.430,-11.325,-4.905,-8.354,-0.104,0.912,-0.461,-2.319,-0.610,1.251,60.000,43606.000,1.000
-18.512,-16.647,-6.761,-8.577,-3.155,-8.752,-1.229,-5.242,-0.100,0.910,-0.463,-2.319,-0.641,1.343,60.000,43607.000,1.000
-15.242,-14.196,-4.109,-6.187,0.773,-5.431,3.277,-2.574,-0.098,0.911,-0.468,-2.441,-0.610,1.404,60.000,43608.000,1.000
-11.854,-12.593,-2.957,-4.998,3.522,-3.300,5.576,-1.801,-0.097,0.912,-0.469,-2.533,-0.549,1.465,60.000,43609.000,1.000
-9.352,-11.655,-2.963,-4.580,4.756,-2.334,5.300,-2.141,-0.095,0.910,-0.471,-2.563,-0.610,1.495,60.000,43610.000,1.000
-10.278,-12.241,-4.126,-5.181,3.914,-2.801,1.136,-3.216,-0.093,0.909,-0.470,-2.472,-0.549,1.648,60.000,43611.000,1.000
-18.445,-16.205,-6.796,-7.683,0.271,-5.046,-7.734,-5.111,-0.090,0.908,-0.472,-2.472,-0.397,1.801,60.000,43612.000,1.000
-29.622,-21.036,-9.045,-10.136,-3.713,-7.209,-16.759,-6.206,-0.088,0.909,-0.467,-2.472,-0.305,1.801,60.000,43613.000,1.000
-30.162,-19.217,-7.006,-7.769,-2.551,-5.704,-17.202,-3.461,-0.091,0.909,-0.469,-2.411,-0.061,1.923,60.000,43614.000,1.000
-15.767,-8.883,-0.921,-0.305,4.550,-0.721,-7.541,2.860,-0.096,0.910,-0.466,-2.350,-0.061,1.953,60.000,43615.000,1.000
-3.280,-0.096,2.950,4.956,9.989,2.130,1.576,7.616,-0.098,0.915,-0.468,-2.258,-0.092,1.923,60.000,43616.000,1.000
-10.272,-2.962,0.229,2.177,6.945,-0.957,0.190,6.939,-0.102,0.916,-0.469,-2.380,0.061,1.862,60.000,43617.000,1.000
-28.452,-12.813,-4.589,-3.959,-0.509,-5.781,-7.238,3.876,-0.103,0.915,-0.468,-2.319,0.000,1.740,60.000,43618.000,1.000
-30.010,-14.095,-2.772,-2.894,-1.297,-4.457,-6.878,4.946,-0.102,0.916,-0.469,-2.502,-0.031,1.587,60.000,43619.000,1.000
-6.233,-1.940,6.175,6.781,6.996,3.466,4.134,10.573,-0.102,0.916,-0.466,-2.533,-0.031,1.556,60.000,43620.000,1.000
16.108,9.139,12.499,13.706,13.228,9.337,11.652,13.425,-0.099,0.912,-0.470,-2.563,-0.122,1.434,60.000,43621.000,1.000
9.858,4.944,9.389,8.964,7.873,7.136,4.052,8.386,-0.095,0.910,-0.467,-2.502,-0.153,1.282,60.000,43622.000,1.000
-13.693,-7.537,2.903,-1.046,-2.938,2.116,-10.372,0.226,-0.093,0.911,-0.468,-2.380,-0.092,0.977,60.000,43623.000,1.000
-16.961,-7.632,4.474,-2.334,-4.443,4.137,-12.790,-1.934,-0.093,0.907,-0.472,-2.350,0.031,0.885,60.000,43624.000,1.000
11.466,10.029,14.427,6.886,6.073,13.400,0.044,2.812,-0.093,0.908,-0.475,-2.106,0.122,0.763,60.000,43625.000,1.000
37.659,25.903,20.364,12.717,14.406,19.272,10.207,5.649,-0.094,0.909,-0.468,-2.045,0.122,0.671,60.000,43626.000,1.000
27.989,21.538,14.183,4.978,8.919,15.015,3.513,0.727,-0.094,0.905,-0.473,-1.953,0.153,0.580,60.000,43627.000,1.000
-3.700,5.241,3.680,-7.912,-3.009,7.532,-10.259,-6.161,-0.096,0.903,-0.472,-1.709,0.244,0.427,60.000,43628.000,1.000
-12.608,1.946,2.650,-9.275,-4.324,8.696,-9.687,-5.239,-0.098,0.901,-0.468,-1.617,0.336,0.458,60.000,43629.000,1.000
15.106,18.526,11.697,2.771,7.740,18.867,8.020,2.988,-0.098,0.900,-0.471,-1.282,0.214,0.275,60.000,43630.000,1.000
41.597,33.116,16.979,12.095,16.865,25.907,21.656,7.438,-0.097,0.899,-0.470,-1.007,0.183,0.214,60.000,43631.000,1.000
29.470,25.032,9.367,6.645,9.875,21.782,14.787,1.279,-0.097,0.899,-0.475,-0.854,0.214,0.122,60.000,43632.000,1.000
-6.989,3.010,-3.118,-5.392,-5.363,13.194,-2.020,-8.740,-0.097,0.900,-0.475,-0.641,0.214,0.153,60.000,43633.000,1.000
-20.740,-6.205,-6.130,-6.900,-10.367,12.147,-5.479,-10.750,-0.098,0.900,-0.475,-0.214,0.214,0.031,60.000,43634.000,1.000
3.327,5.870,1.168,4.258,-1.190,19.046,8.034,-3.345,-0.099,0.900,-0.475,-0.061,0.183,0.031,60.000,43635.000,1.000
28.314,18.819,5.349,12.400,6.938,22.482,17.845,3.173,-0.100,0.900,-0.474,0.092,0.122,0.061,60.000,43636.000,1.000
18.220,13.130,-1.823,6.387,1.972,16.040,9.109,1.464,-0.099,0.900,-0.469,0.244,0.122,0.000,60.000,43637.000,1.000
-12.494,-2.759,-11.832,-4.993,-7.985,7.630,-5.949,-3.257,-0.099,0.897,-0.470,0.397,0.153,0.061,60.000,43638.000,1.000
-19.194,-4.544,-11.048,-5.145,-5.902,8.827,-4.367,-1.243,-0.097,0.900,-0.469,0.641,0.031,0.061,60.000,43639.000,1.000
10.053,13.010,-0.053,6.910,9.744,18.290,14.930,7.234,-0.100,0.901,-0.467,0.824,0.092,0.031,60.000,43640.000,1.000
37.198,27.653,6.644,14.946,21.729,22.750,28.131,11.718,-0.100,0.902,-0.469,0.885,0.061,0.000,60.000,43641.000,1.000
26.763,19.930,0.241,8.062,16.895,14.534,18.252,6.118,-0.100,0.901,-0.469,1.007,-0.061,0.031,60.000,43642.000,1.000
-7.178,-1.080,-11.181,-4.877,2.776,1.154,-3.008,-2.934,-0.101,0.899,-0.469,1.129,-0.153,0.000,60.000,43643.000,1.000
-20.843,-9.976,-13.822,-7.329,-3.080,-4.719,-11.091,-4.709,-0.103,0.897,-0.468,1.373,-0.183,-0.122,60.000,43644.000,1.000
0.177,1.441,-6.515,2.731,3.639,-1.366,-0.715,1.618,-0.102,0.899,-0.471,1.434,-0.214,-0.061,60.000,43645.000,1.000
23.889,15.006,-1.097,10.972,10.021,1.515,9.354,6.851,-0.104,0.898,-0.470,1.526,-0.336,-0.092,60.000,43646.000,1.000
18.351,12.638,-5.251,6.969,5.531,-2.544,3.840,5.080,-0.103,0.902,-0.470,1.526,-0.336,-0.122,60.000,43647.000,1.000
-6.280,-0.065,-12.592,-2.519,-3.593,-8.370,-9.123,1.232,-0.102,0.902,-0.468,1.617,-0.488,-0.183,60.000,43648.000,1.000
-13.988,-3.118,-11.999,-3.632,-3.475,-7.135,-10.500,3.606,-0.104,0.902,-0.470,1.648,-0.641,-0.244,60.000,43649.000,1.000
6.447,9.328,-3.211,5.292,7.648,0.547,2.557,11.837,-0.103,0.904,-0.472,1.678,-0.671,-0.275,60.000,43650.000,1.000
27.298,21.376,3.079,12.027,16.868,5.169,13.233,17.239,-0.104,0.904,-0.472,1.648,-0.824,-0.275,60.000,43651.000,1.000
22.038,18.212,0.096,7.832,14.213,1.339,8.898,14.636,-0.103,0.905,-0.474,1.556,-1.038,-0.366,60.000,43652.000,1.000
0.120,5.345,-6.776,-1.417,4.767,-5.699,-3.025,8.705,-0.103,0.906,-0.471,1.465,-1.068,-0.336,60.000,43653.000,1.000
-7.701,0.067,-7.963,-3.791,0.693,-7.531,-6.336,7.424,-0.105,0.906,-0.474,1.373,-1.099,-0.366,60.000,43654.000,1.000
7.633,7.385,-2.885,2.271,4.451,-3.992,1.555,11.513,-0.105,0.905,-0.473,1.343,-1.282,-0.305,60.000,43655.000,1.000
22.082,13.847,0.017,6.518,6.372,-2.830,7.183,14.280,-0.105,0.906,-0.469,1.251,-1.373,-0.244,60.000,43656.000,1.000
13.648,7.453,-4.083,1.991,-0.527,-8.232,1.118,11.528,-0.106,0.905,-0.471,1.160,-1.495,-0.214,60.000,43657.000,1.000
-8.055,-5.907,-9.796,-5.603,-10.528,-14.951,-9.307,6.978,-0.105,0.907,-0.473,1.129,-1.556,-0.244,60.000,43658.000,1.000
-15.591,-10.593,-8.976,-5.948,-12.831,-15.310,-10.200,6.634,-0.107,0.907,-0.474,0.916,-1.678,-0.153,60.000,43659.000,1.000
-1.509,-2.725,-2.187,1.434,-6.450,-9.727,-0.183,10.009,-0.106,0.908,-0.473,0.854,-1.770,-0.183,60.000,43660.000,1.000
12.595,4.983,2.046,6.656,-1.466,-5.985,8.161,10.867,-0.107,0.906,-0.475,0.732,-1.892,-0.092,60.000,43661.000,1.000
7.552,1.469,-1.017,3.240,-5.103,-8.490,5.847,6.132,-0.103,0.905,-0.480,0.519,-1.984,-0.031,60.000,43662.000,1.000
-8.195,-8.290,-6.610,-3.887,-12.790,-13.008,-1.710,-0.162,-0.104,0.906,-0.473,0.488,-2.075,-0.061,60.000,43663.000,1.000
-11.141,-10.557,-7.137,-5.456,-14.736,-12.701,-3.069,-2.208,-0.103,0.907,-0.474,0.397,-2.075,0.092,60.000,43664.000,1.000
4.451,-1.698,-2.315,-0.426,-9.128,-7.407,3.250,0.016,-0.103,0.906,-0.474,0.305,-2.167,0.122,60.000,43665.000,1.000
19.264,7.629,1.227,3.296,-3.819,-3.365,7.568,1.245,-0.103,0.906,-0.475,0.153,-2.289,0.183,60.000,43666.000,1.000
16.798,8.284,-0.102,0.609,-4.593,-4.134,3.875,-1.388,-0.102,0.906,-0.473,0.153,-2.289,0.122,60.000,43667.000,1.000
4.577,4.338,-2.255,-4.078,-7.693,-6.243,-1.876,-4.685,-0.101,0.906,-0.473,0.000,-2.319,0.122,60.000,43668.000,1.000
2.574,6.220,0.501,-3.159,-5.609,-4.513,-0.096,-3.952,-0.100,0.905,-0.475,-0.153,-2.319,0.244,60.000,43669.000,1.000
14.904,15.024,6.991,3.296,1.832,0.155,8.363,0.173,-0.098,0.905,-0.478,-0.275,-2.319,0.214,60.000,43670.000,1.000
24.217,20.134,10.161,7.398,6.733,1.739,12.556,2.318,-0.099,0.904,-0.478,-0.244,-2.228,0.305,60.000,43671.000,1.000
16.330,13.718,6.466,4.275,3.901,-2.436,6.340,-0.361,-0.098,0.902,-0.476,-0.061,-2.106,0.214,60.000,43672.000,1.000
-1.542,0.970,0.170,-1.821,-2.530,-8.008,-3.761,-4.677,-0.098,0.900,-0.474,-0.092,-2.075,0.183,60.000,43673.000,1.000
-10.513,-5.891,-1.943,-2.983,-4.255,-8.660,-6.574,-5.449,-0.101,0.901,-0.479,-0.122,-1.984,0.153,60.000,43674.000,1.000
-4.439,-2.205,1.309,2.390,0.872,-3.665,-0.178,-2.043,-0.101,0.901,-0.474,-0.153,-1.923,0.122,60.000,43675.000,1.000
4.049,5.049,5.248,8.468,7.036,2.030,6.746,1.233,-0.099,0.902,-0.475,-0.153,-1.892,0.183,60.000,43676.000,1.000
2.875,8.018,6.386,10.418,8.847,4.526,7.238,1.022,-0.100,0.900,-0.474,-0.092,-1.923,0.122,60.000,43677.000,1.000
-4.706,6.882,6.027,9.578,7.163,4.511,3.654,-1.475,-0.099,0.900,-0.475,-0.183,-1.831,0.092,60.000,43678.000,1.000
-6.452,7.221,7.294,10.195,6.369,4.786,2.865,-2.790,-0.100,0.902,-0.473,-0.214,-1.740,0.061,60.000,43679.000,1.000
0.652,10.384,9.941,12.644,7.469,5.639,6.014,-1.945,-0.097,0.904,-0.472,-0.336,-1.526,0.031,60.000,43680.000,1.000
6.204,11.171,10.606,12.998,7.045,4.741,7.328,-0.908,-0.098,0.904,-0.472,-0.397,-1.434,0.000,60.000,43681.000,1.000
2.148,6.303,8.014,9.318,3.257,1.419,3.340,-0.905,-0.100,0.903,-0.474,-0.549,-1.282,-0.061,60.000,43682.000,1.000
-6.449,-0.292,4.853,4.602,-1.112,-1.784,-2.229,-0.909,-0.098,0.905,-0.474,-0.580,-1.160,0.000,60.000,43683.000,1.000
-7.977,-1.736,4.625,3.313,-1.916,-1.814,-3.151,0.574,-0.098,0.906,-0.475,-0.641,-1.007,0.000,60.000,43684.000,1.000
0.153,3.150,7.190,5.703,0.854,1.083,0.951,2.789,-0.098,0.906,-0.477,-0.671,-0.763,-0.061,60.000,43685.000,1.000
8.439,8.638,9.302,7.842,3.108,3.837,4.239,3.269,-0.099,0.908,-0.475,-0.916,-0.702,-0.092,60.000,43686.000,1.000
9.055,10.120,9.347,7.225,2.387,4.686,2.813,1.254,-0.098,0.908,-0.472,-1.068,-0.641,-0.122,60.000,43687.000,1.000
4.882,8.994,8.914,5.284,0.465,4.649,-1.219,-1.265,-0.098,0.908,-0.473,-1.129,-0.610,-0.244,60.000,43688.000,1.000
4.576,9.714,10.288,4.858,0.576,5.551,-3.210,-1.852,-0.099,0.907,-0.467,-1.282,-0.580,-0.153,60.000,43689.000,1.000
10.020,12.757,12.771,5.782,2.601,6.918,-2.512,-0.805,-0.103,0.907,-0.471,-1.434,-0.366,-0.153,60.000,43690.000,1.000
13.597,13.386,13.124,4.952,2.906,6.299,-2.906,-0.670,-0.103,0.909,-0.471,-1.587,-0.275,-0.061,60.000,43691.000,1.000
9.564,8.465,9.835,1.106,-0.601,2.805,-6.389,-2.548,-0.102,0.908,-0.472,-1.678,-0.183,-0.061,60.000,43692.000,1.000
1.322,0.546,4.773,-3.249,-5.971,-1.648,-10.541,-4.764,-0.102,0.909,-0.469,-1.831,-0.122,-0.153,60.000,43693.000,1.000
-2.636,-4.714,1.149,-4.460,-9.385,-4.183,-11.349,-4.837,-0.101,0.909,-0.470,-1.953,-0.244,-0.092,60.000,43694.000,1.000
0.615,-4.855,-0.048,-2.104,-9.521,-4.112,-8.408,-2.506,-0.102,0.911,-0.472,-2.045,-0.183,-0.061,60.000,43695.000,1.000
5.445,-2.517,-0.347,0.825,-8.307,-3.140,-5.411,0.076,-0.105,0.909,-0.469,-2.167,-0.122,-0.122,60.000,43696.000,1.000
6.549,-0.767,-0.757,2.097,-7.325,-2.398,-5.083,1.070,-0.105,0.911,-0.471,-2.258,-0.214,-0.122,60.000,43697.000,1.000
4.808,0.038,-0.745,2.098,-6.186,-1.403,-6.814,0.377,-0.105,0.908,-0.471,-2.502,-0.092,0.000,60.000,43698.000,1.000
5.055,1.525,0.543,2.447,-3.800,0.664,-8.145,-0.940,-0.106,0.910,-0.473,-2.411,-0.122,0.122,60.000,43699.000,1.000
8.277,3.686,2.248,3.108,-0.916,2.991,-8.417,-2.432,-0.105,0.911,-0.474,-2.472,-0.153,0.305,60.000,43700.000,1.000
9.379,3.803,2.239,2.236,0.010,3.617,-9.366,-4.536,-0.105,0.911,-0.472,-2.594,-0.183,0.305,60.000,43701.000,1.000
4.965,0.472,-0.004,-0.678,-1.833,2.114,-11.479,-6.946,-0.106,0.912,-0.471,-2.502,-0.275,0.305,60.000,43702.000,1.000
-1.932,-4.127,-2.712,-3.786,-4.443,0.170,-12.749,-8.285,-0.108,0.912,-0.469,-2.625,-0.305,0.549,60.000,43703.000,1.000
-4.815,-5.997,-3.573,-4.670,-4.842,-0.027,-10.524,-7.400,-0.106,0.910,-0.468,-2.594,-0.336,0.610,60.000,43704.000,1.000
-2.036,-3.972,-2.486,-3.337,-2.417,1.738,-5.186,-5.176,-0.106,0.912,-0.469,-2.625,-0.427,0.641,60.000,43705.000,1.000
0.821,-1.111,-1.546,-2.213,0.532,3.611,-0.380,-3.866,-0.108,0.910,-0.468,-2.625,-0.488,0.732,60.000,43706.000,1.000
-0.960,-0.239,-2.067,-2.821,1.986,4.138,1.498,-4.385,-0.109,0.908,-0.469,-2.502,-0.641,0.824,60.000,43707.000,1.000
-5.875,-0.993,-3.489,-4.509,1.874,3.272,1.181,-5.708,-0.110,0.909,-0.468,-2.472,-0.671,0.946,60.000,43708.000,1.000
-8.427,-0.845,-4.374,-5.478,1.486,1.919,1.014,-6.113,-0.112,0.907,-0.472,-2.472,-0.793,0.946,60.000,43709.000,1.000
-6.780,0.959,-4.438,-5.060,1.411,0.569,1.606,-5.010,-0.110,0.906,-0.472,-2.441,-1.007,0.916,60.000,43710.000,1.000
-5.212,2.162,-4.673,-4.190,1.001,-0.951,1.303,-3.201,-0.110,0.906,-0.471,-2.289,-1.038,1.068,60.000,43711.000,1.000
-7.036,1.109,-5.309,-3.386,0.265,-2.310,-0.409,-1.444,-0.109,0.904,-0.474,-2.167,-1.221,1.068,60.000,43712.000,1.000
-10.540,-1.591,-5.509,-2.317,0.055,-2.936,-1.943,-0.001,-0.110,0.902,-0.469,-1.953,-1.282,1.007,60.000,43713.000,1.000
-11.464,-4.208,-4.500,-0.608,0.986,-2.733,-1.345,1.102,-0.108,0.902,-0.475,-1.923,-1.343,0.977,60.000,43714.000,1.000
-9.569,-6.486,-3.128,0.826,2.132,-2.625,0.636,1.381,-0.109,0.900,-0.470,-1.831,-1.465,1.007,60.000,43715.000,1.000
-9.987,-10.031,-3.281,0.212,1.655,-3.743,0.787,0.119,-0.108,0.900,-0.469,-1.617,-1.678,0.946,60.000,43716.000,1.000
-15.392,-14.903,-5.208,-2.476,-0.440,-5.639,-1.861,-2.221,-0.106,0.898,-0.470,-1.404,-1.648,0.946,60.000,43717.000,1.000
-21.562,-18.268,-6.896,-4.983,-1.766,-6.474,-4.310,-3.809,-0.105,0.899,-0.473,-1.221,-1.740,0.977,60.000,43718.000,1.000
-21.373,-16.730,-5.961,-4.767,0.267,-4.749,-2.647,-2.833,-0.104,0.900,-0.471,-1.038,-1.831,0.977,60.000,43719.000,1.000
-14.258,-10.970,-2.734,-2.185,4.975,-1.359,2.652,0.287,-0.102,0.901,-0.468,-0.977,-1.831,0.885,60.000,43720.000,1.000
-8.115,-6.180,-0.164,-0.313,8.462,1.043,6.647,3.144,-0.100,0.900,-0.470,-0.763,-1.770,0.732,60.000,43721.000,1.000
-8.858,-5.991,0.010,-0.788,8.357,1.250,6.385,4.362,-0.099,0.903,-0.471,-0.641,-1.678,0.610,60.000,43722.000,1.000
-13.538,-8.770,-1.028,-2.059,6.329,0.497,4.096,4.780,-0.099,0.903,-0.472,-0.580,-1.648,0.641,60.000,43723.000,1.000
-14.389,-10.045,-0.994,-1.539,5.881,0.708,4.106,5.891,-0.098,0.903,-0.469,-0.519,-1.617,0.641,60.000,43724.000,1.000
-9.619,-8.642,0.115,0.488,7.618,1.679,6.677,7.421,-0.096,0.902,-0.469,-0.610,-1.556,0.580,60.000,43725.000,1.000
-5.955,-8.115,0.014,0.907,8.482,1.226,7.510,7.723,-0.094,0.902,-0.470,-0.610,-1.404,0.488,60.000,43726.000,1.000
-7.983,-10.692,-2.141,-1.595,6.529,-1.424,4.214,6.634,-0.094,0.902,-0.469,-0.641,-1.312,0.397,60.000,43727.000,1.000
-11.710,-13.782,-4.432,-4.698,3.516,-4.441,-0.772,6.029,-0.098,0.902,-0.468,-0.610,-1.129,0.275,60.000,43728.000,1.000
-9.796,-13.212,-4.459,-5.305,2.480,-5.439,-3.281,7.650,-0.099,0.903,-0.469,-0.763,-0.946,0.183,60.000,43729.000,1.000
-2.314,-9.418,-2.685,-3.772,3.253,-4.565,-2.767,10.562,-0.097,0.903,-0.468,-0.732,-0.732,0.061,60.000,43730.000,1.000
2.365,-7.587,-1.903,-3.453,2.509,-4.231,-2.554,11.902,-0.098,0.900,-0.469,-0.763,-0.610,0.092,60.000,43731.000,1.000
-0.366,-10.269,-3.087,-5.653,-1.091,-5.589,-4.360,10.395,-0.100,0.901,-0.469,-0.824,-0.549,-0.061,60.000,43732.000,1.000
-5.107,-13.747,-4.203,-7.912,-4.798,-7.311,-6.266,7.523,-0.101,0.899,-0.468,-0.824,-0.488,-0.092,60.000,43733.000,1.000
-3.205,-12.408,-2.931,-7.236,-5.032,-7.575,-5.660,5.433,-0.102,0.897,-0.463,-0.854,-0.366,-0.153,60.000,43734.000,1.000
4.788,-6.559,-0.290,-4.643,-2.461,-6.977,-3.660,3.944,-0.103,0.899,-0.469,-0.763,-0.305,-0.183,60.000,43735.000,1.000
8.375,-2.942,0.179,-4.391,-1.759,-7.920,-4.221,0.980,-0.101,0.897,-0.468,-0.641,-0.214,-0.305,60.000,43736.000,1.000
1.913,-5.560,-2.621,-7.883,-5.252,-10.638,-7.852,-3.791,-0.103,0.899,-0.470,-0.763,-0.153,-0.305,60.000,43737.000,1.000
-7.190,-10.295,-5.718,-11.426,-9.848,-12.144,-10.110,-7.849,-0.102,0.899,-0.468,-0.671,-0.122,-0.153,60.000,43738.000,1.000
-7.133,-9.972,-5.561,-10.497,-10.820,-9.457,-6.580,-8.582,-0.102,0.899,-0.468,-0.610,-0.153,-0.183,60.000,43739.000,1.000
2.524,-3.974,-2.725,-5.717,-8.062,-3.595,1.041,-6.770,-0.104,0.897,-0.465,-0.549,-0.153,-0.153,60.000,43740.000,1.000
9.644,0.803,-1.084,-2.190,-6.121,1.501,6.475,-5.764,-0.105,0.898,-0.465,-0.549,0.031,-0.153,60.000,43741.000,1.000
6.865,0.045,-1.994,-2.313,-7.299,4.299,7.384,-6.932,-0.107,0.899,-0.464,-0.580,-0.214,-0.122,60.000,43742.000,1.000
1.649,-2.111,-2.480,-2.850,-8.467,7.186,8.109,-8.197,-0.110,0.900,-0.465,-0.671,-0.305,-0.183,60.000,43743.000,1.000
5.886,1.108,0.549,0.261,-5.545,12.614,13.523,-7.252,-0.113,0.902,-0.466,-0.641,-0.397,-0.153,60.000,43744.000,1.000
16.748,8.280,4.977,5.070,-0.392,18.457,20.647,-5.550,-0.112,0.903,-0.463,-0.702,-0.610,-0.061,60.000,43745.000,1.000
16.005,9.295,5.013,4.792,-0.081,19.520,20.135,-7.055,-0.113,0.904,-0.460,-0.763,-0.671,0.061,60.000,43746.000,1.000
-2.841,0.441,0.130,-1.553,-6.209,15.467,10.486,-11.576,-0.112,0.907,-0.466,-0.885,-0.702,0.183,60.000,43747.000,1.000
-11.708,-2.978,-0.017,-2.532,-7.499,14.966,7.576,-11.345,-0.111,0.906,-0.465,-0.854,-0.793,0.244,60.000,43748.000,1.000
30.412,21.299,14.934,15.059,10.158,27.125,30.619,1.486,-0.110,0.906,-0.464,-1.099,-0.916,0.305,60.000,43749.000,1.000
114.565,67.729,37.529,43.514,40.201,45.329,70.334,20.718,-0.110,0.908,-0.465,-1.251,-1.007,0.305,60.000,43750.000,1.000
160.696,91.818,42.152,51.867,51.302,47.418,84.228,26.013,-0.110,0.911,-0.466,-1.190,-1.007,0.427,60.000,43751.000,1.000
97.978,55.252,13.754,19.504,20.818,20.918,42.551,5.089,-0.108,0.907,-0.466,-1.221,-1.129,0.580,60.000,43752.000,1.000
-40.890,-22.649,-29.073,-33.717,-32.923,-17.555,-28.839,-28.228,-0.108,0.907,-0.466,-1.373,-1.221,0.671,60.000,43753.000,1.000
-140.851,-78.205,-50.519,-64.085,-65.333,-37.434,-70.089,-46.296,-0.107,0.906,-0.468,-1.495,-1.160,0.824,60.000,43754.000,1.000
-128.780,-72.260,-36.975,-51.745,-54.129,-28.258,-53.665,-38.007,-0.106,0.906,-0.462,-1.617,-1.160,0.977,60.000,43755.000,1.000
-48.101,-29.797,-10.165,-20.231,-21.618,-9.801,-12.600,-19.258,-0.105,0.903,-0.462,-1.617,-1.129,1.068,60.000,43756.000,1.000
5.513,-3.127,1.410,-4.662,-4.106,-6.228,3.691,-11.271,-0.104,0.898,-0.466,-1.648,-1.190,1.251,60.000,43757.000,1.000
-4.773,-11.006,-5.858,-12.063,-10.531,-18.874,-14.311,-16.279,-0.101,0.896,-0.463,-1.648,-1.007,1.282,60.000,43758.000,1.000
-33.877,-27.285,-13.046,-20.847,-19.763,-29.534,-35.031,-19.629,-0.099,0.897,-0.462,-1.495,-1.007,1.343,60.000,43759.000,1.000
-30.310,-23.626,-6.776,-13.486,-13.284,-25.895,-32.244,-11.724,-0.098,0.897,-0.462,-1.373,-0.854,1.495,60.000,43760.000,1.000
0.014,-4.458,5.831,3.278,2.880,-14.511,-14.484,0.761,-0.096,0.900,-0.465,-1.282,-0.702,1.526,60.000,43761.000,1.000
15.872,6.513,10.667,12.367,11.277,-8.370,-5.771,6.220,-0.095,0.903,-0.465,-1.282,-0.610,1.526,60.000,43762.000,1.000
-0.662,-0.618,4.915,8.793,6.396,-10.651,-13.610,2.885,-0.094,0.903,-0.461,-1.312,-0.458,1.556,60.000,43763.000,1.000
-26.826,-12.873,-2.169,2.521,-1.334,-13.923,-24.158,-0.896,-0.095,0.906,-0.464,-1.526,-0.153,1.404,60.000,43764.000,1.000
-33.065,-14.068,-2.416,3.464,-0.809,-11.428,-22.901,2.154,-0.097,0.907,-0.461,-1.740,-0.031,1.343,60.000,43765.000,1.000
-15.295,-2.726,3.172,10.915,7.866,-4.097,-9.974,11.188,-0.095,0.911,-0.463,-1.862,0.061,1.038,60.000,43766.000,1.000
9.493,11.216,8.568,17.670,16.893,2.804,4.713,20.445,-0.094,0.912,-0.463,-2.014,0.214,1.038,60.000,43767.000,1.000
24.398,18.706,9.587,18.511,19.861,5.502,12.677,25.241,-0.095,0.913,-0.464,-2.197,0.427,1.007,60.000,43768.000,1.000
25.603,18.446,6.769,14.134,16.497,4.395,12.739,24.835,-0.092,0.912,-0.461,-2.350,0.549,0.977,60.000,43769.000,1.000
17.660,13.477,2.698,7.970,9.887,1.858,8.128,20.810,-0.090,0.909,-0.463,-2.502,0.732,0.885,60.000,43770.000,1.000
1.819,4.352,-1.895,1.108,1.301,-1.299,0.416,14.257,-0.088,0.909,-0.465,-2.625,1.068,0.763,60.000,43771.000,1.000
-23.020,-9.937,-7.317,-7.022,-9.326,-5.332,-10.398,6.023,-0.090,0.908,-0.463,-2.686,1.282,0.793,60.000,43772.000,1.000
-49.551,-25.566,-11.558,-14.341,-19.104,-8.688,-21.289,-1.336,-0.093,0.910,-0.463,-2.808,1.526,0.702,60.000,43773.000,1.000
-59.580,-32.339,-10.101,-15.383,-21.532,-7.678,-24.865,-3.762,-0.096,0.915,-0.462,-2.930,1.678,0.610,60.000,43774.000,1.000
-38.753,-21.818,-0.563,-6.639,-12.303,-0.243,-15.420,0.729,-0.097,0.916,-0.463,-3.174,1.770,0.549,60.000,43775.000,1.000
9.726,4.861,14.398,9.485,6.134,11.630,5.565,9.980,-0.098,0.918,-0.463,-3.357,1.953,0.427,60.000,43776.000,1.000
65.484,36.690,28.279,25.606,25.417,22.808,29.128,18.783,-0.097,0.920,-0.462,-3.510,2.075,0.397,60.000,43777.000,1.000
95.676,54.981,32.116,30.875,33.178,25.956,39.557,20.049,-0.099,0.918,-0.462,-3.632,2.167,0.366,60.000,43778.000,1.000
72.550,43.526,20.025,17.503,20.160,16.231,24.059,9.182,-0.102,0.917,-0.461,-3.754,2.167,0.305,60.000,43779.000,1.000
7.382,8.294,-1.197,-7.381,-6.977,-0.482,-8.973,-8.418,-0.104,0.915,-0.463,-3.876,2.167,0.214,60.000,43780.000,1.000
-41.594,-17.961,-12.835,-21.507,-24.677,-8.347,-28.646,-18.043,-0.109,0.912,-0.464,-3.815,2.045,0.122,60.000,43781.000,1.000
-24.287,-7.203,-3.488,-9.992,-15.581,1.884,-13.021,-10.823,-0.110,0.911,-0.459,-3.937,1.801,-0.031,60.000,43782.000,1.000
35.644,26.622,14.198,13.180,7.841,18.778,20.015,3.243,-0.115,0.908,-0.457,-3.845,1.678,-0.122,60.000,43783.000,1.000
62.714,40.562,17.000,19.360,15.901,22.223,30.965,5.789,-0.117,0.905,-0.459,-3.784,1.312,-0.153,60.000,43784.000,1.000
25.510,17.500,1.232,2.001,-0.264,9.410,9.086,-6.396,-0.119,0.901,-0.458,-3.723,1.007,-0.214,60.000,43785.000,1.000
-17.447,-8.440,-10.666,-12.691,-15.167,0.085,-11.219,-16.049,-0.119,0.900,-0.458,-3.510,0.610,-0.366,60.000,43786.000,1.000
7.145,4.593,0.357,0.208,-2.151,10.645,4.999,-8.192,-0.118,0.899,-0.457,-3.326,0.305,-0.427,60.000,43787.000,1.000
77.160,43.988,20.145,26.298,26.079,28.499,40.515,6.794,-0.117,0.897,-0.455,-3.296,0.000,-0.549,60.000,43788.000,1.000
87.686,50.858,15.997,25.879,28.787,25.474,42.102,4.327,-0.115,0.897,-0.459,-3.113,-0.153,-0.488,60.000,43789.000,1.000
-8.562,-0.756,-17.827,-11.276,-7.020,-2.602,-6.191,-19.520,-0.111,0.899,-0.458,-2.991,-0.336,-0.427,60.000,43790.000,1.000
-120.809,-60.016,-46.643,-45.449,-42.427,-25.189,-52.887,-38.025,-0.108,0.899,-0.457,-2.777,-0.549,-0.305,60.000,43791.000,1.000
-126.509,-59.731,-38.227,-35.730,-34.028,-15.027,-42.108,-27.044,-0.109,0.901,-0.455,-2.777,-0.610,-0.153,60.000,43792.000,1.000
-30.594,-4.345,-5.776,5.456,8.288,15.147,12.092,2.337,-0.106,0.903,-0.455,-2.686,-0.763,-0.031,60.000,43793.000,1.000
44.577,37.598,10.212,29.238,34.772,29.573,45.173,18.279,-0.105,0.905,-0.453,-2.502,-0.854,0.061,60.000,43794.000,1.000
21.516,24.218,-4.881,14.206,21.029,15.982,26.650,9.236,-0.105,0.905,-0.452,-2.472,-0.824,0.214,60.000,43795.000,1.000
-42.462,-11.413,-24.545,-10.521,-4.749,-2.047,-6.683,-4.437,-0.103,0.905,-0.453,-2.441,-0.885,0.458,60.000,43796.000,1.000
-48.206,-14.535,-20.539,-9.581,-4.939,-0.179,-7.446,-1.020,-0.103,0.904,-0.455,-2.380,-0.916,0.519,60.000,43797.000,1.000
8.952,16.061,-0.135,11.436,16.990,14.487,18.537,13.773,-0.100,0.904,-0.455,-2.380,-0.946,0.702,60.000,43798.000,1.000
46.126,33.827,8.561,19.417,26.991,17.107,27.727,18.309,-0.103,0.903,-0.456,-2.289,-0.977,0.824,60.000,43799.000,1.000
15.992,13.652,-2.904,2.333,10.492,0.946,3.187,6.599,-0.104,0.904,-0.455,-2.106,-0.946,0.916,60.000,43800.000,1.000
-32.807,-15.856,-14.199,-16.176,-9.639,-14.968,-24.372,-4.645,-0.105,0.905,-0.455,-1.953,-0.977,0.946,60.000,43801.000,1.000
-30.383,-15.359,-6.565,-11.502,-6.945,-13.102,-21.560,0.118,-0.106,0.906,-0.453,-1.831,-1.068,1.007,60.000,43802.000,1.000
18.072,11.799,11.771,9.028,13.217,-0.111,3.072,15.061,-0.106,0.908,-0.452,-1.892,-1.068,1.221,60.000,43803.000,1.000
47.201,28.936,19.181,19.357,24.509,5.016,15.187,23.160,-0.105,0.908,-0.453,-1.831,-1.160,1.190,60.000,43804.000,1.000
24.070,17.658,10.220,10.577,16.206,-3.057,2.347,19.226,-0.105,0.905,-0.453,-1.831,-1.160,1.068,60.000,43805.000,1.000
-13.830,-1.592,0.286,-0.511,4.152,-11.762,-13.745,14.049,-0.103,0.905,-0.454,-1.892,-1.160,1.099,60.000,43806.000,1.000
-16.509,-1.829,2.886,2.901,5.945,-10.058,-11.065,17.308,-0.101,0.903,-0.456,-1.892,-1.160,1.068,60.000,43807.000,1.000
11.742,13.868,12.258,15.350,17.168,-3.063,2.639,24.445,-0.101,0.900,-0.456,-1.709,-1.190,1.068,60.000,43808.000,1.000
27.197,21.328,14.199,19.872,20.689,-2.379,4.495,24.978,-0.100,0.898,-0.458,-1.648,-1.160,1.068,60.000,43809.000,1.000
10.478,10.756,6.121,12.161,11.391,-9.089,-9.981,17.578,-0.098,0.894,-0.459,-1.404,-1.160,1.007,60.000,43810.000,1.000
-12.900,-2.837,-1.605,3.893,0.926,-13.616,-22.465,10.634,-0.099,0.893,-0.463,-1.190,-1.068,0.946,60.000,43811.000,1.000
-13.394,-3.168,-1.190,4.853,0.062,-9.753,-18.069,10.152,-0.096,0.895,-0.457,-1.068,-1.068,0.916,60.000,43812.000,1.000
2.663,5.429,2.777,10.201,4.837,-2.692,-4.598,12.442,-0.093,0.896,-0.455,-0.946,-0.854,0.824,60.000,43813.000,1.000
8.022,7.268,1.866,9.553,4.807,-0.770,0.654,10.882,-0.091,0.896,-0.459,-0.916,-0.732,0.763,60.000,43814.000,1.000
-5.427,-2.032,-4.128,1.832,-1.711,-4.676,-5.825,5.151,-0.091,0.897,-0.460,-0.793,-0.519,0.763,60.000,43815.000,1.000
-19.328,-11.874,-8.268,-4.860,-7.023,-8.445,-12.204,0.410,-0.090,0.899,-0.458,-0.793,-0.336,0.671,60.000,43816.000,1.000
-17.175,-12.843,-6.665,-5.080,-5.835,-8.248,-9.066,-0.289,-0.091,0.902,-0.455,-0.793,-0.061,0.549,60.000,43817.000,1.000
-6.820,-9.236,-3.456,-2.815,-2.459,-6.674,-1.571,0.244,-0.089,0.905,-0.455,-0.793,0.183,0.519,60.000,43818.000,1.000
-6.138,-10.873,-3.963,-4.340,-3.689,-7.340,0.113,-1.881,-0.090,0.910,-0.456,-0.824,0.336,0.458,60.000,43819.000,1.000
-16.898,-18.559,-7.239,-9.236,-9.170,-9.335,-4.347,-6.236,-0.089,0.914,-0.457,-1.038,0.549,0.397,60.000,43820.000,1.000
-24.170,-23.967,-8.035,-11.950,-12.643,-9.173,-6.194,-9.322,-0.090,0.916,-0.459,-1.251,0.732,0.397,60.000,43821.000,1.000
-16.969,-21.221,-3.837,-9.727,-10.434,-6.067,-0.058,-9.517,-0.091,0.920,-0.457,-1.434,0.946,0.244,60.000,43822.000,1.000
-1.834,-14.307,2.192,-6.205,-5.911,-3.446,8.724,-9.108,-0.092,0.923,-0.458,-1.770,1.099,0.275,60.000,43823.000,1.000
8.449,-10.466,6.145,-5.801,-4.006,-4.265,11.893,-10.659,-0.092,0.925,-0.459,-1.831,1.434,0.214,60.000,43824.000,1.000
10.697,-11.258,7.846,-8.262,-5.161,-7.522,8.043,-13.775,-0.094,0.927,-0.460,-2.136,1.617,0.092,60.000,43825.000,1.000
10.279,-13.286,9.278,-10.470,-6.715,-10.363,1.669,-16.363,-0.094,0.930,-0.459,-2.350,1.556,0.153,60.000,43826.000,1.000
11.738,-13.540,11.392,-10.546,-6.996,-11.315,-2.988,-17.255,-0.094,0.931,-0.461,-2.533,1.709,0.092,60.000,43827.000,1.000
14.495,-12.046,13.385,-9.118,-6.659,-10.980,-5.002,-17.063,-0.099,0.931,-0.465,-2.686,1.801,0.061,60.000,43828.000,1.000
17.725,-9.359,14.830,-6.909,-6.252,-9.977,-4.324,-16.539,-0.102,0.930,-0.466,-2.808,1.801,0.061,60.000,43829.000,1.000
21.672,-5.807,15.838,-4.201,-5.598,-8.506,-1.426,-15.957,-0.099,0.928,-0.465,-2.991,1.801,0.000,60.000,43830.000,1.000
22.916,-3.892,15.441,-2.510,-5.727,-7.570,0.564,-15.948,-0.102,0.927,-0.464,-3.021,1.892,0.031,60.000,43831.000,1.000
17.231,-6.313,12.797,-3.161,-7.785,-7.938,-1.054,-16.815,-0.105,0.925,-0.467,-3.143,1.923,0.031,60.000,43832.000,1.000
7.336,-11.444,9.388,-4.650,-10.323,-8.376,-3.902,-17.342,-0.106,0.924,-0.468,-3.143,1.862,0.031,60.000,43833.000,1.000
3.260,-13.268,8.393,-3.343,-9.666,-6.234,-1.833,-15.470,-0.107,0.924,-0.466,-2.960,1.801,0.061,60.000,43834.000,1.000
8.878,-9.237,10.128,1.194,-5.244,-1.269,6.227,-11.526,-0.106,0.921,-0.464,-2.808,1.678,0.031,60.000,43835.000,1.000
12.772,-5.412,10.386,4.056,-2.173,2.957,12.253,-9.089,-0.108,0.918,-0.464,-2.594,1.617,0.000,60.000,43836.000,1.000
2.933,-8.278,6.232,1.597,-4.734,3.798,9.084,-10.453,-0.104,0.914,-0.466,-2.380,1.495,0.092,60.000,43837.000,1.000
-14.453,-14.726,0.900,-2.594,-9.796,3.455,0.633,-13.036,-0.106,0.908,-0.466,-2.106,1.373,0.214,60.000,43838.000,1.000
-19.636,-14.815,0.409,-1.255,-9.908,6.324,-2.139,-12.072,-0.106,0.902,-0.468,-1.678,1.312,0.244,60.000,43839.000,1.000
-6.540,-6.260,4.739,6.134,-3.915,12.066,3.480,-7.369,-0.105,0.898,-0.469,-1.160,1.190,0.275,60.000,43840.000,1.000
4.552,-0.540,6.214,10.698,-0.326,14.480,6.668,-4.648,-0.102,0.893,-0.472,-0.610,1.068,0.488,60.000,43841.000,1.000
-7.043,-8.353,-0.434,5.580,-6.161,9.697,-1.781,-7.968,-0.099,0.891,-0.471,-0.031,0.977,0.580,60.000,43842.000,1.000
-32.876,-23.975,-10.374,-4.252,-16.622,2.218,-15.416,-13.693,-0.098,0.888,-0.472,0.641,0.946,0.671,60.000,43843.000,1.000
-43.365,-30.334,-14.094,-7.485,-20.039,0.136,-18.922,-14.517,-0.097,0.885,-0.472,1.343,0.946,0.824,60.000,43844.000,1.000
-26.766,-20.745,-9.988,-1.388,-13.043,4.564,-8.568,-9.077,-0.099,0.884,-0.469,1.984,0.946,0.946,60.000,43845.000,1.000
-6.719,-8.386,-6.644,4.303,-5.340,7.956,1.894,-3.680,-0.103,0.885,-0.471,2.563,0.916,0.946,60.000,43846.000,1.000
-10.497,-8.345,-10.583,1.140,-6.180,4.761,0.098,-3.089,-0.105,0.885,-0.469,3.113,0.824,0.824,60.000,43847.000,1.000
-33.006,-17.851,-17.312,-6.661,-12.101,-1.077,-8.569,-4.065,-0.108,0.887,-0.469,3.632,0.671,0.763,60.000,43848.000,1.000
-44.360,-20.920,-17.469,-8.235,-12.076,-1.673,-8.764,-0.173,-0.110,0.887,-0.467,4.181,0.549,0.702,60.000,43849.000,1.000
-30.773,-11.087,-9.939,-1.362,-3.083,3.479,3.142,8.765,-0.108,0.889,-0.471,4.578,0.397,0.702,60.000,43850.000,1.000
-12.884,-0.901,-3.837,4.136,5.308,6.116,13.294,15.692,-0.104,0.890,-0.471,4.791,0.244,0.671,60.000,43851.000,1.000
-15.337,-4.068,-6.192,0.192,4.283,0.358,9.403,15.519,-0.102,0.891,-0.471,5.096,0.061,0.488,60.000,43852.000,1.000
-33.296,-16.782,-13.333,-8.817,-2.632,-9.724,-3.322,11.282,-0.099,0.895,-0.470,5.310,0.000,0.427,60.000,43853.000,1.000
-40.224,-22.945,-16.536,-12.191,-4.688,-15.562,-9.688,9.642,-0.095,0.895,-0.468,5.524,0.000,0.336,60.000,43854.000,1.000
-24.909,-15.646,-13.758,-7.243,1.613,-14.926,-4.638,12.050,-0.096,0.894,-0.470,5.585,0.122,0.275,60.000,43855.000,1.000
-6.749,-5.778,-11.518,-2.417,8.352,-13.556,1.270,13.683,-0.094,0.893,-0.473,5.768,-0.122,0.092,60.000,43856.000,1.000
-7.657,-5.858,-14.631,-4.852,8.160,-15.718,-1.608,11.430,-0.094,0.894,-0.472,5.798,-0.092,0.061,60.000,43857.000,1.000
-22.906,-13.325,-19.405,-10.858,4.327,-18.170,-8.752,8.696,-0.096,0.896,-0.474,5.829,0.000,-0.122,60.000,43858.000,1.000
-28.798,-14.907,-18.839,-11.360,5.850,-15.187,-8.566,10.809,-0.098,0.899,-0.473,5.707,0.061,-0.183,60.000,43859.000,1.000
-15.111,-5.222,-12.495,-4.589,14.469,-7.414,0.770,17.348,-0.099,0.899,-0.471,5.676,0.122,-0.305,60.000,43860.000,1.000
2.039,5.908,-7.332,1.367,21.622,-2.102,8.057,21.927,-0.099,0.900,-0.471,5.493,0.061,-0.427,60.000,43861.000,1.000
4.293,7.607,-8.121,-0.162,19.954,-3.887,4.246,20.189,-0.100,0.903,-0.474,5.310,0.031,-0.519,60.000,43862.000,1.000
-5.150,2.000,-11.525,-5.956,12.544,-9.132,-6.075,14.953,-0.101,0.906,-0.475,5.066,-0.092,-0.671,60.000,43863.000,1.000
-7.976,0.387,-10.784,-7.561,8.530,-10.389,-10.642,12.413,-0.100,0.907,-0.475,4.761,-0.153,-0.702,60.000,43864.000,1.000
3.380,7.547,-4.695,-2.646,11.192,-5.430,-4.985,14.123,-0.102,0.910,-0.474,4.364,0.000,-0.824,60.000,43865.000,1.000
16.080,15.594,1.060,2.158,14.280,0.776,2.895,15.399,-0.103,0.912,-0.479,3.784,0.031,-0.916,60.000,43866.000,1.000
16.785,15.875,2.021,0.849,11.493,3.573,4.765,12.229,-0.102,0.914,-0.477,3.326,-0.061,-0.854,60.000,43867.000,1.000
9.439,10.158,0.198,-4.507,4.497,4.055,2.004,6.303,-0.101,0.915,-0.476,2.960,-0.153,-0.885,60.000,43868.000,1.000
8.628,7.292,0.555,-7.325,-0.176,6.211,1.754,2.347,-0.101,0.914,-0.477,2.808,-0.244,-0.916,60.000,43869.000,1.000
19.059,11.031,4.016,-5.458,-0.174,10.614,6.346,1.937,-0.103,0.916,-0.474,2.319,-0.366,-0.946,60.000,43870.000,1.000
29.153,15.645,6.544,-3.332,0.123,13.634,10.637,2.126,-0.103,0.915,-0.472,1.984,-0.488,-0.977,60.000,43871.000,1.000
28.382,15.461,5.512,-4.572,-3.060,13.188,10.599,0.284,-0.107,0.915,-0.471,1.465,-0.488,-0.977,60.000,43872.000,1.000
21.182,12.843,3.257,-7.016,-7.606,11.758,8.710,-2.672,-0.106,0.914,-0.471,1.129,-0.610,-1.007,60.000,43873.000,1.000
20.137,14.485,3.810,-6.044,-8.670,13.165,9.918,-4.278,-0.108,0.916,-0.473,0.763,-0.732,-0.977,60.000,43874.000,1.000
28.162,21.381,7.193,-1.534,-5.763,17.248,13.813,-4.717,-0.107,0.914,-0.474,0.519,-0.916,-0.916,60.000,43875.000,1.000
33.859,26.312,9.189,1.278,-3.951,19.675,14.047,-7.052,-0.109,0.913,-0.475,0.061,-1.038,-0.793,60.000,43876.000,1.000
28.307,23.769,7.510,-0.824,-6.548,18.046,7.616,-12.511,-0.108,0.910,-0.472,-0.214,-1.190,-0.641,60.000,43877.000,1.000
17.481,17.361,4.870,-4.617,-10.480,15.180,-0.127,-18.107,-0.108,0.909,-0.475,-0.427,-1.251,-0.549,60.000,43878.000,1.000
14.543,15.252,5.400,-4.497,-10.248,15.474,-1.251,-19.737,-0.107,0.905,-0.476,-0.519,-1.343,-0.519,60.000,43879.000,1.000
22.057,19.378,8.951,0.116,-5.452,18.910,4.836,-17.154,-0.107,0.905,-0.476,-0.641,-1.617,-0.397,60.000,43880.000,1.000
27.769,22.666,10.994,3.862,-1.815,20.811,10.147,-14.282,-0.106,0.904,-0.477,-0.702,-1.709,-0.305,60.000,43881.000,1.000
22.006,19.317,9.026,3.058,-3.346,18.286,8.831,-13.930,-0.107,0.906,-0.479,-0.732,-1.770,-0.183,60.000,43882.000,1.000
10.770,12.815,5.943,0.489,-7.125,13.886,4.416,-14.599,-0.108,0.907,-0.477,-0.885,-1.984,-0.031,60.000,43883.000,1.000
8.202,11.649,6.389,1.695,-6.973,12.312,4.897,-13.033,-0.109,0.908,-0.478,-0.885,-2.014,0.122,60.000,43884.000,1.000
18.086,18.264,10.586,7.594,-1.317,14.406,11.703,-8.951,-0.108,0.909,-0.477,-0.946,-2.106,0.244,60.000,43885.000,1.000
28.342,25.588,13.887,13.190,4.921,16.262,17.033,-5.538,-0.107,0.908,-0.476,-1.068,-2.197,0.397,60.000,43886.000,1.000
27.477,26.592,13.080,14.437,7.223,14.696,14.323,-4.932,-0.107,0.908,-0.477,-1.190,-2.197,0.580,60.000,43887.000,1.000
18.332,22.503,9.967,12.762,6.583,10.720,6.252,-5.646,-0.107,0.905,-0.479,-1.129,-2.258,0.671,60.000,43888.000,1.000
13.024,20.153,8.595,12.380,7.194,7.541,0.899,-4.542,-0.105,0.904,-0.478,-1.190,-2.289,0.732,60.000,43889.000,1.000
16.485,22.470,9.967,14.330,10.274,6.138,1.390,-0.842,-0.105,0.906,-0.481,-1.160,-2.289,0.854,60.000,43890.000,1.000
20.211,24.722,11.195,15.311,12.429,4.458,2.777,2.983,-0.105,0.905,-0.479,-1.160,-2.289,0.824,60.000,43891.000,1.000
15.814,22.214,10.383,13.287,11.264,1.440,0.799,4.939,-0.104,0.904,-0.477,-1.129,-2.258,0.885,60.000,43892.000,1.000
6.271,16.544,8.983,10.419,8.777,-1.304,-2.161,5.741,-0.103,0.904,-0.474,-1.099,-2.197,0.977,60.000,43893.000,1.000
1.247,12.924,9.170,10.017,8.468,-2.000,-1.271,7.071,-0.104,0.905,-0.477,-1.099,-2.228,0.946,60.000,43894.000,1.000
3.756,12.996,10.185,11.910,10.391,-1.640,2.810,8.750,-0.103,0.906,-0.478,-1.099,-2.289,0.854,60.000,43895.000,1.000
5.782,12.689,8.872,12.448,10.759,-3.131,3.530,8.916,-0.104,0.907,-0.476,-1.068,-2.197,0.854,60.000,43896.000,1.000
0.618,8.965,4.316,9.746,7.392,-7.283,-2.670,7.116,-0.106,0.904,-0.477,-1.038,-2.106,0.824,60.000,43897.000,1.000
-7.607,4.524,-0.676,6.088,2.629,-11.819,-11.684,5.261,-0.107,0.904,-0.477,-0.977,-2.045,0.732,60.000,43898.000,1.000
-9.097,4.536,-2.601,5.069,0.569,-13.839,-16.323,5.686,-0.106,0.904,-0.480,-0.946,-2.106,0.519,60.000,43899.000,1.000
-1.818,9.421,-1.297,6.975,2.024,-12.905,-14.447,8.473,-0.106,0.900,-0.477,-0.946,-1.953,0.397,60.000,43900.000,1.000
4.325,13.130,-0.024,8.232,3.459,-11.171,-10.819,11.262,-0.106,0.903,-0.477,-0.824,-1.923,0.366,60.000,43901.000,1.000
1.025,11.058,-0.797,6.605,2.249,-9.856,-9.606,12.412,-0.104,0.904,-0.475,-0.824,-1.831,0.244,60.000,43902.000,1.000
-7.499,5.883,-2.077,4.142,0.197,-7.768,-9.449,12.793,-0.106,0.904,-0.473,-0.793,-1.831,0.122,60.000,43903.000,1.000
-9.944,3.979,-1.246,4.378,1.016,-3.515,-6.633,14.217,-0.105,0.905,-0.472,-0.854,-1.770,0.122,60.000,43904.000,1.000
-3.083,6.798,1.291,7.231,4.891,1.501,-1.421,16.278,-0.106,0.905,-0.477,-0.916,-1.740,0.031,60.000,43905.000,1.000
2.984,8.406,1.989,8.472,7.326,3.676,1.307,16.093,-0.105,0.903,-0.476,-0.824,-1.801,0.000,60.000,43906.000,1.000
-0.883,3.958,-0.973,5.536,4.978,1.628,-1.094,12.159,-0.103,0.902,-0.477,-0.702,-1.678,0.000,60.000,43907.000,1.000
-10.534,-3.651,-5.244,0.949,-0.213,-1.998,-5.618,6.480,-0.101,0.900,-0.481,-0.702,-1.587,-0.092,60.000,43908.000,1.000
-13.488,-7.048,-6.937,-0.628,-3.365,-3.175,-7.043,2.555,-0.101,0.898,-0.479,-0.519,-1.434,-0.092,60.000,43909.000,1.000
-5.098,-3.538,-5.342,1.788,-2.615,-0.898,-4.070,1.672,-0.101,0.897,-0.479,-0.458,-1.373,-0.122,60.000,43910.000,1.000
4.606,1.190,-3.815,4.154,-1.245,1.856,-0.816,1.976,-0.099,0.896,-0.479,-0.366,-1.282,-0.214,60.000,43911.000,1.000
4.887,0.907,-4.980,3.083,-2.471,2.382,-0.611,1.625,-0.102,0.896,-0.481,-0.305,-1.099,-0.122,60.000,43912.000,1.000
-1.968,-3.584,-7.569,-0.092,-5.225,1.282,-1.955,0.857,-0.099,0.897,-0.478,-0.183,-1.038,-0.031,60.000,43913.000,1.000
-4.457,-6.366,-8.466,-1.554,-5.994,0.991,-1.040,0.795,-0.098,0.897,-0.479,-0.092,-0.885,-0.031,60.000,43914.000,1.000
1.728,-5.057,-7.344,-0.643,-4.229,1.865,2.479,0.914,-0.100,0.894,-0.477,0.122,-0.702,0.092,60.000,43915.000,1.000
6.419,-4.676,-7.508,-1.237,-3.841,1.391,4.198,-0.957,-0.102,0.896,-0.479,0.122,-0.702,0.061,60.000,43916.000,1.000
-0.214,-9.811,-10.712,-5.701,-7.253,-1.560,1.753,-5.229,-0.101,0.897,-0.476,0.092,-0.549,0.183,60.000,43917.000,1.000
-12.980,-17.172,-14.063,-10.708,-11.184,-4.409,-1.029,-9.185,-0.103,0.898,-0.476,0.061,-0.427,0.275,60.000,43918.000,1.000
-16.805,-18.737,-13.183,-10.662,-10.061,-3.670,1.654,-9.620,-0.104,0.896,-0.477,0.122,-0.244,0.214,60.000,43919.000,1.000
-6.192,-12.160,-8.079,-4.974,-3.306,0.361,9.327,-6.764,-0.106,0.896,-0.474,0.092,-0.214,0.244,60.000,43920.000,1.000
6.058,-5.087,-3.897,0.307,2.898,3.231,13.838,-4.520,-0.105,0.896,-0.476,-0.031,-0.244,0.397,60.000,43921.000,1.000
5.552,-5.692,-4.327,0.065,3.188,1.911,9.420,-5.568,-0.103,0.895,-0.474,-0.122,-0.183,0.519,60.000,43922.000,1.000
-5.699,-12.844,-7.180,-3.929,-0.711,-1.677,0.237,-8.074,-0.104,0.896,-0.479,-0.092,-0.214,0.519,60.000,43923.000,1.000
-12.669,-18.042,-7.426,-5.871,-2.649,-3.214,-4.047,-8.143,-0.103,0.896,-0.475,-0.122,-0.183,0.488,60.000,43924.000,1.000
-7.339,-16.368,-3.787,-3.704,-0.153,-1.386,0.167,-5.110,-0.101,0.899,-0.475,-0.244,-0.092,0.519,60.000,43925.000,1.000
0.682,-12.429,-0.394,-1.686,2.382,0.606,5.840,-2.814,-0.101,0.902,-0.473,-0.427,-0.061,0.580,60.000,43926.000,1.000
-1.184,-12.612,-0.754,-3.710,0.378,-0.209,5.064,-4.494,-0.100,0.901,-0.470,-0.671,-0.061,0.732,60.000,43927.000,1.000
-11.430,-16.111,-3.122,-7.726,-4.513,-2.773,-0.909,-8.643,-0.099,0.900,-0.471,-0.793,0.000,0.702,60.000,43928.000,1.000
-16.819,-16.255,-2.837,-8.253,-6.439,-3.651,-3.850,-10.869,-0.101,0.900,-0.468,-1.068,0.153,0.824,60.000,43929.000,1.000
-9.953,-9.832,1.529,-3.535,-2.978,-1.857,0.007,-9.198,-0.099,0.901,-0.470,-1.282,0.275,0.854,60.000,43930.000,1.000
1.193,-1.988,6.315,2.037,1.681,-0.277,4.671,-6.112,-0.098,0.902,-0.468,-1.495,0.336,0.763,60.000,43931.000,1.000
5.300,0.671,7.931,3.842,2.617,-1.362,3.116,-4.839,-0.100,0.903,-0.467,-1.678,0.397,0.824,60.000,43932.000,1.000
1.128,-2.516,6.787,1.911,-0.425,-4.246,-4.266,-5.827,-0.103,0.901,-0.468,-1.862,0.366,0.916,60.000,43933.000,1.000
-3.389,-6.830,5.936,-0.386,-4.045,-6.274,-11.261,-7.126,-0.102,0.903,-0.467,-2.045,0.427,0.854,60.000,43934.000,1.000
-2.129,-8.204,7.172,-0.795,-5.687,-6.113,-13.241,-7.227,-0.105,0.901,-0.466,-2.197,0.366,0.946,60.000,43935.000,1.000
2.578,-7.035,9.517,-0.094,-5.785,-4.684,-10.997,-6.343,-0.103,0.904,-0.468,-2.411,0.305,0.977,60.000,43936.000,1.000
5.720,-5.451,11.406,0.254,-5.582,-3.283,-7.404,-5.039,-0.104,0.905,-0.464,-2.655,0.244,1.068,60.000,43937.000,1.000
5.435,-4.574,12.049,-0.380,-5.673,-2.625,-4.615,-3.635,-0.105,0.908,-0.465,-2.991,0.214,1.068,60.000,43938.000,1.000
3.771,-4.022,11.642,-1.583,-5.874,-2.748,-3.360,-2.281,-0.106,0.908,-0.466,-3.235,0.061,1.068,60.000,43939.000,1.000
4.081,-2.752,10.962,-2.421,-5.591,-3.254,-3.080,-0.933,-0.106,0.910,-0.465,-3.510,0.000,1.190,60.000,43940.000,1.000
7.577,-0.409,10.613,-2.383,-4.529,-3.738,-2.720,0.553,-0.108,0.911,-0.465,-3.754,-0.122,1.282,60.000,43941.000,1.000
13.291,2.802,10.884,-1.419,-2.607,-3.741,-1.279,2.411,-0.108,0.912,-0.466,-3.845,-0.336,1.373,60.000,43942.000,1.000
17.718,5.489,11.090,-0.459,-0.628,-3.442,0.229,4.148,-0.110,0.912,-0.470,-3.998,-0.397,1.343,60.000,43943.000,1.000
17.400,5.994,10.278,-0.615,0.218,-3.428,-0.383,4.707,-0.110,0.916,-0.472,-4.303,-0.641,1.434,60.000,43944.000,1.000
13.403,4.760,8.787,-1.513,0.011,-3.709,-3.079,3.730,-0.109,0.915,-0.470,-4.425,-0.732,1.434,60.000,43945.000,1.000
10.639,4.215,8.135,-1.460,0.145,-3.651,-5.005,2.065,-0.107,0.916,-0.467,-4.608,-0.885,1.495,60.000,43946.000,1.000
12.890,6.234,9.372,0.642,1.677,-2.811,-3.510,0.835,-0.106,0.914,-0.464,-4.791,-1.038,1.526,60.000,43947.000,1.000
16.871,8.714,11.088,2.969,3.062,-2.326,-0.455,-0.318,-0.106,0.914,-0.466,-4.852,-1.129,1.465,60.000,43948.000,1.000
15.860,7.707,11.040,2.698,1.880,-3.633,-0.079,-2.444,-0.105,0.916,-0.468,-4.913,-1.190,1.526,60.000,43949.000,1.000
9.320,3.176,9.366,0.060,-1.331,-5.967,-2.851,-5.053,-0.103,0.916,-0.466,-5.005,-1.251,1.617,60.000,43950.000,1.000
3.898,-0.518,8.387,-1.699,-3.219,-6.730,-4.815,-6.170,-0.101,0.915,-0.465,-4.913,-1.343,1.678,60.000,43951.000,1.000
5.484,0.432,9.629,-0.078,-1.259,-4.295,-2.466,-4.495,-0.100,0.917,-0.467,-4.944,-1.404,1.556,60.000,43952.000,1.000
10.635,4.105,11.338,3.241,3.015,-0.341,2.262,-1.355,-0.099,0.916,-0.467,-4.944,-1.373,1.526,60.000,43953.000,1.000
10.715,5.341,10.610,4.599,6.124,2.262,4.633,0.775,-0.101,0.915,-0.464,-4.974,-1.312,1.556,60.000,43954.000,1.000
3.389,2.489,6.966,2.953,7.001,2.941,3.349,1.113,-0.097,0.915,-0.467,-4.944,-1.221,1.526,60.000,43955.000,1.000
-5.204,-1.269,2.377,0.465,7.380,3.295,1.214,0.846,-0.095,0.913,-0.465,-4.944,-1.190,1.526,60.000,43956.000,1.000
-7.862,-2.007,-1.125,-0.404,9.103,4.574,1.205,1.279,-0.092,0.910,-0.467,-4.852,-1.038,1.587,60.000,43957.000,1.000
-5.302,-0.232,-3.752,-0.138,11.236,5.588,2.360,2.018,-0.091,0.910,-0.469,-4.791,-0.763,1.526,60.000,43958.000,1.000
-4.088,0.171,-6.831,-0.933,11.413,4.299,1.607,2.024,-0.090,0.908,-0.466,-4.486,-0.519,1.404,60.000,43959.000,1.000
-7.439,-2.651,-10.467,-3.196,9.270,0.668,-1.727,1.384,-0.090,0.903,-0.466,-4.242,-0.336,1.343,60.000,43960.000,1.000
-12.876,-6.869,-13.544,-5.233,6.662,-3.251,-5.569,0.947,-0.087,0.900,-0.463,-3.967,-0.153,1.251,60.000,43961.000,1.000
-16.098,-9.303,-14.934,-5.240,5.635,-5.236,-7.326,1.206,-0.088,0.898,-0.464,-3.571,0.000,1.099,60.000,43962.000,1.000
-16.348,-9.152,-14.940,-3.537,6.162,-5.180,-6.701,1.511,-0.086,0.898,-0.466,-3.082,0.275,1.038,60.000,43963.000,1.000
-15.855,-8.046,-14.698,-1.851,6.742,-4.664,-5.322,0.894,-0.086,0.895,-0.468,-2.533,0.397,1.038,60.000,43964.000,1.000
-16.407,-7.647,-14.862,-1.276,6.334,-4.916,-4.700,-0.705,-0.086,0.892,-0.465,-2.136,0.732,0.916,60.000,43965.000,1.000
-19.235,-8.890,-15.490,-1.886,4.714,-6.038,-5.709,-2.398,-0.086,0.890,-0.469,-1.678,1.068,0.824,60.000,43966.000,1.000
-23.939,-11.323,-15.922,-2.764,2.628,-7.119,-7.736,-2.741,-0.087,0.888,-0.469,-1.282,1.312,0.610,60.000,43967.000,1.000
-28.355,-13.594,-15.345,-2.883,1.134,-7.347,-9.205,-0.834,-0.086,0.890,-0.469,-0.824,1.556,0.519,60.000,43968.000,1.000
-29.410,-14.137,-13.274,-1.649,0.984,-6.468,-8.650,3.051,-0.089,0.888,-0.468,-0.366,1.801,0.458,60.000,43969.000,1.000
-25.897,-12.404,-10.209,0.574,1.952,-4.794,-6.032,7.423,-0.090,0.889,-0.467,0.031,1.923,0.183,60.000,43970.000,1.000
-21.370,-10.232,-7.966,2.108,2.408,-3.270,-3.420,10.210,-0.092,0.890,-0.466,0.488,2.014,-0.061,60.000,43971.000,1.000
-19.773,-9.502,-7.831,1.789,1.234,-2.395,-2.391,10.585,-0.094,0.894,-0.464,0.854,2.228,-0.214,60.000,43972.000,1.000
-20.764,-9.841,-9.360,0.146,-0.922,-1.791,-2.559,9.505,-0.096,0.896,-0.464,1.068,2.228,-0.366,60.000,43973.000,1.000
-20.222,-9.046,-10.812,-1.133,-2.284,-0.677,-2.257,8.775,-0.098,0.899,-0.467,1.282,2.380,-0.458,60.000,43974.000,1.000
-15.528,-5.979,-10.926,-1.108,-2.011,0.904,-0.638,9.414,-0.099,0.901,-0.469,1.373,2.380,-0.519,60.000,43975.000,1.000
-9.756,-2.803,-10.246,-0.863,-1.552,1.518,0.781,10.713,-0.099,0.902,-0.470,1.434,2.350,-0.519,60.000,43976.000,1.000
-7.059,-2.195,-9.795,-1.631,-2.574,0.196,0.458,11.372,-0.101,0.904,-0.469,1.495,2.350,-0.488,60.000,43977.000,1.000
-7.934,-4.553,-9.955,-3.302,-5.190,-2.451,-1.475,10.592,-0.105,0.903,-0.466,1.648,2.228,-0.549,60.000,43978.000,1.000
-9.263,-7.933,-10.243,-4.603,-8.025,-4.742,-3.451,8.541,-0.106,0.905,-0.462,1.526,2.136,-0.610,60.000,43979.000,1.000
-7.871,-10.016,-9.976,-4.513,-9.558,-5.409,-3.793,5.937,-0.108,0.903,-0.462,1.495,1.953,-0.580,60.000,43980.000,1.000
-4.276,-10.313,-9.208,-3.602,-9.632,-4.730,-2.181,3.128,-0.105,0.904,-0.463,1.404,1.740,-0.580,60.000,43981.000,1.000
-0.871,-9.438,-8.166,-2.962,-8.913,-3.570,0.891,0.289,-0.109,0.903,-0.464,1.190,1.465,-0.458,60.000,43982.000,1.000
0.352,-8.218,-6.905,-3.102,-8.161,-2.341,4.224,-2.196,-0.109,0.904,-0.464,1.099,1.221,-0.458,60.000,43983.000,1.000
-0.375,-6.736,-4.983,-3.389,-7.432,-0.537,6.818,-3.620,-0.111,0.903,-0.461,0.916,1.007,-0.397,60.000,43984.000,1.000
-0.116,-3.960,-1.628,-2.633,-5.986,2.478,8.764,-3.531,-0.111,0.903,-0.462,0.610,0.732,-0.305,60.000,43985.000,1.000
3.753,0.770,3.225,-0.613,-3.459,6.180,10.432,-2.305,-0.115,0.904,-0.461,0.458,0.366,-0.275,60.000,43986.000,1.000
11.006,6.771,8.534,1.664,-0.307,9.226,12.047,-0.640,-0.115,0.906,-0.462,0.305,0.122,-0.275,60.000,43987.000,1.000
16.262,10.952,11.904,2.071,1.712,10.096,12.584,0.614,-0.115,0.905,-0.464,0.031,-0.153,-0.031,60.000,43988.000,1.000
13.350,9.926,11.368,-0.680,1.063,8.525,11.165,1.132,-0.116,0.905,-0.461,-0.183,-0.488,-0.031,60.000,43989.000,1.000
4.036,4.513,7.692,-4.754,-1.028,6.518,9.795,1.628,-0.114,0.905,-0.463,-0.488,-0.885,-0.153,60.000,43990.000,1.000
-2.376,-0.412,3.493,-6.699,-1.512,6.556,11.642,2.714,-0.112,0.905,-0.461,-0.854,-1.251,0.122,60.000,43991.000,1.000
0.412,-1.440,0.152,-5.461,0.633,8.614,16.519,3.459,-0.112,0.905,-0.461,-1.190,-1.404,0.305,60.000,43992.000,1.000
5.392,-2.113,-4.320,-4.849,1.586,8.993,18.418,1.152,-0.110,0.905,-0.460,-1.343,-1.709,0.397,60.000,43993.000,1.000
-0.149,-8.561,-11.975,-9.170,-3.158,4.325,11.634,-5.647,-0.109,0.905,-0.463,-1.495,-2.014,0.488,60.000,43994.000,1.000
-16.161,-19.616,-20.188,-16.727,-11.873,-3.598,-0.878,-14.055,-0.108,0.905,-0.462,-1.862,-2.136,0.519,60.000,43995.000,1.000
-27.609,-26.416,-23.293,-20.828,-17.304,-9.168,-9.416,-18.792,-0.109,0.902,-0.462,-2.136,-2.411,0.732,60.000,43996.000,1.000
-22.234,-22.449,-18.940,-17.309,-14.555,-8.913,-7.851,-17.276,-0.106,0.904,-0.463,-2.289,-2.502,0.671,60.000,43997.000,1.000
-7.725,-12.524,-11.773,-10.083,-7.314,-5.572,-1.204,-12.583,-0.105,0.905,-0.463,-2.472,-2.625,0.702,60.000,43998.000,1.000
-2.424,-7.193,-8.137,-6.187,-3.111,-4.158,0.953,-9.654,-0.103,0.906,-0.464,-2.686,-2.747,0.763,60.000,43999.000,1.000
-9.914,-8.677,-8.187,-6.387,-3.231,-4.993,-2.523,-9.128,-0.105,0.908,-0.464,-2.838,-2.838,0.885,60.000,44000.000,1.000
-14.112,-8.470,-6.470,-4.861,-1.767,-3.806,-3.682,-7.342,-0.104,0.916,-0.460,-3.052,-2.899,0.854,60.000,44001.000,1.000
-1.264,0.415,0.257,2.033,5.363,1.709,2.789,-2.108,-0.103,0.917,-0.458,-3.326,-2.899,0.885,60.000,44002.000,1.000
19.176,12.360,7.829,9.425,13.305,7.668,10.956,3.422,-0.103,0.921,-0.459,-3.632,-2.838,0.763,60.000,44003.000,1.000
25.732,15.839,10.015,9.986,14.047,8.796,11.323,4.883,-0.102,0.922,-0.458,-3.937,-2.777,0.793,60.000,44004.000,1.000
13.960,9.156,7.093,4.204,7.339,5.478,4.062,2.965,-0.099,0.921,-0.462,-4.242,-2.686,0.732,60.000,44005.000,1.000
2.194,2.869,5.441,0.108,1.178,2.973,-1.221,2.648,-0.097,0.919,-0.460,-4.517,-2.563,0.671,60.000,44006.000,1.000
7.875,6.462,9.356,3.276,1.885,4.529,2.191,6.683,-0.094,0.912,-0.461,-4.669,-2.472,0.671,60.000,44007.000,1.000
24.301,15.793,15.282,9.430,6.016,6.891,8.800,11.400,-0.091,0.908,-0.465,-4.730,-2.289,0.610,60.000,44008.000,1.000
30.405,19.111,16.921,10.307,5.580,5.043,8.342,11.294,-0.088,0.907,-0.468,-4.608,-1.984,0.580,60.000,44009.000,1.000
19.816,13.377,14.014,4.908,-0.588,-0.261,0.194,6.467,-0.088,0.904,-0.468,-4.395,-1.648,0.610,60.000,44010.000,1.000
7.835,7.663,12.156,0.310,-5.527,-3.201,-5.919,2.528,-0.087,0.907,-0.467,-4.211,-1.343,0.580,60.000,44011.000,1.000
10.311,10.962,15.037,2.315,-3.368,-0.159,-2.504,3.648,-0.086,0.908,-0.468,-4.059,-1.007,0.610,60.000,44012.000,1.000
22.182,20.149,19.292,8.028,2.934,5.608,5.765,7.571,-0.088,0.911,-0.469,-4.089,-0.763,0.610,60.000,44013.000,1.000
25.299,24.550,19.274,10.356,5.937,8.279,8.588,9.182,-0.086,0.915,-0.471,-4.028,-0.549,0.671,60.000,44014.000,1.000
13.765,20.375,14.672,7.519,3.531,6.543,3.615,7.203,-0.088,0.917,-0.465,-3.937,-0.244,0.641,60.000,44015.000,1.000
0.523,14.526,10.372,4.274,0.437,3.991,-1.921,4.917,-0.090,0.919,-0.462,-3.876,0.122,0.641,60.000,44016.000,1.000
-0.096,14.872,10.148,5.028,1.265,3.859,-1.337,5.247,-0.095,0.916,-0.466,-3.754,0.336,0.641,60.000,44017.000,1.000
8.919,19.696,12.008,7.761,4.164,4.903,2.534,6.584,-0.101,0.918,-0.466,-3.662,0.488,0.549,60.000,44018.000,1.000
12.895,20.863,11.630,7.301,3.836,4.143,2.041,5.349,-0.108,0.914,-0.466,-3.418,0.580,0.397,60.000,44019.000,1.000
6.305,15.568,8.581,2.931,-0.790,1.994,-3.910,1.227,-0.111,0.909,-0.468,-3.174,0.488,0.244,60.000,44020.000,1.000
-1.439,9.438,6.366,-0.810,-5.431,1.924,-8.374,-2.688,-0.114,0.906,-0.463,-3.052,0.336,0.214,60.000,44021.000,1.000
0.723,8.914,7.593,0.052,-5.979,5.927,-5.114,-3.951,-0.116,0.901,-0.466,-2.686,0.366,0.092,60.000,44022.000,1.000
10.257,12.638,10.243,3.651,-3.859,11.264,2.968,-3.875,-0.119,0.897,-0.468,-2.411,0.122,-0.031,60.000,44023.000,1.000
14.833,13.622,10.372,4.958,-3.724,13.343,7.387,-5.523,-0.117,0.894,-0.465,-2.014,-0.031,-0.214,60.000,44024.000,1.000
9.037,8.766,7.290,2.480,-6.825,10.997,4.608,-9.469,-0.115,0.893,-0.462,-1.709,-0.183,-0.183,60.000,44025.000,1.000
-0.213,2.156,3.967,-0.424,-9.522,7.177,-0.991,-13.160,-0.112,0.892,-0.467,-1.404,-0.305,-0.366,60.000,44026.000,1.000
