EEG 1,EEG 2,EEG 3,EEG 4,EEG 5,EEG 6,EEG 7,EEG 8,Accelerometer X,Accelerometer Y,Accelerometer Z,Gyroscope X,Gyroscope Y,Gyroscope Z,Battery Level,Counter,Validation Indicator
-21.208,-16.599,-6.233,-11.963,-10.854,-16.249,-15.622,-12.106,-0.048,0.914,-0.454,-1.434,-0.977,0.763,60.000,123297.000,1.000
-21.646,-18.356,-6.147,-11.843,-11.505,-17.920,-17.610,-11.384,-0.049,0.915,-0.451,-1.312,-0.916,0.793,60.000,123298.000,1.000
-19.439,-17.778,-5.022,-9.658,-9.938,-16.263,-15.127,-9.159,-0.049,0.920,-0.451,-1.221,-0.885,0.824,60.000,123299.000,1.000
-14.826,-14.494,-2.929,-5.845,-6.513,-12.080,-9.708,-6.235,-0.049,0.924,-0.449,-1.221,-0.854,0.946,60.000,123300.000,1.000
-9.011,-9.279,-0.457,-1.431,-2.342,-7.139,-4.321,-3.303,-0.049,0.922,-0.448,-1.251,-0.824,0.946,60.000,123301.000,1.000
-2.890,-3.413,1.760,2.490,1.547,-3.018,-1.058,-0.775,-0.049,0.925,-0.448,-1.434,-0.793,0.916,60.000,123302.000,1.000
3.382,2.161,3.433,5.212,4.732,-0.322,0.201,1.369,-0.046,0.924,-0.448,-1.526,-0.732,0.946,60.000,123303.000,1.000
8.562,6.313,4.157,6.053,6.679,0.761,0.290,3.135,-0.047,0.923,-0.448,-1.556,-0.824,0.885,60.000,123304.000,1.000
10.918,8.001,3.597,4.729,6.859,0.314,-0.070,4.361,-0.044,0.921,-0.449,-1.617,-0.610,0.702,60.000,123305.000,1.000
9.905,7.037,1.956,1.830,5.413,-1.034,-0.290,4.833,-0.042,0.919,-0.449,-1.648,-0.488,0.702,60.000,123306.000,1.000
7.540,4.893,0.465,-0.904,3.676,-1.779,0.667,4.760,-0.042,0.919,-0.451,-1.617,-0.397,0.793,60.000,123307.000,1.000
6.742,3.704,0.567,-1.713,3.200,-0.541,3.563,4.541,-0.040,0.917,-0.450,-1.617,-0.305,0.885,60.000,123308.000,1.000
7.706,3.873,2.311,-0.568,3.966,2.274,7.064,4.045,-0.042,0.913,-0.450,-1.709,-0.183,0.885,60.000,123309.000,1.000
8.566,4.290,4.543,1.248,4.788,4.967,8.801,3.081,-0.042,0.913,-0.449,-1.678,0.092,0.916,60.000,123310.000,1.000
7.739,3.861,5.999,2.450,4.706,6.153,7.587,1.990,-0.044,0.915,-0.450,-1.465,0.153,0.824,60.000,123311.000,1.000
5.766,2.799,6.392,2.833,4.024,5.908,4.741,1.452,-0.043,0.917,-0.452,-1.404,0.183,0.946,60.000,123312.000,1.000
4.587,2.222,6.244,2.992,3.784,5.198,2.821,1.617,-0.042,0.921,-0.448,-1.404,0.305,0.946,60.000,123313.000,1.000
4.711,2.372,5.809,3.117,4.217,4.502,2.821,1.781,-0.042,0.925,-0.446,-1.526,0.275,0.916,60.000,123314.000,1.000
5.408,2.707,5.132,3.086,4.806,3.875,4.051,1.321,-0.045,0.926,-0.446,-1.740,0.397,0.946,60.000,123315.000,1.000
5.830,2.707,4.414,2.899,5.071,3.514,5.421,0.374,-0.044,0.927,-0.449,-1.740,0.519,0.977,60.000,123316.000,1.000
6.221,2.635,4.298,3.040,5.206,3.951,6.546,-0.147,-0.048,0.927,-0.446,-1.740,0.488,0.854,60.000,123317.000,1.000
7.587,3.159,5.277,3.941,5.577,5.203,7.340,0.469,-0.051,0.926,-0.445,-1.831,0.427,0.824,60.000,123318.000,1.000
9.935,4.339,6.994,5.274,5.931,6.380,7.355,1.991,-0.054,0.923,-0.446,-1.862,0.458,0.732,60.000,123319.000,1.000
12.872,6.145,8.950,6.663,6.121,7.019,6.870,3.943,-0.057,0.922,-0.449,-1.831,0.183,0.671,60.000,123320.000,1.000
15.563,8.238,10.656,7.732,6.124,7.267,6.417,5.746,-0.057,0.918,-0.451,-1.831,0.031,0.458,60.000,123321.000,1.000
17.079,9.919,11.645,8.043,5.787,7.360,6.128,6.633,-0.056,0.915,-0.449,-1.709,-0.122,0.458,60.000,123322.000,1.000
17.273,10.841,11.755,7.479,5.100,7.563,6.149,6.116,-0.054,0.919,-0.451,-1.617,-0.336,0.397,60.000,123323.000,1.000
16.349,11.020,11.121,6.284,4.253,8.005,6.544,4.297,-0.053,0.916,-0.451,-1.556,-0.336,0.458,60.000,123324.000,1.000
15.053,10.868,10.143,5.056,3.672,8.579,7.226,1.720,-0.050,0.916,-0.451,-1.434,-0.580,0.397,60.000,123325.000,1.000
13.534,10.365,8.823,3.991,3.337,8.646,7.269,-1.272,-0.050,0.915,-0.451,-1.343,-0.641,0.366,60.000,123326.000,1.000
11.228,9.025,6.887,2.918,2.861,7.629,5.589,-4.307,-0.050,0.915,-0.450,-1.312,-0.671,0.336,60.000,123327.000,1.000
8.093,6.783,4.446,1.973,2.233,5.826,2.347,-6.545,-0.049,0.917,-0.449,-1.221,-0.702,0.397,60.000,123328.000,1.000
4.898,4.271,2.085,1.590,1.909,4.230,-1.121,-7.139,-0.048,0.919,-0.448,-1.068,-0.732,0.397,60.000,123329.000,1.000
3.317,2.833,0.633,2.229,2.609,3.873,-3.064,-5.890,-0.049,0.920,-0.447,-1.038,-0.854,0.427,60.000,123330.000,1.000
3.648,2.965,0.100,3.423,4.208,4.604,-3.153,-3.735,-0.051,0.920,-0.447,-0.977,-0.824,0.458,60.000,123331.000,1.000
4.204,3.718,-0.324,4.069,5.612,5.261,-2.577,-1.852,-0.051,0.922,-0.448,-1.007,-0.824,0.427,60.000,123332.000,1.000
3.672,4.035,-1.178,3.749,5.955,5.060,-2.395,-0.456,-0.050,0.923,-0.447,-1.129,-0.977,0.580,60.000,123333.000,1.000
2.416,3.674,-2.268,3.054,5.260,4.227,-2.713,0.886,-0.050,0.923,-0.447,-0.977,-1.099,0.610,60.000,123334.000,1.000
2.380,3.400,-2.827,3.108,4.359,3.676,-2.521,2.374,-0.049,0.921,-0.446,-0.977,-1.129,0.671,60.000,123335.000,1.000
4.295,3.670,-2.488,4.212,3.664,3.744,-1.184,3.584,-0.047,0.921,-0.445,-0.946,-1.129,0.793,60.000,123336.000,1.000
6.738,4.130,-1.459,5.681,2.832,3.940,0.844,4.233,-0.049,0.922,-0.447,-1.007,-1.038,0.885,60.000,123337.000,1.000
8.095,4.374,-0.112,6.708,1.604,3.757,2.740,4.606,-0.047,0.921,-0.447,-0.916,-1.068,1.007,60.000,123338.000,1.000
8.009,4.325,1.187,6.871,0.265,3.255,3.917,4.924,-0.045,0.922,-0.444,-0.946,-1.129,0.977,60.000,123339.000,1.000
7.998,4.614,2.355,6.547,-0.304,3.118,4.701,5.066,-0.045,0.921,-0.442,-1.038,-1.099,1.038,60.000,123340.000,1.000
8.854,5.359,3.006,6.138,0.140,3.418,5.224,4.579,-0.046,0.920,-0.444,-1.038,-1.038,0.977,60.000,123341.000,1.000
9.288,5.630,2.490,5.654,0.710,3.204,4.786,3.159,-0.047,0.919,-0.443,-1.038,-1.038,1.007,60.000,123342.000,1.000
7.849,4.606,0.680,5.116,0.402,1.587,2.707,1.123,-0.045,0.916,-0.446,-0.977,-1.099,1.068,60.000,123343.000,1.000
4.539,2.417,-1.709,4.780,-0.952,-1.247,-0.983,-0.617,-0.045,0.914,-0.447,-1.099,-0.977,1.099,60.000,123344.000,1.000
1.479,0.527,-3.223,5.287,-2.283,-3.897,-4.903,-0.866,-0.044,0.913,-0.445,-1.038,-1.007,0.977,60.000,123345.000,1.000
0.396,0.262,-2.967,6.684,-2.586,-5.253,-7.624,0.612,-0.042,0.916,-0.448,-1.038,-0.977,1.007,60.000,123346.000,1.000
1.028,1.622,-1.320,8.042,-1.884,-5.358,-8.716,2.655,-0.039,0.916,-0.447,-0.977,-0.885,0.977,60.000,123347.000,1.000
2.209,3.583,0.622,8.331,-0.839,-4.854,-8.372,3.839,-0.038,0.917,-0.449,-0.793,-0.702,0.854,60.000,123348.000,1.000
2.902,4.789,1.822,7.201,-0.193,-4.372,-6.962,3.701,-0.039,0.916,-0.445,-0.793,-0.641,0.824,60.000,123349.000,1.000
3.317,4.747,2.073,5.375,-0.099,-4.089,-4.415,3.034,-0.037,0.916,-0.448,-0.763,-0.549,0.763,60.000,123350.000,1.000
3.531,3.466,1.569,3.619,-0.500,-4.106,-1.091,2.714,-0.039,0.915,-0.452,-0.702,-0.366,0.702,60.000,123351.000,1.000
2.858,1.095,0.575,2.176,-1.349,-4.492,1.937,2.869,-0.038,0.915,-0.454,-0.702,-0.305,0.732,60.000,123352.000,1.000
1.076,-1.776,-0.514,1.050,-2.424,-5.151,3.715,2.970,-0.040,0.917,-0.452,-0.610,-0.244,0.732,60.000,123353.000,1.000
-1.323,-4.504,-1.419,0.029,-3.581,-6.094,3.824,2.303,-0.040,0.916,-0.452,-0.641,-0.092,0.458,60.000,123354.000,1.000
-2.940,-6.460,-1.930,-1.028,-4.606,-7.199,2.790,0.662,-0.042,0.917,-0.452,-0.580,0.000,0.519,60.000,123355.000,1.000
-3.260,-7.722,-2.325,-2.461,-5.589,-8.438,0.822,-1.848,-0.042,0.917,-0.448,-0.549,0.183,0.427,60.000,123356.000,1.000
-3.236,-9.010,-3.174,-4.642,-6.879,-9.902,-2.517,-4.883,-0.042,0.917,-0.449,-0.488,0.244,0.275,60.000,123357.000,1.000
-3.864,-10.837,-4.688,-7.533,-8.595,-11.598,-6.960,-7.579,-0.041,0.918,-0.450,-0.427,0.275,0.153,60.000,123358.000,1.000
-5.534,-13.384,-6.604,-10.760,-10.570,-13.526,-11.258,-8.913,-0.045,0.921,-0.445,-0.305,0.244,0.153,60.000,123359.000,1.000
-7.141,-16.022,-8.040,-13.384,-12.052,-15.244,-13.542,-8.333,-0.047,0.920,-0.448,-0.366,0.244,0.122,60.000,123360.000,1.000
-7.520,-17.934,-8.243,-14.568,-12.342,-16.072,-12.901,-6.468,-0.047,0.923,-0.448,-0.427,0.275,0.122,60.000,123361.000,1.000
-6.571,-18.701,-7.148,-14.155,-11.346,-15.519,-9.992,-4.740,-0.046,0.921,-0.450,-0.427,0.244,0.031,60.000,123362.000,1.000
-4.731,-18.201,-5.279,-12.641,-9.467,-13.585,-6.246,-4.330,-0.045,0.921,-0.448,-0.397,0.366,0.000,60.000,123363.000,1.000
-2.927,-16.877,-3.588,-11.102,-7.611,-11.100,-3.296,-5.636,-0.045,0.921,-0.449,-0.519,0.275,-0.031,60.000,123364.000,1.000
-1.793,-15.416,-2.864,-10.519,-6.695,-9.275,-2.070,-8.116,-0.044,0.921,-0.451,-0.641,0.366,0.031,60.000,123365.000,1.000
-2.289,-14.893,-3.653,-11.563,-7.482,-9.136,-2.852,-10.935,-0.046,0.921,-0.453,-0.610,0.336,0.000,60.000,123366.000,1.000
-5.115,-15.989,-5.747,-13.987,-9.829,-10.509,-4.889,-13.200,-0.047,0.920,-0.453,-0.641,0.397,0.000,60.000,123367.000,1.000
-9.152,-17.865,-7.916,-16.260,-12.229,-11.905,-6.439,-13.966,-0.047,0.919,-0.452,-0.549,0.366,0.031,60.000,123368.000,1.000
-12.455,-19.040,-8.975,-16.762,-13.087,-12.025,-6.477,-12.841,-0.049,0.920,-0.451,-0.458,0.336,0.122,60.000,123369.000,1.000
-13.454,-18.492,-8.524,-14.848,-11.777,-10.599,-5.052,-10.241,-0.051,0.922,-0.449,-0.427,0.366,0.153,60.000,123370.000,1.000
-12.636,-16.669,-7.332,-11.526,-9.153,-8.527,-3.194,-7.409,-0.050,0.920,-0.447,-0.366,0.183,0.183,60.000,123371.000,1.000
-12.021,-14.977,-6.567,-8.632,-6.761,-7.057,-2.147,-5.705,-0.051,0.920,-0.446,-0.427,0.061,0.214,60.000,123372.000,1.000
-12.911,-14.359,-6.723,-7.284,-5.453,-6.723,-2.389,-5.692,-0.049,0.921,-0.450,-0.458,0.122,0.153,60.000,123373.000,1.000
-15.276,-14.919,-7.479,-7.377,-5.015,-7.111,-3.633,-6.876,-0.049,0.920,-0.450,-0.488,0.061,0.214,60.000,123374.000,1.000
-17.416,-15.651,-7.855,-7.693,-4.331,-7.079,-4.718,-7.893,-0.050,0.919,-0.450,-0.427,-0.031,0.214,60.000,123375.000,1.000
-17.832,-15.500,-7.204,-7.167,-2.728,-5.934,-4.850,-7.582,-0.050,0.917,-0.449,-0.366,-0.061,0.275,60.000,123376.000,1.000
-16.339,-14.120,-5.545,-5.530,-0.576,-3.894,-4.259,-5.695,-0.049,0.914,-0.451,-0.397,-0.153,0.336,60.000,123377.000,1.000
-13.297,-11.506,-3.048,-2.974,1.408,-1.471,-3.516,-2.826,-0.052,0.915,-0.452,-0.305,-0.244,0.397,60.000,123378.000,1.000
-9.597,-8.039,0.057,-0.097,2.636,0.841,-3.241,-0.023,-0.053,0.912,-0.452,-0.183,-0.305,0.427,60.000,123379.000,1.000
-6.033,-4.245,3.418,2.417,3.084,2.778,-3.308,2.004,-0.052,0.912,-0.454,-0.122,-0.458,0.427,60.000,123380.000,1.000
-3.896,-1.245,5.971,3.653,2.820,3.939,-3.061,2.946,-0.049,0.916,-0.454,-0.092,-0.580,0.336,60.000,123381.000,1.000
-4.544,-0.387,6.325,2.874,1.704,3.867,-1.891,2.724,-0.046,0.919,-0.454,-0.122,-0.519,0.366,60.000,123382.000,1.000
-7.976,-2.080,3.816,0.159,-0.328,2.381,0.045,1.530,-0.045,0.922,-0.455,-0.061,-0.580,0.519,60.000,123383.000,1.000
-13.065,-5.570,-1.089,-3.676,-3.056,-0.356,1.364,-0.044,-0.046,0.918,-0.453,-0.153,-0.580,0.610,60.000,123384.000,1.000
-17.389,-8.739,-6.532,-6.993,-5.376,-3.272,1.183,-0.713,-0.045,0.920,-0.452,-0.275,-0.549,0.732,60.000,123385.000,1.000
-18.881,-9.475,-10.316,-8.345,-6.094,-4.907,-0.163,0.579,-0.047,0.920,-0.452,-0.275,-0.580,0.763,60.000,123386.000,1.000
-17.233,-7.176,-11.206,-7.521,-4.984,-4.403,-1.495,3.655,-0.051,0.919,-0.454,-0.122,-0.610,0.702,60.000,123387.000,1.000
-13.688,-2.920,-9.550,-5.577,-2.841,-2.066,-1.619,7.072,-0.050,0.916,-0.455,-0.244,-0.549,0.641,60.000,123388.000,1.000
-10.772,1.013,-7.157,-4.274,-1.135,0.525,-0.835,8.779,-0.052,0.916,-0.454,-0.305,-0.732,0.610,60.000,123389.000,1.000
-10.057,3.032,-5.729,-4.586,-0.779,1.795,-0.335,7.633,-0.051,0.914,-0.457,-0.153,-0.732,0.458,60.000,123390.000,1.000
-11.353,3.046,-5.889,-6.219,-1.637,1.290,-1.007,4.151,-0.052,0.912,-0.455,-0.031,-0.854,0.366,60.000,123391.000,1.000
-13.293,1.939,-7.255,-8.127,-2.817,-0.231,-2.829,-0.052,-0.051,0.911,-0.454,0.092,-0.946,0.275,60.000,123392.000,1.000
-14.502,0.699,-9.192,-9.447,-3.464,-1.692,-5.198,-3.527,-0.049,0.909,-0.450,0.061,-0.977,0.244,60.000,123393.000,1.000
-15.144,-0.384,-11.460,-10.252,-3.520,-2.608,-7.672,-5.769,-0.046,0.911,-0.449,0.031,-1.007,0.214,60.000,123394.000,1.000
-15.688,-1.073,-13.671,-10.781,-3.082,-2.801,-9.428,-6.716,-0.046,0.913,-0.453,0.000,-0.946,0.122,60.000,123395.000,1.000
-16.166,-1.211,-15.166,-10.950,-2.076,-2.340,-9.705,-6.351,-0.046,0.913,-0.457,0.031,-0.977,0.092,60.000,123396.000,1.000
-16.071,-0.788,-15.185,-10.268,-0.245,-1.339,-8.161,-4.486,-0.044,0.914,-0.455,0.031,-1.007,0.061,60.000,123397.000,1.000
-14.872,0.131,-13.408,-8.328,2.488,0.140,-4.814,-1.129,-0.041,0.915,-0.454,0.031,-0.916,0.031,60.000,123398.000,1.000
-13.424,0.877,-10.607,-5.685,5.245,1.678,-0.610,2.695,-0.039,0.917,-0.458,-0.122,-0.793,0.031,60.000,123399.000,1.000
-12.436,1.074,-7.720,-3.148,7.001,2.963,3.297,5.562,-0.039,0.918,-0.454,-0.183,-0.641,0.153,60.000,123400.000,1.000
-11.478,1.133,-5.055,-1.028,7.526,4.103,6.046,6.788,-0.039,0.919,-0.451,-0.183,-0.519,0.183,60.000,123401.000,1.000
-9.324,1.983,-2.235,1.009,7.585,5.597,7.551,6.968,-0.039,0.921,-0.455,-0.275,-0.397,0.244,60.000,123402.000,1.000
-5.168,4.253,1.170,3.339,8.125,7.843,8.550,7.172,-0.039,0.922,-0.458,-0.305,-0.336,0.397,60.000,123403.000,1.000
-0.275,7.078,4.815,5.408,8.936,10.333,9.361,7.496,-0.043,0.923,-0.457,-0.488,-0.183,0.458,60.000,123404.000,1.000
3.935,9.208,8.163,6.473,9.221,12.121,9.919,7.194,-0.045,0.923,-0.455,-0.610,-0.214,0.458,60.000,123405.000,1.000
7.641,10.430,11.034,6.527,8.699,12.589,10.079,5.852,-0.047,0.924,-0.456,-0.671,-0.122,0.580,60.000,123406.000,1.000
12.393,11.832,13.641,6.429,8.057,11.907,10.043,4.131,-0.049,0.926,-0.455,-0.824,-0.122,0.549,60.000,123407.000,1.000
19.055,14.484,16.033,6.980,8.146,10.646,10.211,3.025,-0.052,0.925,-0.453,-0.977,-0.244,0.732,60.000,123408.000,1.000
25.440,17.570,17.478,7.804,8.592,8.924,10.148,2.782,-0.053,0.925,-0.453,-1.221,-0.336,0.732,60.000,123409.000,1.000
28.706,19.520,17.450,8.295,8.497,6.974,9.527,3.421,-0.054,0.927,-0.456,-1.404,-0.488,0.671,60.000,123410.000,1.000
28.324,19.887,16.405,8.586,7.676,5.715,8.957,5.173,-0.054,0.928,-0.454,-1.556,-0.610,0.671,60.000,123411.000,1.000
26.564,19.859,15.491,9.415,6.899,6.386,9.635,7.938,-0.056,0.928,-0.453,-1.801,-0.763,0.854,60.000,123412.000,1.000
25.994,20.784,15.412,11.067,6.908,9.397,11.946,10.550,-0.055,0.927,-0.451,-1.984,-1.038,0.916,60.000,123413.000,1.000
26.055,22.023,15.495,12.457,7.181,13.410,14.148,11.119,-0.055,0.926,-0.453,-2.167,-1.068,1.007,60.000,123414.000,1.000
24.755,21.924,14.728,12.366,6.740,16.504,14.266,8.787,-0.052,0.924,-0.450,-2.319,-1.190,1.099,60.000,123415.000,1.000
21.572,19.815,12.857,10.768,5.349,17.669,12.174,4.484,-0.052,0.922,-0.451,-2.289,-1.343,1.221,60.000,123416.000,1.000
18.277,16.872,10.653,9.004,3.838,17.408,9.696,0.290,-0.050,0.921,-0.453,-2.411,-1.434,1.312,60.000,123417.000,1.000
16.938,15.011,9.206,8.603,3.235,16.954,8.694,-1.911,-0.049,0.919,-0.453,-2.441,-1.465,1.434,60.000,123418.000,1.000
16.857,14.676,8.834,9.797,3.493,16.943,8.997,-1.658,-0.050,0.919,-0.451,-2.502,-1.465,1.465,60.000,123419.000,1.000
16.175,15.177,9.283,11.974,4.003,17.415,9.460,0.196,-0.051,0.919,-0.450,-2.380,-1.648,1.526,60.000,123420.000,1.000
14.314,15.755,10.043,14.334,4.263,17.939,9.278,2.184,-0.050,0.918,-0.449,-2.350,-1.740,1.556,60.000,123421.000,1.000
12.549,16.188,10.740,16.265,4.195,17.913,8.418,3.235,-0.050,0.917,-0.448,-2.380,-1.709,1.617,60.000,123422.000,1.000
12.260,16.497,11.228,17.336,4.016,16.953,7.269,3.192,-0.051,0.917,-0.450,-2.319,-1.831,1.617,60.000,123423.000,1.000
12.268,15.928,11.134,16.946,3.601,14.905,5.647,2.353,-0.050,0.916,-0.447,-2.411,-1.831,1.556,60.000,123424.000,1.000
10.735,13.989,10.390,15.131,2.966,12.174,3.470,1.257,-0.048,0.918,-0.444,-2.289,-1.953,1.465,60.000,123425.000,1.000
7.700,11.396,9.459,12.792,2.429,9.241,1.011,0.399,-0.049,0.918,-0.447,-2.289,-2.014,1.404,60.000,123426.000,1.000
5.300,9.687,9.075,11.143,2.325,6.205,-1.254,0.146,-0.049,0.916,-0.446,-2.350,-2.106,1.221,60.000,123427.000,1.000
5.572,9.872,9.540,10.798,2.585,2.895,-2.979,0.513,-0.047,0.917,-0.448,-2.350,-2.045,1.251,60.000,123428.000,1.000
7.706,11.149,10.147,11.092,2.396,-0.918,-4.590,0.896,-0.045,0.915,-0.444,-2.228,-2.045,1.190,60.000,123429.000,1.000
9.829,12.200,10.210,11.191,1.369,-4.721,-6.137,0.816,-0.043,0.913,-0.446,-2.075,-1.984,1.099,60.000,123430.000,1.000
11.020,12.239,9.612,10.776,-0.005,-7.593,-7.037,0.298,-0.041,0.911,-0.448,-1.953,-1.953,1.129,60.000,123431.000,1.000
11.674,11.135,8.662,9.966,-0.870,-9.013,-6.766,-0.260,-0.042,0.908,-0.445,-1.862,-1.770,0.946,60.000,123432.000,1.000
12.817,9.396,7.875,9.106,-0.505,-8.962,-5.178,-0.344,-0.039,0.908,-0.447,-1.770,-1.556,0.824,60.000,123433.000,1.000
14.173,7.352,7.455,8.239,0.987,-7.952,-2.962,0.201,-0.043,0.910,-0.449,-1.617,-1.556,0.854,60.000,123434.000,1.000
14.719,5.177,7.328,7.259,2.857,-6.768,-1.103,1.131,-0.043,0.909,-0.447,-1.495,-1.343,0.641,60.000,123435.000,1.000
13.785,3.115,7.210,6.031,4.149,-6.272,-0.664,1.948,-0.042,0.909,-0.447,-1.373,-1.312,0.336,60.000,123436.000,1.000
12.019,1.837,7.008,4.753,4.458,-6.801,-2.132,2.490,-0.041,0.909,-0.449,-1.190,-1.282,0.275,60.000,123437.000,1.000
10.974,1.991,6.855,3.919,4.097,-7.991,-4.943,3.205,-0.043,0.909,-0.448,-1.099,-1.038,0.214,60.000,123438.000,1.000
10.829,2.895,6.604,3.647,3.350,-9.308,-8.121,4.580,-0.040,0.909,-0.453,-0.824,-0.885,0.061,60.000,123439.000,1.000
10.911,3.332,6.142,3.984,2.634,-9.934,-10.105,6.733,-0.042,0.911,-0.454,-0.671,-0.763,-0.031,60.000,123440.000,1.000
10.378,2.491,5.276,4.742,2.260,-9.293,-9.792,8.992,-0.041,0.913,-0.452,-0.488,-0.641,-0.305,60.000,123441.000,1.000
8.790,0.486,3.766,5.452,2.178,-7.542,-7.463,10.357,-0.040,0.912,-0.451,-0.397,-0.397,-0.397,60.000,123442.000,1.000
6.739,-1.577,1.720,5.814,2.247,-5.345,-4.203,10.376,-0.039,0.916,-0.451,-0.336,-0.336,-0.427,60.000,123443.000,1.000
4.759,-2.821,-0.551,5.654,2.166,-3.580,-1.298,9.256,-0.039,0.914,-0.452,-0.305,-0.031,-0.519,60.000,123444.000,1.000
3.281,-3.044,-2.499,5.089,1.858,-2.627,0.742,7.800,-0.040,0.918,-0.453,-0.275,0.031,-0.519,60.000,123445.000,1.000
2.016,-3.056,-3.848,4.138,1.292,-2.420,1.689,6.702,-0.041,0.919,-0.450,-0.183,0.244,-0.580,60.000,123446.000,1.000
0.405,-3.900,-4.598,2.794,0.557,-2.587,1.245,6.043,-0.042,0.920,-0.452,-0.061,0.305,-0.549,60.000,123447.000,1.000
-0.893,-5.375,-4.542,1.543,0.246,-2.402,-0.079,5.558,-0.045,0.923,-0.450,-0.092,0.427,-0.610,60.000,123448.000,1.000
-0.761,-6.372,-3.628,0.864,0.878,-1.341,-1.063,4.841,-0.047,0.924,-0.452,-0.122,0.488,-0.580,60.000,123449.000,1.000
1.576,-5.825,-2.275,0.767,2.398,0.546,-0.500,3.490,-0.047,0.924,-0.449,-0.244,0.580,-0.519,60.000,123450.000,1.000
4.999,-4.193,-1.665,0.277,3.617,2.198,1.109,0.965,-0.049,0.925,-0.451,-0.275,0.519,-0.549,60.000,123451.000,1.000
6.996,-3.257,-3.000,-1.835,2.850,2.159,1.820,-2.935,-0.047,0.926,-0.452,-0.427,0.519,-0.549,60.000,123452.000,1.000
6.337,-4.201,-6.299,-5.625,-0.467,-0.040,0.659,-7.390,-0.047,0.927,-0.451,-0.549,0.519,-0.458,60.000,123453.000,1.000
3.640,-6.861,-10.364,-9.955,-5.293,-3.529,-1.564,-10.885,-0.047,0.928,-0.451,-0.641,0.580,-0.275,60.000,123454.000,1.000
0.934,-9.747,-13.391,-13.191,-9.536,-6.610,-2.999,-12.103,-0.048,0.927,-0.451,-0.793,0.488,-0.214,60.000,123455.000,1.000
-0.770,-11.672,-14.484,-14.659,-11.935,-8.260,-3.001,-11.158,-0.047,0.925,-0.450,-1.007,0.488,-0.092,60.000,123456.000,1.000
-2.434,-12.833,-14.256,-14.961,-12.950,-8.797,-2.720,-9.605,-0.050,0.924,-0.450,-1.068,0.519,0.092,60.000,123457.000,1.000
-5.083,-14.037,-13.970,-14.969,-13.703,-9.242,-3.564,-9.203,-0.053,0.923,-0.450,-1.160,0.519,0.244,60.000,123458.000,1.000
-8.851,-15.866,-14.650,-15.215,-14.898,-10.582,-6.279,-10.801,-0.054,0.922,-0.452,-1.160,0.366,0.397,60.000,123459.000,1.000
-12.479,-17.809,-16.285,-15.410,-16.084,-12.752,-10.017,-13.699,-0.055,0.922,-0.451,-1.160,0.244,0.336,60.000,123460.000,1.000
-15.102,-19.068,-18.287,-15.078,-16.371,-14.729,-12.961,-16.349,-0.057,0.921,-0.451,-1.251,0.000,0.488,60.000,123461.000,1.000
-17.143,-19.372,-20.021,-14.071,-15.175,-15.194,-13.394,-17.346,-0.059,0.922,-0.449,-1.312,-0.214,0.580,60.000,123462.000,1.000
-18.957,-18.669,-20.866,-12.376,-12.202,-13.179,-10.380,-16.024,-0.057,0.922,-0.451,-1.343,-0.427,0.732,60.000,123463.000,1.000
-20.464,-17.098,-20.557,-10.187,-7.704,-8.848,-4.708,-12.856,-0.057,0.920,-0.449,-1.373,-0.519,0.732,60.000,123464.000,1.000
-20.722,-14.488,-19.013,-7.601,-2.269,-3.254,1.844,-8.914,-0.057,0.917,-0.452,-1.526,-0.610,0.885,60.000,123465.000,1.000
-19.714,-11.263,-16.690,-5.117,2.819,1.889,7.119,-5.395,-0.056,0.917,-0.451,-1.434,-0.732,0.916,60.000,123466.000,1.000
-19.186,-8.984,-14.475,-3.640,5.862,4.874,9.416,-3.127,-0.051,0.917,-0.455,-1.465,-0.946,1.038,60.000,123467.000,1.000
-20.164,-8.660,-12.748,-3.377,6.245,5.203,8.713,-2.022,-0.048,0.915,-0.454,-1.343,-0.977,1.160,60.000,123468.000,1.000
-21.721,-9.700,-11.301,-3.683,4.860,3.700,6.140,-1.445,-0.046,0.912,-0.449,-1.343,-1.068,1.282,60.000,123469.000,1.000
-21.576,-10.328,-9.684,-3.689,3.364,1.873,3.283,-0.941,-0.043,0.911,-0.449,-1.251,-1.068,1.343,60.000,123470.000,1.000
-18.996,-9.527,-7.839,-3.332,2.769,0.827,1.218,-0.613,-0.041,0.910,-0.449,-1.160,-0.916,1.282,60.000,123471.000,1.000
-15.622,-7.776,-5.963,-3.134,3.192,0.997,0.384,-0.576,-0.039,0.910,-0.450,-1.068,-0.763,1.312,60.000,123472.000,1.000
-13.130,-6.008,-4.147,-3.373,4.398,2.220,0.825,-0.619,-0.039,0.913,-0.453,-0.946,-0.702,1.282,60.000,123473.000,1.000
-11.934,-4.907,-2.613,-4.071,5.774,3.508,1.695,-0.587,-0.039,0.913,-0.454,-0.916,-0.610,1.282,60.000,123474.000,1.000
-10.617,-4.059,-1.263,-4.642,7.091,4.016,2.427,-0.063,-0.042,0.914,-0.452,-0.885,-0.610,1.251,60.000,123475.000,1.000
-8.321,-2.867,0.213,-4.394,8.599,3.712,3.234,1.534,-0.042,0.916,-0.450,-0.824,-0.519,1.251,60.000,123476.000,1.000
-6.317,-1.673,1.919,-3.265,10.347,3.074,4.342,4.284,-0.041,0.918,-0.448,-0.854,-0.427,1.129,60.000,123477.000,1.000
-5.673,-0.941,3.825,-1.506,12.038,2.645,5.574,7.602,-0.043,0.919,-0.449,-0.946,-0.458,1.007,60.000,123478.000,1.000
-5.417,-0.344,5.908,0.808,13.326,2.778,6.510,10.851,-0.042,0.920,-0.448,-1.068,-0.305,0.885,60.000,123479.000,1.000
-3.023,1.189,8.238,3.855,14.253,3.678,7.263,13.982,-0.043,0.923,-0.448,-1.221,-0.336,0.854,60.000,123480.000,1.000
1.688,3.620,10.157,6.850,14.454,4.714,7.494,16.790,-0.041,0.924,-0.453,-1.404,-0.214,0.824,60.000,123481.000,1.000
5.611,5.504,10.526,8.182,13.175,4.799,6.304,18.387,-0.038,0.925,-0.453,-1.526,-0.183,0.763,60.000,123482.000,1.000
6.341,5.927,9.132,7.226,10.555,3.805,4.037,17.923,-0.039,0.927,-0.448,-1.617,-0.122,0.824,60.000,123483.000,1.000
4.431,5.222,6.963,4.880,7.657,2.678,2.346,15.383,-0.037,0.928,-0.446,-1.648,-0.061,0.854,60.000,123484.000,1.000
2.808,4.678,5.445,2.732,5.576,2.499,2.702,11.688,-0.035,0.928,-0.446,-1.831,0.061,0.885,60.000,123485.000,1.000
2.945,4.836,4.965,1.318,4.147,3.147,4.209,7.631,-0.035,0.929,-0.447,-2.014,0.122,0.885,60.000,123486.000,1.000
3.448,4.953,4.984,0.122,2.384,3.714,4.401,3.705,-0.041,0.927,-0.444,-2.167,0.092,1.007,60.000,123487.000,1.000
3.083,4.615,5.415,-0.918,0.143,4.032,2.439,0.819,-0.046,0.926,-0.448,-2.258,0.031,0.916,60.000,123488.000,1.000
2.467,4.366,6.665,-1.267,-1.836,4.729,-0.217,-0.110,-0.052,0.925,-0.447,-2.319,-0.031,0.854,60.000,123489.000,1.000
3.721,5.381,9.057,-0.287,-2.575,6.637,-1.140,1.016,-0.058,0.926,-0.447,-2.228,-0.244,0.702,60.000,123490.000,1.000
7.348,7.844,11.959,1.754,-2.066,9.704,0.325,2.794,-0.063,0.925,-0.448,-2.228,-0.305,0.549,60.000,123491.000,1.000
11.150,10.396,13.942,3.554,-1.610,12.646,2.327,2.978,-0.063,0.922,-0.450,-2.136,-0.702,0.488,60.000,123492.000,1.000
13.013,11.617,14.040,3.957,-2.578,13.944,2.867,0.332,-0.066,0.920,-0.450,-2.106,-1.038,0.488,60.000,123493.000,1.000
12.433,10.924,12.291,2.641,-5.416,12.807,1.493,-4.399,-0.064,0.915,-0.451,-2.014,-1.312,0.336,60.000,123494.000,1.000
10.902,9.121,9.734,0.440,-9.159,9.820,-0.400,-9.070,-0.059,0.911,-0.452,-1.892,-1.526,0.427,60.000,123495.000,1.000
9.802,7.306,7.374,-1.644,-12.483,6.234,-1.468,-12.153,-0.053,0.910,-0.456,-1.770,-1.801,0.427,60.000,123496.000,1.000
8.936,5.734,5.540,-3.221,-14.724,3.069,-1.672,-13.863,-0.049,0.907,-0.458,-1.526,-1.953,0.427,60.000,123497.000,1.000
7.738,4.354,4.251,-4.089,-15.631,0.962,-1.520,-15.240,-0.044,0.907,-0.457,-1.221,-1.953,0.427,60.000,123498.000,1.000
5.831,3.228,3.351,-4.029,-15.198,-0.110,-1.720,-16.918,-0.038,0.906,-0.459,-0.916,-1.831,0.580,60.000,123499.000,1.000
3.710,2.819,2.755,-2.787,-13.515,-0.653,-2.625,-18.600,-0.033,0.903,-0.456,-0.488,-1.709,0.549,60.000,123500.000,1.000
1.687,3.042,2.105,-0.830,-11.266,-1.547,-4.349,-19.741,-0.028,0.902,-0.456,-0.275,-1.495,0.610,60.000,123501.000,1.000
-0.658,3.015,0.895,0.700,-9.464,-3.408,-6.532,-19.962,-0.026,0.902,-0.456,0.000,-1.068,0.641,60.000,123502.000,1.000
-3.428,2.148,-0.827,1.102,-8.347,-5.882,-8.080,-18.852,-0.024,0.904,-0.456,0.305,-0.671,0.671,60.000,123503.000,1.000
-6.735,0.221,-2.566,0.386,-7.434,-8.162,-8.439,-16.157,-0.022,0.906,-0.460,0.610,-0.305,0.702,60.000,123504.000,1.000
-10.145,-2.397,-3.612,-0.712,-5.931,-9.553,-7.703,-11.836,-0.024,0.909,-0.459,0.671,0.092,0.610,60.000,123505.000,1.000
-13.055,-5.151,-3.820,-1.530,-3.637,-10.117,-6.333,-6.357,-0.025,0.913,-0.458,0.763,0.580,0.488,60.000,123506.000,1.000
-15.058,-7.581,-3.797,-1.931,-1.127,-10.610,-4.797,-0.630,-0.028,0.916,-0.458,0.854,0.854,0.488,60.000,123507.000,1.000
-15.514,-9.039,-4.188,-1.975,1.015,-11.679,-3.313,4.448,-0.032,0.920,-0.454,0.793,1.129,0.397,60.000,123508.000,1.000
-14.442,-9.248,-5.271,-1.924,2.423,-13.411,-2.451,8.073,-0.035,0.925,-0.454,0.702,1.434,0.092,60.000,123509.000,1.000
-11.913,-8.070,-6.533,-1.736,3.370,-14.962,-2.367,9.944,-0.037,0.925,-0.452,0.519,1.678,-0.122,60.000,123510.000,1.000
-8.016,-5.547,-7.213,-1.112,4.529,-15.229,-2.440,10.486,-0.038,0.925,-0.450,0.366,1.831,-0.244,60.000,123511.000,1.000
-2.911,-1.853,-6.809,0.235,6.497,-13.589,-1.487,10.826,-0.040,0.929,-0.448,0.061,1.892,-0.397,60.000,123512.000,1.000
3.374,2.851,-5.200,2.218,9.343,-10.099,1.372,12.037,-0.042,0.929,-0.453,-0.275,2.136,-0.458,60.000,123513.000,1.000
9.522,7.453,-3.094,3.672,11.833,-5.883,4.859,13.963,-0.043,0.930,-0.451,-0.610,2.167,-0.488,60.000,123514.000,1.000
13.901,10.482,-1.401,3.342,12.415,-2.407,6.588,15.701,-0.046,0.929,-0.448,-0.824,2.289,-0.580,60.000,123515.000,1.000
15.796,11.180,-0.518,1.093,10.619,-0.493,5.364,16.706,-0.047,0.927,-0.449,-0.946,2.228,-0.580,60.000,123516.000,1.000
15.704,9.989,-0.114,-1.930,7.406,0.258,2.189,17.126,-0.048,0.925,-0.448,-1.190,2.228,-0.610,60.000,123517.000,1.000
14.725,8.132,0.337,-4.378,4.167,0.973,-0.740,17.157,-0.049,0.924,-0.450,-1.312,2.075,-0.397,60.000,123518.000,1.000
12.562,5.973,0.447,-6.249,1.040,1.999,-2.331,16.146,-0.051,0.923,-0.452,-1.282,1.892,-0.275,60.000,123519.000,1.000
8.646,3.271,-0.472,-8.230,-2.665,2.849,-2.661,13.135,-0.053,0.923,-0.451,-1.465,1.831,-0.214,60.000,123520.000,1.000
3.489,-0.076,-2.495,-10.566,-7.412,2.925,-2.683,7.831,-0.054,0.920,-0.450,-1.648,1.740,-0.061,60.000,123521.000,1.000
-1.426,-3.842,-4.945,-12.810,-13.018,2.030,-3.901,1.118,-0.057,0.917,-0.449,-1.770,1.526,0.092,60.000,123522.000,1.000
-4.447,-7.440,-6.925,-14.269,-18.702,0.506,-6.980,-5.536,-0.058,0.916,-0.448,-1.770,1.160,0.336,60.000,123523.000,1.000
-5.477,-10.476,-8.045,-14.784,-23.603,-1.011,-10.980,-11.403,-0.061,0.916,-0.451,-1.801,0.885,0.580,60.000,123524.000,1.000
-4.905,-12.207,-8.004,-14.305,-26.595,-1.346,-13.361,-16.377,-0.061,0.914,-0.453,-1.678,0.610,0.824,60.000,123525.000,1.000
-2.773,-11.733,-6.576,-12.786,-26.814,0.615,-12.203,-20.306,-0.063,0.914,-0.452,-1.495,0.244,1.099,60.000,123526.000,1.000
0.859,-8.840,-4.034,-10.375,-24.344,4.998,-7.926,-22.813,-0.061,0.916,-0.449,-1.587,-0.061,1.221,60.000,123527.000,1.000
5.327,-4.381,-1.303,-7.431,-20.062,10.651,-2.436,-23.588,-0.059,0.916,-0.452,-1.495,-0.458,1.434,60.000,123528.000,1.000
8.170,-0.557,0.176,-4.816,-15.419,15.432,2.122,-22.774,-0.057,0.917,-0.449,-1.404,-0.793,1.617,60.000,123529.000,1.000
7.197,0.738,-0.251,-3.086,-11.380,17.798,5.014,-20.592,-0.054,0.918,-0.448,-1.495,-1.007,1.801,60.000,123530.000,1.000
2.516,-0.671,-1.929,-2.070,-8.035,17.632,6.865,-17.324,-0.052,0.919,-0.450,-1.556,-1.190,1.953,60.000,123531.000,1.000
-3.542,-3.309,-3.561,-1.175,-4.992,15.697,8.569,-13.522,-0.048,0.921,-0.448,-1.587,-1.312,1.953,60.000,123532.000,1.000
-8.164,-5.229,-4.206,0.098,-1.786,12.667,10.426,-9.783,-0.042,0.923,-0.450,-1.678,-1.495,2.014,60.000,123533.000,1.000
-10.841,-5.779,-4.007,1.538,1.590,8.635,11.453,-6.448,-0.038,0.922,-0.453,-1.740,-1.434,2.136,60.000,123534.000,1.000
-12.234,-5.106,-3.350,2.900,5.226,4.068,11.028,-3.254,-0.033,0.922,-0.452,-1.862,-1.404,2.167,60.000,123535.000,1.000
-12.443,-3.383,-2.341,4.272,9.371,-0.028,10.006,0.185,-0.031,0.921,-0.448,-2.045,-1.282,2.228,60.000,123536.000,1.000
-10.850,-0.775,-0.910,5.918,14.005,-2.855,9.980,3.967,-0.028,0.918,-0.448,-2.014,-1.251,2.228,60.000,123537.000,1.000
-7.084,2.334,0.924,7.971,18.567,-4.319,11.537,7.927,-0.027,0.916,-0.450,-2.106,-1.038,2.197,60.000,123538.000,1.000
-3.064,4.541,2.629,9.820,21.706,-5.221,12.681,11.520,-0.029,0.918,-0.448,-2.106,-0.946,2.106,60.000,123539.000,1.000
-1.361,4.434,3.739,10.743,22.414,-6.488,10.825,14.196,-0.031,0.918,-0.443,-2.136,-0.671,2.106,60.000,123540.000,1.000
-2.828,1.853,4.142,10.426,20.860,-8.799,5.472,15.630,-0.031,0.918,-0.448,-2.289,-0.549,1.984,60.000,123541.000,1.000
-5.730,-1.635,4.224,9.243,18.423,-12.124,-1.136,16.073,-0.031,0.919,-0.443,-2.411,-0.427,1.587,60.000,123542.000,1.000
-6.871,-3.470,4.893,8.242,17.023,-15.179,-5.764,16.511,-0.034,0.922,-0.449,-2.441,-0.397,1.465,60.000,123543.000,1.000
-5.249,-2.660,6.581,8.033,17.354,-16.368,-7.341,17.773,-0.037,0.924,-0.447,-2.411,-0.336,1.038,60.000,123544.000,1.000
-2.256,-0.268,8.901,8.513,18.548,-14.932,-6.937,19.928,-0.038,0.927,-0.449,-2.533,-0.336,0.793,60.000,123545.000,1.000
0.409,2.033,10.937,9.186,19.138,-11.489,-5.970,22.216,-0.041,0.927,-0.448,-2.655,-0.275,0.488,60.000,123546.000,1.000
2.465,3.540,11.956,9.691,18.272,-7.352,-5.089,23.613,-0.049,0.928,-0.450,-2.777,-0.458,0.275,60.000,123547.000,1.000
4.683,4.551,11.640,9.814,15.875,-3.687,-4.483,23.317,-0.053,0.926,-0.453,-2.991,-0.580,-0.122,60.000,123548.000,1.000
6.386,4.875,9.602,8.777,11.593,-1.432,-4.935,20.595,-0.057,0.925,-0.449,-2.991,-0.824,-0.366,60.000,123549.000,1.000
6.563,4.363,6.115,6.113,5.319,-0.585,-6.725,15.452,-0.060,0.924,-0.448,-2.960,-1.068,-0.641,60.000,123550.000,1.000
5.605,3.505,2.465,2.456,-2.018,-0.159,-9.128,9.161,-0.062,0.921,-0.448,-2.960,-1.312,-0.916,60.000,123551.000,1.000
5.232,3.070,0.277,-0.776,-8.608,1.084,-11.044,3.713,-0.062,0.921,-0.450,-2.991,-1.648,-1.160,60.000,123552.000,1.000
6.998,3.540,0.391,-2.432,-12.893,3.679,-11.573,0.400,-0.063,0.921,-0.449,-2.808,-1.984,-1.190,60.000,123553.000,1.000
9.669,4.131,1.914,-2.897,-15.132,6.627,-10.868,-1.269,-0.063,0.915,-0.449,-2.747,-2.197,-1.312,60.000,123554.000,1.000
10.709,3.778,3.269,-3.262,-16.670,8.551,-9.397,-2.729,-0.060,0.913,-0.449,-2.411,-2.563,-1.434,60.000,123555.000,1.000
8.966,2.231,3.517,-4.140,-18.400,9.070,-7.812,-5.155,-0.054,0.912,-0.449,-2.106,-2.777,-1.465,60.000,123556.000,1.000
5.717,0.335,2.873,-5.226,-19.988,9.076,-6.812,-8.704,-0.048,0.912,-0.450,-1.892,-2.838,-1.404,60.000,123557.000,1.000
3.580,-0.366,2.287,-5.646,-20.186,9.804,-6.052,-12.428,-0.045,0.911,-0.452,-1.556,-2.899,-1.190,60.000,123558.000,1.000
3.237,0.635,2.241,-5.025,-18.257,11.352,-4.579,-15.152,-0.038,0.912,-0.449,-1.404,-2.808,-0.977,60.000,123559.000,1.000
3.725,2.659,2.745,-3.327,-14.236,12.972,-1.570,-16.002,-0.033,0.913,-0.448,-1.129,-2.655,-0.732,60.000,123560.000,1.000
4.176,4.567,3.481,-0.724,-8.843,13.976,2.659,-14.889,-0.030,0.912,-0.450,-0.885,-2.441,-0.519,60.000,123561.000,1.000
4.712,5.667,3.961,2.300,-3.281,14.102,6.778,-12.605,-0.027,0.910,-0.448,-0.610,-2.167,-0.305,60.000,123562.000,1.000
6.018,6.157,3.793,5.050,1.284,13.209,9.707,-10.338,-0.022,0.912,-0.449,-0.458,-1.770,-0.092,60.000,123563.000,1.000
7.104,5.980,2.443,6.474,3.852,10.745,10.757,-9.147,-0.019,0.914,-0.450,-0.275,-1.312,0.214,60.000,123564.000,1.000
6.486,5.085,-0.139,6.189,4.564,6.686,10.349,-9.100,-0.023,0.915,-0.450,-0.092,-0.885,0.336,60.000,123565.000,1.000
4.015,3.869,-3.255,4.901,4.756,1.982,9.765,-9.343,-0.026,0.917,-0.450,-0.031,-0.458,0.488,60.000,123566.000,1.000
1.016,2.989,-5.879,3.834,5.920,-2.111,10.193,-8.831,-0.031,0.920,-0.450,0.092,-0.183,0.519,60.000,123567.000,1.000
-0.728,3.108,-7.176,4.058,8.878,-4.681,12.007,-6.827,-0.036,0.926,-0.448,0.092,0.061,0.458,60.000,123568.000,1.000
-1.359,3.966,-7.235,5.621,13.076,-5.758,13.635,-3.352,-0.044,0.928,-0.444,-0.092,0.305,0.458,60.000,123569.000,1.000
-1.957,4.990,-6.620,7.941,17.300,-5.966,13.075,1.112,-0.047,0.933,-0.444,-0.305,0.458,0.397,60.000,123570.000,1.000
-2.696,6.071,-5.752,10.420,20.668,-6.141,10.348,6.062,-0.050,0.935,-0.445,-0.580,0.549,0.244,60.000,123571.000,1.000
-2.538,7.518,-4.644,12.761,23.019,-6.847,7.799,11.178,-0.054,0.936,-0.442,-0.916,0.580,0.244,60.000,123572.000,1.000
-0.541,9.341,-3.315,14.607,24.343,-8.052,7.395,15.802,-0.054,0.937,-0.445,-1.282,0.488,0.092,60.000,123573.000,1.000
1.692,10.104,-2.577,14.684,23.660,-9.566,7.672,18.295,-0.054,0.937,-0.442,-1.465,0.336,0.000,60.000,123574.000,1.000
1.940,8.463,-3.011,12.096,20.130,-10.800,5.965,17.380,-0.054,0.935,-0.444,-1.770,0.305,0.031,60.000,123575.000,1.000
0.127,4.877,-3.941,7.711,14.435,-10.900,2.170,13.688,-0.056,0.932,-0.443,-1.953,0.061,0.061,60.000,123576.000,1.000
-1.591,1.280,-3.801,3.718,8.450,-9.336,-0.924,9.554,-0.057,0.929,-0.440,-2.136,-0.092,0.061,60.000,123577.000,1.000
-0.848,-0.585,-1.512,1.805,3.729,-6.269,-0.851,7.199,-0.058,0.928,-0.440,-2.228,-0.366,0.122,60.000,123578.000,1.000
1.873,-1.030,2.118,1.436,0.052,-2.844,1.081,6.754,-0.056,0.927,-0.441,-2.350,-0.458,0.275,60.000,123579.000,1.000
4.663,-1.246,5.404,1.020,-3.591,-0.209,1.521,6.604,-0.056,0.921,-0.444,-2.380,-0.549,0.397,60.000,123580.000,1.000
6.657,-1.673,7.352,-0.290,-7.698,1.206,-1.545,4.940,-0.056,0.920,-0.441,-2.319,-0.732,0.641,60.000,123581.000,1.000
8.318,-2.043,8.031,-2.178,-12.122,1.622,-7.586,1.015,-0.056,0.917,-0.440,-2.228,-0.977,0.793,60.000,123582.000,1.000
10.211,-2.232,7.967,-3.850,-16.423,1.593,-14.112,-4.522,-0.056,0.916,-0.441,-2.045,-1.190,1.007,60.000,123583.000,1.000
10.943,-3.237,7.213,-5.156,-20.477,1.426,-18.533,-10.323,-0.056,0.919,-0.439,-1.984,-1.404,1.221,60.000,123584.000,1.000
8.886,-5.908,5.793,-6.132,-23.957,1.473,-19.062,-14.754,-0.057,0.922,-0.438,-1.862,-1.495,1.251,60.000,123585.000,1.000
4.339,-9.712,4.074,-6.487,-26.162,2.231,-15.815,-16.550,-0.055,0.920,-0.436,-1.892,-1.678,1.465,60.000,123586.000,1.000
-0.602,-13.054,2.574,-5.814,-26.472,4.018,-10.875,-15.630,-0.053,0.920,-0.438,-1.740,-1.862,1.617,60.000,123587.000,1.000
-3.742,-14.459,1.550,-4.065,-24.760,6.481,-6.420,-13.299,-0.051,0.918,-0.438,-1.831,-2.014,1.740,60.000,123588.000,1.000
-5.333,-14.088,0.527,-2.091,-21.786,8.174,-3.683,-11.430,-0.051,0.916,-0.439,-1.648,-2.167,1.801,60.000,123589.000,1.000
-6.811,-12.939,-0.794,-0.653,-18.214,7.809,-2.332,-10.628,-0.049,0.915,-0.441,-1.495,-2.106,1.892,60.000,123590.000,1.000
-9.230,-11.993,-2.167,0.091,-14.158,5.325,-1.518,-10.030,-0.046,0.915,-0.441,-1.404,-2.167,2.014,60.000,123591.000,1.000
-13.046,-12.116,-3.331,0.247,-9.655,1.632,-1.063,-8.747,-0.045,0.914,-0.440,-1.190,-2.014,1.892,60.000,123592.000,1.000
-17.868,-13.657,-4.314,0.039,-4.849,-2.303,-1.060,-6.783,-0.043,0.914,-0.441,-1.038,-2.014,1.770,60.000,123593.000,1.000
-23.361,-16.619,-5.582,-0.504,-0.151,-6.300,-1.600,-4.871,-0.044,0.915,-0.441,-0.946,-1.923,1.678,60.000,123594.000,1.000
-28.550,-20.047,-7.372,-1.164,4.347,-10.305,-2.119,-3.489,-0.042,0.916,-0.441,-0.732,-1.892,1.617,60.000,123595.000,1.000
-32.264,-22.471,-9.645,-1.767,8.769,-13.932,-2.054,-2.610,-0.042,0.916,-0.444,-0.519,-1.831,1.343,60.000,123596.000,1.000
-34.206,-23.062,-12.180,-2.400,13.074,-16.587,-1.562,-1.841,-0.043,0.916,-0.441,-0.336,-1.709,1.190,60.000,123597.000,1.000
-34.294,-21.754,-14.248,-2.989,17.163,-17.695,-1.004,-0.578,-0.043,0.918,-0.442,-0.244,-1.587,0.916,60.000,123598.000,1.000
-32.762,-19.465,-15.019,-3.564,20.480,-17.331,-0.993,1.317,-0.044,0.917,-0.445,-0.061,-1.556,0.763,60.000,123599.000,1.000
-29.298,-17.008,-13.778,-4.033,22.502,-15.847,-1.517,3.545,-0.043,0.917,-0.445,0.092,-1.373,0.702,60.000,123600.000,1.000
-23.574,-14.396,-10.456,-4.250,23.115,-13.643,-1.797,5.623,-0.042,0.915,-0.444,0.244,-1.221,0.519,60.000,123601.000,1.000
-16.377,-11.279,-5.810,-4.213,22.491,-11.176,-1.002,7.110,-0.041,0.915,-0.447,0.427,-1.038,0.336,60.000,123602.000,1.000
-8.888,-7.504,-0.768,-3.828,20.975,-8.636,1.173,7.959,-0.038,0.913,-0.448,0.610,-0.885,0.183,60.000,123603.000,1.000
-2.285,-3.886,3.766,-3.215,18.452,-6.130,3.559,8.294,-0.036,0.909,-0.449,0.702,-0.641,0.031,60.000,123604.000,1.000
3.313,-1.339,7.148,-2.609,14.593,-3.886,4.504,8.009,-0.036,0.910,-0.448,0.854,-0.397,0.031,60.000,123605.000,1.000
7.896,-0.324,8.687,-2.633,9.041,-2.803,2.897,6.162,-0.036,0.909,-0.451,1.038,-0.183,-0.183,60.000,123606.000,1.000
10.413,-0.902,7.745,-4.173,1.657,-4.044,-1.505,1.562,-0.035,0.909,-0.451,1.312,-0.031,-0.275,60.000,123607.000,1.000
10.289,-2.347,4.577,-7.271,-6.717,-7.504,-7.647,-5.571,-0.037,0.912,-0.452,1.465,0.214,-0.275,60.000,123608.000,1.000
8.260,-3.631,0.285,-10.900,-14.433,-11.485,-13.741,-13.234,-0.034,0.915,-0.452,1.495,0.549,-0.214,60.000,123609.000,1.000
6.594,-3.772,-3.557,-13.373,-19.615,-13.604,-17.624,-18.666,-0.034,0.916,-0.452,1.617,0.793,-0.183,60.000,123610.000,1.000
6.492,-2.979,-6.074,-13.871,-21.679,-12.743,-18.379,-20.368,-0.034,0.919,-0.452,1.678,1.007,-0.183,60.000,123611.000,1.000
6.315,-2.849,-7.612,-13.135,-21.922,-9.773,-17.282,-19.013,-0.038,0.923,-0.450,1.801,1.160,-0.153,60.000,123612.000,1.000
4.233,-4.345,-8.769,-12.193,-21.891,-6.198,-15.946,-16.368,-0.044,0.922,-0.448,1.740,1.404,-0.244,60.000,123613.000,1.000
0.347,-6.857,-9.739,-11.500,-22.142,-3.108,-14.830,-13.939,-0.046,0.921,-0.449,1.770,1.526,-0.183,60.000,123614.000,1.000
-2.823,-8.448,-10.006,-10.627,-21.981,-0.579,-12.871,-11.948,-0.049,0.921,-0.451,1.678,1.556,-0.244,60.000,123615.000,1.000
-3.413,-7.897,-9.181,-9.177,-20.715,1.862,-9.424,-9.727,-0.049,0.921,-0.453,1.587,1.526,-0.275,60.000,123616.000,1.000
-2.808,-6.260,-7.751,-7.542,-18.672,4.425,-5.647,-6.817,-0.050,0.924,-0.449,1.465,1.526,-0.305,60.000,123617.000,1.000
-3.232,-5.317,-6.403,-6.230,-16.462,6.922,-2.791,-3.465,-0.051,0.924,-0.451,1.465,1.495,-0.305,60.000,123618.000,1.000
-5.034,-5.679,-5.409,-5.400,-14.324,8.752,-0.685,-0.531,-0.052,0.924,-0.448,1.312,1.434,-0.336,60.000,123619.000,1.000
-6.041,-6.148,-4.376,-4.648,-11.850,9.557,2.331,1.326,-0.053,0.925,-0.450,1.160,1.312,-0.275,60.000,123620.000,1.000
-4.915,-5.586,-3.113,-3.845,-8.844,9.368,7.003,1.919,-0.052,0.925,-0.452,0.916,1.251,-0.183,60.000,123621.000,1.000
-3.368,-4.341,-2.042,-3.548,-5.840,8.428,11.724,1.455,-0.054,0.924,-0.450,0.732,1.190,-0.092,60.000,123622.000,1.000
-3.354,-3.001,-1.308,-4.039,-3.206,7.207,14.567,0.538,-0.055,0.921,-0.452,0.610,1.007,-0.061,60.000,123623.000,1.000
-4.778,-1.502,-0.526,-4.913,-0.801,5.914,14.918,-0.417,-0.055,0.920,-0.454,0.427,0.916,0.092,60.000,123624.000,1.000
-5.211,1.011,0.939,-5.177,1.908,4.569,13.634,-1.351,-0.056,0.921,-0.453,0.336,0.763,0.275,60.000,123625.000,1.000
-3.147,4.666,2.977,-4.441,4.877,3.100,11.492,-2.470,-0.053,0.917,-0.454,0.336,0.549,0.397,60.000,123626.000,1.000
-0.162,8.033,4.669,-3.452,7.229,1.563,8.616,-3.841,-0.054,0.917,-0.452,0.397,0.397,0.458,60.000,123627.000,1.000
1.951,9.856,5.557,-2.940,8.526,0.419,5.706,-4.932,-0.055,0.916,-0.455,0.305,0.275,0.610,60.000,123628.000,1.000
3.484,10.247,5.999,-2.965,9.266,-0.013,3.834,-5.021,-0.051,0.916,-0.454,0.397,0.092,0.641,60.000,123629.000,1.000
6.780,10.820,6.893,-2.789,10.642,0.399,4.070,-3.577,-0.047,0.917,-0.453,0.427,-0.031,0.824,60.000,123630.000,1.000
12.524,12.599,8.527,-1.929,13.071,1.245,6.437,-0.844,-0.045,0.915,-0.453,0.275,-0.153,1.038,60.000,123631.000,1.000
17.631,14.406,10.031,-0.893,15.349,1.503,9.471,2.056,-0.046,0.916,-0.454,0.275,-0.275,0.946,60.000,123632.000,1.000
19.041,14.717,10.454,-0.192,16.110,0.721,11.744,3.911,-0.046,0.915,-0.457,0.275,-0.214,1.190,60.000,123633.000,1.000
16.857,13.539,9.542,0.345,15.102,-0.402,12.576,4.112,-0.047,0.914,-0.456,0.366,-0.397,1.160,60.000,123634.000,1.000
14.064,12.401,7.838,1.474,13.236,-0.605,12.150,3.068,-0.044,0.914,-0.453,0.305,-0.488,1.251,60.000,123635.000,1.000
12.247,11.948,5.648,3.206,11.051,0.325,10.609,1.510,-0.045,0.915,-0.452,0.336,-0.458,1.312,60.000,123636.000,1.000
9.531,10.902,2.748,4.484,8.112,1.406,7.975,-0.078,-0.044,0.916,-0.454,0.153,-0.610,1.312,60.000,123637.000,1.000
4.413,8.375,-0.521,4.793,4.483,2.154,5.323,-0.982,-0.045,0.919,-0.451,0.031,-0.702,1.251,60.000,123638.000,1.000
-1.603,5.359,-3.022,4.826,1.333,3.231,4.203,-0.236,-0.045,0.923,-0.453,-0.092,-0.702,1.282,60.000,123639.000,1.000
-4.867,4.170,-3.450,5.908,0.272,5.811,5.692,2.790,-0.047,0.924,-0.453,-0.153,-0.763,1.251,60.000,123640.000,1.000
-4.068,5.878,-1.833,8.236,1.586,9.909,9.057,7.433,-0.046,0.926,-0.454,-0.305,-0.824,1.251,60.000,123641.000,1.000
-1.935,9.252,0.316,10.527,3.882,13.999,11.991,12.018,-0.044,0.929,-0.453,-0.488,-0.916,1.190,60.000,123642.000,1.000
-1.075,12.774,1.821,11.809,5.819,16.601,13.000,15.314,-0.042,0.930,-0.451,-0.610,-0.916,1.099,60.000,123643.000,1.000
-1.481,15.638,2.565,12.118,6.810,17.161,12.124,17.002,-0.040,0.927,-0.449,-0.854,-1.068,1.099,60.000,123644.000,1.000
-1.031,17.756,3.139,12.139,6.943,16.071,10.514,17.362,-0.043,0.928,-0.448,-1.007,-1.038,1.160,60.000,123645.000,1.000
1.251,18.769,3.698,11.983,6.201,13.845,8.785,16.422,-0.046,0.926,-0.451,-1.312,-1.038,1.068,60.000,123646.000,1.000
3.949,18.011,3.714,11.000,4.252,10.728,6.284,14.042,-0.049,0.926,-0.450,-1.465,-1.221,0.885,60.000,123647.000,1.000
6.224,16.032,3.016,9.167,1.374,7.161,2.626,11.019,-0.054,0.926,-0.448,-1.648,-1.343,0.793,60.000,123648.000,1.000
8.628,14.147,1.996,7.282,-1.594,3.635,-1.689,8.919,-0.054,0.927,-0.448,-1.709,-1.404,0.702,60.000,123649.000,1.000
12.334,13.464,1.510,6.392,-3.582,0.809,-5.215,9.028,-0.054,0.922,-0.450,-1.801,-1.709,0.610,60.000,123650.000,1.000
17.257,14.093,2.181,6.747,-4.046,-0.668,-6.814,11.241,-0.055,0.920,-0.451,-1.770,-1.953,0.580,60.000,123651.000,1.000
21.575,15.163,3.944,7.593,-3.290,-0.453,-6.627,14.153,-0.055,0.917,-0.453,-1.740,-2.167,0.488,60.000,123652.000,1.000
23.906,15.893,6.396,8.218,-1.759,1.473,-5.164,16.158,-0.053,0.913,-0.457,-1.648,-2.319,0.397,60.000,123653.000,1.000
23.687,15.653,8.700,8.208,-0.011,4.343,-3.161,15.973,-0.052,0.908,-0.457,-1.404,-2.350,0.366,60.000,123654.000,1.000
21.416,14.363,9.955,7.571,1.438,6.931,-1.493,13.139,-0.048,0.907,-0.459,-1.312,-2.472,0.305,60.000,123655.000,1.000
17.763,12.211,9.430,6.366,2.103,8.086,-1.435,8.181,-0.044,0.907,-0.455,-1.038,-2.502,0.244,60.000,123656.000,1.000
12.897,9.192,6.889,4.616,1.742,7.393,-3.894,2.474,-0.041,0.904,-0.456,-0.702,-2.441,0.275,60.000,123657.000,1.000
7.705,5.840,3.107,2.882,0.959,5.726,-7.664,-2.039,-0.036,0.903,-0.454,-0.427,-2.411,0.183,60.000,123658.000,1.000
3.138,2.966,-0.789,1.768,0.503,4.423,-10.284,-4.014,-0.034,0.902,-0.456,-0.153,-2.197,0.275,60.000,123659.000,1.000
-0.337,1.102,-3.936,1.445,0.659,4.343,-9.872,-3.480,-0.030,0.905,-0.458,0.031,-1.953,0.336,60.000,123660.000,1.000
-3.407,-0.291,-6.229,1.325,0.967,5.108,-6.794,-1.849,-0.030,0.905,-0.455,0.183,-1.648,0.336,60.000,123661.000,1.000
-7.130,-2.169,-7.948,0.694,0.932,5.584,-3.132,-0.768,-0.031,0.908,-0.458,0.549,-1.434,0.244,60.000,123662.000,1.000
-10.719,-4.016,-8.812,-0.114,1.119,5.350,-0.197,-0.599,-0.032,0.910,-0.459,0.641,-1.099,0.183,60.000,123663.000,1.000
-12.886,-4.684,-8.475,-0.384,2.266,4.679,1.767,-0.617,-0.035,0.915,-0.458,0.732,-0.854,0.153,60.000,123664.000,1.000
-13.193,-3.860,-7.038,0.226,4.416,4.005,3.165,-0.071,-0.035,0.916,-0.454,0.671,-0.610,0.000,60.000,123665.000,1.000
-12.279,-2.452,-5.129,1.437,6.869,3.456,4.446,1.016,-0.037,0.916,-0.450,0.732,-0.397,-0.061,60.000,123666.000,1.000
-10.850,-1.465,-3.372,2.732,8.833,2.996,5.949,2.181,-0.037,0.921,-0.455,0.641,-0.183,-0.092,60.000,123667.000,1.000
-8.431,-0.767,-1.766,3.921,10.119,2.825,8.104,3.262,-0.039,0.921,-0.454,0.549,0.031,-0.183,60.000,123668.000,1.000
-5.215,-0.296,-0.332,4.566,10.461,2.727,10.165,4.135,-0.040,0.922,-0.454,0.305,0.183,-0.122,60.000,123669.000,1.000
-2.123,-0.370,0.840,4.199,9.506,2.029,10.610,4.575,-0.038,0.922,-0.456,0.183,0.366,-0.214,60.000,123670.000,1.000
0.297,-1.000,1.794,2.810,7.231,0.192,8.645,4.352,-0.038,0.922,-0.455,0.031,0.519,-0.366,60.000,123671.000,1.000
2.304,-1.594,2.744,0.900,4.103,-2.603,4.992,3.463,-0.040,0.921,-0.457,-0.031,0.702,-0.427,60.000,123672.000,1.000
5.031,-1.137,3.999,-0.741,0.991,-5.359,1.427,2.266,-0.041,0.918,-0.457,-0.122,0.793,-0.488,60.000,123673.000,1.000
8.483,0.374,5.377,-1.910,-1.675,-7.177,-1.221,1.116,-0.045,0.917,-0.458,-0.122,0.946,-0.488,60.000,123674.000,1.000
11.695,2.059,6.593,-2.653,-3.701,-7.411,-2.942,0.556,-0.047,0.917,-0.455,-0.183,0.885,-0.458,60.000,123675.000,1.000
13.743,2.979,7.500,-2.931,-4.998,-5.941,-3.864,1.036,-0.051,0.919,-0.453,-0.397,0.916,-0.610,60.000,123676.000,1.000
14.240,2.637,7.962,-2.782,-5.816,-3.531,-4.331,2.280,-0.052,0.920,-0.454,-0.458,0.854,-0.580,60.000,123677.000,1.000
13.902,1.475,8.076,-2.145,-6.326,-1.205,-4.611,3.535,-0.052,0.921,-0.453,-0.519,0.854,-0.488,60.000,123678.000,1.000
12.978,0.014,7.790,-1.259,-6.695,0.228,-5.234,4.025,-0.051,0.923,-0.454,-0.610,0.824,-0.366,60.000,123679.000,1.000
11.442,-1.260,7.034,-0.453,-6.908,0.640,-6.344,3.490,-0.052,0.920,-0.454,-0.671,0.702,-0.214,60.000,123680.000,1.000
9.649,-1.957,5.852,0.043,-6.873,0.429,-7.426,2.087,-0.051,0.921,-0.458,-0.824,0.580,-0.183,60.000,123681.000,1.000
8.184,-2.049,4.400,0.125,-6.626,0.181,-7.776,0.104,-0.052,0.921,-0.457,-1.007,0.366,-0.061,60.000,123682.000,1.000
7.714,-1.562,3.024,0.051,-6.106,0.544,-6.737,-1.949,-0.052,0.920,-0.455,-1.007,0.305,0.092,60.000,123683.000,1.000
7.248,-1.148,1.679,-0.119,-5.566,1.492,-4.635,-3.516,-0.052,0.918,-0.454,-1.068,0.244,0.244,60.000,123684.000,1.000
5.135,-1.562,0.130,-0.394,-5.285,2.474,-2.288,-3.971,-0.051,0.918,-0.450,-1.099,0.061,0.366,60.000,123685.000,1.000
1.072,-2.865,-1.728,-0.679,-5.279,2.865,-0.476,-3.064,-0.051,0.918,-0.452,-1.129,-0.031,0.549,60.000,123686.000,1.000
-3.473,-4.336,-3.740,-0.790,-5.343,2.321,0.228,-1.347,-0.049,0.919,-0.456,-1.068,-0.092,0.641,60.000,123687.000,1.000
-6.277,-4.882,-5.445,-0.475,-5.029,1.044,0.072,0.035,-0.049,0.919,-0.453,-1.221,-0.092,0.671,60.000,123688.000,1.000
-7.388,-4.570,-6.766,-0.132,-4.366,-0.761,-0.607,-0.392,-0.047,0.916,-0.454,-1.343,-0.183,0.763,60.000,123689.000,1.000
-8.453,-4.327,-7.735,-0.314,-3.648,-2.818,-1.541,-3.297,-0.048,0.917,-0.453,-1.434,-0.183,0.732,60.000,123690.000,1.000
-10.218,-4.666,-8.111,-0.977,-2.987,-4.700,-2.528,-7.715,-0.045,0.917,-0.457,-1.495,-0.183,0.702,60.000,123691.000,1.000
-11.630,-5.111,-7.497,-1.461,-2.210,-5.952,-3.273,-11.520,-0.043,0.916,-0.454,-1.648,-0.305,0.671,60.000,123692.000,1.000
-10.869,-4.635,-5.703,-1.060,-0.926,-6.207,-3.096,-12.788,-0.043,0.916,-0.453,-1.648,-0.336,0.671,60.000,123693.000,1.000
-8.513,-3.486,-3.512,-0.252,0.569,-5.862,-2.195,-11.295,-0.044,0.914,-0.455,-1.526,-0.275,0.580,60.000,123694.000,1.000
-6.660,-2.640,-1.908,-0.016,1.702,-5.641,-1.319,-8.182,-0.041,0.916,-0.457,-1.526,-0.244,0.427,60.000,123695.000,1.000
-6.195,-2.287,-1.116,-0.568,2.385,-5.890,-0.667,-4.692,-0.039,0.916,-0.458,-1.556,-0.122,0.427,60.000,123696.000,1.000
-6.247,-1.866,-0.658,-1.252,2.915,-6.485,0.243,-1.559,-0.037,0.917,-0.457,-1.678,-0.031,0.305,60.000,123697.000,1.000
-5.416,-0.980,-0.018,-1.319,3.505,-7.184,1.837,0.745,-0.037,0.917,-0.457,-1.709,0.000,0.305,60.000,123698.000,1.000
-4.413,-0.561,0.424,-1.033,3.592,-8.245,3.017,1.622,-0.038,0.916,-0.453,-1.923,0.153,0.153,60.000,123699.000,1.000
-4.621,-1.470,0.165,-0.888,2.791,-9.647,2.490,1.085,-0.041,0.917,-0.450,-1.862,0.244,0.092,60.000,123700.000,1.000
-5.738,-3.145,-0.638,-0.819,1.614,-10.621,0.517,-0.089,-0.040,0.914,-0.454,-1.984,0.336,-0.122,60.000,123701.000,1.000
-6.076,-4.198,-1.384,-0.462,0.879,-10.252,-1.357,-1.046,-0.042,0.915,-0.457,-1.892,0.427,-0.275,60.000,123702.000,1.000
-4.027,-3.442,-1.468,0.517,1.063,-8.025,-1.578,-1.211,-0.041,0.915,-0.458,-1.862,0.488,-0.336,60.000,123703.000,1.000
-0.562,-1.287,-1.050,1.658,1.534,-4.502,-0.436,-0.739,-0.044,0.915,-0.455,-1.862,0.397,-0.427,60.000,123704.000,1.000
2.119,0.938,-0.506,2.311,1.384,-0.744,0.832,-0.178,-0.046,0.915,-0.454,-1.862,0.305,-0.641,60.000,123705.000,1.000
3.127,2.249,0.267,2.505,0.486,2.423,1.635,0.139,-0.049,0.918,-0.454,-1.801,0.305,-0.549,60.000,123706.000,1.000
3.188,2.193,1.578,2.773,-0.741,4.304,1.869,0.185,-0.048,0.917,-0.454,-1.801,0.305,-0.580,60.000,123707.000,1.000
3.670,0.929,3.433,3.519,-1.970,4.302,1.384,-0.015,-0.047,0.917,-0.453,-1.801,0.305,-0.549,60.000,123708.000,1.000
4.290,-1.334,5.173,4.314,-3.497,2.229,-0.368,-0.611,-0.044,0.914,-0.456,-1.831,0.244,-0.488,60.000,123709.000,1.000
4.172,-3.825,6.370,4.697,-5.326,-0.848,-3.026,-1.360,-0.043,0.913,-0.458,-1.801,0.214,-0.427,60.000,123710.000,1.000
3.777,-5.168,7.227,4.741,-6.739,-3.116,-5.130,-1.733,-0.040,0.912,-0.456,-1.617,0.214,-0.336,60.000,123711.000,1.000
4.669,-4.414,8.124,4.771,-6.975,-3.259,-5.333,-1.593,-0.036,0.911,-0.458,-1.434,0.244,-0.244,60.000,123712.000,1.000
8.010,-1.762,9.154,4.999,-5.871,-1.013,-3.097,-1.358,-0.035,0.910,-0.457,-1.312,0.275,-0.122,60.000,123713.000,1.000
11.964,0.854,9.456,4.761,-4.577,2.315,0.306,-1.942,-0.033,0.912,-0.456,-1.160,0.488,-0.153,60.000,123714.000,1.000
13.451,1.524,8.096,3.298,-4.488,4.748,2.753,-3.853,-0.032,0.914,-0.454,-1.038,0.549,-0.031,60.000,123715.000,1.000
11.339,-0.027,5.187,0.768,-5.867,5.047,2.892,-6.616,-0.035,0.916,-0.453,-1.068,0.732,-0.061,60.000,123716.000,1.000
7.026,-2.865,1.830,-1.861,-7.754,3.310,0.905,-9.172,-0.038,0.919,-0.454,-1.038,0.824,0.000,60.000,123717.000,1.000
3.057,-5.721,-0.803,-3.570,-8.814,0.561,-1.778,-10.590,-0.041,0.921,-0.455,-0.946,0.977,0.061,60.000,123718.000,1.000
-0.157,-8.308,-2.758,-4.464,-8.846,-2.617,-4.432,-10.802,-0.044,0.925,-0.454,-1.129,1.038,0.122,60.000,123719.000,1.000
-3.770,-10.770,-4.705,-5.139,-8.370,-5.934,-6.780,-10.058,-0.049,0.928,-0.454,-1.282,0.854,0.122,60.000,123720.000,1.000
-7.750,-12.547,-6.706,-5.540,-7.438,-8.538,-7.740,-8.103,-0.052,0.934,-0.454,-1.495,0.732,0.183,60.000,123721.000,1.000
-10.139,-12.425,-8.018,-4.982,-5.552,-9.195,-5.902,-4.482,-0.054,0.937,-0.454,-1.648,0.519,0.122,60.000,123722.000,1.000
-8.948,-9.653,-7.953,-3.168,-2.504,-7.483,-1.172,0.237,-0.055,0.937,-0.449,-1.953,0.275,0.183,60.000,123723.000,1.000
-5.838,-5.686,-7.128,-1.425,0.533,-4.795,3.882,3.888,-0.057,0.935,-0.447,-2.197,-0.031,0.214,60.000,123724.000,1.000
-4.358,-2.755,-6.632,-1.489,2.150,-2.889,6.353,4.521,-0.058,0.932,-0.448,-2.441,-0.214,0.244,60.000,123725.000,1.000
-5.754,-1.570,-6.776,-3.717,2.199,-2.354,5.609,2.174,-0.059,0.932,-0.450,-2.655,-0.519,0.275,60.000,123726.000,1.000
-8.045,-1.250,-7.006,-6.873,1.753,-2.700,3.237,-1.252,-0.061,0.931,-0.451,-2.808,-0.824,0.366,60.000,123727.000,1.000
-8.217,-0.491,-6.541,-9.178,2.118,-3.116,1.396,-3.543,-0.061,0.929,-0.450,-2.930,-1.221,0.336,60.000,123728.000,1.000
-6.339,0.651,-5.491,-10.088,3.359,-3.334,0.462,-4.040,-0.060,0.927,-0.445,-3.021,-1.404,0.519,60.000,123729.000,1.000
-4.854,1.313,-4.361,-10.044,4.774,-3.167,-0.218,-3.569,-0.058,0.925,-0.445,-3.143,-1.770,0.702,60.000,123730.000,1.000
-5.120,1.249,-3.245,-9.444,5.882,-2.258,-0.628,-3.314,-0.058,0.921,-0.444,-3.174,-2.014,0.763,60.000,123731.000,1.000
-6.069,1.038,-1.889,-8.459,6.463,-0.637,-0.359,-3.942,-0.056,0.919,-0.441,-3.143,-2.258,0.854,60.000,123732.000,1.000
-5.511,1.412,-0.110,-7.237,6.414,1.127,0.428,-5.285,-0.057,0.917,-0.445,-3.021,-2.533,0.977,60.000,123733.000,1.000
-3.773,1.705,1.444,-6.504,5.191,2.054,0.242,-6.998,-0.056,0.913,-0.446,-3.021,-2.716,1.129,60.000,123734.000,1.000
-3.133,0.610,1.908,-6.805,2.361,1.737,-2.059,-8.792,-0.054,0.914,-0.446,-2.930,-2.930,1.251,60.000,123735.000,1.000
-4.790,-2.067,1.074,-7.710,-1.699,0.706,-5.849,-10.228,-0.054,0.914,-0.445,-2.777,-3.021,1.312,60.000,123736.000,1.000
-7.531,-4.893,-0.394,-7.995,-5.652,0.119,-8.974,-10.467,-0.052,0.914,-0.442,-2.747,-3.204,1.434,60.000,123737.000,1.000
-8.463,-5.479,-1.254,-6.337,-7.520,1.428,-8.825,-8.429,-0.050,0.913,-0.442,-2.502,-3.418,1.526,60.000,123738.000,1.000
-6.549,-2.789,-0.953,-2.728,-6.353,5.138,-4.928,-4.068,-0.049,0.915,-0.440,-2.502,-3.510,1.556,60.000,123739.000,1.000
-3.224,2.193,0.142,1.596,-2.834,10.338,0.754,1.150,-0.047,0.913,-0.441,-2.625,-3.571,1.556,60.000,123740.000,1.000
-0.718,7.346,1.226,5.048,1.417,15.256,5.673,5.113,-0.044,0.910,-0.439,-2.411,-3.540,1.587,60.000,123741.000,1.000
-0.453,10.798,1.647,6.563,5.041,18.309,8.484,6.609,-0.045,0.907,-0.438,-2.136,-3.326,1.465,60.000,123742.000,1.000
-1.975,12.099,1.369,6.234,7.855,18.911,9.634,6.149,-0.044,0.907,-0.444,-1.984,-3.387,1.312,60.000,123743.000,1.000
-4.958,11.122,0.354,4.533,9.911,16.934,9.610,4.979,-0.044,0.908,-0.448,-1.801,-3.265,1.129,60.000,123744.000,1.000
-9.607,7.648,-1.448,2.000,10.942,12.578,8.393,4.159,-0.044,0.908,-0.450,-1.648,-3.113,0.854,60.000,123745.000,1.000
-15.850,1.796,-3.949,-0.844,10.636,6.447,5.771,4.162,-0.043,0.906,-0.450,-1.404,-3.052,0.854,60.000,123746.000,1.000
-22.923,-5.642,-6.938,-3.598,9.094,-0.558,1.610,4.824,-0.042,0.907,-0.444,-1.038,-2.899,0.610,60.000,123747.000,1.000
-28.706,-12.842,-9.793,-5.696,7.117,-7.256,-3.403,5.710,-0.042,0.908,-0.446,-0.763,-2.838,0.549,60.000,123748.000,1.000
-31.443,-18.155,-11.851,-6.871,5.369,-12.845,-8.342,6.259,-0.039,0.910,-0.445,-0.641,-2.686,0.366,60.000,123749.000,1.000
-30.510,-20.732,-12.529,-7.138,4.188,-16.990,-12.310,6.267,-0.039,0.913,-0.449,-0.519,-2.563,0.244,60.000,123750.000,1.000
-26.621,-20.635,-11.668,-6.731,3.647,-19.725,-14.912,5.895,-0.034,0.912,-0.450,-0.458,-2.228,0.336,60.000,123751.000,1.000
-21.320,-18.482,-9.503,-5.888,3.723,-21.087,-16.198,5.476,-0.035,0.913,-0.452,-0.244,-2.014,0.183,60.000,123752.000,1.000
-14.884,-14.348,-5.994,-4.328,4.822,-20.649,-15.531,5.656,-0.036,0.914,-0.453,-0.153,-1.801,0.092,60.000,123753.000,1.000
-6.962,-8.479,-1.313,-1.956,7.053,-18.402,-12.488,6.789,-0.035,0.915,-0.457,0.031,-1.495,-0.031,60.000,123754.000,1.000
2.516,-1.823,3.762,0.801,9.831,-15.167,-7.710,8.481,-0.033,0.917,-0.452,0.275,-1.221,-0.153,60.000,123755.000,1.000
12.296,3.989,7.746,2.945,11.998,-12.378,-3.194,9.643,-0.035,0.921,-0.450,0.305,-0.854,-0.244,60.000,123756.000,1.000
19.799,7.308,9.172,3.362,12.402,-11.199,-1.360,9.302,-0.036,0.922,-0.453,0.244,-0.488,-0.092,60.000,123757.000,1.000
23.863,8.085,8.145,2.126,11.052,-11.154,-2.476,7.700,-0.035,0.925,-0.451,0.336,-0.214,-0.183,60.000,123758.000,1.000
25.190,7.495,6.061,0.321,8.772,-10.614,-4.524,5.907,-0.036,0.928,-0.454,0.244,0.061,-0.214,60.000,123759.000,1.000
25.464,6.815,4.382,-0.902,6.445,-8.270,-5.020,4.779,-0.036,0.928,-0.453,0.153,0.366,-0.183,60.000,123760.000,1.000
25.520,6.363,3.455,-1.415,4.274,-4.352,-3.439,4.087,-0.035,0.926,-0.454,0.122,0.732,-0.244,60.000,123761.000,1.000
24.483,5.423,2.584,-2.029,1.830,-0.287,-1.509,2.816,-0.035,0.924,-0.452,-0.061,0.946,-0.183,60.000,123762.000,1.000
21.912,3.742,1.313,-3.032,-0.867,2.945,-0.538,0.539,-0.033,0.919,-0.451,0.000,1.068,0.000,60.000,123763.000,1.000
18.347,1.713,-0.301,-3.995,-3.423,5.181,-0.324,-2.150,-0.035,0.916,-0.452,-0.061,1.465,0.061,60.000,123764.000,1.000
15.091,0.143,-1.777,-4.211,-5.339,6.844,0.304,-4.140,-0.036,0.916,-0.452,-0.031,1.709,0.122,60.000,123765.000,1.000
12.552,-0.633,-2.777,-3.565,-6.512,8.313,1.673,-5.100,-0.040,0.918,-0.455,-0.031,1.862,0.244,60.000,123766.000,1.000
9.280,-1.254,-3.444,-2.782,-7.474,9.527,2.507,-5.979,-0.042,0.920,-0.455,-0.092,2.075,0.244,60.000,123767.000,1.000
4.664,-1.861,-3.646,-2.209,-8.395,10.516,2.065,-7.684,-0.042,0.924,-0.453,-0.153,2.167,0.427,60.000,123768.000,1.000
-0.129,-1.825,-2.982,-1.513,-8.861,11.439,1.200,-10.032,-0.043,0.926,-0.451,-0.336,2.106,0.458,60.000,123769.000,1.000
-3.113,-0.530,-1.167,-0.107,-8.208,12.577,1.736,-11.763,-0.044,0.930,-0.450,-0.366,2.106,0.458,60.000,123770.000,1.000
-3.815,1.489,1.280,1.882,-6.489,13.892,4.310,-11.727,-0.047,0.933,-0.448,-0.549,2.106,0.458,60.000,123771.000,1.000
-3.945,2.736,3.168,3.502,-4.777,14.759,7.477,-9.923,-0.053,0.934,-0.449,-0.824,2.106,0.488,60.000,123772.000,1.000
-4.333,2.772,3.987,4.372,-3.856,14.670,9.898,-7.244,-0.060,0.932,-0.448,-1.068,1.892,0.488,60.000,123773.000,1.000
-4.080,2.276,4.153,4.932,-3.734,13.475,11.409,-4.876,-0.063,0.932,-0.448,-1.190,1.648,0.488,60.000,123774.000,1.000
-1.461,2.220,4.589,5.913,-3.822,11.615,12.836,-3.482,-0.065,0.928,-0.448,-1.434,1.312,0.488,60.000,123775.000,1.000
3.766,2.835,5.728,7.235,-3.790,9.745,14.681,-3.164,-0.068,0.923,-0.449,-1.678,1.007,0.397,60.000,123776.000,1.000
9.346,3.306,7.092,7.754,-4.019,8.182,16.236,-3.808,-0.070,0.918,-0.448,-1.709,0.549,0.244,60.000,123777.000,1.000
13.472,3.290,8.290,6.750,-4.593,7.055,16.584,-4.873,-0.068,0.913,-0.449,-1.617,-0.031,0.336,60.000,123778.000,1.000
16.065,3.268,9.268,4.468,-5.096,6.083,14.826,-5.694,-0.065,0.912,-0.449,-1.526,-0.427,0.244,60.000,123779.000,1.000
18.203,4.057,10.058,1.809,-4.966,4.726,10.633,-5.837,-0.063,0.908,-0.454,-1.373,-0.824,0.275,60.000,123780.000,1.000
19.866,5.519,10.194,-0.637,-4.261,2.369,4.579,-5.400,-0.058,0.906,-0.449,-1.190,-1.160,0.366,60.000,123781.000,1.000
18.904,6.008,8.791,-2.933,-3.753,-1.268,-1.967,-4.834,-0.055,0.905,-0.451,-1.007,-1.282,0.366,60.000,123782.000,1.000
14.112,4.288,5.649,-4.842,-3.685,-5.337,-6.885,-4.296,-0.053,0.906,-0.452,-0.793,-1.556,0.427,60.000,123783.000,1.000
6.786,0.778,1.337,-5.884,-3.625,-8.475,-9.069,-3.658,-0.054,0.907,-0.454,-0.610,-1.678,0.397,60.000,123784.000,1.000
-0.002,-2.583,-3.055,-5.686,-2.938,-9.684,-8.935,-2.489,-0.052,0.910,-0.455,-0.427,-1.862,0.519,60.000,123785.000,1.000
-4.596,-4.368,-6.617,-4.489,-1.596,-9.007,-7.531,-0.497,-0.050,0.913,-0.452,-0.366,-1.923,0.580,60.000,123786.000,1.000
-8.524,-5.126,-9.111,-3.099,-0.374,-7.331,-5.526,1.897,-0.048,0.916,-0.449,-0.549,-1.984,0.671,60.000,123787.000,1.000
-13.118,-5.715,-10.470,-1.765,0.296,-5.315,-2.717,3.977,-0.047,0.918,-0.450,-0.549,-1.953,0.732,60.000,123788.000,1.000
-17.412,-6.114,-10.849,-0.252,0.496,-3.349,0.464,5.182,-0.048,0.919,-0.450,-0.519,-1.953,0.854,60.000,123789.000,1.000
-18.786,-5.464,-10.487,1.737,0.592,-1.639,2.815,5.480,-0.046,0.920,-0.452,-0.549,-2.014,0.946,60.000,123790.000,1.000
-16.323,-3.525,-9.741,3.948,0.654,-0.496,3.187,5.244,-0.047,0.920,-0.450,-0.610,-1.953,1.007,60.000,123791.000,1.000
-12.526,-1.442,-9.023,5.578,0.290,-0.324,1.220,5.160,-0.045,0.921,-0.448,-0.702,-1.953,1.038,60.000,123792.000,1.000
-9.642,0.124,-8.066,6.566,-0.358,-0.705,-1.577,6.251,-0.042,0.920,-0.447,-0.946,-1.984,1.190,60.000,123793.000,1.000
-7.374,1.744,-6.276,7.655,-0.641,-0.595,-2.977,8.853,-0.040,0.920,-0.446,-0.916,-1.984,1.160,60.000,123794.000,1.000
-3.600,4.579,-3.322,9.710,0.142,0.907,-1.589,12.157,-0.040,0.922,-0.450,-1.007,-1.770,1.251,60.000,123795.000,1.000
2.143,8.687,0.200,12.548,1.948,3.612,1.809,14.731,-0.038,0.926,-0.453,-1.038,-1.587,1.282,60.000,123796.000,1.000
6.891,12.290,2.899,14.662,3.657,6.205,4.477,15.428,-0.037,0.925,-0.453,-1.099,-1.495,1.282,60.000,123797.000,1.000
8.197,13.940,4.093,14.925,4.430,7.680,4.720,14.394,-0.037,0.927,-0.449,-1.129,-1.251,1.465,60.000,123798.000,1.000
6.867,13.828,4.288,13.555,4.384,7.930,3.309,12.966,-0.036,0.924,-0.449,-1.312,-1.068,1.312,60.000,123799.000,1.000
6.205,13.424,4.642,11.850,4.279,7.496,2.473,12.741,-0.034,0.920,-0.448,-1.373,-0.946,1.251,60.000,123800.000,1.000
8.118,13.662,5.619,10.677,4.268,6.666,3.056,14.131,-0.035,0.921,-0.448,-1.465,-0.702,1.190,60.000,123801.000,1.000
10.877,13.880,6.478,9.587,3.439,5.198,3.375,15.960,-0.039,0.918,-0.449,-1.587,-0.549,1.160,60.000,123802.000,1.000
12.327,13.387,6.616,8.013,1.343,3.391,2.136,16.862,-0.040,0.917,-0.448,-1.526,-0.427,1.068,60.000,123803.000,1.000
12.073,12.220,6.256,6.011,-1.357,2.241,0.391,16.331,-0.041,0.919,-0.449,-1.465,-0.427,1.068,60.000,123804.000,1.000
11.579,11.105,6.248,4.325,-3.333,2.806,0.653,14.765,-0.044,0.920,-0.450,-1.495,-0.275,0.977,60.000,123805.000,1.000
12.089,10.560,6.991,3.502,-3.837,5.043,3.612,12.410,-0.046,0.918,-0.449,-1.434,-0.305,0.793,60.000,123806.000,1.000
12.920,10.129,7.937,3.265,-3.280,7.575,6.769,8.934,-0.047,0.918,-0.450,-1.343,-0.275,0.549,60.000,123807.000,1.000
13.179,9.319,8.582,3.309,-2.194,9.038,7.583,4.481,-0.047,0.917,-0.449,-1.343,-0.275,0.488,60.000,123808.000,1.000
12.427,7.853,8.856,3.533,-0.838,8.868,5.896,0.098,-0.047,0.915,-0.450,-1.312,-0.305,0.427,60.000,123809.000,1.000
11.038,5.958,9.229,4.206,0.963,7.624,3.936,-2.702,-0.047,0.914,-0.452,-1.251,-0.275,0.397,60.000,123810.000,1.000
9.480,4.094,10.122,5.598,3.366,6.345,3.802,-3.124,-0.045,0.915,-0.452,-1.007,-0.275,0.305,60.000,123811.000,1.000
7.298,2.334,11.321,7.438,5.881,5.671,5.370,-1.792,-0.042,0.912,-0.453,-0.916,-0.153,0.183,60.000,123812.000,1.000
4.323,0.842,12.384,9.273,7.828,5.880,7.392,-0.051,-0.040,0.911,-0.454,-0.702,-0.183,0.183,60.000,123813.000,1.000
0.579,-0.495,12.637,10.358,8.529,6.615,8.518,0.800,-0.038,0.911,-0.452,-0.519,-0.092,0.214,60.000,123814.000,1.000
-3.317,-1.889,11.619,10.126,7.839,7.120,8.239,0.213,-0.038,0.910,-0.453,-0.336,0.153,0.153,60.000,123815.000,1.000
-6.223,-3.299,9.381,8.517,6.238,6.656,6.862,-1.611,-0.037,0.909,-0.454,-0.275,0.336,0.031,60.000,123816.000,1.000
-7.615,-4.682,6.283,5.749,4.245,4.810,4.773,-4.222,-0.037,0.907,-0.454,-0.092,0.397,-0.031,60.000,123817.000,1.000
-7.618,-6.049,2.975,2.353,2.317,1.913,2.521,-7.083,-0.037,0.910,-0.454,0.000,0.519,0.000,60.000,123818.000,1.000
-7.674,-8.172,-0.105,-1.314,0.454,-1.450,0.146,-9.942,-0.038,0.913,-0.455,0.122,0.702,-0.092,60.000,123819.000,1.000
-8.783,-11.553,-2.455,-4.745,-1.329,-4.532,-2.208,-12.498,-0.041,0.914,-0.452,0.244,0.763,-0.153,60.000,123820.000,1.000
-9.817,-15.109,-3.373,-7.041,-2.569,-6.520,-3.491,-13.980,-0.041,0.917,-0.452,0.275,0.946,-0.244,60.000,123821.000,1.000
-8.916,-16.969,-2.632,-7.550,-2.877,-7.069,-2.561,-13.535,-0.042,0.918,-0.452,0.183,0.946,-0.397,60.000,123822.000,1.000
-5.370,-16.089,-0.929,-6.439,-2.435,-6.640,0.460,-11.101,-0.043,0.920,-0.452,0.214,0.885,-0.427,60.000,123823.000,1.000
-1.286,-13.598,0.018,-5.121,-2.420,-6.669,2.922,-8.047,-0.044,0.923,-0.454,0.092,0.916,-0.549,60.000,123824.000,1.000
0.759,-11.206,-1.026,-4.895,-3.796,-8.183,1.982,-6.043,-0.045,0.921,-0.452,0.061,0.824,-0.519,60.000,123825.000,1.000
0.256,-9.442,-3.654,-5.745,-6.263,-10.691,-2.257,-5.710,-0.046,0.924,-0.449,-0.061,0.854,-0.458,60.000,123826.000,1.000
-1.880,-8.093,-6.329,-6.787,-8.737,-12.801,-6.940,-6.474,-0.048,0.922,-0.452,-0.153,0.854,-0.397,60.000,123827.000,1.000
-4.236,-6.805,-7.469,-7.072,-10.077,-13.349,-9.099,-7.272,-0.048,0.921,-0.453,-0.183,0.885,-0.366,60.000,123828.000,1.000
-6.399,-5.709,-6.757,-6.534,-10.023,-12.442,-8.745,-7.681,-0.046,0.920,-0.451,-0.397,0.854,-0.366,60.000,123829.000,1.000
-8.122,-4.718,-4.777,-5.469,-8.806,-10.864,-7.866,-7.767,-0.047,0.920,-0.453,-0.427,0.763,-0.214,60.000,123830.000,1.000
-8.767,-3.417,-2.207,-3.987,-6.657,-9.282,-7.731,-7.526,-0.048,0.919,-0.448,-0.427,0.702,-0.305,60.000,123831.000,1.000
-8.504,-2.078,0.254,-2.361,-4.147,-8.280,-8.403,-6.852,-0.049,0.917,-0.449,-0.519,0.610,-0.305,60.000,123832.000,1.000
-8.010,-1.325,2.066,-0.972,-1.995,-8.124,-9.255,-5.440,-0.048,0.915,-0.454,-0.427,0.549,-0.214,60.000,123833.000,1.000
-8.314,-1.616,2.926,-0.264,-0.750,-8.607,-9.792,-3.115,-0.049,0.915,-0.450,-0.427,0.458,-0.183,60.000,123834.000,1.000
-9.409,-2.442,3.306,-0.079,-0.076,-8.735,-9.226,-0.063,-0.049,0.915,-0.450,-0.488,0.336,-0.061,60.000,123835.000,1.000
-10.240,-2.851,3.912,0.110,0.715,-7.615,-7.183,2.853,-0.051,0.918,-0.451,-0.488,0.153,0.061,60.000,123836.000,1.000
-10.346,-2.662,4.585,0.318,1.525,-5.581,-4.934,4.345,-0.050,0.919,-0.454,-0.519,0.092,0.244,60.000,123837.000,1.000
-9.784,-2.117,4.593,0.237,1.896,-3.637,-4.038,3.788,-0.050,0.919,-0.455,-0.488,-0.061,0.366,60.000,123838.000,1.000
-9.543,-1.840,3.151,-0.685,1.416,-2.716,-5.017,1.585,-0.048,0.921,-0.453,-0.549,-0.153,0.519,60.000,123839.000,1.000
-10.114,-1.927,0.396,-2.463,0.332,-2.777,-6.553,-0.909,-0.050,0.922,-0.452,-0.641,-0.183,0.580,60.000,123840.000,1.000
-10.512,-1.603,-2.603,-4.377,-0.555,-2.903,-6.665,-2.301,-0.053,0.921,-0.454,-0.671,-0.305,0.641,60.000,123841.000,1.000
-9.932,-0.636,-5.009,-5.918,-0.928,-2.531,-4.936,-2.289,-0.055,0.923,-0.454,-0.763,-0.397,0.519,60.000,123842.000,1.000
-8.603,0.177,-6.706,-7.165,-1.150,-1.975,-2.490,-1.643,-0.058,0.920,-0.454,-0.885,-0.671,0.671,60.000,123843.000,1.000
-8.288,-0.580,-8.245,-8.790,-2.030,-2.217,-1.124,-1.594,-0.057,0.920,-0.453,-0.885,-0.824,0.763,60.000,123844.000,1.000
-10.037,-3.171,-9.735,-10.934,-3.625,-3.475,-1.375,-2.596,-0.055,0.917,-0.457,-1.007,-1.068,0.732,60.000,123845.000,1.000
-12.505,-6.058,-10.465,-12.714,-4.800,-4.634,-2.019,-3.899,-0.053,0.914,-0.455,-0.885,-1.221,0.702,60.000,123846.000,1.000
-13.534,-7.405,-9.874,-13.160,-4.386,-4.486,-1.820,-4.434,-0.052,0.911,-0.456,-0.946,-1.343,0.580,60.000,123847.000,1.000
-12.045,-6.444,-8.248,-12.031,-2.139,-2.946,-0.721,-3.697,-0.049,0.906,-0.455,-0.885,-1.465,0.488,60.000,123848.000,1.000
-9.993,-4.610,-6.957,-10.425,0.684,-1.411,-0.334,-2.372,-0.045,0.906,-0.454,-0.824,-1.556,0.427,60.000,123849.000,1.000
-10.287,-4.068,-7.204,-9.698,2.518,-1.242,-2.080,-1.592,-0.041,0.906,-0.453,-0.793,-1.434,0.397,60.000,123850.000,1.000
-13.506,-5.399,-8.957,-10.171,2.916,-2.452,-5.437,-1.740,-0.037,0.907,-0.449,-0.641,-1.465,0.275,60.000,123851.000,1.000
-17.743,-7.301,-11.156,-11.035,2.641,-3.841,-8.380,-2.217,-0.033,0.907,-0.454,-0.519,-1.282,0.336,60.000,123852.000,1.000
-20.225,-7.767,-12.311,-10.821,3.088,-3.729,-8.689,-1.999,-0.030,0.906,-0.456,-0.397,-1.251,0.305,60.000,123853.000,1.000
-20.535,-6.489,-11.769,-8.831,4.793,-1.451,-6.115,-0.624,-0.029,0.907,-0.456,-0.244,-1.068,0.214,60.000,123854.000,1.000
-20.037,-4.768,-9.971,-5.409,7.241,2.260,-2.095,1.756,-0.028,0.908,-0.458,-0.183,-0.763,0.244,60.000,123855.000,1.000
-19.228,-3.682,-7.974,-1.445,9.631,5.883,2.011,4.703,-0.027,0.912,-0.455,-0.153,-0.549,0.061,60.000,123856.000,1.000
-17.448,-3.350,-6.870,1.894,11.312,7.931,5.623,7.612,-0.029,0.919,-0.457,-0.214,-0.275,0.061,60.000,123857.000,1.000
-13.972,-3.197,-7.096,3.568,11.959,7.809,8.787,9.816,-0.033,0.925,-0.458,-0.244,-0.153,-0.061,60.000,123858.000,1.000
-10.261,-3.399,-8.756,2.613,10.996,5.593,10.809,10.482,-0.036,0.931,-0.452,-0.458,0.031,-0.092,60.000,123859.000,1.000
-8.306,-4.413,-11.320,-0.866,8.173,2.081,10.913,9.372,-0.040,0.935,-0.450,-0.885,0.153,-0.153,60.000,123860.000,1.000
-7.750,-5.769,-13.489,-5.266,4.206,-1.459,9.376,7.217,-0.046,0.938,-0.452,-1.251,0.153,-0.183,60.000,123861.000,1.000
-6.320,-6.381,-13.964,-8.641,0.227,-4.026,7.152,5.064,-0.050,0.938,-0.452,-1.617,0.153,-0.244,60.000,123862.000,1.000
-1.816,-5.277,-12.075,-9.789,-2.776,-5.035,5.326,3.676,-0.055,0.938,-0.451,-1.923,0.031,-0.244,60.000,123863.000,1.000
4.766,-2.996,-8.572,-9.278,-4.945,-4.716,3.776,2.886,-0.060,0.938,-0.451,-2.258,-0.122,-0.336,60.000,123864.000,1.000
10.370,-0.945,-4.938,-8.593,-7.052,-3.668,1.728,2.005,-0.062,0.937,-0.452,-2.472,-0.458,-0.305,60.000,123865.000,1.000
13.662,0.437,-2.065,-8.413,-9.144,-2.106,-0.730,0.743,-0.065,0.939,-0.449,-2.838,-0.763,-0.305,60.000,123866.000,1.000
16.078,1.980,0.076,-8.221,-10.449,0.100,-2.562,-0.639,-0.065,0.938,-0.448,-3.113,-1.099,-0.244,60.000,123867.000,1.000
19.853,4.647,1.862,-7.237,-10.370,2.892,-2.684,-1.930,-0.065,0.937,-0.446,-3.418,-1.495,-0.183,60.000,123868.000,1.000
23.972,7.540,2.881,-5.962,-9.792,5.259,-1.824,-3.682,-0.064,0.931,-0.444,-3.815,-2.045,0.092,60.000,123869.000,1.000
25.259,8.892,2.620,-5.381,-10.035,6.190,-1.605,-6.364,-0.063,0.927,-0.446,-3.998,-2.319,0.397,60.000,123870.000,1.000
22.645,8.390,1.667,-5.379,-11.130,6.015,-2.290,-9.333,-0.061,0.921,-0.444,-4.150,-2.655,0.671,60.000,123871.000,1.000
18.297,7.351,1.329,-4.810,-11.917,6.165,-2.571,-11.187,-0.060,0.918,-0.446,-4.028,-2.960,0.763,60.000,123872.000,1.000
15.512,7.385,2.364,-2.661,-11.266,7.872,-0.927,-10.985,-0.058,0.916,-0.448,-3.937,-3.174,1.068,60.000,123873.000,1.000
14.226,8.125,3.684,0.349,-9.685,10.626,2.079,-9.568,-0.056,0.917,-0.446,-3.937,-3.418,1.251,60.000,123874.000,1.000
11.380,7.721,3.456,2.518,-8.691,12.850,4.494,-8.735,-0.055,0.914,-0.442,-3.845,-3.632,1.434,60.000,123875.000,1.000
5.212,5.214,1.038,3.058,-8.989,13.585,5.232,-9.225,-0.054,0.914,-0.444,-3.784,-3.754,1.556,60.000,123876.000,1.000
-2.655,1.502,-2.563,2.676,-9.841,13.021,4.716,-10.015,-0.053,0.915,-0.440,-3.601,-3.754,1.678,60.000,123877.000,1.000
-8.487,-1.336,-5.507,2.873,-9.639,11.983,4.286,-9.441,-0.053,0.914,-0.441,-3.571,-3.937,1.862,60.000,123878.000,1.000
-10.953,-2.453,-6.932,4.107,-7.702,10.655,4.362,-7.344,-0.050,0.914,-0.442,-3.479,-3.906,1.862,60.000,123879.000,1.000
-11.833,-2.661,-7.243,5.619,-4.587,8.705,4.539,-5.259,-0.047,0.913,-0.444,-3.296,-3.937,2.075,60.000,123880.000,1.000
-13.165,-3.145,-7.229,6.516,-1.150,5.987,4.557,-4.763,-0.049,0.910,-0.443,-3.174,-3.906,2.075,60.000,123881.000,1.000
-15.171,-4.358,-7.309,6.508,2.120,2.726,4.424,-6.123,-0.047,0.911,-0.442,-2.960,-3.815,2.014,60.000,123882.000,1.000
-15.673,-5.144,-7.067,6.254,5.443,-0.369,4.559,-8.081,-0.046,0.909,-0.446,-2.838,-3.906,1.984,60.000,123883.000,1.000
-13.361,-4.301,-6.116,6.315,8.725,-2.888,4.628,-8.975,-0.044,0.908,-0.443,-2.716,-3.632,1.831,60.000,123884.000,1.000
-9.392,-1.978,-4.452,6.689,11.339,-4.916,3.715,-7.542,-0.042,0.908,-0.444,-2.472,-3.571,1.587,60.000,123885.000,1.000
-5.848,0.555,-2.278,7.037,12.843,-6.743,1.517,-3.500,-0.042,0.908,-0.442,-2.228,-3.448,1.526,60.000,123886.000,1.000
-3.851,2.033,0.048,6.928,13.365,-8.670,-1.317,2.164,-0.038,0.908,-0.445,-2.014,-3.235,1.190,60.000,123887.000,1.000
-2.170,2.624,2.329,6.371,13.639,-10.511,-3.379,7.967,-0.039,0.908,-0.441,-1.831,-3.021,0.946,60.000,123888.000,1.000
0.633,3.172,4.298,5.422,13.994,-11.794,-4.115,12.617,-0.039,0.909,-0.448,-1.678,-2.838,0.732,60.000,123889.000,1.000
4.791,4.272,5.822,4.190,14.192,-11.949,-4.015,15.536,-0.038,0.909,-0.451,-1.495,-2.625,0.580,60.000,123890.000,1.000
9.480,5.904,7.035,2.939,13.911,-10.792,-3.739,16.784,-0.038,0.909,-0.450,-1.190,-2.258,0.305,60.000,123891.000,1.000
13.531,7.587,8.246,2.049,13.143,-8.721,-3.502,16.841,-0.038,0.911,-0.451,-1.007,-1.984,0.153,60.000,123892.000,1.000
17.328,9.534,10.153,2.406,12.655,-5.832,-2.328,16.797,-0.039,0.912,-0.449,-0.916,-1.770,0.031,60.000,123893.000,1.000
21.595,11.979,12.904,4.433,12.908,-2.088,0.638,17.596,-0.036,0.918,-0.449,-0.854,-1.434,-0.153,60.000,123894.000,1.000
26.185,14.489,15.691,7.472,13.428,2.192,5.151,19.205,-0.034,0.918,-0.447,-0.854,-1.099,-0.275,60.000,123895.000,1.000
30.148,16.182,17.246,10.089,13.265,6.143,9.710,20.448,-0.035,0.917,-0.453,-0.916,-0.854,-0.458,60.000,123896.000,1.000
32.066,16.131,16.549,10.762,11.520,8.407,11.690,19.687,-0.038,0.917,-0.453,-0.977,-0.397,-0.549,60.000,123897.000,1.000
31.649,14.303,13.704,8.990,8.003,7.982,9.093,16.218,-0.038,0.917,-0.452,-0.977,-0.183,-0.580,60.000,123898.000,1.000
29.401,11.316,9.789,5.372,3.102,4.849,1.882,10.913,-0.040,0.917,-0.455,-0.793,0.183,-0.610,60.000,123899.000,1.000
26.509,8.359,6.527,1.472,-2.138,0.459,-7.374,5.991,-0.040,0.917,-0.455,-0.763,0.488,-0.549,60.000,123900.000,1.000
24.202,6.622,5.293,-1.089,-6.505,-3.079,-15.217,3.418,-0.040,0.915,-0.458,-0.702,0.671,-0.580,60.000,123901.000,1.000
22.456,6.203,6.117,-1.848,-9.535,-4.466,-19.998,3.197,-0.042,0.918,-0.455,-0.488,0.854,-0.519,60.000,123902.000,1.000
21.105,6.652,8.270,-1.129,-11.163,-3.463,-21.623,3.821,-0.044,0.920,-0.455,-0.305,1.038,-0.366,60.000,123903.000,1.000
19.971,7.246,10.813,0.410,-11.554,-0.917,-20.571,3.626,-0.046,0.923,-0.451,-0.122,1.190,-0.397,60.000,123904.000,1.000
19.102,7.497,13.040,2.310,-10.906,1.908,-17.214,1.767,-0.046,0.925,-0.450,-0.183,1.312,-0.397,60.000,123905.000,1.000
18.520,7.285,14.447,4.227,-9.593,4.049,-12.505,-1.825,-0.047,0.926,-0.452,-0.244,1.373,-0.244,60.000,123906.000,1.000
17.499,6.393,14.603,5.582,-8.378,5.087,-8.425,-6.661,-0.049,0.927,-0.451,-0.183,1.526,0.031,60.000,123907.000,1.000
16.151,5.209,13.757,6.244,-7.470,5.411,-5.848,-11.493,-0.050,0.926,-0.450,-0.336,1.556,0.092,60.000,123908.000,1.000
15.433,4.609,12.539,6.502,-6.404,5.498,-3.897,-14.980,-0.050,0.925,-0.448,-0.305,1.648,0.275,60.000,123909.000,1.000
16.339,5.438,11.499,6.731,-4.613,5.499,-1.141,-16.406,-0.049,0.924,-0.446,-0.336,1.648,0.397,60.000,123910.000,1.000
18.529,7.602,10.685,6.901,-2.335,5.247,2.549,-16.027,-0.052,0.922,-0.448,-0.366,1.495,0.580,60.000,123911.000,1.000
19.697,9.655,9.584,6.447,-0.797,4.410,5.572,-14.862,-0.054,0.924,-0.446,-0.488,1.434,0.702,60.000,123912.000,1.000
18.391,10.503,8.056,5.315,-0.659,3.159,6.868,-13.711,-0.058,0.924,-0.449,-0.458,1.343,0.824,60.000,123913.000,1.000
15.126,10.094,6.380,4.039,-1.367,1.948,6.666,-12.793,-0.060,0.925,-0.448,-0.397,1.221,0.946,60.000,123914.000,1.000
11.670,9.041,4.879,3.220,-1.723,1.114,5.852,-11.906,-0.060,0.923,-0.447,-0.549,1.007,1.068,60.000,123915.000,1.000
8.979,7.614,3.395,2.756,-1.203,0.460,4.955,-10.970,-0.060,0.926,-0.446,-0.732,0.824,1.190,60.000,123916.000,1.000
5.952,5.359,1.405,1.870,-0.419,-0.495,4.081,-10.221,-0.060,0.924,-0.445,-0.671,0.549,1.190,60.000,123917.000,1.000
1.971,2.561,-0.852,0.525,0.302,-1.427,4.135,-9.607,-0.059,0.921,-0.448,-0.702,0.214,1.312,60.000,123918.000,1.000
-2.319,0.118,-2.669,-0.604,1.217,-1.647,5.629,-8.907,-0.060,0.919,-0.447,-0.763,-0.031,1.495,60.000,123919.000,1.000
-5.785,-1.372,-3.634,-0.907,2.605,-0.999,7.648,-7.932,-0.058,0.919,-0.445,-0.854,-0.275,1.587,60.000,123920.000,1.000
-8.350,-2.275,-4.086,-0.532,4.110,-0.187,8.630,-6.625,-0.056,0.918,-0.444,-0.916,-0.488,1.648,60.000,123921.000,1.000
-11.678,-3.821,-4.874,-0.330,4.782,-0.213,7.740,-5.094,-0.053,0.919,-0.447,-0.824,-0.641,1.648,60.000,123922.000,1.000
-16.259,-6.286,-6.133,-0.460,4.449,-1.003,5.977,-3.279,-0.051,0.916,-0.449,-0.702,-0.732,1.740,60.000,123923.000,1.000
-20.438,-8.644,-7.297,-0.307,3.818,-1.541,4.614,-1.158,-0.049,0.915,-0.448,-0.702,-0.946,1.740,60.000,123924.000,1.000
-21.773,-9.451,-7.726,0.780,3.741,-0.884,3.955,1.260,-0.049,0.915,-0.446,-0.702,-1.129,1.801,60.000,123925.000,1.000
-19.816,-8.364,-7.415,2.609,4.307,0.787,3.396,3.888,-0.047,0.916,-0.448,-0.610,-1.068,1.648,60.000,123926.000,1.000
-17.520,-6.987,-7.178,3.952,4.529,2.097,1.992,6.351,-0.049,0.914,-0.445,-0.671,-1.068,1.709,60.000,123927.000,1.000
-17.783,-7.133,-7.648,3.881,3.596,1.992,-0.243,8.174,-0.047,0.912,-0.447,-0.702,-1.068,1.617,60.000,123928.000,1.000
-20.818,-9.422,-8.930,2.366,1.520,0.452,-2.735,8.756,-0.043,0.912,-0.447,-0.549,-1.099,1.465,60.000,123929.000,1.000
-23.977,-12.682,-10.463,0.300,-0.716,-1.534,-4.675,8.010,-0.045,0.913,-0.448,-0.549,-1.129,1.343,60.000,123930.000,1.000
-24.729,-15.030,-11.537,-1.328,-1.917,-2.765,-5.430,6.722,-0.044,0.914,-0.450,-0.580,-1.099,1.221,60.000,123931.000,1.000
-23.800,-15.743,-12.069,-2.427,-1.855,-2.884,-5.406,5.913,-0.041,0.913,-0.448,-0.488,-1.129,0.946,60.000,123932.000,1.000
-22.917,-14.853,-11.992,-3.057,-0.784,-2.114,-5.034,6.509,-0.040,0.917,-0.450,-0.427,-1.038,0.916,60.000,123933.000,1.000
-22.171,-12.525,-10.870,-2.897,1.053,-0.870,-4.166,8.999,-0.035,0.918,-0.451,-0.397,-0.946,0.732,60.000,123934.000,1.000
-19.692,-8.863,-8.155,-1.456,3.476,0.443,-2.392,13.150,-0.035,0.921,-0.453,-0.488,-0.854,0.610,60.000,123935.000,1.000
-14.612,-4.726,-4.262,0.886,5.704,1.035,-0.512,17.634,-0.034,0.920,-0.452,-0.519,-0.732,0.671,60.000,123936.000,1.000
-9.506,-2.147,-0.938,2.504,6.137,-0.223,-0.936,20.384,-0.033,0.921,-0.450,-0.580,-0.488,0.671,60.000,123937.000,1.000
-6.843,-2.004,0.571,2.365,4.129,-3.333,-4.636,20.271,-0.031,0.920,-0.453,-0.702,-0.275,0.427,60.000,123938.000,1.000
-5.944,-2.911,0.661,1.038,0.830,-6.801,-9.517,17.948,-0.032,0.920,-0.451,-0.580,-0.153,0.519,60.000,123939.000,1.000
-3.582,-2.393,0.930,0.150,-1.641,-8.607,-11.856,15.173,-0.033,0.921,-0.451,-0.641,0.031,0.519,60.000,123940.000,1.000
2.017,0.625,2.395,0.641,-2.175,-7.837,-9.938,12.945,-0.034,0.922,-0.451,-0.732,0.214,0.366,60.000,123941.000,1.000
8.324,4.513,4.466,1.828,-1.652,-5.357,-5.914,10.647,-0.035,0.924,-0.450,-0.641,0.458,0.427,60.000,123942.000,1.000
12.024,7.161,6.366,2.913,-1.217,-2.454,-2.600,7.610,-0.036,0.925,-0.449,-0.671,0.702,0.336,60.000,123943.000,1.000
12.392,7.834,8.084,3.829,-1.119,-0.044,-0.670,4.257,-0.042,0.925,-0.449,-0.763,0.824,0.275,60.000,123944.000,1.000
11.585,7.368,10.178,4.964,-0.829,1.467,1.282,1.668,-0.048,0.924,-0.448,-0.854,0.732,0.183,60.000,123945.000,1.000
11.759,6.767,12.740,6.300,0.076,2.029,4.315,0.256,-0.051,0.924,-0.449,-0.885,0.702,0.031,60.000,123946.000,1.000
12.365,5.914,14.809,7.037,1.212,1.759,7.365,-0.723,-0.054,0.924,-0.452,-1.099,0.580,0.000,60.000,123947.000,1.000
12.246,4.702,15.418,6.716,2.063,1.231,8.986,-1.989,-0.058,0.922,-0.447,-0.977,0.397,-0.092,60.000,123948.000,1.000
11.173,3.485,14.152,5.502,2.189,0.963,8.789,-3.681,-0.058,0.920,-0.449,-1.007,0.214,-0.122,60.000,123949.000,1.000
9.895,2.764,11.307,3.935,1.384,1.196,7.648,-5.637,-0.055,0.915,-0.451,-0.793,0.031,-0.153,60.000,123950.000,1.000
8.816,2.474,7.583,2.396,-0.292,1.904,6.651,-7.902,-0.052,0.915,-0.452,-0.824,-0.244,-0.275,60.000,123951.000,1.000
6.891,1.628,3.720,0.837,-2.628,2.841,6.078,-10.684,-0.050,0.912,-0.454,-0.732,-0.305,-0.153,60.000,123952.000,1.000
3.699,-0.199,0.851,-0.339,-4.696,4.128,6.242,-13.593,-0.047,0.909,-0.454,-0.702,-0.336,-0.061,60.000,123953.000,1.000
-0.103,-2.419,-0.281,-0.549,-5.466,5.791,7.163,-15.869,-0.043,0.909,-0.458,-0.458,-0.336,0.000,60.000,123954.000,1.000
-3.315,-3.833,0.013,0.363,-4.563,7.364,8.393,-16.917,-0.043,0.909,-0.454,-0.366,-0.275,0.092,60.000,123955.000,1.000
-5.204,-3.693,0.620,1.907,-2.540,8.141,9.529,-16.591,-0.045,0.914,-0.453,-0.244,-0.305,0.061,60.000,123956.000,1.000
-6.438,-2.728,0.458,3.172,-0.653,7.670,10.426,-15.211,-0.044,0.916,-0.456,-0.122,-0.214,0.092,60.000,123957.000,1.000
-7.410,-2.002,-0.496,3.786,0.364,6.319,11.453,-13.204,-0.045,0.917,-0.457,-0.061,-0.153,0.092,60.000,123958.000,1.000
-7.927,-2.041,-1.598,3.864,0.596,4.761,12.417,-11.048,-0.047,0.919,-0.454,-0.122,0.000,0.122,60.000,123959.000,1.000
-7.324,-2.414,-1.965,3.908,0.793,3.696,12.751,-8.868,-0.048,0.921,-0.450,-0.122,0.000,0.214,60.000,123960.000,1.000
-5.154,-2.325,-0.970,4.407,1.698,3.534,12.470,-6.477,-0.047,0.921,-0.452,-0.244,0.092,0.153,60.000,123961.000,1.000
-2.216,-1.640,1.254,5.261,3.349,4.047,12.220,-3.813,-0.048,0.921,-0.457,-0.275,0.214,0.153,60.000,123962.000,1.000
0.965,-0.222,4.250,6.310,5.599,4.925,13.005,-0.804,-0.048,0.923,-0.451,-0.458,0.275,0.214,60.000,123963.000,1.000
4.050,1.938,7.162,7.191,7.952,5.661,14.215,2.367,-0.046,0.921,-0.449,-0.519,0.275,0.214,60.000,123964.000,1.000
6.654,4.537,9.091,7.444,9.687,5.624,13.614,5.351,-0.042,0.919,-0.453,-0.580,0.336,0.153,60.000,123965.000,1.000
8.678,7.286,9.729,6.981,10.557,4.536,9.920,8.160,-0.043,0.915,-0.453,-0.641,0.519,0.214,60.000,123966.000,1.000
10.126,10.077,9.439,6.175,10.977,2.741,4.301,11.256,-0.043,0.913,-0.451,-0.580,0.610,0.122,60.000,123967.000,1.000
11.443,13.146,9.049,5.676,11.782,1.234,-0.372,15.033,-0.042,0.914,-0.453,-0.549,0.641,0.122,60.000,123968.000,1.000
11.879,15.827,8.739,5.322,12.994,0.624,-2.470,18.900,-0.043,0.916,-0.453,-0.549,0.824,0.061,60.000,123969.000,1.000
9.836,16.762,8.000,4.401,13.857,0.845,-2.233,21.849,-0.042,0.916,-0.451,-0.549,0.916,0.061,60.000,123970.000,1.000
4.922,15.363,6.409,2.651,13.775,1.562,-0.581,23.314,-0.042,0.913,-0.452,-0.610,1.038,0.000,60.000,123971.000,1.000
-1.822,12.034,3.878,0.247,12.510,2.232,1.219,22.874,-0.044,0.916,-0.453,-0.671,1.038,0.061,60.000,123972.000,1.000
-8.395,7.747,0.673,-2.508,10.133,2.276,2.125,20.126,-0.046,0.917,-0.454,-0.763,1.038,0.061,60.000,123973.000,1.000
-14.062,2.697,-3.235,-5.908,6.358,0.934,1.215,14.853,-0.048,0.917,-0.448,-0.885,1.129,0.061,60.000,123974.000,1.000
-19.116,-3.318,-7.788,-10.253,0.954,-2.011,-1.622,7.690,-0.047,0.915,-0.451,-0.946,1.221,0.122,60.000,123975.000,1.000
-23.079,-9.676,-12.278,-15.005,-5.477,-5.717,-5.451,0.168,-0.048,0.916,-0.450,-0.977,1.129,0.122,60.000,123976.000,1.000
-24.960,-15.259,-15.800,-19.188,-11.835,-8.957,-9.495,-6.135,-0.049,0.915,-0.449,-0.977,1.129,0.092,60.000,123977.000,1.000
-23.801,-18.917,-17.592,-21.844,-16.879,-10.711,-13.186,-10.067,-0.050,0.913,-0.451,-1.099,1.099,0.214,60.000,123978.000,1.000
-20.474,-20.525,-17.652,-22.862,-20.010,-10.884,-16.194,-11.533,-0.051,0.913,-0.450,-0.977,1.038,0.275,60.000,123979.000,1.000
-17.029,-20.791,-16.492,-22.713,-21.169,-9.998,-18.039,-11.625,-0.050,0.910,-0.454,-0.977,0.916,0.336,60.000,123980.000,1.000
-14.350,-20.149,-14.529,-21.611,-20.292,-8.420,-18.196,-11.803,-0.051,0.913,-0.455,-0.854,0.793,0.336,60.000,123981.000,1.000
-11.922,-18.606,-12.080,-19.544,-17.514,-6.281,-16.867,-12.801,-0.051,0.916,-0.455,-0.977,0.732,0.397,60.000,123982.000,1.000
-8.697,-15.988,-9.476,-16.640,-13.416,-3.744,-14.502,-14.250,-0.050,0.918,-0.454,-0.885,0.641,0.458,60.000,123983.000,1.000
-5.356,-13.048,-7.503,-13.825,-9.448,-1.670,-11.804,-15.621,-0.051,0.919,-0.456,-0.916,0.488,0.519,60.000,123984.000,1.000
-3.334,-10.847,-6.644,-11.971,-6.892,-0.856,-9.048,-16.511,-0.051,0.922,-0.453,-1.129,0.397,0.702,60.000,123985.000,1.000
-2.394,-9.439,-6.382,-10.925,-5.732,-1.032,-5.846,-16.470,-0.048,0.925,-0.451,-1.221,0.305,0.763,60.000,123986.000,1.000
-1.210,-8.303,-5.902,-10.094,-5.208,-1.361,-2.232,-15.266,-0.046,0.923,-0.453,-1.465,0.275,0.824,60.000,123987.000,1.000
1.226,-7.042,-4.882,-9.133,-4.625,-1.303,1.295,-13.104,-0.044,0.923,-0.450,-1.556,0.214,0.793,60.000,123988.000,1.000
3.626,-6.336,-4.107,-8.618,-4.105,-1.383,3.589,-10.949,-0.040,0.921,-0.454,-1.526,0.336,1.007,60.000,123989.000,1.000
3.910,-7.022,-4.429,-9.123,-3.819,-2.335,3.999,-9.712,-0.037,0.918,-0.455,-1.617,0.366,1.099,60.000,123990.000,1.000
2.009,-8.696,-5.588,-10.187,-3.137,-4.012,3.507,-9.260,-0.034,0.912,-0.457,-1.617,0.397,1.221,60.000,123991.000,1.000
-0.497,-10.199,-6.726,-10.943,-1.451,-5.773,3.486,-8.876,-0.029,0.909,-0.458,-1.434,0.580,1.312,60.000,123992.000,1.000
-1.820,-10.415,-7.266,-10.868,1.109,-7.117,4.183,-8.305,-0.029,0.906,-0.457,-1.312,0.641,1.251,60.000,123993.000,1.000
-2.527,-9.588,-7.668,-10.416,3.359,-8.240,3.832,-8.252,-0.028,0.906,-0.455,-1.160,0.885,1.190,60.000,123994.000,1.000
-4.702,-8.894,-8.669,-10.182,4.214,-9.383,0.737,-9.215,-0.026,0.908,-0.457,-1.190,1.007,1.190,60.000,123995.000,1.000
-8.843,-8.825,-10.291,-9.908,3.873,-10.239,-4.207,-10.552,-0.025,0.909,-0.454,-1.129,1.129,1.160,60.000,123996.000,1.000
-13.441,-8.874,-12.111,-8.956,3.351,-10.496,-8.148,-11.039,-0.025,0.911,-0.453,-1.190,1.404,1.160,60.000,123997.000,1.000
-16.428,-8.124,-13.712,-6.991,3.612,-10.040,-8.516,-9.616,-0.027,0.918,-0.456,-1.373,1.495,0.946,60.000,123998.000,1.000
-18.277,-7.065,-15.401,-4.832,4.388,-9.279,-5.871,-6.285,-0.029,0.923,-0.456,-1.495,1.740,0.885,60.000,123999.000,1.000
-21.011,-7.108,-17.593,-3.694,4.627,-8.770,-3.209,-1.968,-0.034,0.928,-0.452,-1.709,1.770,0.763,60.000,124000.000,1.000
-24.528,-8.312,-19.807,-3.750,3.910,-8.673,-2.553,2.410,-0.038,0.933,-0.450,-1.923,1.862,0.610,60.000,124001.000,1.000
-26.485,-9.279,-21.003,-4.199,2.596,-8.883,-3.548,6.337,-0.045,0.937,-0.450,-2.228,1.831,0.397,60.000,124002.000,1.000
-24.559,-8.532,-20.304,-3.994,1.306,-8.973,-4.317,9.774,-0.050,0.940,-0.448,-2.472,1.648,0.153,60.000,124003.000,1.000
-19.619,-6.280,-17.877,-3.002,-0.012,-8.448,-3.836,12.700,-0.058,0.941,-0.444,-2.930,1.404,-0.031,60.000,124004.000,1.000
-14.491,-3.706,-14.518,-1.719,-1.748,-6.785,-2.362,14.970,-0.062,0.938,-0.446,-3.113,1.068,-0.275,60.000,124005.000,1.000
-10.254,-1.221,-10.859,-0.459,-3.902,-3.877,-0.678,16.234,-0.067,0.939,-0.443,-3.448,0.488,-0.427,60.000,124006.000,1.000
-5.822,1.353,-7.351,0.521,-6.265,-0.658,-0.044,15.921,-0.070,0.938,-0.438,-3.723,0.092,-0.580,60.000,124007.000,1.000
0.303,4.051,-4.176,0.997,-8.478,1.682,-1.367,13.903,-0.071,0.936,-0.442,-3.967,-0.488,-0.641,60.000,124008.000,1.000
6.990,5.859,-1.606,0.520,-10.444,2.557,-4.862,10.558,-0.071,0.932,-0.444,-4.181,-1.129,-0.610,60.000,124009.000,1.000
11.600,5.906,0.371,-0.881,-11.949,2.709,-9.241,6.697,-0.071,0.932,-0.442,-4.303,-1.678,-0.610,60.000,124010.000,1.000
13.639,5.094,2.341,-2.157,-12.262,3.873,-11.854,3.420,-0.070,0.929,-0.442,-4.272,-2.289,-0.488,60.000,124011.000,1.000
14.963,5.190,4.784,-2.149,-10.934,7.197,-10.951,1.601,-0.068,0.930,-0.441,-4.364,-2.777,-0.305,60.000,124012.000,1.000
17.558,7.121,7.585,-0.488,-8.409,12.287,-6.929,1.447,-0.067,0.930,-0.439,-4.395,-3.326,-0.031,60.000,124013.000,1.000
20.211,9.613,9.594,1.698,-6.392,17.089,-2.424,1.891,-0.065,0.926,-0.437,-4.456,-3.754,0.244,60.000,124014.000,1.000
19.906,10.719,9.713,2.912,-6.547,19.604,-0.003,1.343,-0.064,0.924,-0.438,-4.456,-4.059,0.671,60.000,124015.000,1.000
16.096,10.234,8.377,2.905,-8.902,19.640,0.041,-0.887,-0.059,0.918,-0.438,-4.242,-4.364,0.824,60.000,124016.000,1.000
11.421,9.555,7.305,2.563,-12.086,18.486,-1.024,-4.382,-0.056,0.913,-0.437,-4.028,-4.700,1.160,60.000,124017.000,1.000
9.465,10.333,8.130,3.001,-14.334,17.586,-1.701,-8.139,-0.052,0.911,-0.437,-3.906,-4.852,1.526,60.000,124018.000,1.000
10.519,12.447,10.560,4.214,-14.976,17.036,-1.755,-11.452,-0.048,0.910,-0.437,-3.601,-5.005,1.740,60.000,124019.000,1.000
11.634,14.179,12.553,5.315,-14.459,15.881,-1.716,-14.104,-0.046,0.908,-0.436,-3.265,-5.066,1.953,60.000,124020.000,1.000
10.504,14.089,12.004,5.787,-13.292,13.493,-1.503,-16.036,-0.042,0.905,-0.434,-2.930,-5.157,2.106,60.000,124021.000,1.000
7.347,11.925,7.970,5.942,-11.624,10.041,-0.642,-17.114,-0.039,0.906,-0.434,-2.533,-5.066,2.197,60.000,124022.000,1.000
4.463,8.841,1.314,6.780,-9.174,6.187,1.071,-16.942,-0.037,0.905,-0.434,-2.228,-4.883,2.289,60.000,124023.000,1.000
3.043,6.112,-5.927,8.837,-5.899,2.218,2.500,-15.295,-0.037,0.906,-0.436,-2.106,-4.639,2.258,60.000,124024.000,1.000
2.459,4.658,-11.117,11.969,-1.810,-1.686,2.264,-12.135,-0.033,0.907,-0.436,-1.740,-4.425,2.167,60.000,124025.000,1.000
1.757,5.125,-12.109,15.656,3.301,-5.146,0.469,-7.621,-0.031,0.906,-0.438,-1.465,-4.089,2.075,60.000,124026.000,1.000
0.000,7.204,-8.915,18.960,9.268,-8.123,-1.581,-2.419,-0.031,0.908,-0.442,-1.160,-3.845,1.862,60.000,124027.000,1.000
-2.561,10.060,-3.517,21.247,15.662,-10.630,-2.253,2.664,-0.029,0.912,-0.443,-0.916,-3.510,1.648,60.000,124028.000,1.000
-4.904,12.537,1.426,22.278,21.628,-12.545,-1.290,6.945,-0.029,0.913,-0.440,-0.702,-3.174,1.373,60.000,124029.000,1.000
-5.691,13.805,4.346,22.212,26.114,-13.609,0.231,10.237,-0.029,0.915,-0.441,-0.519,-2.747,1.038,60.000,124030.000,1.000
-3.791,13.916,5.500,21.493,28.485,-13.861,1.324,12.942,-0.028,0.914,-0.443,-0.336,-2.380,0.885,60.000,124031.000,1.000
0.566,13.364,6.218,20.428,28.765,-13.931,1.687,15.631,-0.023,0.914,-0.446,-0.244,-2.014,0.519,60.000,124032.000,1.000
6.883,13.065,8.177,19.458,27.879,-14.113,2.010,18.752,-0.023,0.914,-0.446,0.031,-1.495,0.244,60.000,124033.000,1.000
14.472,13.414,12.176,18.767,26.675,-14.174,2.645,22.056,-0.023,0.913,-0.444,0.244,-1.007,0.061,60.000,124034.000,1.000
22.456,13.935,17.685,18.199,25.288,-13.683,3.122,24.770,-0.022,0.913,-0.448,0.336,-0.397,-0.183,60.000,124035.000,1.000
29.699,13.786,23.194,17.387,23.320,-12.511,2.812,26.236,-0.022,0.910,-0.452,0.610,0.031,-0.458,60.000,124036.000,1.000
34.402,12.251,26.898,15.807,20.207,-11.042,1.311,26.199,-0.024,0.912,-0.453,0.885,0.580,-0.732,60.000,124037.000,1.000
36.163,9.950,28.127,13.543,16.198,-9.313,-0.595,25.020,-0.025,0.914,-0.452,1.099,0.916,-0.824,60.000,124038.000,1.000
36.249,8.255,27.446,11.046,12.025,-7.044,-1.590,23.218,-0.027,0.914,-0.453,1.312,1.282,-0.916,60.000,124039.000,1.000
36.363,8.002,25.982,8.714,8.240,-4.077,-0.897,21.162,-0.027,0.916,-0.455,1.404,1.648,-1.129,60.000,124040.000,1.000
36.940,8.693,24.471,6.665,4.860,-0.746,0.832,18.789,-0.030,0.918,-0.453,1.495,1.984,-1.221,60.000,124041.000,1.000
36.212,8.574,22.661,4.546,1.229,2.033,1.286,15.413,-0.034,0.922,-0.455,1.526,2.350,-1.251,60.000,124042.000,1.000
33.058,6.710,20.201,2.376,-2.919,3.759,-0.862,10.675,-0.038,0.923,-0.451,1.495,2.563,-1.251,60.000,124043.000,1.000
28.370,3.665,17.154,0.676,-7.085,4.631,-4.188,5.229,-0.042,0.926,-0.452,1.526,2.716,-1.190,60.000,124044.000,1.000
24.281,0.738,14.028,0.123,-10.291,5.266,-5.548,0.489,-0.045,0.927,-0.450,1.404,2.716,-1.221,60.000,124045.000,1.000
21.947,-1.397,11.194,0.768,-12.043,6.087,-3.532,-2.559,-0.048,0.928,-0.450,1.312,2.777,-1.129,60.000,124046.000,1.000
19.645,-3.604,8.306,1.463,-13.166,6.900,-0.441,-4.194,-0.049,0.930,-0.447,1.160,2.716,-0.946,60.000,124047.000,1.000
15.340,-6.759,5.121,1.070,-14.663,7.548,1.015,-5.312,-0.049,0.928,-0.444,1.068,2.594,-0.732,60.000,124048.000,1.000
8.809,-10.789,1.733,-0.826,-16.794,7.870,0.739,-6.869,-0.051,0.928,-0.446,0.916,2.533,-0.549,60.000,124049.000,1.000
1.873,-14.656,-1.548,-3.796,-18.928,7.691,0.903,-9.364,-0.054,0.927,-0.447,0.793,2.289,-0.427,60.000,124050.000,1.000
-3.459,-17.288,-4.446,-6.965,-20.101,7.122,3.213,-12.708,-0.055,0.929,-0.447,0.641,2.136,-0.366,60.000,124051.000,1.000
-7.606,-18.990,-7.024,-9.765,-19.951,6.531,6.976,-16.604,-0.058,0.931,-0.446,0.427,1.984,-0.092,60.000,124052.000,1.000
-11.944,-20.679,-9.113,-11.754,-18.474,6.438,10.680,-20.410,-0.060,0.930,-0.446,0.214,1.587,0.153,60.000,124053.000,1.000
-16.869,-22.740,-10.434,-12.804,-15.938,6.675,13.204,-23.401,-0.065,0.930,-0.443,0.000,1.251,0.305,60.000,124054.000,1.000
-21.019,-24.417,-10.850,-13.099,-12.668,6.492,14.165,-25.144,-0.067,0.930,-0.449,-0.244,0.793,0.549,60.000,124055.000,1.000
-22.984,-24.770,-10.603,-13.111,-9.079,5.381,13.700,-25.689,-0.067,0.931,-0.446,-0.336,0.336,0.763,60.000,124056.000,1.000
-23.859,-24.243,-10.425,-13.629,-6.027,3.342,11.924,-25.435,-0.068,0.926,-0.447,-0.427,-0.153,0.885,60.000,124057.000,1.000
-25.253,-23.604,-10.633,-14.764,-3.944,1.066,9.624,-24.419,-0.066,0.925,-0.447,-0.519,-0.702,0.946,60.000,124058.000,1.000
-27.250,-22.948,-10.969,-15.855,-2.499,-0.653,7.685,-22.485,-0.067,0.922,-0.445,-0.702,-1.129,1.099,60.000,124059.000,1.000
-28.187,-21.620,-10.816,-15.959,-0.824,-1.302,6.573,-19.710,-0.066,0.918,-0.445,-0.824,-1.678,1.251,60.000,124060.000,1.000
-26.593,-19.050,-9.732,-14.613,1.694,-0.906,6.543,-16.506,-0.064,0.914,-0.448,-0.793,-2.075,1.465,60.000,124061.000,1.000
-23.708,-15.918,-8.012,-12.439,4.595,-0.184,7.644,-13.425,-0.060,0.911,-0.449,-0.854,-2.411,1.495,60.000,124062.000,1.000
-21.684,-13.256,-6.063,-10.199,7.173,0.407,9.995,-10.544,-0.054,0.911,-0.448,-0.610,-2.747,1.556,60.000,124063.000,1.000
-21.507,-11.625,-4.199,-8.248,9.123,1.004,12.539,-7.693,-0.051,0.913,-0.451,-0.488,-2.930,1.556,60.000,124064.000,1.000
-22.276,-10.760,-2.584,-6.408,10.684,2.095,13.281,-4.699,-0.045,0.910,-0.450,-0.397,-3.082,1.740,60.000,124065.000,1.000
-22.736,-10.138,-1.418,-4.442,12.053,3.751,11.334,-1.494,-0.042,0.913,-0.452,-0.336,-3.113,1.740,60.000,124066.000,1.000
-23.756,-10.061,-1.286,-2.764,12.609,5.003,7.588,1.673,-0.042,0.911,-0.454,-0.366,-3.143,1.831,60.000,124067.000,1.000
-26.612,-10.673,-2.413,-1.662,11.806,4.862,3.927,4.629,-0.043,0.911,-0.448,-0.336,-3.204,1.831,60.000,124068.000,1.000
-31.010,-11.402,-4.475,-0.949,9.758,3.121,1.014,7.354,-0.046,0.911,-0.447,-0.366,-3.204,1.648,60.000,124069.000,1.000
-34.638,-11.188,-6.687,-0.107,7.251,0.572,-1.722,10.021,-0.047,0.911,-0.449,-0.397,-3.235,1.465,60.000,124070.000,1.000
-35.154,-9.315,-8.303,1.070,5.140,-1.689,-4.622,12.628,-0.047,0.909,-0.454,-0.397,-3.235,1.282,60.000,124071.000,1.000
-33.116,-6.411,-9.312,1.822,3.429,-3.311,-7.654,14.515,-0.045,0.907,-0.451,-0.275,-3.235,1.099,60.000,124072.000,1.000
-30.264,-3.344,-9.740,1.567,1.944,-4.194,-10.002,15.241,-0.042,0.909,-0.453,-0.214,-3.265,0.854,60.000,124073.000,1.000
-27.281,-0.541,-9.368,0.573,0.731,-4.169,-10.745,15.235,-0.039,0.911,-0.454,-0.183,-3.265,0.671,60.000,124074.000,1.000
-23.328,1.885,-8.073,-0.391,-0.151,-3.307,-9.718,15.481,-0.039,0.914,-0.454,-0.305,-3.052,0.427,60.000,124075.000,1.000
-17.910,3.642,-6.368,-0.967,-0.954,-2.331,-8.018,16.501,-0.036,0.915,-0.452,-0.305,-2.808,0.153,60.000,124076.000,1.000
-13.101,3.856,-5.506,-1.817,-2.329,-2.382,-7.901,17.550,-0.034,0.918,-0.455,-0.397,-2.655,-0.031,60.000,124077.000,1.000
-10.902,2.648,-6.048,-3.446,-4.229,-3.668,-10.296,17.367,-0.034,0.922,-0.456,-0.549,-2.441,-0.122,60.000,124078.000,1.000
-10.569,1.690,-7.094,-5.410,-5.695,-5.308,-13.479,15.400,-0.034,0.922,-0.455,-0.641,-2.106,-0.183,60.000,124079.000,1.000
-8.842,3.115,-6.829,-6.577,-5.554,-6.162,-14.310,12.516,-0.033,0.922,-0.456,-0.763,-1.831,-0.397,60.000,124080.000,1.000
-3.357,7.590,-4.277,-6.445,-3.663,-5.855,-11.664,10.043,-0.034,0.923,-0.456,-0.977,-1.556,-0.366,60.000,124081.000,1.000
3.852,13.042,-0.593,-6.166,-1.687,-5.215,-8.644,8.048,-0.035,0.924,-0.455,-1.038,-1.282,-0.366,60.000,124082.000,1.000
9.134,16.742,2.479,-7.007,-1.455,-5.069,-8.843,5.756,-0.036,0.925,-0.456,-1.099,-1.129,-0.366,60.000,124083.000,1.000
11.320,17.612,4.388,-8.840,-3.327,-5.385,-11.860,2.916,-0.036,0.927,-0.457,-1.129,-0.916,-0.275,60.000,124084.000,1.000
12.853,16.850,6.035,-10.120,-5.937,-5.259,-13.301,0.225,-0.038,0.925,-0.455,-1.129,-0.763,-0.275,60.000,124085.000,1.000
16.501,16.253,8.311,-9.548,-7.595,-3.825,-9.707,-1.769,-0.036,0.925,-0.455,-1.160,-0.702,-0.183,60.000,124086.000,1.000
21.157,15.889,10.690,-7.721,-8.008,-1.420,-2.887,-3.583,-0.038,0.926,-0.456,-1.282,-0.427,-0.153,60.000,124087.000,1.000
23.966,15.065,12.185,-6.044,-7.638,0.971,2.778,-5.752,-0.040,0.925,-0.451,-1.373,-0.366,-0.061,60.000,124088.000,1.000
23.889,13.951,12.362,-5.225,-6.705,2.614,5.143,-8.028,-0.042,0.925,-0.450,-1.404,-0.244,-0.122,60.000,124089.000,1.000
22.681,13.761,11.521,-4.820,-5.024,3.561,5.708,-9.756,-0.048,0.924,-0.446,-1.465,-0.031,-0.092,60.000,124090.000,1.000
22.478,15.171,10.081,-4.134,-2.726,4.263,6.730,-10.765,-0.056,0.919,-0.450,-1.526,-0.153,-0.122,60.000,124091.000,1.000
22.632,16.747,8.005,-3.313,-0.860,4.843,8.211,-11.648,-0.063,0.920,-0.454,-1.526,-0.244,-0.183,60.000,124092.000,1.000
21.369,16.675,5.546,-2.542,-0.142,5.555,9.261,-12.835,-0.065,0.920,-0.458,-1.404,-0.458,-0.153,60.000,124093.000,1.000
17.930,14.629,3.436,-1.431,-0.219,6.939,9.741,-14.113,-0.065,0.920,-0.455,-1.404,-0.763,-0.275,60.000,124094.000,1.000
13.334,11.995,2.554,0.899,0.099,9.595,10.570,-14.661,-0.065,0.919,-0.454,-1.282,-1.068,-0.244,60.000,124095.000,1.000
9.322,10.361,3.086,4.895,1.790,13.409,12.777,-13.723,-0.062,0.914,-0.460,-1.221,-1.373,-0.275,60.000,124096.000,1.000
6.051,9.537,3.739,9.421,4.323,16.858,16.044,-11.541,-0.058,0.913,-0.460,-1.099,-1.617,-0.275,60.000,124097.000,1.000
2.797,8.232,2.878,12.606,6.285,18.196,19.206,-9.091,-0.052,0.911,-0.457,-1.007,-1.556,-0.214,60.000,124098.000,1.000
-1.352,5.284,-0.280,13.026,6.484,16.658,20.597,-7.645,-0.046,0.906,-0.457,-0.885,-1.526,-0.183,60.000,124099.000,1.000
-6.648,0.700,-5.096,10.598,4.885,12.890,19.003,-8.075,-0.042,0.906,-0.458,-0.671,-1.465,-0.092,60.000,124100.000,1.000
-12.168,-4.166,-9.898,6.518,2.575,8.289,14.944,-10.243,-0.037,0.905,-0.460,-0.580,-1.251,0.000,60.000,124101.000,1.000
-16.949,-7.906,-13.216,2.141,0.627,3.754,10.173,-13.150,-0.033,0.905,-0.457,-0.366,-0.977,0.031,60.000,124102.000,1.000
-19.828,-9.642,-14.286,-1.289,-0.229,-0.348,6.472,-15.255,-0.030,0.904,-0.460,-0.153,-0.763,0.061,60.000,124103.000,1.000
-20.376,-9.798,-13.528,-3.106,-0.020,-4.099,3.598,-15.298,-0.031,0.906,-0.458,-0.061,-0.549,0.000,60.000,124104.000,1.000
-19.092,-9.601,-12.014,-3.287,0.619,-7.681,-0.288,-12.707,-0.032,0.906,-0.460,0.031,-0.153,0.000,60.000,124105.000,1.000
-16.469,-9.635,-10.426,-2.214,1.057,-11.039,-5.902,-7.649,-0.034,0.907,-0.462,0.122,0.122,0.092,60.000,124106.000,1.000
-13.232,-9.788,-8.916,-0.690,0.786,-14.073,-11.829,-1.066,-0.037,0.910,-0.458,0.244,0.366,0.000,60.000,124107.000,1.000
-9.637,-9.438,-7.212,0.752,-0.116,-16.483,-15.563,5.833,-0.039,0.912,-0.457,0.061,0.519,0.000,60.000,124108.000,1.000
-6.178,-8.506,-5.507,1.715,-1.365,-18.228,-16.490,11.556,-0.041,0.916,-0.457,0.153,0.671,-0.244,60.000,124109.000,1.000
-3.575,-7.578,-4.541,1.866,-2.750,-19.632,-16.370,14.679,-0.042,0.921,-0.454,-0.061,0.916,-0.397,60.000,124110.000,1.000
-1.691,-6.960,-4.713,1.351,-3.819,-20.821,-16.782,14.949,-0.043,0.922,-0.453,-0.305,1.068,-0.610,60.000,124111.000,1.000
0.109,-6.439,-5.659,0.744,-4.025,-21.514,-17.697,13.715,-0.044,0.925,-0.453,-0.488,1.160,-0.671,60.000,124112.000,1.000
2.919,-5.061,-6.241,0.883,-2.869,-21.051,-17.827,13.219,-0.047,0.925,-0.453,-0.854,1.099,-0.854,60.000,124113.000,1.000
6.651,-2.307,-5.697,1.803,-0.703,-19.291,-16.567,14.800,-0.050,0.928,-0.451,-1.160,1.190,-0.854,60.000,124114.000,1.000
9.858,1.219,-4.186,2.700,1.390,-16.705,-14.261,18.145,-0.054,0.927,-0.455,-1.434,1.251,-0.885,60.000,124115.000,1.000
11.697,4.567,-2.311,3.031,2.626,-13.734,-11.490,21.877,-0.053,0.927,-0.453,-1.526,1.038,-0.854,60.000,124116.000,1.000
12.586,7.109,-0.623,2.989,2.892,-10.570,-9.313,24.438,-0.053,0.926,-0.451,-1.831,1.038,-0.824,60.000,124117.000,1.000
14.071,9.057,0.895,3.339,2.724,-7.056,-8.361,24.934,-0.054,0.927,-0.451,-2.045,0.854,-0.702,60.000,124118.000,1.000
16.267,10.311,2.184,4.049,2.159,-3.446,-8.520,22.911,-0.057,0.924,-0.451,-2.167,0.824,-0.580,60.000,124119.000,1.000
17.709,10.427,3.080,4.296,0.671,-0.327,-8.903,18.450,-0.058,0.925,-0.452,-2.411,0.580,-0.458,60.000,124120.000,1.000
18.185,10.021,3.983,3.936,-1.659,2.281,-8.402,12.592,-0.060,0.923,-0.454,-2.502,0.336,-0.244,60.000,124121.000,1.000
19.052,10.324,5.533,3.743,-4.038,5.005,-6.905,6.805,-0.060,0.921,-0.454,-2.625,0.061,-0.153,60.000,124122.000,1.000
21.718,11.852,7.980,4.627,-5.604,8.533,-4.586,2.157,-0.059,0.920,-0.452,-2.747,-0.214,-0.031,60.000,124123.000,1.000
25.000,13.271,10.459,6.252,-6.498,12.373,-1.567,-1.328,-0.061,0.919,-0.453,-2.747,-0.336,0.061,60.000,124124.000,1.000
26.229,12.893,11.816,7.498,-7.327,15.234,2.119,-4.135,-0.061,0.917,-0.453,-2.777,-0.519,0.336,60.000,124125.000,1.000
24.834,10.886,11.920,7.896,-7.947,16.627,6.390,-6.571,-0.060,0.916,-0.449,-2.777,-0.702,0.488,60.000,124126.000,1.000
22.539,8.685,11.442,7.701,-7.780,17.205,10.415,-8.879,-0.061,0.915,-0.451,-2.747,-1.099,0.549,60.000,124127.000,1.000
21.614,7.579,11.124,7.477,-6.419,17.988,13.225,-11.192,-0.060,0.916,-0.452,-2.838,-1.221,0.763,60.000,124128.000,1.000
21.797,7.403,10.789,7.207,-4.342,18.994,13.907,-13.702,-0.058,0.916,-0.449,-2.777,-1.404,0.916,60.000,124129.000,1.000
20.750,7.271,9.815,6.591,-2.281,19.524,12.475,-16.368,-0.058,0.916,-0.452,-2.747,-1.556,1.068,60.000,124130.000,1.000
17.472,7.076,8.320,5.980,-0.068,19.437,10.678,-18.454,-0.058,0.915,-0.449,-2.747,-1.862,1.099,60.000,124131.000,1.000
13.203,7.194,7.063,6.051,3.025,19.166,10.553,-18.800,-0.055,0.918,-0.448,-2.686,-1.984,1.282,60.000,124132.000,1.000
10.503,8.191,6.782,7.294,7.554,19.145,12.934,-16.477,-0.053,0.919,-0.450,-2.747,-2.075,1.251,60.000,124133.000,1.000
9.863,9.829,7.036,9.124,12.758,18.926,16.028,-12.035,-0.053,0.920,-0.445,-2.716,-2.167,1.312,60.000,124134.000,1.000
8.950,10.966,6.542,10.257,16.889,17.561,16.724,-7.317,-0.050,0.921,-0.443,-2.869,-2.167,1.282,60.000,124135.000,1.000
5.909,10.871,4.705,10.132,19.014,14.755,14.154,-3.641,-0.048,0.922,-0.446,-2.899,-2.258,1.343,60.000,124136.000,1.000
1.282,9.734,2.013,9.179,19.665,10.957,10.605,-0.958,-0.044,0.923,-0.447,-3.082,-2.289,1.251,60.000,124137.000,1.000
-2.377,8.547,-0.468,8.319,20.160,6.962,9.092,1.484,-0.041,0.923,-0.450,-3.143,-2.136,1.190,60.000,124138.000,1.000
-4.014,7.644,-2.256,7.758,20.936,3.179,9.430,3.875,-0.039,0.922,-0.446,-3.113,-2.014,1.190,60.000,124139.000,1.000
-4.990,6.497,-3.309,7.145,21.475,-0.105,8.711,5.993,-0.036,0.922,-0.447,-3.113,-1.984,1.099,60.000,124140.000,1.000
-6.258,5.065,-3.226,6.603,21.510,-2.375,5.583,8.057,-0.036,0.920,-0.449,-3.174,-1.831,1.038,60.000,124141.000,1.000
-7.072,3.996,-1.578,6.535,21.152,-3.574,1.885,10.592,-0.036,0.917,-0.448,-3.143,-1.617,1.038,60.000,124142.000,1.000
-5.539,4.226,1.606,7.160,20.645,-4.095,0.504,13.793,-0.036,0.917,-0.449,-3.143,-1.434,0.885,60.000,124143.000,1.000
-2.007,5.336,5.145,7.675,19.487,-4.611,1.157,16.722,-0.034,0.917,-0.448,-3.143,-1.160,0.702,60.000,124144.000,1.000
0.368,5.415,7.374,6.745,16.636,-5.559,0.441,17.944,-0.034,0.914,-0.451,-3.113,-0.977,0.610,60.000,124145.000,1.000
-0.322,3.403,7.739,4.154,12.011,-6.683,-3.669,17.120,-0.033,0.911,-0.452,-2.960,-0.702,0.458,60.000,124146.000,1.000
-2.342,0.457,7.177,1.253,6.977,-7.432,-9.618,15.467,-0.032,0.910,-0.451,-2.991,-0.488,0.244,60.000,124147.000,1.000
-1.758,-0.870,7.341,-0.005,3.533,-7.242,-13.962,14.816,-0.031,0.910,-0.452,-2.869,-0.305,0.031,60.000,124148.000,1.000
2.200,0.216,8.748,0.781,2.213,-6.136,-15.176,15.639,-0.031,0.908,-0.450,-2.655,0.061,-0.153,60.000,124149.000,1.000
5.966,1.888,10.478,2.337,1.766,-4.575,-14.324,16.771,-0.032,0.910,-0.452,-2.533,0.397,-0.336,60.000,124150.000,1.000
6.589,2.324,11.581,3.621,0.970,-2.822,-12.919,17.046,-0.033,0.912,-0.450,-2.411,0.702,-0.549,60.000,124151.000,1.000
4.864,1.490,11.842,4.597,-0.325,-0.940,-11.925,16.274,-0.036,0.916,-0.447,-2.411,0.885,-0.671,60.000,124152.000,1.000
4.095,0.799,11.727,5.828,-1.341,1.211,-11.173,15.148,-0.040,0.922,-0.446,-2.380,1.129,-0.763,60.000,124153.000,1.000
5.091,0.644,11.250,7.050,-1.862,3.332,-9.930,14.289,-0.044,0.926,-0.445,-2.563,1.312,-0.885,60.000,124154.000,1.000
5.257,-0.059,9.922,7.227,-2.536,4.814,-7.288,13.903,-0.049,0.932,-0.441,-2.563,1.282,-1.007,60.000,124155.000,1.000
3.081,-1.775,7.788,6.066,-3.649,5.610,-2.717,13.907,-0.052,0.937,-0.441,-2.899,1.251,-1.099,60.000,124156.000,1.000
0.339,-3.658,5.534,4.359,-4.792,6.160,2.468,13.620,-0.058,0.938,-0.440,-3.174,1.099,-1.099,60.000,124157.000,1.000
0.301,-4.499,3.950,3.152,-5.361,6.840,6.077,11.981,-0.061,0.940,-0.439,-3.448,0.916,-1.099,60.000,124158.000,1.000
2.949,-4.651,2.896,2.157,-5.699,7.127,6.821,8.127,-0.064,0.941,-0.436,-3.754,0.732,-1.007,60.000,124159.000,1.000
4.778,-5.527,1.661,0.137,-6.682,6.167,5.376,2.247,-0.066,0.942,-0.434,-3.967,0.519,-0.946,60.000,124160.000,1.000
3.909,-7.183,0.247,-3.149,-8.198,4.229,3.754,-4.303,-0.067,0.941,-0.434,-4.211,0.275,-0.824,60.000,124161.000,1.000
2.436,-8.002,-0.552,-6.577,-9.150,2.767,3.370,-9.973,-0.069,0.939,-0.431,-4.456,-0.031,-0.580,60.000,124162.000,1.000
4.156,-6.269,0.056,-8.728,-8.507,3.175,4.679,-13.832,-0.068,0.938,-0.432,-4.608,-0.397,-0.366,60.000,124163.000,1.000
9.102,-2.673,1.568,-9.640,-6.771,5.032,6.867,-16.231,-0.069,0.937,-0.431,-4.700,-0.824,-0.031,60.000,124164.000,1.000
13.115,0.180,2.625,-10.521,-5.473,6.663,8.581,-18.272,-0.069,0.936,-0.433,-4.761,-1.099,0.305,60.000,124165.000,1.000
13.091,0.700,2.650,-11.935,-5.339,7.255,9.556,-20.492,-0.067,0.933,-0.433,-4.883,-1.465,0.549,60.000,124166.000,1.000
9.729,-0.794,2.165,-13.292,-5.862,7.367,10.701,-22.490,-0.064,0.928,-0.430,-4.974,-1.801,0.885,60.000,124167.000,1.000
6.439,-2.812,2.092,-13.430,-5.886,7.899,13.177,-23.548,-0.062,0.924,-0.432,-4.913,-2.045,1.251,60.000,124168.000,1.000
4.834,-4.632,2.249,-12.182,-5.067,8.491,16.163,-23.872,-0.062,0.922,-0.428,-4.791,-2.258,1.526,60.000,124169.000,1.000
3.106,-6.822,1.399,-10.561,-4.105,7.811,17.064,-24.409,-0.060,0.919,-0.432,-4.761,-2.472,1.801,60.000,124170.000,1.000
-0.988,-9.978,-1.200,-9.479,-3.622,5.155,14.655,-25.622,-0.058,0.917,-0.429,-4.486,-2.686,1.862,60.000,124171.000,1.000
-7.756,-13.930,-5.102,-9.111,-3.735,0.995,10.524,-27.102,-0.056,0.911,-0.429,-4.120,-2.838,2.045,60.000,124172.000,1.000
-14.867,-17.303,-8.940,-8.700,-3.862,-3.192,7.744,-27.680,-0.056,0.909,-0.433,-3.845,-2.991,2.228,60.000,124173.000,1.000
-20.351,-19.031,-11.852,-7.531,-3.474,-6.098,7.148,-26.258,-0.053,0.906,-0.434,-3.418,-3.204,2.258,60.000,124174.000,1.000
-24.671,-19.615,-14.064,-5.643,-2.623,-7.426,6.379,-22.656,-0.051,0.904,-0.437,-2.991,-3.174,2.228,60.000,124175.000,1.000
-29.193,-20.290,-16.226,-3.693,-1.664,-7.929,3.138,-17.818,-0.046,0.903,-0.438,-2.563,-3.204,2.258,60.000,124176.000,1.000
-34.566,-21.788,-18.800,-2.637,-0.964,-9.015,-2.149,-13.064,-0.045,0.903,-0.436,-2.014,-3.143,2.258,60.000,124177.000,1.000
-39.370,-23.262,-21.362,-2.661,-0.238,-11.289,-6.467,-8.699,-0.044,0.902,-0.438,-1.556,-3.052,2.075,60.000,124178.000,1.000
-41.846,-23.492,-23.140,-3.224,0.908,-14.093,-7.809,-4.284,-0.043,0.905,-0.439,-1.160,-2.930,1.923,60.000,124179.000,1.000
-41.658,-22.290,-23.683,-3.648,2.308,-16.259,-7.120,0.358,-0.043,0.907,-0.438,-0.854,-2.716,1.770,60.000,124180.000,1.000
-39.681,-20.405,-23.041,-3.535,3.396,-17.283,-6.547,4.963,-0.040,0.911,-0.437,-0.580,-2.472,1.495,60.000,124181.000,1.000
-37.590,-18.961,-21.808,-3.155,3.515,-17.901,-7.483,9.179,-0.039,0.913,-0.441,-0.305,-2.228,1.190,60.000,124182.000,1.000
-35.596,-17.972,-20.201,-2.724,2.822,-18.776,-9.399,13.167,-0.037,0.913,-0.443,-0.122,-2.014,0.916,60.000,124183.000,1.000
-32.200,-16.459,-17.865,-2.287,2.086,-19.676,-10.985,17.300,-0.036,0.918,-0.441,0.183,-1.801,0.671,60.000,124184.000,1.000
-25.751,-13.557,-14.345,-1.913,1.916,-19.865,-11.428,21.691,-0.035,0.919,-0.446,0.427,-1.526,0.488,60.000,124185.000,1.000
-16.038,-9.202,-9.712,-1.787,2.369,-18.983,-10.811,26.000,-0.034,0.919,-0.445,0.519,-1.160,0.244,60.000,124186.000,1.000
-5.472,-4.537,-5.046,-2.482,2.715,-17.637,-10.471,29.280,-0.031,0.920,-0.445,0.580,-0.732,0.000,60.000,124187.000,1.000
3.427,-0.647,-1.463,-4.208,2.319,-16.596,-11.503,30.539,-0.031,0.922,-0.441,0.702,-0.427,-0.366,60.000,124188.000,1.000
9.975,2.178,0.736,-6.469,1.144,-16.158,-13.469,29.294,-0.032,0.924,-0.444,0.793,-0.092,-0.549,60.000,124189.000,1.000
15.113,4.256,2.216,-8.267,-0.292,-15.870,-14.499,26.023,-0.033,0.925,-0.446,0.702,0.244,-0.580,60.000,124190.000,1.000
19.635,5.790,3.721,-8.915,-1.545,-14.939,-13.463,21.795,-0.035,0.928,-0.445,0.916,0.580,-0.702,60.000,124191.000,1.000
22.284,6.165,4.962,-8.895,-3.022,-13.175,-12.205,17.301,-0.038,0.926,-0.446,0.885,0.946,-0.854,60.000,124192.000,1.000
22.126,5.420,5.436,-8.798,-4.998,-10.693,-12.922,13.095,-0.041,0.926,-0.445,0.885,1.129,-0.977,60.000,124193.000,1.000
20.424,4.870,5.255,-8.522,-6.920,-7.590,-14.739,9.901,-0.041,0.925,-0.444,0.854,1.495,-1.038,60.000,124194.000,1.000
19.805,6.039,5.084,-7.464,-7.779,-3.815,-14.070,8.400,-0.043,0.926,-0.446,0.854,1.587,-1.068,60.000,124195.000,1.000
21.664,9.142,5.326,-5.305,-7.048,0.798,-8.655,8.538,-0.046,0.927,-0.447,0.793,1.617,-1.099,60.000,124196.000,1.000
23.773,12.202,5.370,-2.783,-5.539,6.117,-0.741,8.865,-0.048,0.926,-0.444,0.702,1.617,-0.885,60.000,124197.000,1.000
23.000,13.097,4.518,-0.830,-4.500,11.784,5.719,7.423,-0.049,0.926,-0.442,0.580,1.740,-0.824,60.000,124198.000,1.000
18.482,11.363,2.605,0.070,-4.815,16.894,9.039,3.161,-0.050,0.926,-0.443,0.488,1.801,-0.824,60.000,124199.000,1.000
12.035,8.150,-0.065,-0.078,-6.716,20.245,10.503,-3.452,-0.052,0.927,-0.443,0.427,1.740,-0.732,60.000,124200.000,1.000
5.948,4.872,-3.112,-1.051,-9.866,21.206,11.799,-11.156,-0.055,0.927,-0.443,0.458,1.648,-0.519,60.000,124201.000,1.000
0.012,1.561,-6.534,-2.907,-13.963,19.919,12.372,-19.061,-0.056,0.927,-0.443,0.366,1.526,-0.305,60.000,124202.000,1.000
-6.898,-2.406,-10.122,-5.438,-18.427,17.229,10.888,-26.576,-0.056,0.926,-0.446,0.214,1.404,-0.092,60.000,124203.000,1.000
-14.512,-7.193,-13.439,-8.190,-22.510,13.759,7.104,-33.242,-0.057,0.925,-0.447,0.061,1.343,0.061,60.000,124204.000,1.000
-20.684,-11.941,-16.052,-10.654,-25.592,9.552,2.141,-38.683,-0.060,0.923,-0.443,0.092,1.190,0.275,60.000,124205.000,1.000
-23.094,-15.078,-17.553,-12.254,-27.225,4.757,-2.251,-42.472,-0.063,0.921,-0.446,-0.061,0.977,0.458,60.000,124206.000,1.000
-22.106,-15.757,-17.747,-12.739,-27.385,0.068,-4.870,-44.291,-0.062,0.923,-0.444,-0.092,0.702,0.610,60.000,124207.000,1.000
-19.358,-13.779,-16.248,-11.885,-25.901,-3.056,-4.793,-43.920,-0.063,0.923,-0.443,-0.122,0.458,0.793,60.000,124208.000,1.000
-15.504,-9.398,-12.757,-9.572,-22.442,-3.382,-2.021,-41.512,-0.063,0.922,-0.441,-0.214,0.214,1.007,60.000,124209.000,1.000
-9.953,-3.453,-7.608,-6.100,-17.147,-1.062,1.864,-37.632,-0.063,0.923,-0.439,-0.214,-0.122,1.190,60.000,124210.000,1.000
-2.753,2.516,-2.047,-2.460,-11.175,2.189,4.842,-33.089,-0.063,0.922,-0.443,-0.214,-0.427,1.343,60.000,124211.000,1.000
3.436,6.462,2.094,-0.153,-6.471,4.142,6.196,-28.679,-0.061,0.925,-0.443,-0.305,-0.671,1.709,60.000,124212.000,1.000
6.127,7.674,4.003,0.371,-3.876,4.080,7.460,-24.396,-0.060,0.925,-0.441,-0.397,-0.977,1.953,60.000,124213.000,1.000
5.524,7.129,4.296,0.038,-2.554,2.928,9.810,-19.589,-0.058,0.924,-0.439,-0.549,-1.099,2.014,60.000,124214.000,1.000
4.130,6.382,4.210,0.218,-0.971,1.949,12.085,-13.697,-0.055,0.923,-0.440,-0.702,-1.282,2.136,60.000,124215.000,1.000
4.168,6.407,4.521,1.557,1.732,1.477,12.449,-6.955,-0.050,0.925,-0.441,-0.763,-1.465,2.197,60.000,124216.000,1.000
4.541,6.544,4.746,3.209,4.746,0.490,10.316,-0.635,-0.044,0.921,-0.443,-0.854,-1.434,2.228,60.000,124217.000,1.000
2.885,5.771,4.193,4.241,6.888,-1.852,6.913,4.300,-0.038,0.918,-0.447,-0.916,-1.373,2.258,60.000,124218.000,1.000
-1.134,4.221,3.012,4.908,8.042,-5.011,3.361,8.198,-0.036,0.915,-0.448,-0.854,-1.282,2.380,60.000,124219.000,1.000
-4.984,3.426,2.308,6.470,9.307,-7.289,-0.236,12.208,-0.036,0.914,-0.445,-0.854,-1.190,2.350,60.000,124220.000,1.000
-5.964,4.839,3.085,9.733,11.827,-7.255,-3.789,16.886,-0.035,0.911,-0.447,-0.732,-1.129,2.319,60.000,124221.000,1.000
-5.209,7.681,4.910,13.692,15.270,-5.331,-7.255,21.398,-0.036,0.916,-0.447,-0.732,-0.885,2.319,60.000,124222.000,1.000
-5.779,9.941,6.639,16.725,18.455,-3.134,-10.417,24.561,-0.040,0.918,-0.445,-0.702,-0.732,2.197,60.000,124223.000,1.000
-8.709,10.299,7.559,18.040,20.458,-2.050,-12.886,25.979,-0.038,0.921,-0.446,-0.763,-0.641,2.289,60.000,124224.000,1.000
-11.864,8.887,7.762,17.981,21.077,-2.416,-14.038,26.419,-0.039,0.923,-0.441,-0.946,-0.549,2.228,60.000,124225.000,1.000
-12.694,6.645,7.534,17.173,20.493,-3.870,-13.716,27.090,-0.035,0.928,-0.447,-1.160,-0.427,2.106,60.000,124226.000,1.000
-12.099,3.784,6.533,15.409,18.473,-6.238,-13.593,28.373,-0.036,0.931,-0.445,-1.434,-0.397,2.045,60.000,124227.000,1.000
-12.313,0.450,4.785,12.557,15.142,-8.948,-15.178,29.945,-0.038,0.931,-0.442,-1.709,-0.397,1.801,60.000,124228.000,1.000
-13.179,-2.307,3.422,9.411,11.519,-10.662,-17.224,31.354,-0.040,0.931,-0.441,-1.831,-0.336,1.740,60.000,124229.000,1.000
-11.610,-2.711,4.034,7.337,9.003,-9.922,-16.251,32.232,-0.042,0.930,-0.441,-1.862,-0.366,1.709,60.000,124230.000,1.000
-4.949,0.218,7.164,7.006,8.198,-6.314,-10.510,32.053,-0.044,0.931,-0.441,-1.892,-0.427,1.556,60.000,124231.000,1.000
4.984,4.972,11.431,7.380,7.976,-1.141,-3.115,29.964,-0.048,0.930,-0.439,-2.045,-0.488,1.312,60.000,124232.000,1.000
14.179,9.237,15.086,7.101,6.865,3.747,1.343,25.733,-0.051,0.927,-0.440,-2.045,-0.519,1.129,60.000,124233.000,1.000
20.397,11.983,17.403,5.800,4.419,6.962,1.642,20.113,-0.058,0.925,-0.443,-2.106,-0.732,0.916,60.000,124234.000,1.000
24.209,13.597,18.665,4.028,1.233,7.952,0.514,14.170,-0.065,0.923,-0.443,-2.136,-1.099,0.610,60.000,124235.000,1.000
26.926,14.499,19.114,2.254,-1.978,6.910,0.664,8.356,-0.069,0.921,-0.446,-2.136,-1.373,0.397,60.000,124236.000,1.000
27.727,13.863,18.107,0.074,-5.243,4.367,1.193,2.252,-0.072,0.919,-0.449,-2.045,-1.770,-0.031,60.000,124237.000,1.000
25.473,11.227,15.289,-2.563,-8.326,1.646,0.188,-4.248,-0.074,0.919,-0.450,-1.892,-2.258,-0.244,60.000,124238.000,1.000
20.684,7.689,11.365,-4.708,-10.235,0.442,-1.754,-10.372,-0.065,0.916,-0.448,-1.678,-2.747,-0.458,60.000,124239.000,1.000
15.299,5.204,7.684,-5.044,-9.868,1.799,-1.732,-14.905,-0.057,0.915,-0.451,-1.556,-2.991,-0.458,60.000,124240.000,1.000
11.231,5.085,5.309,-2.903,-6.900,5.583,2.332,-17.090,-0.049,0.914,-0.449,-1.160,-3.174,-0.519,60.000,124241.000,1.000
8.283,6.498,4.069,0.777,-2.536,10.433,8.996,-17.505,-0.043,0.912,-0.450,-0.885,-3.265,-0.549,60.000,124242.000,1.000
5.352,7.567,3.089,4.211,1.501,14.781,15.052,-17.444,-0.039,0.910,-0.454,-0.641,-3.143,-0.305,60.000,124243.000,1.000
1.813,6.994,1.482,5.869,4.110,17.460,18.066,-17.785,-0.035,0.906,-0.453,-0.397,-2.808,-0.275,60.000,124244.000,1.000
-1.896,4.926,-1.018,5.432,5.335,18.037,17.636,-18.248,-0.030,0.905,-0.451,-0.092,-2.563,-0.092,60.000,124245.000,1.000
-4.523,2.699,-3.850,3.913,6.042,16.832,15.407,-17.857,-0.027,0.906,-0.452,0.183,-2.197,0.031,60.000,124246.000,1.000
-6.068,1.162,-6.445,2.379,6.652,14.202,13.374,-16.326,-0.026,0.906,-0.452,0.549,-1.678,0.122,60.000,124247.000,1.000
-7.333,0.399,-8.363,1.515,7.151,10.626,12.792,-14.131,-0.024,0.910,-0.450,0.763,-1.373,0.214,60.000,124248.000,1.000
-8.739,0.078,-9.333,1.585,7.576,6.910,13.144,-11.808,-0.023,0.913,-0.448,0.946,-0.916,0.305,60.000,124249.000,1.000
-9.414,0.164,-9.113,2.653,8.364,4.093,12.812,-9.335,-0.025,0.916,-0.447,1.068,-0.549,0.397,60.000,124250.000,1.000
-7.509,1.282,-7.503,4.632,10.083,2.755,11.335,-6.152,-0.027,0.919,-0.448,1.068,-0.031,0.366,60.000,124251.000,1.000
-2.848,3.455,-5.052,6.707,12.349,2.021,9.719,-2.004,-0.030,0.920,-0.447,1.160,0.397,0.397,60.000,124252.000,1.000
2.896,5.797,-2.870,7.908,14.051,0.362,9.256,2.648,-0.031,0.921,-0.446,1.129,0.824,0.305,60.000,124253.000,1.000
7.289,6.941,-2.073,7.699,14.099,-3.038,9.457,6.604,-0.031,0.924,-0.446,0.854,1.160,0.275,60.000,124254.000,1.000
8.981,6.235,-2.873,6.345,12.298,-7.482,8.379,8.788,-0.032,0.925,-0.446,0.641,1.495,0.092,60.000,124255.000,1.000
8.855,4.571,-4.253,4.772,9.615,-11.380,5.203,9.330,-0.032,0.926,-0.448,0.488,1.709,0.031,60.000,124256.000,1.000
8.110,3.076,-5.052,3.525,7.018,-13.911,0.855,9.424,-0.036,0.926,-0.446,0.275,1.953,-0.244,60.000,124257.000,1.000
7.530,2.400,-4.543,2.680,4.954,-15.157,-2.927,10.474,-0.037,0.926,-0.446,0.122,2.289,-0.275,60.000,124258.000,1.000
7.089,2.440,-2.803,1.943,3.230,-15.473,-5.510,12.881,-0.037,0.925,-0.444,-0.061,2.411,-0.366,60.000,124259.000,1.000
6.349,2.676,-0.461,1.053,1.481,-14.887,-7.418,15.865,-0.040,0.924,-0.447,-0.244,2.625,-0.488,60.000,124260.000,1.000
5.512,2.789,1.912,0.235,-0.184,-13.138,-8.877,18.293,-0.043,0.927,-0.445,-0.488,2.777,-0.427,60.000,124261.000,1.000
4.720,2.311,3.807,-0.320,-1.612,-10.470,-9.952,19.239,-0.043,0.924,-0.444,-0.610,2.808,-0.488,60.000,124262.000,1.000
4.274,1.004,5.096,-0.573,-2.809,-7.493,-10.618,18.546,-0.045,0.921,-0.444,-0.793,2.808,-0.427,60.000,124263.000,1.000
4.086,-1.189,5.739,-0.958,-4.273,-5.030,-11.146,16.565,-0.048,0.920,-0.449,-0.916,2.838,-0.244,60.000,124264.000,1.000
3.625,-4.101,5.661,-2.056,-6.678,-3.725,-12.009,13.622,-0.050,0.919,-0.451,-1.129,2.716,-0.214,60.000,124265.000,1.000
3.153,-6.886,5.139,-3.631,-9.995,-3.348,-13.324,10.015,-0.053,0.919,-0.450,-1.038,2.594,0.031,60.000,124266.000,1.000
3.309,-8.698,4.677,-4.733,-13.597,-2.963,-15.312,6.246,-0.056,0.919,-0.445,-1.099,2.380,0.061,60.000,124267.000,1.000
4.824,-9.058,4.899,-4.317,-16.547,-1.544,-17.732,3.211,-0.056,0.918,-0.445,-1.160,2.014,0.244,60.000,124268.000,1.000
7.263,-8.360,5.800,-2.460,-18.382,0.901,-19.554,1.252,-0.056,0.918,-0.446,-1.190,1.740,0.366,60.000,124269.000,1.000
9.013,-7.537,6.606,-0.443,-19.317,3.340,-19.314,-0.472,-0.057,0.918,-0.447,-1.099,1.465,0.519,60.000,124270.000,1.000
9.115,-7.140,6.586,0.435,-19.705,4.974,-16.294,-3.218,-0.059,0.918,-0.447,-1.099,1.129,0.763,60.000,124271.000,1.000
7.604,-7.530,5.471,-0.444,-19.972,5.813,-11.958,-7.637,-0.059,0.918,-0.450,-1.068,1.007,0.854,60.000,124272.000,1.000
5.737,-8.519,3.775,-2.512,-20.105,6.537,-8.244,-13.144,-0.057,0.917,-0.449,-1.007,0.824,1.007,60.000,124273.000,1.000
4.223,-9.690,2.065,-4.790,-19.763,7.323,-5.686,-18.512,-0.057,0.916,-0.451,-1.007,0.366,1.099,60.000,124274.000,1.000
2.216,-10.806,0.402,-6.680,-18.567,7.492,-3.388,-22.561,-0.059,0.915,-0.448,-0.946,0.092,1.160,60.000,124275.000,1.000
-0.819,-11.424,-1.252,-7.810,-16.056,6.544,-0.128,-24.412,-0.059,0.917,-0.450,-0.824,-0.305,1.251,60.000,124276.000,1.000
-4.185,-11.109,-2.822,-8.036,-12.003,4.803,4.243,-23.936,-0.059,0.917,-0.450,-0.885,-0.610,1.312,60.000,124277.000,1.000
-6.142,-9.573,-4.068,-7.380,-6.471,3.233,9.129,-21.846,-0.054,0.916,-0.453,-0.885,-1.007,1.587,60.000,124278.000,1.000
-6.559,-7.662,-5.328,-6.576,-0.392,2.075,13.109,-19.574,-0.049,0.918,-0.451,-0.916,-1.190,1.526,60.000,124279.000,1.000
-7.586,-7.121,-7.283,-6.614,4.761,0.614,14.589,-18.240,-0.044,0.918,-0.451,-0.916,-1.373,1.556,60.000,124280.000,1.000
-10.551,-8.584,-9.762,-7.452,8.409,-1.573,13.719,-17.665,-0.037,0.921,-0.454,-0.916,-1.434,1.556,60.000,124281.000,1.000
-14.702,-11.235,-11.874,-8.290,10.959,-4.304,12.374,-16.997,-0.035,0.919,-0.451,-0.854,-1.404,1.526,60.000,124282.000,1.000
-17.872,-13.543,-12.696,-8.308,13.205,-6.995,12.525,-15.575,-0.030,0.921,-0.450,-0.885,-1.434,1.465,60.000,124283.000,1.000
-19.230,-14.729,-12.141,-7.520,15.372,-9.188,13.638,-13.424,-0.031,0.923,-0.447,-0.977,-1.282,1.404,60.000,124284.000,1.000
-19.995,-14.996,-10.843,-6.659,17.035,-10.594,12.934,-10.957,-0.031,0.923,-0.448,-1.068,-1.160,1.282,60.000,124285.000,1.000
-20.748,-14.274,-9.319,-6.195,17.960,-10.973,9.046,-8.301,-0.033,0.924,-0.448,-1.282,-0.977,1.007,60.000,124286.000,1.000
-20.495,-12.172,-7.852,-6.098,18.199,-10.589,3.873,-5.151,-0.036,0.928,-0.447,-1.434,-0.885,0.854,60.000,124287.000,1.000
-17.592,-8.511,-6.475,-5.903,17.984,-9.919,0.953,-1.027,-0.039,0.929,-0.443,-1.678,-0.916,0.763,60.000,124288.000,1.000
-12.849,-4.631,-5.612,-5.700,16.901,-9.464,1.092,3.667,-0.044,0.931,-0.443,-2.075,-1.007,0.580,60.000,124289.000,1.000
-9.781,-3.051,-5.922,-6.244,13.952,-9.474,1.294,7.612,-0.048,0.932,-0.446,-2.411,-1.160,0.519,60.000,124290.000,1.000
-10.242,-4.709,-7.094,-7.601,9.118,-9.525,-1.131,10.046,-0.050,0.932,-0.448,-2.716,-1.282,0.366,60.000,124291.000,1.000
-12.232,-7.803,-7.824,-8.823,3.761,-8.980,-5.667,11.327,-0.052,0.936,-0.445,-3.052,-1.465,0.244,60.000,124292.000,1.000
-11.627,-9.196,-6.846,-8.754,-0.445,-7.495,-9.616,12.214,-0.054,0.937,-0.445,-3.296,-1.648,0.214,60.000,124293.000,1.000
-7.248,-7.749,-4.468,-7.639,-3.425,-5.549,-11.752,12.775,-0.054,0.936,-0.442,-3.540,-1.862,0.122,60.000,124294.000,1.000
-2.279,-5.240,-2.314,-7.001,-6.655,-4.007,-13.294,12.555,-0.059,0.934,-0.441,-3.845,-2.075,0.122,60.000,124295.000,1.000
0.257,-3.607,-1.428,-7.695,-11.038,-3.139,-15.497,11.411,-0.063,0.931,-0.441,-3.998,-2.350,0.153,60.000,124296.000,1.000
0.616,-2.911,-1.447,-9.069,-15.827,-2.499,-18.223,9.614,-0.067,0.929,-0.440,-4.211,-2.686,0.031,60.000,124297.000,1.000
1.593,-1.591,-1.029,-9.559,-19.157,-1.178,-19.883,7.812,-0.069,0.927,-0.439,-4.333,-3.021,0.214,60.000,124298.000,1.000
3.882,0.733,0.362,-8.755,-20.318,0.931,-19.400,6.367,-0.066,0.923,-0.441,-4.333,-3.448,0.336,60.000,124299.000,1.000
4.549,2.199,1.813,-7.988,-20.652,2.741,-17.330,4.909,-0.064,0.921,-0.443,-4.333,-3.845,0.336,60.000,124300.000,1.000
1.516,1.287,2.348,-8.441,-21.610,3.530,-14.657,2.827,-0.061,0.918,-0.443,-4.272,-4.150,0.488,60.000,124301.000,1.000
-3.455,-1.337,1.882,-9.884,-23.138,3.883,-12.184,-0.063,-0.056,0.918,-0.442,-4.242,-4.395,0.549,60.000,124302.000,1.000
-5.913,-3.157,1.203,-10.857,-23.693,5.117,-9.987,-3.020,-0.052,0.917,-0.439,-4.028,-4.517,0.702,60.000,124303.000,1.000
-4.011,-2.563,0.686,-10.431,-22.132,7.434,-7.729,-5.155,-0.051,0.920,-0.436,-3.937,-4.639,0.824,60.000,124304.000,1.000
-0.800,-0.460,-0.147,-9.005,-18.836,9.569,-5.047,-6.222,-0.051,0.919,-0.435,-3.815,-4.761,0.946,60.000,124305.000,1.000
-0.175,1.357,-1.618,-7.250,-14.791,10.475,-1.709,-6.352,-0.050,0.919,-0.436,-3.784,-4.639,1.190,60.000,124306.000,1.000
-3.228,1.930,-3.506,-5.484,-10.760,10.251,1.548,-5.783,-0.049,0.918,-0.436,-3.693,-4.700,1.312,60.000,124307.000,1.000
-7.603,1.877,-5.214,-3.514,-6.791,9.807,3.862,-4.680,-0.048,0.916,-0.437,-3.479,-4.669,1.465,60.000,124308.000,1.000
-10.966,1.989,-6.535,-1.325,-2.774,9.577,5.156,-3.334,-0.048,0.911,-0.437,-3.113,-4.639,1.404,60.000,124309.000,1.000
-13.389,2.082,-7.606,0.754,1.151,9.293,6.314,-2.037,-0.045,0.910,-0.438,-2.869,-4.486,1.495,60.000,124310.000,1.000
-15.624,1.853,-8.179,2.633,5.054,8.877,8.748,-0.730,-0.041,0.906,-0.438,-2.563,-4.395,1.312,60.000,124311.000,1.000
-17.720,1.456,-7.825,4.301,9.209,8.513,12.858,0.689,-0.039,0.909,-0.438,-2.289,-4.272,1.282,60.000,124312.000,1.000
