EEG 1,EEG 2,EEG 3,EEG 4,EEG 5,EEG 6,EEG 7,EEG 8,Accelerometer X,Accelerometer Y,Accelerometer Z,Gyroscope X,Gyroscope Y,Gyroscope Z,Battery Level,Counter,Validation Indicator
-5.140,-2.474,-2.773,3.401,2.609,1.498,10.117,9.215,-0.153,0.949,-0.345,-2.319,-0.488,1.007,60.000,64537.000,1.000
-3.215,-1.245,-0.042,5.695,5.432,3.232,12.131,12.885,-0.152,0.950,-0.342,-2.472,-0.458,0.946,60.000,64538.000,1.000
0.424,0.579,2.640,7.952,8.308,4.277,13.254,15.611,-0.153,0.948,-0.345,-2.716,-0.488,0.977,60.000,64539.000,1.000
4.684,2.361,4.650,9.326,10.270,3.816,12.416,16.452,-0.153,0.945,-0.349,-2.655,-0.488,1.068,60.000,64540.000,1.000
7.339,2.714,5.336,8.945,10.066,1.460,8.815,14.278,-0.155,0.941,-0.350,-2.716,-0.519,1.099,60.000,64541.000,1.000
6.467,0.622,4.457,6.484,7.032,-2.482,2.554,8.976,-0.154,0.939,-0.350,-2.502,-0.549,1.129,60.000,64542.000,1.000
2.353,-3.378,2.682,2.860,2.198,-6.548,-4.539,2.407,-0.153,0.939,-0.348,-2.563,-0.549,1.160,60.000,64543.000,1.000
-2.823,-7.627,1.140,-0.289,-2.140,-8.775,-9.707,-2.649,-0.152,0.940,-0.347,-2.319,-0.549,1.007,60.000,64544.000,1.000
-6.733,-10.435,0.666,-1.695,-3.960,-7.989,-11.231,-4.440,-0.153,0.943,-0.344,-2.106,-0.458,0.946,60.000,64545.000,1.000
-7.427,-10.407,1.600,-0.848,-2.366,-4.249,-8.986,-2.875,-0.152,0.946,-0.346,-2.075,-0.610,0.946,60.000,64546.000,1.000
-4.700,-7.375,3.526,1.562,1.901,1.079,-4.500,0.698,-0.153,0.947,-0.347,-2.136,-0.580,0.946,60.000,64547.000,1.000
0.019,-2.539,5.537,4.200,6.993,6.104,0.413,4.525,-0.153,0.948,-0.350,-2.106,-0.549,0.946,60.000,64548.000,1.000
4.528,2.112,6.692,5.900,10.891,9.275,4.857,7.332,-0.152,0.949,-0.345,-2.197,-0.580,0.977,60.000,64549.000,1.000
6.796,4.717,6.479,6.186,12.333,9.997,8.622,8.767,-0.153,0.950,-0.346,-2.258,-0.580,0.946,60.000,64550.000,1.000
6.673,4.840,5.182,5.580,11.569,8.920,11.710,9.520,-0.152,0.951,-0.342,-2.258,-0.610,1.038,60.000,64551.000,1.000
5.335,3.315,3.390,4.825,9.722,7.077,13.439,10.600,-0.154,0.950,-0.343,-2.289,-0.580,1.007,60.000,64552.000,1.000
4.289,1.510,1.606,4.337,7.923,5.195,12.983,12.778,-0.152,0.949,-0.343,-2.472,-0.580,0.946,60.000,64553.000,1.000
4.000,0.244,-0.147,3.808,6.498,3.374,10.110,15.426,-0.151,0.947,-0.347,-2.411,-0.549,0.977,60.000,64554.000,1.000
3.468,-0.567,-2.263,2.422,4.885,1.385,5.353,15.789,-0.152,0.945,-0.344,-2.350,-0.732,1.007,60.000,64555.000,1.000
2.246,-0.823,-4.688,0.074,2.782,-0.462,0.365,11.084,-0.153,0.942,-0.342,-2.350,-0.702,1.129,60.000,64556.000,1.000
0.662,-0.307,-6.805,-2.670,0.393,-1.576,-3.224,1.035,-0.154,0.944,-0.344,-2.258,-0.885,1.068,60.000,64557.000,1.000
-0.653,0.779,-7.979,-5.205,-1.965,-1.745,-4.639,-11.716,-0.154,0.942,-0.338,-2.136,-0.916,0.977,60.000,64558.000,1.000
-1.370,1.753,-8.041,-7.185,-4.153,-1.411,-4.110,-23.161,-0.153,0.945,-0.341,-2.045,-0.854,0.885,60.000,64559.000,1.000
-1.685,2.005,-7.179,-8.263,-5.962,-1.112,-2.600,-29.583,-0.152,0.945,-0.339,-2.014,-0.824,0.854,60.000,64560.000,1.000
-1.623,1.554,-5.684,-7.922,-6.869,-0.813,-0.974,-28.978,-0.152,0.946,-0.342,-1.953,-0.732,0.732,60.000,64561.000,1.000
-1.838,0.286,-4.263,-6.383,-6.827,-0.463,-0.236,-22.614,-0.152,0.945,-0.342,-1.923,-0.793,0.763,60.000,64562.000,1.000
-3.029,-1.956,-3.699,-4.610,-6.363,-0.196,-1.040,-14.419,-0.153,0.945,-0.342,-1.862,-0.763,0.885,60.000,64563.000,1.000
-5.052,-4.807,-4.285,-3.621,-6.074,-0.197,-3.194,-8.376,-0.154,0.944,-0.339,-1.770,-0.854,1.007,60.000,64564.000,1.000
-7.205,-7.451,-5.668,-3.860,-6.281,-0.648,-5.940,-6.218,-0.156,0.946,-0.341,-1.801,-0.824,0.977,60.000,64565.000,1.000
-8.364,-8.897,-7.009,-4.781,-6.748,-1.472,-7.978,-6.999,-0.154,0.946,-0.340,-1.678,-0.824,0.946,60.000,64566.000,1.000
-8.056,-8.650,-7.544,-5.398,-6.900,-2.274,-8.168,-8.613,-0.155,0.945,-0.341,-1.740,-0.885,0.946,60.000,64567.000,1.000
-5.960,-6.380,-6.656,-4.510,-5.738,-1.959,-5.447,-8.843,-0.159,0.947,-0.336,-1.648,-0.977,0.916,60.000,64568.000,1.000
-1.648,-1.842,-3.958,-1.218,-2.195,0.981,1.061,-5.906,-0.160,0.947,-0.338,-1.648,-1.068,0.946,60.000,64569.000,1.000
4.462,4.471,0.331,4.176,3.878,7.145,10.874,0.630,-0.160,0.947,-0.339,-1.801,-1.190,0.916,60.000,64570.000,1.000
10.911,11.024,5.071,9.935,11.008,15.045,21.438,9.038,-0.161,0.947,-0.341,-1.923,-1.251,0.946,60.000,64571.000,1.000
14.552,14.873,8.141,13.152,15.909,21.038,28.266,15.501,-0.162,0.944,-0.341,-1.953,-1.312,0.885,60.000,64572.000,1.000
12.224,13.123,7.741,11.560,15.350,21.624,27.653,16.372,-0.160,0.942,-0.341,-1.953,-1.434,0.916,60.000,64573.000,1.000
3.346,5.296,3.771,5.319,8.728,15.985,19.343,10.939,-0.158,0.941,-0.343,-1.831,-1.648,0.916,60.000,64574.000,1.000
-9.384,-5.857,-2.026,-3.008,-1.150,6.548,6.704,2.149,-0.158,0.943,-0.342,-1.770,-1.678,0.824,60.000,64575.000,1.000
-21.203,-15.798,-7.148,-9.972,-9.729,-2.555,-4.893,-5.338,-0.156,0.941,-0.342,-1.709,-1.770,0.854,60.000,64576.000,1.000
-28.626,-21.271,-9.999,-13.480,-13.741,-8.196,-11.418,-8.440,-0.155,0.944,-0.341,-1.678,-1.648,0.793,60.000,64577.000,1.000
-30.525,-21.642,-10.429,-13.386,-12.602,-9.634,-12.123,-7.072,-0.155,0.947,-0.340,-1.709,-1.709,0.885,60.000,64578.000,1.000
-27.905,-18.628,-9.459,-11.089,-8.247,-8.463,-9.503,-3.549,-0.154,0.948,-0.341,-1.770,-1.862,0.763,60.000,64579.000,1.000
-23.481,-15.197,-8.585,-8.648,-3.887,-7.328,-7.402,-0.797,-0.154,0.948,-0.343,-1.862,-1.862,0.793,60.000,64580.000,1.000
-19.569,-13.406,-8.712,-7.352,-1.811,-7.856,-7.867,-0.324,-0.153,0.946,-0.344,-1.801,-1.770,0.885,60.000,64581.000,1.000
-17.230,-13.386,-9.802,-7.435,-2.397,-9.928,-10.523,-2.008,-0.152,0.947,-0.343,-1.923,-1.862,0.946,60.000,64582.000,1.000
-15.798,-13.471,-10.890,-8.191,-4.276,-12.123,-13.547,-4.716,-0.156,0.947,-0.345,-1.984,-1.831,1.099,60.000,64583.000,1.000
-13.660,-11.644,-10.660,-8.498,-5.457,-12.933,-15.141,-6.868,-0.155,0.947,-0.348,-1.984,-1.770,1.312,60.000,64584.000,1.000
-9.986,-7.299,-8.229,-7.500,-4.620,-11.710,-14.551,-6.932,-0.156,0.952,-0.348,-2.045,-1.740,1.465,60.000,64585.000,1.000
-4.593,-1.084,-3.210,-4.509,-1.255,-8.314,-11.467,-3.682,-0.158,0.954,-0.348,-2.258,-1.831,1.831,60.000,64586.000,1.000
2.182,5.983,4.276,0.846,4.576,-2.738,-5.891,3.194,-0.160,0.958,-0.345,-2.380,-2.014,2.197,60.000,64587.000,1.000
10.118,13.295,13.420,8.388,12.426,4.726,1.787,12.633,-0.161,0.963,-0.343,-2.686,-2.258,2.686,60.000,64588.000,1.000
18.817,20.339,22.520,16.807,20.999,12.777,10.280,22.096,-0.162,0.967,-0.342,-3.082,-2.411,3.235,60.000,64589.000,1.000
26.983,26.200,29.688,23.850,28.154,19.332,17.395,28.594,-0.164,0.968,-0.342,-3.387,-2.655,3.876,60.000,64590.000,1.000
33.184,29.894,33.838,27.716,32.047,22.832,21.482,30.374,-0.170,0.966,-0.344,-3.723,-2.869,4.700,60.000,64591.000,1.000
35.922,30.334,34.359,27.542,31.611,22.590,21.741,27.167,-0.175,0.964,-0.343,-4.028,-3.204,5.524,60.000,64592.000,1.000
34.763,27.153,31.020,23.607,26.845,18.882,18.404,19.879,-0.179,0.963,-0.341,-4.242,-3.754,6.256,60.000,64593.000,1.000
30.705,21.228,24.445,17.111,18.838,12.868,12.682,10.212,-0.185,0.961,-0.340,-4.364,-4.272,6.897,60.000,64594.000,1.000
24.999,14.012,16.255,9.699,9.374,6.208,6.187,0.234,-0.189,0.960,-0.342,-4.517,-4.883,7.538,60.000,64595.000,1.000
19.191,7.199,8.569,3.316,0.641,0.752,0.900,-7.991,-0.193,0.961,-0.340,-4.730,-5.615,8.179,60.000,64596.000,1.000
14.822,2.405,3.055,-0.521,-5.396,-1.958,-1.357,-13.189,-0.194,0.964,-0.339,-5.005,-6.439,8.881,60.000,64597.000,1.000
13.276,0.954,0.536,-1.092,-7.478,-0.994,0.603,-15.113,-0.191,0.967,-0.333,-5.280,-7.172,9.521,60.000,64598.000,1.000
14.122,2.425,0.211,0.792,-6.437,2.415,5.218,-14.873,-0.189,0.970,-0.328,-5.768,-7.935,10.254,60.000,64599.000,1.000
13.809,3.612,-0.623,2.436,-5.966,4.012,7.010,-14.986,-0.184,0.971,-0.330,-6.409,-8.667,10.864,60.000,64600.000,1.000
8.720,0.939,-4.569,1.129,-9.951,-0.401,0.933,-17.720,-0.184,0.971,-0.333,-6.866,-9.216,11.719,60.000,64601.000,1.000
-1.420,-6.281,-11.769,-3.573,-18.807,-11.004,-12.816,-23.131,-0.184,0.968,-0.337,-7.172,-10.010,12.421,60.000,64602.000,1.000
-12.553,-14.728,-19.344,-8.985,-28.449,-23.237,-28.282,-28.329,-0.186,0.967,-0.337,-7.416,-10.773,13.092,60.000,64603.000,1.000
-20.323,-20.383,-23.866,-11.715,-33.845,-31.464,-38.361,-29.497,-0.186,0.964,-0.341,-7.660,-11.658,13.916,60.000,64604.000,1.000
-25.028,-22.868,-24.476,-11.025,-33.589,-33.237,-40.064,-25.123,-0.189,0.964,-0.339,-7.843,-12.512,14.587,60.000,64605.000,1.000
-29.604,-24.579,-23.034,-8.785,-30.005,-29.871,-34.846,-16.978,-0.188,0.964,-0.334,-7.874,-13.153,15.320,60.000,64606.000,1.000
-34.753,-26.732,-22.033,-7.241,-25.942,-24.543,-26.062,-8.631,-0.187,0.964,-0.330,-7.843,-13.885,16.083,60.000,64607.000,1.000
-37.708,-27.902,-22.653,-7.229,-22.395,-20.205,-16.675,-2.690,-0.192,0.969,-0.328,-8.209,-14.832,16.632,60.000,64608.000,1.000
-37.280,-27.195,-24.690,-8.689,-19.511,-18.864,-9.507,0.386,-0.193,0.970,-0.327,-8.881,-15.991,17.334,60.000,64609.000,1.000
-37.324,-26.650,-27.191,-11.576,-18.138,-21.215,-7.434,1.493,-0.190,0.967,-0.326,-9.552,-16.968,18.097,60.000,64610.000,1.000
-40.917,-27.816,-28.324,-14.710,-18.191,-25.568,-10.295,2.636,-0.194,0.965,-0.326,-10.010,-17.639,18.738,60.000,64611.000,1.000
-44.134,-27.855,-25.863,-15.225,-16.891,-28.353,-13.746,6.649,-0.195,0.959,-0.327,-10.193,-18.524,19.501,60.000,64612.000,1.000
-39.009,-21.728,-18.970,-10.771,-10.847,-26.672,-12.732,15.094,-0.190,0.949,-0.329,-10.437,-19.440,20.264,60.000,64613.000,1.000
-24.559,-9.567,-10.017,-3.157,-0.909,-21.110,-6.871,25.444,-0.189,0.944,-0.326,-10.345,-20.477,20.874,60.000,64614.000,1.000
-11.131,0.855,-3.483,2.018,6.955,-15.500,-1.342,32.252,-0.184,0.939,-0.328,-10.223,-21.637,21.423,60.000,64615.000,1.000
-9.281,1.977,-2.172,0.917,7.471,-13.140,-0.941,32.125,-0.178,0.937,-0.327,-10.071,-22.522,21.973,60.000,64616.000,1.000
-17.814,-5.256,-5.300,-5.042,1.357,-14.179,-5.318,25.962,-0.172,0.937,-0.326,-9.857,-23.132,22.461,60.000,64617.000,1.000
-25.501,-12.684,-9.973,-11.367,-5.895,-16.497,-10.259,17.046,-0.165,0.937,-0.321,-9.674,-23.529,23.132,60.000,64618.000,1.000
-25.212,-14.801,-14.299,-15.690,-10.362,-18.594,-12.873,8.123,-0.164,0.938,-0.322,-9.399,-24.048,24.048,60.000,64619.000,1.000
-22.313,-14.754,-18.502,-19.468,-12.993,-20.608,-13.874,0.582,-0.159,0.939,-0.320,-9.216,-24.506,24.597,60.000,64620.000,1.000
-25.510,-18.440,-23.124,-24.169,-15.657,-22.530,-14.245,-4.541,-0.159,0.944,-0.324,-9.003,-25.085,25.116,60.000,64621.000,1.000
-34.399,-25.796,-27.508,-28.135,-16.632,-23.286,-12.958,-6.593,-0.159,0.948,-0.326,-8.820,-25.787,25.146,60.000,64622.000,1.000
-39.173,-30.243,-29.837,-27.757,-11.644,-21.415,-8.058,-5.592,-0.155,0.953,-0.327,-8.484,-26.428,24.841,60.000,64623.000,1.000
-32.783,-26.889,-28.448,-21.570,0.544,-16.157,0.757,-1.927,-0.151,0.956,-0.322,-8.270,-26.794,24.963,60.000,64624.000,1.000
-19.696,-18.634,-22.846,-12.120,15.188,-7.685,11.191,4.038,-0.146,0.958,-0.314,-8.179,-27.100,25.635,60.000,64625.000,1.000
-8.673,-11.517,-13.271,-2.858,25.874,3.542,20.716,12.091,-0.144,0.955,-0.311,-8.423,-27.496,26.337,60.000,64626.000,1.000
-0.997,-6.359,-0.483,5.078,30.540,16.460,28.257,21.226,-0.140,0.955,-0.311,-8.698,-27.740,26.917,60.000,64627.000,1.000
10.123,1.712,13.488,12.245,31.643,28.517,33.627,28.946,-0.139,0.952,-0.312,-8.850,-27.863,27.374,60.000,64628.000,1.000
27.315,14.324,24.607,17.294,29.872,35.476,35.221,31.754,-0.135,0.951,-0.317,-8.789,-28.046,27.771,60.000,64629.000,1.000
41.480,24.292,28.570,16.253,20.734,33.583,29.531,27.192,-0.131,0.948,-0.319,-8.606,-28.381,27.863,60.000,64630.000,1.000
41.948,23.044,24.508,7.353,0.567,23.350,15.284,16.279,-0.125,0.949,-0.321,-8.240,-28.595,28.168,60.000,64631.000,1.000
30.215,11.556,16.274,-5.281,-25.793,10.437,-2.972,3.296,-0.120,0.946,-0.320,-7.996,-28.748,28.473,60.000,64632.000,1.000
19.559,0.887,9.771,-14.068,-46.137,2.285,-16.520,-6.818,-0.117,0.948,-0.317,-7.812,-28.870,28.809,60.000,64633.000,1.000
19.672,0.478,8.378,-14.693,-51.083,2.684,-19.789,-11.500,-0.116,0.949,-0.319,-7.721,-28.961,28.992,60.000,64634.000,1.000
25.834,8.273,10.927,-9.375,-41.746,9.294,-15.618,-11.589,-0.110,0.947,-0.319,-7.477,-28.992,28.961,60.000,64635.000,1.000
27.340,14.946,14.005,-2.928,-26.384,16.767,-11.378,-9.708,-0.108,0.948,-0.313,-7.141,-28.961,28.656,60.000,64636.000,1.000
21.480,14.993,15.029,2.118,-12.265,21.227,-12.193,-8.584,-0.107,0.948,-0.318,-6.897,-28.778,28.534,60.000,64637.000,1.000
15.950,11.339,13.961,6.553,-1.541,22.240,-17.658,-9.489,-0.105,0.951,-0.320,-6.744,-28.656,28.442,60.000,64638.000,1.000
18.264,9.649,13.167,12.091,7.048,21.734,-23.191,-11.043,-0.102,0.953,-0.317,-6.714,-28.473,28.503,60.000,64639.000,1.000
26.746,11.286,15.606,18.965,14.942,21.933,-23.556,-9.973,-0.099,0.956,-0.315,-6.775,-28.351,28.534,60.000,64640.000,1.000
34.819,14.225,22.541,26.086,23.081,24.263,-15.277,-3.888,-0.098,0.958,-0.309,-7.111,-28.107,28.717,60.000,64641.000,1.000
39.913,18.254,32.146,32.053,32.318,28.752,1.395,5.924,-0.096,0.964,-0.307,-7.294,-27.924,28.564,60.000,64642.000,1.000
44.999,25.605,40.219,35.552,42.477,33.809,21.604,14.902,-0.094,0.968,-0.311,-7.629,-27.771,28.290,60.000,64643.000,1.000
50.860,35.259,42.249,34.728,50.303,36.486,37.081,18.292,-0.093,0.966,-0.309,-7.843,-27.496,28.259,60.000,64644.000,1.000
51.610,40.683,36.403,28.104,50.772,34.501,40.915,14.610,-0.092,0.965,-0.312,-8.026,-27.130,28.137,60.000,64645.000,1.000
42.128,36.893,25.776,17.482,42.540,28.852,33.570,7.134,-0.091,0.966,-0.312,-8.209,-27.069,27.832,60.000,64646.000,1.000
25.865,27.152,16.519,7.866,30.288,23.143,22.492,1.064,-0.090,0.965,-0.310,-8.392,-26.886,27.679,60.000,64647.000,1.000
12.899,20.331,13.193,3.690,20.517,20.336,15.777,-0.954,-0.089,0.963,-0.310,-8.331,-26.672,27.557,60.000,64648.000,1.000
9.982,21.564,15.615,4.873,15.289,20.021,15.769,-0.588,-0.090,0.964,-0.310,-8.301,-26.489,27.313,60.000,64649.000,1.000
14.523,27.462,20.089,7.182,11.533,19.114,18.466,-1.389,-0.094,0.964,-0.310,-8.301,-26.520,27.130,60.000,64650.000,1.000
20.139,31.329,23.457,7.083,6.931,15.706,19.465,-4.835,-0.096,0.967,-0.308,-8.362,-26.581,26.764,60.000,64651.000,1.000
24.418,30.077,25.363,5.042,4.459,11.541,18.734,-9.241,-0.098,0.966,-0.307,-8.301,-26.672,26.520,60.000,64652.000,1.000
30.235,25.188,27.196,4.247,10.077,10.616,19.940,-11.642,-0.097,0.969,-0.304,-8.301,-26.581,26.459,60.000,64653.000,1.000
39.523,18.445,29.176,6.219,25.195,14.701,25.200,-10.989,-0.097,0.969,-0.306,-8.362,-26.703,26.489,60.000,64654.000,1.000
48.108,9.264,29.327,8.492,42.631,20.870,31.527,-9.496,-0.093,0.968,-0.308,-8.514,-26.825,26.550,60.000,64655.000,1.000
49.764,-2.565,25.759,7.395,52.032,24.503,34.025,-10.256,-0.088,0.969,-0.308,-8.484,-26.917,26.550,60.000,64656.000,1.000
42.946,-13.488,18.778,1.799,48.358,23.541,30.722,-14.476,-0.086,0.968,-0.308,-8.240,-26.886,26.611,60.000,64657.000,1.000
32.547,-17.120,10.758,-5.926,34.679,19.427,24.012,-20.926,-0.085,0.971,-0.305,-8.057,-26.886,26.581,60.000,64658.000,1.000
24.205,-10.555,3.846,-12.680,17.630,14.190,17.414,-27.790,-0.085,0.971,-0.304,-7.965,-26.886,26.550,60.000,64659.000,1.000
18.353,1.156,-1.810,-17.461,2.047,8.103,11.955,-34.332,-0.083,0.972,-0.301,-7.935,-26.947,26.581,60.000,64660.000,1.000
12.370,9.678,-6.607,-20.340,-9.448,1.467,7.294,-39.783,-0.083,0.976,-0.296,-7.782,-27.008,26.520,60.000,64661.000,1.000
5.779,11.746,-9.388,-20.357,-14.705,-3.182,4.122,-41.831,-0.083,0.977,-0.294,-7.874,-26.947,26.550,60.000,64662.000,1.000
2.096,11.794,-7.921,-15.678,-12.353,-2.397,4.377,-37.691,-0.083,0.973,-0.294,-8.026,-27.100,26.733,60.000,64663.000,1.000
4.623,15.930,-1.896,-6.527,-4.634,3.980,8.490,-27.810,-0.081,0.969,-0.297,-7.965,-27.283,26.611,60.000,64664.000,1.000
11.330,24.624,5.487,3.064,1.805,11.101,13.000,-17.498,-0.075,0.966,-0.302,-7.812,-27.435,26.581,60.000,64665.000,1.000
16.148,32.874,9.909,8.045,0.464,13.102,13.117,-13.072,-0.071,0.960,-0.301,-7.812,-27.496,26.520,60.000,64666.000,1.000
14.100,36.376,9.453,6.469,-9.521,8.369,7.312,-16.920,-0.067,0.958,-0.296,-7.721,-27.466,26.459,60.000,64667.000,1.000
6.018,36.424,5.940,1.174,-22.338,0.705,-0.853,-26.060,-0.062,0.961,-0.293,-7.507,-27.405,26.428,60.000,64668.000,1.000
-2.355,37.501,3.100,-2.477,-29.748,-4.498,-6.230,-34.524,-0.058,0.962,-0.291,-7.507,-27.039,26.581,60.000,64669.000,1.000
-6.042,41.162,3.740,-0.338,-26.527,-4.427,-6.816,-36.986,-0.059,0.961,-0.295,-7.385,-26.855,26.550,60.000,64670.000,1.000
-4.723,44.201,7.998,8.337,-13.226,0.103,-4.195,-31.527,-0.060,0.962,-0.292,-7.202,-26.611,26.215,60.000,64671.000,1.000
-2.905,41.696,13.032,20.423,4.337,5.543,-1.642,-20.834,-0.059,0.964,-0.295,-7.141,-26.581,25.848,60.000,64672.000,1.000
-5.038,31.490,15.047,31.070,18.815,7.994,-1.517,-10.065,-0.057,0.963,-0.295,-7.050,-26.642,25.482,60.000,64673.000,1.000
-11.307,15.487,11.828,36.427,24.975,5.294,-4.384,-3.429,-0.054,0.963,-0.294,-7.019,-26.520,25.238,60.000,64674.000,1.000
-19.100,-2.551,3.591,34.477,20.826,-2.841,-10.418,-2.683,-0.051,0.962,-0.294,-6.897,-26.215,25.269,60.000,64675.000,1.000
-26.328,-18.688,-7.434,25.220,7.861,-15.139,-19.425,-7.056,-0.049,0.963,-0.289,-6.714,-26.093,25.299,60.000,64676.000,1.000
-32.334,-28.961,-17.467,11.432,-8.841,-28.175,-29.046,-13.288,-0.053,0.965,-0.284,-6.683,-25.879,25.421,60.000,64677.000,1.000
-33.932,-29.429,-21.436,-0.781,-22.502,-35.813,-33.719,-15.689,-0.058,0.969,-0.288,-7.172,-26.093,25.543,60.000,64678.000,1.000
-23.683,-18.684,-15.467,-5.320,-30.649,-32.128,-28.981,-8.732,-0.054,0.970,-0.291,-7.385,-26.245,25.269,60.000,64679.000,1.000
4.290,0.032,-0.369,-1.326,-39.437,-16.341,-17.656,8.754,-0.052,0.969,-0.286,-7.294,-26.245,24.811,60.000,64680.000,1.000
46.572,20.874,17.951,5.966,-58.876,5.478,-9.117,31.909,-0.050,0.972,-0.281,-7.111,-26.123,24.261,60.000,64681.000,1.000
88.157,38.462,31.389,9.197,-92.714,23.325,-12.440,51.596,-0.046,0.973,-0.282,-7.294,-26.001,23.956,60.000,64682.000,1.000
111.383,50.025,34.279,4.544,-131.988,29.514,-28.787,59.368,-0.047,0.974,-0.278,-7.416,-25.879,23.712,60.000,64683.000,1.000
108.552,55.919,26.455,-5.820,-158.749,23.219,-49.422,52.520,-0.045,0.977,-0.281,-7.568,-25.696,23.499,60.000,64684.000,1.000
85.821,58.037,12.505,-16.235,-158.053,9.595,-61.653,35.163,-0.041,0.978,-0.282,-7.782,-25.635,23.285,60.000,64685.000,1.000
56.234,56.905,-1.735,-22.107,-128.652,-4.496,-58.148,14.842,-0.041,0.978,-0.284,-7.935,-25.604,23.163,60.000,64686.000,1.000
28.640,50.066,-12.649,-23.005,-83.949,-14.414,-42.734,-2.288,-0.037,0.980,-0.281,-7.935,-25.604,22.888,60.000,64687.000,1.000
4.941,35.677,-19.248,-21.116,-41.635,-18.703,-25.697,-13.131,-0.032,0.983,-0.279,-7.935,-25.391,22.614,60.000,64688.000,1.000
-14.595,17.109,-21.903,-17.849,-11.498,-18.514,-13.898,-16.839,-0.030,0.983,-0.279,-8.118,-25.116,22.583,60.000,64689.000,1.000
-27.850,1.486,-21.717,-13.156,7.708,-16.589,-6.984,-14.390,-0.025,0.984,-0.280,-8.301,-24.841,22.461,60.000,64690.000,1.000
-33.765,-7.112,-20.699,-7.717,21.236,-15.922,-2.169,-8.744,-0.024,0.984,-0.280,-8.514,-24.475,22.217,60.000,64691.000,1.000
-37.862,-12.282,-21.821,-4.830,30.175,-19.099,-1.058,-4.446,-0.023,0.983,-0.280,-8.606,-24.261,21.881,60.000,64692.000,1.000
-48.529,-20.421,-26.723,-7.240,32.974,-26.535,-7.245,-4.452,-0.024,0.982,-0.280,-8.606,-24.109,21.637,60.000,64693.000,1.000
-66.415,-32.056,-32.980,-12.199,33.088,-34.549,-17.323,-6.839,-0.026,0.979,-0.278,-8.698,-23.804,21.423,60.000,64694.000,1.000
-81.833,-40.580,-35.200,-12.389,40.033,-37.039,-19.694,-6.175,-0.026,0.977,-0.278,-8.728,-23.651,21.271,60.000,64695.000,1.000
-85.038,-39.745,-29.975,-3.097,60.667,-30.681,-5.501,1.048,-0.023,0.977,-0.277,-8.728,-23.468,21.210,60.000,64696.000,1.000
-78.834,-31.663,-19.903,11.757,90.316,-18.983,19.990,12.079,-0.019,0.975,-0.277,-8.698,-23.041,21.362,60.000,64697.000,1.000
-75.838,-25.073,-11.425,22.803,115.503,-9.594,41.499,20.088,-0.020,0.975,-0.279,-8.728,-22.705,21.362,60.000,64698.000,1.000
-83.406,-26.061,-8.856,24.177,126.017,-7.550,48.990,20.571,-0.020,0.974,-0.278,-8.789,-22.614,21.240,60.000,64699.000,1.000
-95.850,-33.038,-11.475,17.986,123.019,-12.044,45.574,14.800,-0.020,0.973,-0.277,-8.606,-22.522,20.935,60.000,64700.000,1.000
-102.452,-41.253,-15.894,10.501,115.310,-18.995,41.066,7.396,-0.017,0.976,-0.280,-8.331,-22.430,20.477,60.000,64701.000,1.000
-101.186,-49.770,-20.056,5.135,108.935,-25.452,40.311,1.407,-0.012,0.976,-0.276,-8.057,-22.247,20.203,60.000,64702.000,1.000
-99.484,-60.455,-23.916,0.744,102.530,-30.514,40.716,-3.055,-0.010,0.977,-0.274,-7.965,-22.003,20.050,60.000,64703.000,1.000
-102.651,-71.758,-27.529,-4.513,91.972,-33.564,38.812,-6.640,-0.008,0.980,-0.270,-7.965,-21.606,19.867,60.000,64704.000,1.000
-106.461,-77.190,-29.864,-9.846,76.859,-33.512,35.185,-9.026,-0.007,0.983,-0.269,-8.118,-21.362,19.836,60.000,64705.000,1.000
-102.768,-71.210,-29.805,-12.878,60.983,-30.113,32.869,-9.474,-0.002,0.984,-0.271,-8.392,-21.088,20.081,60.000,64706.000,1.000
-91.254,-56.482,-28.138,-13.429,47.257,-25.721,32.116,-8.728,-0.006,0.986,-0.273,-8.636,-20.569,20.264,60.000,64707.000,1.000
-79.902,-42.673,-26.906,-13.644,35.408,-23.687,29.964,-8.521,-0.008,0.983,-0.272,-9.003,-20.416,20.142,60.000,64708.000,1.000
-73.852,-37.222,-26.617,-14.228,25.161,-24.447,25.049,-8.934,-0.008,0.981,-0.269,-9.155,-20.142,19.836,60.000,64709.000,1.000
-68.508,-38.655,-25.228,-12.679,18.887,-24.304,20.313,-7.520,-0.008,0.980,-0.268,-9.247,-19.897,19.714,60.000,64710.000,1.000
-55.530,-39.736,-20.564,-6.418,18.771,-19.113,20.066,-1.854,-0.008,0.983,-0.266,-9.460,-19.745,19.531,60.000,64711.000,1.000
-34.956,-36.409,-13.517,2.615,21.837,-9.214,24.350,6.995,-0.009,0.982,-0.264,-9.888,-19.714,19.440,60.000,64712.000,1.000
-16.237,-30.829,-7.455,8.817,20.701,0.826,28.327,14.948,-0.008,0.981,-0.264,-10.223,-19.501,19.470,60.000,64713.000,1.000
-7.218,-26.410,-4.957,8.185,9.529,6.622,26.317,18.530,-0.008,0.976,-0.262,-10.468,-19.348,19.409,60.000,64714.000,1.000
-5.958,-22.995,-5.934,1.694,-11.016,7.158,15.656,17.394,-0.005,0.972,-0.263,-10.406,-19.409,19.012,60.000,64715.000,1.000
-4.502,-18.464,-8.536,-6.038,-33.676,4.442,-1.318,13.958,0.000,0.971,-0.266,-10.193,-19.379,18.616,60.000,64716.000,1.000
0.125,-14.255,-11.664,-11.416,-49.982,0.523,-19.531,10.551,0.001,0.973,-0.262,-10.193,-19.043,18.524,60.000,64717.000,1.000
3.159,-15.242,-15.700,-14.197,-55.861,-4.033,-34.845,7.767,0.000,0.976,-0.260,-10.223,-18.860,18.402,60.000,64718.000,1.000
-0.324,-23.657,-20.950,-15.843,-52.514,-8.990,-45.400,5.433,-0.002,0.979,-0.260,-10.162,-18.860,17.944,60.000,64719.000,1.000
-8.621,-35.089,-26.119,-16.949,-43.388,-12.914,-50.301,4.201,0.002,0.979,-0.264,-10.101,-18.738,17.517,60.000,64720.000,1.000
-14.598,-41.190,-28.580,-16.581,-31.690,-13.555,-48.333,5.823,0.002,0.981,-0.260,-10.101,-18.585,17.212,60.000,64721.000,1.000
-13.712,-36.940,-26.371,-14.031,-20.615,-9.977,-39.783,11.604,0.001,0.980,-0.259,-10.040,-18.372,17.151,60.000,64722.000,1.000
-7.599,-24.055,-19.372,-9.727,-13.097,-3.080,-27.357,21.431,0.005,0.981,-0.256,-10.162,-18.097,17.090,60.000,64723.000,1.000
-0.176,-7.664,-9.258,-4.937,-10.420,5.325,-14.582,33.651,0.004,0.979,-0.253,-10.284,-17.792,17.365,60.000,64724.000,1.000
6.895,8.693,1.171,-1.407,-11.819,13.016,-4.245,45.228,0.004,0.979,-0.251,-10.254,-17.609,17.273,60.000,64725.000,1.000
14.573,24.644,9.184,-1.037,-15.705,17.719,2.346,52.884,0.005,0.980,-0.258,-10.223,-17.578,16.815,60.000,64726.000,1.000
22.446,40.181,12.966,-5.981,-21.614,17.581,4.367,54.416,0.006,0.980,-0.258,-10.223,-17.456,16.296,60.000,64727.000,1.000
28.054,53.519,12.329,-17.138,-30.207,12.488,1.414,49.948,0.009,0.981,-0.260,-10.040,-17.212,15.930,60.000,64728.000,1.000
30.361,62.205,8.743,-32.071,-41.629,4.752,-5.462,41.902,0.010,0.981,-0.257,-9.766,-16.998,15.594,60.000,64729.000,1.000
31.709,65.644,4.673,-45.233,-54.140,-1.893,-13.549,33.452,0.012,0.981,-0.253,-9.705,-16.785,15.198,60.000,64730.000,1.000
36.102,65.615,2.742,-50.534,-64.054,-4.180,-19.279,27.179,0.012,0.983,-0.254,-9.735,-16.571,14.862,60.000,64731.000,1.000
44.448,63.295,4.378,-44.951,-67.733,-1.487,-20.657,24.029,0.013,0.985,-0.252,-9.735,-16.296,14.557,60.000,64732.000,1.000
53.482,57.587,9.166,-29.948,-63.486,4.017,-18.023,23.310,0.012,0.987,-0.251,-9.644,-16.113,14.038,60.000,64733.000,1.000
59.108,46.704,15.152,-10.217,-52.112,9.240,-12.646,23.427,0.014,0.988,-0.252,-9.796,-15.961,13.519,60.000,64734.000,1.000
59.498,30.365,19.550,8.548,-36.494,11.960,-5.923,22.532,0.014,0.988,-0.250,-9.705,-15.656,13.062,60.000,64735.000,1.000
55.693,10.150,19.797,21.632,-20.973,11.310,0.206,19.118,0.016,0.989,-0.252,-9.705,-15.350,12.756,60.000,64736.000,1.000
48.569,-12.304,14.413,26.037,-10.811,6.901,2.073,12.144,0.021,0.989,-0.250,-9.888,-14.984,12.360,60.000,64737.000,1.000
37.845,-35.063,4.298,21.635,-9.562,-0.842,-3.444,1.885,0.024,0.988,-0.251,-10.071,-14.526,12.115,60.000,64738.000,1.000
24.481,-53.667,-6.529,12.186,-15.499,-9.207,-14.495,-9.049,0.021,0.990,-0.248,-10.162,-14.313,11.993,60.000,64739.000,1.000
12.168,-61.938,-12.543,4.162,-21.572,-13.507,-23.963,-16.412,0.022,0.990,-0.251,-10.254,-14.069,11.505,60.000,64740.000,1.000
5.690,-57.058,-10.348,3.154,-20.455,-10.429,-24.579,-16.953,0.019,0.990,-0.251,-10.315,-13.702,10.986,60.000,64741.000,1.000
6.385,-43.791,-1.520,9.719,-10.569,-1.575,-15.308,-11.183,0.018,0.991,-0.249,-10.498,-13.428,10.651,60.000,64742.000,1.000
11.289,-31.463,8.894,19.561,3.605,7.886,-1.536,-2.760,0.016,0.991,-0.246,-10.681,-13.245,10.345,60.000,64743.000,1.000
16.223,-26.859,16.291,27.604,16.132,13.717,9.962,4.344,0.019,0.991,-0.245,-10.864,-13.000,9.949,60.000,64744.000,1.000
18.515,-30.171,18.941,31.300,23.529,15.164,15.254,7.682,0.018,0.987,-0.246,-11.017,-12.787,9.735,60.000,64745.000,1.000
18.496,-36.169,18.147,31.252,25.498,14.426,15.021,7.088,0.017,0.988,-0.249,-11.139,-12.543,9.369,60.000,64746.000,1.000
18.184,-39.002,16.653,29.400,23.386,14.386,13.075,4.287,0.018,0.988,-0.246,-11.200,-12.329,9.033,60.000,64747.000,1.000
19.391,-36.172,16.563,27.250,18.891,16.720,13.289,1.540,0.018,0.991,-0.241,-11.200,-12.177,8.850,60.000,64748.000,1.000
21.914,-29.705,17.525,24.775,13.052,20.480,15.945,-0.614,0.016,0.993,-0.237,-11.414,-11.963,8.759,60.000,64749.000,1.000
23.305,-24.013,17.069,20.636,5.923,22.410,16.886,-3.992,0.016,0.994,-0.238,-11.719,-11.627,8.545,60.000,64750.000,1.000
22.188,-21.679,13.720,14.325,-2.046,20.150,12.640,-9.860,0.021,0.990,-0.237,-11.963,-11.414,8.423,60.000,64751.000,1.000
19.889,-21.723,8.999,7.271,-9.222,14.643,4.860,-16.559,0.018,0.993,-0.235,-12.177,-11.078,8.423,60.000,64752.000,1.000
19.288,-20.764,6.145,1.901,-13.640,9.203,-1.199,-20.649,0.018,0.995,-0.233,-12.512,-10.834,8.301,60.000,64753.000,1.000
22.030,-15.626,6.983,-0.495,-14.623,6.401,-2.424,-20.312,0.020,0.997,-0.232,-12.848,-10.773,7.935,60.000,64754.000,1.000
26.608,-5.688,10.340,-0.984,-13.400,6.219,-1.034,-17.083,0.021,0.993,-0.235,-13.275,-10.559,7.751,60.000,64755.000,1.000
30.386,6.632,13.483,-1.553,-12.098,6.987,-1.266,-13.839,0.022,0.990,-0.234,-13.458,-10.284,7.690,60.000,64756.000,1.000
31.836,16.586,14.278,-3.211,-12.623,6.950,-5.189,-12.128,0.021,0.987,-0.236,-13.397,-10.162,7.568,60.000,64757.000,1.000
31.559,19.760,12.484,-5.200,-15.472,5.553,-11.429,-11.332,0.019,0.983,-0.236,-13.245,-10.040,7.446,60.000,64758.000,1.000
31.037,15.259,9.337,-6.064,-19.496,3.467,-17.269,-10.365,0.022,0.983,-0.235,-13.092,-9.949,7.294,60.000,64759.000,1.000
30.504,6.578,6.258,-5.171,-22.975,1.560,-21.493,-9.592,0.018,0.983,-0.234,-12.878,-9.735,7.233,60.000,64760.000,1.000
29.820,-0.382,4.480,-2.619,-24.427,0.628,-23.962,-9.756,0.017,0.984,-0.231,-12.573,-9.644,7.050,60.000,64761.000,1.000
29.665,-1.335,5.006,1.235,-23.149,1.408,-24.262,-10.070,0.017,0.986,-0.231,-12.238,-9.460,7.050,60.000,64762.000,1.000
31.381,3.863,8.227,6.024,-19.276,4.315,-21.616,-8.502,0.018,0.987,-0.230,-12.207,-9.308,6.958,60.000,64763.000,1.000
34.944,11.799,13.051,10.926,-13.646,8.807,-16.317,-4.254,0.016,0.987,-0.231,-12.115,-9.216,6.836,60.000,64764.000,1.000
37.886,18.621,17.061,14.389,-7.483,13.489,-10.490,0.932,0.018,0.989,-0.229,-12.024,-9.216,6.714,60.000,64765.000,1.000
37.864,22.850,18.217,15.187,-1.984,17.123,-6.261,4.463,0.018,0.989,-0.229,-11.902,-9.033,6.683,60.000,64766.000,1.000
34.057,24.335,15.900,13.003,1.350,18.669,-4.783,4.757,0.022,0.987,-0.228,-11.719,-8.972,6.470,60.000,64767.000,1.000
27.154,22.637,10.896,8.513,1.231,17.389,-5.944,1.966,0.021,0.987,-0.228,-11.597,-8.759,6.683,60.000,64768.000,1.000
18.681,17.735,4.642,2.941,-2.069,13.394,-8.404,-2.644,0.022,0.989,-0.227,-11.536,-8.545,6.866,60.000,64769.000,1.000
9.782,11.017,-1.637,-2.660,-6.364,7.703,-10.636,-7.916,0.021,0.992,-0.227,-11.658,-8.423,6.592,60.000,64770.000,1.000
1.537,4.640,-7.090,-7.710,-8.972,1.809,-11.543,-13.061,0.022,0.992,-0.228,-11.627,-8.514,6.165,60.000,64771.000,1.000
-4.629,0.368,-11.248,-13.091,-9.661,-3.294,-11.292,-17.474,0.019,0.994,-0.227,-11.566,-8.331,5.981,60.000,64772.000,1.000
-6.044,1.422,-13.351,-20.860,-11.690,-6.843,-10.946,-20.022,0.018,0.993,-0.224,-11.536,-8.240,5.829,60.000,64773.000,1.000
0.315,13.674,-11.853,-31.613,-18.726,-7.296,-10.983,-18.919,0.015,0.992,-0.219,-11.475,-8.179,5.585,60.000,64774.000,1.000
14.704,41.356,-5.363,-42.387,-30.255,-2.905,-10.650,-13.131,0.014,0.992,-0.220,-11.658,-8.240,5.554,60.000,64775.000,1.000
33.835,81.565,5.867,-48.023,-40.858,6.432,-8.245,-3.552,0.014,0.994,-0.218,-11.719,-8.270,5.402,60.000,64776.000,1.000
52.054,123.204,19.248,-45.149,-45.077,17.986,-2.799,7.024,0.015,0.992,-0.214,-11.810,-8.240,5.219,60.000,64777.000,1.000
64.087,151.739,30.814,-34.108,-41.423,27.399,4.954,15.095,0.015,0.993,-0.214,-12.054,-8.240,5.280,60.000,64778.000,1.000
66.792,156.115,36.695,-18.323,-31.839,30.781,12.410,17.594,0.015,0.994,-0.215,-12.115,-8.240,5.157,60.000,64779.000,1.000
59.076,133.960,34.486,-2.701,-19.558,26.495,15.806,12.847,0.020,0.993,-0.213,-12.207,-8.240,5.066,60.000,64780.000,1.000
42.883,93.017,24.677,8.757,-7.705,16.388,13.095,1.808,0.023,0.993,-0.213,-12.238,-7.996,5.188,60.000,64781.000,1.000
22.954,46.994,10.735,14.491,1.623,4.768,5.565,-12.008,0.023,0.992,-0.214,-12.268,-7.996,5.219,60.000,64782.000,1.000
4.974,8.458,-2.487,15.833,8.604,-4.135,-2.720,-23.982,0.024,0.992,-0.216,-12.329,-8.057,4.974,60.000,64783.000,1.000
-7.645,-16.708,-11.548,15.549,15.157,-8.489,-7.449,-30.912,0.022,0.994,-0.215,-12.207,-7.996,4.761,60.000,64784.000,1.000
-15.899,-29.714,-16.291,15.135,22.434,-9.362,-7.100,-32.868,0.023,0.995,-0.216,-12.054,-7.996,4.425,60.000,64785.000,1.000
-22.741,-34.972,-18.739,14.220,29.609,-8.896,-3.092,-32.040,0.023,0.995,-0.216,-11.810,-7.904,4.211,60.000,64786.000,1.000
-29.747,-36.956,-20.529,12.364,35.105,-8.374,1.909,-30.267,0.025,0.993,-0.216,-11.749,-7.782,4.028,60.000,64787.000,1.000
-35.366,-38.488,-21.205,11.134,38.856,-7.277,6.461,-27.516,0.026,0.991,-0.214,-11.688,-7.751,3.906,60.000,64788.000,1.000
-36.958,-40.263,-19.259,13.089,42.244,-4.315,10.931,-22.851,0.028,0.993,-0.213,-11.688,-7.568,3.784,60.000,64789.000,1.000
-34.703,-41.820,-14.544,18.650,45.797,0.387,15.433,-16.637,0.028,0.995,-0.208,-11.658,-7.294,3.662,60.000,64790.000,1.000
-31.406,-42.755,-8.847,25.458,48.363,4.903,19.075,-10.791,0.030,0.997,-0.208,-11.719,-7.050,3.510,60.000,64791.000,1.000
-30.003,-43.950,-4.685,30.355,48.304,6.884,20.596,-7.424,0.027,0.997,-0.205,-11.871,-6.958,3.265,60.000,64792.000,1.000
-31.415,-47.385,-3.633,31.861,45.352,5.229,19.550,-7.314,0.026,0.995,-0.204,-11.993,-6.714,3.235,60.000,64793.000,1.000
-34.939,-54.348,-5.666,30.438,40.975,0.369,16.458,-9.693,0.029,0.993,-0.203,-11.902,-6.592,3.082,60.000,64794.000,1.000
-39.947,-63.259,-9.381,27.014,37.040,-6.123,12.198,-13.052,0.025,0.991,-0.202,-11.932,-6.378,3.021,60.000,64795.000,1.000
-45.430,-69.299,-12.390,22.572,34.697,-11.537,8.590,-15.517,0.024,0.990,-0.203,-11.902,-6.195,2.869,60.000,64796.000,1.000
-50.092,-68.115,-12.821,18.040,33.808,-13.551,7.462,-15.677,0.025,0.993,-0.199,-11.902,-6.012,2.747,60.000,64797.000,1.000
-52.874,-59.698,-10.812,13.952,33.241,-12.231,8.860,-13.484,0.028,0.995,-0.197,-12.024,-5.890,2.777,60.000,64798.000,1.000
-53.469,-48.230,-8.427,9.953,31.563,-10.050,10.665,-10.536,0.031,0.995,-0.199,-12.115,-5.646,2.594,60.000,64799.000,1.000
-52.441,-38.317,-7.815,5.120,27.901,-9.637,10.303,-9.150,0.030,0.994,-0.199,-12.207,-5.188,2.472,60.000,64800.000,1.000
-49.687,-31.408,-9.038,-0.393,22.961,-11.247,7.776,-10.131,0.029,0.995,-0.196,-12.207,-4.852,2.533,60.000,64801.000,1.000
-44.255,-26.039,-9.990,-4.874,18.788,-12.875,5.686,-11.935,0.027,0.995,-0.195,-11.902,-4.913,2.594,60.000,64802.000,1.000
-34.765,-19.740,-7.980,-5.978,17.674,-12.053,6.943,-11.822,0.025,0.995,-0.193,-11.749,-4.974,2.472,60.000,64803.000,1.000
-20.768,-10.847,-1.826,-2.566,20.638,-7.653,12.429,-8.155,0.023,0.995,-0.196,-11.658,-4.852,2.441,60.000,64804.000,1.000
-4.830,0.005,6.801,3.785,26.152,-0.815,19.800,-2.123,0.024,0.996,-0.195,-11.505,-4.700,2.258,60.000,64805.000,1.000
8.421,9.986,14.204,9.558,30.639,5.601,25.120,3.092,0.026,0.997,-0.194,-11.353,-4.639,2.197,60.000,64806.000,1.000
15.026,15.685,17.054,11.438,30.480,8.575,25.370,4.658,0.024,0.994,-0.194,-11.261,-4.517,1.984,60.000,64807.000,1.000
14.855,16.144,15.035,8.670,24.672,7.300,20.847,2.342,0.023,0.993,-0.193,-11.139,-4.333,1.862,60.000,64808.000,1.000
11.540,14.335,10.846,3.086,15.359,3.778,15.009,-1.631,0.022,0.993,-0.191,-11.047,-4.303,1.709,60.000,64809.000,1.000
8.387,14.538,7.270,-3.243,5.564,0.648,11.089,-5.109,0.022,0.994,-0.186,-10.864,-4.272,1.617,60.000,64810.000,1.000
6.089,18.454,5.149,-9.018,-2.620,-0.676,10.019,-7.268,0.020,0.998,-0.185,-10.803,-4.120,1.343,60.000,64811.000,1.000
3.551,23.985,4.029,-13.108,-8.030,-0.210,10.705,-7.772,0.017,1.000,-0.188,-10.773,-4.150,1.099,60.000,64812.000,1.000
0.470,27.820,3.738,-13.984,-9.698,1.458,11.863,-5.730,0.016,1.001,-0.188,-10.986,-3.998,0.977,60.000,64813.000,1.000
-2.290,27.968,4.289,-10.794,-7.269,3.570,12.938,-0.545,0.011,0.999,-0.185,-11.139,-3.784,0.824,60.000,64814.000,1.000
-4.533,24.436,5.188,-4.653,-1.792,5.231,13.337,6.738,0.007,0.998,-0.184,-11.017,-4.059,0.854,60.000,64815.000,1.000
-6.751,19.074,5.854,1.947,4.621,5.831,12.552,13.958,0.008,0.997,-0.181,-10.834,-4.456,1.007,60.000,64816.000,1.000
-9.956,13.825,5.805,6.155,9.367,5.056,10.478,18.775,0.010,0.995,-0.176,-10.803,-4.639,1.099,60.000,64817.000,1.000
-14.722,9.203,4.579,6.197,10.420,2.971,7.740,19.565,0.011,0.996,-0.175,-11.017,-4.669,1.007,60.000,64818.000,1.000
-20.246,4.571,1.897,2.450,7.341,-0.197,4.904,16.083,0.012,0.997,-0.174,-11.230,-4.639,0.977,60.000,64819.000,1.000
-24.876,-0.331,-1.918,-2.954,1.508,-4.388,1.408,9.585,0.014,0.996,-0.176,-11.414,-4.700,1.007,60.000,64820.000,1.000
-26.789,-4.445,-5.715,-7.360,-4.528,-9.296,-3.258,2.543,0.016,0.992,-0.178,-11.414,-4.700,1.099,60.000,64821.000,1.000
-25.798,-6.900,-8.480,-9.521,-8.980,-14.370,-8.936,-2.873,0.016,0.990,-0.186,-11.292,-4.730,1.160,60.000,64822.000,1.000
-23.241,-7.811,-9.959,-10.028,-11.715,-18.702,-14.677,-5.795,0.017,0.987,-0.183,-11.261,-4.761,1.404,60.000,64823.000,1.000
-20.134,-7.198,-10.169,-9.984,-13.086,-20.731,-18.429,-6.230,0.016,0.990,-0.181,-11.108,-4.822,1.526,60.000,64824.000,1.000
-16.582,-4.536,-8.962,-9.778,-12.791,-18.957,-18.116,-4.457,0.017,0.994,-0.178,-10.895,-4.791,1.495,60.000,64825.000,1.000
-12.136,0.168,-6.398,-8.963,-10.426,-13.519,-13.235,-1.044,0.021,1.000,-0.175,-10.864,-4.700,1.556,60.000,64826.000,1.000
-7.626,4.710,-3.712,-7.727,-7.246,-7.280,-6.099,2.377,0.024,1.004,-0.168,-10.925,-4.639,1.617,60.000,64827.000,1.000
-5.024,5.594,-2.863,-7.283,-5.843,-4.122,-0.391,3.765,0.023,1.008,-0.171,-11.108,-4.486,1.740,60.000,64828.000,1.000
-5.073,1.307,-4.772,-8.484,-7.625,-5.852,1.609,2.568,0.024,1.008,-0.173,-11.322,-4.303,1.831,60.000,64829.000,1.000
-6.245,-5.734,-8.360,-10.750,-11.280,-10.941,0.061,0.317,0.026,1.003,-0.173,-11.383,-4.120,2.014,60.000,64830.000,1.000
-5.927,-10.949,-11.465,-12.627,-14.094,-16.016,-3.179,-0.738,0.029,0.996,-0.174,-11.353,-3.906,2.167,60.000,64831.000,1.000
-3.667,-11.929,-12.831,-13.695,-14.892,-18.820,-6.953,0.205,0.029,0.995,-0.174,-10.986,-3.662,2.258,60.000,64832.000,1.000
-1.024,-9.595,-12.344,-14.368,-14.318,-18.919,-10.941,2.573,0.029,0.991,-0.176,-10.773,-3.479,2.075,60.000,64833.000,1.000
1.327,-5.528,-9.993,-14.365,-12.894,-16.404,-13.813,5.975,0.030,0.990,-0.175,-10.437,-3.357,1.923,60.000,64834.000,1.000
4.100,0.179,-5.775,-13.048,-10.519,-11.485,-13.590,10.363,0.028,0.992,-0.172,-10.193,-3.174,2.045,60.000,64835.000,1.000
8.034,8.573,-0.299,-10.783,-7.648,-5.129,-9.538,15.349,0.029,0.993,-0.170,-10.101,-2.930,2.014,60.000,64836.000,1.000
12.017,19.523,4.750,-9.554,-6.219,0.327,-3.726,19.703,0.031,0.996,-0.167,-9.949,-2.686,2.075,60.000,64837.000,1.000
13.991,30.787,7.474,-11.221,-8.262,2.405,0.532,22.056,0.029,0.999,-0.168,-9.888,-2.502,2.045,60.000,64838.000,1.000
12.965,39.104,7.000,-15.491,-13.765,0.445,1.571,21.909,0.030,1.003,-0.171,-9.796,-2.258,1.923,60.000,64839.000,1.000
9.400,42.061,3.985,-19.916,-20.132,-3.810,0.160,19.953,0.032,1.003,-0.171,-9.796,-2.014,2.045,60.000,64840.000,1.000
5.254,39.595,0.484,-21.253,-23.505,-7.138,-1.259,18.052,0.030,1.006,-0.171,-9.796,-1.740,2.075,60.000,64841.000,1.000
1.995,32.924,-1.685,-18.102,-21.988,-7.440,-1.371,17.677,0.028,1.005,-0.168,-9.857,-1.404,2.045,60.000,64842.000,1.000
-0.658,23.243,-2.477,-12.304,-17.478,-5.369,-1.499,18.351,0.026,1.007,-0.166,-10.010,-1.160,1.831,60.000,64843.000,1.000
-3.450,12.410,-3.051,-7.338,-13.655,-3.039,-3.592,18.453,0.023,1.007,-0.168,-9.979,-1.129,1.770,60.000,64844.000,1.000
-5.979,3.519,-3.861,-5.175,-12.254,-1.476,-7.436,17.378,0.018,1.005,-0.167,-10.132,-1.221,1.831,60.000,64845.000,1.000
-6.199,-0.406,-3.797,-4.575,-11.664,0.364,-10.022,16.523,0.015,1.002,-0.167,-10.345,-1.251,1.617,60.000,64846.000,1.000
-2.837,1.143,-1.698,-3.104,-9.511,3.735,-8.765,17.545,0.015,1.001,-0.163,-10.590,-1.282,1.160,60.000,64847.000,1.000
3.157,5.892,2.167,0.260,-5.433,8.467,-3.901,20.552,0.014,1.000,-0.168,-10.773,-1.251,0.732,60.000,64848.000,1.000
9.306,10.406,6.096,4.467,-1.243,13.184,2.323,23.872,0.016,1.002,-0.167,-11.139,-1.160,0.183,60.000,64849.000,1.000
12.733,11.789,8.035,7.444,0.863,16.365,7.324,24.993,0.016,1.004,-0.165,-11.444,-1.129,-0.275,60.000,64850.000,1.000
11.934,8.874,6.780,7.760,-0.049,16.882,9.192,22.133,0.018,1.005,-0.164,-11.902,-1.038,-0.763,60.000,64851.000,1.000
6.803,1.887,2.046,4.861,-3.993,13.234,5.798,14.782,0.021,1.010,-0.162,-12.482,-0.946,-1.129,60.000,64852.000,1.000
-0.981,-7.403,-4.979,-0.534,-9.979,4.638,-3.879,4.337,0.022,1.010,-0.163,-13.092,-0.763,-1.343,60.000,64853.000,1.000
-7.513,-15.274,-11.084,-5.744,-15.041,-6.309,-16.559,-5.430,0.024,1.009,-0.162,-13.336,-0.732,-1.678,60.000,64854.000,1.000
-8.971,-17.728,-12.820,-7.547,-15.294,-14.177,-25.491,-10.263,0.026,1.009,-0.162,-13.489,-0.641,-2.228,60.000,64855.000,1.000
-4.170,-13.095,-9.162,-4.753,-8.899,-14.796,-25.159,-8.255,0.029,1.013,-0.159,-13.947,-0.519,-2.655,60.000,64856.000,1.000
4.211,-3.776,-2.457,0.603,1.788,-8.769,-16.178,-1.444,0.030,1.013,-0.159,-14.496,-0.519,-2.716,60.000,64857.000,1.000
11.957,5.080,3.462,5.276,11.502,-0.593,-4.872,5.383,0.031,1.008,-0.160,-14.771,-0.214,-2.716,60.000,64858.000,1.000
16.648,9.352,6.022,7.333,15.543,5.027,2.110,7.681,0.031,1.004,-0.165,-14.954,-0.153,-2.594,60.000,64859.000,1.000
18.341,8.698,5.205,6.753,12.562,6.066,2.348,3.581,0.029,1.001,-0.159,-14.984,-0.061,-2.472,60.000,64860.000,1.000
19.062,6.166,3.105,5.028,5.191,3.965,-1.372,-5.211,0.028,0.998,-0.157,-15.015,0.000,-2.502,60.000,64861.000,1.000
21.211,5.453,2.190,3.729,-2.223,2.011,-4.303,-14.736,0.029,0.995,-0.156,-14.954,0.183,-2.625,60.000,64862.000,1.000
26.523,9.049,3.742,3.176,-6.592,2.945,-3.332,-21.246,0.030,0.994,-0.154,-14.801,0.336,-2.594,60.000,64863.000,1.000
34.760,16.996,6.845,2.082,-7.838,6.871,1.236,-23.771,0.032,0.992,-0.154,-14.465,0.458,-2.411,60.000,64864.000,1.000
42.596,26.152,8.750,-1.412,-8.443,10.920,5.842,-24.893,0.035,0.991,-0.146,-14.374,0.702,-2.014,60.000,64865.000,1.000
46.099,32.073,7.268,-7.502,-10.814,11.885,6.947,-28.014,0.030,0.992,-0.147,-14.130,0.885,-1.617,60.000,64866.000,1.000
43.498,31.688,2.550,-14.163,-15.225,8.849,3.994,-34.209,0.028,0.995,-0.146,-13.824,1.007,-1.526,60.000,64867.000,1.000
36.383,24.987,-3.192,-18.375,-19.505,3.891,0.014,-41.385,0.026,1.002,-0.146,-13.580,1.068,-1.404,60.000,64868.000,1.000
28.335,14.738,-7.493,-18.106,-20.501,0.551,-0.801,-46.075,0.023,1.001,-0.147,-13.306,1.038,-1.221,60.000,64869.000,1.000
21.798,4.290,-9.400,-13.716,-16.423,1.160,3.019,-46.181,0.024,1.004,-0.147,-13.306,1.160,-1.221,60.000,64870.000,1.000
17.638,-4.061,-9.254,-7.089,-7.824,5.889,9.969,-41.777,0.022,1.006,-0.149,-13.519,1.770,-1.221,60.000,64871.000,1.000
16.080,-9.113,-7.383,-0.232,2.948,13.631,18.033,-34.215,0.019,1.005,-0.143,-13.733,2.106,-1.007,60.000,64872.000,1.000
17.254,-9.996,-3.570,5.531,12.964,23.037,26.296,-25.102,0.013,1.000,-0.138,-13.580,1.862,-0.610,60.000,64873.000,1.000
19.810,-7.115,1.542,9.195,19.338,31.927,33.301,-16.586,0.011,0.998,-0.132,-13.367,1.343,-0.244,60.000,64874.000,1.000
19.672,-3.549,5.272,9.542,19.730,36.626,35.025,-11.751,0.008,0.998,-0.126,-12.970,0.824,0.305,60.000,64875.000,1.000
13.079,-3.687,4.709,6.325,13.811,33.933,27.875,-12.655,0.010,1.000,-0.129,-12.299,0.153,0.763,60.000,64876.000,1.000
-0.033,-10.489,-0.389,1.418,4.253,23.999,13.170,-17.968,0.013,0.999,-0.131,-11.780,-0.214,0.977,60.000,64877.000,1.000
-15.132,-22.933,-6.668,-1.522,-3.805,11.392,-2.121,-22.875,0.014,0.998,-0.135,-11.444,-0.458,1.282,60.000,64878.000,1.000
-26.150,-36.050,-9.784,0.432,-5.703,2.267,-10.388,-22.468,0.013,1.000,-0.135,-11.292,-0.671,1.617,60.000,64879.000,1.000
-30.518,-44.218,-8.051,6.736,-0.785,-0.281,-9.869,-15.783,0.015,1.002,-0.135,-11.230,-0.977,1.892,60.000,64880.000,1.000
-29.855,-44.357,-2.951,14.037,7.587,2.522,-4.569,-5.693,0.015,1.004,-0.134,-11.078,-1.160,2.075,60.000,64881.000,1.000
-27.539,-37.498,2.687,18.795,14.823,7.123,0.526,4.002,0.016,1.004,-0.132,-10.925,-1.312,2.319,60.000,64882.000,1.000
-25.733,-27.957,6.468,19.465,17.754,10.015,2.784,10.996,0.018,1.005,-0.126,-10.925,-1.434,2.655,60.000,64883.000,1.000
-24.512,-20.702,7.300,16.857,15.496,8.919,1.264,14.913,0.016,1.006,-0.126,-11.017,-1.587,2.960,60.000,64884.000,1.000
-23.251,-18.407,5.726,13.008,9.278,3.471,-4.579,16.458,0.014,1.003,-0.127,-11.047,-1.770,3.204,60.000,64885.000,1.000
-21.091,-19.910,3.757,10.104,1.961,-4.310,-13.447,16.918,0.014,1.000,-0.132,-10.925,-2.075,3.357,60.000,64886.000,1.000
-17.819,-21.954,3.297,9.103,-3.781,-11.573,-22.234,17.369,0.013,1.000,-0.132,-10.834,-2.350,3.540,60.000,64887.000,1.000
-14.193,-22.069,4.593,9.208,-7.142,-16.855,-28.409,17.935,0.015,1.000,-0.132,-10.590,-2.533,3.815,60.000,64888.000,1.000
-11.775,-20.455,5.994,8.544,-9.465,-21.050,-32.292,17.598,0.016,0.998,-0.126,-10.406,-2.777,4.059,60.000,64889.000,1.000
-12.342,-19.309,5.565,5.750,-12.736,-26.070,-36.600,15.264,0.016,1.002,-0.128,-10.162,-2.991,4.242,60.000,64890.000,1.000
-15.317,-19.434,3.626,1.998,-16.841,-31.731,-42.137,11.936,0.018,1.005,-0.129,-10.040,-3.082,4.456,60.000,64891.000,1.000
-17.839,-19.121,2.463,0.083,-19.333,-35.409,-46.318,10.235,0.022,1.005,-0.128,-9.888,-3.235,4.639,60.000,64892.000,1.000
-17.408,-16.354,3.543,1.485,-18.052,-34.984,-46.369,11.638,0.023,1.006,-0.126,-9.857,-3.326,4.913,60.000,64893.000,1.000
-13.791,-10.869,6.147,5.041,-13.190,-30.951,-42.143,15.282,0.021,1.008,-0.124,-9.735,-3.326,4.974,60.000,64894.000,1.000
-8.797,-3.916,8.820,8.428,-6.549,-25.182,-35.348,19.492,0.021,1.009,-0.123,-9.705,-3.448,5.066,60.000,64895.000,1.000
-3.903,3.160,11.192,10.613,0.464,-18.513,-27.016,23.898,0.024,1.010,-0.123,-9.766,-3.632,5.249,60.000,64896.000,1.000
0.496,9.411,13.620,11.802,6.779,-10.957,-18.180,28.986,0.025,1.011,-0.121,-9.735,-3.693,5.402,60.000,64897.000,1.000
5.167,15.229,16.343,12.167,10.886,-2.861,-10.940,34.645,0.026,1.010,-0.121,-9.705,-3.723,5.463,60.000,64898.000,1.000
11.161,22.236,19.077,11.140,10.839,4.543,-7.521,39.538,0.027,1.007,-0.120,-9.613,-3.754,5.524,60.000,64899.000,1.000
17.516,30.791,20.501,7.166,4.606,8.884,-9.533,41.130,0.030,1.003,-0.119,-9.338,-3.784,5.463,60.000,64900.000,1.000
21.657,39.384,18.771,-1.388,-8.713,8.136,-16.831,37.183,0.031,0.999,-0.121,-9.125,-3.754,5.463,60.000,64901.000,1.000
21.459,46.493,12.985,-14.600,-27.214,2.679,-27.010,27.451,0.033,0.998,-0.120,-8.911,-3.754,5.463,60.000,64902.000,1.000
17.110,51.568,4.429,-29.329,-45.472,-4.379,-35.907,14.310,0.032,0.994,-0.119,-8.545,-3.632,5.463,60.000,64903.000,1.000
10.657,53.867,-3.983,-40.137,-56.818,-9.435,-39.275,1.601,0.034,0.997,-0.119,-8.362,-3.479,5.432,60.000,64904.000,1.000
3.901,51.964,-9.672,-42.886,-57.334,-10.917,-35.230,-7.626,0.036,0.997,-0.121,-8.057,-3.418,5.280,60.000,64905.000,1.000
-1.646,45.451,-11.539,-36.707,-47.467,-9.305,-24.912,-12.132,0.040,0.996,-0.119,-7.721,-3.204,5.280,60.000,64906.000,1.000
-4.969,35.827,-10.047,-23.713,-30.887,-5.785,-11.884,-12.168,0.042,0.996,-0.118,-7.507,-3.235,5.249,60.000,64907.000,1.000
-6.048,25.792,-6.559,-7.674,-12.146,-1.166,0.019,-8.555,0.043,0.998,-0.117,-7.324,-3.021,5.127,60.000,64908.000,1.000
-6.210,17.300,-2.812,7.048,4.786,3.944,8.822,-2.492,0.045,0.998,-0.115,-6.989,-2.838,5.035,60.000,64909.000,1.000
-7.991,10.001,-0.626,16.519,16.876,8.459,14.544,3.932,0.043,0.999,-0.112,-6.897,-2.686,4.974,60.000,64910.000,1.000
-13.005,2.396,-1.022,19.143,22.827,11.226,18.541,8.335,0.042,0.999,-0.109,-6.622,-2.502,4.791,60.000,64911.000,1.000
-20.877,-6.033,-3.539,16.502,23.754,11.720,21.799,9.301,0.040,1.000,-0.110,-6.439,-2.319,4.425,60.000,64912.000,1.000
-29.099,-13.635,-6.107,12.529,23.032,10.735,24.618,7.589,0.036,1.001,-0.113,-6.226,-2.075,4.242,60.000,64913.000,1.000
-34.007,-17.808,-6.112,11.123,24.344,10.158,27.684,5.808,0.033,0.997,-0.113,-5.981,-2.014,3.998,60.000,64914.000,1.000
-33.225,-17.633,-2.271,13.697,29.086,11.550,31.824,6.263,0.030,1.000,-0.116,-5.920,-1.984,3.723,60.000,64915.000,1.000
-26.777,-14.769,4.382,19.003,35.843,15.122,37.267,9.211,0.032,1.003,-0.117,-5.676,-1.953,3.387,60.000,64916.000,1.000
-17.795,-12.524,10.687,24.137,41.621,19.095,42.485,12.421,0.037,1.002,-0.117,-5.981,-1.648,2.899,60.000,64917.000,1.000
-11.200,-13.617,13.161,26.157,43.768,20.436,44.699,12.791,0.037,1.001,-0.117,-6.256,-0.946,2.380,60.000,64918.000,1.000
-10.464,-18.402,10.339,23.663,41.307,16.992,42.072,8.728,0.033,1.000,-0.109,-6.287,-0.824,2.289,60.000,64919.000,1.000
-15.253,-24.763,3.789,17.507,35.266,9.210,34.955,1.224,0.027,0.997,-0.105,-5.859,-1.404,2.380,60.000,64920.000,1.000
-21.277,-29.255,-2.869,10.582,28.376,0.129,26.221,-6.651,0.028,0.995,-0.106,-5.341,-1.923,2.350,60.000,64921.000,1.000
-24.366,-29.777,-6.698,5.789,23.483,-6.776,19.612,-12.039,0.030,0.996,-0.107,-4.822,-2.014,2.167,60.000,64922.000,1.000
-23.639,-26.957,-7.015,4.362,22.095,-9.387,17.797,-13.920,0.029,0.999,-0.107,-4.486,-1.923,1.709,60.000,64923.000,1.000
-20.466,-22.943,-4.831,5.743,23.902,-7.548,20.994,-12.806,0.028,1.002,-0.105,-4.242,-2.045,1.556,60.000,64924.000,1.000
-16.156,-19.465,-1.680,8.257,27.132,-2.998,26.446,-9.800,0.031,1.004,-0.108,-4.150,-2.075,1.526,60.000,64925.000,1.000
-10.621,-16.686,1.253,10.479,29.806,1.951,30.772,-5.768,0.034,1.007,-0.106,-4.089,-2.106,1.495,60.000,64926.000,1.000
-4.298,-14.169,3.070,11.630,30.514,5.564,32.097,-1.688,0.038,1.007,-0.109,-3.967,-2.075,1.251,60.000,64927.000,1.000
0.847,-12.067,3.256,11.532,28.765,7.153,30.398,1.058,0.039,1.009,-0.110,-3.845,-1.892,1.251,60.000,64928.000,1.000
3.188,-11.260,1.972,10.636,25.006,6.788,26.706,1.316,0.037,1.009,-0.109,-3.693,-1.862,1.099,60.000,64929.000,1.000
3.050,-12.668,-0.252,9.497,20.032,4.505,21.805,-1.180,0.038,1.008,-0.107,-3.693,-1.740,1.099,60.000,64930.000,1.000
2.750,-16.113,-2.891,8.429,14.588,0.436,16.449,-5.528,0.038,1.008,-0.106,-3.632,-1.740,1.068,60.000,64931.000,1.000
3.705,-20.397,-5.613,7.243,9.163,-4.657,11.404,-10.305,0.041,1.008,-0.104,-3.510,-1.648,1.068,60.000,64932.000,1.000
4.968,-23.903,-7.971,5.722,4.282,-9.126,7.368,-13.978,0.040,1.008,-0.106,-3.326,-1.434,1.038,60.000,64933.000,1.000
5.187,-25.253,-9.333,4.043,0.610,-11.183,5.072,-15.234,0.038,1.006,-0.105,-3.265,-1.343,1.068,60.000,64934.000,1.000
4.773,-23.905,-9.213,2.612,-1.396,-10.092,4.781,-13.696,0.038,1.007,-0.105,-3.204,-1.190,1.007,60.000,64935.000,1.000
6.116,-20.104,-7.385,2.088,-1.576,-6.355,6.260,-9.885,0.038,1.006,-0.107,-3.082,-1.099,0.977,60.000,64936.000,1.000
9.818,-15.267,-4.516,2.412,-0.657,-1.771,8.104,-5.319,0.036,1.006,-0.108,-2.930,-0.977,0.916,60.000,64937.000,1.000
12.675,-11.638,-2.282,2.238,-0.257,1.291,8.183,-2.304,0.036,1.006,-0.107,-2.808,-0.885,0.793,60.000,64938.000,1.000
11.077,-10.582,-2.222,0.143,-1.580,1.520,5.762,-2.569,0.035,1.006,-0.105,-2.716,-0.793,0.854,60.000,64939.000,1.000
5.428,-11.152,-4.339,-3.642,-4.035,-0.338,2.420,-5.831,0.033,1.008,-0.101,-2.655,-0.854,0.885,60.000,64940.000,1.000
0.747,-10.546,-6.674,-6.659,-5.296,-1.799,1.047,-9.421,0.032,1.005,-0.102,-2.594,-0.763,0.824,60.000,64941.000,1.000
1.222,-6.971,-6.878,-6.356,-3.521,-0.607,3.045,-10.132,0.031,1.003,-0.103,-2.502,-0.610,0.824,60.000,64942.000,1.000
6.115,-1.278,-4.052,-2.340,0.965,3.646,7.292,-6.463,0.029,1.002,-0.105,-2.350,-0.610,0.702,60.000,64943.000,1.000
11.632,4.138,0.723,3.501,6.156,9.341,11.557,0.545,0.027,1.000,-0.106,-2.167,-0.641,0.641,60.000,64944.000,1.000
14.845,7.262,5.121,8.377,9.879,13.735,13.784,7.937,0.029,1.000,-0.104,-2.045,-0.671,0.702,60.000,64945.000,1.000
15.638,7.462,6.932,10.179,10.763,14.620,13.153,12.541,0.031,0.999,-0.102,-1.923,-0.763,0.732,60.000,64946.000,1.000
14.032,4.449,4.709,7.597,7.775,11.054,9.537,12.058,0.031,1.000,-0.103,-1.770,-0.763,0.641,60.000,64947.000,1.000
8.851,-1.878,-1.501,0.544,0.629,3.662,3.284,6.131,0.031,1.001,-0.104,-1.801,-0.763,0.580,60.000,64948.000,1.000
0.611,-9.739,-9.489,-8.902,-8.780,-5.217,-3.968,-2.894,0.030,1.000,-0.107,-1.740,-0.763,0.549,60.000,64949.000,1.000
-6.611,-15.076,-15.652,-17.032,-16.534,-12.285,-9.579,-11.025,0.031,1.004,-0.107,-1.587,-0.854,0.580,60.000,64950.000,1.000
-7.214,-13.812,-16.929,-20.271,-18.838,-14.506,-10.815,-14.533,0.029,1.004,-0.108,-1.556,-0.824,0.671,60.000,64951.000,1.000
0.213,-5.591,-12.908,-17.651,-14.923,-10.888,-6.820,-12.091,0.030,1.003,-0.105,-1.465,-0.916,0.671,60.000,64952.000,1.000
10.934,5.404,-5.969,-11.342,-7.571,-3.203,0.537,-5.403,0.031,1.005,-0.105,-1.434,-0.946,0.610,60.000,64953.000,1.000
18.669,13.636,0.619,-4.686,-0.708,5.203,8.064,2.250,0.031,1.003,-0.104,-1.404,-0.946,0.549,60.000,64954.000,1.000
20.831,15.986,4.579,-0.071,3.227,11.267,12.943,7.910,0.032,1.006,-0.108,-1.251,-0.977,0.610,60.000,64955.000,1.000
19.740,13.099,5.421,2.047,4.145,13.629,14.382,10.405,0.033,1.007,-0.104,-1.343,-1.007,0.580,60.000,64956.000,1.000
18.316,7.460,3.830,2.137,2.919,12.447,13.205,10.256,0.032,1.008,-0.102,-1.404,-0.916,0.488,60.000,64957.000,1.000
16.977,1.551,1.042,0.733,0.245,8.850,10.609,9.024,0.033,1.010,-0.101,-1.495,-0.946,0.519,60.000,64958.000,1.000
15.079,-2.672,-1.586,-1.407,-3.211,4.414,7.428,8.395,0.034,1.010,-0.102,-1.587,-0.885,0.580,60.000,64959.000,1.000
12.798,-4.240,-3.366,-3.590,-6.722,0.188,3.527,8.716,0.036,1.008,-0.106,-1.678,-0.763,0.488,60.000,64960.000,1.000
11.501,-3.254,-4.455,-5.554,-9.685,-3.464,-1.253,8.970,0.035,1.007,-0.106,-1.740,-0.702,0.488,60.000,64961.000,1.000
11.420,-0.972,-5.495,-7.744,-12.172,-6.637,-6.653,7.936,0.036,1.005,-0.105,-1.678,-0.671,0.519,60.000,64962.000,1.000
10.905,0.914,-6.837,-10.579,-14.667,-9.415,-12.163,5.346,0.034,1.005,-0.104,-1.770,-0.610,0.427,60.000,64963.000,1.000
8.843,1.729,-7.960,-13.489,-16.985,-11.276,-16.790,2.219,0.034,1.006,-0.104,-1.617,-0.610,0.305,60.000,64964.000,1.000
6.411,2.403,-7.828,-15.269,-17.939,-11.285,-19.472,0.090,0.035,1.004,-0.107,-1.617,-0.610,0.336,60.000,64965.000,1.000
6.312,4.497,-5.854,-15.073,-16.347,-9.068,-19.697,0.047,0.034,1.006,-0.107,-1.526,-0.519,0.244,60.000,64966.000,1.000
8.933,7.851,-2.896,-13.553,-12.774,-5.820,-18.465,1.739,0.032,1.004,-0.105,-1.526,-0.458,0.214,60.000,64967.000,1.000
11.343,10.434,-0.593,-12.250,-9.320,-3.300,-17.409,3.903,0.031,1.005,-0.108,-1.465,-0.366,0.092,60.000,64968.000,1.000
10.897,10.806,0.331,-11.777,-7.502,-1.944,-16.687,5.832,0.033,1.007,-0.106,-1.495,-0.397,-0.031,60.000,64969.000,1.000
7.828,9.512,0.309,-11.644,-7.199,-0.995,-15.159,7.454,0.033,1.008,-0.102,-1.648,-0.427,-0.031,60.000,64970.000,1.000
4.569,8.058,-0.198,-11.412,-7.594,-0.059,-12.031,8.686,0.032,1.009,-0.104,-1.648,-0.275,-0.092,60.000,64971.000,1.000
2.382,6.906,-1.406,-11.566,-8.687,0.083,-8.505,9.129,0.031,1.010,-0.106,-1.678,-0.275,-0.122,60.000,64972.000,1.000
0.775,5.833,-3.053,-12.347,-10.673,-0.935,-6.626,8.906,0.031,1.009,-0.111,-1.678,-0.183,-0.214,60.000,64973.000,1.000
-0.103,5.691,-3.616,-12.640,-12.530,-1.637,-6.662,9.059,0.031,1.007,-0.107,-1.770,-0.153,-0.305,60.000,64974.000,1.000
1.025,8.218,-1.712,-11.161,-12.558,-0.054,-7.109,10.235,0.031,1.007,-0.107,-1.892,-0.214,-0.458,60.000,64975.000,1.000
5.292,14.194,2.452,-7.781,-10.018,4.140,-6.502,11.883,0.030,1.004,-0.105,-1.862,-0.183,-0.397,60.000,64976.000,1.000
11.251,21.591,6.939,-3.989,-6.343,8.706,-5.520,12.574,0.029,1.005,-0.108,-1.923,-0.214,-0.427,60.000,64977.000,1.000
15.243,26.628,9.415,-1.855,-4.128,10.621,-6.005,11.250,0.031,1.003,-0.104,-1.923,-0.153,-0.366,60.000,64978.000,1.000
14.862,27.045,8.826,-2.316,-4.710,8.756,-8.131,8.251,0.032,1.003,-0.107,-1.831,-0.153,-0.397,60.000,64979.000,1.000
10.977,23.931,6.003,-4.608,-7.039,4.422,-10.299,4.916,0.032,1.000,-0.107,-1.953,-0.305,-0.366,60.000,64980.000,1.000
7.251,20.759,3.135,-6.705,-8.582,0.344,-10.537,2.807,0.031,1.002,-0.108,-1.892,-0.153,-0.427,60.000,64981.000,1.000
6.388,20.038,2.011,-7.085,-7.793,-1.253,-8.356,2.524,0.032,1.000,-0.109,-1.801,-0.092,-0.580,60.000,64982.000,1.000
7.530,21.125,2.636,-5.965,-5.532,-0.146,-5.266,3.090,0.031,0.999,-0.108,-1.770,-0.031,-0.580,60.000,64983.000,1.000
7.596,21.195,3.365,-4.918,-4.157,1.871,-3.519,2.565,0.031,1.000,-0.112,-1.587,-0.122,-0.549,60.000,64984.000,1.000
4.331,18.003,2.291,-5.579,-5.490,2.334,-4.733,-0.727,0.030,1.002,-0.111,-1.465,-0.061,-0.458,60.000,64985.000,1.000
-1.064,12.150,-0.945,-7.995,-9.133,0.361,-8.173,-6.628,0.030,1.004,-0.110,-1.434,0.061,-0.397,60.000,64986.000,1.000
-5.702,6.023,-4.922,-10.765,-12.965,-2.752,-11.241,-13.065,0.032,1.006,-0.109,-1.373,0.092,-0.458,60.000,64987.000,1.000
-8.106,1.429,-7.681,-12.331,-14.918,-4.962,-11.779,-17.407,0.032,1.008,-0.115,-1.617,0.336,-0.549,60.000,64988.000,1.000
-8.407,-1.014,-7.953,-11.738,-13.996,-5.043,-9.379,-17.785,0.029,1.007,-0.112,-1.617,0.549,-0.549,60.000,64989.000,1.000
-6.975,-1.021,-5.473,-8.723,-10.111,-2.914,-5.081,-13.727,0.028,1.008,-0.107,-1.740,0.549,-0.488,60.000,64990.000,1.000
-3.390,1.820,-0.661,-3.484,-3.661,1.051,0.250,-6.027,0.027,1.007,-0.108,-1.678,0.366,-0.305,60.000,64991.000,1.000
1.766,6.787,5.209,2.708,3.850,5.891,5.868,3.062,0.026,1.005,-0.108,-1.556,0.061,-0.244,60.000,64992.000,1.000
6.100,11.566,10.194,7.649,9.778,9.854,10.341,10.273,0.028,1.006,-0.107,-1.434,-0.031,-0.183,60.000,64993.000,1.000
7.285,13.610,12.490,9.442,11.626,10.955,11.830,12.677,0.029,1.006,-0.110,-1.282,-0.061,-0.214,60.000,64994.000,1.000
4.612,11.770,11.144,7.339,8.433,7.964,8.971,8.989,0.027,1.008,-0.109,-1.343,-0.092,-0.214,60.000,64995.000,1.000
-0.302,7.163,6.724,2.303,1.531,1.662,2.663,0.619,0.030,1.008,-0.110,-1.312,-0.092,-0.122,60.000,64996.000,1.000
-5.118,2.138,1.204,-3.445,-6.175,-5.212,-3.814,-8.875,0.030,1.009,-0.108,-1.465,-0.214,0.061,60.000,64997.000,1.000
-8.226,-1.098,-2.791,-7.243,-11.530,-9.318,-6.638,-15.440,0.031,1.009,-0.105,-1.648,-0.183,0.031,60.000,64998.000,1.000
-8.954,-1.396,-3.378,-7.131,-12.585,-8.795,-4.220,-16.441,0.031,1.009,-0.105,-1.709,-0.031,0.092,60.000,64999.000,1.000
-7.661,0.900,-0.654,-3.097,-9.637,-4.704,0.844,-12.131,0.031,1.008,-0.109,-1.831,-0.031,0.122,60.000,65000.000,1.000
-4.825,4.455,3.595,3.087,-4.757,-0.203,3.866,-5.124,0.031,1.005,-0.109,-1.923,0.092,0.122,60.000,65001.000,1.000
-1.890,6.842,6.750,8.393,-0.994,1.152,1.167,0.864,0.032,1.000,-0.111,-1.953,0.061,0.153,60.000,65002.000,1.000
-1.606,5.259,6.625,9.813,-0.997,-2.581,-7.985,2.638,0.030,0.998,-0.115,-1.892,0.061,0.153,60.000,65003.000,1.000
-5.632,-1.082,2.907,6.384,-5.180,-10.206,-20.740,-0.631,0.032,0.998,-0.112,-1.740,0.214,0.183,60.000,65004.000,1.000
-12.471,-9.410,-2.363,0.167,-11.009,-17.798,-32.011,-6.650,0.032,1.001,-0.106,-1.465,0.214,0.092,60.000,65005.000,1.000
-17.364,-14.433,-5.583,-4.392,-14.058,-20.519,-36.219,-10.779,0.031,1.003,-0.107,-1.404,0.214,0.031,60.000,65006.000,1.000
-16.147,-12.252,-4.049,-3.558,-11.100,-15.710,-30.472,-9.154,0.032,1.005,-0.111,-1.282,0.336,0.061,60.000,65007.000,1.000
-8.998,-3.606,1.783,2.679,-2.804,-5.105,-17.098,-1.845,0.034,1.006,-0.111,-1.343,0.336,0.061,60.000,65008.000,1.000
-0.300,6.480,8.366,10.552,6.499,5.918,-2.570,7.097,0.032,1.006,-0.109,-1.312,0.458,0.183,60.000,65009.000,1.000
4.313,12.019,11.324,15.163,11.648,11.491,6.142,12.330,0.033,1.007,-0.110,-1.343,0.427,0.092,60.000,65010.000,1.000
2.486,10.276,8.594,14.167,10.253,9.132,6.047,10.850,0.034,1.007,-0.113,-1.373,0.458,0.122,60.000,65011.000,1.000
-3.514,3.178,1.976,9.265,4.150,1.325,-0.521,3.865,0.035,1.005,-0.114,-1.282,0.488,0.183,60.000,65012.000,1.000
-8.980,-4.655,-4.131,4.618,-2.104,-6.286,-8.133,-4.133,0.034,1.004,-0.112,-1.251,0.549,0.214,60.000,65013.000,1.000
-10.245,-9.327,-6.093,3.527,-4.570,-8.891,-11.873,-8.702,0.031,1.008,-0.111,-1.251,0.610,0.031,60.000,65014.000,1.000
-7.025,-9.643,-3.419,6.318,-2.220,-5.396,-9.865,-8.370,0.031,1.007,-0.112,-1.221,0.671,0.092,60.000,65015.000,1.000
-1.222,-6.482,1.927,11.309,3.527,2.030,-2.933,-4.331,0.031,1.006,-0.112,-1.190,0.702,0.061,60.000,65016.000,1.000
4.317,-2.093,7.089,16.046,9.919,9.619,5.767,0.960,0.031,1.005,-0.111,-1.099,0.641,0.122,60.000,65017.000,1.000
7.269,1.147,9.885,18.424,14.374,14.187,12.243,5.064,0.031,1.004,-0.110,-1.129,0.763,0.183,60.000,65018.000,1.000
7.368,2.351,9.889,17.755,15.921,14.966,14.625,6.472,0.031,1.005,-0.111,-1.160,0.702,0.183,60.000,65019.000,1.000
5.473,1.959,7.995,14.576,15.055,13.133,13.638,4.708,0.032,1.007,-0.112,-1.221,0.580,0.214,60.000,65020.000,1.000
2.415,0.522,5.229,9.973,12.643,10.089,11.057,0.445,0.031,1.006,-0.110,-1.221,0.671,0.183,60.000,65021.000,1.000
-1.984,-2.377,1.625,4.501,8.694,5.898,7.528,-5.235,0.033,1.004,-0.110,-1.190,0.793,0.214,60.000,65022.000,1.000
-8.034,-7.248,-3.360,-1.773,2.692,-0.192,2.657,-11.664,0.032,1.004,-0.109,-1.190,0.854,0.244,60.000,65023.000,1.000
-14.287,-12.875,-9.086,-7.837,-4.489,-7.577,-2.803,-18.010,0.034,1.005,-0.111,-1.068,0.824,0.183,60.000,65024.000,1.000
-18.065,-16.446,-13.077,-11.376,-9.813,-13.479,-6.507,-22.438,0.034,1.003,-0.109,-1.068,0.824,0.214,60.000,65025.000,1.000
-17.186,-15.662,-12.712,-10.266,-9.952,-14.729,-6.008,-22.826,0.034,1.003,-0.112,-1.007,0.763,0.153,60.000,65026.000,1.000
-12.232,-11.165,-7.975,-5.004,-4.579,-10.947,-1.467,-19.199,0.032,1.004,-0.110,-1.007,0.763,0.183,60.000,65027.000,1.000
-6.238,-6.183,-1.821,1.235,3.001,-5.211,3.923,-14.297,0.030,1.003,-0.110,-0.977,0.732,0.153,60.000,65028.000,1.000
-2.121,-3.905,2.130,5.062,8.446,-1.471,6.631,-11.256,0.029,1.004,-0.109,-0.916,0.854,0.153,60.000,65029.000,1.000
-1.154,-5.278,2.268,5.162,9.495,-1.438,5.406,-11.098,0.028,1.004,-0.111,-0.824,0.793,0.000,60.000,65030.000,1.000
-2.034,-8.189,0.271,3.236,7.514,-3.060,2.681,-11.887,0.029,1.005,-0.107,-0.793,0.671,0.061,60.000,65031.000,1.000
-2.608,-9.573,-0.834,2.018,5.557,-2.887,2.074,-10.917,0.030,1.007,-0.104,-0.793,0.641,0.092,60.000,65032.000,1.000
-2.060,-8.123,0.332,2.724,5.356,0.312,4.774,-7.215,0.029,1.007,-0.105,-0.732,0.580,0.092,60.000,65033.000,1.000
-0.995,-4.815,2.725,4.673,6.454,4.859,9.044,-1.817,0.031,1.007,-0.109,-0.854,0.549,-0.153,60.000,65034.000,1.000
-0.848,-1.826,4.161,6.161,7.174,7.841,11.512,2.920,0.030,1.007,-0.108,-0.854,0.519,-0.092,60.000,65035.000,1.000
-2.366,-0.791,3.262,5.940,6.254,7.277,9.684,4.699,0.031,1.005,-0.113,-0.854,0.488,-0.092,60.000,65036.000,1.000
-5.250,-2.013,0.319,3.894,3.691,3.162,3.649,2.674,0.032,1.004,-0.111,-1.007,0.427,-0.153,60.000,65037.000,1.000
-8.315,-4.431,-3.065,1.029,0.706,-2.482,-3.878,-1.800,0.032,1.003,-0.113,-0.885,0.488,-0.183,60.000,65038.000,1.000
-9.868,-6.306,-5.019,-1.043,-0.992,-6.649,-9.033,-5.811,0.032,1.003,-0.109,-0.824,0.549,-0.183,60.000,65039.000,1.000
-9.197,-6.527,-4.484,-1.184,-0.275,-7.147,-9.262,-6.885,0.032,1.004,-0.108,-0.854,0.488,-0.275,60.000,65040.000,1.000
-6.521,-4.930,-1.470,0.876,3.048,-3.436,-4.221,-4.263,0.033,1.007,-0.108,-0.854,0.458,-0.275,60.000,65041.000,1.000
-2.634,-2.033,3.040,4.463,8.118,3.137,3.978,0.980,0.031,1.009,-0.105,-0.946,0.519,-0.122,60.000,65042.000,1.000
1.565,1.397,7.610,8.432,13.348,9.804,11.503,6.749,0.032,1.007,-0.107,-0.977,0.549,-0.122,60.000,65043.000,1.000
5.074,4.136,10.666,11.441,16.770,13.400,14.610,10.690,0.030,1.003,-0.110,-0.946,0.488,-0.183,60.000,65044.000,1.000
6.305,4.458,10.709,11.860,16.548,11.701,11.175,10.748,0.031,1.001,-0.109,-0.916,0.458,-0.122,60.000,65045.000,1.000
5.050,2.108,7.695,9.231,12.702,5.476,2.756,6.863,0.029,1.002,-0.109,-0.854,0.458,-0.092,60.000,65046.000,1.000
3.389,-0.574,3.906,5.335,8.006,-1.165,-5.540,1.757,0.029,1.004,-0.107,-0.824,0.305,-0.061,60.000,65047.000,1.000
4.176,-0.248,2.733,3.299,6.482,-3.235,-8.025,-0.562,0.029,1.006,-0.105,-0.763,0.244,-0.031,60.000,65048.000,1.000
8.712,4.480,5.875,5.159,10.268,1.385,-2.189,2.420,0.029,1.006,-0.103,-0.885,0.305,-0.122,60.000,65049.000,1.000
14.875,11.306,11.320,9.705,17.319,9.849,8.877,9.413,0.028,1.007,-0.105,-0.824,0.244,-0.183,60.000,65050.000,1.000
18.595,15.696,14.554,13.269,22.555,16.308,18.586,15.874,0.027,1.009,-0.105,-0.946,0.031,-0.153,60.000,65051.000,1.000
16.421,13.885,11.899,12.439,21.472,16.110,21.433,17.067,0.029,1.007,-0.108,-0.977,-0.061,-0.153,60.000,65052.000,1.000
8.067,5.708,3.607,6.868,13.782,9.322,16.970,11.917,0.030,1.008,-0.107,-0.946,-0.092,-0.183,60.000,65053.000,1.000
-2.801,-5.038,-6.191,-0.382,3.638,0.394,9.817,3.990,0.031,1.008,-0.108,-0.977,-0.244,-0.153,60.000,65054.000,1.000
-11.688,-13.819,-13.102,-5.941,-4.346,-6.171,4.603,-2.209,0.029,1.008,-0.105,-0.946,-0.214,-0.092,60.000,65055.000,1.000
-16.274,-18.640,-15.725,-8.881,-8.772,-9.220,2.128,-5.207,0.027,1.006,-0.105,-1.129,-0.275,0.000,60.000,65056.000,1.000
-17.420,-20.599,-15.770,-10.745,-11.508,-10.786,-0.304,-6.891,0.027,1.005,-0.107,-1.129,-0.366,-0.061,60.000,65057.000,1.000
-16.973,-21.318,-15.283,-12.904,-14.447,-12.954,-5.184,-9.291,0.028,1.003,-0.108,-1.068,-0.366,0.031,60.000,65058.000,1.000
-15.109,-20.622,-14.400,-14.558,-17.051,-15.309,-11.550,-12.041,0.028,1.000,-0.108,-1.038,-0.549,0.031,60.000,65059.000,1.000
-11.164,-17.422,-12.072,-13.994,-17.415,-15.921,-16.241,-13.469,0.027,1.001,-0.105,-0.977,-0.671,-0.031,60.000,65060.000,1.000
-4.992,-11.484,-7.784,-10.460,-14.427,-13.634,-16.753,-12.556,0.027,0.999,-0.106,-0.977,-0.580,-0.031,60.000,65061.000,1.000
2.071,-4.202,-2.357,-4.974,-8.856,-9.124,-13.096,-9.817,0.028,1.000,-0.108,-0.763,-0.641,0.000,60.000,65062.000,1.000
7.796,2.261,2.666,0.401,-2.731,-3.923,-7.177,-6.718,0.025,1.001,-0.104,-0.641,-0.763,-0.031,60.000,65063.000,1.000
10.653,6.278,5.975,3.938,1.944,0.796,-1.202,-4.452,0.025,1.004,-0.102,-0.732,-0.885,0.000,60.000,65064.000,1.000
10.302,7.262,6.930,4.931,4.039,4.245,2.708,-3.365,0.025,1.006,-0.103,-0.793,-0.916,-0.061,60.000,65065.000,1.000
8.103,5.935,5.901,4.123,3.918,6.084,3.756,-2.619,0.027,1.010,-0.104,-0.824,-0.977,0.000,60.000,65066.000,1.000
5.780,3.462,3.734,2.832,2.751,6.308,2.909,-1.070,0.028,1.011,-0.104,-1.129,-0.916,0.000,60.000,65067.000,1.000
3.834,0.397,0.962,1.765,1.297,5.080,1.799,1.363,0.031,1.010,-0.106,-1.160,-0.916,0.122,60.000,65068.000,1.000
1.776,-3.372,-2.208,0.841,-0.466,2.663,1.401,3.596,0.033,1.008,-0.107,-1.221,-0.854,0.061,60.000,65069.000,1.000
-1.147,-7.999,-5.464,-0.373,-2.858,-0.736,1.145,4.461,0.034,1.004,-0.109,-1.251,-0.732,0.061,60.000,65070.000,1.000
-4.520,-12.616,-7.974,-1.753,-5.562,-4.449,0.242,4.000,0.032,1.003,-0.109,-1.190,-0.671,0.061,60.000,65071.000,1.000
-7.129,-15.534,-8.907,-2.754,-7.740,-7.326,-1.205,3.046,0.033,1.002,-0.110,-1.099,-0.671,0.092,60.000,65072.000,1.000
-7.931,-15.137,-7.922,-2.903,-8.555,-8.273,-2.320,2.290,0.032,1.000,-0.108,-1.068,-0.549,0.214,60.000,65073.000,1.000
-6.558,-10.992,-5.351,-2.177,-7.658,-6.980,-2.374,1.904,0.033,1.001,-0.109,-0.946,-0.549,0.153,60.000,65074.000,1.000
-4.264,-4.844,-2.436,-1.551,-5.797,-4.514,-2.102,1.297,0.031,1.001,-0.109,-0.854,-0.397,0.214,60.000,65075.000,1.000
-2.527,0.791,-0.407,-1.953,-4.072,-2.250,-2.462,0.171,0.034,1.001,-0.110,-0.916,-0.397,0.244,60.000,65076.000,1.000
-1.710,4.612,0.448,-3.226,-2.912,-0.759,-3.283,-0.745,0.033,1.002,-0.109,-0.885,-0.336,0.183,60.000,65077.000,1.000
-1.294,6.801,0.598,-4.480,-2.059,0.153,-3.606,-0.395,0.034,1.001,-0.107,-0.946,-0.244,0.153,60.000,65078.000,1.000
-0.402,8.203,0.843,-4.789,-0.977,1.230,-2.123,1.870,0.036,1.004,-0.111,-0.854,-0.183,0.305,60.000,65079.000,1.000
1.762,9.826,2.281,-3.442,1.085,3.807,2.443,6.192,0.037,1.010,-0.109,-0.885,-0.275,0.275,60.000,65080.000,1.000
6.200,12.660,5.892,0.112,4.887,9.161,10.666,12.296,0.036,1.012,-0.106,-0.916,-0.153,0.275,60.000,65081.000,1.000
12.503,16.135,10.896,5.120,9.678,16.190,20.144,18.649,0.036,1.015,-0.106,-1.099,0.000,0.244,60.000,65082.000,1.000
17.830,17.506,14.394,9.165,12.777,20.904,25.531,22.513,0.034,1.016,-0.108,-1.160,0.092,0.214,60.000,65083.000,1.000
18.979,13.911,13.468,9.752,11.524,19.408,22.598,21.585,0.028,1.018,-0.107,-1.373,0.061,0.122,60.000,65084.000,1.000
14.773,4.953,7.475,5.955,5.417,11.013,11.488,15.383,0.025,1.016,-0.106,-1.495,-0.031,0.000,60.000,65085.000,1.000
7.437,-6.328,-1.197,-0.688,-3.218,-0.993,-2.797,6.008,0.024,1.015,-0.105,-1.495,-0.061,-0.061,60.000,65086.000,1.000
0.482,-15.617,-8.893,-7.387,-10.919,-11.634,-13.778,-2.960,0.024,1.015,-0.104,-1.678,-0.244,-0.153,60.000,65087.000,1.000
-3.941,-20.036,-13.064,-12.012,-15.262,-17.256,-17.691,-8.605,0.022,1.012,-0.108,-1.678,-0.275,-0.366,60.000,65088.000,1.000
-5.304,-18.925,-13.216,-13.911,-15.707,-17.011,-14.795,-9.895,0.021,1.010,-0.106,-1.740,-0.458,-0.488,60.000,65089.000,1.000
-4.512,-13.553,-10.655,-13.893,-13.385,-12.736,-8.468,-7.774,0.022,1.009,-0.108,-1.648,-0.549,-0.610,60.000,65090.000,1.000
-2.863,-6.127,-7.317,-13.188,-10.012,-7.222,-2.435,-4.087,0.021,1.009,-0.106,-1.556,-0.793,-0.732,60.000,65091.000,1.000
-1.593,1.123,-4.771,-12.748,-6.986,-2.574,1.205,-0.685,0.024,1.008,-0.106,-1.587,-0.854,-0.885,60.000,65092.000,1.000
-1.339,6.961,-3.545,-12.846,-4.841,0.578,2.480,1.200,0.023,1.006,-0.106,-1.556,-1.007,-0.946,60.000,65093.000,1.000
-1.751,11.340,-3.158,-13.014,-3.384,2.643,2.762,1.323,0.023,1.007,-0.106,-1.556,-1.160,-1.007,60.000,65094.000,1.000
-2.614,14.313,-3.121,-12.898,-2.590,3.717,2.673,-0.112,0.023,1.005,-0.104,-1.495,-1.282,-1.038,60.000,65095.000,1.000
-3.667,15.784,-3.335,-12.482,-2.652,3.554,2.015,-2.677,0.023,1.004,-0.106,-1.373,-1.282,-1.007,60.000,65096.000,1.000
-4.499,15.772,-3.799,-11.911,-3.546,2.333,0.740,-5.685,0.026,1.003,-0.106,-1.404,-1.343,-1.007,60.000,65097.000,1.000
-4.628,14.762,-4.085,-11.051,-4.629,1.123,-0.310,-8.080,0.025,1.000,-0.107,-1.373,-1.251,-1.007,60.000,65098.000,1.000
-3.463,13.582,-3.448,-9.399,-4.921,1.444,0.572,-8.787,0.030,1.001,-0.105,-1.160,-1.221,-1.038,60.000,65099.000,1.000
-1.132,12.708,-1.678,-6.905,-4.053,3.996,4.236,-7.685,0.031,1.002,-0.102,-1.038,-1.221,-1.007,60.000,65100.000,1.000
2.096,12.542,0.851,-3.941,-2.275,8.237,9.921,-5.309,0.031,1.003,-0.105,-1.007,-1.190,-0.977,60.000,65101.000,1.000
5.840,13.439,3.539,-0.971,-0.054,12.592,15.431,-2.148,0.031,1.002,-0.102,-0.946,-1.160,-0.885,60.000,65102.000,1.000
9.268,15.231,5.815,1.665,2.157,15.310,18.344,1.377,0.032,1.002,-0.104,-0.885,-1.099,-0.793,60.000,65103.000,1.000
11.430,16.949,7.057,3.684,3.823,15.425,17.569,4.529,0.031,1.002,-0.103,-0.763,-1.007,-0.702,60.000,65104.000,1.000
11.389,17.146,6.612,4.682,4.318,13.021,13.469,6.294,0.033,1.001,-0.103,-0.641,-1.038,-0.519,60.000,65105.000,1.000
9.552,15.486,4.834,5.127,3.917,9.632,8.405,6.741,0.031,1.000,-0.104,-0.580,-0.793,-0.397,60.000,65106.000,1.000
7.339,13.041,3.140,6.241,3.772,7.451,5.760,7.147,0.031,1.002,-0.104,-0.336,-0.671,-0.397,60.000,65107.000,1.000
5.717,10.948,2.639,8.606,4.559,7.481,7.179,8.441,0.030,1.004,-0.103,-0.305,-0.580,-0.336,60.000,65108.000,1.000
4.932,9.450,3.163,11.576,5.743,8.652,11.019,10.261,0.033,1.005,-0.105,-0.366,-0.580,-0.336,60.000,65109.000,1.000
4.625,8.037,3.641,13.833,6.184,8.778,13.290,11.371,0.032,1.006,-0.102,-0.305,-0.610,-0.214,60.000,65110.000,1.000
4.869,6.556,3.399,14.731,5.511,6.776,11.226,11.090,0.032,1.003,-0.103,-0.366,-0.488,-0.122,60.000,65111.000,1.000
5.533,5.061,2.400,14.310,4.143,3.181,5.081,9.701,0.030,1.002,-0.107,-0.336,-0.366,-0.122,60.000,65112.000,1.000
5.483,3.113,0.759,12.612,2.473,-0.894,-2.822,7.871,0.028,1.003,-0.107,-0.305,-0.366,0.031,60.000,65113.000,1.000
3.760,0.206,-1.336,9.696,0.678,-4.511,-9.602,6.199,0.031,1.004,-0.109,-0.214,-0.214,0.061,60.000,65114.000,1.000
0.452,-3.539,-3.589,5.778,-1.119,-7.196,-13.500,4.767,0.031,1.004,-0.107,0.000,-0.092,-0.031,60.000,65115.000,1.000
-2.900,-7.060,-5.500,1.555,-2.557,-8.716,-14.077,3.394,0.031,1.007,-0.105,0.031,-0.092,0.061,60.000,65116.000,1.000
-4.804,-9.353,-6.768,-2.218,-3.457,-9.278,-12.325,1.841,0.030,1.006,-0.108,0.031,0.031,0.061,60.000,65117.000,1.000
-4.979,-10.130,-7.334,-4.987,-3.947,-9.381,-10.182,0.063,0.031,1.007,-0.110,-0.061,0.031,0.031,60.000,65118.000,1.000
-3.557,-9.346,-6.910,-6.077,-3.897,-9.089,-8.811,-1.419,0.032,1.006,-0.108,-0.183,0.183,0.092,60.000,65119.000,1.000
-0.937,-7.204,-5.281,-5.228,-3.044,-8.194,-8.298,-1.997,0.033,1.005,-0.112,-0.153,0.336,0.031,60.000,65120.000,1.000
2.340,-4.448,-2.836,-3.037,-1.462,-6.734,-8.071,-1.471,0.032,1.006,-0.112,-0.244,0.397,0.183,60.000,65121.000,1.000
4.896,-2.735,-0.851,-1.113,-0.055,-5.518,-8.080,-0.482,0.031,1.005,-0.112,-0.244,0.397,0.153,60.000,65122.000,1.000
4.715,-3.864,-0.957,-1.394,-0.339,-5.975,-9.420,-0.466,0.029,1.004,-0.109,-0.183,0.458,0.092,60.000,65123.000,1.000
1.050,-8.081,-3.874,-4.612,-3.254,-8.902,-12.985,-2.493,0.027,1.004,-0.111,-0.061,0.488,0.061,60.000,65124.000,1.000
-4.761,-13.412,-8.397,-9.337,-7.901,-13.215,-17.893,-5.929,0.027,1.006,-0.111,-0.061,0.549,0.122,60.000,65125.000,1.000
-9.467,-16.477,-11.608,-12.397,-11.444,-15.867,-21.015,-8.332,0.025,1.006,-0.111,-0.092,0.519,0.122,60.000,65126.000,1.000
-10.389,-15.089,-11.137,-11.478,-11.393,-14.247,-19.676,-7.743,0.026,1.007,-0.111,-0.061,0.549,-0.031,60.000,65127.000,1.000
-7.596,-10.041,-7.055,-7.091,-7.734,-8.459,-14.238,-4.626,0.024,1.008,-0.113,-0.153,0.610,-0.092,60.000,65128.000,1.000
-3.228,-4.136,-1.309,-1.652,-2.485,-0.894,-7.002,-0.980,0.024,1.010,-0.110,-0.244,0.519,-0.061,60.000,65129.000,1.000
0.079,0.027,3.999,2.523,2.154,5.574,-0.227,1.537,0.024,1.011,-0.108,-0.397,0.549,-0.092,60.000,65130.000,1.000
1.323,1.757,7.900,4.735,5.263,9.207,5.052,2.735,0.023,1.010,-0.108,-0.427,0.519,-0.092,60.000,65131.000,1.000
1.212,1.847,10.466,5.549,7.048,9.799,8.459,3.266,0.022,1.007,-0.109,-0.549,0.336,-0.153,60.000,65132.000,1.000
1.083,1.479,12.228,5.823,8.088,8.359,9.655,3.515,0.023,1.008,-0.109,-0.610,0.275,-0.092,60.000,65133.000,1.000
2.003,1.448,13.534,6.104,8.700,6.235,8.630,3.219,0.026,1.008,-0.110,-0.671,0.214,-0.061,60.000,65134.000,1.000
3.428,1.557,14.093,6.204,8.634,4.055,5.710,1.792,0.025,1.007,-0.109,-0.763,0.092,0.000,60.000,65135.000,1.000
4.067,1.272,13.461,5.784,7.687,1.871,2.121,-0.834,0.022,1.008,-0.108,-0.732,0.061,0.031,60.000,65136.000,1.000
2.803,0.161,11.305,4.500,5.761,-0.738,-0.838,-4.540,0.021,1.010,-0.109,-0.763,0.031,0.183,60.000,65137.000,1.000
-0.759,-1.987,7.715,2.126,2.875,-4.232,-2.777,-9.144,0.023,1.010,-0.106,-0.854,0.000,0.092,60.000,65138.000,1.000
-5.422,-4.620,3.755,-0.736,-0.193,-8.042,-3.509,-13.374,0.022,1.009,-0.104,-0.885,-0.122,0.305,60.000,65139.000,1.000
-9.355,-6.582,0.916,-2.990,-2.196,-10.826,-3.147,-15.286,0.020,1.008,-0.104,-0.885,-0.122,0.305,60.000,65140.000,1.000
-11.242,-6.913,0.039,-3.850,-2.372,-11.572,-2.198,-13.858,0.019,1.007,-0.106,-0.946,-0.275,0.427,60.000,65141.000,1.000
-11.385,-5.856,0.676,-3.543,-1.143,-10.388,-1.384,-10.028,0.020,1.003,-0.108,-0.885,-0.366,0.488,60.000,65142.000,1.000
-11.109,-4.420,1.682,-3.002,0.450,-8.067,-0.942,-5.984,0.021,1.001,-0.112,-0.916,-0.549,0.458,60.000,65143.000,1.000
-11.068,-3.234,2.185,-2.984,1.600,-5.425,-0.392,-3.672,0.025,1.000,-0.113,-0.824,-0.549,0.458,60.000,65144.000,1.000
-11.641,-2.751,1.615,-4.041,1.572,-3.545,-0.120,-4.183,0.026,1.003,-0.111,-0.671,-0.519,0.427,60.000,65145.000,1.000
-12.929,-3.288,-0.120,-6.107,0.025,-3.225,-1.140,-7.176,0.026,1.001,-0.109,-0.702,-0.610,0.427,60.000,65146.000,1.000
-14.568,-4.670,-2.338,-8.266,-2.333,-4.102,-3.530,-10.897,0.031,1.001,-0.113,-0.671,-0.641,0.519,60.000,65147.000,1.000
-15.697,-6.026,-3.765,-9.170,-3.864,-4.808,-5.806,-13.114,0.031,1.002,-0.110,-0.671,-0.458,0.488,60.000,65148.000,1.000
-15.210,-6.299,-3.505,-7.915,-3.210,-4.282,-5.945,-12.348,0.031,1.003,-0.107,-0.641,-0.305,0.580,60.000,65149.000,1.000
-13.241,-5.448,-2.009,-5.016,-0.663,-3.004,-3.763,-9.045,0.031,1.007,-0.108,-0.702,-0.275,0.610,60.000,65150.000,1.000
-10.824,-4.344,-0.397,-1.731,2.312,-2.253,-0.988,-4.962,0.027,1.005,-0.108,-0.732,-0.183,0.641,60.000,65151.000,1.000
-8.907,-3.866,0.677,1.005,4.461,-2.804,0.333,-1.527,0.023,1.004,-0.109,-0.732,-0.214,0.549,60.000,65152.000,1.000
-7.501,-3.919,1.547,3.143,5.747,-4.132,-0.455,1.294,0.021,1.002,-0.112,-0.793,-0.244,0.427,60.000,65153.000,1.000
-5.548,-3.459,3.120,5.375,7.174,-4.553,-1.868,4.599,0.020,1.004,-0.108,-0.702,-0.305,0.336,60.000,65154.000,1.000
-3.052,-2.219,5.456,7.710,9.096,-3.007,-2.405,8.428,0.020,1.006,-0.106,-0.732,-0.366,0.244,60.000,65155.000,1.000
-1.422,-1.325,7.220,8.975,10.386,-0.369,-2.231,10.922,0.019,1.006,-0.110,-0.671,-0.488,0.061,60.000,65156.000,1.000
-1.882,-1.913,6.797,7.866,9.567,1.332,-2.658,10.020,0.020,1.005,-0.106,-0.641,-0.580,-0.092,60.000,65157.000,1.000
-3.669,-3.338,4.222,4.667,6.833,1.246,-4.048,6.107,0.022,1.005,-0.105,-0.732,-0.671,-0.122,60.000,65158.000,1.000
-4.221,-3.441,1.505,1.457,4.210,0.584,-4.886,2.277,0.022,1.005,-0.111,-0.763,-0.763,-0.214,60.000,65159.000,1.000
-2.210,-1.053,0.540,-0.023,3.273,0.678,-3.966,1.309,0.021,1.005,-0.108,-0.854,-0.732,-0.275,60.000,65160.000,1.000
1.511,2.895,1.524,0.349,3.746,1.545,-1.655,3.504,0.023,1.004,-0.109,-0.824,-0.732,-0.366,60.000,65161.000,1.000
4.851,6.123,3.073,1.396,3.961,2.117,0.342,6.906,0.024,1.004,-0.113,-0.885,-0.702,-0.488,60.000,65162.000,1.000
6.110,6.759,3.564,1.952,2.434,1.533,0.228,9.024,0.022,1.005,-0.111,-0.885,-0.763,-0.366,60.000,65163.000,1.000
5.338,4.682,2.437,1.940,-0.859,0.166,-2.047,8.775,0.022,1.007,-0.112,-0.793,-0.732,-0.366,60.000,65164.000,1.000
3.497,1.117,0.174,1.846,-4.780,-0.881,-4.832,6.847,0.024,1.003,-0.112,-0.763,-0.885,-0.366,60.000,65165.000,1.000
1.772,-2.323,-2.402,1.963,-8.052,-0.674,-5.893,4.580,0.024,1.006,-0.112,-0.702,-0.946,-0.244,60.000,65166.000,1.000
0.632,-4.726,-4.875,1.884,-10.295,0.671,-4.381,2.295,0.026,1.007,-0.113,-0.763,-0.977,-0.244,60.000,65167.000,1.000
0.105,-5.723,-6.833,1.352,-11.580,2.420,-1.216,-0.311,0.026,1.007,-0.108,-0.763,-0.885,-0.153,60.000,65168.000,1.000
1.236,-4.495,-7.028,1.500,-11.155,4.617,2.827,-2.366,0.025,1.009,-0.110,-0.916,-0.885,-0.214,60.000,65169.000,1.000
4.868,-0.566,-4.423,3.599,-8.126,7.736,7.322,-2.524,0.026,1.006,-0.106,-0.885,-0.885,-0.061,60.000,65170.000,1.000
10.208,4.967,0.301,7.296,-3.001,11.478,11.520,-0.795,0.025,1.006,-0.106,-0.916,-0.793,0.031,60.000,65171.000,1.000
14.818,9.631,4.814,10.536,2.000,14.391,13.932,1.253,0.025,1.007,-0.106,-0.854,-0.793,0.061,60.000,65172.000,1.000
16.229,11.230,6.669,11.215,4.332,14.739,12.946,1.970,0.025,1.006,-0.106,-0.763,-0.854,0.031,60.000,65173.000,1.000
13.587,9.023,4.642,8.607,2.643,11.660,8.353,0.656,0.025,1.008,-0.107,-0.854,-0.824,0.061,60.000,65174.000,1.000
7.233,3.389,-0.904,3.290,-2.760,5.545,1.446,-2.732,0.025,1.007,-0.110,-0.824,-0.854,0.275,60.000,65175.000,1.000
-0.954,-4.090,-7.799,-2.831,-9.718,-1.664,-5.190,-7.247,0.026,1.006,-0.109,-0.824,-0.854,0.244,60.000,65176.000,1.000
-7.906,-10.785,-12.834,-7.060,-14.962,-7.093,-8.671,-10.845,0.026,1.007,-0.107,-0.763,-0.916,0.244,60.000,65177.000,1.000
-10.816,-13.949,-13.416,-7.194,-15.660,-8.339,-7.161,-11.366,0.025,1.007,-0.105,-0.885,-0.824,0.244,60.000,65178.000,1.000
-8.439,-12.185,-9.053,-2.791,-10.943,-4.739,-0.549,-7.917,0.025,1.008,-0.104,-0.824,-0.793,0.305,60.000,65179.000,1.000
-2.425,-6.703,-1.893,4.007,-2.723,1.933,8.746,-1.881,0.024,1.008,-0.107,-0.854,-0.763,0.305,60.000,65180.000,1.000
4.003,-0.347,4.642,9.846,5.511,8.560,16.978,4.107,0.025,1.006,-0.109,-0.977,-0.702,0.336,60.000,65181.000,1.000
7.768,4.004,7.624,12.100,10.535,12.231,21.049,7.769,0.026,1.007,-0.108,-0.977,-0.732,0.275,60.000,65182.000,1.000
6.897,4.430,5.612,9.809,10.537,11.149,19.545,7.845,0.025,1.003,-0.107,-1.038,-0.763,0.275,60.000,65183.000,1.000
1.497,0.626,-0.916,3.757,5.550,5.170,12.906,4.323,0.026,1.001,-0.111,-0.916,-0.702,0.336,60.000,65184.000,1.000
-6.531,-6.073,-9.668,-4.059,-2.632,-3.890,2.838,-1.518,0.026,1.000,-0.113,-0.854,-0.641,0.336,60.000,65185.000,1.000
-13.730,-12.783,-17.032,-10.701,-10.630,-12.235,-7.283,-7.020,0.026,1.002,-0.110,-0.732,-0.641,0.336,60.000,65186.000,1.000
-16.823,-16.323,-19.828,-13.562,-15.027,-16.117,-13.544,-9.452,0.028,1.000,-0.107,-0.732,-0.732,0.275,60.000,65187.000,1.000
-14.542,-14.740,-16.904,-11.709,-14.122,-14.074,-13.807,-7.680,0.024,1.003,-0.110,-0.610,-0.763,0.275,60.000,65188.000,1.000
-7.496,-7.894,-9.236,-5.888,-8.255,-6.981,-8.277,-2.254,0.024,1.004,-0.107,-0.641,-0.702,0.183,60.000,65189.000,1.000
1.882,2.189,0.552,1.707,0.448,2.617,0.461,5.074,0.024,1.003,-0.106,-0.671,-0.732,0.183,60.000,65190.000,1.000
10.566,12.109,9.249,8.399,8.955,11.416,8.565,12.057,0.024,1.006,-0.107,-0.793,-0.732,0.336,60.000,65191.000,1.000
16.143,18.650,14.193,12.059,14.431,16.379,12.459,16.419,0.023,1.003,-0.110,-0.732,-0.763,0.275,60.000,65192.000,1.000
17.465,20.123,14.162,11.750,15.286,15.960,10.396,16.532,0.023,1.001,-0.114,-0.732,-0.824,0.214,60.000,65193.000,1.000
14.929,16.666,9.770,7.966,11.718,10.943,3.674,12.340,0.023,1.001,-0.112,-0.732,-0.763,0.275,60.000,65194.000,1.000
9.653,9.781,3.115,2.221,5.429,3.875,-4.429,5.501,0.026,1.001,-0.114,-0.641,-0.824,0.183,60.000,65195.000,1.000
4.038,2.596,-2.663,-2.942,-0.559,-1.719,-9.913,-0.740,0.026,1.004,-0.108,-0.580,-0.885,0.336,60.000,65196.000,1.000
1.071,-1.197,-4.686,-4.992,-3.074,-2.719,-9.723,-2.976,0.028,1.007,-0.109,-0.671,-0.946,0.305,60.000,65197.000,1.000
2.143,0.215,-2.149,-3.228,-0.800,1.720,-3.670,-0.122,0.025,1.010,-0.112,-0.671,-0.824,0.458,60.000,65198.000,1.000
6.220,5.530,3.114,0.789,4.794,9.436,5.482,5.739,0.027,1.010,-0.106,-0.824,-0.854,0.458,60.000,65199.000,1.000
10.281,11.298,7.947,4.423,10.538,16.541,13.633,11.174,0.025,1.009,-0.106,-1.038,-0.763,0.366,60.000,65200.000,1.000
11.942,14.705,10.232,6.093,13.951,20.067,18.031,14.192,0.024,1.009,-0.105,-1.099,-0.793,0.305,60.000,65201.000,1.000
10.776,14.896,9.584,5.667,14.145,18.974,17.821,14.428,0.023,1.007,-0.106,-1.129,-0.793,0.366,60.000,65202.000,1.000
7.625,12.381,6.604,3.593,11.351,13.756,13.332,11.775,0.025,1.006,-0.108,-1.160,-0.885,0.305,60.000,65203.000,1.000
3.947,8.303,2.381,0.602,6.615,6.083,6.239,6.256,0.024,1.007,-0.104,-1.099,-0.854,0.336,60.000,65204.000,1.000
0.700,3.787,-1.877,-2.550,1.403,-1.952,-1.220,-1.435,0.026,1.007,-0.107,-1.251,-0.793,0.244,60.000,65205.000,1.000
-1.390,-0.035,-5.027,-5.007,-2.685,-8.356,-6.926,-9.392,0.027,1.007,-0.107,-1.373,-0.641,0.183,60.000,65206.000,1.000
-2.002,-2.463,-6.571,-6.247,-4.701,-11.970,-9.817,-15.338,0.027,1.007,-0.110,-1.495,-0.549,0.183,60.000,65207.000,1.000
-1.731,-3.722,-6.952,-6.502,-4.953,-12.960,-10.493,-18.006,0.031,1.005,-0.111,-1.617,-0.519,0.122,60.000,65208.000,1.000
-1.444,-4.499,-7.058,-6.414,-4.599,-12.468,-10.424,-17.573,0.027,1.006,-0.108,-1.678,-0.305,0.061,60.000,65209.000,1.000
-2.081,-5.377,-7.648,-6.841,-4.934,-12.009,-11.225,-15.497,0.027,1.004,-0.109,-1.556,-0.336,0.061,60.000,65210.000,1.000
-3.617,-6.128,-8.498,-7.970,-6.220,-12.166,-13.155,-13.191,0.023,1.002,-0.110,-1.434,-0.305,0.092,60.000,65211.000,1.000
-4.979,-5.904,-8.371,-8.888,-7.319,-11.998,-14.679,-10.896,0.024,1.002,-0.108,-1.373,-0.336,0.061,60.000,65212.000,1.000
-4.869,-3.844,-5.964,-8.187,-6.524,-9.837,-13.667,-7.898,0.024,1.002,-0.110,-1.343,-0.427,0.061,60.000,65213.000,1.000
-2.153,0.618,-0.809,-4.803,-2.732,-4.613,-8.552,-3.452,0.024,1.003,-0.108,-1.282,-0.427,0.061,60.000,65214.000,1.000
2.903,7.028,6.135,0.956,3.577,2.979,0.188,2.130,0.022,1.004,-0.107,-1.221,-0.366,0.000,60.000,65215.000,1.000
8.671,13.687,12.840,7.464,10.505,10.816,10.146,7.512,0.025,1.005,-0.109,-1.282,-0.336,0.000,60.000,65216.000,1.000
12.795,17.999,16.988,12.381,15.509,16.313,18.004,11.003,0.025,1.006,-0.110,-1.221,-0.427,0.061,60.000,65217.000,1.000
13.349,17.736,16.969,13.696,16.524,17.392,20.779,11.423,0.025,1.005,-0.110,-1.251,-0.397,0.092,60.000,65218.000,1.000
10.506,12.675,12.916,11.080,13.163,13.617,17.499,8.896,0.024,1.008,-0.107,-1.221,-0.397,0.092,60.000,65219.000,1.000
6.088,4.806,6.733,6.061,6.930,6.632,9.728,4.682,0.024,1.007,-0.107,-1.129,-0.427,0.031,60.000,65220.000,1.000
2.491,-2.716,1.128,1.226,0.468,-0.439,1.228,0.646,0.025,1.005,-0.109,-1.160,-0.397,0.122,60.000,65221.000,1.000
1.063,-7.533,-2.037,-1.506,-4.051,-4.989,-4.301,-1.871,0.023,1.006,-0.107,-1.190,-0.458,0.153,60.000,65222.000,1.000
1.828,-8.810,-2.247,-1.567,-5.654,-6.107,-5.284,-2.445,0.024,1.008,-0.106,-1.221,-0.458,0.183,60.000,65223.000,1.000
4.808,-6.512,0.326,1.004,-4.122,-4.031,-2.053,-0.729,0.023,1.005,-0.108,-1.099,-0.427,0.244,60.000,65224.000,1.000
9.390,-1.592,4.689,5.339,-0.251,-0.025,3.272,3.196,0.023,1.005,-0.105,-1.099,-0.458,0.275,60.000,65225.000,1.000
14.032,3.971,8.974,9.659,4.051,3.838,7.805,8.027,0.023,1.005,-0.109,-1.038,-0.458,0.275,60.000,65226.000,1.000
16.806,7.977,11.196,11.957,6.592,5.597,9.515,11.536,0.024,1.006,-0.106,-1.007,-0.458,0.397,60.000,65227.000,1.000
16.443,9.210,10.310,11.088,6.234,4.655,8.436,12.053,0.025,1.007,-0.107,-0.916,-0.488,0.488,60.000,65228.000,1.000
13.202,7.808,6.625,7.420,3.454,1.935,6.398,9.512,0.025,1.008,-0.105,-1.099,-0.488,0.549,60.000,65229.000,1.000
7.927,4.424,1.270,2.196,-0.532,-1.601,4.428,4.805,0.023,1.006,-0.107,-1.129,-0.580,0.641,60.000,65230.000,1.000
2.106,0.186,-4.076,-2.857,-4.387,-5.457,2.110,-0.679,0.023,1.007,-0.108,-1.160,-0.641,0.610,60.000,65231.000,1.000
-2.472,-3.467,-7.694,-6.147,-7.075,-9.101,-1.076,-5.308,0.022,1.003,-0.107,-1.190,-0.580,0.641,60.000,65232.000,1.000
-4.736,-5.456,-8.575,-6.948,-8.134,-11.670,-4.779,-7.650,0.024,1.003,-0.109,-1.068,-0.610,0.671,60.000,65233.000,1.000
-4.395,-5.381,-6.717,-5.447,-7.577,-12.256,-7.723,-6.885,0.023,1.001,-0.109,-1.099,-0.458,0.641,60.000,65234.000,1.000
-2.428,-3.883,-3.210,-2.761,-6.004,-10.787,-9.063,-3.690,0.024,1.004,-0.110,-0.977,-0.458,0.793,60.000,65235.000,1.000
-0.238,-2.084,0.394,-0.213,-4.251,-8.003,-8.735,-0.096,0.026,1.006,-0.109,-0.916,-0.427,0.732,60.000,65236.000,1.000
1.242,-0.796,2.830,1.287,-2.957,-4.870,-7.260,1.787,0.025,1.004,-0.110,-0.885,-0.458,0.763,60.000,65237.000,1.000
1.669,-0.247,3.547,1.428,-2.334,-2.142,-5.530,1.095,0.025,1.006,-0.112,-0.854,-0.397,0.702,60.000,65238.000,1.000
1.231,-0.338,2.697,0.492,-2.297,-0.319,-4.216,-1.424,0.026,1.005,-0.114,-0.977,-0.427,0.824,60.000,65239.000,1.000
-0.323,-1.213,0.606,-1.270,-2.969,-0.010,-3.961,-4.379,0.026,1.007,-0.108,-1.007,-0.458,0.732,60.000,65240.000,1.000
-2.853,-2.665,-2.160,-3.460,-4.256,-1.305,-4.737,-6.270,0.027,1.006,-0.112,-0.916,-0.397,0.702,60.000,65241.000,1.000
-5.259,-3.913,-4.757,-5.403,-5.503,-3.382,-5.720,-6.076,0.027,1.005,-0.110,-1.007,-0.366,0.763,60.000,65242.000,1.000
-6.441,-4.379,-6.517,-6.629,-5.991,-5.150,-6.194,-4.096,0.027,1.004,-0.107,-0.977,-0.336,0.763,60.000,65243.000,1.000
-5.958,-4.097,-7.292,-7.158,-5.510,-6.022,-5.991,-1.835,0.027,1.005,-0.111,-0.977,-0.336,0.763,60.000,65244.000,1.000
-4.448,-3.456,-7.292,-7.391,-4.416,-6.059,-5.645,-0.908,0.027,1.005,-0.108,-0.916,-0.275,0.793,60.000,65245.000,1.000
-2.524,-2.394,-6.351,-7.184,-2.850,-5.055,-5.154,-1.423,0.026,1.006,-0.108,-0.885,-0.244,0.610,60.000,65246.000,1.000
-0.562,-0.753,-4.245,-6.068,-0.829,-2.776,-3.910,-2.106,0.025,1.006,-0.110,-0.916,-0.183,0.702,60.000,65247.000,1.000
0.963,1.220,-1.352,-4.079,1.226,0.199,-1.880,-1.710,0.028,1.006,-0.110,-0.702,-0.092,0.641,60.000,65248.000,1.000
2.004,3.220,1.588,-1.703,2.788,2.977,0.628,0.197,0.026,1.007,-0.110,-0.763,-0.061,0.610,60.000,65249.000,1.000
2.182,4.664,3.696,0.106,3.375,4.932,3.089,2.684,0.027,1.008,-0.112,-0.641,-0.031,0.549,60.000,65250.000,1.000
1.042,4.868,4.368,0.545,2.746,5.834,4.928,4.089,0.029,1.005,-0.112,-0.610,0.000,0.671,60.000,65251.000,1.000
-1.285,3.613,3.632,-0.401,1.034,5.570,5.403,3.389,0.027,1.003,-0.111,-0.610,0.061,0.610,60.000,65252.000,1.000
-3.935,1.585,2.207,-1.918,-1.162,4.131,3.810,1.047,0.026,1.002,-0.108,-0.610,0.122,0.549,60.000,65253.000,1.000
-5.432,0.192,1.137,-2.788,-2.937,1.937,0.404,-1.273,0.026,1.001,-0.105,-0.488,0.275,0.641,60.000,65254.000,1.000
-5.133,0.410,0.900,-2.464,-3.774,-0.357,-3.911,-2.222,0.027,1.002,-0.109,-0.366,0.183,0.580,60.000,65255.000,1.000
-3.251,2.327,1.269,-1.214,-3.584,-1.938,-7.687,-1.556,0.026,1.001,-0.110,-0.397,0.244,0.549,60.000,65256.000,1.000
-0.646,5.001,1.586,0.070,-2.697,-2.366,-9.696,-0.183,0.027,1.004,-0.110,-0.214,0.031,0.671,60.000,65257.000,1.000
1.241,6.675,1.068,0.253,-1.931,-2.056,-9.993,0.361,0.024,1.007,-0.107,-0.183,-0.031,0.793,60.000,65258.000,1.000
1.369,5.817,-0.758,-1.228,-2.133,-1.769,-9.386,-0.913,0.026,1.006,-0.109,-0.061,0.092,0.702,60.000,65259.000,1.000
-0.709,1.996,-3.815,-4.147,-3.637,-1.923,-8.587,-3.841,0.025,1.007,-0.110,-0.061,0.122,0.671,60.000,65260.000,1.000
-4.122,-3.462,-7.232,-7.345,-5.707,-2.086,-7.157,-7.012,0.026,1.008,-0.111,-0.092,0.153,0.671,60.000,65261.000,1.000
-7.484,-8.570,-10.175,-9.704,-7.412,-1.982,-4.558,-9.115,0.027,1.010,-0.110,-0.031,0.336,0.702,60.000,65262.000,1.000
-10.813,-12.743,-13.036,-11.530,-9.124,-2.789,-2.271,-10.629,0.029,1.012,-0.117,-0.580,0.732,0.458,60.000,65263.000,1.000
-15.110,-16.843,-16.818,-13.985,-12.001,-6.142,-2.711,-13.063,0.028,1.010,-0.113,-0.793,1.038,0.336,60.000,65264.000,1.000
-20.508,-21.102,-21.152,-17.181,-15.816,-11.665,-6.324,-16.478,0.023,1.010,-0.106,-0.763,1.099,0.427,60.000,65265.000,1.000
-24.015,-22.918,-22.973,-18.644,-17.442,-15.538,-9.705,-17.795,0.021,1.007,-0.104,-0.824,0.671,0.824,60.000,65266.000,1.000
-21.155,-18.394,-18.517,-14.974,-12.893,-13.029,-8.037,-12.931,0.021,1.003,-0.102,-0.671,0.458,0.793,60.000,65267.000,1.000
-10.482,-6.466,-7.034,-5.283,-1.122,-2.821,0.521,-0.985,0.021,1.002,-0.105,-0.397,0.183,0.732,60.000,65268.000,1.000
4.818,9.435,8.037,7.685,14.630,11.644,13.489,14.503,0.021,1.002,-0.108,-0.183,0.000,0.763,60.000,65269.000,1.000
18.398,23.258,21.040,18.949,28.458,24.102,25.218,27.718,0.021,1.003,-0.111,-0.153,-0.031,0.885,60.000,65270.000,1.000
24.803,30.098,27.468,24.301,35.190,29.227,30.446,34.177,0.022,1.005,-0.114,-0.153,-0.153,0.977,60.000,65271.000,1.000
22.438,28.768,26.227,22.590,33.226,25.723,27.648,32.875,0.021,1.004,-0.113,-0.244,-0.305,1.099,60.000,65272.000,1.000
13.902,21.940,19.725,15.992,25.123,16.774,19.491,26.100,0.019,1.004,-0.113,-0.244,-0.366,1.007,60.000,65273.000,1.000
4.301,13.981,11.971,8.429,15.529,7.500,10.628,17.771,0.021,1.004,-0.109,-0.244,-0.549,0.946,60.000,65274.000,1.000
-2.675,7.519,5.722,2.773,7.756,1.189,4.007,10.813,0.022,1.005,-0.106,-0.153,-0.671,0.946,60.000,65275.000,1.000
-6.425,2.252,1.364,-0.281,2.415,-1.878,0.077,5.946,0.022,1.006,-0.109,-0.153,-0.732,1.038,60.000,65276.000,1.000
-8.416,-3.476,-2.118,-1.565,-1.456,-3.054,-1.699,2.429,0.022,1.007,-0.109,-0.275,-0.732,1.099,60.000,65277.000,1.000
-9.874,-10.025,-5.335,-2.012,-4.473,-3.514,-1.777,-0.471,0.022,1.009,-0.107,-0.366,-0.793,1.099,60.000,65278.000,1.000
-10.121,-15.474,-7.654,-1.703,-6.189,-3.586,-0.530,-2.747,0.025,1.007,-0.109,-0.610,-0.824,1.160,60.000,65279.000,1.000
-8.476,-17.966,-8.392,-0.718,-6.432,-3.687,0.564,-4.527,0.026,1.007,-0.111,-0.671,-0.885,1.251,60.000,65280.000,1.000
-5.773,-17.885,-8.009,0.186,-6.259,-4.785,-0.571,-6.633,0.026,1.005,-0.109,-0.702,-0.916,1.282,60.000,65281.000,1.000
-3.979,-17.536,-7.903,-0.195,-7.357,-7.849,-5.042,-10.054,0.026,1.005,-0.110,-0.702,-0.885,1.221,60.000,65282.000,1.000
-4.353,-18.622,-8.889,-2.432,-10.307,-12.585,-11.849,-14.534,0.026,1.004,-0.112,-0.641,-1.007,1.251,60.000,65283.000,1.000
-5.817,-20.318,-10.159,-5.502,-13.608,-16.861,-17.836,-17.808,0.028,1.004,-0.109,-0.641,-0.977,1.251,60.000,65284.000,1.000
-6.617,-20.606,-10.298,-7.734,-15.105,-18.278,-20.074,-17.442,0.028,1.006,-0.110,-0.549,-0.946,1.099,60.000,65285.000,1.000
-5.858,-18.357,-8.652,-8.053,-13.787,-15.854,-17.625,-13.004,0.028,1.007,-0.109,-0.519,-0.916,1.099,60.000,65286.000,1.000
-4.030,-14.296,-5.945,-6.725,-10.500,-10.708,-12.074,-6.622,0.026,1.008,-0.109,-0.610,-0.977,1.038,60.000,65287.000,1.000
-2.362,-10.117,-3.532,-4.823,-6.910,-5.054,-6.456,-1.339,0.026,1.009,-0.109,-0.641,-0.885,1.007,60.000,65288.000,1.000
-1.187,-6.818,-1.990,-2.838,-3.802,-0.269,-2.589,1.301,0.026,1.010,-0.110,-0.732,-0.885,0.916,60.000,65289.000,1.000
-0.588,-4.829,-1.284,-0.951,-1.284,3.195,-0.717,1.406,0.024,1.010,-0.109,-0.732,-0.885,0.885,60.000,65290.000,1.000
-0.846,-4.552,-1.542,0.338,0.304,4.908,-0.511,-0.329,0.024,1.009,-0.110,-0.854,-1.038,0.916,60.000,65291.000,1.000
-2.043,-6.050,-2.871,0.549,0.545,4.439,-1.568,-2.980,0.023,1.006,-0.109,-0.977,-1.068,0.702,60.000,65292.000,1.000
-3.366,-8.123,-4.308,0.300,0.155,2.613,-2.628,-4.821,0.027,1.008,-0.109,-1.007,-1.068,0.641,60.000,65293.000,1.000
-2.955,-8.482,-3.895,1.320,1.079,1.942,-1.013,-3.582,0.028,1.007,-0.107,-1.129,-1.160,0.458,60.000,65294.000,1.000
-0.313,-6.132,-0.844,4.202,4.220,4.247,4.545,1.223,0.027,1.007,-0.106,-1.129,-1.099,0.427,60.000,65295.000,1.000
2.865,-2.532,3.300,7.406,8.029,8.584,11.709,7.304,0.027,1.008,-0.106,-1.129,-1.038,0.458,60.000,65296.000,1.000
4.135,-0.182,5.903,8.613,9.731,11.889,15.995,11.359,0.027,1.008,-0.108,-1.312,-1.068,0.244,60.000,65297.000,1.000
2.187,-0.443,5.432,6.652,7.816,11.634,14.514,11.499,0.028,1.006,-0.107,-1.282,-1.129,0.366,60.000,65298.000,1.000
-2.023,-2.641,2.510,2.317,3.319,7.887,8.547,8.221,0.028,1.007,-0.111,-1.373,-1.160,0.305,60.000,65299.000,1.000
-6.348,-4.904,-0.763,-2.424,-1.118,2.807,1.944,3.540,0.029,1.008,-0.110,-1.434,-1.251,0.153,60.000,65300.000,1.000
-8.371,-5.175,-2.049,-5.293,-2.916,-0.978,-1.683,-0.079,0.028,1.009,-0.108,-1.465,-1.190,0.092,60.000,65301.000,1.000
-7.323,-3.053,-0.583,-5.245,-1.616,-2.384,-1.552,-1.420,0.027,1.008,-0.107,-1.556,-1.251,0.031,60.000,65302.000,1.000
-5.401,-0.748,1.954,-3.489,0.456,-2.629,-0.272,-1.712,0.027,1.006,-0.108,-1.556,-1.190,0.183,60.000,65303.000,1.000
-5.311,-0.907,3.031,-2.131,0.359,-3.657,-0.958,-3.201,0.026,1.002,-0.109,-1.526,-1.160,0.092,60.000,65304.000,1.000
-7.586,-3.907,1.491,-2.302,-2.790,-6.266,-4.654,-6.830,0.024,1.001,-0.107,-1.465,-1.282,0.244,60.000,65305.000,1.000
-9.700,-7.141,-1.529,-3.210,-6.959,-9.348,-9.471,-11.141,0.024,0.999,-0.107,-1.465,-1.312,0.305,60.000,65306.000,1.000
-8.649,-7.444,-3.922,-3.359,-9.212,-11.129,-12.456,-13.783,0.023,1.000,-0.111,-1.526,-1.312,0.275,60.000,65307.000,1.000
-4.009,-3.785,-4.374,-2.235,-8.237,-10.766,-12.229,-13.597,0.025,1.002,-0.110,-1.434,-1.312,0.275,60.000,65308.000,1.000
2.379,2.467,-2.917,-0.411,-4.904,-8.619,-9.351,-10.929,0.023,1.003,-0.112,-1.373,-1.251,0.275,60.000,65309.000,1.000
7.513,8.378,-0.919,0.777,-1.580,-6.091,-5.888,-7.270,0.024,1.004,-0.109,-1.404,-1.251,0.214,60.000,65310.000,1.000
9.219,11.201,-0.071,0.272,-0.383,-4.561,-3.730,-4.326,0.026,1.005,-0.108,-1.526,-1.312,0.366,60.000,65311.000,1.000
7.350,10.015,-1.071,-1.846,-1.724,-4.316,-3.250,-3.058,0.026,1.010,-0.108,-1.465,-1.373,0.427,60.000,65312.000,1.000
3.603,6.260,-2.979,-4.218,-4.038,-4.372,-3.357,-3.075,0.030,1.010,-0.105,-1.526,-1.251,0.397,60.000,65313.000,1.000
0.971,2.912,-3.630,-4.624,-4.643,-3.054,-1.948,-2.573,0.029,1.011,-0.108,-1.678,-1.282,0.519,60.000,65314.000,1.000
1.386,2.115,-1.447,-1.741,-1.807,0.449,2.191,0.064,0.030,1.008,-0.109,-1.740,-1.068,0.641,60.000,65315.000,1.000
4.741,4.006,3.390,3.895,4.131,5.516,8.518,5.042,0.030,1.008,-0.112,-1.740,-1.038,0.580,60.000,65316.000,1.000
9.445,7.341,9.225,10.344,11.212,10.631,15.112,11.349,0.031,1.006,-0.110,-1.709,-0.946,0.610,60.000,65317.000,1.000
13.159,10.460,13.791,15.181,16.864,13.931,19.242,17.212,0.031,1.002,-0.112,-1.801,-1.007,0.732,60.000,65318.000,1.000
13.855,11.751,15.012,16.325,18.732,13.720,18.565,20.172,0.029,1.002,-0.114,-1.709,-0.854,0.763,60.000,65319.000,1.000
10.281,9.975,11.791,12.597,15.417,9.152,12.092,17.562,0.030,1.000,-0.113,-1.678,-0.702,0.824,60.000,65320.000,1.000
3.352,5.590,5.175,4.982,7.801,1.428,1.669,8.891,0.029,1.000,-0.108,-1.556,-0.610,0.885,60.000,65321.000,1.000
-4.278,0.631,-2.039,-3.579,-1.117,-6.543,-8.403,-3.015,0.031,1.002,-0.106,-1.526,-0.519,0.946,60.000,65322.000,1.000
-10.491,-3.122,-7.308,-10.210,-8.222,-12.123,-14.264,-13.802,0.033,1.005,-0.110,-1.740,-0.366,0.977,60.000,65323.000,1.000
-14.212,-4.989,-9.577,-13.382,-11.865,-14.433,-14.809,-19.912,0.035,1.005,-0.111,-1.831,-0.183,1.007,60.000,65324.000,1.000
-15.130,-4.947,-9.066,-13.000,-12.005,-14.245,-12.104,-20.007,0.034,1.006,-0.112,-1.984,-0.092,1.007,60.000,65325.000,1.000
-12.578,-2.596,-6.070,-9.382,-9.014,-12.100,-8.515,-14.593,0.034,1.008,-0.111,-1.953,0.031,0.946,60.000,65326.000,1.000
-6.133,2.317,-0.796,-3.129,-3.346,-7.637,-4.625,-5.564,0.032,1.009,-0.111,-2.045,0.153,0.916,60.000,65327.000,1.000
2.783,8.559,5.742,4.216,3.675,-0.896,-0.260,3.911,0.031,1.010,-0.114,-2.045,0.183,0.854,60.000,65328.000,1.000
11.418,13.642,11.571,10.501,9.796,6.700,4.262,10.573,0.028,1.013,-0.110,-2.106,0.305,0.824,60.000,65329.000,1.000
16.655,15.050,14.523,13.710,12.631,12.425,7.439,12.452,0.025,1.013,-0.107,-2.106,0.366,0.671,60.000,65330.000,1.000
17.006,12.050,13.716,13.153,11.242,14.069,7.923,9.904,0.021,1.012,-0.104,-2.136,0.275,0.488,60.000,65331.000,1.000
13.545,6.271,10.099,9.744,6.744,11.546,5.843,5.173,0.017,1.011,-0.106,-2.167,0.183,0.397,60.000,65332.000,1.000
8.781,0.566,5.626,5.118,1.339,6.741,2.510,0.725,0.016,1.011,-0.107,-2.289,-0.092,0.183,60.000,65333.000,1.000
5.261,-2.549,2.147,0.890,-2.914,2.370,-0.076,-1.873,0.017,1.010,-0.106,-2.289,-0.275,0.061,60.000,65334.000,1.000
3.555,-2.384,0.336,-2.185,-5.105,0.284,-0.494,-2.488,0.016,1.010,-0.105,-2.380,-0.427,0.031,60.000,65335.000,1.000
2.576,0.118,-0.292,-4.142,-5.475,0.631,1.427,-1.989,0.018,1.009,-0.104,-2.441,-0.580,-0.122,60.000,65336.000,1.000
1.210,3.540,-0.622,-5.380,-4.925,2.045,4.409,-1.596,0.018,1.010,-0.103,-2.441,-0.854,-0.122,60.000,65337.000,1.000
-0.525,7.060,-1.008,-6.141,-4.273,2.938,6.562,-2.141,0.019,1.008,-0.103,-2.502,-0.946,-0.153,60.000,65338.000,1.000
-1.022,10.970,-0.782,-5.878,-3.460,3.179,7.470,-3.134,0.021,1.009,-0.103,-2.411,-1.038,-0.122,60.000,65339.000,1.000
0.865,15.638,0.781,-4.011,-1.984,3.823,7.952,-3.260,0.022,1.009,-0.104,-2.319,-1.282,-0.153,60.000,65340.000,1.000
4.752,20.644,3.502,-0.715,0.365,5.776,8.870,-1.527,0.023,1.008,-0.105,-2.228,-1.343,-0.153,60.000,65341.000,1.000
9.145,24.716,6.296,3.000,3.117,8.884,10.445,1.873,0.022,1.007,-0.106,-2.228,-1.373,-0.031,60.000,65342.000,1.000
12.276,26.340,7.939,5.861,5.337,12.095,12.181,5.621,0.023,1.007,-0.105,-2.045,-1.404,0.092,60.000,65343.000,1.000
13.250,24.759,7.813,7.138,6.180,14.254,13.442,8.207,0.025,1.004,-0.105,-1.953,-1.434,0.214,60.000,65344.000,1.000
11.597,20.109,5.762,6.421,4.988,14.399,13.339,8.312,0.028,1.003,-0.105,-1.862,-1.404,0.458,60.000,65345.000,1.000
7.649,13.566,2.157,3.807,1.809,12.344,11.626,5.493,0.029,1.002,-0.103,-1.740,-1.343,0.580,60.000,65346.000,1.000
2.844,7.091,-1.978,0.227,-2.297,8.876,9.212,0.834,0.030,1.003,-0.103,-1.709,-1.312,0.671,60.000,65347.000,1.000
-1.169,2.467,-5.325,-2.930,-5.835,5.184,7.081,-3.456,0.031,1.002,-0.106,-1.648,-1.190,0.854,60.000,65348.000,1.000
-3.261,0.413,-6.906,-4.518,-7.716,2.299,5.587,-5.285,0.032,1.001,-0.108,-1.434,-1.007,0.946,60.000,65349.000,1.000
-3.726,0.215,-6.777,-4.466,-7.945,0.362,3.834,-4.174,0.031,1.001,-0.107,-1.495,-1.007,1.007,60.000,65350.000,1.000
-3.480,0.629,-5.750,-3.436,-7.291,-1.370,0.485,-1.189,0.030,0.999,-0.105,-1.373,-0.916,1.068,60.000,65351.000,1.000
-3.540,0.431,-4.834,-2.332,-6.730,-3.838,-4.854,1.834,0.030,0.999,-0.105,-1.221,-0.763,1.190,60.000,65352.000,1.000
-4.977,-1.311,-4.676,-1.905,-6.738,-7.139,-10.898,3.165,0.032,0.998,-0.106,-1.038,-0.671,1.160,60.000,65353.000,1.000
-7.655,-4.392,-5.009,-1.994,-6.579,-10.010,-14.917,2.426,0.031,1.000,-0.108,-0.824,-0.427,1.190,60.000,65354.000,1.000
-10.636,-7.815,-5.217,-1.997,-5.176,-11.201,-15.312,0.437,0.033,1.001,-0.106,-0.702,-0.275,1.007,60.000,65355.000,1.000
-13.066,-10.792,-5.141,-1.657,-2.414,-10.786,-13.021,-1.772,0.032,1.001,-0.102,-0.671,-0.092,0.946,60.000,65356.000,1.000
-14.908,-13.439,-5.305,-1.385,0.520,-10.172,-10.610,-3.681,0.033,1.001,-0.101,-0.641,0.031,0.916,60.000,65357.000,1.000
-16.615,-16.135,-6.209,-1.615,2.279,-10.738,-10.310,-5.161,0.033,1.001,-0.109,-0.580,0.214,0.885,60.000,65358.000,1.000
-17.632,-18.284,-7.413,-1.845,2.722,-12.363,-12.107,-5.799,0.035,1.000,-0.108,-0.580,0.305,0.824,60.000,65359.000,1.000
-16.902,-18.632,-7.733,-1.182,2.727,-13.562,-14.218,-5.020,0.035,1.001,-0.108,-0.427,0.427,0.671,60.000,65360.000,1.000
-13.106,-15.680,-5.549,1.351,3.931,-11.970,-13.855,-1.951,0.034,1.002,-0.109,-0.366,0.549,0.549,60.000,65361.000,1.000
-5.030,-8.221,0.538,6.648,8.179,-5.470,-8.571,4.426,0.034,1.004,-0.109,-0.275,0.580,0.366,60.000,65362.000,1.000
6.862,3.244,10.218,14.449,15.809,5.709,1.401,13.910,0.031,1.004,-0.106,-0.336,0.671,0.275,60.000,65363.000,1.000
19.943,15.786,20.730,22.621,24.473,18.180,12.787,24.101,0.032,1.004,-0.106,-0.397,0.916,0.183,60.000,65364.000,1.000
30.225,25.273,28.125,27.913,30.244,27.182,21.039,31.289,0.031,1.006,-0.107,-0.397,0.885,0.031,60.000,65365.000,1.000
34.995,29.038,29.978,28.320,30.541,29.955,23.518,33.077,0.031,1.005,-0.108,-0.336,0.885,-0.061,60.000,65366.000,1.000
33.819,26.779,26.474,24.037,25.408,26.838,20.502,29.545,0.031,1.006,-0.108,-0.427,0.977,-0.183,60.000,65367.000,1.000
27.668,19.782,19.342,16.401,16.515,19.638,13.473,22.044,0.029,1.006,-0.106,-0.366,1.068,-0.153,60.000,65368.000,1.000
18.903,10.472,10.723,7.140,6.161,10.377,4.357,12.207,0.029,1.006,-0.108,-0.336,1.099,-0.214,60.000,65369.000,1.000
10.292,1.626,2.587,-1.965,-3.244,1.095,-4.484,1.801,0.029,1.006,-0.106,-0.397,1.160,-0.275,60.000,65370.000,1.000
4.042,-4.641,-3.456,-9.165,-9.601,-5.993,-10.261,-7.176,0.030,1.010,-0.107,-0.458,1.129,-0.244,60.000,65371.000,1.000
0.696,-7.968,-6.742,-13.553,-12.219,-9.422,-11.367,-13.361,0.024,1.010,-0.105,-0.580,1.160,-0.214,60.000,65372.000,1.000
-0.889,-9.493,-7.754,-15.511,-12.115,-9.416,-8.911,-16.654,0.024,1.008,-0.106,-0.641,1.099,-0.153,60.000,65373.000,1.000
-1.547,-10.141,-7.343,-15.793,-10.755,-7.358,-5.373,-17.555,0.024,1.009,-0.108,-0.732,1.038,-0.122,60.000,65374.000,1.000
-1.554,-10.135,-6.286,-15.141,-9.191,-4.872,-2.902,-16.945,0.022,1.007,-0.106,-0.732,0.854,-0.092,60.000,65375.000,1.000
-0.833,-9.250,-4.931,-13.948,-7.713,-2.718,-1.890,-15.755,0.019,1.006,-0.107,-0.641,0.763,-0.183,60.000,65376.000,1.000
0.554,-7.386,-3.279,-12.256,-6.140,-0.635,-1.104,-14.495,0.021,1.007,-0.106,-0.702,0.641,-0.092,60.000,65377.000,1.000
1.738,-5.085,-1.467,-10.184,-4.456,1.733,0.554,-13.235,0.023,1.008,-0.106,-0.671,0.580,-0.061,60.000,65378.000,1.000
1.792,-3.223,0.127,-7.944,-2.938,4.117,3.016,-11.805,0.023,1.007,-0.106,-0.732,0.397,0.031,60.000,65379.000,1.000
0.039,-2.614,0.879,-6.053,-2.170,5.348,4.662,-10.462,0.022,1.008,-0.107,-0.732,0.214,0.092,60.000,65380.000,1.000
-3.166,-3.224,0.448,-4.907,-2.445,4.452,3.902,-9.633,0.023,1.009,-0.105,-0.702,0.122,0.214,60.000,65381.000,1.000
-6.704,-4.274,-0.969,-4.488,-3.445,1.738,0.865,-9.292,0.022,1.008,-0.106,-0.671,0.183,0.275,60.000,65382.000,1.000
-10.021,-5.271,-2.922,-4.627,-4.614,-1.486,-2.808,-9.080,0.023,1.009,-0.108,-0.732,0.061,0.427,60.000,65383.000,1.000
-13.068,-6.329,-4.856,-5.036,-5.441,-3.751,-5.007,-8.648,0.024,1.007,-0.107,-0.732,-0.061,0.488,60.000,65384.000,1.000
-16.209,-7.895,-6.387,-5.592,-5.758,-4.422,-4.987,-8.133,0.022,1.004,-0.109,-0.671,-0.275,0.519,60.000,65385.000,1.000
-19.217,-9.903,-7.379,-6.168,-5.615,-3.866,-3.519,-8.092,0.021,1.002,-0.108,-0.610,-0.275,0.610,60.000,65386.000,1.000
-21.255,-11.839,-8.178,-6.760,-5.453,-3.306,-2.047,-9.431,0.022,0.999,-0.109,-0.549,-0.488,0.458,60.000,65387.000,1.000
-22.037,-13.386,-9.419,-7.639,-6.002,-4.106,-1.786,-12.779,0.024,0.997,-0.109,-0.458,-0.580,0.305,60.000,65388.000,1.000
-21.566,-14.135,-10.924,-8.546,-7.158,-6.133,-2.207,-17.002,0.025,1.000,-0.110,-0.366,-0.671,0.183,60.000,65389.000,1.000
-20.124,-13.524,-11.546,-8.652,-7.721,-7.696,-1.795,-19.531,0.026,1.000,-0.111,-0.275,-0.641,0.183,60.000,65390.000,1.000
-17.927,-11.217,-10.324,-7.295,-6.508,-7.352,-0.046,-18.315,0.030,1.002,-0.112,-0.153,-0.580,0.183,60.000,65391.000,1.000
-15.584,-8.072,-7.956,-5.108,-3.947,-5.756,1.459,-13.697,0.032,1.003,-0.113,-0.183,-0.549,0.122,60.000,65392.000,1.000
-14.596,-6.189,-6.584,-3.963,-2.039,-5.173,0.213,-8.284,0.031,1.002,-0.112,-0.031,-0.641,0.092,60.000,65393.000,1.000
-15.682,-7.059,-7.616,-4.936,-2.236,-6.914,-4.442,-4.470,0.032,1.004,-0.111,0.092,-0.610,0.061,60.000,65394.000,1.000
-18.084,-10.347,-10.352,-7.106,-4.034,-10.024,-10.741,-2.622,0.033,1.004,-0.108,0.031,-0.458,0.092,60.000,65395.000,1.000
-19.610,-13.876,-12.334,-7.941,-5.222,-11.834,-15.238,-0.963,0.030,1.005,-0.108,0.061,-0.275,0.122,60.000,65396.000,1.000
-17.932,-15.011,-11.108,-5.173,-3.599,-9.910,-14.586,2.872,0.027,1.007,-0.108,0.122,-0.275,-0.031,60.000,65397.000,1.000
-12.500,-12.463,-5.926,1.374,1.347,-3.917,-7.988,9.828,0.021,1.010,-0.109,-0.092,-0.305,-0.061,60.000,65398.000,1.000
-4.664,-6.963,1.865,9.748,8.256,4.223,2.263,18.728,0.020,1.012,-0.109,-0.275,-0.488,-0.061,60.000,65399.000,1.000
2.550,-1.120,9.252,16.664,14.396,11.049,11.499,26.544,0.018,1.010,-0.110,-0.366,-0.519,-0.183,60.000,65400.000,1.000
6.306,2.217,13.068,19.233,16.961,13.280,15.161,29.998,0.019,1.009,-0.108,-0.549,-0.519,-0.214,60.000,65401.000,1.000
5.528,1.576,11.635,16.368,14.463,9.587,11.300,27.363,0.022,1.009,-0.107,-0.671,-0.671,-0.305,60.000,65402.000,1.000
0.953,-2.536,5.619,9.126,7.532,1.404,1.466,19.338,0.024,1.005,-0.111,-0.580,-0.732,-0.183,60.000,65403.000,1.000
-4.693,-7.523,-2.002,0.539,-1.001,-7.463,-9.532,9.103,0.026,1.007,-0.108,-0.671,-0.824,-0.336,60.000,65404.000,1.000
-8.497,-10.358,-7.658,-6.086,-7.748,-13.156,-16.521,0.628,0.028,1.009,-0.110,-0.885,-0.763,-0.244,60.000,65405.000,1.000
-9.234,-9.775,-9.407,-9.009,-10.860,-14.144,-17.277,-3.531,0.024,1.009,-0.109,-0.916,-0.763,-0.305,60.000,65406.000,1.000
-7.829,-6.982,-7.938,-8.731,-10.840,-11.820,-13.695,-3.477,0.023,1.008,-0.112,-0.946,-0.793,-0.214,60.000,65407.000,1.000
-6.058,-4.008,-5.364,-6.927,-9.315,-8.690,-9.661,-1.194,0.023,1.008,-0.109,-1.129,-0.793,-0.122,60.000,65408.000,1.000
-4.289,-1.524,-3.077,-4.622,-7.168,-5.923,-7.014,1.587,0.023,1.005,-0.110,-1.160,-0.763,-0.183,60.000,65409.000,1.000
-2.017,0.877,-1.354,-2.134,-4.518,-3.444,-4.956,3.972,0.022,1.005,-0.109,-1.099,-0.793,-0.214,60.000,65410.000,1.000
1.182,3.595,0.055,0.453,-1.438,-1.134,-2.032,5.557,0.021,1.007,-0.113,-1.007,-0.854,-0.122,60.000,65411.000,1.000
5.174,6.514,1.441,3.060,1.714,0.796,2.052,6.304,0.024,1.010,-0.112,-1.068,-0.885,-0.092,60.000,65412.000,1.000
9.001,9.140,2.835,5.418,4.288,2.077,5.977,6.352,0.025,1.007,-0.113,-1.099,-0.916,-0.122,60.000,65413.000,1.000
11.575,10.931,3.763,6.986,5.430,2.361,7.927,5.472,0.024,1.006,-0.111,-1.129,-0.946,-0.061,60.000,65414.000,1.000
11.475,10.986,3.178,6.697,4.154,0.929,6.516,2.635,0.024,1.006,-0.111,-1.282,-0.885,-0.122,60.000,65415.000,1.000
8.206,8.951,0.762,4.159,0.616,-2.167,2.409,-2.421,0.023,1.005,-0.110,-1.129,-0.946,0.000,60.000,65416.000,1.000
3.496,6.160,-1.981,0.826,-3.070,-5.210,-1.334,-7.683,0.024,1.004,-0.112,-1.099,-0.854,0.000,60.000,65417.000,1.000
0.220,4.869,-2.653,-0.828,-4.084,-5.844,-1.486,-9.995,0.025,1.004,-0.111,-1.068,-0.916,0.000,60.000,65418.000,1.000
0.611,6.337,-0.005,0.840,-1.035,-2.860,3.158,-7.571,0.025,1.004,-0.111,-0.916,-0.854,0.092,60.000,65419.000,1.000
4.328,9.541,4.750,5.060,4.719,2.545,10.493,-1.653,0.026,1.008,-0.113,-0.916,-0.916,0.122,60.000,65420.000,1.000
9.167,12.275,9.049,9.469,10.235,7.695,16.772,4.687,0.027,1.007,-0.111,-0.946,-0.793,0.214,60.000,65421.000,1.000
12.728,12.769,10.896,11.938,12.974,10.216,19.251,8.583,0.028,1.007,-0.113,-0.885,-0.732,0.244,60.000,65422.000,1.000
13.450,10.540,9.863,11.677,12.039,9.208,17.386,8.556,0.027,1.006,-0.113,-0.885,-0.641,0.305,60.000,65423.000,1.000
11.895,6.841,7.191,9.640,8.619,5.826,13.080,5.386,0.028,1.006,-0.113,-0.916,-0.610,0.366,60.000,65424.000,1.000
9.790,3.660,4.609,7.370,4.871,2.285,8.761,1.327,0.027,1.006,-0.114,-0.885,-0.641,0.488,60.000,65425.000,1.000
8.625,2.373,3.115,5.810,2.372,0.309,5.658,-1.683,0.026,1.006,-0.110,-0.885,-0.641,0.488,60.000,65426.000,1.000
8.615,2.822,2.473,4.829,1.298,0.079,3.749,-3.208,0.023,1.007,-0.110,-0.854,-0.549,0.549,60.000,65427.000,1.000
8.797,3.766,1.840,3.733,0.920,0.528,2.700,-3.825,0.023,1.008,-0.108,-0.824,-0.549,0.519,60.000,65428.000,1.000
8.903,4.541,1.075,2.529,0.804,0.750,2.778,-3.699,0.024,1.005,-0.109,-0.793,-0.610,0.488,60.000,65429.000,1.000
9.104,5.010,0.626,1.557,0.641,0.288,3.420,-2.854,0.027,1.005,-0.107,-0.763,-0.671,0.427,60.000,65430.000,1.000
9.453,4.982,0.815,0.844,-0.008,-0.818,3.058,-1.687,0.026,1.006,-0.110,-0.763,-0.671,0.580,60.000,65431.000,1.000
10.101,4.587,1.736,0.346,-1.104,-1.773,1.010,-0.363,0.025,1.005,-0.107,-0.763,-0.702,0.488,60.000,65432.000,1.000
11.020,4.383,3.229,0.145,-1.989,-1.668,-2.004,1.429,0.023,1.006,-0.107,-0.824,-0.732,0.488,60.000,65433.000,1.000
11.858,4.634,4.711,0.272,-2.148,-0.445,-4.777,3.911,0.024,1.004,-0.111,-0.854,-0.641,0.458,60.000,65434.000,1.000
11.496,4.642,5.296,0.354,-1.796,1.040,-6.801,6.632,0.024,1.002,-0.111,-0.885,-0.610,0.397,60.000,65435.000,1.000
9.116,3.553,4.593,0.100,-1.314,2.093,-8.033,8.927,0.024,1.003,-0.108,-0.854,-0.641,0.427,60.000,65436.000,1.000
4.780,0.859,2.611,-0.725,-1.186,2.202,-8.922,10.057,0.023,1.003,-0.110,-0.824,-0.702,0.275,60.000,65437.000,1.000
-1.007,-3.545,-0.682,-2.548,-2.165,0.729,-10.486,9.215,0.024,1.004,-0.110,-0.763,-0.702,0.275,60.000,65438.000,1.000
-6.783,-8.767,-4.849,-5.232,-4.469,-2.185,-12.802,6.481,0.023,1.004,-0.112,-0.793,-0.671,0.244,60.000,65439.000,1.000
-10.996,-13.352,-8.858,-8.038,-7.500,-5.499,-14.965,3.016,0.023,1.004,-0.111,-0.793,-0.641,0.183,60.000,65440.000,1.000
-12.358,-15.793,-11.184,-9.726,-9.837,-7.604,-15.581,0.748,0.023,1.004,-0.113,-0.671,-0.671,0.122,60.000,65441.000,1.000
-9.739,-14.776,-10.183,-8.823,-9.619,-6.762,-13.233,1.621,0.024,1.006,-0.110,-0.732,-0.702,0.061,60.000,65442.000,1.000
-3.044,-9.938,-5.111,-4.592,-5.753,-2.176,-7.662,6.309,0.025,1.006,-0.114,-0.732,-0.793,0.122,60.000,65443.000,1.000
6.330,-2.613,2.980,2.233,0.996,5.088,-0.025,13.579,0.026,1.007,-0.113,-0.763,-0.885,0.092,60.000,65444.000,1.000
15.184,4.109,11.117,9.197,7.905,12.055,7.362,20.451,0.026,1.005,-0.111,-0.885,-0.885,0.092,60.000,65445.000,1.000
20.284,7.172,15.945,13.478,11.895,15.586,12.290,23.713,0.027,1.005,-0.110,-0.916,-0.885,0.183,60.000,65446.000,1.000
20.148,5.310,15.582,13.463,11.265,14.208,13.498,21.681,0.026,1.005,-0.107,-0.946,-0.916,0.153,60.000,65447.000,1.000
15.398,-0.472,10.467,9.361,6.470,8.690,10.716,14.980,0.024,1.007,-0.113,-0.977,-0.854,0.092,60.000,65448.000,1.000
9.053,-7.034,3.283,3.338,0.143,1.756,5.516,6.433,0.027,1.008,-0.110,-1.068,-0.854,0.183,60.000,65449.000,1.000
4.546,-10.840,-2.492,-1.745,-4.423,-3.533,0.767,-0.680,0.025,1.008,-0.108,-1.160,-0.946,0.336,60.000,65450.000,1.000
3.760,-9.863,-4.366,-3.828,-5.120,-5.224,-0.816,-4.438,0.026,1.009,-0.110,-1.251,-0.824,0.366,60.000,65451.000,1.000
6.410,-4.383,-1.978,-2.466,-1.983,-2.967,1.795,-4.841,0.023,1.008,-0.108,-1.343,-0.885,0.336,60.000,65452.000,1.000
10.250,3.222,2.831,1.125,3.065,2.032,7.063,-3.216,0.022,1.009,-0.108,-1.434,-0.946,0.427,60.000,65453.000,1.000
12.595,9.662,7.075,4.861,7.413,7.540,12.228,-1.119,0.023,1.008,-0.107,-1.343,-0.916,0.458,60.000,65454.000,1.000
11.424,12.280,8.100,6.591,8.969,11.163,15.002,0.020,0.023,1.006,-0.112,-1.373,-1.007,0.519,60.000,65455.000,1.000
6.899,10.757,5.217,5.428,7.346,11.847,15.068,-0.652,0.024,1.007,-0.109,-1.465,-1.038,0.488,60.000,65456.000,1.000
1.173,6.906,-0.091,2.159,3.754,10.154,13.588,-3.064,0.024,1.007,-0.106,-1.526,-0.977,0.488,60.000,65457.000,1.000
-3.664,2.936,-5.506,-1.690,-0.172,7.071,11.243,-6.467,0.023,1.007,-0.108,-1.770,-1.038,0.458,60.000,65458.000,1.000
-6.419,0.336,-9.251,-4.725,-3.252,3.211,7.867,-9.910,0.023,1.008,-0.108,-1.801,-1.007,0.549,60.000,65459.000,1.000
-7.523,-0.835,-10.953,-6.520,-5.343,-1.301,2.734,-12.983,0.021,1.006,-0.110,-1.862,-1.099,0.458,60.000,65460.000,1.000
-7.866,-1.115,-10.984,-7.052,-6.620,-5.738,-3.794,-15.275,0.021,1.004,-0.113,-1.831,-1.099,0.549,60.000,65461.000,1.000
-7.578,-0.615,-9.695,-6.183,-6.835,-8.464,-9.444,-15.938,0.022,1.001,-0.114,-1.648,-1.190,0.458,60.000,65462.000,1.000
-6.863,0.507,-7.793,-4.427,-5.955,-8.469,-11.966,-14.826,0.024,1.001,-0.108,-1.526,-1.160,0.488,60.000,65463.000,1.000
-6.234,1.653,-6.336,-2.965,-4.564,-6.192,-10.610,-12.899,0.025,1.003,-0.107,-1.373,-1.160,0.427,60.000,65464.000,1.000
-6.512,1.983,-6.127,-2.882,-3.510,-3.010,-6.519,-11.396,0.027,1.004,-0.104,-1.343,-1.099,0.366,60.000,65465.000,1.000
-7.958,1.174,-7.157,-4.356,-3.311,-0.298,-1.872,-10.779,0.029,1.005,-0.108,-1.373,-1.007,0.427,60.000,65466.000,1.000
-10.140,-0.604,-8.975,-6.952,-4.340,0.609,0.926,-10.920,0.028,1.008,-0.108,-1.465,-1.007,0.397,60.000,65467.000,1.000
-12.521,-3.015,-11.044,-10.033,-6.753,-1.160,0.178,-11.665,0.029,1.009,-0.111,-1.465,-0.946,0.397,60.000,65468.000,1.000
-13.654,-4.851,-12.125,-12.063,-9.401,-4.388,-3.100,-12.167,0.028,1.004,-0.115,-1.373,-0.885,0.336,60.000,65469.000,1.000
-11.954,-4.415,-10.657,-11.171,-10.190,-6.285,-5.839,-10.981,0.028,1.004,-0.114,-1.343,-0.854,0.336,60.000,65470.000,1.000
-7.188,-1.157,-6.203,-6.737,-7.928,-5.047,-5.538,-7.397,0.028,1.003,-0.108,-1.282,-0.824,0.305,60.000,65471.000,1.000
-1.396,2.992,-0.416,-0.513,-3.775,-1.727,-2.414,-2.700,0.026,1.004,-0.109,-1.221,-0.641,0.305,60.000,65472.000,1.000
2.059,4.678,3.822,4.163,-0.589,0.589,0.675,0.419,0.028,1.004,-0.111,-1.282,-0.641,0.397,60.000,65473.000,1.000
1.803,2.325,4.746,5.161,-0.293,-0.255,1.311,0.533,0.026,1.005,-0.110,-1.343,-0.641,0.336,60.000,65474.000,1.000
-0.899,-2.696,2.834,2.935,-2.466,-3.890,-0.693,-1.243,0.025,1.005,-0.109,-1.434,-0.610,0.336,60.000,65475.000,1.000
-3.601,-7.400,0.050,-0.312,-5.093,-8.187,-3.794,-2.371,0.023,1.004,-0.106,-1.373,-0.580,0.366,60.000,65476.000,1.000
-4.337,-9.157,-1.771,-2.495,-6.282,-11.098,-6.276,-1.131,0.023,1.006,-0.109,-1.282,-0.580,0.305,60.000,65477.000,1.000
-2.463,-6.801,-1.679,-2.598,-5.144,-11.517,-7.167,2.152,0.023,1.004,-0.111,-1.251,-0.610,0.336,60.000,65478.000,1.000
2.057,-0.599,0.770,-0.218,-1.480,-8.842,-5.601,6.083,0.026,1.005,-0.107,-1.251,-0.580,0.336,60.000,65479.000,1.000
8.053,7.474,5.139,4.051,3.908,-3.445,-1.518,9.199,0.025,1.006,-0.109,-1.251,-0.549,0.305,60.000,65480.000,1.000
13.220,14.286,9.752,8.397,9.087,2.847,3.579,10.497,0.025,1.008,-0.107,-1.343,-0.519,0.336,60.000,65481.000,1.000
15.263,16.967,12.441,10.652,11.856,7.421,7.094,9.700,0.023,1.009,-0.107,-1.434,-0.488,0.397,60.000,65482.000,1.000
12.995,14.292,11.886,9.605,11.080,8.372,6.658,7.182,0.023,1.008,-0.107,-1.373,-0.549,0.305,60.000,65483.000,1.000
7.500,7.502,8.378,5.852,7.373,5.703,2.074,3.723,0.024,1.008,-0.108,-1.434,-0.580,0.305,60.000,65484.000,1.000
0.984,-0.683,3.125,0.869,2.145,0.758,-4.892,-0.285,0.025,1.004,-0.109,-1.373,-0.549,0.305,60.000,65485.000,1.000
-4.434,-7.405,-2.383,-3.832,-3.127,-4.572,-11.592,-4.685,0.025,1.005,-0.107,-1.373,-0.519,0.244,60.000,65486.000,1.000
-7.538,-10.895,-6.796,-7.169,-7.163,-8.498,-15.689,-8.971,0.024,1.007,-0.107,-1.343,-0.549,0.305,60.000,65487.000,1.000
-8.677,-11.180,-9.440,-8.939,-9.308,-10.102,-16.454,-12.444,0.024,1.007,-0.106,-1.312,-0.610,0.458,60.000,65488.000,1.000
-8.498,-9.215,-10.056,-9.221,-9.370,-9.328,-14.397,-14.110,0.025,1.006,-0.110,-1.190,-0.549,0.397,60.000,65489.000,1.000
-7.384,-5.982,-8.513,-8.065,-7.468,-6.736,-10.643,-12.985,0.024,1.005,-0.113,-1.160,-0.641,0.458,60.000,65490.000,1.000
-5.244,-2.056,-4.896,-5.557,-3.969,-3.083,-5.971,-8.962,0.025,1.004,-0.111,-1.160,-0.641,0.488,60.000,65491.000,1.000
-1.782,2.219,0.162,-2.144,0.433,0.908,-0.450,-3.366,0.027,1.005,-0.110,-1.099,-0.580,0.397,60.000,65492.000,1.000
2.528,6.218,5.383,1.160,4.649,4.527,5.553,1.633,0.025,1.006,-0.104,-1.007,-0.610,0.427,60.000,65493.000,1.000
6.431,8.891,9.222,3.191,7.411,7.114,10.908,4.371,0.024,1.007,-0.105,-0.885,-0.519,0.305,60.000,65494.000,1.000
7.862,8.835,10.245,2.882,7.533,7.802,13.623,4.189,0.025,1.008,-0.104,-1.007,-0.549,0.366,60.000,65495.000,1.000
5.688,5.668,8.107,0.178,4.930,6.205,12.338,1.759,0.027,1.008,-0.103,-1.007,-0.580,0.458,60.000,65496.000,1.000
1.070,0.832,3.897,-3.665,0.936,3.062,7.709,-1.434,0.025,1.008,-0.106,-0.946,-0.580,0.549,60.000,65497.000,1.000
-4.001,-3.812,-0.883,-7.331,-2.981,-0.553,1.509,-4.618,0.026,1.008,-0.111,-1.068,-0.488,0.580,60.000,65498.000,1.000
-7.931,-7.341,-5.094,-10.173,-6.110,-3.919,-4.439,-7.933,0.026,1.006,-0.110,-0.977,-0.458,0.580,60.000,65499.000,1.000
-9.974,-9.584,-7.879,-11.920,-8.149,-6.475,-8.847,-11.354,0.025,1.005,-0.110,-1.007,-0.397,0.702,60.000,65500.000,1.000
-9.267,-9.780,-8.090,-11.708,-8.204,-7.002,-10.256,-13.536,0.024,1.005,-0.106,-0.946,-0.458,0.641,60.000,65501.000,1.000
-5.083,-6.854,-4.741,-8.434,-5.115,-4.070,-6.915,-12.425,0.024,1.006,-0.108,-0.977,-0.305,0.519,60.000,65502.000,1.000
1.443,-1.101,1.727,-2.359,0.953,2.234,1.321,-7.318,0.026,1.006,-0.112,-0.977,-0.275,0.458,60.000,65503.000,1.000
7.780,5.566,9.111,4.458,7.856,9.457,11.564,0.113,0.027,1.008,-0.109,-0.977,-0.305,0.580,60.000,65504.000,1.000
11.140,10.478,14.207,8.961,12.285,13.660,18.273,6.498,0.026,1.006,-0.106,-0.946,-0.244,0.641,60.000,65505.000,1.000
10.285,11.795,14.813,9.284,12.145,12.345,17.213,9.212,0.025,1.005,-0.109,-0.946,-0.244,0.671,60.000,65506.000,1.000
6.460,9.676,11.351,6.227,8.291,6.608,9.264,8.290,0.025,1.004,-0.109,-0.854,-0.244,0.549,60.000,65507.000,1.000
2.213,6.144,6.550,2.410,3.821,0.265,-0.384,6.068,0.026,1.003,-0.112,-0.854,-0.336,0.458,60.000,65508.000,1.000
0.023,3.879,3.579,0.422,1.846,-2.774,-5.809,5.465,0.024,1.005,-0.110,-0.916,-0.336,0.427,60.000,65509.000,1.000
0.302,3.971,3.626,0.906,3.147,-1.257,-4.604,7.527,0.026,1.006,-0.107,-0.977,-0.244,0.488,60.000,65510.000,1.000
1.585,5.299,5.464,2.638,6.013,2.969,0.988,10.684,0.028,1.006,-0.108,-0.916,-0.183,0.519,60.000,65511.000,1.000
2.190,5.853,6.959,3.926,7.899,6.604,6.276,12.333,0.025,1.007,-0.110,-0.885,-0.183,0.488,60.000,65512.000,1.000
0.910,4.196,6.422,3.471,6.947,6.841,7.061,10.657,0.025,1.006,-0.109,-0.885,-0.153,0.549,60.000,65513.000,1.000
-2.352,0.319,3.200,0.848,2.810,2.818,2.137,5.600,0.026,1.005,-0.108,-0.916,-0.183,0.519,60.000,65514.000,1.000
-6.919,-4.704,-2.271,-3.499,-3.414,-4.218,-6.676,-1.398,0.028,1.008,-0.107,-0.946,-0.183,0.580,60.000,65515.000,1.000
-11.052,-8.899,-8.131,-7.885,-9.281,-11.189,-15.342,-7.688,0.027,1.006,-0.107,-0.824,-0.183,0.458,60.000,65516.000,1.000
-12.467,-10.094,-11.753,-9.927,-11.971,-14.503,-19.325,-10.368,0.026,1.007,-0.110,-0.854,-0.122,0.580,60.000,65517.000,1.000
-10.389,-7.501,-11.568,-8.343,-10.163,-12.301,-16.518,-8.240,0.024,1.008,-0.111,-0.854,-0.092,0.488,60.000,65518.000,1.000
-5.956,-2.379,-8.093,-3.738,-4.892,-5.526,-8.355,-2.703,0.025,1.008,-0.108,-1.038,-0.153,0.397,60.000,65519.000,1.000
-1.736,2.429,-3.658,1.607,0.892,2.396,0.807,2.813,0.025,1.006,-0.106,-1.038,-0.092,0.427,60.000,65520.000,1.000
0.319,4.535,-0.677,5.340,4.229,7.720,6.467,5.111,0.024,1.004,-0.108,-1.038,-0.153,0.458,60.000,65521.000,1.000
0.290,3.635,0.060,6.708,4.083,8.732,6.780,3.531,0.026,1.006,-0.113,-1.038,-0.153,0.397,60.000,65522.000,1.000
-0.685,1.102,-0.550,6.533,1.626,6.207,2.832,0.039,0.024,1.004,-0.109,-1.099,-0.153,0.458,60.000,65523.000,1.000
-1.207,-1.152,-0.997,6.165,-0.849,2.557,-2.188,-2.609,0.023,1.003,-0.108,-1.038,-0.214,0.366,60.000,65524.000,1.000
-0.906,-2.142,-0.549,6.071,-1.779,0.041,-5.213,-3.169,0.022,1.003,-0.109,-0.977,-0.244,0.427,60.000,65525.000,1.000
-0.415,-2.133,0.407,5.789,-1.075,-0.494,-4.938,-2.138,0.023,1.005,-0.107,-0.946,-0.244,0.427,60.000,65526.000,1.000
-0.359,-1.880,1.020,4.783,0.419,0.414,-1.883,-0.668,0.025,1.006,-0.103,-1.038,-0.275,0.305,60.000,65527.000,1.000
-0.971,-1.819,0.903,3.094,1.934,1.951,2.444,0.298,0.024,1.009,-0.102,-0.946,-0.336,0.305,60.000,65528.000,1.000
-1.694,-1.753,0.651,1.638,3.448,3.991,6.888,0.687,0.024,1.009,-0.105,-1.038,-0.397,0.366,60.000,65529.000,1.000
-2.205,-1.645,0.927,1.184,5.006,6.301,10.353,0.858,0.026,1.007,-0.103,-1.068,-0.336,0.214,60.000,65530.000,1.000
-2.540,-1.771,1.608,1.634,6.182,7.984,11.723,0.940,0.025,1.007,-0.104,-1.007,-0.397,0.214,60.000,65531.000,1.000
-2.939,-2.613,1.648,1.982,6.014,7.718,10.150,0.383,0.026,1.006,-0.105,-1.099,-0.458,0.305,60.000,65532.000,1.000
-4.331,-4.973,-0.303,0.775,3.360,4.245,4.965,-1.940,0.027,1.007,-0.108,-1.007,-0.397,0.305,60.000,65533.000,1.000
-6.861,-8.772,-4.293,-2.221,-1.652,-2.146,-2.910,-6.145,0.027,1.006,-0.106,-1.068,-0.336,0.305,60.000,65534.000,1.000
-9.011,-12.113,-8.325,-5.352,-6.797,-8.775,-10.347,-10.396,0.024,1.006,-0.107,-1.068,-0.366,0.305,60.000,65535.000,1.000
-8.137,-11.994,-9.258,-5.944,-8.665,-11.592,-13.203,-11.633,0.026,1.007,-0.108,-1.038,-0.366,0.183,60.000,65536.000,1.000
-2.719,-6.844,-5.090,-2.300,-5.102,-8.015,-9.018,-7.674,0.022,1.007,-0.106,-1.068,-0.366,0.244,60.000,65537.000,1.000
5.493,1.626,3.142,4.703,2.881,0.872,0.764,0.812,0.023,1.009,-0.107,-1.099,-0.458,0.366,60.000,65538.000,1.000
13.096,9.841,12.066,12.356,12.001,11.424,12.265,10.731,0.022,1.010,-0.104,-1.129,-0.671,0.214,60.000,65539.000,1.000
17.146,14.673,18.001,17.564,18.738,19.754,21.541,18.348,0.024,1.010,-0.105,-1.129,-0.702,0.183,60.000,65540.000,1.000
16.569,14.957,18.723,18.296,20.916,23.360,26.161,21.225,0.024,1.008,-0.105,-1.190,-0.671,0.244,60.000,65541.000,1.000
12.255,11.511,14.188,14.401,18.236,21.604,25.646,19.227,0.023,1.006,-0.104,-1.282,-0.763,0.153,60.000,65542.000,1.000
5.914,6.118,6.322,7.403,12.054,15.515,20.896,14.126,0.022,1.008,-0.109,-1.495,-0.732,0.153,60.000,65543.000,1.000
-0.305,0.784,-1.779,-0.086,4.828,7.353,13.844,8.523,0.022,1.007,-0.109,-1.495,-0.641,0.214,60.000,65544.000,1.000
-5.122,-3.236,-7.538,-5.814,-1.268,-0.676,6.178,4.186,0.024,1.003,-0.109,-1.495,-0.671,0.122,60.000,65545.000,1.000
-8.250,-5.502,-9.828,-8.597,-5.029,-6.970,-0.942,1.623,0.023,1.002,-0.109,-1.404,-0.641,0.183,60.000,65546.000,1.000
-9.477,-5.860,-8.857,-8.277,-6.098,-10.415,-6.376,0.770,0.022,1.001,-0.109,-1.251,-0.793,0.244,60.000,65547.000,1.000
-8.912,-4.540,-5.853,-5.826,-5.032,-10.735,-9.530,1.220,0.023,1.001,-0.107,-1.129,-0.824,0.275,60.000,65548.000,1.000
-6.869,-2.089,-2.298,-2.681,-2.963,-8.576,-10.328,2.385,0.021,1.005,-0.107,-1.129,-0.854,0.275,60.000,65549.000,1.000
-4.133,0.746,0.677,-0.072,-1.079,-5.344,-9.240,3.518,0.022,1.003,-0.106,-1.099,-0.702,0.305,60.000,65550.000,1.000
-1.553,3.302,2.546,1.445,-0.114,-2.594,-7.147,4.038,0.024,1.003,-0.105,-1.099,-0.671,0.397,60.000,65551.000,1.000
0.306,5.007,3.112,1.768,-0.402,-1.548,-5.372,3.733,0.022,1.003,-0.110,-1.099,-0.671,0.305,60.000,65552.000,1.000
1.071,5.523,2.408,0.988,-1.898,-2.586,-5.332,2.820,0.021,1.004,-0.108,-1.007,-0.671,0.397,60.000,65553.000,1.000
