EEG 1,EEG 2,EEG 3,EEG 4,EEG 5,EEG 6,EEG 7,EEG 8,Accelerometer X,Accelerometer Y,Accelerometer Z,Gyroscope X,Gyroscope Y,Gyroscope Z,Battery Level,Counter,Validation Indicator
-1.313,-12.491,1.019,-10.492,-13.548,-1.778,-5.161,-7.663,-0.104,0.914,-0.456,-0.977,0.580,-0.031,60.000,30753.000,1.000
-3.542,-13.567,-1.931,-11.117,-12.553,-1.588,-6.094,-7.156,-0.103,0.913,-0.457,-0.946,0.305,0.000,60.000,30754.000,1.000
-5.713,-14.093,-4.089,-11.521,-11.438,-0.925,-5.580,-6.179,-0.103,0.913,-0.454,-0.793,0.244,0.061,60.000,30755.000,1.000
-7.631,-14.089,-5.269,-11.544,-10.220,0.046,-3.266,-5.444,-0.104,0.914,-0.453,-0.885,0.000,0.122,60.000,30756.000,1.000
-9.700,-14.245,-6.024,-11.355,-9.272,0.528,-0.726,-5.978,-0.104,0.914,-0.454,-0.854,-0.122,0.214,60.000,30757.000,1.000
-13.088,-15.905,-7.355,-11.554,-9.296,-0.584,-0.478,-8.394,-0.106,0.913,-0.455,-0.946,-0.214,0.214,60.000,30758.000,1.000
-17.749,-19.399,-9.614,-12.309,-10.301,-3.390,-3.027,-12.010,-0.104,0.913,-0.460,-0.946,-0.275,0.336,60.000,30759.000,1.000
-22.740,-23.983,-12.452,-13.364,-11.722,-6.956,-6.604,-15.314,-0.104,0.915,-0.459,-1.007,-0.549,0.336,60.000,30760.000,1.000
-26.681,-28.389,-15.005,-14.060,-12.742,-10.019,-8.838,-16.769,-0.104,0.915,-0.456,-1.068,-0.641,0.397,60.000,30761.000,1.000
-28.836,-31.811,-16.646,-13.964,-12.928,-12.093,-9.259,-15.761,-0.103,0.915,-0.455,-1.160,-0.793,0.427,60.000,30762.000,1.000
-29.640,-34.307,-17.442,-13.317,-12.508,-13.728,-9.607,-12.868,-0.101,0.913,-0.454,-1.068,-0.824,0.519,60.000,30763.000,1.000
-29.583,-36.131,-17.781,-12.665,-12.002,-15.832,-11.362,-9.305,-0.100,0.911,-0.453,-1.129,-0.946,0.580,60.000,30764.000,1.000
-29.575,-37.896,-18.199,-12.764,-12.338,-19.296,-14.675,-6.497,-0.101,0.906,-0.456,-1.129,-0.885,0.580,60.000,30765.000,1.000
-29.968,-39.796,-18.590,-13.679,-13.970,-23.973,-18.265,-5.232,-0.100,0.906,-0.454,-1.007,-1.038,0.549,60.000,30766.000,1.000
-30.501,-41.526,-18.427,-14.776,-16.483,-28.552,-20.878,-5.563,-0.100,0.903,-0.456,-0.977,-1.129,0.580,60.000,30767.000,1.000
-31.140,-42.939,-17.491,-15.442,-19.034,-31.486,-22.375,-7.113,-0.097,0.902,-0.456,-0.946,-1.099,0.458,60.000,30768.000,1.000
-31.286,-43.474,-15.720,-15.065,-20.382,-31.629,-22.584,-8.785,-0.096,0.904,-0.459,-0.671,-1.068,0.610,60.000,30769.000,1.000
-30.345,-42.293,-13.201,-13.290,-19.475,-28.824,-20.851,-8.989,-0.094,0.907,-0.460,-0.549,-1.099,0.641,60.000,30770.000,1.000
-27.771,-38.614,-10.038,-10.005,-15.904,-23.759,-16.488,-6.501,-0.090,0.908,-0.457,-0.519,-1.007,0.763,60.000,30771.000,1.000
-23.859,-32.761,-6.914,-5.811,-10.630,-17.990,-10.553,-1.882,-0.090,0.908,-0.455,-0.488,-0.885,0.793,60.000,30772.000,1.000
-20.114,-26.562,-5.129,-1.983,-5.764,-13.478,-6.009,2.526,-0.092,0.908,-0.455,-0.488,-0.671,0.793,60.000,30773.000,1.000
-17.614,-21.902,-5.489,0.571,-2.899,-11.387,-5.310,4.444,-0.094,0.905,-0.456,-0.458,-0.488,0.671,60.000,30774.000,1.000
-16.973,-19.945,-7.872,1.431,-2.442,-11.693,-9.124,3.068,-0.099,0.905,-0.454,-0.397,-0.397,0.580,60.000,30775.000,1.000
-17.794,-20.415,-10.977,0.878,-3.423,-13.033,-15.494,-0.322,-0.101,0.905,-0.458,-0.366,-0.519,0.397,60.000,30776.000,1.000
-19.125,-22.081,-13.101,-0.381,-4.389,-13.644,-20.815,-3.261,-0.103,0.907,-0.458,-0.275,-0.488,0.366,60.000,30777.000,1.000
-20.242,-23.604,-13.186,-1.607,-4.467,-12.523,-22.053,-3.746,-0.104,0.910,-0.455,-0.122,-0.580,0.244,60.000,30778.000,1.000
-20.103,-23.556,-11.146,-2.025,-3.365,-9.594,-18.258,-1.338,-0.105,0.910,-0.456,-0.061,-0.702,0.000,60.000,30779.000,1.000
-18.563,-21.495,-8.166,-1.534,-1.598,-5.774,-11.621,2.479,-0.102,0.911,-0.459,0.031,-0.824,-0.122,60.000,30780.000,1.000
-16.104,-17.956,-5.828,-0.572,-0.016,-2.241,-5.523,5.567,-0.100,0.912,-0.457,0.061,-0.916,-0.183,60.000,30781.000,1.000
-13.366,-13.978,-5.235,0.176,0.598,0.064,-1.980,6.499,-0.098,0.912,-0.455,0.000,-0.854,-0.214,60.000,30782.000,1.000
-11.107,-10.728,-6.507,0.119,-0.222,0.701,-0.857,5.038,-0.098,0.911,-0.456,-0.031,-0.763,-0.336,60.000,30783.000,1.000
-9.342,-8.606,-8.559,-0.660,-2.117,0.105,-0.616,1.956,-0.097,0.910,-0.457,0.031,-0.824,-0.397,60.000,30784.000,1.000
-8.233,-7.570,-10.109,-1.889,-4.447,-0.912,-0.405,-1.807,-0.099,0.910,-0.458,-0.031,-0.793,-0.305,60.000,30785.000,1.000
-7.875,-7.234,-10.356,-3.288,-6.626,-1.638,-0.140,-5.453,-0.099,0.911,-0.462,0.092,-0.732,-0.305,60.000,30786.000,1.000
-8.127,-7.193,-9.412,-4.773,-8.453,-2.039,0.042,-8.586,-0.099,0.910,-0.459,0.031,-0.824,-0.427,60.000,30787.000,1.000
-8.581,-7.188,-8.019,-6.363,-9.981,-2.585,0.052,-11.102,-0.099,0.912,-0.458,-0.061,-0.763,-0.427,60.000,30788.000,1.000
-7.951,-6.597,-6.656,-7.622,-10.874,-3.303,0.252,-12.702,-0.100,0.912,-0.462,0.000,-0.702,-0.397,60.000,30789.000,1.000
-5.619,-5.004,-5.542,-8.098,-10.887,-3.814,0.626,-13.226,-0.098,0.913,-0.463,0.031,-0.641,-0.183,60.000,30790.000,1.000
-1.684,-2.177,-4.487,-7.453,-9.955,-3.587,0.940,-12.873,-0.100,0.914,-0.459,0.092,-0.763,-0.275,60.000,30791.000,1.000
3.203,1.712,-3.244,-5.777,-8.190,-2.504,0.996,-12.185,-0.101,0.915,-0.462,0.092,-0.641,-0.153,60.000,30792.000,1.000
7.748,5.725,-1.922,-3.698,-5.921,-1.037,0.766,-11.601,-0.101,0.915,-0.459,0.153,-0.641,-0.122,60.000,30793.000,1.000
10.977,8.763,-0.847,-1.862,-3.510,0.174,0.714,-11.106,-0.102,0.913,-0.459,0.061,-0.702,0.031,60.000,30794.000,1.000
11.898,9.829,-0.544,-0.910,-1.575,0.498,1.014,-10.618,-0.100,0.915,-0.457,0.000,-0.763,0.214,60.000,30795.000,1.000
10.688,9.213,-0.958,-0.865,-0.240,0.126,1.882,-9.854,-0.101,0.913,-0.462,0.031,-0.763,0.336,60.000,30796.000,1.000
8.818,8.419,-1.505,-1.182,1.036,0.052,3.394,-8.552,-0.101,0.915,-0.459,0.061,-0.793,0.336,60.000,30797.000,1.000
7.631,8.668,-1.624,-1.226,2.856,1.223,5.081,-6.813,-0.104,0.915,-0.458,0.031,-0.854,0.366,60.000,30798.000,1.000
7.986,10.356,-0.823,-0.264,5.701,4.017,6.854,-4.806,-0.100,0.915,-0.456,0.000,-0.854,0.488,60.000,30799.000,1.000
9.195,12.673,0.779,1.825,9.349,7.692,8.903,-2.781,-0.101,0.917,-0.458,-0.061,-0.916,0.519,60.000,30800.000,1.000
10.009,14.560,2.565,4.480,13.108,10.918,11.323,-0.916,-0.099,0.916,-0.458,-0.153,-0.885,0.610,60.000,30801.000,1.000
9.747,15.559,3.757,6.781,16.252,12.614,13.393,0.709,-0.101,0.916,-0.460,-0.366,-0.916,0.671,60.000,30802.000,1.000
8.654,15.992,4.007,8.138,18.463,12.658,13.957,2.223,-0.101,0.913,-0.461,-0.580,-0.946,0.763,60.000,30803.000,1.000
8.063,16.806,3.808,8.818,20.118,12.056,12.940,3.886,-0.100,0.913,-0.459,-0.580,-1.007,0.916,60.000,30804.000,1.000
8.270,18.059,3.597,9.017,21.296,11.759,11.007,5.435,-0.100,0.914,-0.457,-0.610,-1.007,0.854,60.000,30805.000,1.000
8.528,18.886,3.527,8.671,21.607,12.160,9.248,6.463,-0.099,0.911,-0.455,-0.763,-1.099,0.763,60.000,30806.000,1.000
7.976,18.364,3.523,7.743,20.588,13.060,8.338,6.907,-0.097,0.912,-0.456,-0.854,-1.099,0.793,60.000,30807.000,1.000
6.314,16.358,3.453,6.551,18.176,13.813,7.793,6.990,-0.098,0.909,-0.456,-0.946,-1.160,0.732,60.000,30808.000,1.000
4.663,14.049,3.402,5.898,15.066,13.735,6.776,6.980,-0.097,0.911,-0.461,-1.068,-1.099,0.702,60.000,30809.000,1.000
3.979,12.548,3.254,6.136,11.955,12.160,4.560,6.811,-0.097,0.910,-0.460,-1.099,-1.007,0.702,60.000,30810.000,1.000
4.812,12.463,3.092,7.247,9.516,9.179,1.372,6.511,-0.099,0.908,-0.458,-1.038,-1.038,0.732,60.000,30811.000,1.000
7.283,13.953,3.353,9.077,8.325,5.754,-1.824,6.347,-0.098,0.906,-0.458,-1.190,-1.038,0.732,60.000,30812.000,1.000
10.794,16.629,4.529,11.281,8.526,3.115,-4.001,6.614,-0.098,0.904,-0.460,-1.251,-1.068,0.793,60.000,30813.000,1.000
14.876,19.982,6.917,13.551,9.994,2.273,-4.237,7.576,-0.097,0.906,-0.458,-1.251,-1.068,0.702,60.000,30814.000,1.000
18.519,23.032,9.920,15.333,12.025,3.250,-2.892,9.074,-0.098,0.907,-0.458,-1.129,-1.190,0.641,60.000,30815.000,1.000
20.809,24.901,12.430,16.252,13.779,5.282,-1.138,10.652,-0.097,0.907,-0.459,-1.038,-1.129,0.549,60.000,30816.000,1.000
21.385,25.297,13.509,16.272,14.690,7.266,0.118,11.737,-0.097,0.907,-0.458,-1.068,-1.129,0.488,60.000,30817.000,1.000
20.439,24.593,13.071,15.687,14.721,8.429,0.803,12.066,-0.098,0.906,-0.459,-1.068,-1.099,0.549,60.000,30818.000,1.000
19.371,24.030,12.199,15.254,14.612,9.013,1.786,12.016,-0.096,0.908,-0.458,-1.038,-1.099,0.488,60.000,30819.000,1.000
19.275,24.423,11.938,15.312,14.924,9.610,3.407,11.885,-0.095,0.911,-0.458,-1.068,-1.068,0.488,60.000,30820.000,1.000
20.644,25.843,12.667,15.718,15.759,10.627,5.461,11.741,-0.095,0.911,-0.461,-1.068,-1.068,0.458,60.000,30821.000,1.000
23.088,27.684,13.925,15.909,16.692,11.919,7.664,11.506,-0.094,0.911,-0.460,-1.099,-0.916,0.336,60.000,30822.000,1.000
24.958,28.669,14.736,15.060,16.791,12.885,9.713,10.981,-0.098,0.912,-0.459,-1.068,-0.916,0.305,60.000,30823.000,1.000
25.062,27.939,14.537,12.928,15.486,13.212,11.576,10.118,-0.099,0.911,-0.459,-1.007,-0.946,0.244,60.000,30824.000,1.000
23.266,25.538,13.326,9.929,12.891,12.979,12.897,8.902,-0.098,0.911,-0.458,-1.068,-0.916,0.275,60.000,30825.000,1.000
20.974,22.719,11.752,7.080,10.003,12.672,13.471,7.379,-0.097,0.910,-0.460,-1.007,-0.977,0.244,60.000,30826.000,1.000
19.671,20.829,10.453,5.152,7.845,12.504,13.257,5.362,-0.097,0.911,-0.459,-1.068,-0.916,0.244,60.000,30827.000,1.000
19.225,19.972,9.516,3.999,6.464,12.027,12.070,2.509,-0.097,0.911,-0.458,-1.221,-0.916,0.244,60.000,30828.000,1.000
19.102,19.650,8.902,3.158,5.424,10.847,10.246,-0.883,-0.098,0.909,-0.459,-1.221,-0.885,0.214,60.000,30829.000,1.000
18.936,19.329,8.496,2.211,4.282,8.937,8.335,-3.993,-0.100,0.911,-0.461,-1.282,-0.946,0.183,60.000,30830.000,1.000
19.210,19.054,8.393,1.355,3.158,6.909,7.192,-5.961,-0.099,0.912,-0.461,-1.129,-0.916,0.153,60.000,30831.000,1.000
20.201,18.865,8.557,0.989,2.357,5.510,7.492,-6.548,-0.099,0.912,-0.463,-1.160,-0.824,0.092,60.000,30832.000,1.000
20.770,18.112,8.507,0.912,1.649,4.877,8.964,-6.234,-0.100,0.911,-0.459,-1.160,-0.946,0.122,60.000,30833.000,1.000
19.927,16.439,7.855,0.613,0.600,4.623,10.883,-5.544,-0.099,0.912,-0.455,-1.160,-1.007,0.153,60.000,30834.000,1.000
17.445,13.997,6.481,-0.393,-1.136,4.020,12.243,-4.789,-0.099,0.911,-0.457,-1.282,-0.977,0.214,60.000,30835.000,1.000
14.525,11.583,4.909,-1.806,-3.098,2.822,12.687,-3.908,-0.097,0.912,-0.456,-1.312,-0.946,0.214,60.000,30836.000,1.000
12.783,10.070,3.829,-2.851,-4.309,1.375,12.318,-2.971,-0.099,0.911,-0.457,-1.373,-0.885,0.305,60.000,30837.000,1.000
12.409,9.460,3.264,-3.240,-4.389,-0.100,10.654,-2.560,-0.099,0.908,-0.459,-1.373,-0.824,0.275,60.000,30838.000,1.000
12.436,9.004,2.660,-3.299,-3.913,-1.865,7.041,-3.196,-0.100,0.907,-0.460,-1.282,-0.793,0.305,60.000,30839.000,1.000
11.082,7.440,1.292,-3.758,-4.167,-4.496,1.422,-4.781,-0.102,0.906,-0.463,-1.190,-0.885,0.275,60.000,30840.000,1.000
7.777,4.404,-0.677,-4.639,-5.677,-7.632,-4.502,-6.234,-0.099,0.903,-0.462,-1.068,-0.885,0.305,60.000,30841.000,1.000
3.493,0.659,-2.340,-5.207,-7.798,-9.903,-8.365,-6.312,-0.098,0.907,-0.458,-0.916,-0.946,0.427,60.000,30842.000,1.000
-0.698,-2.853,-2.955,-4.801,-9.550,-10.059,-9.123,-4.567,-0.099,0.909,-0.457,-0.946,-0.946,0.458,60.000,30843.000,1.000
-3.680,-5.156,-2.270,-3.185,-10.111,-7.751,-7.100,-1.435,-0.098,0.908,-0.459,-0.885,-0.977,0.488,60.000,30844.000,1.000
-5.355,-6.050,-0.889,-1.036,-9.555,-4.155,-3.863,1.802,-0.096,0.907,-0.458,-0.916,-0.946,0.488,60.000,30845.000,1.000
-6.069,-5.946,0.393,0.747,-8.437,-1.119,-0.990,3.987,-0.099,0.909,-0.459,-0.916,-0.916,0.549,60.000,30846.000,1.000
-5.764,-5.303,1.176,1.715,-7.217,0.068,0.821,4.910,-0.098,0.909,-0.458,-0.916,-0.946,0.580,60.000,30847.000,1.000
-4.042,-4.307,1.545,1.951,-6.066,-0.535,1.827,5.254,-0.098,0.907,-0.456,-0.946,-0.916,0.671,60.000,30848.000,1.000
-0.929,-3.025,1.710,1.731,-4.969,-1.765,2.647,5.841,-0.097,0.908,-0.457,-0.916,-0.824,0.702,60.000,30849.000,1.000
0.286,-3.111,0.913,0.350,-4.833,-3.018,2.255,6.403,-0.097,0.910,-0.459,-0.854,-0.732,0.671,60.000,30850.000,1.000
-4.192,-6.372,-1.560,-2.840,-6.521,-4.170,-0.639,6.191,-0.097,0.912,-0.456,-0.885,-0.732,0.732,60.000,30851.000,1.000
-12.074,-11.034,-4.528,-6.374,-8.738,-4.327,-4.315,5.526,-0.096,0.911,-0.458,-0.824,-0.793,0.671,60.000,30852.000,1.000
-14.702,-11.833,-5.359,-7.214,-8.401,-2.143,-4.513,5.786,-0.097,0.912,-0.456,-0.946,-0.732,0.702,60.000,30853.000,1.000
-6.871,-5.978,-3.226,-4.458,-4.363,1.865,0.204,7.293,-0.098,0.912,-0.458,-1.068,-0.610,0.671,60.000,30854.000,1.000
2.449,0.733,-1.692,-2.320,-0.736,3.863,3.865,7.608,-0.096,0.911,-0.459,-1.160,-0.519,0.763,60.000,30855.000,1.000
-0.939,-0.520,-4.576,-5.475,-2.537,0.736,-0.405,4.519,-0.096,0.912,-0.457,-1.251,-0.488,0.671,60.000,30856.000,1.000
-12.809,-7.679,-8.876,-10.599,-6.945,-4.138,-8.267,0.920,-0.096,0.911,-0.456,-1.373,-0.458,0.671,60.000,30857.000,1.000
-6.236,-5.297,-5.727,-6.941,-3.216,-2.387,-4.714,3.633,-0.095,0.911,-0.458,-1.404,-0.427,0.580,60.000,30858.000,1.000
32.161,14.754,6.920,8.771,12.534,8.167,15.385,13.709,-0.096,0.910,-0.458,-1.434,-0.336,0.580,60.000,30859.000,1.000
64.973,32.122,15.399,20.675,24.691,15.981,30.577,20.097,-0.096,0.911,-0.460,-1.495,-0.397,0.519,60.000,30860.000,1.000
37.084,16.537,4.826,9.844,13.420,8.354,14.399,11.265,-0.098,0.910,-0.461,-1.343,-0.275,0.519,60.000,30861.000,1.000
-42.663,-26.770,-17.258,-16.387,-14.950,-8.310,-23.618,-6.599,-0.096,0.911,-0.461,-1.373,-0.336,0.488,60.000,30862.000,1.000
-87.345,-49.809,-23.992,-25.417,-27.030,-11.361,-38.105,-12.327,-0.096,0.915,-0.461,-1.373,-0.275,0.488,60.000,30863.000,1.000
-41.961,-23.390,-6.507,-3.478,-6.699,5.946,-8.416,1.130,-0.096,0.918,-0.460,-1.373,-0.122,0.427,60.000,30864.000,1.000
-0.545,-1.438,-1.186,7.927,5.273,11.417,9.491,5.587,-0.098,0.917,-0.458,-1.373,-0.031,0.397,60.000,30865.000,1.000
-132.868,-78.343,-53.315,-48.929,-52.118,-33.829,-65.251,-34.201,-0.096,0.916,-0.458,-1.373,-0.061,0.397,60.000,30866.000,1.000
-436.317,-250.225,-142.585,-156.815,-165.799,-111.006,-212.534,-102.750,-0.098,0.912,-0.460,-1.526,-0.061,0.427,60.000,30867.000,1.000
-633.016,-360.117,-175.045,-205.229,-223.722,-138.301,-282.242,-127.612,-0.098,0.910,-0.462,-1.556,-0.092,0.427,60.000,30868.000,1.000
-443.078,-253.233,-85.592,-108.237,-131.643,-60.750,-152.731,-58.837,-0.098,0.910,-0.464,-1.404,-0.061,0.458,60.000,30869.000,1.000
47.625,18.989,66.311,73.265,56.033,68.178,98.532,56.981,-0.096,0.912,-0.464,-1.282,-0.061,0.397,60.000,30870.000,1.000
433.032,228.803,149.322,182.209,178.332,134.714,257.303,117.905,-0.096,0.915,-0.464,-1.282,-0.061,0.397,60.000,30871.000,1.000
446.652,230.701,111.841,146.277,152.065,96.636,218.184,84.571,-0.096,0.917,-0.464,-1.190,-0.061,0.305,60.000,30872.000,1.000
269.223,129.605,41.809,62.460,68.735,32.585,106.832,26.483,-0.097,0.914,-0.461,-1.068,0.000,0.366,60.000,30873.000,1.000
274.750,134.300,50.618,68.306,71.815,38.798,111.498,31.313,-0.096,0.909,-0.463,-1.007,0.000,0.397,60.000,30874.000,1.000
516.622,270.742,123.084,156.097,162.380,99.645,227.920,87.768,-0.097,0.910,-0.465,-0.854,0.061,0.427,60.000,30875.000,1.000
638.071,337.546,135.721,179.403,193.155,106.773,259.726,99.367,-0.099,0.908,-0.466,-0.671,0.031,0.488,60.000,30876.000,1.000
350.536,176.464,26.118,52.394,68.322,7.739,86.080,16.245,-0.100,0.906,-0.467,-0.336,0.061,0.427,60.000,30877.000,1.000
-160.251,-104.682,-115.398,-126.274,-119.355,-116.480,-163.610,-92.585,-0.099,0.905,-0.465,-0.061,-0.061,0.336,60.000,30878.000,1.000
-446.565,-256.596,-155.626,-192.004,-198.817,-149.835,-263.486,-123.787,-0.100,0.904,-0.465,0.153,-0.092,0.305,60.000,30879.000,1.000
-332.643,-186.546,-78.961,-112.029,-126.030,-80.737,-161.795,-64.674,-0.101,0.903,-0.463,0.488,-0.122,0.275,60.000,30880.000,1.000
-69.628,-38.583,10.318,-4.526,-15.988,-1.550,-15.370,4.195,-0.103,0.901,-0.463,0.702,-0.214,0.183,60.000,30881.000,1.000
27.393,13.130,26.221,21.052,15.136,13.070,23.222,16.062,-0.102,0.899,-0.463,0.885,-0.244,0.092,60.000,30882.000,1.000
-63.064,-38.977,-10.071,-19.518,-23.801,-17.612,-30.980,-12.637,-0.101,0.897,-0.465,1.038,-0.244,0.031,60.000,30883.000,1.000
-135.803,-78.386,-25.595,-40.353,-46.451,-30.200,-63.137,-24.957,-0.101,0.897,-0.467,1.190,-0.366,-0.061,60.000,30884.000,1.000
-74.333,-41.601,2.285,-8.539,-15.055,-5.873,-25.361,-2.850,-0.103,0.896,-0.470,1.434,-0.336,-0.122,60.000,30885.000,1.000
26.645,16.522,31.548,29.579,25.873,18.632,22.709,21.260,-0.102,0.897,-0.467,1.740,-0.488,-0.153,60.000,30886.000,1.000
30.897,19.795,23.936,25.884,25.400,11.243,16.035,17.450,-0.102,0.901,-0.471,1.892,-0.549,-0.183,60.000,30887.000,1.000
-59.152,-29.524,-8.065,-8.985,-8.724,-15.663,-32.300,-4.945,-0.099,0.901,-0.469,2.014,-0.549,-0.214,60.000,30888.000,1.000
-130.506,-68.205,-26.174,-30.011,-30.836,-28.525,-61.534,-16.519,-0.103,0.903,-0.464,1.953,-0.671,-0.183,60.000,30889.000,1.000
-111.197,-56.883,-15.441,-16.836,-17.831,-15.548,-42.963,-5.871,-0.102,0.905,-0.467,2.106,-0.824,-0.214,60.000,30890.000,1.000
-35.936,-15.421,6.373,10.942,12.072,6.324,-2.194,13.203,-0.104,0.908,-0.467,2.045,-0.763,-0.305,60.000,30891.000,1.000
17.415,13.253,15.991,24.467,29.029,16.153,21.526,22.828,-0.102,0.907,-0.466,1.862,-0.824,-0.305,60.000,30892.000,1.000
9.200,7.884,7.108,14.217,21.693,8.664,14.233,18.190,-0.101,0.907,-0.463,1.617,-0.854,-0.275,60.000,30893.000,1.000
-39.769,-19.620,-9.249,-7.355,1.517,-6.000,-8.678,7.335,-0.101,0.907,-0.461,1.373,-0.854,-0.275,60.000,30894.000,1.000
-76.975,-40.355,-17.108,-20.093,-11.009,-13.549,-21.371,1.696,-0.102,0.906,-0.458,1.221,-0.946,-0.244,60.000,30895.000,1.000
-60.596,-31.500,-7.688,-11.749,-2.403,-6.211,-8.017,7.354,-0.101,0.906,-0.460,0.916,-0.977,-0.244,60.000,30896.000,1.000
1.126,2.033,11.697,9.984,20.765,9.627,21.411,18.633,-0.102,0.904,-0.464,0.793,-1.038,-0.305,60.000,30897.000,1.000
45.612,25.342,20.802,20.251,33.353,16.367,34.307,20.557,-0.100,0.905,-0.464,0.549,-1.099,-0.244,60.000,30898.000,1.000
18.841,8.920,7.883,3.086,17.628,4.210,9.613,5.218,-0.101,0.906,-0.462,0.305,-1.129,-0.244,60.000,30899.000,1.000
-52.364,-31.221,-12.768,-25.342,-11.594,-13.607,-30.977,-15.013,-0.101,0.908,-0.460,0.031,-1.129,-0.244,60.000,30900.000,1.000
-77.448,-44.097,-13.817,-30.439,-18.857,-12.918,-40.605,-18.141,-0.101,0.908,-0.458,-0.366,-1.160,-0.153,60.000,30901.000,1.000
-13.791,-6.812,9.669,-2.919,7.429,9.888,-5.578,-0.468,-0.102,0.909,-0.458,-0.732,-1.190,-0.153,60.000,30902.000,1.000
64.925,38.142,28.726,23.515,34.379,28.458,29.871,14.648,-0.103,0.910,-0.458,-1.068,-1.190,-0.031,60.000,30903.000,1.000
55.555,33.059,16.217,13.143,24.327,18.713,17.437,5.244,-0.101,0.911,-0.463,-1.434,-1.190,-0.061,60.000,30904.000,1.000
-34.491,-16.678,-14.916,-22.570,-13.559,-7.726,-28.907,-18.901,-0.100,0.912,-0.461,-1.709,-1.160,-0.031,60.000,30905.000,1.000
-85.231,-43.162,-24.628,-35.885,-30.953,-15.695,-45.718,-26.559,-0.100,0.914,-0.464,-1.953,-1.251,0.031,60.000,30906.000,1.000
-21.041,-4.927,1.229,-6.110,-4.130,6.915,-4.328,-6.810,-0.099,0.914,-0.462,-2.319,-1.312,0.122,60.000,30907.000,1.000
78.903,52.299,28.802,29.047,30.631,30.458,45.157,13.762,-0.098,0.917,-0.458,-2.625,-1.282,0.153,60.000,30908.000,1.000
80.968,53.649,20.342,22.549,24.065,22.596,38.165,5.861,-0.099,0.917,-0.457,-3.052,-1.373,0.153,60.000,30909.000,1.000
-20.495,-2.882,-13.792,-17.140,-18.123,-6.819,-15.757,-21.868,-0.097,0.917,-0.456,-3.296,-1.343,0.183,60.000,30910.000,1.000
-88.475,-40.286,-27.199,-35.029,-40.111,-17.346,-42.089,-32.662,-0.100,0.918,-0.459,-3.662,-1.343,0.214,60.000,30911.000,1.000
-27.003,-6.272,-0.642,-4.347,-11.355,6.687,-1.937,-11.318,-0.099,0.918,-0.460,-4.059,-1.221,0.244,60.000,30912.000,1.000
83.981,53.212,30.001,34.729,29.759,32.950,52.244,14.008,-0.099,0.920,-0.459,-4.395,-1.251,0.336,60.000,30913.000,1.000
95.128,55.747,22.288,28.942,27.275,24.607,47.085,9.677,-0.098,0.920,-0.460,-4.669,-1.190,0.458,60.000,30914.000,1.000
-9.494,-4.953,-14.565,-15.397,-16.226,-9.262,-11.531,-17.973,-0.099,0.921,-0.457,-4.944,-1.190,0.458,60.000,30915.000,1.000
-89.642,-49.197,-31.247,-40.039,-42.520,-25.134,-45.486,-31.259,-0.099,0.921,-0.455,-5.188,-1.160,0.641,60.000,30916.000,1.000
-39.022,-18.864,-4.974,-13.329,-16.539,-3.624,-10.488,-12.555,-0.098,0.921,-0.456,-5.310,-1.190,0.641,60.000,30917.000,1.000
71.472,44.384,29.966,27.660,26.522,24.946,44.171,12.015,-0.099,0.921,-0.456,-5.524,-1.007,0.702,60.000,30918.000,1.000
94.957,58.004,29.909,29.318,30.673,23.090,44.969,9.384,-0.100,0.922,-0.457,-5.737,-1.129,0.702,60.000,30919.000,1.000
8.580,10.123,0.256,-6.242,-5.348,-3.635,-6.122,-15.462,-0.103,0.921,-0.461,-5.920,-1.251,0.824,60.000,30920.000,1.000
-59.922,-27.512,-13.944,-26.338,-28.519,-16.066,-36.469,-27.193,-0.102,0.922,-0.458,-6.104,-1.190,0.854,60.000,30921.000,1.000
-11.611,-0.443,8.854,-1.486,-5.610,3.744,-3.787,-9.170,-0.104,0.922,-0.454,-6.226,-1.251,0.885,60.000,30922.000,1.000
86.928,53.537,37.333,34.382,31.657,28.219,46.176,14.011,-0.105,0.922,-0.452,-6.317,-1.312,1.038,60.000,30923.000,1.000
99.089,59.130,32.191,32.639,32.631,23.871,45.065,11.531,-0.107,0.923,-0.449,-6.409,-1.221,1.068,60.000,30924.000,1.000
7.631,8.347,0.667,-2.612,-1.746,-2.229,-3.660,-11.099,-0.108,0.922,-0.449,-6.622,-1.221,1.038,60.000,30925.000,1.000
-62.064,-28.732,-13.742,-20.646,-20.782,-12.570,-30.430,-19.904,-0.105,0.920,-0.450,-6.775,-1.221,1.099,60.000,30926.000,1.000
-15.494,-1.252,8.198,5.254,4.938,8.434,3.326,0.440,-0.106,0.917,-0.448,-6.683,-1.312,1.129,60.000,30927.000,1.000
80.165,51.618,34.456,40.316,41.725,32.327,51.007,25.244,-0.106,0.913,-0.450,-6.653,-1.404,1.038,60.000,30928.000,1.000
89.897,55.043,26.013,36.241,38.769,25.675,45.259,23.605,-0.104,0.910,-0.450,-6.378,-1.556,1.160,60.000,30929.000,1.000
-5.322,0.160,-10.185,-3.426,-3.218,-4.842,-10.655,-0.539,-0.103,0.908,-0.450,-6.226,-1.556,1.190,60.000,30930.000,1.000
-84.506,-44.927,-30.838,-28.714,-33.403,-21.833,-47.900,-14.978,-0.103,0.905,-0.450,-5.951,-1.556,1.129,60.000,30931.000,1.000
-51.816,-27.891,-14.572,-10.918,-19.295,-7.656,-25.014,-3.386,-0.103,0.902,-0.450,-5.554,-1.617,1.160,60.000,30932.000,1.000
36.017,18.581,10.665,20.021,11.241,12.881,18.287,13.545,-0.102,0.900,-0.450,-5.188,-1.587,1.190,60.000,30933.000,1.000
53.224,25.072,7.636,18.772,11.007,7.990,18.813,8.404,-0.101,0.898,-0.447,-4.761,-1.556,1.160,60.000,30934.000,1.000
-23.959,-19.939,-20.286,-14.109,-22.236,-18.313,-24.750,-15.017,-0.102,0.897,-0.450,-4.303,-1.617,1.190,60.000,30935.000,1.000
-90.125,-56.953,-35.620,-34.845,-44.596,-32.924,-53.043,-27.136,-0.102,0.896,-0.450,-3.845,-1.617,1.221,60.000,30936.000,1.000
-58.090,-38.372,-18.770,-17.002,-26.973,-19.038,-28.571,-12.767,-0.101,0.898,-0.447,-3.357,-1.587,1.312,60.000,30937.000,1.000
23.733,7.458,6.228,13.607,6.179,2.204,14.492,9.037,-0.101,0.899,-0.447,-2.869,-1.709,1.343,60.000,30938.000,1.000
43.811,18.381,6.592,16.534,12.534,2.545,20.159,11.966,-0.099,0.900,-0.444,-2.472,-1.678,1.282,60.000,30939.000,1.000
-19.478,-16.508,-14.755,-8.472,-10.753,-15.189,-13.580,-2.774,-0.100,0.902,-0.443,-2.014,-1.648,1.160,60.000,30940.000,1.000
-72.390,-44.531,-24.802,-23.120,-25.353,-22.597,-34.907,-10.083,-0.101,0.904,-0.445,-1.740,-1.617,1.099,60.000,30941.000,1.000
-36.930,-23.397,-6.819,-4.337,-5.783,-5.839,-10.863,3.539,-0.101,0.908,-0.447,-1.495,-1.648,1.068,60.000,30942.000,1.000
43.416,21.271,16.744,24.242,25.677,15.191,28.105,21.760,-0.101,0.910,-0.446,-1.282,-1.587,0.916,60.000,30943.000,1.000
66.764,32.793,15.700,25.609,30.459,14.490,31.835,21.853,-0.099,0.909,-0.446,-1.007,-1.587,0.793,60.000,30944.000,1.000
9.343,-0.803,-7.700,-1.245,5.235,-5.753,-2.362,5.451,-0.098,0.910,-0.448,-0.732,-1.526,0.641,60.000,30945.000,1.000
-47.571,-33.298,-22.742,-21.385,-15.040,-19.163,-28.246,-4.210,-0.094,0.905,-0.451,-0.580,-1.312,0.610,60.000,30946.000,1.000
-30.219,-23.788,-11.387,-11.205,-4.510,-10.599,-13.700,6.230,-0.091,0.902,-0.450,-0.244,-1.160,0.671,60.000,30947.000,1.000
31.225,10.245,9.248,11.795,20.627,5.030,18.038,23.014,-0.087,0.901,-0.452,0.122,-1.038,0.549,60.000,30948.000,1.000
51.488,21.277,12.231,15.889,27.205,5.014,23.525,25.038,-0.088,0.902,-0.452,0.397,-0.854,0.519,60.000,30949.000,1.000
6.367,-3.489,-3.874,-2.289,9.669,-11.020,-2.725,11.424,-0.091,0.905,-0.451,0.671,-0.641,0.336,60.000,30950.000,1.000
-40.166,-28.021,-15.699,-15.810,-5.132,-22.435,-24.030,0.941,-0.091,0.907,-0.453,0.854,-0.427,0.305,60.000,30951.000,1.000
-27.010,-18.855,-8.075,-5.735,3.677,-16.367,-13.052,6.147,-0.090,0.910,-0.450,1.038,-0.275,0.183,60.000,30952.000,1.000
22.772,10.190,6.528,13.736,23.152,-3.961,12.734,17.897,-0.091,0.915,-0.451,1.129,0.000,0.092,60.000,30953.000,1.000
39.948,20.251,7.452,16.676,26.483,-2.968,18.565,20.062,-0.090,0.915,-0.451,1.068,0.092,0.122,60.000,30954.000,1.000
3.957,0.488,-6.043,0.308,9.439,-13.730,-0.677,11.471,-0.091,0.918,-0.450,0.977,0.305,0.000,60.000,30955.000,1.000
-33.324,-19.504,-15.121,-12.825,-5.326,-20.023,-16.188,6.105,-0.093,0.919,-0.453,0.885,0.336,-0.092,60.000,30956.000,1.000
-21.364,-11.811,-7.999,-6.338,0.120,-11.998,-5.990,12.691,-0.096,0.918,-0.451,0.793,0.519,-0.092,60.000,30957.000,1.000
21.213,12.224,4.263,8.485,15.238,0.569,15.862,22.365,-0.098,0.917,-0.451,0.977,0.549,-0.092,60.000,30958.000,1.000
37.196,20.367,4.269,10.142,17.321,2.639,20.934,21.330,-0.100,0.917,-0.454,0.977,0.488,-0.183,60.000,30959.000,1.000
8.765,3.450,-8.247,-3.895,2.095,-6.005,4.544,9.214,-0.107,0.918,-0.454,0.793,0.366,-0.244,60.000,30960.000,1.000
-21.948,-14.103,-16.782,-14.900,-11.966,-11.302,-9.873,-0.879,-0.109,0.916,-0.455,0.732,0.214,-0.397,60.000,30961.000,1.000
-12.824,-8.770,-10.575,-8.996,-9.531,-4.475,-3.563,0.219,-0.110,0.917,-0.456,0.702,0.092,-0.458,60.000,30962.000,1.000
21.167,10.336,1.435,4.325,1.300,6.172,12.707,6.425,-0.109,0.919,-0.452,0.519,0.000,-0.641,60.000,30963.000,1.000
32.001,15.868,3.778,6.359,1.757,7.195,15.264,5.870,-0.108,0.919,-0.454,0.244,-0.183,-0.641,60.000,30964.000,1.000
3.407,-1.068,-5.594,-6.158,-12.301,-2.467,-0.920,-3.771,-0.105,0.917,-0.453,0.153,-0.397,-0.610,60.000,30965.000,1.000
-29.736,-20.467,-13.987,-17.903,-25.705,-10.709,-16.683,-13.561,-0.103,0.913,-0.455,0.092,-0.427,-0.549,60.000,30966.000,1.000
-29.307,-20.817,-11.620,-15.923,-24.581,-8.359,-14.754,-16.045,-0.099,0.913,-0.456,0.031,-0.519,-0.366,60.000,30967.000,1.000
-2.960,-6.464,-3.967,-5.933,-13.937,-0.386,-1.831,-14.483,-0.098,0.912,-0.458,0.061,-0.519,-0.366,60.000,30968.000,1.000
11.672,1.740,-2.417,-2.269,-8.692,2.713,3.244,-16.227,-0.096,0.911,-0.458,0.153,-0.427,-0.275,60.000,30969.000,1.000
-2.584,-5.290,-8.824,-8.591,-13.802,-0.749,-5.128,-21.827,-0.095,0.910,-0.455,0.122,-0.397,-0.153,60.000,30970.000,1.000
-23.615,-14.922,-13.833,-14.367,-19.390,-2.246,-13.324,-24.334,-0.096,0.912,-0.456,0.153,-0.244,-0.031,60.000,30971.000,1.000
-22.916,-11.793,-9.976,-10.139,-15.471,4.570,-8.060,-19.131,-0.094,0.913,-0.454,0.061,-0.244,0.153,60.000,30972.000,1.000
-3.387,1.295,-1.391,-0.187,-5.475,15.001,5.675,-10.747,-0.094,0.912,-0.454,0.000,-0.153,0.275,60.000,30973.000,1.000
9.533,9.355,2.844,4.525,-0.108,20.017,12.970,-7.068,-0.094,0.913,-0.451,0.000,0.000,0.397,60.000,30974.000,1.000
2.667,5.194,0.134,0.443,-3.135,17.220,8.385,-9.924,-0.094,0.913,-0.453,-0.092,0.061,0.519,60.000,30975.000,1.000
-10.128,-2.664,-3.526,-5.136,-7.397,12.618,1.530,-13.511,-0.094,0.912,-0.453,-0.183,0.061,0.641,60.000,30976.000,1.000
-8.945,-2.344,-2.359,-4.368,-5.012,12.133,2.831,-12.159,-0.095,0.912,-0.455,-0.214,0.092,0.732,60.000,30977.000,1.000
5.228,5.925,1.714,1.275,2.282,14.604,9.390,-7.060,-0.095,0.910,-0.456,-0.183,0.122,0.732,60.000,30978.000,1.000
15.041,12.334,3.083,4.861,6.776,15.304,11.009,-3.155,-0.095,0.909,-0.458,-0.244,0.244,0.824,60.000,30979.000,1.000
9.462,10.349,-0.088,3.245,4.546,12.486,4.272,-2.617,-0.094,0.907,-0.456,-0.214,0.366,0.824,60.000,30980.000,1.000
-4.334,3.639,-3.961,0.219,-0.641,9.087,-3.299,-2.946,-0.094,0.909,-0.454,-0.183,0.427,0.824,60.000,30981.000,1.000
-12.157,-0.003,-4.314,0.674,-2.852,8.377,-3.358,-1.121,-0.097,0.909,-0.448,-0.153,0.458,0.702,60.000,30982.000,1.000
-11.014,1.119,-1.716,4.007,-1.264,9.594,2.493,2.262,-0.095,0.909,-0.451,-0.305,0.366,0.671,60.000,30983.000,1.000
-8.379,2.976,0.512,6.159,0.859,9.681,6.606,4.674,-0.094,0.909,-0.454,-0.458,0.427,0.549,60.000,30984.000,1.000
-10.247,2.451,0.656,5.137,1.309,7.109,5.223,5.194,-0.096,0.908,-0.448,-0.458,0.336,0.519,60.000,30985.000,1.000
-13.504,1.428,0.383,3.366,1.564,3.522,2.047,5.641,-0.098,0.906,-0.451,-0.427,0.397,0.305,60.000,30986.000,1.000
-11.243,3.465,1.957,4.154,3.868,1.343,1.812,7.872,-0.098,0.906,-0.455,-0.580,0.397,0.336,60.000,30987.000,1.000
-3.505,7.859,4.853,7.157,7.146,0.758,3.384,10.949,-0.097,0.905,-0.454,-0.671,0.305,0.244,60.000,30988.000,1.000
3.810,10.912,6.991,9.776,8.587,0.616,2.747,12.489,-0.097,0.905,-0.452,-0.702,0.244,0.122,60.000,30989.000,1.000
5.478,10.021,7.034,10.290,6.747,0.066,-1.779,11.105,-0.100,0.905,-0.453,-0.732,0.153,0.000,60.000,30990.000,1.000
2.151,6.323,5.726,9.504,3.064,-0.478,-7.541,7.666,-0.098,0.907,-0.453,-0.671,0.183,-0.092,60.000,30991.000,1.000
-0.863,3.323,4.827,9.274,0.291,-0.105,-10.343,4.093,-0.100,0.907,-0.450,-0.763,0.061,-0.183,60.000,30992.000,1.000
-0.256,2.811,4.870,9.805,-0.582,0.921,-9.017,1.170,-0.099,0.909,-0.451,-0.793,-0.031,-0.366,60.000,30993.000,1.000
3.931,4.437,5.340,10.159,-0.279,1.559,-5.392,-1.314,-0.099,0.913,-0.451,-0.916,-0.092,-0.275,60.000,30994.000,1.000
8.681,6.331,5.309,9.242,-0.339,0.799,-2.905,-3.837,-0.100,0.915,-0.454,-0.977,-0.183,-0.397,60.000,30995.000,1.000
10.931,6.770,4.546,6.861,-1.734,-1.297,-3.912,-6.306,-0.100,0.913,-0.456,-0.977,-0.244,-0.458,60.000,30996.000,1.000
10.668,5.674,3.853,3.977,-4.098,-3.684,-7.639,-7.956,-0.103,0.914,-0.459,-1.007,-0.275,-0.275,60.000,30997.000,1.000
9.976,4.126,4.230,1.872,-6.348,-5.368,-11.079,-8.077,-0.105,0.914,-0.454,-1.068,-0.458,-0.305,60.000,30998.000,1.000
12.102,4.146,6.513,1.923,-7.025,-5.384,-10.764,-6.309,-0.103,0.913,-0.453,-1.129,-0.488,-0.366,60.000,30999.000,1.000
17.003,6.024,9.883,3.772,-6.330,-3.793,-6.718,-3.624,-0.105,0.915,-0.457,-1.221,-0.610,-0.336,60.000,31000.000,1.000
20.702,7.533,12.239,5.263,-6.284,-1.796,-2.414,-1.887,-0.105,0.916,-0.457,-1.343,-0.702,-0.183,60.000,31001.000,1.000
20.136,6.602,12.263,4.671,-8.209,-0.632,-0.544,-2.250,-0.105,0.914,-0.455,-1.404,-0.854,-0.153,60.000,31002.000,1.000
15.941,3.265,10.414,2.094,-11.200,-0.832,-0.741,-4.316,-0.106,0.916,-0.454,-1.312,-0.946,-0.092,60.000,31003.000,1.000
12.455,0.012,8.513,-0.628,-12.591,-1.843,-0.394,-6.387,-0.107,0.917,-0.454,-1.282,-1.068,-0.092,60.000,31004.000,1.000
11.402,-1.855,7.188,-2.710,-11.393,-3.425,0.904,-7.593,-0.108,0.916,-0.455,-1.312,-1.190,-0.092,60.000,31005.000,1.000
9.868,-3.492,5.563,-4.935,-9.121,-5.768,0.890,-8.429,-0.106,0.915,-0.455,-1.404,-1.312,0.000,60.000,31006.000,1.000
5.676,-5.585,3.189,-7.496,-7.187,-8.369,-1.485,-9.436,-0.105,0.916,-0.453,-1.434,-1.465,0.031,60.000,31007.000,1.000
0.537,-6.985,0.786,-9.302,-5.504,-10.113,-4.532,-10.520,-0.105,0.916,-0.454,-1.465,-1.617,0.122,60.000,31008.000,1.000
-1.048,-5.773,-0.328,-8.941,-3.117,-10.071,-5.282,-11.068,-0.105,0.915,-0.456,-1.373,-1.709,0.244,60.000,31009.000,1.000
1.155,-2.910,-0.326,-7.162,-0.699,-8.992,-3.481,-11.203,-0.105,0.914,-0.453,-1.312,-1.770,0.214,60.000,31010.000,1.000
2.097,-1.829,-0.572,-6.248,0.009,-8.405,-1.401,-11.515,-0.104,0.915,-0.453,-1.343,-1.862,0.305,60.000,31011.000,1.000
-1.676,-4.192,-1.768,-7.201,-1.118,-8.712,-0.575,-11.892,-0.104,0.915,-0.455,-1.373,-1.831,0.305,60.000,31012.000,1.000
-8.100,-8.129,-3.399,-8.892,-2.282,-9.025,-0.784,-11.524,-0.104,0.914,-0.455,-1.434,-2.045,0.275,60.000,31013.000,1.000
-11.036,-9.594,-4.217,-9.117,-1.242,-8.045,-0.379,-9.605,-0.101,0.911,-0.455,-1.251,-1.953,0.336,60.000,31014.000,1.000
-8.779,-7.538,-4.429,-7.756,1.609,-6.157,0.828,-6.884,-0.101,0.911,-0.455,-1.099,-1.953,0.427,60.000,31015.000,1.000
-6.204,-5.077,-5.488,-6.765,3.540,-5.105,1.336,-5.062,-0.099,0.910,-0.453,-1.038,-1.862,0.305,60.000,31016.000,1.000
-7.570,-5.110,-7.853,-7.216,2.873,-5.721,0.244,-4.755,-0.100,0.907,-0.455,-1.007,-1.831,0.336,60.000,31017.000,1.000
-11.877,-7.381,-10.238,-8.171,0.505,-7.031,-1.977,-4.957,-0.099,0.905,-0.456,-0.885,-1.862,0.397,60.000,31018.000,1.000
-13.720,-8.819,-10.464,-7.648,-0.885,-7.085,-3.462,-3.977,-0.097,0.906,-0.457,-0.702,-1.770,0.488,60.000,31019.000,1.000
-11.323,-8.248,-8.258,-5.722,-0.346,-5.758,-3.908,-1.692,-0.097,0.903,-0.454,-0.488,-1.556,0.458,60.000,31020.000,1.000
-8.870,-7.796,-5.485,-4.587,0.470,-4.918,-5.135,0.339,-0.094,0.904,-0.454,-0.397,-1.495,0.488,60.000,31021.000,1.000
-9.855,-9.095,-3.659,-5.507,0.008,-5.787,-8.192,0.901,-0.092,0.906,-0.456,-0.244,-1.434,0.458,60.000,31022.000,1.000
-12.853,-11.061,-2.585,-7.309,-1.364,-7.538,-11.780,0.423,-0.091,0.907,-0.454,-0.061,-1.251,0.610,60.000,31023.000,1.000
-12.663,-10.810,-0.931,-7.378,-1.659,-8.156,-12.791,0.676,-0.093,0.908,-0.453,0.031,-1.068,0.580,60.000,31024.000,1.000
-8.128,-8.045,1.156,-5.251,-0.437,-7.327,-10.499,2.425,-0.097,0.909,-0.453,0.000,-0.854,0.549,60.000,31025.000,1.000
-4.008,-5.700,2.182,-3.040,0.587,-6.629,-7.402,4.845,-0.099,0.910,-0.451,0.031,-0.763,0.427,60.000,31026.000,1.000
-4.386,-6.057,1.615,-2.471,0.180,-7.195,-5.613,7.013,-0.103,0.911,-0.451,0.153,-0.702,0.397,60.000,31027.000,1.000
-8.507,-8.627,0.561,-3.222,-1.055,-8.514,-4.766,8.784,-0.108,0.910,-0.447,0.214,-0.610,0.397,60.000,31028.000,1.000
-11.135,-10.501,0.883,-3.324,-1.196,-8.872,-2.657,10.615,-0.105,0.907,-0.450,0.183,-0.641,0.305,60.000,31029.000,1.000
-9.744,-10.324,2.652,-2.186,0.140,-7.732,0.524,11.917,-0.105,0.909,-0.453,0.275,-0.702,0.244,60.000,31030.000,1.000
-7.092,-9.558,4.212,-1.133,1.433,-6.104,1.874,11.252,-0.102,0.908,-0.455,0.244,-0.702,0.183,60.000,31031.000,1.000
-6.262,-9.794,4.429,-1.135,1.630,-4.981,-0.061,8.218,-0.101,0.908,-0.455,0.305,-0.732,0.153,60.000,31032.000,1.000
-7.506,-11.118,3.672,-1.756,1.156,-4.480,-3.325,4.187,-0.102,0.909,-0.455,0.305,-0.671,0.061,60.000,31033.000,1.000
-7.700,-11.589,3.456,-1.441,1.646,-3.638,-3.952,1.513,-0.102,0.908,-0.455,0.305,-0.702,-0.092,60.000,31034.000,1.000
-5.665,-10.100,4.160,0.120,3.580,-2.005,-1.013,1.114,-0.100,0.908,-0.454,0.397,-0.641,-0.122,60.000,31035.000,1.000
-3.925,-7.652,4.771,1.740,5.804,-0.033,2.681,2.015,-0.100,0.907,-0.458,0.397,-0.519,-0.153,60.000,31036.000,1.000
-4.460,-5.493,4.449,2.492,7.183,1.778,4.683,2.849,-0.101,0.909,-0.457,0.427,-0.458,-0.183,60.000,31037.000,1.000
-6.747,-4.181,3.083,2.245,7.284,3.072,5.042,2.854,-0.100,0.910,-0.455,0.366,-0.336,0.000,60.000,31038.000,1.000
-7.601,-2.938,1.503,1.863,6.842,4.074,5.932,2.365,-0.101,0.909,-0.456,0.366,-0.366,-0.031,60.000,31039.000,1.000
-5.791,-1.495,0.114,1.716,6.351,4.868,7.983,1.739,-0.104,0.911,-0.454,0.366,-0.366,0.031,60.000,31040.000,1.000
-3.322,-0.639,-1.320,1.395,5.565,5.366,9.610,0.942,-0.103,0.912,-0.456,0.183,-0.336,-0.061,60.000,31041.000,1.000
-1.702,-0.628,-2.776,0.735,4.437,5.745,9.743,0.099,-0.104,0.915,-0.452,0.244,-0.275,0.061,60.000,31042.000,1.000
-0.782,-1.059,-3.938,-0.150,3.184,6.039,8.704,-0.524,-0.100,0.916,-0.457,0.214,-0.244,0.092,60.000,31043.000,1.000
1.229,-0.966,-4.231,-0.788,2.375,6.201,7.929,-0.553,-0.099,0.915,-0.461,0.061,-0.214,0.153,60.000,31044.000,1.000
4.126,-0.647,-3.863,-1.360,1.879,5.782,7.804,-0.222,-0.100,0.916,-0.458,-0.031,-0.244,0.153,60.000,31045.000,1.000
5.684,-1.234,-3.430,-2.220,1.222,4.623,7.760,-0.032,-0.100,0.916,-0.457,-0.061,-0.183,0.366,60.000,31046.000,1.000
5.160,-2.692,-3.091,-2.958,0.551,3.234,7.460,-0.142,-0.100,0.915,-0.457,-0.244,-0.122,0.336,60.000,31047.000,1.000
3.318,-4.147,-2.894,-3.029,0.202,2.121,6.534,-0.525,-0.101,0.913,-0.457,-0.336,-0.061,0.427,60.000,31048.000,1.000
2.396,-3.996,-2.548,-1.808,0.864,1.950,5.594,-0.672,-0.102,0.914,-0.460,-0.427,0.061,0.458,60.000,31049.000,1.000
2.907,-1.827,-2.251,0.290,2.417,2.679,5.149,-0.440,-0.102,0.911,-0.460,-0.519,0.092,0.488,60.000,31050.000,1.000
3.309,1.209,-2.432,2.066,3.857,3.614,5.183,-0.177,-0.101,0.911,-0.457,-0.580,0.122,0.488,60.000,31051.000,1.000
3.151,4.200,-2.812,3.009,4.618,4.439,5.812,0.077,-0.102,0.913,-0.457,-0.610,0.153,0.580,60.000,31052.000,1.000
2.640,6.558,-2.925,3.224,4.528,5.115,6.337,0.508,-0.102,0.911,-0.455,-0.641,0.031,0.549,60.000,31053.000,1.000
2.493,8.331,-2.425,3.275,3.845,5.767,5.992,1.432,-0.102,0.909,-0.454,-0.793,0.031,0.641,60.000,31054.000,1.000
2.106,9.189,-1.789,3.163,2.467,5.951,4.284,2.625,-0.103,0.911,-0.455,-0.763,0.000,0.610,60.000,31055.000,1.000
0.521,8.656,-1.576,2.728,0.348,5.206,1.717,3.567,-0.104,0.911,-0.457,-0.885,-0.061,0.671,60.000,31056.000,1.000
-1.118,7.439,-1.509,2.542,-1.624,3.957,-0.320,4.164,-0.106,0.911,-0.456,-0.793,-0.092,0.641,60.000,31057.000,1.000
-1.476,6.687,-1.136,3.105,-2.554,2.998,-1.392,4.606,-0.105,0.912,-0.456,-0.885,-0.122,0.732,60.000,31058.000,1.000
0.203,7.556,-0.033,4.654,-1.931,3.136,-1.562,5.296,-0.105,0.911,-0.457,-0.854,-0.122,0.671,60.000,31059.000,1.000
2.617,9.740,1.520,6.666,-0.229,4.467,-1.169,6.225,-0.105,0.909,-0.458,-0.916,-0.092,0.671,60.000,31060.000,1.000
4.000,11.877,3.027,8.536,1.786,6.676,0.016,7.261,-0.104,0.910,-0.459,-0.885,-0.183,0.732,60.000,31061.000,1.000
4.715,13.178,4.361,10.230,3.844,9.343,2.777,8.489,-0.102,0.909,-0.457,-0.885,-0.214,0.610,60.000,31062.000,1.000
5.365,13.210,5.283,11.501,5.513,11.610,6.650,9.711,-0.103,0.907,-0.455,-0.854,-0.305,0.641,60.000,31063.000,1.000
6.693,12.567,5.855,12.204,6.613,12.978,10.499,10.720,-0.102,0.906,-0.457,-0.916,-0.305,0.580,60.000,31064.000,1.000
8.296,11.879,6.020,11.931,6.836,13.219,12.586,11.169,-0.102,0.907,-0.454,-0.946,-0.336,0.488,60.000,31065.000,1.000
9.497,11.512,5.943,10.578,6.131,12.604,11.946,11.010,-0.102,0.906,-0.457,-0.824,-0.458,0.519,60.000,31066.000,1.000
11.348,12.235,6.399,9.055,5.412,12.044,9.784,10.710,-0.102,0.906,-0.458,-0.793,-0.519,0.519,60.000,31067.000,1.000
14.237,13.947,7.659,8.066,5.321,11.944,7.712,10.292,-0.102,0.907,-0.459,-0.763,-0.488,0.488,60.000,31068.000,1.000
17.436,15.760,9.278,7.698,5.729,11.996,6.565,9.300,-0.101,0.907,-0.458,-0.702,-0.549,0.458,60.000,31069.000,1.000
18.827,16.161,10.075,7.165,5.541,11.306,5.336,7.034,-0.103,0.908,-0.457,-0.793,-0.610,0.458,60.000,31070.000,1.000
17.433,14.696,9.492,6.046,4.182,9.685,2.976,3.701,-0.104,0.908,-0.455,-0.793,-0.580,0.488,60.000,31071.000,1.000
15.625,13.157,8.386,5.162,2.728,8.132,0.525,0.822,-0.104,0.910,-0.456,-0.854,-0.610,0.458,60.000,31072.000,1.000
15.325,13.018,7.523,5.000,2.125,7.229,-0.716,-0.439,-0.103,0.912,-0.456,-0.916,-0.641,0.458,60.000,31073.000,1.000
16.365,14.018,6.935,5.155,2.228,6.668,-0.624,-0.244,-0.104,0.910,-0.453,-0.824,-0.641,0.458,60.000,31074.000,1.000
16.300,14.068,5.920,4.421,1.841,5.543,-0.803,0.047,-0.101,0.913,-0.455,-0.824,-0.702,0.458,60.000,31075.000,1.000
13.605,11.829,4.439,2.431,0.540,3.696,-2.180,-0.419,-0.101,0.912,-0.458,-0.885,-0.671,0.397,60.000,31076.000,1.000
10.337,8.878,3.698,0.533,-0.297,2.169,-3.223,-1.031,-0.101,0.913,-0.458,-1.038,-0.671,0.336,60.000,31077.000,1.000
8.584,7.445,4.443,-0.038,0.567,1.725,-2.449,-0.986,-0.100,0.911,-0.456,-1.068,-0.610,0.397,60.000,31078.000,1.000
8.844,8.558,6.304,0.960,3.280,2.388,0.260,-0.136,-0.102,0.910,-0.456,-1.038,-0.732,0.366,60.000,31079.000,1.000
9.344,10.955,7.758,2.429,6.599,3.313,3.281,0.645,-0.102,0.909,-0.458,-1.160,-0.793,0.305,60.000,31080.000,1.000
8.438,12.696,7.581,3.163,9.044,3.717,4.851,0.447,-0.101,0.911,-0.456,-1.068,-0.763,0.305,60.000,31081.000,1.000
6.974,13.285,5.880,2.996,10.056,3.522,4.458,-0.745,-0.101,0.908,-0.456,-1.160,-0.702,0.214,60.000,31082.000,1.000
5.532,12.693,3.186,2.010,9.396,2.711,1.909,-2.458,-0.100,0.908,-0.457,-1.160,-0.732,0.305,60.000,31083.000,1.000
4.089,11.271,0.311,0.658,7.518,1.557,-2.022,-3.762,-0.101,0.909,-0.456,-1.129,-0.702,0.214,60.000,31084.000,1.000
1.782,9.244,-2.240,-0.674,5.092,0.202,-6.256,-4.151,-0.102,0.907,-0.458,-1.129,-0.671,0.214,60.000,31085.000,1.000
-1.478,7.114,-4.122,-1.560,2.806,-1.233,-9.712,-3.894,-0.100,0.909,-0.459,-1.007,-0.702,0.244,60.000,31086.000,1.000
-3.773,5.952,-5.016,-1.505,1.366,-2.277,-11.178,-3.600,-0.100,0.910,-0.462,-0.977,-0.702,0.366,60.000,31087.000,1.000
-4.527,5.444,-5.392,-1.056,0.457,-2.695,-10.638,-4.051,-0.100,0.908,-0.462,-0.885,-0.671,0.397,60.000,31088.000,1.000
-4.365,4.484,-5.817,-1.105,-0.619,-2.383,-8.730,-5.409,-0.101,0.909,-0.459,-0.824,-0.519,0.366,60.000,31089.000,1.000
-4.454,2.146,-6.683,-2.321,-2.497,-1.724,-6.720,-7.196,-0.098,0.909,-0.459,-0.732,-0.519,0.366,60.000,31090.000,1.000
-4.778,-1.128,-7.744,-4.367,-5.034,-1.114,-5.429,-8.359,-0.098,0.909,-0.459,-0.732,-0.488,0.427,60.000,31091.000,1.000
-3.386,-3.389,-8.173,-5.873,-7.096,-0.363,-4.223,-7.795,-0.097,0.908,-0.458,-0.580,-0.366,0.458,60.000,31092.000,1.000
-0.082,-3.804,-7.762,-6.058,-8.032,0.667,-2.641,-5.582,-0.098,0.910,-0.459,-0.580,-0.275,0.488,60.000,31093.000,1.000
3.610,-3.033,-6.760,-4.922,-7.846,1.910,-0.739,-2.710,-0.097,0.911,-0.459,-0.610,-0.244,0.458,60.000,31094.000,1.000
5.236,-2.783,-5.827,-3.407,-7.394,2.624,0.498,-0.503,-0.098,0.909,-0.459,-0.549,-0.214,0.458,60.000,31095.000,1.000
3.588,-4.158,-5.274,-2.484,-7.521,2.148,0.436,0.400,-0.099,0.909,-0.456,-0.488,-0.092,0.610,60.000,31096.000,1.000
0.246,-6.426,-4.668,-2.162,-8.038,0.795,-0.077,0.406,-0.100,0.910,-0.455,-0.488,-0.061,0.610,60.000,31097.000,1.000
-3.055,-8.441,-3.742,-2.104,-8.467,-0.773,-0.380,0.096,-0.099,0.910,-0.456,-0.549,-0.092,0.641,60.000,31098.000,1.000
-4.390,-8.823,-2.162,-1.499,-8.071,-1.756,-0.142,0.124,-0.100,0.910,-0.460,-0.580,-0.092,0.763,60.000,31099.000,1.000
-3.128,-7.215,0.003,-0.004,-6.737,-2.036,0.139,0.672,-0.099,0.909,-0.461,-0.580,0.000,0.671,60.000,31100.000,1.000
-0.348,-4.558,2.276,2.035,-5.064,-2.024,-0.213,1.523,-0.100,0.909,-0.459,-0.671,-0.031,0.580,60.000,31101.000,1.000
2.705,-1.893,4.104,4.168,-3.551,-1.941,-1.015,2.522,-0.100,0.910,-0.458,-0.488,0.031,0.610,60.000,31102.000,1.000
4.102,-0.424,4.682,5.612,-2.749,-2.078,-2.159,3.294,-0.099,0.909,-0.457,-0.519,0.000,0.763,60.000,31103.000,1.000
3.476,-0.253,3.941,6.123,-2.508,-2.389,-3.041,3.638,-0.099,0.910,-0.458,-0.488,-0.031,0.641,60.000,31104.000,1.000
1.591,-0.830,2.279,5.707,-2.438,-2.772,-3.160,3.433,-0.098,0.911,-0.458,-0.580,-0.061,0.671,60.000,31105.000,1.000
-0.604,-1.670,0.176,4.408,-2.369,-3.158,-2.482,2.749,-0.098,0.910,-0.457,-0.610,-0.031,0.702,60.000,31106.000,1.000
-1.831,-2.280,-1.887,2.556,-2.203,-3.531,-1.224,1.983,-0.099,0.912,-0.456,-0.702,-0.061,0.580,60.000,31107.000,1.000
-2.291,-3.032,-3.867,0.298,-2.306,-4.310,-0.368,1.344,-0.100,0.911,-0.455,-0.824,-0.092,0.610,60.000,31108.000,1.000
-2.306,-4.317,-5.530,-1.892,-2.785,-5.633,-0.345,0.968,-0.100,0.910,-0.458,-0.824,-0.061,0.580,60.000,31109.000,1.000
-2.550,-6.556,-6.745,-3.739,-3.688,-7.477,-1.336,0.588,-0.099,0.909,-0.455,-0.885,0.000,0.549,60.000,31110.000,1.000
-3.572,-9.587,-7.332,-5.083,-4.792,-9.479,-3.162,-0.038,-0.099,0.910,-0.459,-0.885,0.000,0.549,60.000,31111.000,1.000
-4.688,-12.156,-6.938,-5.623,-5.444,-10.954,-4.930,-0.739,-0.100,0.909,-0.460,-0.763,0.000,0.519,60.000,31112.000,1.000
-5.928,-13.720,-5.845,-5.716,-5.611,-11.749,-6.279,-1.441,-0.099,0.907,-0.461,-0.793,0.000,0.488,60.000,31113.000,1.000
-6.680,-14.017,-4.325,-5.617,-5.146,-11.755,-6.581,-1.869,-0.101,0.908,-0.461,-0.885,0.122,0.580,60.000,31114.000,1.000
-6.215,-13.075,-2.735,-5.509,-3.823,-11.085,-5.502,-1.973,-0.101,0.910,-0.457,-0.854,0.061,0.549,60.000,31115.000,1.000
-4.573,-11.272,-1.428,-5.463,-1.655,-9.995,-3.432,-2.021,-0.102,0.911,-0.458,-0.854,0.061,0.458,60.000,31116.000,1.000
-2.093,-8.947,-0.501,-5.259,1.111,-8.535,-0.944,-2.165,-0.099,0.910,-0.458,-0.916,0.061,0.458,60.000,31117.000,1.000
-0.274,-6.934,-0.205,-5.084,3.576,-6.849,1.076,-2.551,-0.099,0.911,-0.460,-0.977,0.092,0.519,60.000,31118.000,1.000
0.725,-5.152,-0.283,-4.866,5.315,-4.738,2.826,-2.857,-0.100,0.909,-0.460,-0.977,0.031,0.580,60.000,31119.000,1.000
1.491,-3.182,-0.466,-4.689,6.170,-2.343,4.589,-2.769,-0.098,0.909,-0.460,-1.068,0.092,0.519,60.000,31120.000,1.000
1.960,-1.310,-0.785,-4.916,5.935,-0.319,6.005,-2.311,-0.100,0.907,-0.457,-0.854,0.183,0.580,60.000,31121.000,1.000
1.752,-0.279,-1.396,-5.658,4.715,0.801,6.834,-1.794,-0.101,0.909,-0.454,-0.946,0.153,0.671,60.000,31122.000,1.000
-0.566,-1.349,-2.734,-7.007,2.584,0.720,6.641,-1.872,-0.102,0.910,-0.453,-1.068,0.092,0.580,60.000,31123.000,1.000
-4.577,-4.214,-4.409,-8.145,0.440,0.133,5.920,-2.577,-0.101,0.911,-0.457,-1.190,0.061,0.488,60.000,31124.000,1.000
-8.295,-7.146,-5.660,-8.050,-0.612,0.041,5.471,-3.482,-0.100,0.910,-0.456,-1.251,0.092,0.458,60.000,31125.000,1.000
-10.217,-8.626,-6.121,-6.539,-0.224,0.882,5.611,-4.246,-0.100,0.913,-0.455,-1.251,0.061,0.488,60.000,31126.000,1.000
-9.991,-8.185,-5.972,-4.401,1.107,2.216,6.115,-4.793,-0.101,0.910,-0.453,-1.282,0.031,0.458,60.000,31127.000,1.000
-9.551,-7.095,-6.042,-3.238,1.950,2.647,5.664,-5.425,-0.099,0.909,-0.454,-1.160,0.122,0.519,60.000,31128.000,1.000
-10.112,-6.495,-6.601,-3.648,1.465,1.367,3.813,-5.949,-0.098,0.911,-0.456,-1.251,0.061,0.427,60.000,31129.000,1.000
-11.620,-6.828,-7.435,-5.098,-0.362,-1.389,1.348,-5.949,-0.099,0.911,-0.457,-1.282,-0.153,0.519,60.000,31130.000,1.000
-13.483,-7.966,-8.189,-6.607,-3.061,-4.658,-0.566,-5.362,-0.101,0.907,-0.459,-1.160,-0.122,0.488,60.000,31131.000,1.000
-14.851,-9.341,-8.600,-7.411,-5.926,-7.442,-1.367,-4.664,-0.099,0.908,-0.463,-1.282,-0.061,0.549,60.000,31132.000,1.000
-16.363,-11.081,-8.966,-7.774,-8.798,-9.497,-2.085,-4.772,-0.101,0.908,-0.460,-1.099,-0.092,0.458,60.000,31133.000,1.000
-17.665,-12.670,-9.113,-7.722,-11.121,-10.495,-3.163,-5.689,-0.102,0.910,-0.460,-1.129,-0.061,0.458,60.000,31134.000,1.000
-17.685,-13.257,-8.686,-7.081,-12.253,-10.277,-4.209,-6.504,-0.102,0.911,-0.459,-1.160,-0.214,0.519,60.000,31135.000,1.000
-16.247,-12.647,-7.614,-5.924,-12.072,-9.157,-4.732,-6.166,-0.102,0.911,-0.456,-1.190,-0.275,0.580,60.000,31136.000,1.000
-13.814,-11.070,-5.950,-4.384,-10.780,-7.577,-4.318,-4.187,-0.103,0.911,-0.455,-1.160,-0.244,0.641,60.000,31137.000,1.000
-11.994,-9.317,-4.056,-2.901,-9.065,-6.053,-3.386,-1.268,-0.102,0.909,-0.455,-1.038,-0.305,0.580,60.000,31138.000,1.000
-10.781,-7.185,-1.859,-1.350,-6.997,-4.472,-2.039,1.642,-0.103,0.908,-0.458,-1.038,-0.397,0.488,60.000,31139.000,1.000
-9.226,-4.210,0.499,0.336,-4.488,-2.777,-0.685,3.739,-0.101,0.907,-0.459,-1.038,-0.427,0.488,60.000,31140.000,1.000
-7.109,-0.763,2.358,1.740,-1.809,-1.357,-0.225,4.576,-0.100,0.908,-0.456,-1.038,-0.458,0.488,60.000,31141.000,1.000
-4.687,2.374,3.086,2.494,0.785,-0.511,-0.963,4.256,-0.099,0.909,-0.455,-1.038,-0.519,0.549,60.000,31142.000,1.000
-3.729,3.783,2.137,2.134,2.661,-0.450,-2.958,3.073,-0.098,0.911,-0.456,-1.007,-0.580,0.519,60.000,31143.000,1.000
-4.806,3.132,0.006,1.014,3.628,-0.778,-5.148,1.786,-0.102,0.910,-0.455,-0.854,-0.610,0.488,60.000,31144.000,1.000
-7.016,1.279,-2.243,-0.126,3.863,-1.073,-6.253,0.984,-0.101,0.909,-0.456,-0.885,-0.641,0.580,60.000,31145.000,1.000
-9.288,-0.659,-3.695,-0.839,3.593,-1.210,-5.857,0.692,-0.102,0.911,-0.457,-0.885,-0.641,0.610,60.000,31146.000,1.000
-10.681,-1.730,-3.943,-1.112,3.048,-1.116,-4.397,0.599,-0.101,0.909,-0.453,-0.977,-0.610,0.641,60.000,31147.000,1.000
-11.781,-2.068,-3.535,-1.667,1.904,-0.932,-3.335,0.091,-0.100,0.909,-0.455,-0.946,-0.671,0.671,60.000,31148.000,1.000
-12.276,-1.503,-2.805,-2.516,0.419,-0.293,-3.134,-0.792,-0.100,0.909,-0.458,-0.916,-0.824,0.641,60.000,31149.000,1.000
-11.234,0.305,-1.820,-2.968,-0.687,1.174,-3.347,-1.448,-0.101,0.908,-0.457,-0.854,-0.854,0.610,60.000,31150.000,1.000
-8.600,3.031,-0.656,-2.399,-1.038,3.226,-3.550,-1.320,-0.102,0.909,-0.456,-0.885,-0.854,0.519,60.000,31151.000,1.000
-5.013,5.783,0.633,-0.707,-0.794,5.041,-3.516,-0.348,-0.103,0.908,-0.454,-0.793,-0.824,0.427,60.000,31152.000,1.000
-2.378,7.052,1.778,1.319,-0.752,5.538,-3.559,0.839,-0.103,0.910,-0.456,-0.671,-0.946,0.427,60.000,31153.000,1.000
-0.825,6.885,3.179,3.423,-0.778,4.919,-2.828,2.000,-0.103,0.909,-0.460,-0.702,-0.946,0.427,60.000,31154.000,1.000
0.877,6.518,5.287,5.702,-0.116,4.338,-0.326,3.177,-0.104,0.911,-0.457,-0.671,-0.977,0.275,60.000,31155.000,1.000
3.544,6.921,7.986,8.001,1.635,4.834,3.485,4.402,-0.103,0.910,-0.457,-0.702,-1.038,0.275,60.000,31156.000,1.000
7.747,8.748,10.812,10.110,4.406,6.773,7.353,5.849,-0.104,0.909,-0.457,-0.671,-1.160,0.153,60.000,31157.000,1.000
12.319,11.479,12.819,11.412,7.237,9.402,9.913,7.381,-0.102,0.910,-0.458,-0.610,-1.190,0.122,60.000,31158.000,1.000
16.171,14.330,13.624,11.799,9.434,12.023,11.416,8.922,-0.101,0.910,-0.460,-0.671,-1.160,0.153,60.000,31159.000,1.000
18.503,16.359,13.348,11.419,10.747,14.388,12.858,10.382,-0.101,0.912,-0.460,-0.702,-1.129,0.092,60.000,31160.000,1.000
18.700,16.599,12.309,10.264,11.017,16.416,14.560,11.367,-0.102,0.911,-0.460,-0.671,-1.099,0.031,60.000,31161.000,1.000
17.081,14.632,10.828,8.251,10.087,17.610,15.741,10.996,-0.101,0.906,-0.456,-0.732,-1.099,0.092,60.000,31162.000,1.000
13.072,9.749,8.646,4.835,7.258,16.591,14.227,7.979,-0.102,0.902,-0.456,-0.610,-1.129,0.061,60.000,31163.000,1.000
6.740,2.108,5.776,0.087,2.419,12.435,8.885,1.982,-0.103,0.898,-0.458,-0.488,-1.160,0.092,60.000,31164.000,1.000
-1.014,-6.970,2.579,-5.263,-3.801,4.985,0.119,-6.108,-0.103,0.896,-0.461,-0.244,-1.129,0.214,60.000,31165.000,1.000
-8.487,-15.168,-0.011,-9.907,-10.047,-4.876,-10.343,-14.308,-0.103,0.890,-0.460,0.000,-1.068,0.397,60.000,31166.000,1.000
-12.799,-19.624,-0.563,-12.118,-14.249,-14.832,-19.512,-20.056,-0.105,0.889,-0.461,0.366,-1.190,0.427,60.000,31167.000,1.000
-12.898,-19.371,1.283,-11.330,-15.258,-22.361,-25.276,-21.819,-0.106,0.890,-0.455,0.793,-1.251,0.671,60.000,31168.000,1.000
-9.249,-15.339,4.692,-8.105,-13.114,-25.675,-26.816,-19.516,-0.105,0.894,-0.456,1.129,-1.190,0.793,60.000,31169.000,1.000
-3.821,-9.897,7.885,-3.883,-9.109,-24.787,-25.020,-14.521,-0.106,0.900,-0.457,1.343,-1.221,0.854,60.000,31170.000,1.000
1.154,-5.341,9.341,0.022,-4.810,-21.024,-21.464,-8.748,-0.106,0.904,-0.456,1.404,-1.251,0.977,60.000,31171.000,1.000
5.452,-2.159,8.816,3.230,-0.838,-15.791,-16.915,-3.555,-0.106,0.907,-0.459,1.495,-1.251,1.160,60.000,31172.000,1.000
9.080,-0.248,6.690,5.364,2.374,-10.588,-12.265,0.090,-0.107,0.910,-0.460,1.526,-1.251,1.312,60.000,31173.000,1.000
12.730,1.087,4.053,6.450,4.699,-6.337,-7.861,1.864,-0.106,0.912,-0.458,1.526,-1.282,1.312,60.000,31174.000,1.000
16.596,2.428,1.858,6.643,5.859,-3.409,-3.694,1.827,-0.104,0.914,-0.456,1.556,-1.434,1.373,60.000,31175.000,1.000
19.707,3.774,0.411,6.059,5.404,-1.670,0.396,0.467,-0.103,0.916,-0.456,1.526,-1.373,1.312,60.000,31176.000,1.000
21.580,5.188,-0.318,5.175,3.502,-0.562,4.659,-1.133,-0.102,0.918,-0.458,1.404,-1.373,1.434,60.000,31177.000,1.000
21.568,6.184,-0.847,4.310,0.670,0.045,8.022,-2.077,-0.098,0.914,-0.457,1.404,-1.343,1.617,60.000,31178.000,1.000
20.328,6.705,-1.251,4.090,-1.767,0.289,9.403,-1.790,-0.095,0.912,-0.462,1.404,-1.160,1.648,60.000,31179.000,1.000
18.677,6.736,-1.386,4.755,-2.648,0.255,8.615,-0.431,-0.092,0.911,-0.458,1.434,-1.099,1.526,60.000,31180.000,1.000
16.512,6.032,-1.117,5.871,-1.701,0.073,6.756,1.458,-0.091,0.908,-0.462,1.434,-0.946,1.556,60.000,31181.000,1.000
14.111,5.032,-0.194,7.052,0.960,0.047,5.650,3.724,-0.092,0.909,-0.466,1.404,-0.763,1.465,60.000,31182.000,1.000
11.159,4.024,1.080,7.727,4.574,-0.087,5.301,6.232,-0.092,0.910,-0.463,1.373,-0.580,1.434,60.000,31183.000,1.000
7.916,3.423,2.311,7.833,8.503,-0.603,4.739,8.948,-0.092,0.913,-0.464,1.343,-0.488,1.343,60.000,31184.000,1.000
4.275,3.206,2.845,7.521,12.115,-1.555,3.335,11.641,-0.090,0.917,-0.466,1.221,-0.336,1.282,60.000,31185.000,1.000
-0.297,3.027,2.203,7.106,14.871,-2.498,1.671,14.037,-0.090,0.919,-0.463,0.946,-0.153,1.251,60.000,31186.000,1.000
-4.681,3.282,0.851,7.312,16.783,-2.527,1.198,16.089,-0.091,0.922,-0.465,0.702,-0.092,1.038,60.000,31187.000,1.000
-7.554,4.095,-0.483,8.201,17.597,-1.332,2.042,17.411,-0.091,0.923,-0.464,0.336,0.031,0.946,60.000,31188.000,1.000
-7.279,5.696,-0.918,9.543,17.372,1.101,3.888,17.772,-0.094,0.924,-0.467,0.183,0.153,0.854,60.000,31189.000,1.000
-3.714,7.895,-0.345,10.760,16.339,4.248,6.201,17.104,-0.097,0.921,-0.467,-0.061,0.275,0.763,60.000,31190.000,1.000
1.246,9.930,0.597,11.228,14.684,7.144,8.209,15.512,-0.101,0.920,-0.466,-0.183,0.275,0.580,60.000,31191.000,1.000
6.146,11.426,1.607,10.992,12.845,9.173,9.766,13.499,-0.104,0.917,-0.463,-0.397,0.275,0.366,60.000,31192.000,1.000
9.566,11.694,2.641,10.086,10.704,9.995,10.681,11.457,-0.107,0.916,-0.463,-0.580,0.153,0.244,60.000,31193.000,1.000
11.510,10.717,4.102,8.826,8.246,9.842,10.979,9.855,-0.111,0.915,-0.460,-0.793,0.153,-0.061,60.000,31194.000,1.000
12.663,9.174,5.947,7.393,5.691,8.861,9.867,8.740,-0.110,0.912,-0.460,-0.946,0.122,-0.153,60.000,31195.000,1.000
13.364,7.882,7.475,5.749,3.429,7.123,6.128,7.459,-0.111,0.911,-0.464,-1.068,-0.061,-0.305,60.000,31196.000,1.000
14.101,7.569,8.086,4.047,2.026,5.264,0.385,5.197,-0.109,0.911,-0.468,-1.251,-0.336,-0.366,60.000,31197.000,1.000
14.009,7.656,7.291,2.021,1.269,3.991,-5.096,1.308,-0.108,0.911,-0.465,-1.282,-0.397,-0.366,60.000,31198.000,1.000
12.905,7.654,5.511,-0.244,0.937,4.179,-7.279,-3.853,-0.104,0.910,-0.465,-1.312,-0.580,-0.397,60.000,31199.000,1.000
11.107,7.402,3.639,-2.457,0.827,6.302,-5.380,-9.322,-0.102,0.909,-0.464,-1.312,-0.610,-0.488,60.000,31200.000,1.000
8.474,6.571,2.467,-4.401,0.584,10.150,-1.596,-14.101,-0.101,0.911,-0.463,-1.373,-0.519,-0.366,60.000,31201.000,1.000
5.572,5.267,2.449,-5.731,0.066,14.944,1.611,-17.389,-0.100,0.912,-0.463,-1.282,-0.519,-0.275,60.000,31202.000,1.000
2.763,3.612,2.985,-6.507,-1.163,19.032,2.820,-19.118,-0.098,0.910,-0.463,-1.404,-0.549,-0.214,60.000,31203.000,1.000
1.528,2.539,3.354,-6.532,-3.107,21.147,2.718,-19.426,-0.098,0.908,-0.463,-1.404,-0.397,-0.092,60.000,31204.000,1.000
2.960,2.749,3.004,-5.862,-5.604,21.003,2.409,-18.765,-0.099,0.908,-0.460,-1.312,-0.458,-0.031,60.000,31205.000,1.000
6.109,3.674,1.785,-5.037,-8.571,19.332,2.159,-17.749,-0.097,0.905,-0.462,-1.251,-0.458,0.122,60.000,31206.000,1.000
9.335,4.396,0.247,-4.268,-11.408,17.455,2.165,-16.523,-0.097,0.903,-0.464,-1.251,-0.305,0.275,60.000,31207.000,1.000
10.345,3.876,-1.089,-3.627,-13.526,15.986,2.116,-15.128,-0.096,0.902,-0.459,-1.190,-0.244,0.427,60.000,31208.000,1.000
8.888,2.517,-1.496,-2.561,-14.114,15.152,2.180,-13.485,-0.097,0.901,-0.458,-1.129,-0.214,0.549,60.000,31209.000,1.000
6.113,1.499,-0.730,-0.678,-12.951,14.790,2.796,-11.783,-0.098,0.903,-0.463,-0.885,-0.092,0.671,60.000,31210.000,1.000
2.735,1.414,0.632,1.712,-10.719,14.471,4.338,-10.362,-0.097,0.906,-0.461,-0.824,-0.061,0.641,60.000,31211.000,1.000
-0.466,2.382,1.739,4.162,-8.070,13.848,6.859,-9.213,-0.099,0.906,-0.462,-0.854,-0.092,0.732,60.000,31212.000,1.000
-3.828,3.469,1.613,5.956,-5.637,12.345,8.658,-8.101,-0.098,0.907,-0.460,-0.824,0.000,0.641,60.000,31213.000,1.000
-7.004,4.125,0.294,7.043,-3.242,9.961,8.481,-6.135,-0.099,0.907,-0.460,-0.824,0.183,0.793,60.000,31214.000,1.000
-9.483,4.281,-1.532,7.611,-0.560,6.989,6.981,-2.586,-0.097,0.907,-0.461,-0.885,0.244,0.763,60.000,31215.000,1.000
-11.597,3.882,-3.244,7.630,2.181,3.567,5.835,2.187,-0.096,0.908,-0.457,-0.885,0.214,0.763,60.000,31216.000,1.000
-13.094,3.537,-4.326,7.398,4.793,0.157,6.121,7.101,-0.095,0.907,-0.462,-0.824,0.275,0.793,60.000,31217.000,1.000
-14.064,3.624,-4.928,7.060,6.874,-2.603,6.650,10.933,-0.097,0.906,-0.459,-0.824,0.366,0.702,60.000,31218.000,1.000
-13.839,4.485,-5.261,6.881,8.328,-3.973,6.129,13.309,-0.094,0.906,-0.459,-0.732,0.488,0.641,60.000,31219.000,1.000
-12.039,5.699,-5.599,6.762,9.012,-4.226,4.446,14.426,-0.092,0.904,-0.464,-0.702,0.610,0.427,60.000,31220.000,1.000
-9.220,6.243,-6.019,6.300,8.661,-4.591,2.482,14.670,-0.094,0.904,-0.461,-0.671,0.732,0.488,60.000,31221.000,1.000
-5.310,6.012,-5.993,5.525,7.514,-5.777,1.423,14.629,-0.091,0.904,-0.461,-0.549,0.732,0.397,60.000,31222.000,1.000
-1.126,5.132,-5.263,4.384,5.697,-7.690,0.893,14.562,-0.091,0.906,-0.461,-0.671,0.946,0.427,60.000,31223.000,1.000
2.678,4.201,-3.716,3.217,3.660,-9.464,0.132,14.713,-0.093,0.906,-0.462,-0.519,1.099,0.275,60.000,31224.000,1.000
5.412,3.541,-1.739,2.281,1.848,-10.627,-1.280,15.092,-0.092,0.907,-0.463,-0.519,1.190,0.122,60.000,31225.000,1.000
6.238,2.810,-0.049,1.394,0.404,-11.414,-3.235,15.451,-0.095,0.907,-0.462,-0.580,1.190,0.153,60.000,31226.000,1.000
5.565,1.962,1.000,0.339,-0.501,-12.037,-4.855,15.554,-0.094,0.910,-0.466,-0.519,1.190,0.214,60.000,31227.000,1.000
3.419,0.636,1.182,-1.448,-1.271,-12.723,-5.723,14.908,-0.095,0.910,-0.464,-0.549,1.282,0.031,60.000,31228.000,1.000
0.648,-0.978,1.020,-3.850,-2.101,-13.174,-5.424,13.423,-0.096,0.908,-0.465,-0.580,1.160,0.183,60.000,31229.000,1.000
-1.543,-2.466,1.161,-6.314,-3.126,-13.058,-4.624,11.269,-0.100,0.909,-0.466,-0.641,1.251,0.122,60.000,31230.000,1.000
-2.637,-3.841,1.758,-8.455,-4.650,-12.297,-5.054,8.753,-0.100,0.910,-0.465,-0.854,1.251,0.061,60.000,31231.000,1.000
-2.177,-5.105,2.713,-9.890,-6.532,-10.852,-6.834,6.570,-0.101,0.913,-0.463,-0.854,1.160,0.061,60.000,31232.000,1.000
-1.306,-6.900,3.388,-10.810,-8.631,-9.281,-8.245,5.071,-0.102,0.910,-0.463,-0.854,1.007,0.061,60.000,31233.000,1.000
-0.813,-9.262,3.429,-11.307,-10.331,-8.035,-6.899,4.213,-0.103,0.912,-0.463,-0.885,0.885,-0.031,60.000,31234.000,1.000
-0.845,-11.811,2.661,-11.622,-11.080,-7.146,-2.992,3.345,-0.102,0.913,-0.463,-0.977,0.824,0.061,60.000,31235.000,1.000
-1.563,-14.536,0.989,-12.251,-10.915,-6.328,0.277,1.554,-0.102,0.912,-0.462,-1.129,0.732,0.092,60.000,31236.000,1.000
-2.442,-17.273,-1.309,-13.316,-10.047,-5.404,0.325,-1.499,-0.102,0.911,-0.462,-1.282,0.610,0.122,60.000,31237.000,1.000
-4.096,-20.228,-4.154,-14.972,-9.230,-5.061,-2.975,-5.540,-0.103,0.909,-0.462,-1.343,0.458,0.183,60.000,31238.000,1.000
-6.740,-22.949,-7.083,-16.816,-8.830,-5.579,-6.915,-9.436,-0.102,0.908,-0.462,-1.343,0.336,0.122,60.000,31239.000,1.000
-10.088,-24.831,-9.560,-18.365,-8.880,-6.360,-8.943,-12.122,-0.104,0.907,-0.464,-1.343,0.183,0.275,60.000,31240.000,1.000
-13.701,-25.825,-11.193,-19.342,-9.241,-6.406,-8.451,-13.245,-0.104,0.906,-0.464,-1.343,0.092,0.244,60.000,31241.000,1.000
-15.913,-25.549,-11.473,-19.225,-9.134,-4.993,-5.573,-12.930,-0.105,0.908,-0.461,-1.312,-0.122,0.244,60.000,31242.000,1.000
-16.309,-24.164,-10.604,-18.188,-8.196,-2.762,-1.555,-12.115,-0.104,0.909,-0.461,-1.373,-0.214,0.275,60.000,31243.000,1.000
-15.455,-22.181,-9.157,-16.841,-6.565,-0.967,1.957,-11.963,-0.105,0.911,-0.458,-1.373,-0.397,0.397,60.000,31244.000,1.000
-14.564,-20.461,-7.913,-15.986,-4.970,-0.673,3.438,-13.213,-0.104,0.910,-0.462,-1.373,-0.458,0.275,60.000,31245.000,1.000
-14.360,-19.451,-7.291,-15.850,-3.981,-1.929,2.700,-15.332,-0.102,0.910,-0.461,-1.373,-0.580,0.336,60.000,31246.000,1.000
-13.608,-18.344,-6.969,-15.581,-3.137,-3.678,1.264,-16.653,-0.101,0.910,-0.461,-1.404,-0.702,0.397,60.000,31247.000,1.000
-12.225,-17.061,-7.034,-14.826,-2.301,-5.334,-0.593,-16.370,-0.103,0.909,-0.460,-1.373,-0.793,0.549,60.000,31248.000,1.000
-10.855,-15.954,-7.572,-13.708,-1.583,-6.769,-3.408,-14.863,-0.102,0.907,-0.459,-1.434,-0.793,0.488,60.000,31249.000,1.000
-10.159,-15.266,-8.413,-12.603,-1.120,-8.136,-6.686,-13.038,-0.099,0.906,-0.462,-1.343,-0.793,0.488,60.000,31250.000,1.000
-10.370,-14.889,-9.006,-11.744,-0.899,-9.527,-8.254,-11.448,-0.098,0.903,-0.462,-1.282,-0.885,0.427,60.000,31251.000,1.000
-10.340,-13.909,-8.527,-10.771,-0.440,-10.444,-6.076,-9.871,-0.095,0.902,-0.461,-1.129,-0.885,0.427,60.000,31252.000,1.000
-10.043,-12.174,-7.093,-9.720,0.195,-10.494,-1.920,-8.126,-0.095,0.902,-0.464,-1.038,-0.916,0.397,60.000,31253.000,1.000
-9.810,-10.010,-5.297,-8.631,0.825,-9.531,0.560,-6.084,-0.093,0.900,-0.462,-0.946,-0.854,0.397,60.000,31254.000,1.000
-10.287,-8.212,-3.859,-7.591,1.139,-8.178,-0.523,-3.909,-0.091,0.900,-0.466,-0.824,-0.885,0.458,60.000,31255.000,1.000
-12.391,-7.707,-3.233,-6.714,0.750,-7.409,-3.985,-1.993,-0.091,0.904,-0.466,-0.641,-0.793,0.488,60.000,31256.000,1.000
-15.578,-8.245,-3.187,-5.671,-0.173,-7.376,-7.186,-0.527,-0.094,0.906,-0.461,-0.519,-0.732,0.458,60.000,31257.000,1.000
-19.310,-9.278,-3.518,-4.418,-1.496,-7.630,-9.255,0.252,-0.095,0.908,-0.462,-0.427,-0.702,0.488,60.000,31258.000,1.000
-22.224,-9.791,-3.693,-2.767,-2.625,-7.243,-10.104,0.668,-0.099,0.909,-0.458,-0.519,-0.580,0.336,60.000,31259.000,1.000
-23.102,-9.053,-3.357,-0.784,-3.002,-6.025,-9.764,1.336,-0.103,0.909,-0.456,-0.610,-0.458,0.275,60.000,31260.000,1.000
-22.165,-7.308,-2.675,0.951,-2.726,-4.919,-8.724,2.546,-0.106,0.907,-0.460,-0.641,-0.519,0.214,60.000,31261.000,1.000
-19.909,-5.071,-1.799,2.052,-2.114,-4.764,-7.363,4.167,-0.106,0.907,-0.459,-0.641,-0.580,0.122,60.000,31262.000,1.000
-17.755,-3.463,-0.993,2.253,-1.805,-5.680,-6.052,5.611,-0.104,0.908,-0.460,-0.610,-0.671,-0.031,60.000,31263.000,1.000
-15.747,-2.752,0.082,2.252,-1.666,-6.550,-4.025,6.803,-0.103,0.907,-0.464,-0.732,-0.732,-0.061,60.000,31264.000,1.000
-12.962,-2.550,1.703,2.866,-1.268,-6.301,-1.001,7.762,-0.102,0.907,-0.461,-0.702,-0.702,-0.092,60.000,31265.000,1.000
-9.347,-2.803,3.492,3.984,-0.777,-4.945,1.516,8.072,-0.100,0.908,-0.462,-0.610,-0.824,-0.153,60.000,31266.000,1.000
-5.051,-3.172,5.125,5.163,-0.350,-3.035,2.462,7.645,-0.101,0.907,-0.464,-0.610,-0.763,-0.183,60.000,31267.000,1.000
-1.340,-3.544,6.339,5.751,-0.225,-1.420,2.310,6.831,-0.100,0.906,-0.461,-0.763,-0.671,-0.183,60.000,31268.000,1.000
1.403,-3.326,7.276,5.777,-0.157,-0.399,2.966,6.249,-0.099,0.906,-0.463,-0.732,-0.763,-0.153,60.000,31269.000,1.000
3.343,-2.185,7.662,5.449,-0.053,0.033,4.610,5.753,-0.102,0.908,-0.462,-0.824,-0.824,-0.092,60.000,31270.000,1.000
4.016,-0.763,6.818,4.771,-0.302,0.015,4.870,4.572,-0.101,0.909,-0.461,-0.793,-0.824,-0.183,60.000,31271.000,1.000
3.699,0.443,4.833,4.121,-0.863,0.055,2.558,2.622,-0.101,0.910,-0.458,-0.702,-0.763,-0.122,60.000,31272.000,1.000
2.557,1.027,2.285,3.618,-1.626,0.287,-0.842,0.485,-0.102,0.912,-0.460,-0.946,-0.916,-0.061,60.000,31273.000,1.000
1.950,1.670,0.226,3.483,-2.094,0.854,-2.074,-0.864,-0.104,0.911,-0.458,-1.038,-0.854,0.000,60.000,31274.000,1.000
2.925,3.052,-0.777,3.596,-2.047,1.740,-0.086,-1.118,-0.101,0.912,-0.461,-1.160,-0.854,-0.061,60.000,31275.000,1.000
4.378,4.522,-1.140,3.324,-2.073,2.471,2.423,-0.996,-0.103,0.910,-0.462,-1.251,-0.946,0.061,60.000,31276.000,1.000
5.007,5.256,-1.613,2.391,-2.726,2.400,2.333,-1.388,-0.103,0.911,-0.467,-1.190,-0.885,0.214,60.000,31277.000,1.000
3.571,4.543,-3.111,0.730,-4.425,0.749,-1.397,-2.987,-0.102,0.909,-0.463,-1.221,-0.946,0.275,60.000,31278.000,1.000
0.944,2.903,-5.525,-0.810,-6.475,-2.136,-6.444,-5.549,-0.101,0.908,-0.465,-1.099,-1.007,0.275,60.000,31279.000,1.000
-1.083,1.263,-8.019,-1.170,-7.685,-4.950,-9.705,-8.294,-0.102,0.908,-0.465,-1.160,-1.068,0.427,60.000,31280.000,1.000
-2.105,-0.250,-9.900,-0.098,-7.477,-6.457,-9.859,-10.476,-0.101,0.908,-0.464,-1.099,-1.129,0.488,60.000,31281.000,1.000
-2.315,-1.596,-10.776,2.009,-5.819,-6.026,-7.266,-11.525,-0.100,0.909,-0.464,-1.068,-1.129,0.519,60.000,31282.000,1.000
-3.003,-3.021,-11.008,4.013,-3.577,-4.222,-4.038,-11.611,-0.099,0.911,-0.463,-0.946,-1.038,0.519,60.000,31283.000,1.000
-4.063,-3.815,-10.641,5.454,-1.297,-1.706,-1.483,-10.907,-0.102,0.912,-0.464,-1.007,-1.068,0.610,60.000,31284.000,1.000
-4.226,-2.768,-9.455,6.567,0.978,1.004,0.946,-9.397,-0.103,0.912,-0.461,-1.099,-1.343,0.580,60.000,31285.000,1.000
-3.022,0.398,-7.544,7.532,3.127,3.254,4.387,-7.227,-0.101,0.910,-0.462,-1.129,-1.190,0.641,60.000,31286.000,1.000
-0.474,4.995,-5.224,8.504,5.031,4.645,8.924,-4.746,-0.100,0.909,-0.459,-1.221,-1.129,0.732,60.000,31287.000,1.000
1.827,9.037,-3.268,9.100,6.057,4.960,12.037,-2.712,-0.102,0.910,-0.458,-1.373,-1.099,0.702,60.000,31288.000,1.000
3.312,11.495,-1.807,9.333,6.112,4.735,11.575,-1.398,-0.101,0.908,-0.457,-1.465,-1.129,0.732,60.000,31289.000,1.000
4.695,12.840,-0.446,9.479,5.627,4.584,7.984,-0.539,-0.100,0.907,-0.459,-1.526,-1.099,0.641,60.000,31290.000,1.000
6.276,13.721,1.094,9.530,4.904,4.691,3.773,0.220,-0.099,0.906,-0.460,-1.434,-1.038,0.610,60.000,31291.000,1.000
8.438,14.720,2.950,9.499,4.290,5.272,1.666,1.132,-0.099,0.907,-0.463,-1.434,-0.946,0.549,60.000,31292.000,1.000
10.436,15.524,4.591,8.989,3.605,6.170,1.635,1.915,-0.097,0.907,-0.464,-1.495,-0.946,0.610,60.000,31293.000,1.000
12.070,15.996,5.625,8.057,2.856,7.146,2.147,2.545,-0.098,0.906,-0.461,-1.587,-0.885,0.671,60.000,31294.000,1.000
13.464,16.152,5.844,7.015,2.085,7.597,1.940,3.223,-0.097,0.906,-0.462,-1.617,-0.702,0.610,60.000,31295.000,1.000
14.347,15.909,5.259,6.033,1.219,6.877,0.941,4.094,-0.097,0.907,-0.462,-1.587,-0.732,0.641,60.000,31296.000,1.000
15.423,15.946,4.606,5.614,0.790,5.351,0.552,5.528,-0.097,0.907,-0.461,-1.465,-0.641,0.641,60.000,31297.000,1.000
16.735,16.604,4.671,6.023,1.183,3.951,1.537,7.731,-0.097,0.905,-0.458,-1.617,-0.702,0.580,60.000,31298.000,1.000
18.799,18.315,6.379,7.688,2.794,3.955,4.170,10.926,-0.098,0.908,-0.458,-1.556,-0.610,0.610,60.000,31299.000,1.000
22.157,21.283,9.995,10.600,5.603,5.956,7.893,14.905,-0.099,0.908,-0.459,-1.526,-0.519,0.519,60.000,31300.000,1.000
26.084,24.832,14.680,13.907,8.862,9.323,11.097,18.840,-0.098,0.907,-0.463,-1.526,-0.458,0.488,60.000,31301.000,1.000
29.776,28.112,19.265,16.731,11.836,12.906,12.760,21.918,-0.098,0.909,-0.464,-1.495,-0.519,0.458,60.000,31302.000,1.000
31.554,29.774,22.382,18.073,13.627,15.333,12.660,23.388,-0.100,0.907,-0.466,-1.495,-0.519,0.427,60.000,31303.000,1.000
31.100,29.506,23.543,17.816,14.193,16.165,11.875,23.148,-0.100,0.907,-0.464,-1.465,-0.458,0.458,60.000,31304.000,1.000
29.512,28.137,23.026,16.612,14.256,15.874,11.107,21.564,-0.100,0.906,-0.464,-1.495,-0.458,0.397,60.000,31305.000,1.000
27.704,26.545,21.309,15.239,14.497,15.200,9.686,19.300,-0.100,0.907,-0.465,-1.495,-0.397,0.427,60.000,31306.000,1.000
26.615,25.457,18.959,14.439,15.336,14.781,7.362,17.159,-0.100,0.909,-0.461,-1.526,-0.275,0.397,60.000,31307.000,1.000
25.324,24.208,15.981,13.919,16.106,14.441,4.696,14.985,-0.102,0.909,-0.461,-1.556,-0.275,0.366,60.000,31308.000,1.000
23.024,22.130,12.732,13.244,16.226,14.111,3.381,12.368,-0.101,0.910,-0.460,-1.434,-0.305,0.458,60.000,31309.000,1.000
19.914,19.306,9.920,12.243,15.678,13.982,4.123,9.364,-0.102,0.910,-0.463,-1.465,-0.305,0.427,60.000,31310.000,1.000
16.559,16.223,8.029,10.896,14.643,14.118,5.523,6.274,-0.102,0.910,-0.465,-1.587,-0.305,0.427,60.000,31311.000,1.000
14.318,13.959,7.318,9.532,13.629,14.519,6.384,3.427,-0.101,0.910,-0.463,-1.617,-0.336,0.397,60.000,31312.000,1.000
12.862,12.662,7.299,7.996,12.684,14.759,6.512,0.873,-0.103,0.912,-0.461,-1.709,-0.397,0.458,60.000,31313.000,1.000
11.544,12.116,7.548,6.321,12.011,14.771,7.108,-0.996,-0.105,0.911,-0.462,-1.801,-0.458,0.427,60.000,31314.000,1.000
10.328,12.087,7.655,4.653,11.783,14.631,8.808,-1.928,-0.104,0.910,-0.464,-1.801,-0.488,0.458,60.000,31315.000,1.000
9.360,12.164,7.090,2.907,11.675,14.111,10.611,-2.386,-0.103,0.908,-0.460,-1.740,-0.458,0.549,60.000,31316.000,1.000
9.487,12.377,5.755,1.237,11.363,13.000,11.469,-3.055,-0.103,0.910,-0.463,-1.740,-0.549,0.366,60.000,31317.000,1.000
10.049,12.235,3.634,-0.486,10.183,10.938,10.303,-4.594,-0.102,0.910,-0.460,-1.862,-0.641,0.336,60.000,31318.000,1.000
10.389,11.551,1.448,-1.996,8.107,8.297,7.226,-6.685,-0.103,0.908,-0.463,-1.862,-0.519,0.427,60.000,31319.000,1.000
10.357,10.386,0.162,-2.902,5.669,5.899,3.466,-8.369,-0.102,0.907,-0.461,-1.770,-0.519,0.427,60.000,31320.000,1.000
9.590,8.557,0.152,-3.235,3.256,4.289,0.353,-9.094,-0.103,0.906,-0.459,-1.678,-0.580,0.427,60.000,31321.000,1.000
8.457,6.352,1.262,-3.106,1.293,3.697,-1.206,-8.987,-0.100,0.907,-0.463,-1.801,-0.549,0.427,60.000,31322.000,1.000
6.298,3.610,2.478,-3.167,-0.397,3.511,-2.193,-8.892,-0.098,0.908,-0.461,-1.770,-0.549,0.519,60.000,31323.000,1.000
3.058,0.567,3.093,-3.592,-1.783,3.139,-3.630,-9.151,-0.097,0.907,-0.460,-1.587,-0.458,0.580,60.000,31324.000,1.000
-0.283,-2.041,3.054,-3.992,-2.541,2.407,-5.092,-9.357,-0.097,0.907,-0.455,-1.465,-0.397,0.549,60.000,31325.000,1.000
-2.804,-3.637,2.713,-4.036,-2.501,1.569,-5.104,-8.963,-0.100,0.906,-0.459,-1.434,-0.336,0.641,60.000,31326.000,1.000
-3.304,-3.664,2.641,-3.524,-1.539,1.259,-2.649,-7.708,-0.098,0.908,-0.462,-1.373,-0.336,0.580,60.000,31327.000,1.000
-2.532,-2.972,2.481,-3.180,-0.491,1.326,0.220,-6.219,-0.098,0.906,-0.460,-1.282,-0.336,0.641,60.000,31328.000,1.000
-1.541,-2.747,1.671,-3.580,-0.175,1.198,0.793,-5.159,-0.099,0.906,-0.460,-1.343,-0.366,0.702,60.000,31329.000,1.000
-0.745,-3.568,0.036,-4.760,-0.766,0.372,-1.415,-4.790,-0.099,0.907,-0.462,-1.312,-0.183,0.671,60.000,31330.000,1.000
-0.345,-5.202,-2.080,-6.468,-1.916,-1.170,-4.618,-4.869,-0.098,0.909,-0.461,-1.312,-0.153,0.671,60.000,31331.000,1.000
0.446,-6.218,-3.865,-7.970,-2.729,-2.728,-6.431,-4.531,-0.099,0.906,-0.458,-1.343,-0.214,0.641,60.000,31332.000,1.000
1.127,-6.042,-5.235,-9.051,-3.056,-4.051,-6.742,-3.274,-0.100,0.906,-0.462,-1.282,-0.153,0.580,60.000,31333.000,1.000
1.120,-4.975,-6.358,-9.563,-3.031,-5.165,-6.351,-1.001,-0.100,0.909,-0.464,-1.129,-0.214,0.580,60.000,31334.000,1.000
0.288,-3.868,-7.401,-9.468,-2.776,-6.316,-5.654,1.810,-0.099,0.909,-0.460,-1.068,-0.214,0.488,60.000,31335.000,1.000
-1.759,-3.786,-8.525,-9.099,-2.538,-7.884,-4.944,4.205,-0.099,0.908,-0.457,-0.916,-0.305,0.580,60.000,31336.000,1.000
-4.589,-4.779,-9.517,-8.626,-2.300,-9.774,-4.344,5.506,-0.100,0.908,-0.457,-0.977,-0.214,0.580,60.000,31337.000,1.000
-8.307,-6.667,-10.353,-8.410,-2.413,-11.734,-4.576,5.418,-0.101,0.909,-0.459,-0.885,-0.214,0.427,60.000,31338.000,1.000
-11.949,-8.574,-10.570,-8.162,-2.793,-12.950,-5.499,4.623,-0.100,0.909,-0.458,-0.793,-0.305,0.397,60.000,31339.000,1.000
-13.942,-9.641,-9.682,-7.328,-3.002,-12.673,-6.438,4.156,-0.100,0.909,-0.456,-0.763,-0.244,0.397,60.000,31340.000,1.000
-14.062,-10.015,-7.884,-5.929,-2.937,-10.985,-7.338,4.473,-0.100,0.910,-0.459,-0.732,-0.214,0.458,60.000,31341.000,1.000
-12.567,-9.887,-5.710,-4.241,-2.603,-8.487,-7.838,5.510,-0.099,0.909,-0.458,-0.732,-0.244,0.397,60.000,31342.000,1.000
-10.938,-9.759,-4.028,-3.044,-2.527,-6.251,-7.480,6.600,-0.099,0.909,-0.459,-0.702,-0.244,0.397,60.000,31343.000,1.000
-9.506,-9.282,-2.957,-2.522,-2.773,-4.714,-5.355,7.257,-0.099,0.911,-0.461,-0.702,-0.275,0.366,60.000,31344.000,1.000
-7.541,-7.691,-2.191,-2.456,-3.063,-3.744,-1.590,7.173,-0.096,0.909,-0.459,-0.580,-0.214,0.397,60.000,31345.000,1.000
-5.306,-5.263,-1.621,-2.874,-3.403,-3.057,2.071,6.119,-0.095,0.910,-0.457,-0.641,-0.122,0.366,60.000,31346.000,1.000
-3.090,-2.698,-0.822,-3.407,-3.453,-1.967,4.737,4.509,-0.094,0.911,-0.460,-0.580,-0.092,0.366,60.000,31347.000,1.000
-1.644,-0.915,0.487,-3.645,-2.974,-0.137,6.716,2.987,-0.097,0.912,-0.458,-0.671,-0.092,0.366,60.000,31348.000,1.000
-0.351,0.344,2.535,-2.960,-1.682,2.406,9.129,2.195,-0.096,0.911,-0.459,-0.702,-0.153,0.458,60.000,31349.000,1.000
1.482,1.428,4.690,-1.526,-0.166,4.792,11.580,1.875,-0.099,0.913,-0.463,-0.763,-0.153,0.427,60.000,31350.000,1.000
2.570,1.322,5.460,-0.584,-0.028,5.581,11.696,0.964,-0.099,0.912,-0.460,-0.977,-0.061,0.488,60.000,31351.000,1.000
2.203,-0.333,4.243,-0.661,-1.793,4.407,8.371,-0.785,-0.099,0.912,-0.458,-0.916,-0.031,0.458,60.000,31352.000,1.000
0.441,-2.652,1.564,-1.430,-4.604,2.116,2.780,-2.681,-0.098,0.912,-0.458,-0.916,0.000,0.397,60.000,31353.000,1.000
-1.000,-3.499,-1.069,-1.764,-6.477,0.468,-1.734,-3.585,-0.099,0.911,-0.459,-1.038,-0.092,0.397,60.000,31354.000,1.000
-0.703,-1.620,-2.600,-1.022,-6.062,0.554,-2.595,-3.104,-0.098,0.910,-0.462,-1.129,-0.031,0.397,60.000,31355.000,1.000
-0.037,1.396,-3.409,-0.091,-4.232,1.600,-0.501,-2.127,-0.096,0.910,-0.466,-1.129,0.000,0.366,60.000,31356.000,1.000
-1.184,2.614,-4.495,-0.395,-3.205,1.739,1.798,-1.999,-0.097,0.908,-0.467,-1.038,0.000,0.397,60.000,31357.000,1.000
-6.336,-0.753,-6.948,-3.175,-5.380,-0.902,0.956,-3.918,-0.099,0.910,-0.463,-0.977,-0.031,0.366,60.000,31358.000,1.000
-14.974,-8.794,-10.629,-7.961,-11.065,-6.273,-3.822,-7.676,-0.097,0.910,-0.461,-1.007,-0.092,0.336,60.000,31359.000,1.000
-24.279,-18.810,-14.358,-12.840,-18.230,-12.420,-10.206,-11.656,-0.097,0.909,-0.458,-0.916,0.000,0.427,60.000,31360.000,1.000
-31.522,-27.227,-16.822,-15.846,-24.081,-16.980,-14.803,-13.908,-0.097,0.911,-0.463,-0.885,0.031,0.488,60.000,31361.000,1.000
-34.074,-30.839,-16.876,-15.603,-26.244,-18.229,-14.999,-13.113,-0.095,0.911,-0.463,-0.916,0.031,0.427,60.000,31362.000,1.000
-31.843,-29.208,-14.590,-12.502,-24.390,-16.162,-11.264,-9.695,-0.097,0.911,-0.461,-1.007,-0.092,0.366,60.000,31363.000,1.000
-26.357,-24.123,-10.818,-7.923,-19.630,-11.843,-5.609,-5.073,-0.098,0.912,-0.460,-1.160,-0.153,0.397,60.000,31364.000,1.000
-19.943,-18.249,-6.904,-3.545,-13.824,-6.980,0.156,-0.695,-0.100,0.911,-0.460,-1.129,-0.183,0.397,60.000,31365.000,1.000
-15.069,-13.865,-4.120,-0.657,-8.845,-3.232,5.171,2.497,-0.099,0.911,-0.458,-1.221,-0.061,0.275,60.000,31366.000,1.000
-12.073,-11.450,-2.664,0.797,-5.285,-1.006,9.902,4.173,-0.100,0.911,-0.456,-1.373,-0.122,0.153,60.000,31367.000,1.000
-11.022,-11.109,-2.433,1.057,-3.365,-0.199,13.617,3.797,-0.099,0.911,-0.458,-1.495,-0.153,0.244,60.000,31368.000,1.000
-11.258,-12.321,-3.069,0.386,-3.187,-0.727,14.237,1.229,-0.099,0.909,-0.458,-1.648,-0.122,0.244,60.000,31369.000,1.000
-11.692,-13.904,-4.192,-1.029,-4.828,-2.877,9.775,-2.746,-0.099,0.906,-0.459,-1.862,-0.153,0.275,60.000,31370.000,1.000
-11.818,-14.719,-5.307,-2.876,-7.906,-6.579,0.366,-6.455,-0.099,0.904,-0.460,-1.862,-0.244,0.336,60.000,31371.000,1.000
-10.704,-13.719,-5.579,-4.232,-10.923,-10.555,-10.699,-8.100,-0.100,0.902,-0.459,-1.892,-0.305,0.275,60.000,31372.000,1.000
-9.178,-11.775,-5.221,-5.054,-13.068,-13.759,-20.124,-7.679,-0.099,0.903,-0.460,-1.892,-0.397,0.214,60.000,31373.000,1.000
-8.470,-10.638,-5.028,-5.868,-14.380,-15.727,-25.807,-6.644,-0.100,0.903,-0.462,-1.801,-0.427,0.153,60.000,31374.000,1.000
-8.809,-11.186,-5.516,-6.933,-15.065,-16.412,-27.209,-6.486,-0.101,0.905,-0.463,-1.648,-0.580,0.153,60.000,31375.000,1.000
-9.743,-12.924,-6.555,-7.912,-15.149,-16.014,-25.339,-7.639,-0.103,0.906,-0.460,-1.465,-0.641,0.000,60.000,31376.000,1.000
-9.854,-14.236,-7.278,-7.858,-14.214,-14.694,-21.461,-9.071,-0.102,0.909,-0.460,-1.282,-0.671,0.031,60.000,31377.000,1.000
-9.324,-14.669,-7.270,-6.617,-12.369,-13.077,-17.200,-9.518,-0.101,0.911,-0.460,-1.282,-0.732,0.000,60.000,31378.000,1.000
-8.448,-14.202,-6.328,-4.411,-9.586,-11.405,-13.090,-8.145,-0.101,0.909,-0.458,-1.251,-0.854,-0.061,60.000,31379.000,1.000
-7.057,-12.665,-4.678,-1.733,-5.868,-9.479,-8.949,-5.264,-0.100,0.911,-0.461,-1.190,-0.946,-0.031,60.000,31380.000,1.000
-5.543,-10.332,-3.150,0.515,-1.956,-7.215,-5.130,-2.264,-0.098,0.911,-0.459,-1.221,-0.885,-0.061,60.000,31381.000,1.000
-3.560,-7.349,-2.356,1.838,1.322,-4.636,-1.833,-0.324,-0.099,0.910,-0.460,-1.190,-0.916,0.000,60.000,31382.000,1.000
-1.596,-4.656,-2.795,1.806,2.991,-2.391,0.463,-0.055,-0.100,0.909,-0.460,-1.221,-0.946,0.031,60.000,31383.000,1.000
0.127,-3.032,-4.086,0.793,3.005,-0.761,2.019,-0.982,-0.101,0.908,-0.461,-1.160,-1.099,0.122,60.000,31384.000,1.000
1.861,-2.490,-5.259,-0.233,2.205,0.660,3.510,-2.071,-0.102,0.909,-0.460,-1.160,-1.099,0.092,60.000,31385.000,1.000
3.347,-2.636,-5.637,-0.579,1.303,2.276,4.918,-2.670,-0.102,0.909,-0.460,-1.038,-1.160,0.061,60.000,31386.000,1.000
4.874,-2.412,-4.963,0.180,0.836,4.053,5.953,-2.638,-0.101,0.910,-0.462,-1.038,-1.129,0.092,60.000,31387.000,1.000
5.571,-1.700,-3.913,1.513,0.627,5.081,5.622,-2.538,-0.104,0.911,-0.458,-0.977,-1.251,0.122,60.000,31388.000,1.000
4.836,-0.848,-3.036,2.823,0.637,4.847,3.860,-2.783,-0.105,0.912,-0.457,-1.068,-1.312,0.183,60.000,31389.000,1.000
2.915,-0.281,-2.559,3.647,0.839,3.411,1.499,-3.612,-0.102,0.909,-0.462,-1.190,-1.373,0.244,60.000,31390.000,1.000
0.072,-0.581,-2.691,3.442,0.735,0.876,-0.944,-5.294,-0.104,0.908,-0.458,-1.221,-1.343,0.305,60.000,31391.000,1.000
-2.410,-1.477,-3.243,2.272,0.228,-2.264,-3.147,-7.611,-0.102,0.907,-0.460,-1.221,-1.434,0.305,60.000,31392.000,1.000
-4.173,-2.696,-4.263,0.281,-0.738,-5.562,-5.917,-10.211,-0.101,0.907,-0.462,-1.129,-1.465,0.336,60.000,31393.000,1.000
-4.870,-3.543,-5.583,-1.868,-1.841,-8.339,-9.640,-12.524,-0.100,0.906,-0.459,-1.099,-1.465,0.336,60.000,31394.000,1.000
-4.465,-3.690,-7.058,-3.546,-2.898,-10.275,-13.677,-14.213,-0.101,0.907,-0.461,-0.885,-1.587,0.366,60.000,31395.000,1.000
-4.320,-4.172,-8.793,-4.765,-4.283,-11.800,-17.091,-15.283,-0.103,0.907,-0.460,-0.793,-1.526,0.305,60.000,31396.000,1.000
-5.028,-5.776,-10.372,-5.318,-5.762,-13.127,-18.602,-15.340,-0.103,0.907,-0.458,-0.702,-1.526,0.214,60.000,31397.000,1.000
-7.002,-8.786,-11.336,-5.169,-6.755,-14.206,-18.095,-14.141,-0.103,0.910,-0.459,-0.671,-1.373,0.366,60.000,31398.000,1.000
-8.892,-11.775,-10.857,-3.935,-6.060,-14.285,-15.685,-11.671,-0.102,0.910,-0.458,-0.671,-1.404,0.397,60.000,31399.000,1.000
-8.266,-12.342,-8.320,-1.242,-2.693,-12.645,-11.358,-8.392,-0.101,0.911,-0.457,-0.641,-1.495,0.336,60.000,31400.000,1.000
-4.629,-9.610,-4.229,2.373,2.773,-9.669,-5.909,-5.244,-0.102,0.910,-0.458,-0.641,-1.404,0.366,60.000,31401.000,1.000
1.029,-4.433,0.400,6.007,8.833,-6.295,-0.566,-2.756,-0.102,0.911,-0.457,-0.702,-1.343,0.427,60.000,31402.000,1.000
6.138,0.831,4.468,8.611,13.676,-3.474,2.954,-0.971,-0.101,0.911,-0.456,-0.641,-1.434,0.305,60.000,31403.000,1.000
9.860,4.897,8.035,10.309,16.924,-0.962,4.605,0.919,-0.103,0.909,-0.457,-0.671,-1.373,0.244,60.000,31404.000,1.000
13.630,8.397,11.793,12.043,19.567,2.215,6.184,3.881,-0.103,0.910,-0.456,-0.641,-1.373,0.061,60.000,31405.000,1.000
18.039,12.046,15.580,13.918,22.209,6.347,9.127,7.845,-0.100,0.910,-0.456,-0.641,-1.404,0.061,60.000,31406.000,1.000
22.270,15.680,18.331,15.068,24.461,10.668,13.352,11.688,-0.103,0.911,-0.457,-0.641,-1.373,0.031,60.000,31407.000,1.000
23.734,17.612,18.527,14.075,24.871,13.476,16.550,13.827,-0.103,0.911,-0.457,-0.671,-1.465,0.031,60.000,31408.000,1.000
21.934,17.072,16.130,11.031,22.959,13.908,17.045,13.941,-0.102,0.910,-0.459,-0.641,-1.373,-0.092,60.000,31409.000,1.000
18.965,14.866,12.531,7.375,19.629,12.301,15.032,12.994,-0.101,0.908,-0.462,-0.641,-1.312,-0.031,60.000,31410.000,1.000
15.978,11.608,8.945,4.006,15.776,9.221,11.130,11.831,-0.100,0.906,-0.462,-0.580,-1.190,-0.092,60.000,31411.000,1.000
12.749,7.531,5.859,0.874,11.832,5.090,5.862,10.473,-0.100,0.906,-0.457,-0.519,-1.160,-0.122,60.000,31412.000,1.000
7.404,2.112,2.799,-2.922,7.304,-0.167,-0.802,8.084,-0.102,0.905,-0.457,-0.458,-1.099,-0.031,60.000,31413.000,1.000
0.219,-4.036,-0.046,-7.053,2.406,-5.724,-7.346,4.678,-0.103,0.905,-0.459,-0.336,-1.038,-0.061,60.000,31414.000,1.000
-5.798,-8.876,-1.619,-9.730,-1.532,-9.709,-11.201,1.474,-0.101,0.905,-0.461,-0.275,-0.916,0.031,60.000,31415.000,1.000
-8.620,-10.913,-1.262,-9.566,-3.488,-10.629,-11.476,-0.324,-0.104,0.906,-0.461,-0.214,-0.885,0.092,60.000,31416.000,1.000
-8.057,-9.740,0.886,-6.430,-3.212,-8.144,-9.003,-0.218,-0.102,0.906,-0.462,-0.214,-0.824,0.214,60.000,31417.000,1.000
-6.354,-6.706,3.641,-1.889,-1.685,-3.563,-5.708,1.180,-0.102,0.907,-0.460,-0.153,-0.763,0.305,60.000,31418.000,1.000
-4.570,-2.987,6.195,2.612,0.331,1.544,-2.176,3.230,-0.102,0.911,-0.461,-0.122,-0.702,0.214,60.000,31419.000,1.000
-1.761,1.197,8.348,6.526,2.752,6.082,2.104,5.602,-0.101,0.912,-0.461,-0.153,-0.610,0.275,60.000,31420.000,1.000
2.025,5.364,9.733,9.481,5.342,9.376,6.739,7.895,-0.100,0.915,-0.458,-0.214,-0.488,0.244,60.000,31421.000,1.000
5.698,8.841,10.059,11.258,7.803,11.494,10.910,9.820,-0.102,0.915,-0.457,-0.397,-0.427,0.336,60.000,31422.000,1.000
7.070,10.456,9.035,11.387,9.447,12.664,13.621,10.947,-0.100,0.917,-0.457,-0.580,-0.427,0.275,60.000,31423.000,1.000
6.541,10.542,7.388,10.307,10.415,13.620,15.099,11.360,-0.099,0.915,-0.459,-0.702,-0.336,0.275,60.000,31424.000,1.000
7.083,10.903,6.354,9.062,11.522,15.007,16.009,11.569,-0.097,0.913,-0.460,-0.793,-0.244,0.336,60.000,31425.000,1.000
9.839,12.290,6.316,7.825,12.741,16.423,15.993,11.682,-0.098,0.907,-0.462,-0.824,-0.153,0.397,60.000,31426.000,1.000
13.492,14.111,6.976,6.179,13.298,16.969,14.613,11.318,-0.097,0.904,-0.461,-0.732,-0.031,0.427,60.000,31427.000,1.000
14.729,14.786,7.586,3.578,12.061,15.777,11.358,9.777,-0.098,0.900,-0.463,-0.641,0.092,0.580,60.000,31428.000,1.000
12.697,14.188,8.256,0.859,9.412,13.344,7.125,7.367,-0.097,0.901,-0.463,-0.458,0.244,0.610,60.000,31429.000,1.000
9.666,13.640,9.658,-0.385,7.123,11.132,3.932,5.199,-0.097,0.901,-0.467,-0.366,0.366,0.549,60.000,31430.000,1.000
7.369,13.753,11.854,0.376,6.432,10.123,3.074,3.972,-0.096,0.905,-0.465,-0.305,0.336,0.549,60.000,31431.000,1.000
6.594,14.584,14.384,2.635,7.556,10.518,4.808,3.896,-0.094,0.909,-0.466,-0.336,0.397,0.610,60.000,31432.000,1.000
6.263,15.370,16.051,4.844,9.271,11.404,7.473,4.553,-0.094,0.913,-0.463,-0.549,0.610,0.702,60.000,31433.000,1.000
5.961,15.870,16.134,6.018,10.411,11.950,9.480,5.585,-0.094,0.913,-0.461,-0.671,0.763,0.824,60.000,31434.000,1.000
6.623,16.625,14.807,6.319,10.699,11.980,10.514,6.705,-0.096,0.914,-0.461,-0.732,0.793,0.793,60.000,31435.000,1.000
8.462,17.746,12.611,6.249,10.216,11.645,10.873,7.503,-0.099,0.916,-0.463,-0.824,0.793,0.732,60.000,31436.000,1.000
11.241,18.988,10.339,6.380,9.275,11.378,11.283,7.888,-0.105,0.918,-0.464,-0.916,0.793,0.641,60.000,31437.000,1.000
13.088,19.119,8.117,6.406,7.525,11.045,11.349,7.695,-0.111,0.915,-0.462,-1.007,0.610,0.641,60.000,31438.000,1.000
13.011,17.595,6.007,6.015,4.909,10.519,10.697,7.084,-0.115,0.916,-0.461,-1.099,0.458,0.458,60.000,31439.000,1.000
11.777,15.053,4.179,5.200,2.021,9.848,9.678,6.393,-0.116,0.914,-0.461,-1.160,0.183,0.427,60.000,31440.000,1.000
10.187,12.195,2.659,3.921,-0.610,8.983,8.691,5.688,-0.115,0.913,-0.462,-1.282,-0.122,0.214,60.000,31441.000,1.000
9.642,10.184,1.752,2.604,-2.384,8.190,8.417,5.073,-0.115,0.911,-0.462,-1.373,-0.305,0.092,60.000,31442.000,1.000
9.696,9.128,1.221,1.152,-3.597,7.432,8.464,4.263,-0.112,0.912,-0.462,-1.434,-0.549,0.092,60.000,31443.000,1.000
8.758,8.180,0.675,-0.731,-4.857,6.638,7.973,2.934,-0.111,0.911,-0.462,-1.648,-0.732,-0.031,60.000,31444.000,1.000
5.778,6.517,-0.048,-3.027,-6.327,5.802,6.266,1.061,-0.109,0.911,-0.460,-1.709,-1.007,0.031,60.000,31445.000,1.000
0.921,4.207,-0.751,-5.178,-7.507,5.070,3.302,-0.867,-0.107,0.913,-0.461,-1.678,-1.007,0.061,60.000,31446.000,1.000
-3.281,2.965,-0.624,-5.867,-7.117,5.146,0.608,-1.724,-0.105,0.911,-0.463,-1.678,-1.190,0.061,60.000,31447.000,1.000
-5.577,3.535,0.288,-4.836,-5.057,6.146,-0.850,-1.120,-0.104,0.909,-0.463,-1.648,-1.251,0.214,60.000,31448.000,1.000
-6.260,5.273,1.222,-2.923,-2.473,7.662,-0.806,0.419,-0.103,0.908,-0.462,-1.678,-1.343,0.214,60.000,31449.000,1.000
-6.112,7.064,1.441,-1.297,-0.812,9.162,0.631,1.868,-0.100,0.909,-0.458,-1.648,-1.312,0.305,60.000,31450.000,1.000
-6.120,7.864,0.824,-0.722,-0.996,10.289,2.733,2.303,-0.099,0.910,-0.458,-1.648,-1.282,0.488,60.000,31451.000,1.000
-5.485,7.933,0.366,-0.540,-2.349,11.333,5.038,1.903,-0.096,0.908,-0.459,-1.556,-1.190,0.549,60.000,31452.000,1.000
-3.815,7.598,0.741,-0.010,-3.830,12.290,6.623,1.374,-0.095,0.906,-0.458,-1.587,-1.251,0.732,60.000,31453.000,1.000
-1.129,7.315,2.025,1.128,-4.615,12.996,7.043,1.355,-0.096,0.905,-0.460,-1.556,-1.190,0.854,60.000,31454.000,1.000
2.248,7.495,3.710,2.405,-4.561,13.160,6.349,1.697,-0.096,0.903,-0.458,-1.556,-1.160,1.007,60.000,31455.000,1.000
5.020,7.705,4.791,2.820,-4.367,12.235,4.313,1.500,-0.096,0.904,-0.457,-1.556,-1.068,1.068,60.000,31456.000,1.000
6.739,7.603,4.616,2.117,-4.451,10.069,1.246,0.257,-0.098,0.903,-0.461,-1.404,-0.916,1.068,60.000,31457.000,1.000
6.545,6.673,2.749,0.463,-5.140,6.691,-2.693,-2.005,-0.099,0.902,-0.460,-1.343,-0.916,1.007,60.000,31458.000,1.000
4.358,5.314,-0.299,-1.274,-6.089,2.761,-6.680,-4.330,-0.098,0.904,-0.462,-1.251,-0.824,1.007,60.000,31459.000,1.000
0.994,4.529,-3.510,-2.193,-6.632,-0.945,-9.413,-5.444,-0.096,0.906,-0.458,-1.312,-0.732,0.977,60.000,31460.000,1.000
-3.326,4.340,-6.343,-2.300,-6.767,-4.242,-10.163,-4.833,-0.095,0.906,-0.460,-1.251,-0.610,0.916,60.000,31461.000,1.000
-7.619,4.370,-8.392,-1.791,-6.622,-6.918,-8.532,-2.804,-0.096,0.908,-0.458,-1.221,-0.580,0.854,60.000,31462.000,1.000
-11.504,3.708,-9.707,-1.155,-6.645,-8.885,-5.722,-0.523,-0.097,0.907,-0.459,-1.282,-0.488,0.824,60.000,31463.000,1.000
-14.155,2.342,-10.161,-0.324,-6.743,-9.810,-3.283,1.275,-0.097,0.907,-0.453,-1.251,-0.397,0.702,60.000,31464.000,1.000
-14.476,1.076,-9.726,1.025,-6.525,-9.702,-2.010,2.555,-0.094,0.907,-0.457,-1.312,-0.336,0.732,60.000,31465.000,1.000
-12.957,-0.023,-9.018,2.503,-6.262,-9.401,-2.070,3.222,-0.096,0.907,-0.458,-1.251,-0.214,0.549,60.000,31466.000,1.000
-10.084,-0.902,-8.371,3.746,-6.059,-9.372,-2.323,3.329,-0.093,0.909,-0.458,-1.129,-0.122,0.488,60.000,31467.000,1.000
-7.114,-1.865,-7.890,4.352,-5.961,-9.563,-1.860,2.911,-0.094,0.911,-0.458,-1.251,-0.061,0.458,60.000,31468.000,1.000
-4.695,-2.824,-7.077,4.506,-5.595,-9.402,-0.250,2.357,-0.092,0.911,-0.459,-1.190,0.061,0.397,60.000,31469.000,1.000
-2.676,-3.493,-5.461,4.607,-4.700,-8.708,1.908,2.111,-0.092,0.908,-0.461,-1.282,0.183,0.275,60.000,31470.000,1.000
-1.426,-4.240,-3.362,4.533,-3.833,-8.194,2.786,2.111,-0.093,0.907,-0.461,-1.282,0.244,0.275,60.000,31471.000,1.000
-0.188,-4.907,-1.118,4.378,-3.335,-8.316,1.536,2.121,-0.094,0.908,-0.462,-1.221,0.366,0.275,60.000,31472.000,1.000
1.299,-5.428,0.834,4.025,-3.539,-9.137,-1.592,1.631,-0.094,0.906,-0.462,-1.282,0.458,0.244,60.000,31473.000,1.000
3.098,-5.599,2.464,3.571,-4.382,-10.014,-5.003,0.569,-0.094,0.906,-0.460,-1.221,0.519,0.214,60.000,31474.000,1.000
5.095,-5.347,3.846,3.235,-5.527,-10.219,-7.139,-0.727,-0.094,0.908,-0.460,-1.160,0.641,0.244,60.000,31475.000,1.000
6.461,-5.223,4.830,2.948,-6.727,-9.577,-7.928,-2.006,-0.097,0.909,-0.456,-1.160,0.610,0.275,60.000,31476.000,1.000
7.987,-4.848,5.802,3.001,-7.118,-7.894,-7.254,-2.813,-0.100,0.909,-0.457,-1.099,0.519,0.244,60.000,31477.000,1.000
10.161,-3.874,6.830,3.176,-6.343,-5.565,-5.258,-3.102,-0.102,0.910,-0.459,-1.068,0.488,0.122,60.000,31478.000,1.000
12.626,-2.595,7.525,2.942,-4.825,-3.463,-2.432,-3.197,-0.104,0.910,-0.458,-1.190,0.427,0.153,60.000,31479.000,1.000
14.176,-2.194,7.187,1.765,-3.589,-2.575,-0.232,-3.659,-0.102,0.910,-0.461,-1.251,0.305,0.305,60.000,31480.000,1.000
13.107,-4.098,5.352,-0.638,-3.676,-3.389,-0.596,-4.988,-0.103,0.911,-0.461,-1.190,0.183,0.244,60.000,31481.000,1.000
9.967,-7.853,2.664,-3.489,-4.810,-5.188,-3.359,-6.897,-0.103,0.910,-0.462,-1.190,0.092,0.305,60.000,31482.000,1.000
5.420,-12.451,-0.339,-6.230,-6.413,-7.358,-7.105,-8.949,-0.105,0.913,-0.461,-1.099,-0.061,0.305,60.000,31483.000,1.000
0.051,-16.944,-3.251,-8.570,-7.825,-9.515,-9.855,-10.581,-0.105,0.911,-0.460,-1.038,-0.305,0.305,60.000,31484.000,1.000
-5.196,-20.526,-5.618,-10.296,-8.390,-11.182,-10.232,-11.287,-0.107,0.913,-0.460,-1.160,-0.336,0.458,60.000,31485.000,1.000
-9.748,-22.926,-7.206,-11.440,-7.970,-11.928,-8.683,-11.027,-0.108,0.914,-0.458,-1.099,-0.549,0.458,60.000,31486.000,1.000
-12.227,-23.581,-7.827,-11.770,-6.523,-11.413,-6.249,-10.004,-0.106,0.912,-0.461,-1.129,-0.671,0.458,60.000,31487.000,1.000
-12.771,-22.762,-8.077,-11.645,-4.732,-10.322,-4.540,-8.965,-0.105,0.914,-0.462,-1.129,-0.977,0.549,60.000,31488.000,1.000
-12.416,-21.060,-8.405,-11.352,-3.072,-9.392,-4.169,-8.401,-0.104,0.913,-0.461,-1.160,-1.160,0.549,60.000,31489.000,1.000
-12.108,-18.979,-8.621,-10.717,-1.277,-8.646,-4.279,-8.185,-0.106,0.914,-0.461,-1.282,-1.343,0.610,60.000,31490.000,1.000
-12.929,-17.372,-8.485,-9.676,0.841,-7.996,-4.005,-8.049,-0.106,0.913,-0.458,-1.312,-1.495,0.549,60.000,31491.000,1.000
-14.033,-16.311,-7.758,-8.108,3.335,-7.499,-3.012,-7.732,-0.106,0.912,-0.460,-1.373,-1.648,0.641,60.000,31492.000,1.000
-14.541,-15.795,-6.912,-6.637,5.441,-7.783,-2.788,-7.607,-0.104,0.911,-0.461,-1.373,-1.709,0.702,60.000,31493.000,1.000
-13.734,-15.425,-6.295,-5.851,6.637,-8.961,-4.678,-8.018,-0.104,0.908,-0.464,-1.404,-1.801,0.763,60.000,31494.000,1.000
-11.421,-14.672,-5.811,-5.845,7.189,-10.309,-7.882,-8.838,-0.103,0.911,-0.459,-1.312,-2.014,0.702,60.000,31495.000,1.000
-8.730,-13.649,-5.288,-6.430,7.552,-10.957,-9.971,-9.608,-0.102,0.910,-0.457,-1.129,-2.106,0.671,60.000,31496.000,1.000
-5.708,-12.055,-4.141,-6.657,8.442,-10.089,-8.515,-9.439,-0.102,0.907,-0.459,-1.190,-2.228,0.732,60.000,31497.000,1.000
-3.063,-10.419,-2.468,-6.234,9.501,-8.079,-4.610,-8.132,-0.102,0.907,-0.460,-1.068,-2.258,0.793,60.000,31498.000,1.000
-2.036,-9.866,-1.001,-5.671,9.628,-6.132,-1.720,-6.299,-0.099,0.907,-0.457,-0.946,-2.197,0.671,60.000,31499.000,1.000
-3.364,-10.958,-0.616,-5.724,8.017,-5.498,-2.279,-4.867,-0.099,0.904,-0.457,-0.916,-2.228,0.549,60.000,31500.000,1.000
-7.039,-13.233,-1.731,-6.748,4.811,-6.690,-5.889,-4.302,-0.097,0.902,-0.460,-0.977,-2.228,0.580,60.000,31501.000,1.000
-10.666,-14.661,-3.459,-7.745,1.764,-8.548,-9.185,-3.794,-0.095,0.902,-0.461,-0.916,-2.106,0.641,60.000,31502.000,1.000
-12.750,-14.201,-5.035,-7.924,0.236,-9.668,-9.702,-2.490,-0.093,0.904,-0.463,-0.824,-2.045,0.549,60.000,31503.000,1.000
-13.726,-12.577,-6.426,-7.369,0.184,-9.520,-7.581,-0.319,-0.091,0.905,-0.461,-0.702,-2.014,0.610,60.000,31504.000,1.000
-15.155,-11.459,-8.278,-6.905,0.392,-8.806,-5.040,1.907,-0.092,0.908,-0.462,-0.580,-1.862,0.610,60.000,31505.000,1.000
-18.392,-12.099,-11.113,-7.329,-0.323,-8.469,-4.309,3.284,-0.091,0.908,-0.460,-0.549,-1.740,0.549,60.000,31506.000,1.000
-21.395,-13.208,-13.912,-7.945,-1.267,-8.009,-4.617,4.128,-0.093,0.909,-0.456,-0.580,-1.678,0.610,60.000,31507.000,1.000
-21.786,-13.065,-15.350,-7.855,-1.306,-6.633,-3.993,5.165,-0.099,0.907,-0.457,-0.580,-1.465,0.488,60.000,31508.000,1.000
-19.022,-11.225,-14.776,-6.763,-0.132,-4.335,-1.454,6.734,-0.102,0.908,-0.456,-0.641,-1.343,0.427,60.000,31509.000,1.000
-14.824,-8.854,-12.759,-5.294,1.323,-2.129,1.690,8.254,-0.104,0.910,-0.458,-0.763,-1.373,0.366,60.000,31510.000,1.000
-12.207,-7.882,-10.641,-4.582,1.595,-1.180,2.782,8.676,-0.105,0.912,-0.456,-0.824,-1.526,0.092,60.000,31511.000,1.000
-11.293,-8.306,-8.770,-4.522,0.771,-1.228,1.486,8.123,-0.107,0.909,-0.458,-0.946,-1.556,0.092,60.000,31512.000,1.000
-10.754,-8.979,-6.952,-4.479,-0.280,-1.379,-0.525,7.360,-0.104,0.911,-0.456,-1.038,-1.648,0.031,60.000,31513.000,1.000
-9.198,-8.560,-4.879,-3.844,-0.755,-0.691,-0.992,6.793,-0.105,0.910,-0.458,-1.129,-1.678,-0.153,60.000,31514.000,1.000
-6.247,-6.466,-2.700,-2.479,-0.450,1.317,0.772,6.027,-0.104,0.910,-0.457,-1.190,-1.709,-0.214,60.000,31515.000,1.000
-3.285,-3.567,-1.200,-0.949,0.032,4.113,2.787,4.412,-0.103,0.910,-0.462,-1.160,-1.709,-0.183,60.000,31516.000,1.000
-0.711,-0.534,-0.640,0.488,0.431,6.722,3.264,2.233,-0.103,0.910,-0.460,-1.251,-1.678,-0.214,60.000,31517.000,1.000
0.900,1.813,-0.992,1.318,0.405,7.869,2.036,0.161,-0.102,0.911,-0.459,-1.251,-1.740,-0.214,60.000,31518.000,1.000
1.246,3.119,-1.709,1.236,-0.042,7.271,1.009,-1.088,-0.104,0.911,-0.462,-1.282,-1.740,-0.183,60.000,31519.000,1.000
0.810,3.862,-2.069,0.423,-0.394,5.928,1.992,-1.240,-0.104,0.911,-0.462,-1.343,-1.740,-0.153,60.000,31520.000,1.000
-0.115,4.464,-1.872,-0.914,-0.307,5.095,4.514,-0.862,-0.102,0.912,-0.462,-1.373,-1.709,-0.061,60.000,31521.000,1.000
-0.112,5.606,-1.053,-2.224,0.553,5.758,7.391,-0.587,-0.103,0.911,-0.461,-1.434,-1.648,0.000,60.000,31522.000,1.000
1.132,6.942,-0.228,-3.496,1.596,7.569,9.002,-1.038,-0.102,0.909,-0.463,-1.404,-1.648,0.061,60.000,31523.000,1.000
3.018,7.676,0.083,-4.819,1.846,9.485,8.331,-2.433,-0.102,0.908,-0.462,-1.404,-1.648,0.122,60.000,31524.000,1.000
4.824,7.481,-0.053,-6.119,0.600,10.732,5.466,-4.678,-0.101,0.909,-0.464,-1.221,-1.617,0.214,60.000,31525.000,1.000
5.411,6.408,-0.240,-7.411,-2.342,11.192,1.311,-7.597,-0.102,0.911,-0.465,-1.221,-1.587,0.366,60.000,31526.000,1.000
5.290,5.610,0.355,-8.077,-5.775,11.709,-1.925,-10.528,-0.102,0.912,-0.462,-1.312,-1.587,0.488,60.000,31527.000,1.000
4.705,5.618,1.708,-7.851,-8.463,12.643,-3.037,-13.029,-0.103,0.912,-0.461,-1.312,-1.495,0.641,60.000,31528.000,1.000
3.844,6.325,3.196,-6.780,-9.740,13.618,-2.196,-14.640,-0.101,0.911,-0.461,-1.312,-1.404,0.610,60.000,31529.000,1.000
3.462,7.748,4.356,-4.976,-9.467,13.961,-0.063,-14.546,-0.104,0.911,-0.465,-1.343,-1.404,0.732,60.000,31530.000,1.000
3.716,9.749,5.038,-2.701,-8.043,13.190,2.692,-12.054,-0.102,0.911,-0.463,-1.343,-1.404,0.793,60.000,31531.000,1.000
5.166,12.545,5.629,0.182,-5.591,11.768,6.119,-7.212,-0.104,0.912,-0.461,-1.343,-1.343,0.763,60.000,31532.000,1.000
6.994,15.465,5.969,3.249,-2.694,10.190,9.187,-1.654,-0.104,0.913,-0.457,-1.434,-1.404,0.885,60.000,31533.000,1.000
8.130,17.534,5.836,5.916,-0.005,8.848,10.571,2.804,-0.103,0.912,-0.458,-1.465,-1.282,0.916,60.000,31534.000,1.000
8.243,18.066,5.253,7.793,1.948,7.721,10.026,5.472,-0.104,0.911,-0.457,-1.587,-1.251,0.854,60.000,31535.000,1.000
6.725,16.342,4.107,8.412,2.416,6.124,8.187,6.421,-0.105,0.910,-0.456,-1.617,-1.221,0.824,60.000,31536.000,1.000
4.283,12.887,2.806,8.056,1.467,3.962,6.619,6.115,-0.102,0.911,-0.457,-1.617,-1.190,0.916,60.000,31537.000,1.000
1.480,8.665,1.845,7.172,-0.366,1.795,5.760,4.880,-0.102,0.910,-0.459,-1.678,-1.038,0.854,60.000,31538.000,1.000
-0.547,5.179,1.930,6.515,-2.009,0.670,5.305,3.560,-0.103,0.908,-0.459,-1.617,-1.007,0.824,60.000,31539.000,1.000
-0.205,4.019,3.429,6.762,-2.409,1.117,5.171,3.320,-0.101,0.909,-0.458,-1.648,-1.007,0.793,60.000,31540.000,1.000
2.190,5.242,5.595,7.650,-1.632,2.376,5.166,4.466,-0.102,0.908,-0.457,-1.678,-0.977,0.763,60.000,31541.000,1.000
5.651,8.000,7.298,8.617,-0.349,3.309,5.208,6.314,-0.103,0.908,-0.457,-1.740,-0.824,0.671,60.000,31542.000,1.000
8.152,10.458,7.220,8.648,0.093,2.756,4.202,7.344,-0.102,0.910,-0.458,-1.801,-0.885,0.610,60.000,31543.000,1.000
8.740,11.348,5.134,7.436,-0.971,0.683,1.620,6.623,-0.102,0.909,-0.458,-1.831,-0.854,0.610,60.000,31544.000,1.000
8.365,10.750,2.052,5.722,-2.967,-1.882,-1.925,4.381,-0.100,0.905,-0.458,-1.923,-0.671,0.519,60.000,31545.000,1.000
7.704,9.074,-0.882,4.227,-5.152,-4.044,-6.014,1.509,-0.101,0.904,-0.457,-1.740,-0.610,0.580,60.000,31546.000,1.000
7.644,7.315,-2.607,3.525,-6.731,-5.136,-9.606,-0.561,-0.100,0.902,-0.459,-1.709,-0.610,0.519,60.000,31547.000,1.000
7.731,5.847,-3.019,3.259,-7.681,-5.214,-11.640,-0.904,-0.101,0.902,-0.456,-1.709,-0.641,0.580,60.000,31548.000,1.000
7.629,4.937,-2.379,3.107,-7.971,-4.371,-10.965,0.768,-0.102,0.904,-0.457,-1.587,-0.519,0.519,60.000,31549.000,1.000
7.995,4.974,-0.945,3.332,-7.171,-2.587,-7.361,3.974,-0.102,0.908,-0.459,-1.617,-0.549,0.488,60.000,31550.000,1.000
8.711,5.462,0.660,4.040,-5.334,-0.383,-2.813,7.370,-0.103,0.908,-0.460,-1.617,-0.610,0.397,60.000,31551.000,1.000
9.916,5.919,1.997,5.327,-2.783,1.537,0.639,9.729,-0.105,0.908,-0.457,-1.556,-0.549,0.305,60.000,31552.000,1.000
10.651,5.480,2.416,6.543,-0.593,2.128,1.897,10.112,-0.104,0.907,-0.457,-1.495,-0.519,0.305,60.000,31553.000,1.000
10.373,3.988,1.792,7.172,0.541,1.085,1.744,8.504,-0.106,0.910,-0.456,-1.465,-0.427,0.366,60.000,31554.000,1.000
10.043,2.480,0.690,7.329,0.950,-0.760,1.638,5.764,-0.105,0.911,-0.456,-1.434,-0.427,0.305,60.000,31555.000,1.000
10.074,1.595,-0.421,7.027,1.078,-2.365,1.587,2.801,-0.103,0.911,-0.456,-1.495,-0.488,0.244,60.000,31556.000,1.000
10.686,1.509,-1.017,6.528,1.495,-2.897,1.312,0.477,-0.103,0.912,-0.455,-1.556,-0.458,0.244,60.000,31557.000,1.000
10.572,1.294,-1.140,5.823,2.119,-2.617,0.540,-1.013,-0.103,0.913,-0.460,-1.678,-0.519,0.275,60.000,31558.000,1.000
8.937,0.400,-0.735,5.197,2.793,-2.097,0.001,-1.749,-0.105,0.912,-0.458,-1.678,-0.580,0.244,60.000,31559.000,1.000
6.925,-0.451,0.507,5.145,3.678,-1.564,0.980,-1.914,-0.104,0.913,-0.460,-1.648,-0.580,0.275,60.000,31560.000,1.000
5.547,-0.553,2.472,5.502,4.688,-1.152,3.552,-2.066,-0.104,0.913,-0.460,-1.648,-0.610,0.336,60.000,31561.000,1.000
5.898,0.818,5.055,6.147,6.054,-0.508,7.171,-2.395,-0.104,0.913,-0.458,-1.709,-0.519,0.336,60.000,31562.000,1.000
7.528,3.481,7.837,6.856,7.835,0.703,10.543,-2.731,-0.105,0.911,-0.462,-1.709,-0.488,0.305,60.000,31563.000,1.000
9.884,7.108,10.559,7.868,10.258,2.909,13.110,-2.568,-0.105,0.910,-0.458,-1.831,-0.427,0.305,60.000,31564.000,1.000
13.008,11.321,12.802,9.435,13.255,5.912,15.041,-1.828,-0.104,0.910,-0.458,-1.892,-0.519,0.397,60.000,31565.000,1.000
15.566,14.576,13.392,10.703,15.472,8.101,15.428,-1.329,-0.104,0.911,-0.456,-1.984,-0.488,0.305,60.000,31566.000,1.000
16.372,15.555,11.568,10.704,15.564,7.793,12.944,-1.660,-0.103,0.913,-0.457,-1.984,-0.427,0.366,60.000,31567.000,1.000
13.878,13.302,7.100,8.585,12.707,4.084,6.085,-3.102,-0.104,0.910,-0.456,-2.045,-0.549,0.366,60.000,31568.000,1.000
7.876,8.076,0.860,4.550,7.411,-2.195,-4.630,-5.340,-0.105,0.908,-0.461,-2.045,-0.519,0.427,60.000,31569.000,1.000
0.451,1.592,-5.320,-0.019,1.424,-8.890,-15.738,-7.450,-0.104,0.909,-0.459,-1.984,-0.366,0.519,60.000,31570.000,1.000
-6.016,-4.146,-9.713,-3.594,-3.475,-13.952,-23.097,-8.429,-0.103,0.910,-0.458,-1.892,-0.397,0.519,60.000,31571.000,1.000
-9.041,-7.039,-11.115,-4.793,-5.810,-15.963,-23.997,-7.397,-0.104,0.910,-0.458,-1.831,-0.397,0.488,60.000,31572.000,1.000
-8.918,-6.989,-10.028,-3.702,-5.719,-15.166,-19.859,-4.609,-0.101,0.910,-0.459,-1.831,-0.397,0.458,60.000,31573.000,1.000
-7.582,-5.485,-7.788,-1.306,-4.290,-12.731,-14.374,-1.076,-0.101,0.909,-0.460,-1.740,-0.366,0.549,60.000,31574.000,1.000
-6.287,-4.060,-5.428,1.348,-2.570,-9.852,-10.258,2.084,-0.100,0.910,-0.462,-1.648,-0.214,0.610,60.000,31575.000,1.000
-5.752,-3.735,-3.446,3.368,-1.391,-7.447,-8.223,4.046,-0.100,0.910,-0.460,-1.617,-0.122,0.702,60.000,31576.000,1.000
-4.924,-3.855,-1.427,4.922,-0.618,-5.544,-6.801,4.963,-0.099,0.910,-0.460,-1.495,-0.153,0.763,60.000,31577.000,1.000
-4.247,-4.452,0.384,5.730,-0.787,-4.557,-5.626,4.741,-0.100,0.908,-0.460,-1.434,0.031,0.732,60.000,31578.000,1.000
-5.626,-6.744,1.185,4.941,-3.097,-5.236,-5.798,2.975,-0.097,0.906,-0.460,-1.282,0.183,0.732,60.000,31579.000,1.000
-9.488,-10.974,0.881,2.510,-7.511,-7.377,-7.687,0.136,-0.097,0.907,-0.461,-1.221,0.244,0.824,60.000,31580.000,1.000
-14.591,-15.810,0.259,-0.547,-12.362,-9.537,-10.217,-2.313,-0.100,0.910,-0.461,-1.129,0.275,0.763,60.000,31581.000,1.000
-17.905,-18.635,0.697,-2.435,-15.044,-9.602,-10.892,-2.549,-0.099,0.909,-0.459,-1.190,0.305,0.732,60.000,31582.000,1.000
-17.793,-17.817,2.721,-2.160,-14.013,-6.598,-8.165,0.212,-0.099,0.912,-0.457,-1.282,0.366,0.824,60.000,31583.000,1.000
-13.877,-12.843,6.139,0.572,-8.924,-0.889,-1.862,5.565,-0.099,0.912,-0.459,-1.373,0.458,0.671,60.000,31584.000,1.000
-6.572,-4.416,10.104,5.191,-0.809,5.968,6.470,11.859,-0.100,0.913,-0.458,-1.495,0.519,0.671,60.000,31585.000,1.000
1.455,4.632,12.952,9.695,7.499,11.557,13.386,16.558,-0.100,0.914,-0.456,-1.678,0.458,0.641,60.000,31586.000,1.000
7.705,11.386,13.759,12.335,13.435,14.445,16.763,18.197,-0.099,0.914,-0.456,-1.740,0.580,0.610,60.000,31587.000,1.000
10.304,14.043,12.648,12.356,15.829,14.608,16.680,16.954,-0.101,0.913,-0.457,-1.953,0.580,0.519,60.000,31588.000,1.000
9.695,13.275,10.800,10.571,15.510,13.320,14.933,14.387,-0.101,0.913,-0.458,-1.984,0.732,0.458,60.000,31589.000,1.000
8.303,11.446,9.314,8.444,14.160,11.969,13.060,12.124,-0.100,0.912,-0.459,-2.045,0.671,0.366,60.000,31590.000,1.000
7.290,9.881,8.050,6.465,12.429,10.891,10.824,10.535,-0.102,0.910,-0.458,-2.045,0.763,0.305,60.000,31591.000,1.000
7.340,9.065,6.621,4.676,10.469,9.982,8.033,9.207,-0.101,0.909,-0.458,-2.106,0.671,0.275,60.000,31592.000,1.000
7.891,8.595,4.736,2.731,8.135,8.852,4.836,7.403,-0.099,0.908,-0.458,-2.045,0.549,0.183,60.000,31593.000,1.000
8.603,8.360,2.994,0.898,5.957,7.777,2.494,5.139,-0.101,0.910,-0.455,-1.953,0.580,0.183,60.000,31594.000,1.000
10.028,8.687,2.465,0.009,4.954,7.498,2.302,3.137,-0.101,0.910,-0.458,-1.953,0.671,0.153,60.000,31595.000,1.000
11.631,8.972,3.336,0.130,5.141,7.940,3.359,1.635,-0.100,0.908,-0.457,-2.014,0.671,0.122,60.000,31596.000,1.000
13.197,8.850,5.277,0.940,6.031,8.701,4.164,0.419,-0.102,0.907,-0.457,-1.984,0.610,0.153,60.000,31597.000,1.000
13.965,8.151,7.333,1.618,6.808,9.283,3.644,-1.040,-0.103,0.907,-0.459,-1.801,0.519,0.153,60.000,31598.000,1.000
13.692,7.438,8.766,1.751,7.319,9.840,2.516,-2.588,-0.105,0.905,-0.458,-1.678,0.397,0.305,60.000,31599.000,1.000
13.286,7.705,9.422,1.563,8.140,10.974,2.774,-3.383,-0.104,0.907,-0.457,-1.648,0.305,0.305,60.000,31600.000,1.000
12.963,8.758,9.150,0.955,9.304,12.634,5.265,-3.065,-0.102,0.908,-0.456,-1.556,0.244,0.244,60.000,31601.000,1.000
13.374,10.107,8.120,-0.044,10.599,14.419,9.692,-1.852,-0.102,0.909,-0.453,-1.404,0.183,0.214,60.000,31602.000,1.000
14.154,10.973,6.293,-1.569,11.355,15.629,14.257,-0.533,-0.102,0.909,-0.452,-1.404,0.122,0.183,60.000,31603.000,1.000
14.618,11.220,4.004,-3.277,11.360,16.137,17.294,0.563,-0.104,0.911,-0.455,-1.343,-0.061,0.305,60.000,31604.000,1.000
14.576,11.374,2.009,-4.433,11.072,16.368,18.439,1.755,-0.103,0.910,-0.454,-1.404,-0.183,0.305,60.000,31605.000,1.000
13.200,11.143,0.609,-4.988,10.480,16.304,18.016,3.139,-0.105,0.913,-0.455,-1.404,-0.153,0.427,60.000,31606.000,1.000
10.923,10.345,-0.107,-5.026,9.558,15.750,17.119,4.492,-0.102,0.911,-0.454,-1.495,-0.244,0.427,60.000,31607.000,1.000
7.991,8.686,-0.786,-5.130,7.942,14.060,15.389,4.725,-0.106,0.912,-0.456,-1.465,-0.366,0.458,60.000,31608.000,1.000
4.508,6.292,-2.013,-5.782,5.439,10.851,11.590,2.785,-0.105,0.913,-0.452,-1.434,-0.549,0.549,60.000,31609.000,1.000
0.944,3.812,-3.617,-6.909,2.305,6.511,5.856,-1.114,-0.104,0.913,-0.456,-1.434,-0.549,0.488,60.000,31610.000,1.000
-2.728,1.618,-5.012,-8.232,-1.101,1.889,-0.072,-5.588,-0.104,0.913,-0.458,-1.465,-0.671,0.519,60.000,31611.000,1.000
-5.160,0.762,-5.136,-8.795,-3.604,-1.689,-3.595,-8.711,-0.104,0.912,-0.454,-1.434,-0.671,0.610,60.000,31612.000,1.000
-5.807,1.489,-3.749,-8.214,-4.367,-3.742,-4.423,-9.705,-0.102,0.913,-0.455,-1.434,-0.763,0.671,60.000,31613.000,1.000
-5.267,2.943,-1.447,-6.860,-3.308,-4.692,-4.223,-9.109,-0.100,0.913,-0.453,-1.587,-0.916,0.610,60.000,31614.000,1.000
-4.174,4.167,0.835,-5.493,-0.979,-5.338,-4.382,-7.991,-0.099,0.910,-0.453,-1.556,-0.946,0.580,60.000,31615.000,1.000
-3.657,4.288,2.011,-5.108,1.373,-6.547,-5.437,-7.161,-0.100,0.909,-0.455,-1.587,-0.977,0.580,60.000,31616.000,1.000
-3.618,3.463,1.818,-5.739,2.977,-8.315,-6.821,-6.334,-0.098,0.911,-0.455,-1.587,-0.885,0.702,60.000,31617.000,1.000
-4.248,1.759,0.311,-7.121,3.179,-10.353,-8.782,-5.106,-0.098,0.910,-0.454,-1.465,-0.977,0.793,60.000,31618.000,1.000
-5.268,-0.388,-1.805,-8.618,1.986,-11.947,-11.337,-3.277,-0.099,0.910,-0.456,-1.495,-1.007,0.763,60.000,31619.000,1.000
-5.457,-1.923,-3.321,-9.310,0.264,-12.196,-13.189,-0.944,-0.101,0.910,-0.456,-1.434,-0.946,0.702,60.000,31620.000,1.000
-4.951,-2.685,-3.720,-8.914,-1.449,-11.130,-13.474,1.120,-0.101,0.909,-0.454,-1.495,-1.129,0.641,60.000,31621.000,1.000
-3.965,-2.761,-2.968,-7.306,-2.744,-9.402,-11.948,2.265,-0.101,0.909,-0.453,-1.404,-1.068,0.580,60.000,31622.000,1.000
-3.386,-2.748,-1.808,-5.093,-3.832,-8.162,-9.622,2.167,-0.098,0.907,-0.453,-1.404,-1.160,0.519,60.000,31623.000,1.000
-3.417,-2.853,-0.980,-3.064,-4.889,-8.003,-7.641,1.258,-0.099,0.908,-0.453,-1.251,-1.099,0.641,60.000,31624.000,1.000
-3.103,-2.713,-0.884,-1.642,-5.649,-8.627,-6.689,0.442,-0.101,0.910,-0.454,-1.282,-1.190,0.519,60.000,31625.000,1.000
-3.001,-2.979,-2.097,-1.363,-6.304,-9.633,-7.591,0.046,-0.102,0.909,-0.457,-1.312,-1.251,0.458,60.000,31626.000,1.000
-4.016,-4.366,-4.631,-2.241,-7.095,-10.386,-9.748,-0.033,-0.100,0.910,-0.455,-1.282,-1.221,0.488,60.000,31627.000,1.000
-7.238,-7.272,-8.055,-4.075,-8.464,-10.640,-11.614,-0.238,-0.101,0.911,-0.458,-1.190,-1.251,0.397,60.000,31628.000,1.000
-11.970,-10.794,-11.144,-5.969,-10.228,-10.320,-11.205,-0.520,-0.099,0.914,-0.457,-1.129,-1.190,0.366,60.000,31629.000,1.000
-15.543,-13.027,-12.425,-6.549,-11.393,-9.298,-7.451,-0.253,-0.099,0.915,-0.453,-1.160,-1.221,0.366,60.000,31630.000,1.000
-16.735,-13.169,-11.504,-5.333,-11.308,-7.638,-1.845,0.920,-0.100,0.915,-0.450,-1.129,-1.373,0.336,60.000,31631.000,1.000
-15.624,-11.426,-8.902,-2.707,-9.785,-5.420,3.120,2.823,-0.102,0.914,-0.450,-1.190,-1.373,0.305,60.000,31632.000,1.000
-14.287,-9.486,-6.252,-0.296,-7.949,-3.608,4.923,4.058,-0.102,0.911,-0.456,-1.190,-1.465,0.183,60.000,31633.000,1.000
-14.220,-8.840,-4.957,0.517,-7.139,-3.143,3.145,3.134,-0.102,0.912,-0.454,-1.251,-1.373,0.214,60.000,31634.000,1.000
-14.631,-9.369,-5.354,-0.393,-7.699,-4.018,-0.487,-0.192,-0.100,0.912,-0.453,-1.251,-1.465,0.366,60.000,31635.000,1.000
-15.064,-10.588,-7.237,-2.684,-9.428,-5.641,-4.434,-5.026,-0.101,0.908,-0.452,-1.129,-1.465,0.214,60.000,31636.000,1.000
-15.063,-11.644,-9.419,-5.257,-11.262,-6.666,-6.929,-9.449,-0.102,0.907,-0.453,-1.068,-1.526,0.214,60.000,31637.000,1.000
-15.043,-12.257,-10.536,-7.083,-12.229,-6.122,-6.863,-11.813,-0.100,0.910,-0.454,-1.068,-1.495,0.305,60.000,31638.000,1.000
-14.733,-12.011,-9.403,-7.208,-11.480,-3.750,-3.952,-11.334,-0.100,0.911,-0.454,-1.038,-1.434,0.305,60.000,31639.000,1.000
-12.666,-9.998,-5.776,-5.093,-8.406,-0.032,1.086,-8.419,-0.101,0.910,-0.453,-1.099,-1.465,0.275,60.000,31640.000,1.000
-9.273,-6.525,-1.277,-1.773,-3.787,3.572,5.825,-4.823,-0.100,0.911,-0.454,-1.129,-1.648,0.397,60.000,31641.000,1.000
-6.137,-2.750,2.015,1.024,0.873,5.813,8.192,-2.184,-0.100,0.910,-0.451,-1.068,-1.526,0.397,60.000,31642.000,1.000
-5.745,-0.688,2.530,1.583,3.814,6.062,7.324,-1.289,-0.100,0.909,-0.453,-0.885,-1.495,0.458,60.000,31643.000,1.000
-8.569,-1.305,0.363,-0.220,4.478,4.904,4.612,-1.689,-0.101,0.910,-0.455,-0.885,-1.465,0.549,60.000,31644.000,1.000
-11.888,-3.303,-2.937,-2.764,3.877,3.564,2.683,-2.381,-0.099,0.911,-0.452,-0.854,-1.526,0.610,60.000,31645.000,1.000
-13.573,-5.075,-5.951,-4.611,2.954,2.447,2.501,-3.018,-0.101,0.913,-0.454,-0.916,-1.495,0.671,60.000,31646.000,1.000
-12.703,-5.442,-7.643,-4.909,2.414,1.576,3.749,-3.444,-0.102,0.914,-0.455,-0.946,-1.465,0.641,60.000,31647.000,1.000
-10.325,-4.542,-7.875,-3.813,2.387,0.892,5.203,-3.386,-0.102,0.915,-0.454,-0.946,-1.465,0.732,60.000,31648.000,1.000
-7.072,-2.515,-6.659,-1.582,3.180,0.862,6.362,-2.069,-0.103,0.913,-0.457,-1.099,-1.404,0.763,60.000,31649.000,1.000
-2.214,0.993,-4.048,1.524,5.086,1.797,7.624,0.824,-0.103,0.915,-0.456,-1.190,-1.373,0.732,60.000,31650.000,1.000
3.263,4.992,-1.009,4.244,7.076,2.686,8.396,3.995,-0.102,0.915,-0.453,-1.221,-1.343,0.824,60.000,31651.000,1.000
7.849,8.124,1.474,5.465,7.999,2.461,7.823,6.080,-0.100,0.914,-0.454,-1.373,-1.434,0.916,60.000,31652.000,1.000
9.830,9.195,2.626,4.645,7.268,0.788,4.939,6.835,-0.103,0.913,-0.455,-1.343,-1.556,0.763,60.000,31653.000,1.000
9.075,8.261,2.533,2.505,5.513,-1.339,0.196,7.224,-0.105,0.912,-0.459,-1.556,-1.465,0.793,60.000,31654.000,1.000
7.549,6.764,2.035,0.773,4.191,-2.276,-3.900,8.198,-0.105,0.912,-0.462,-1.526,-1.465,0.763,60.000,31655.000,1.000
6.313,5.605,1.553,0.495,3.983,-1.411,-4.936,9.569,-0.107,0.913,-0.458,-1.404,-1.465,0.885,60.000,31656.000,1.000
5.716,4.955,1.188,1.682,4.690,0.700,-1.982,10.704,-0.104,0.914,-0.458,-1.465,-1.526,0.854,60.000,31657.000,1.000
4.282,3.421,0.278,2.755,4.719,2.311,2.563,10.617,-0.106,0.911,-0.456,-1.434,-1.465,0.885,60.000,31658.000,1.000
0.764,-0.441,-1.608,2.114,2.496,2.015,5.186,8.525,-0.107,0.911,-0.455,-1.526,-1.587,0.946,60.000,31659.000,1.000
-3.705,-6.173,-3.988,-0.288,-1.931,-0.142,4.335,4.411,-0.105,0.908,-0.453,-1.495,-1.556,1.038,60.000,31660.000,1.000
-7.731,-12.198,-6.343,-3.530,-7.462,-3.414,0.146,-1.106,-0.104,0.906,-0.456,-1.434,-1.556,1.038,60.000,31661.000,1.000
-9.911,-16.425,-8.124,-6.128,-12.394,-6.771,-5.701,-6.649,-0.105,0.905,-0.454,-1.495,-1.617,1.038,60.000,31662.000,1.000
-10.826,-18.458,-9.375,-7.556,-15.968,-9.840,-11.612,-11.148,-0.102,0.905,-0.454,-1.526,-1.373,0.977,60.000,31663.000,1.000
-11.653,-19.336,-10.202,-8.038,-18.229,-12.433,-16.161,-14.107,-0.101,0.905,-0.457,-1.465,-1.343,1.068,60.000,31664.000,1.000
-12.066,-19.818,-10.368,-7.695,-19.107,-13.967,-18.298,-15.359,-0.100,0.905,-0.460,-1.312,-1.282,1.099,60.000,31665.000,1.000
-11.733,-20.180,-9.781,-6.723,-18.509,-13.907,-18.470,-15.031,-0.100,0.909,-0.456,-1.373,-1.221,1.129,60.000,31666.000,1.000
-9.797,-19.534,-8.156,-4.976,-16.000,-11.884,-17.170,-13.190,-0.099,0.912,-0.456,-1.312,-1.190,1.190,60.000,31667.000,1.000
-6.879,-17.697,-5.921,-3.009,-12.164,-8.875,-15.235,-10.657,-0.099,0.913,-0.458,-1.190,-1.068,1.129,60.000,31668.000,1.000
-4.212,-15.405,-3.720,-1.600,-8.309,-6.437,-13.261,-8.412,-0.099,0.916,-0.456,-1.251,-0.885,1.190,60.000,31669.000,1.000
-1.631,-13.013,-1.527,-0.768,-5.102,-5.134,-11.053,-6.527,-0.101,0.917,-0.453,-1.343,-0.671,1.160,60.000,31670.000,1.000
1.103,-10.661,0.922,-0.283,-2.647,-4.656,-8.828,-4.625,-0.101,0.916,-0.457,-1.495,-0.610,0.977,60.000,31671.000,1.000
4.616,-7.905,3.934,0.341,-0.466,-4.288,-6.684,-2.449,-0.103,0.915,-0.453,-1.526,-0.580,1.038,60.000,31672.000,1.000
7.778,-5.197,6.780,0.872,1.180,-4.119,-5.080,-0.654,-0.102,0.914,-0.454,-1.648,-0.458,1.007,60.000,31673.000,1.000
8.865,-3.494,8.456,0.935,1.624,-4.488,-3.990,0.044,-0.101,0.912,-0.455,-1.617,-0.336,1.007,60.000,31674.000,1.000
7.835,-3.184,8.763,0.724,0.758,-5.272,-2.701,-0.317,-0.097,0.910,-0.456,-1.617,-0.214,0.946,60.000,31675.000,1.000
5.131,-4.621,8.013,0.430,-1.204,-6.283,-1.278,-1.362,-0.094,0.908,-0.457,-1.617,-0.122,0.977,60.000,31676.000,1.000
2.314,-7.124,7.074,0.520,-3.310,-6.977,0.199,-2.421,-0.094,0.905,-0.454,-1.434,0.031,0.946,60.000,31677.000,1.000
-0.096,-9.846,6.286,0.903,-4.880,-7.064,1.278,-3.174,-0.093,0.904,-0.458,-1.343,0.214,0.946,60.000,31678.000,1.000
-2.057,-11.753,5.771,1.462,-5.319,-6.173,2.137,-3.258,-0.095,0.906,-0.456,-1.251,0.275,1.038,60.000,31679.000,1.000
-2.512,-11.444,5.817,2.609,-3.799,-3.799,4.065,-2.140,-0.095,0.908,-0.452,-1.190,0.488,0.977,60.000,31680.000,1.000
-1.427,-8.799,6.069,4.229,-0.542,-0.316,7.353,-0.177,-0.097,0.911,-0.454,-1.160,0.427,1.038,60.000,31681.000,1.000
0.667,-4.784,5.954,5.854,3.296,3.364,11.002,1.559,-0.096,0.914,-0.454,-1.221,0.610,0.977,60.000,31682.000,1.000
1.725,-1.635,4.708,6.515,5.765,5.993,12.565,1.763,-0.097,0.914,-0.453,-1.343,0.763,1.038,60.000,31683.000,1.000
0.185,-1.007,2.315,5.823,5.621,6.905,10.380,0.075,-0.098,0.913,-0.453,-1.343,0.854,1.068,60.000,31684.000,1.000
-2.795,-2.253,-0.206,4.498,3.290,6.328,5.354,-2.577,-0.100,0.914,-0.455,-1.434,0.977,1.099,60.000,31685.000,1.000
-5.273,-3.723,-1.825,3.310,-0.118,4.806,-0.028,-4.888,-0.104,0.916,-0.455,-1.373,0.854,1.038,60.000,31686.000,1.000
-4.937,-3.560,-1.660,3.045,-3.139,3.373,-2.670,-5.751,-0.107,0.916,-0.455,-1.404,0.793,0.916,60.000,31687.000,1.000
-1.894,-1.706,-0.057,3.469,-5.376,2.435,-2.143,-5.378,-0.110,0.917,-0.453,-1.343,0.641,0.824,60.000,31688.000,1.000
1.924,0.511,1.967,3.798,-7.204,1.791,-0.519,-4.665,-0.114,0.916,-0.453,-1.404,0.580,0.702,60.000,31689.000,1.000
5.288,2.115,3.852,3.740,-8.643,1.282,0.535,-3.922,-0.113,0.918,-0.455,-1.434,0.427,0.702,60.000,31690.000,1.000
7.426,2.669,5.369,3.324,-9.536,0.679,0.563,-3.063,-0.116,0.918,-0.455,-1.404,0.244,0.580,60.000,31691.000,1.000
9.243,3.106,6.720,3.203,-9.324,0.093,0.375,-1.988,-0.115,0.916,-0.457,-1.434,-0.031,0.488,60.000,31692.000,1.000
10.918,4.107,7.605,3.550,-8.141,-0.648,-0.008,-1.279,-0.113,0.917,-0.455,-1.465,-0.244,0.488,60.000,31693.000,1.000
11.866,5.732,7.788,4.267,-6.529,-1.663,-1.037,-1.280,-0.111,0.918,-0.452,-1.465,-0.458,0.366,60.000,31694.000,1.000
12.201,7.914,7.635,5.460,-4.775,-2.697,-2.727,-1.498,-0.108,0.915,-0.453,-1.587,-0.641,0.458,60.000,31695.000,1.000
11.560,9.699,7.329,6.759,-3.467,-3.622,-5.298,-1.514,-0.105,0.913,-0.454,-1.648,-0.702,0.488,60.000,31696.000,1.000
10.514,10.525,7.095,7.854,-2.833,-4.048,-8.074,-1.186,-0.104,0.912,-0.454,-1.587,-0.854,0.549,60.000,31697.000,1.000
9.323,10.164,6.684,8.176,-2.981,-3.888,-10.232,-0.886,-0.103,0.912,-0.451,-1.556,-0.885,0.519,60.000,31698.000,1.000
8.319,9.228,5.975,7.677,-3.358,-3.010,-10.757,-0.640,-0.099,0.912,-0.454,-1.526,-0.824,0.610,60.000,31699.000,1.000
8.500,9.042,5.281,7.098,-2.834,-1.072,-8.639,0.163,-0.098,0.914,-0.454,-1.404,-0.824,0.732,60.000,31700.000,1.000
9.483,9.783,4.584,6.821,-1.180,1.678,-4.340,1.894,-0.096,0.915,-0.452,-1.404,-0.824,0.793,60.000,31701.000,1.000
11.140,11.223,4.043,7.300,1.458,4.830,1.241,4.693,-0.094,0.915,-0.454,-1.373,-0.732,0.916,60.000,31702.000,1.000
12.744,12.565,3.441,8.377,4.317,7.474,6.421,7.789,-0.095,0.913,-0.453,-1.434,-0.641,1.038,60.000,31703.000,1.000
13.312,13.193,2.436,9.360,6.460,8.638,9.533,9.907,-0.093,0.913,-0.451,-1.465,-0.549,1.190,60.000,31704.000,1.000
12.731,13.503,1.089,9.703,7.578,8.033,10.157,10.339,-0.093,0.912,-0.450,-1.465,-0.397,1.190,60.000,31705.000,1.000
10.606,13.755,-0.429,8.940,7.764,6.101,8.802,9.137,-0.093,0.912,-0.449,-1.373,-0.427,1.251,60.000,31706.000,1.000
7.872,14.373,-1.441,7.484,7.959,4.253,7.450,7.339,-0.091,0.912,-0.451,-1.312,-0.336,1.282,60.000,31707.000,1.000
5.162,14.915,-1.825,5.742,8.664,3.335,7.375,5.932,-0.091,0.910,-0.451,-1.434,-0.244,1.282,60.000,31708.000,1.000
2.403,14.446,-2.111,3.901,9.520,3.064,8.059,5.319,-0.092,0.908,-0.452,-1.434,-0.122,1.251,60.000,31709.000,1.000
-0.228,12.794,-2.865,2.196,9.940,2.654,8.048,5.266,-0.094,0.908,-0.453,-1.312,0.031,1.282,60.000,31710.000,1.000
-2.959,10.368,-4.340,0.753,9.443,1.474,6.114,5.127,-0.093,0.906,-0.452,-1.221,0.122,1.282,60.000,31711.000,1.000
-4.392,8.888,-5.501,0.511,8.868,0.258,3.422,5.118,-0.093,0.907,-0.455,-1.068,0.122,1.343,60.000,31712.000,1.000
-3.666,9.381,-5.343,2.013,9.183,0.128,1.653,5.901,-0.094,0.907,-0.454,-0.946,0.214,1.190,60.000,31713.000,1.000
-1.703,11.076,-3.853,4.662,10.463,1.638,1.505,7.733,-0.095,0.907,-0.454,-0.977,0.427,1.007,60.000,31714.000,1.000
0.073,12.412,-1.926,7.131,12.020,4.391,2.849,9.990,-0.093,0.907,-0.453,-0.885,0.488,0.854,60.000,31715.000,1.000
0.249,11.936,-0.908,7.960,12.742,6.989,4.635,11.422,-0.093,0.907,-0.451,-0.885,0.549,0.732,60.000,31716.000,1.000
0.103,10.121,-1.031,7.171,12.537,8.467,6.356,11.701,-0.092,0.908,-0.449,-0.763,0.610,0.549,60.000,31717.000,1.000
1.325,8.110,-1.877,5.471,11.674,8.483,7.300,11.217,-0.092,0.909,-0.451,-0.702,0.732,0.458,60.000,31718.000,1.000
4.234,6.749,-2.774,3.573,10.400,7.527,6.896,10.534,-0.094,0.910,-0.451,-0.732,0.763,0.458,60.000,31719.000,1.000
7.997,6.311,-3.168,1.894,8.938,6.485,5.384,9.993,-0.093,0.908,-0.453,-0.824,0.793,0.397,60.000,31720.000,1.000
10.277,5.641,-3.242,-0.010,6.961,5.558,2.993,9.309,-0.094,0.911,-0.455,-0.793,0.885,0.397,60.000,31721.000,1.000
10.470,4.058,-2.956,-2.178,4.733,4.818,0.719,8.258,-0.095,0.912,-0.454,-0.763,1.007,0.183,60.000,31722.000,1.000
8.954,1.567,-2.375,-4.471,2.679,4.039,-0.782,6.528,-0.095,0.912,-0.452,-0.763,1.007,0.183,60.000,31723.000,1.000
6.392,-1.209,-1.637,-6.642,1.058,3.035,-1.362,4.150,-0.097,0.913,-0.450,-0.793,1.129,0.183,60.000,31724.000,1.000
3.958,-3.244,-0.823,-8.302,0.051,1.994,-1.058,1.836,-0.097,0.914,-0.452,-0.854,1.099,0.275,60.000,31725.000,1.000
1.896,-4.287,-0.309,-9.443,-0.556,1.149,-0.603,0.255,-0.098,0.916,-0.452,-0.977,1.099,0.244,60.000,31726.000,1.000
1.253,-3.864,0.061,-9.667,-0.403,1.165,0.056,-0.107,-0.099,0.917,-0.458,-0.916,1.068,0.183,60.000,31727.000,1.000
2.220,-2.171,0.343,-9.039,0.627,2.118,0.931,0.337,-0.100,0.917,-0.458,-1.038,0.977,0.153,60.000,31728.000,1.000
3.696,-0.219,0.463,-8.153,2.081,3.382,1.720,0.709,-0.098,0.915,-0.453,-1.099,0.824,0.244,60.000,31729.000,1.000
4.737,1.090,0.495,-7.438,3.393,4.296,2.132,0.497,-0.100,0.915,-0.452,-1.160,0.824,0.244,60.000,31730.000,1.000
4.117,0.764,0.257,-7.298,3.758,4.310,1.560,-0.455,-0.102,0.917,-0.451,-1.343,0.702,0.275,60.000,31731.000,1.000
2.281,-1.004,-0.045,-7.425,3.118,3.662,0.646,-1.597,-0.101,0.918,-0.453,-1.343,0.549,0.244,60.000,31732.000,1.000
-0.119,-3.531,-0.349,-7.643,1.659,2.603,0.182,-2.508,-0.101,0.917,-0.453,-1.312,0.458,0.275,60.000,31733.000,1.000
-2.595,-6.001,-0.618,-7.967,-0.218,1.233,0.332,-3.255,-0.102,0.917,-0.454,-1.373,0.336,0.366,60.000,31734.000,1.000
-4.275,-7.624,-0.672,-8.273,-1.802,-0.300,0.771,-4.227,-0.102,0.916,-0.455,-1.404,0.244,0.427,60.000,31735.000,1.000
-5.534,-8.711,-0.774,-8.774,-2.948,-2.073,0.355,-5.952,-0.103,0.916,-0.453,-1.465,0.183,0.397,60.000,31736.000,1.000
-6.107,-9.269,-0.944,-9.222,-3.417,-3.673,-1.080,-8.082,-0.102,0.914,-0.453,-1.404,0.061,0.488,60.000,31737.000,1.000
-6.082,-9.343,-1.300,-9.484,-3.206,-4.680,-3.055,-9.803,-0.103,0.914,-0.452,-1.434,-0.153,0.549,60.000,31738.000,1.000
-6.130,-9.234,-1.784,-9.505,-2.352,-4.689,-4.551,-10.263,-0.101,0.914,-0.454,-1.434,-0.305,0.641,60.000,31739.000,1.000
-6.461,-9.058,-1.996,-9.092,-0.748,-3.349,-4.266,-8.973,-0.103,0.913,-0.452,-1.465,-0.397,0.641,60.000,31740.000,1.000
-7.764,-9.275,-1.986,-8.573,1.050,-1.128,-2.199,-6.373,-0.101,0.914,-0.452,-1.404,-0.519,0.641,60.000,31741.000,1.000
-9.491,-9.689,-1.818,-8.052,2.600,1.208,1.092,-3.119,-0.100,0.915,-0.453,-1.343,-0.580,0.702,60.000,31742.000,1.000
-11.423,-10.382,-2.023,-7.879,3.324,2.504,4.112,-0.211,-0.099,0.915,-0.455,-1.373,-0.702,0.793,60.000,31743.000,1.000
-13.647,-11.466,-2.953,-8.267,2.999,2.100,5.517,1.481,-0.099,0.916,-0.456,-1.404,-0.732,0.763,60.000,31744.000,1.000
-15.197,-12.043,-4.036,-8.703,2.371,0.513,5.355,1.936,-0.096,0.915,-0.455,-1.312,-0.732,0.763,60.000,31745.000,1.000
-15.732,-11.367,-4.579,-8.829,2.108,-1.509,3.961,1.560,-0.097,0.912,-0.452,-1.343,-0.732,0.702,60.000,31746.000,1.000
-14.508,-8.834,-3.887,-8.248,2.740,-3.099,2.134,1.127,-0.096,0.909,-0.456,-1.312,-0.885,0.671,60.000,31747.000,1.000
-11.868,-5.157,-2.191,-7.225,3.923,-3.900,-0.054,1.030,-0.098,0.906,-0.456,-1.160,-0.977,0.702,60.000,31748.000,1.000
-9.371,-2.048,-0.422,-6.453,4.814,-3.934,-2.968,1.073,-0.097,0.903,-0.454,-1.038,-0.946,0.763,60.000,31749.000,1.000
-8.384,-0.815,0.498,-6.445,4.845,-3.397,-6.313,0.552,-0.096,0.900,-0.454,-0.946,-0.854,0.702,60.000,31750.000,1.000
-10.329,-2.227,-0.214,-7.685,3.501,-2.906,-9.566,-1.451,-0.097,0.901,-0.452,-0.732,-0.916,0.519,60.000,31751.000,1.000
-13.894,-5.013,-2.122,-9.562,1.311,-2.613,-11.262,-4.655,-0.095,0.901,-0.457,-0.641,-0.916,0.427,60.000,31752.000,1.000
-16.680,-7.208,-4.343,-11.133,-0.852,-2.632,-10.689,-7.853,-0.093,0.905,-0.458,-0.397,-0.977,0.305,60.000,31753.000,1.000
-17.351,-7.749,-6.175,-11.702,-2.353,-3.035,-8.450,-9.618,-0.092,0.908,-0.457,-0.336,-0.916,0.397,60.000,31754.000,1.000
-15.967,-6.717,-7.251,-10.907,-2.871,-3.577,-5.661,-9.083,-0.092,0.910,-0.454,-0.244,-0.793,0.427,60.000,31755.000,1.000
-14.473,-5.419,-7.759,-9.091,-2.813,-4.063,-3.722,-6.669,-0.094,0.908,-0.452,-0.183,-0.793,0.366,60.000,31756.000,1.000
-13.245,-4.222,-7.325,-6.227,-2.116,-3.889,-2.444,-3.211,-0.098,0.908,-0.454,-0.183,-0.732,0.244,60.000,31757.000,1.000
-11.743,-3.033,-5.663,-2.614,-0.855,-2.919,-1.132,0.198,-0.104,0.909,-0.452,-0.275,-0.732,0.122,60.000,31758.000,1.000
-9.700,-2.113,-2.995,0.880,0.311,-1.615,0.360,2.680,-0.108,0.913,-0.454,-0.488,-0.916,0.000,60.000,31759.000,1.000
-6.948,-1.724,0.172,3.467,0.622,-0.426,1.643,4.111,-0.107,0.913,-0.455,-0.427,-1.099,-0.031,60.000,31760.000,1.000
-4.444,-2.199,3.086,4.618,-0.563,0.304,1.584,4.787,-0.104,0.913,-0.458,-0.488,-1.343,-0.122,60.000,31761.000,1.000
-1.960,-2.614,5.706,5.058,-2.564,0.947,0.380,5.426,-0.103,0.913,-0.458,-0.641,-1.495,-0.244,60.000,31762.000,1.000
0.721,-2.162,7.870,5.561,-4.349,1.655,-0.754,6.047,-0.101,0.916,-0.459,-0.702,-1.617,-0.275,60.000,31763.000,1.000
3.224,-0.964,9.049,6.247,-5.292,2.130,-0.422,5.910,-0.101,0.915,-0.453,-0.916,-1.556,-0.244,60.000,31764.000,1.000
5.296,0.460,8.843,6.893,-5.109,2.124,1.708,4.470,-0.099,0.917,-0.452,-0.946,-1.617,-0.244,60.000,31765.000,1.000
5.499,0.878,7.037,6.833,-4.286,1.402,3.454,1.668,-0.100,0.916,-0.454,-1.129,-1.648,-0.275,60.000,31766.000,1.000
3.681,0.148,4.579,6.135,-2.966,0.513,3.018,-1.587,-0.102,0.913,-0.456,-1.160,-1.740,-0.214,60.000,31767.000,1.000
1.045,-0.664,2.852,5.250,-1.106,0.231,0.673,-4.131,-0.104,0.914,-0.458,-1.251,-1.709,-0.214,60.000,31768.000,1.000
-0.282,0.145,2.845,4.756,1.258,1.071,-1.415,-5.121,-0.104,0.913,-0.455,-1.373,-1.770,-0.061,60.000,31769.000,1.000
1.419,3.562,4.469,5.008,3.703,2.940,-1.166,-4.532,-0.105,0.914,-0.456,-1.343,-1.892,0.031,60.000,31770.000,1.000
4.388,7.882,6.143,5.313,4.866,4.802,0.969,-3.463,-0.106,0.916,-0.453,-1.373,-1.923,0.000,60.000,31771.000,1.000
6.485,10.956,6.703,5.289,4.184,5.922,3.621,-2.777,-0.103,0.918,-0.452,-1.526,-2.045,0.031,60.000,31772.000,1.000
6.958,11.843,6.077,5.103,2.245,6.024,5.460,-2.645,-0.102,0.916,-0.455,-1.648,-2.045,0.153,60.000,31773.000,1.000
7.009,11.449,5.315,5.480,0.544,5.530,6.367,-2.444,-0.103,0.914,-0.455,-1.770,-2.014,0.275,60.000,31774.000,1.000
