EEG 1,EEG 2,EEG 3,EEG 4,EEG 5,EEG 6,EEG 7,EEG 8,Accelerometer X,Accelerometer Y,Accelerometer Z,Gyroscope X,Gyroscope Y,Gyroscope Z,Battery Level,Counter,Validation Indicator
8.465,17.719,13.790,7.951,10.234,12.142,8.760,12.028,-0.062,0.922,-0.427,-1.251,0.000,0.671,60.000,81281.000,1.000
9.377,18.078,16.514,7.337,10.587,11.731,6.456,9.815,-0.063,0.924,-0.428,-1.282,0.092,0.702,60.000,81282.000,1.000
10.209,18.339,19.378,7.248,11.515,11.146,4.906,7.089,-0.062,0.928,-0.426,-1.221,0.122,0.824,60.000,81283.000,1.000
10.079,17.823,21.734,7.632,12.627,10.686,4.011,4.776,-0.058,0.930,-0.426,-1.282,0.305,0.977,60.000,81284.000,1.000
8.610,16.120,22.687,7.981,13.270,10.323,3.190,3.500,-0.058,0.936,-0.426,-1.373,0.397,1.068,60.000,81285.000,1.000
6.598,13.620,21.679,7.947,13.041,9.901,2.032,3.561,-0.062,0.934,-0.424,-1.373,0.549,1.129,60.000,81286.000,1.000
5.923,11.606,19.002,7.761,12.193,9.501,1.056,4.871,-0.065,0.937,-0.424,-1.373,0.580,1.190,60.000,81287.000,1.000
7.664,11.029,15.427,7.639,11.123,9.125,0.941,6.690,-0.071,0.937,-0.427,-1.465,0.610,1.099,60.000,81288.000,1.000
11.445,11.767,11.894,7.496,10.059,8.646,1.997,7.965,-0.077,0.936,-0.424,-1.526,0.458,1.038,60.000,81289.000,1.000
15.560,12.538,9.123,6.890,8.728,7.790,3.791,7.855,-0.079,0.934,-0.425,-1.587,0.275,0.946,60.000,81290.000,1.000
18.146,11.872,7.478,5.423,6.584,6.356,5.403,6.280,-0.080,0.933,-0.423,-1.648,0.061,0.763,60.000,81291.000,1.000
18.576,9.361,6.960,3.203,3.603,4.512,6.325,3.985,-0.081,0.932,-0.424,-1.617,-0.214,0.580,60.000,81292.000,1.000
16.901,5.361,6.846,0.480,0.276,2.498,6.364,1.675,-0.082,0.929,-0.424,-1.678,-0.397,0.458,60.000,81293.000,1.000
13.824,0.806,6.132,-2.349,-2.575,0.521,5.663,-0.502,-0.081,0.927,-0.424,-1.648,-0.763,0.336,60.000,81294.000,1.000
10.545,-2.954,4.168,-4.717,-4.156,-1.334,4.453,-2.760,-0.078,0.926,-0.423,-1.587,-1.007,0.092,60.000,81295.000,1.000
8.228,-4.608,1.089,-6.065,-3.978,-2.979,3.007,-5.026,-0.077,0.927,-0.425,-1.648,-1.129,-0.031,60.000,81296.000,1.000
7.337,-3.616,-2.291,-6.141,-2.082,-4.182,1.734,-6.800,-0.075,0.927,-0.425,-1.526,-1.434,-0.061,60.000,81297.000,1.000
6.708,-1.078,-5.288,-5.375,0.597,-4.936,0.518,-7.688,-0.075,0.926,-0.423,-1.495,-1.495,-0.183,60.000,81298.000,1.000
4.821,1.110,-7.548,-4.295,2.944,-5.210,-0.785,-7.330,-0.071,0.927,-0.423,-1.465,-1.526,-0.183,60.000,81299.000,1.000
1.067,1.439,-9.091,-3.216,4.256,-4.792,-1.806,-5.434,-0.067,0.928,-0.423,-1.495,-1.648,-0.214,60.000,81300.000,1.000
-3.706,-0.316,-10.103,-2.213,4.403,-3.458,-1.781,-2.304,-0.068,0.927,-0.424,-1.373,-1.648,-0.183,60.000,81301.000,1.000
-7.472,-2.845,-10.603,-1.144,3.762,-1.144,-0.118,0.804,-0.067,0.927,-0.424,-1.312,-1.709,-0.061,60.000,81302.000,1.000
-9.006,-4.773,-10.765,-0.170,2.461,1.681,2.529,2.111,-0.064,0.927,-0.422,-1.160,-1.526,-0.061,60.000,81303.000,1.000
-8.131,-5.399,-10.691,0.515,0.504,4.349,4.873,0.746,-0.063,0.926,-0.424,-1.129,-1.495,0.092,60.000,81304.000,1.000
-5.052,-4.527,-10.149,1.092,-1.688,6.358,6.076,-2.518,-0.063,0.927,-0.421,-1.099,-1.312,0.214,60.000,81305.000,1.000
-0.078,-2.261,-8.790,1.994,-3.358,7.387,6.043,-5.810,-0.062,0.928,-0.422,-1.068,-1.190,0.305,60.000,81306.000,1.000
6.184,0.985,-6.625,3.469,-4.042,7.215,5.103,-7.306,-0.062,0.928,-0.419,-0.977,-1.160,0.488,60.000,81307.000,1.000
12.221,4.206,-4.326,5.199,-4.097,5.654,3.328,-6.232,-0.061,0.925,-0.423,-0.824,-0.946,0.671,60.000,81308.000,1.000
16.859,6.699,-2.493,6.866,-3.912,3.115,1.071,-2.937,-0.061,0.926,-0.421,-0.885,-0.793,0.671,60.000,81309.000,1.000
19.954,8.577,-1.245,8.384,-3.398,0.569,-0.944,1.332,-0.062,0.926,-0.419,-0.885,-0.702,0.763,60.000,81310.000,1.000
21.933,10.260,-0.409,9.702,-2.331,-1.111,-2.132,5.012,-0.063,0.927,-0.420,-0.885,-0.580,0.793,60.000,81311.000,1.000
23.324,11.926,0.291,10.795,-0.697,-1.547,-2.190,7.165,-0.063,0.928,-0.421,-0.885,-0.427,0.824,60.000,81312.000,1.000
24.002,13.103,0.963,11.539,1.078,-0.980,-1.417,7.833,-0.063,0.930,-0.421,-0.885,-0.397,0.732,60.000,81313.000,1.000
23.766,13.266,1.655,11.882,2.547,0.174,-0.317,7.674,-0.062,0.929,-0.421,-1.007,-0.397,0.763,60.000,81314.000,1.000
22.431,12.090,2.143,11.601,3.286,1.347,0.389,7.113,-0.062,0.929,-0.421,-0.854,-0.336,0.824,60.000,81315.000,1.000
19.700,9.443,1.903,10.336,2.892,1.812,-0.172,6.183,-0.064,0.929,-0.421,-0.916,-0.153,0.793,60.000,81316.000,1.000
15.656,5.629,0.563,8.130,1.354,1.161,-2.268,4.958,-0.062,0.928,-0.422,-0.854,-0.061,0.824,60.000,81317.000,1.000
10.719,1.288,-1.800,5.544,-0.907,-0.413,-5.312,3.737,-0.063,0.925,-0.422,-0.854,0.031,0.732,60.000,81318.000,1.000
6.168,-2.334,-4.403,3.632,-2.976,-2.010,-7.724,3.061,-0.063,0.926,-0.419,-0.763,0.275,0.702,60.000,81319.000,1.000
3.153,-4.303,-6.445,3.019,-4.184,-2.874,-8.169,3.166,-0.062,0.928,-0.418,-0.763,0.122,0.671,60.000,81320.000,1.000
1.484,-5.135,-7.742,3.185,-4.754,-3.099,-6.796,3.578,-0.062,0.928,-0.421,-0.702,0.305,0.610,60.000,81321.000,1.000
0.206,-6.162,-8.512,2.950,-5.387,-3.311,-4.806,3.433,-0.064,0.928,-0.423,-0.702,0.427,0.641,60.000,81322.000,1.000
-1.717,-8.410,-9.157,1.234,-6.743,-4.299,-3.635,1.950,-0.063,0.927,-0.422,-0.763,0.580,0.610,60.000,81323.000,1.000
-4.429,-11.753,-9.900,-2.057,-8.813,-6.365,-3.756,-1.042,-0.063,0.926,-0.424,-0.793,0.549,0.580,60.000,81324.000,1.000
-7.644,-15.573,-10.846,-6.157,-11.134,-9.148,-4.684,-5.095,-0.062,0.927,-0.424,-0.671,0.549,0.519,60.000,81325.000,1.000
-11.160,-19.517,-12.011,-10.043,-13.273,-11.897,-5.723,-9.184,-0.064,0.927,-0.422,-0.641,0.641,0.427,60.000,81326.000,1.000
-14.387,-23.183,-13.126,-12.821,-14.849,-13.793,-6.194,-11.906,-0.067,0.929,-0.423,-0.671,0.641,0.458,60.000,81327.000,1.000
-16.884,-26.211,-13.939,-14.323,-15.792,-14.482,-5.952,-12.555,-0.067,0.931,-0.423,-0.549,0.580,0.519,60.000,81328.000,1.000
-18.253,-28.136,-14.192,-14.892,-16.113,-13.934,-5.125,-11.768,-0.068,0.931,-0.424,-0.580,0.580,0.366,60.000,81329.000,1.000
-18.188,-28.456,-13.646,-14.961,-15.702,-12.284,-3.944,-10.915,-0.067,0.929,-0.423,-0.671,0.549,0.427,60.000,81330.000,1.000
-16.593,-26.849,-12.144,-14.746,-14.333,-9.808,-2.629,-10.718,-0.069,0.930,-0.425,-0.732,0.488,0.427,60.000,81331.000,1.000
-13.585,-23.366,-9.729,-14.238,-11.898,-6.876,-1.184,-10.784,-0.070,0.930,-0.425,-0.763,0.427,0.427,60.000,81332.000,1.000
-10.330,-19.123,-7.059,-13.758,-9.134,-4.335,-0.112,-10.602,-0.070,0.928,-0.422,-0.793,0.366,0.397,60.000,81333.000,1.000
-8.389,-15.806,-5.069,-13.850,-7.374,-3.328,-0.306,-10.278,-0.069,0.930,-0.425,-0.793,0.275,0.336,60.000,81334.000,1.000
-8.917,-14.761,-4.496,-14.990,-7.747,-4.691,-2.503,-10.393,-0.069,0.929,-0.424,-0.732,0.183,0.275,60.000,81335.000,1.000
-12.033,-16.191,-5.394,-17.122,-10.274,-8.156,-6.507,-11.108,-0.070,0.929,-0.423,-0.824,0.122,0.305,60.000,81336.000,1.000
-16.335,-18.777,-6.824,-19.264,-13.420,-12.000,-10.605,-11.794,-0.069,0.930,-0.426,-0.732,-0.031,0.366,60.000,81337.000,1.000
-20.070,-20.697,-7.431,-20.144,-15.096,-14.030,-12.633,-11.781,-0.069,0.932,-0.425,-0.732,-0.092,0.458,60.000,81338.000,1.000
-21.912,-20.500,-6.134,-18.882,-13.914,-12.805,-11.215,-10.774,-0.066,0.932,-0.424,-0.763,-0.092,0.458,60.000,81339.000,1.000
-21.917,-17.962,-2.980,-15.739,-10.244,-8.653,-6.882,-8.989,-0.067,0.933,-0.426,-0.916,-0.214,0.458,60.000,81340.000,1.000
-21.361,-14.072,0.858,-11.965,-5.905,-3.414,-1.784,-7.031,-0.066,0.933,-0.422,-0.946,-0.305,0.427,60.000,81341.000,1.000
-20.934,-9.700,4.195,-8.574,-2.423,1.038,2.165,-5.256,-0.066,0.932,-0.424,-1.007,-0.336,0.427,60.000,81342.000,1.000
-20.503,-5.293,6.500,-5.817,-0.127,3.745,4.239,-3.411,-0.069,0.934,-0.425,-1.099,-0.427,0.427,60.000,81343.000,1.000
-19.384,-1.033,8.206,-3.149,1.848,5.068,5.202,-0.790,-0.068,0.934,-0.420,-1.099,-0.458,0.458,60.000,81344.000,1.000
-17.185,2.815,10.210,0.094,4.553,6.068,6.257,2.924,-0.066,0.930,-0.422,-1.099,-0.519,0.458,60.000,81345.000,1.000
-14.352,5.754,12.889,3.900,8.062,7.382,7.718,7.003,-0.067,0.928,-0.422,-1.099,-0.549,0.488,60.000,81346.000,1.000
-11.733,7.331,15.590,7.453,11.352,8.709,8.971,9.911,-0.070,0.926,-0.421,-1.068,-0.549,0.519,60.000,81347.000,1.000
-10.346,7.158,16.959,9.510,12.983,9.048,8.910,10.347,-0.068,0.925,-0.420,-1.038,-0.641,0.397,60.000,81348.000,1.000
-10.277,5.604,16.252,9.453,12.414,7.854,7.206,8.527,-0.066,0.926,-0.422,-1.068,-0.732,0.519,60.000,81349.000,1.000
-10.779,3.776,13.750,7.545,10.197,5.438,4.534,5.919,-0.065,0.925,-0.426,-0.977,-0.580,0.427,60.000,81350.000,1.000
-11.320,2.573,10.251,4.501,7.160,2.500,1.716,3.914,-0.063,0.923,-0.429,-0.946,-0.580,0.519,60.000,81351.000,1.000
-11.969,1.991,6.571,1.091,3.847,-0.304,-0.805,2.888,-0.062,0.925,-0.427,-0.885,-0.549,0.610,60.000,81352.000,1.000
-13.502,1.037,3.052,-2.272,0.372,-2.751,-3.231,2.242,-0.059,0.923,-0.425,-0.763,-0.610,0.610,60.000,81353.000,1.000
-15.997,-0.907,-0.186,-5.160,-2.858,-4.816,-5.555,1.484,-0.058,0.925,-0.422,-0.702,-0.458,0.641,60.000,81354.000,1.000
-18.658,-3.575,-3.096,-7.098,-5.094,-6.539,-7.331,0.673,-0.058,0.925,-0.422,-0.580,-0.336,0.671,60.000,81355.000,1.000
-20.711,-6.355,-5.602,-7.808,-5.771,-7.881,-8.096,0.067,-0.061,0.923,-0.418,-0.549,-0.214,0.702,60.000,81356.000,1.000
-21.535,-8.521,-7.378,-7.252,-4.708,-8.541,-7.464,-0.096,-0.065,0.925,-0.417,-0.580,-0.244,0.793,60.000,81357.000,1.000
-21.172,-9.799,-8.300,-5.941,-2.531,-8.463,-5.737,0.347,-0.071,0.926,-0.421,-0.610,-0.244,0.671,60.000,81358.000,1.000
-19.902,-10.324,-8.589,-4.628,-0.412,-7.975,-3.774,1.516,-0.073,0.927,-0.424,-0.519,-0.244,0.610,60.000,81359.000,1.000
-18.090,-10.482,-8.705,-3.936,0.562,-7.634,-2.654,3.055,-0.073,0.928,-0.426,-0.610,-0.488,0.519,60.000,81360.000,1.000
-16.108,-10.641,-8.956,-4.012,0.120,-7.836,-3.038,4.180,-0.073,0.929,-0.422,-0.549,-0.549,0.336,60.000,81361.000,1.000
-13.788,-10.580,-9.112,-4.298,-0.818,-8.362,-4.448,4.415,-0.072,0.930,-0.423,-0.549,-0.641,0.366,60.000,81362.000,1.000
-10.960,-9.778,-8.779,-4.152,-0.989,-8.579,-5.935,3.792,-0.069,0.927,-0.425,-0.549,-0.671,0.275,60.000,81363.000,1.000
-7.674,-7.875,-7.758,-3.344,0.233,-7.814,-6.680,2.610,-0.070,0.928,-0.424,-0.732,-0.610,0.244,60.000,81364.000,1.000
-4.777,-5.441,-6.371,-2.351,2.206,-5.985,-6.463,1.078,-0.072,0.928,-0.423,-0.854,-0.763,0.183,60.000,81365.000,1.000
-3.490,-3.634,-5.039,-1.775,3.727,-3.548,-5.397,-0.526,-0.071,0.929,-0.425,-0.885,-0.793,0.153,60.000,81366.000,1.000
-3.807,-2.677,-3.547,-1.476,4.499,-0.778,-3.212,-1.562,-0.071,0.930,-0.424,-0.885,-0.916,0.000,60.000,81367.000,1.000
-4.858,-1.900,-1.464,-1.008,5.047,2.220,0.140,-1.522,-0.067,0.931,-0.426,-1.007,-0.977,0.153,60.000,81368.000,1.000
-5.383,-0.435,1.472,0.021,6.095,5.476,4.435,-0.349,-0.066,0.929,-0.427,-0.977,-0.977,0.214,60.000,81369.000,1.000
-4.221,2.181,5.170,1.843,8.076,8.951,9.210,1.623,-0.066,0.928,-0.430,-1.038,-1.038,0.336,60.000,81370.000,1.000
-0.749,5.816,9.156,4.406,10.890,12.244,13.484,3.896,-0.067,0.927,-0.429,-1.007,-0.946,0.397,60.000,81371.000,1.000
4.801,9.836,12.769,7.261,13.940,14.708,16.023,5.965,-0.066,0.927,-0.427,-1.068,-0.946,0.488,60.000,81372.000,1.000
10.638,12.996,15.278,9.505,16.151,15.636,15.818,7.368,-0.065,0.929,-0.426,-1.068,-0.946,0.641,60.000,81373.000,1.000
14.930,14.509,16.433,10.579,16.777,14.843,13.193,8.072,-0.067,0.932,-0.427,-1.099,-0.977,0.702,60.000,81374.000,1.000
17.199,14.618,16.302,10.464,15.666,12.705,9.596,8.164,-0.067,0.932,-0.432,-1.068,-0.885,0.732,60.000,81375.000,1.000
18.194,14.078,14.913,9.342,12.998,9.892,6.554,7.439,-0.066,0.931,-0.433,-1.068,-0.885,0.824,60.000,81376.000,1.000
19.078,13.744,12.504,7.613,9.399,7.331,5.177,5.836,-0.066,0.931,-0.427,-1.099,-0.824,0.793,60.000,81377.000,1.000
19.850,13.837,9.539,5.675,5.650,5.684,5.299,3.751,-0.065,0.930,-0.426,-1.160,-0.763,0.885,60.000,81378.000,1.000
19.968,14.249,6.794,4.131,2.686,5.208,5.953,1.982,-0.065,0.932,-0.426,-1.160,-0.702,0.885,60.000,81379.000,1.000
19.666,15.196,5.173,3.793,1.519,5.921,6.528,1.330,-0.064,0.931,-0.425,-1.190,-0.641,1.068,60.000,81380.000,1.000
19.963,17.109,5.283,5.194,2.726,7.672,7.172,2.129,-0.063,0.929,-0.428,-1.190,-0.641,0.946,60.000,81381.000,1.000
21.522,19.917,7.019,8.065,5.814,9.956,8.164,3.909,-0.063,0.931,-0.427,-1.190,-0.519,0.977,60.000,81382.000,1.000
23.109,22.308,9.262,11.138,8.940,11.661,8.760,5.486,-0.063,0.930,-0.428,-1.160,-0.336,0.916,60.000,81383.000,1.000
22.958,22.848,10.742,13.238,10.366,11.995,8.086,6.059,-0.064,0.929,-0.427,-1.160,-0.366,0.946,60.000,81384.000,1.000
20.704,21.291,10.873,14.106,9.885,11.246,6.314,5.832,-0.065,0.928,-0.428,-1.190,-0.366,0.854,60.000,81385.000,1.000
17.774,18.776,9.879,14.291,8.728,10.487,4.537,5.488,-0.062,0.926,-0.427,-1.129,-0.275,0.732,60.000,81386.000,1.000
16.177,16.985,8.455,14.516,8.347,10.716,3.958,5.385,-0.066,0.925,-0.423,-1.068,-0.305,0.732,60.000,81387.000,1.000
15.983,16.304,6.966,14.763,8.913,11.847,4.522,5.145,-0.068,0.926,-0.420,-1.068,-0.275,0.702,60.000,81388.000,1.000
15.750,15.840,5.467,14.559,9.585,12.972,5.167,4.216,-0.065,0.926,-0.421,-1.099,-0.244,0.580,60.000,81389.000,1.000
14.614,14.769,4.085,13.722,9.681,13.284,4.928,2.539,-0.064,0.922,-0.421,-1.129,-0.122,0.488,60.000,81390.000,1.000
13.280,13.178,3.167,12.611,9.240,12.602,3.626,0.730,-0.066,0.923,-0.423,-1.038,-0.092,0.458,60.000,81391.000,1.000
13.054,11.635,2.916,11.592,8.505,11.080,1.648,-0.532,-0.067,0.922,-0.424,-0.916,-0.092,0.275,60.000,81392.000,1.000
13.548,9.883,2.769,10.165,6.911,8.545,-1.052,-1.443,-0.067,0.921,-0.425,-0.793,-0.031,0.305,60.000,81393.000,1.000
13.503,7.494,2.223,7.771,3.839,5.146,-4.188,-2.597,-0.067,0.923,-0.421,-0.763,-0.092,0.244,60.000,81394.000,1.000
12.902,5.154,1.756,4.907,-0.176,1.931,-6.428,-3.982,-0.066,0.922,-0.422,-0.580,-0.183,0.183,60.000,81395.000,1.000
13.343,4.440,2.475,2.927,-3.556,0.234,-6.274,-4.850,-0.067,0.923,-0.424,-0.580,-0.214,0.031,60.000,81396.000,1.000
16.401,6.379,4.930,2.816,-4.948,0.593,-3.453,-4.557,-0.067,0.923,-0.424,-0.549,-0.153,0.153,60.000,81397.000,1.000
21.121,9.943,8.204,4.066,-4.563,2.091,0.212,-3.461,-0.066,0.924,-0.422,-0.641,-0.061,-0.031,60.000,81398.000,1.000
25.097,13.156,10.873,5.475,-3.509,3.372,2.546,-2.437,-0.066,0.925,-0.421,-0.610,-0.092,-0.031,60.000,81399.000,1.000
26.941,14.922,12.182,6.244,-2.653,3.671,2.819,-2.050,-0.066,0.927,-0.423,-0.519,-0.122,-0.031,60.000,81400.000,1.000
27.197,15.560,12.210,6.224,-2.288,2.938,1.729,-2.256,-0.065,0.928,-0.422,-0.488,-0.153,0.000,60.000,81401.000,1.000
27.489,16.272,11.535,5.806,-2.110,1.804,0.795,-2.512,-0.065,0.929,-0.423,-0.580,-0.122,0.153,60.000,81402.000,1.000
28.013,17.418,10.477,5.170,-1.837,1.060,1.149,-2.432,-0.065,0.929,-0.424,-0.549,-0.153,0.092,60.000,81403.000,1.000
27.498,18.152,9.040,4.217,-1.382,1.210,2.967,-2.039,-0.066,0.928,-0.425,-0.549,-0.061,0.153,60.000,81404.000,1.000
25.107,17.527,7.263,3.015,-0.661,2.153,5.332,-1.446,-0.066,0.930,-0.425,-0.732,-0.122,0.305,60.000,81405.000,1.000
21.613,15.564,5.451,2.076,0.519,3.273,6.881,-0.476,-0.066,0.931,-0.426,-0.763,-0.092,0.305,60.000,81406.000,1.000
18.572,13.191,3.937,1.980,2.203,3.807,6.814,1.035,-0.064,0.931,-0.426,-0.763,0.000,0.366,60.000,81407.000,1.000
15.886,10.845,2.449,2.482,3.687,2.943,4.734,2.557,-0.065,0.932,-0.430,-0.793,-0.122,0.488,60.000,81408.000,1.000
12.365,8.416,0.635,2.917,4.217,0.596,1.171,3.374,-0.065,0.933,-0.429,-0.885,-0.031,0.671,60.000,81409.000,1.000
7.763,6.046,-1.230,3.024,4.008,-2.177,-2.080,3.463,-0.065,0.931,-0.429,-0.824,-0.153,0.732,60.000,81410.000,1.000
3.283,4.310,-2.457,3.045,4.106,-3.895,-3.007,3.583,-0.066,0.931,-0.426,-0.885,-0.092,0.671,60.000,81411.000,1.000
0.370,3.729,-2.736,3.257,5.267,-3.794,-0.905,4.533,-0.067,0.929,-0.427,-0.977,-0.244,0.732,60.000,81412.000,1.000
-1.215,3.882,-2.703,3.371,6.876,-2.478,2.622,6.287,-0.068,0.929,-0.427,-0.946,-0.366,0.671,60.000,81413.000,1.000
-2.561,3.997,-3.169,3.059,7.656,-1.056,5.202,8.123,-0.070,0.929,-0.428,-1.068,-0.488,0.793,60.000,81414.000,1.000
-4.207,3.693,-4.399,2.328,6.832,-0.276,5.477,9.108,-0.071,0.929,-0.425,-1.038,-0.580,0.641,60.000,81415.000,1.000
-5.851,3.050,-5.998,1.393,4.612,-0.282,3.548,8.659,-0.072,0.928,-0.427,-1.129,-0.732,0.580,60.000,81416.000,1.000
-6.670,2.408,-7.233,0.507,1.994,-0.697,0.582,6.912,-0.073,0.929,-0.426,-1.099,-0.885,0.549,60.000,81417.000,1.000
-6.823,1.430,-7.898,-0.526,-0.312,-1.286,-2.497,4.414,-0.072,0.931,-0.420,-1.251,-1.068,0.488,60.000,81418.000,1.000
-7.232,-0.743,-8.324,-2.061,-2.205,-1.986,-5.088,1.924,-0.072,0.929,-0.424,-1.221,-1.160,0.519,60.000,81419.000,1.000
-8.583,-4.565,-8.952,-4.150,-3.881,-2.696,-6.681,0.142,-0.072,0.928,-0.425,-1.282,-1.373,0.427,60.000,81420.000,1.000
-10.681,-9.411,-9.963,-6.312,-5.390,-3.202,-7.024,-0.473,-0.071,0.929,-0.424,-1.404,-1.404,0.366,60.000,81421.000,1.000
-12.382,-13.711,-11.077,-7.669,-6.361,-3.122,-6.083,0.324,-0.069,0.929,-0.424,-1.373,-1.404,0.366,60.000,81422.000,1.000
-13.033,-16.397,-12.005,-7.847,-6.642,-2.350,-4.439,2.234,-0.067,0.929,-0.425,-1.434,-1.526,0.397,60.000,81423.000,1.000
-12.495,-17.165,-12.428,-7.089,-6.366,-0.995,-2.793,4.465,-0.063,0.928,-0.425,-1.495,-1.617,0.397,60.000,81424.000,1.000
-10.735,-16.086,-12.090,-5.988,-5.765,0.677,-1.662,5.936,-0.061,0.929,-0.425,-1.526,-1.587,0.458,60.000,81425.000,1.000
-8.035,-13.673,-11.148,-5.300,-5.270,2.061,-1.630,5.448,-0.061,0.930,-0.425,-1.556,-1.495,0.458,60.000,81426.000,1.000
-4.935,-10.826,-10.054,-5.501,-5.353,2.466,-2.972,2.298,-0.060,0.929,-0.427,-1.617,-1.434,0.519,60.000,81427.000,1.000
-2.508,-8.793,-9.371,-6.731,-6.392,1.456,-5.474,-3.005,-0.058,0.929,-0.427,-1.678,-1.343,0.641,60.000,81428.000,1.000
-1.434,-8.334,-9.269,-8.659,-8.241,-0.725,-8.216,-8.637,-0.058,0.928,-0.426,-1.770,-1.251,0.671,60.000,81429.000,1.000
-1.687,-9.416,-9.539,-10.779,-10.434,-3.535,-10.267,-12.590,-0.057,0.926,-0.427,-1.740,-1.099,0.732,60.000,81430.000,1.000
-2.916,-11.423,-9.849,-12.645,-12.523,-6.602,-11.428,-13.754,-0.060,0.926,-0.427,-1.709,-1.007,0.671,60.000,81431.000,1.000
-4.371,-13.203,-9.704,-13.636,-13.928,-9.451,-11.820,-12.093,-0.061,0.925,-0.422,-1.678,-0.946,0.671,60.000,81432.000,1.000
-5.692,-13.927,-8.806,-13.277,-14.293,-11.518,-11.804,-8.571,-0.066,0.925,-0.422,-1.709,-0.885,0.610,60.000,81433.000,1.000
-6.602,-13.229,-7.102,-11.336,-13.486,-12.181,-11.435,-4.467,-0.066,0.923,-0.424,-1.709,-0.854,0.641,60.000,81434.000,1.000
-6.720,-11.056,-4.852,-7.995,-11.527,-11.053,-10.354,-0.698,-0.068,0.924,-0.424,-1.709,-0.854,0.488,60.000,81435.000,1.000
-6.149,-7.918,-2.751,-4.042,-8.773,-8.372,-8.364,2.252,-0.070,0.924,-0.424,-1.709,-0.763,0.427,60.000,81436.000,1.000
-5.530,-4.820,-1.669,-0.625,-5.854,-5.072,-5.748,3.990,-0.069,0.929,-0.425,-1.740,-0.854,0.244,60.000,81437.000,1.000
-6.148,-3.142,-2.414,1.073,-3.640,-2.688,-3.548,4.096,-0.069,0.928,-0.424,-1.862,-0.854,0.183,60.000,81438.000,1.000
-8.567,-3.526,-4.985,0.772,-2.531,-2.341,-2.592,2.957,-0.069,0.931,-0.428,-1.984,-0.977,0.183,60.000,81439.000,1.000
-12.024,-5.371,-8.426,-0.666,-2.253,-3.997,-2.779,1.870,-0.069,0.932,-0.424,-2.197,-0.946,0.122,60.000,81440.000,1.000
-15.318,-7.575,-11.456,-2.061,-2.400,-6.597,-3.287,1.701,-0.067,0.935,-0.423,-2.289,-0.916,0.092,60.000,81441.000,1.000
-17.478,-9.223,-13.116,-2.735,-2.779,-8.744,-3.102,1.879,-0.065,0.936,-0.424,-2.380,-0.916,0.031,60.000,81442.000,1.000
-18.560,-10.238,-13.422,-3.052,-3.686,-9.896,-2.325,0.902,-0.065,0.937,-0.420,-2.502,-0.916,-0.061,60.000,81443.000,1.000
-18.739,-10.754,-12.850,-3.633,-5.218,-10.347,-1.787,-2.032,-0.065,0.937,-0.423,-2.594,-0.885,-0.031,60.000,81444.000,1.000
-17.580,-10.505,-11.534,-4.415,-6.695,-10.344,-1.719,-6.202,-0.063,0.935,-0.422,-2.808,-0.793,0.031,60.000,81445.000,1.000
-14.591,-9.147,-9.185,-4.721,-7.127,-9.641,-1.426,-9.732,-0.064,0.935,-0.421,-2.899,-0.671,0.031,60.000,81446.000,1.000
-9.740,-6.580,-5.511,-3.909,-5.946,-7.818,0.007,-10.645,-0.065,0.934,-0.422,-3.052,-0.610,0.031,60.000,81447.000,1.000
-4.240,-3.410,-0.924,-2.199,-3.678,-5.235,2.162,-8.456,-0.066,0.935,-0.422,-3.143,-0.549,0.031,60.000,81448.000,1.000
0.310,-0.511,3.587,-0.477,-1.554,-2.983,3.510,-4.789,-0.067,0.934,-0.423,-3.143,-0.458,0.122,60.000,81449.000,1.000
2.849,1.311,6.891,0.238,-0.822,-2.109,2.768,-2.356,-0.067,0.935,-0.421,-3.113,-0.427,0.214,60.000,81450.000,1.000
3.108,1.436,8.244,-0.604,-2.146,-2.945,-0.200,-2.932,-0.064,0.932,-0.422,-2.991,-0.397,0.183,60.000,81451.000,1.000
1.924,0.098,7.863,-2.487,-4.990,-4.808,-4.134,-6.050,-0.065,0.932,-0.420,-2.960,-0.305,0.275,60.000,81452.000,1.000
0.234,-1.771,6.577,-4.371,-8.114,-6.563,-7.464,-9.717,-0.063,0.931,-0.418,-2.930,-0.122,0.275,60.000,81453.000,1.000
-1.170,-2.901,5.344,-5.293,-10.245,-7.200,-9.005,-11.989,-0.063,0.931,-0.415,-2.930,-0.031,0.305,60.000,81454.000,1.000
-1.672,-2.434,4.708,-4.787,-10.719,-6.422,-8.462,-12.200,-0.066,0.930,-0.418,-2.808,0.031,0.427,60.000,81455.000,1.000
-1.216,-0.705,4.544,-3.132,-9.811,-4.863,-6.614,-10.962,-0.069,0.926,-0.419,-2.594,0.122,0.488,60.000,81456.000,1.000
-0.249,1.048,4.397,-1.125,-8.345,-3.424,-4.550,-9.386,-0.067,0.925,-0.419,-2.502,0.061,0.488,60.000,81457.000,1.000
-0.029,1.307,3.710,0.259,-7.257,-2.710,-3.241,-8.475,-0.067,0.925,-0.417,-2.350,0.153,0.610,60.000,81458.000,1.000
-1.633,-0.585,2.295,0.643,-6.869,-2.633,-2.909,-8.419,-0.066,0.924,-0.417,-2.106,0.153,0.549,60.000,81459.000,1.000
-5.162,-4.163,0.367,0.287,-6.869,-2.798,-3.148,-8.620,-0.065,0.921,-0.420,-1.923,0.153,0.549,60.000,81460.000,1.000
-9.654,-8.309,-1.702,-0.326,-6.741,-2.926,-3.448,-8.334,-0.063,0.922,-0.416,-1.801,0.214,0.702,60.000,81461.000,1.000
-13.214,-11.607,-3.396,-0.620,-5.891,-2.681,-3.099,-7.150,-0.064,0.925,-0.418,-1.556,0.366,0.732,60.000,81462.000,1.000
-14.767,-13.420,-4.521,-0.556,-4.276,-2.007,-1.912,-5.500,-0.064,0.926,-0.420,-1.373,0.336,0.732,60.000,81463.000,1.000
-14.502,-13.987,-5.128,-0.509,-2.354,-1.131,-0.219,-4.211,-0.065,0.927,-0.414,-1.190,0.336,0.671,60.000,81464.000,1.000
-13.291,-13.787,-5.194,-0.737,-0.573,-0.250,1.680,-3.478,-0.066,0.928,-0.415,-0.977,0.519,0.732,60.000,81465.000,1.000
-12.191,-13.301,-4.651,-1.249,0.744,0.526,3.610,-2.675,-0.066,0.929,-0.416,-0.916,0.427,0.732,60.000,81466.000,1.000
-11.540,-12.721,-3.502,-1.808,1.518,1.098,5.445,-1.210,-0.067,0.929,-0.417,-0.824,0.427,0.732,60.000,81467.000,1.000
-10.946,-11.901,-1.998,-2.101,1.987,1.300,6.833,0.803,-0.067,0.927,-0.416,-0.793,0.519,0.732,60.000,81468.000,1.000
-9.325,-10.167,-0.259,-1.625,2.929,1.328,7.776,3.136,-0.068,0.927,-0.414,-0.793,0.458,0.671,60.000,81469.000,1.000
-6.186,-7.210,1.652,-0.263,4.908,1.512,8.447,5.613,-0.066,0.931,-0.416,-0.641,0.458,0.549,60.000,81470.000,1.000
-2.568,-3.902,3.490,1.292,7.482,1.790,8.673,7.767,-0.068,0.931,-0.417,-0.488,0.549,0.519,60.000,81471.000,1.000
0.492,-1.226,5.183,2.330,9.847,1.953,8.611,9.161,-0.067,0.931,-0.418,-0.458,0.488,0.519,60.000,81472.000,1.000
2.810,0.543,6.732,2.557,11.442,1.796,8.708,9.688,-0.068,0.930,-0.418,-0.458,0.488,0.580,60.000,81473.000,1.000
4.995,1.880,8.089,2.138,12.222,1.407,9.347,9.569,-0.067,0.931,-0.419,-0.336,0.427,0.488,60.000,81474.000,1.000
7.068,2.996,8.844,1.156,12.150,0.953,10.222,8.908,-0.065,0.931,-0.416,-0.305,0.366,0.519,60.000,81475.000,1.000
7.693,3.119,8.189,-0.716,10.745,0.181,10.102,7.565,-0.066,0.930,-0.416,-0.366,0.397,0.336,60.000,81476.000,1.000
6.072,1.665,5.769,-3.464,7.894,-1.174,8.064,5.747,-0.069,0.928,-0.416,-0.427,0.427,0.336,60.000,81477.000,1.000
3.041,-0.817,2.140,-6.394,4.367,-2.864,4.270,4.163,-0.067,0.926,-0.417,-0.488,0.580,0.061,60.000,81478.000,1.000
0.467,-2.858,-1.477,-8.470,1.373,-4.098,-0.094,3.530,-0.067,0.925,-0.420,-0.214,0.549,-0.031,60.000,81479.000,1.000
-1.031,-3.665,-4.255,-9.317,-0.714,-4.452,-4.103,3.718,-0.069,0.926,-0.419,0.092,0.397,0.244,60.000,81480.000,1.000
-2.966,-4.056,-6.267,-9.560,-2.707,-4.326,-7.765,3.661,-0.068,0.927,-0.414,0.153,0.275,0.305,60.000,81481.000,1.000
-6.487,-5.048,-7.694,-9.776,-5.197,-4.076,-10.757,2.461,-0.066,0.926,-0.417,0.214,0.092,0.336,60.000,81482.000,1.000
-10.795,-6.662,-8.400,-9.917,-7.721,-3.657,-12.220,0.224,-0.065,0.929,-0.417,0.244,0.031,0.336,60.000,81483.000,1.000
-13.726,-8.008,-8.132,-9.479,-9.172,-2.955,-11.600,-2.029,-0.065,0.929,-0.419,0.427,0.031,0.305,60.000,81484.000,1.000
-14.361,-8.704,-7.296,-8.443,-9.120,-2.360,-9.710,-3.455,-0.067,0.929,-0.419,0.458,0.000,0.397,60.000,81485.000,1.000
-14.193,-9.514,-7.016,-7.521,-8.325,-2.525,-8.421,-4.046,-0.064,0.929,-0.417,0.458,0.000,0.458,60.000,81486.000,1.000
-14.463,-10.783,-7.789,-6.944,-7.442,-3.270,-8.529,-4.030,-0.064,0.929,-0.419,0.366,0.000,0.336,60.000,81487.000,1.000
-14.265,-11.579,-8.820,-5.987,-6.264,-3.600,-9.088,-3.509,-0.066,0.928,-0.419,0.519,-0.031,0.488,60.000,81488.000,1.000
-11.375,-10.391,-8.634,-3.696,-4.211,-2.617,-8.461,-2.771,-0.065,0.928,-0.420,0.549,-0.061,0.488,60.000,81489.000,1.000
-5.554,-6.875,-6.593,-0.234,-1.492,-0.477,-6.250,-2.597,-0.065,0.928,-0.418,0.702,-0.092,0.519,60.000,81490.000,1.000
0.243,-2.380,-3.410,3.040,0.915,1.837,-3.671,-3.599,-0.066,0.929,-0.420,0.702,-0.122,0.427,60.000,81491.000,1.000
3.286,1.726,0.005,5.094,2.626,3.807,-1.469,-5.300,-0.067,0.929,-0.421,0.763,-0.153,0.397,60.000,81492.000,1.000
3.581,4.774,3.071,5.774,3.903,5.484,0.749,-6.590,-0.069,0.930,-0.423,0.732,-0.214,0.244,60.000,81493.000,1.000
3.414,6.691,5.374,5.500,5.011,6.820,3.477,-6.588,-0.069,0.930,-0.422,0.641,-0.336,0.214,60.000,81494.000,1.000
4.177,7.396,6.349,4.605,5.784,7.204,5.915,-5.185,-0.068,0.928,-0.421,0.671,-0.275,0.122,60.000,81495.000,1.000
4.349,6.396,5.563,3.079,5.708,5.901,6.181,-2.967,-0.068,0.927,-0.423,0.702,-0.427,0.153,60.000,81496.000,1.000
2.321,4.022,3.640,1.370,4.919,3.258,3.754,-0.549,-0.068,0.928,-0.425,0.702,-0.519,0.061,60.000,81497.000,1.000
-0.693,2.110,2.090,0.541,4.505,0.788,0.434,1.705,-0.068,0.927,-0.424,0.580,-0.488,0.031,60.000,81498.000,1.000
-1.441,2.816,2.214,1.424,5.621,0.128,-1.032,3.533,-0.072,0.925,-0.428,0.702,-0.702,0.000,60.000,81499.000,1.000
0.991,6.136,3.806,3.366,7.950,1.616,0.468,4.289,-0.071,0.922,-0.428,0.763,-0.916,-0.244,60.000,81500.000,1.000
3.269,9.355,5.194,4.470,9.609,3.978,3.528,3.144,-0.072,0.925,-0.427,0.824,-1.068,-0.183,60.000,81501.000,1.000
2.142,10.003,5.069,3.743,9.274,5.676,6.179,0.293,-0.071,0.926,-0.427,0.763,-1.221,-0.275,60.000,81502.000,1.000
-1.339,8.317,3.756,2.251,7.669,6.105,7.437,-2.586,-0.071,0.923,-0.425,0.793,-1.312,-0.519,60.000,81503.000,1.000
-2.411,7.018,2.906,2.225,7.074,5.938,7.758,-3.283,-0.072,0.926,-0.429,0.793,-1.373,-0.488,60.000,81504.000,1.000
1.750,8.265,3.661,4.692,8.977,6.087,7.846,-0.954,-0.072,0.926,-0.428,0.763,-1.617,-0.519,60.000,81505.000,1.000
8.231,11.247,5.430,8.288,12.458,6.630,7.501,3.130,-0.073,0.926,-0.427,0.885,-1.648,-0.488,60.000,81506.000,1.000
12.266,13.834,6.983,10.964,15.593,7.418,6.873,7.070,-0.071,0.928,-0.427,0.732,-1.709,-0.702,60.000,81507.000,1.000
12.628,15.201,7.826,11.994,17.473,8.774,7.292,10.018,-0.073,0.929,-0.431,0.610,-1.740,-0.641,60.000,81508.000,1.000
12.235,16.235,8.369,12.259,18.569,11.188,10.186,12.307,-0.071,0.930,-0.426,0.519,-1.831,-0.610,60.000,81509.000,1.000
13.181,17.237,8.684,12.432,19.095,14.121,14.774,14.048,-0.069,0.927,-0.426,0.397,-1.892,-0.549,60.000,81510.000,1.000
13.283,16.473,7.898,11.722,17.956,15.777,17.767,14.391,-0.069,0.926,-0.429,0.427,-1.953,-0.427,60.000,81511.000,1.000
9.487,12.249,5.418,9.138,14.099,14.681,16.432,12.550,-0.070,0.926,-0.432,0.397,-1.831,-0.397,60.000,81512.000,1.000
2.221,5.178,1.809,4.905,7.850,10.767,10.759,8.717,-0.068,0.927,-0.428,0.397,-1.801,-0.305,60.000,81513.000,1.000
-4.295,-1.756,-1.447,0.531,0.998,5.317,3.161,3.963,-0.067,0.927,-0.428,0.366,-1.801,-0.244,60.000,81514.000,1.000
-6.487,-5.702,-3.178,-2.618,-4.577,-0.081,-3.834,-0.663,-0.066,0.923,-0.432,0.305,-1.709,-0.183,60.000,81515.000,1.000
-4.905,-6.137,-3.276,-4.286,-8.072,-4.408,-9.286,-4.447,-0.064,0.923,-0.434,0.366,-1.709,-0.031,60.000,81516.000,1.000
-2.115,-4.126,-2.106,-4.592,-9.334,-7.032,-12.959,-6.517,-0.062,0.923,-0.434,0.275,-1.617,0.214,60.000,81517.000,1.000
0.239,-1.117,-0.138,-3.581,-8.583,-7.701,-14.506,-6.168,-0.063,0.923,-0.431,0.427,-1.556,0.275,60.000,81518.000,1.000
2.352,1.830,2.159,-1.322,-6.439,-6.656,-13.431,-3.648,-0.064,0.928,-0.431,0.366,-1.465,0.244,60.000,81519.000,1.000
4.499,4.006,4.147,1.589,-4.042,-4.738,-9.965,-0.498,-0.064,0.930,-0.431,0.305,-1.312,0.427,60.000,81520.000,1.000
5.581,4.846,5.116,3.998,-2.715,-3.050,-5.584,1.269,-0.063,0.931,-0.430,0.275,-1.282,0.519,60.000,81521.000,1.000
4.832,4.603,4.993,5.211,-2.874,-2.132,-1.778,0.783,-0.065,0.933,-0.432,0.061,-1.068,0.671,60.000,81522.000,1.000
2.956,4.127,4.271,5.351,-3.817,-1.994,0.807,-1.104,-0.065,0.937,-0.426,-0.092,-1.007,0.641,60.000,81523.000,1.000
1.776,4.194,3.541,5.063,-4.268,-2.330,2.575,-2.575,-0.064,0.939,-0.425,-0.183,-0.977,0.702,60.000,81524.000,1.000
2.398,4.802,2.935,4.758,-3.436,-2.723,4.173,-2.361,-0.062,0.937,-0.423,-0.488,-0.916,0.732,60.000,81525.000,1.000
4.011,5.133,2.134,4.279,-1.659,-2.792,5.602,-0.655,-0.061,0.934,-0.421,-0.641,-0.824,0.763,60.000,81526.000,1.000
5.402,4.742,1.158,3.541,0.277,-2.142,6.677,1.477,-0.061,0.929,-0.425,-0.824,-0.671,0.702,60.000,81527.000,1.000
6.020,3.956,0.462,2.661,1.700,-0.796,7.160,3.048,-0.060,0.927,-0.427,-0.946,-0.549,0.732,60.000,81528.000,1.000
6.347,3.598,0.634,1.932,2.430,0.812,6.958,3.786,-0.062,0.923,-0.426,-1.038,-0.366,0.763,60.000,81529.000,1.000
7.004,4.181,1.827,1.602,2.630,1.993,6.000,3.951,-0.061,0.921,-0.426,-1.068,-0.305,0.702,60.000,81530.000,1.000
7.714,5.342,3.474,1.638,2.402,2.007,4.031,3.847,-0.060,0.921,-0.430,-1.038,-0.214,0.671,60.000,81531.000,1.000
7.929,6.489,4.843,1.956,2.005,0.760,1.335,3.687,-0.062,0.921,-0.427,-1.129,-0.061,0.732,60.000,81532.000,1.000
6.947,6.930,5.304,2.264,1.643,-1.152,-1.390,3.393,-0.060,0.926,-0.426,-1.190,-0.031,0.763,60.000,81533.000,1.000
4.461,6.099,4.595,2.209,1.325,-2.883,-3.380,2.748,-0.058,0.929,-0.426,-1.282,0.061,0.763,60.000,81534.000,1.000
1.090,3.995,2.978,1.655,0.966,-3.790,-4.084,1.738,-0.058,0.930,-0.427,-1.373,0.214,0.793,60.000,81535.000,1.000
-1.698,1.536,1.284,0.910,0.692,-3.441,-3.209,0.877,-0.058,0.933,-0.429,-1.556,0.397,0.793,60.000,81536.000,1.000
-2.018,0.491,0.786,0.753,1.048,-1.387,-0.506,1.043,-0.058,0.933,-0.429,-1.831,0.458,0.702,60.000,81537.000,1.000
0.457,1.881,2.078,1.498,2.096,2.188,3.395,2.493,-0.063,0.936,-0.424,-1.923,0.549,0.763,60.000,81538.000,1.000
4.387,5.181,4.612,2.744,3.150,6.312,7.243,4.576,-0.069,0.937,-0.425,-2.045,0.549,0.732,60.000,81539.000,1.000
8.433,8.961,7.328,3.977,3.524,9.889,10.234,6.321,-0.074,0.937,-0.425,-2.167,0.488,0.702,60.000,81540.000,1.000
12.368,11.934,9.535,5.086,3.191,12.311,12.315,7.085,-0.079,0.936,-0.427,-2.289,0.275,0.488,60.000,81541.000,1.000
16.819,13.695,11.164,6.208,2.618,13.493,13.706,6.569,-0.080,0.933,-0.425,-2.380,0.183,0.519,60.000,81542.000,1.000
20.923,13.858,11.935,6.716,1.553,13.062,13.607,4.273,-0.081,0.931,-0.424,-2.411,-0.092,0.305,60.000,81543.000,1.000
22.439,11.900,11.378,5.502,-0.836,10.631,10.907,0.063,-0.081,0.930,-0.423,-2.441,-0.244,0.336,60.000,81544.000,1.000
20.325,8.146,9.552,2.323,-4.577,6.750,6.016,-4.933,-0.078,0.928,-0.423,-2.411,-0.519,0.244,60.000,81545.000,1.000
16.064,4.113,7.199,-1.632,-8.305,2.958,1.042,-8.732,-0.078,0.929,-0.424,-2.350,-0.702,0.214,60.000,81546.000,1.000
12.359,1.687,5.157,-4.490,-10.079,0.889,-1.701,-9.872,-0.075,0.929,-0.423,-2.228,-0.916,0.183,60.000,81547.000,1.000
9.834,1.419,3.377,-5.367,-9.145,0.991,-1.923,-8.521,-0.072,0.929,-0.423,-2.106,-1.099,0.305,60.000,81548.000,1.000
7.052,2.606,1.334,-4.589,-6.203,2.618,-1.035,-5.974,-0.072,0.928,-0.421,-2.167,-1.190,0.305,60.000,81549.000,1.000
3.210,4.489,-0.961,-2.825,-2.416,4.946,-0.129,-3.543,-0.071,0.931,-0.421,-2.167,-1.312,0.305,60.000,81550.000,1.000
-0.607,6.609,-2.848,-0.612,1.210,7.399,0.886,-1.931,-0.071,0.930,-0.424,-2.136,-1.373,0.427,60.000,81551.000,1.000
-2.462,8.667,-3.654,1.677,3.942,9.567,2.600,-1.054,-0.069,0.928,-0.423,-2.045,-1.404,0.488,60.000,81552.000,1.000
-2.153,10.005,-3.564,3.454,5.098,10.863,4.605,-0.451,-0.066,0.927,-0.425,-2.014,-1.434,0.580,60.000,81553.000,1.000
-1.089,10.029,-3.287,4.288,4.546,11.000,5.925,0.406,-0.068,0.926,-0.421,-1.984,-1.404,0.732,60.000,81554.000,1.000
-0.470,8.640,-3.431,4.198,2.854,10.182,6.064,1.638,-0.066,0.926,-0.422,-1.862,-1.404,0.824,60.000,81555.000,1.000
-0.558,6.039,-4.380,3.295,0.638,8.552,4.994,2.564,-0.067,0.924,-0.421,-1.648,-1.312,0.763,60.000,81556.000,1.000
-0.824,2.843,-6.116,1.754,-1.634,6.064,3.008,2.252,-0.064,0.924,-0.421,-1.678,-1.282,0.946,60.000,81557.000,1.000
-1.339,-0.272,-8.301,-0.185,-3.692,2.588,0.131,0.418,-0.061,0.925,-0.420,-1.587,-1.221,1.038,60.000,81558.000,1.000
-2.479,-2.555,-10.174,-1.836,-5.101,-1.523,-3.429,-1.992,-0.062,0.922,-0.420,-1.434,-1.068,1.038,60.000,81559.000,1.000
-3.930,-3.281,-10.893,-2.237,-5.240,-5.346,-6.764,-3.375,-0.062,0.924,-0.420,-1.373,-0.946,1.038,60.000,81560.000,1.000
-4.897,-2.377,-10.248,-0.968,-3.904,-8.111,-8.885,-2.664,-0.063,0.925,-0.422,-1.312,-0.885,1.007,60.000,81561.000,1.000
-4.721,-0.505,-8.779,1.503,-1.553,-9.614,-9.351,0.019,-0.061,0.924,-0.419,-1.129,-0.702,0.916,60.000,81562.000,1.000
-4.157,0.946,-7.611,3.838,0.629,-10.316,-8.883,3.313,-0.061,0.924,-0.423,-1.099,-0.519,0.885,60.000,81563.000,1.000
-4.649,0.785,-7.574,4.817,1.532,-10.777,-8.541,5.671,-0.062,0.926,-0.423,-1.068,-0.458,0.854,60.000,81564.000,1.000
-6.706,-1.115,-8.668,4.113,0.863,-11.347,-8.783,6.456,-0.062,0.926,-0.422,-0.977,-0.397,0.854,60.000,81565.000,1.000
-9.443,-3.858,-10.274,2.223,-0.812,-12.104,-9.351,6.053,-0.059,0.925,-0.421,-0.946,-0.244,0.763,60.000,81566.000,1.000
-11.037,-6.024,-11.375,0.237,-2.245,-12.491,-9.198,5.361,-0.059,0.926,-0.422,-0.793,-0.061,0.641,60.000,81567.000,1.000
-10.869,-7.149,-11.330,-1.083,-2.557,-11.908,-7.675,4.957,-0.055,0.926,-0.423,-0.732,0.092,0.549,60.000,81568.000,1.000
-9.799,-7.913,-10.192,-1.681,-1.788,-10.446,-5.245,4.841,-0.055,0.925,-0.425,-0.732,0.275,0.610,60.000,81569.000,1.000
-8.703,-9.067,-8.454,-1.929,-0.643,-8.955,-3.146,4.588,-0.057,0.924,-0.423,-0.702,0.488,0.427,60.000,81570.000,1.000
-7.769,-10.945,-6.710,-2.355,-0.120,-8.557,-2.842,3.618,-0.057,0.924,-0.423,-0.519,0.671,0.458,60.000,81571.000,1.000
-6.460,-13.330,-5.324,-3.298,-0.905,-9.851,-5.137,1.633,-0.058,0.923,-0.425,-0.519,0.854,0.275,60.000,81572.000,1.000
-4.824,-15.976,-4.587,-4.951,-3.200,-12.617,-9.840,-1.233,-0.060,0.923,-0.426,-0.366,1.007,0.275,60.000,81573.000,1.000
-3.468,-18.575,-4.416,-7.092,-6.447,-15.555,-15.280,-4.289,-0.060,0.925,-0.427,-0.275,1.038,0.366,60.000,81574.000,1.000
-2.512,-20.455,-4.154,-9.040,-9.450,-16.787,-18.932,-6.527,-0.061,0.924,-0.426,-0.214,1.160,0.397,60.000,81575.000,1.000
-1.311,-20.821,-3.116,-10.123,-11.140,-15.201,-19.189,-7.182,-0.063,0.928,-0.423,-0.122,1.282,0.275,60.000,81576.000,1.000
1.115,-19.215,-1.165,-10.018,-11.164,-11.170,-16.057,-6.132,-0.065,0.927,-0.423,-0.061,1.221,0.214,60.000,81577.000,1.000
4.319,-16.450,0.968,-9.179,-10.298,-6.307,-11.049,-4.205,-0.066,0.929,-0.427,-0.031,1.312,0.244,60.000,81578.000,1.000
6.664,-14.074,2.422,-8.365,-9.681,-2.177,-5.895,-2.646,-0.066,0.928,-0.423,-0.122,1.221,0.244,60.000,81579.000,1.000
6.940,-13.036,2.811,-8.043,-9.906,0.394,-1.766,-2.354,-0.067,0.928,-0.424,-0.153,1.221,0.244,60.000,81580.000,1.000
5.075,-13.315,2.127,-8.343,-10.978,1.054,0.416,-3.596,-0.070,0.926,-0.425,-0.122,1.068,0.244,60.000,81581.000,1.000
2.152,-14.210,0.827,-8.975,-12.352,0.031,0.476,-5.858,-0.073,0.927,-0.426,-0.153,0.916,0.275,60.000,81582.000,1.000
-0.997,-15.397,-0.490,-9.594,-13.403,-1.927,-0.879,-8.134,-0.072,0.928,-0.424,-0.275,0.854,0.244,60.000,81583.000,1.000
-3.957,-16.912,-1.368,-9.907,-13.637,-3.824,-2.393,-9.370,-0.076,0.930,-0.421,-0.244,0.702,0.305,60.000,81584.000,1.000
-6.212,-18.508,-1.662,-9.728,-12.825,-4.910,-3.090,-9.075,-0.076,0.930,-0.424,-0.183,0.488,0.366,60.000,81585.000,1.000
-7.520,-19.726,-1.580,-9.156,-11.227,-5.045,-2.900,-7.659,-0.076,0.930,-0.427,-0.244,0.214,0.366,60.000,81586.000,1.000
-8.012,-20.171,-1.388,-8.397,-9.336,-4.512,-2.101,-6.043,-0.075,0.931,-0.424,-0.275,0.000,0.305,60.000,81587.000,1.000
-8.529,-20.016,-1.397,-7.785,-7.713,-3.984,-1.248,-5.113,-0.075,0.931,-0.425,-0.397,-0.183,0.244,60.000,81588.000,1.000
-9.672,-19.489,-1.662,-7.406,-6.497,-4.084,-0.877,-5.087,-0.073,0.929,-0.425,-0.458,-0.458,0.336,60.000,81589.000,1.000
-11.198,-18.374,-1.977,-6.983,-5.323,-4.925,-1.054,-5.394,-0.073,0.930,-0.424,-0.458,-0.671,0.427,60.000,81590.000,1.000
-12.788,-16.518,-2.267,-6.331,-3.893,-6.121,-1.374,-5.189,-0.073,0.929,-0.425,-0.549,-0.793,0.488,60.000,81591.000,1.000
-14.214,-14.117,-2.623,-5.527,-2.239,-7.083,-1.233,-4.078,-0.072,0.929,-0.427,-0.580,-0.916,0.488,60.000,81592.000,1.000
-15.535,-11.816,-3.292,-4.941,-0.784,-7.566,-0.639,-2.634,-0.070,0.929,-0.429,-0.519,-1.099,0.458,60.000,81593.000,1.000
-16.380,-9.918,-4.153,-4.548,0.399,-7.333,0.460,-1.628,-0.069,0.929,-0.428,-0.488,-1.282,0.610,60.000,81594.000,1.000
-16.213,-8.327,-4.708,-3.908,1.708,-6.089,2.605,-1.324,-0.070,0.930,-0.429,-0.549,-1.526,0.610,60.000,81595.000,1.000
-15.507,-7.382,-4.793,-3.009,3.162,-4.155,5.670,-1.650,-0.069,0.930,-0.423,-0.488,-1.526,0.702,60.000,81596.000,1.000
-14.854,-7.316,-4.581,-2.194,4.443,-2.306,8.595,-2.216,-0.067,0.926,-0.422,-0.397,-1.556,0.702,60.000,81597.000,1.000
-14.423,-7.858,-4.376,-1.886,5.167,-1.370,9.721,-2.567,-0.066,0.923,-0.425,-0.427,-1.648,0.732,60.000,81598.000,1.000
-13.911,-8.419,-4.278,-2.235,5.145,-1.765,7.918,-2.507,-0.066,0.922,-0.428,-0.366,-1.678,0.702,60.000,81599.000,1.000
-12.877,-8.457,-4.089,-2.925,4.582,-3.206,3.728,-2.132,-0.063,0.921,-0.427,-0.427,-1.678,0.824,60.000,81600.000,1.000
-11.257,-7.686,-3.546,-3.315,4.083,-4.707,-0.690,-1.453,-0.061,0.921,-0.427,-0.336,-1.740,0.732,60.000,81601.000,1.000
-9.284,-6.067,-2.596,-2.896,4.316,-5.044,-2.854,-0.322,-0.059,0.923,-0.427,-0.336,-1.587,0.732,60.000,81602.000,1.000
-8.087,-4.393,-1.879,-2.129,5.025,-3.887,-2.289,0.933,-0.055,0.922,-0.428,-0.244,-1.587,0.732,60.000,81603.000,1.000
-8.446,-3.369,-1.950,-1.767,5.441,-1.721,-0.477,1.754,-0.055,0.924,-0.426,-0.183,-1.404,0.732,60.000,81604.000,1.000
-9.395,-2.365,-2.348,-1.720,5.456,0.991,0.992,2.101,-0.058,0.924,-0.427,-0.092,-1.312,0.916,60.000,81605.000,1.000
-9.270,-0.169,-1.990,-1.220,5.673,3.931,1.350,2.420,-0.062,0.925,-0.429,-0.061,-1.160,0.793,60.000,81606.000,1.000
-7.132,3.726,-0.074,0.403,6.812,6.796,0.909,3.175,-0.065,0.926,-0.424,-0.153,-1.221,0.763,60.000,81607.000,1.000
-3.977,8.235,3.047,2.729,8.722,8.945,0.217,4.329,-0.070,0.926,-0.424,-0.244,-1.160,0.610,60.000,81608.000,1.000
-1.683,11.501,6.197,4.517,10.419,9.676,-0.409,5.468,-0.073,0.927,-0.427,-0.275,-1.282,0.336,60.000,81609.000,1.000
-1.138,12.456,8.408,4.862,11.088,8.837,-0.835,6.185,-0.073,0.927,-0.428,-0.366,-1.282,0.275,60.000,81610.000,1.000
-1.707,11.558,9.467,3.932,10.772,7.076,-1.033,6.373,-0.072,0.927,-0.426,-0.549,-1.434,0.153,60.000,81611.000,1.000
-1.712,10.482,9.796,2.829,10.215,5.533,-0.709,6.328,-0.070,0.929,-0.428,-0.519,-1.526,0.122,60.000,81612.000,1.000
-0.468,10.300,9.593,2.370,9.660,4.746,0.067,6.259,-0.070,0.930,-0.430,-0.488,-1.617,-0.061,60.000,81613.000,1.000
1.545,10.898,8.900,2.755,8.823,4.609,0.987,6.266,-0.071,0.929,-0.429,-0.610,-1.587,-0.153,60.000,81614.000,1.000
3.949,11.916,8.095,4.016,7.795,5.108,2.063,6.600,-0.073,0.927,-0.429,-0.702,-1.617,-0.183,60.000,81615.000,1.000
6.540,13.168,7.635,5.953,7.084,6.331,3.265,7.444,-0.072,0.926,-0.427,-0.763,-1.678,-0.244,60.000,81616.000,1.000
8.969,14.525,7.684,7.976,7.115,8.156,4.433,8.553,-0.071,0.927,-0.430,-0.885,-1.678,-0.275,60.000,81617.000,1.000
9.982,15.304,7.839,8.983,7.561,9.975,5.220,9.002,-0.067,0.928,-0.425,-0.946,-1.770,-0.336,60.000,81618.000,1.000
8.504,14.748,7.609,8.150,7.769,11.225,5.653,7.849,-0.065,0.927,-0.424,-1.038,-1.801,-0.183,60.000,81619.000,1.000
5.147,12.939,6.886,5.705,7.541,11.892,6.251,4.936,-0.064,0.928,-0.429,-1.129,-1.709,-0.122,60.000,81620.000,1.000
1.929,10.863,5.922,2.801,7.185,12.369,7.375,1.024,-0.064,0.930,-0.429,-1.160,-1.709,-0.092,60.000,81621.000,1.000
1.163,10.000,5.322,0.996,7.304,13.224,9.244,-2.432,-0.064,0.930,-0.430,-1.129,-1.617,-0.031,60.000,81622.000,1.000
3.157,10.815,5.421,1.019,7.947,14.494,11.468,-4.217,-0.063,0.929,-0.430,-1.099,-1.648,0.092,60.000,81623.000,1.000
6.172,12.274,6.065,2.294,8.396,15.558,13.209,-4.199,-0.063,0.928,-0.430,-1.129,-1.556,0.153,60.000,81624.000,1.000
8.611,13.081,6.927,3.680,7.927,15.731,13.991,-3.224,-0.062,0.929,-0.427,-1.068,-1.556,0.214,60.000,81625.000,1.000
10.316,12.813,7.779,4.467,6.577,14.862,13.989,-2.194,-0.064,0.930,-0.426,-1.068,-1.373,0.305,60.000,81626.000,1.000
12.094,11.938,8.586,4.784,5.179,13.423,13.797,-1.365,-0.066,0.928,-0.427,-1.068,-1.312,0.458,60.000,81627.000,1.000
13.537,10.562,9.005,4.814,4.217,11.681,13.303,-0.715,-0.064,0.927,-0.427,-1.160,-1.282,0.580,60.000,81628.000,1.000
13.391,8.591,8.607,4.664,3.659,9.591,11.980,-0.200,-0.065,0.929,-0.427,-1.129,-1.038,0.549,60.000,81629.000,1.000
11.474,6.598,7.340,4.616,3.486,7.132,9.811,0.110,-0.064,0.928,-0.429,-1.099,-1.038,0.671,60.000,81630.000,1.000
8.759,5.444,5.382,4.819,3.552,4.288,7.123,-0.150,-0.064,0.926,-0.428,-1.068,-0.916,0.732,60.000,81631.000,1.000
6.569,5.726,3.144,5.225,3.547,1.379,4.472,-1.261,-0.067,0.927,-0.426,-1.007,-1.007,0.610,60.000,81632.000,1.000
5.142,7.179,1.069,5.549,3.068,-0.926,2.234,-3.005,-0.068,0.929,-0.422,-1.099,-0.885,0.549,60.000,81633.000,1.000
3.918,9.001,-0.384,5.646,2.113,-1.806,0.751,-4.463,-0.070,0.930,-0.426,-1.251,-0.854,0.549,60.000,81634.000,1.000
2.519,10.429,-0.920,5.637,1.159,-0.874,0.422,-4.543,-0.070,0.929,-0.426,-1.282,-0.916,0.488,60.000,81635.000,1.000
0.680,10.752,-0.799,5.503,0.459,1.229,1.146,-3.024,-0.070,0.928,-0.425,-1.373,-0.916,0.427,60.000,81636.000,1.000
-1.479,9.739,-0.541,5.182,-0.064,3.276,2.418,-0.841,-0.070,0.926,-0.424,-1.465,-0.885,0.397,60.000,81637.000,1.000
-3.690,7.763,-0.525,4.732,-0.610,4.253,3.345,0.712,-0.068,0.925,-0.426,-1.465,-0.854,0.305,60.000,81638.000,1.000
-5.220,5.893,-0.545,4.602,-1.034,4.117,3.348,1.342,-0.069,0.923,-0.424,-1.526,-0.824,0.244,60.000,81639.000,1.000
-5.051,5.297,-0.144,5.184,-0.986,3.534,2.662,1.692,-0.068,0.925,-0.426,-1.526,-0.916,0.214,60.000,81640.000,1.000
-2.938,6.170,0.632,6.062,-0.559,2.879,1.673,2.062,-0.069,0.926,-0.425,-1.556,-0.854,0.183,60.000,81641.000,1.000
0.776,7.887,1.353,6.438,-0.212,2.044,0.557,2.129,-0.069,0.923,-0.422,-1.495,-0.885,0.092,60.000,81642.000,1.000
4.976,9.231,1.385,5.676,-0.646,0.647,-1.052,1.466,-0.069,0.924,-0.423,-1.556,-0.916,0.031,60.000,81643.000,1.000
8.301,8.973,0.284,3.758,-2.327,-1.422,-3.489,0.072,-0.070,0.923,-0.422,-1.495,-0.854,0.000,60.000,81644.000,1.000
10.027,6.662,-1.807,1.267,-5.025,-3.745,-6.470,-1.548,-0.069,0.924,-0.424,-1.526,-0.885,0.061,60.000,81645.000,1.000
10.276,2.913,-4.102,-1.014,-7.853,-5.594,-9.254,-2.531,-0.071,0.926,-0.425,-1.617,-0.885,0.031,60.000,81646.000,1.000
10.264,-0.611,-5.328,-2.205,-9.437,-6.119,-10.670,-1.923,-0.069,0.925,-0.425,-1.526,-0.854,0.153,60.000,81647.000,1.000
10.981,-2.472,-4.751,-1.974,-8.960,-5.082,-10.114,0.390,-0.069,0.927,-0.424,-1.526,-0.977,0.153,60.000,81648.000,1.000
12.384,-2.354,-2.788,-0.829,-6.874,-3.153,-8.110,3.316,-0.070,0.928,-0.421,-1.556,-0.885,0.305,60.000,81649.000,1.000
13.672,-0.928,-0.713,0.248,-4.580,-1.453,-5.943,5.267,-0.070,0.927,-0.426,-1.587,-0.885,0.244,60.000,81650.000,1.000
13.928,0.775,0.286,0.500,-3.380,-0.747,-4.788,5.403,-0.070,0.928,-0.424,-1.770,-0.854,0.366,60.000,81651.000,1.000
13.318,2.336,0.093,0.060,-3.341,-0.746,-4.491,4.311,-0.071,0.929,-0.421,-1.770,-0.916,0.458,60.000,81652.000,1.000
12.515,3.717,-0.744,-0.586,-3.760,-0.790,-4.189,3.081,-0.072,0.931,-0.422,-1.862,-1.038,0.519,60.000,81653.000,1.000
12.277,5.074,-1.558,-0.945,-3.941,-0.484,-3.222,2.461,-0.072,0.931,-0.423,-1.862,-0.946,0.549,60.000,81654.000,1.000
13.194,6.664,-1.800,-0.607,-3.565,0.204,-1.573,2.773,-0.072,0.930,-0.426,-1.862,-1.007,0.610,60.000,81655.000,1.000
14.850,8.243,-1.382,0.325,-2.954,0.861,-0.196,3.804,-0.073,0.931,-0.424,-1.984,-1.068,0.732,60.000,81656.000,1.000
16.235,9.190,-0.587,1.272,-2.622,0.964,-0.114,4.692,-0.072,0.931,-0.423,-2.075,-1.099,0.793,60.000,81657.000,1.000
16.051,8.698,-0.025,1.413,-3.007,0.119,-1.711,4.188,-0.069,0.930,-0.428,-2.167,-1.099,0.854,60.000,81658.000,1.000
13.681,6.489,-0.176,0.438,-4.049,-1.442,-4.158,1.734,-0.070,0.929,-0.427,-2.106,-1.068,0.916,60.000,81659.000,1.000
9.722,3.275,-1.076,-1.142,-5.162,-2.870,-5.843,-1.999,-0.069,0.928,-0.427,-2.136,-1.221,0.946,60.000,81660.000,1.000
5.173,0.105,-2.449,-2.519,-5.820,-3.528,-5.829,-5.603,-0.071,0.929,-0.426,-2.075,-1.251,0.977,60.000,81661.000,1.000
1.345,-1.933,-3.589,-2.770,-5.520,-3.250,-4.066,-7.476,-0.070,0.931,-0.426,-2.075,-1.221,0.946,60.000,81662.000,1.000
-0.905,-2.308,-3.879,-1.366,-4.011,-2.387,-1.301,-6.696,-0.068,0.930,-0.427,-1.984,-1.221,0.916,60.000,81663.000,1.000
-1.513,-1.280,-3.242,1.487,-1.524,-1.520,1.421,-3.592,-0.069,0.930,-0.427,-2.045,-1.312,0.946,60.000,81664.000,1.000
-1.092,0.260,-2.139,4.830,1.245,-1.131,3.179,0.306,-0.068,0.930,-0.427,-2.014,-1.312,0.946,60.000,81665.000,1.000
-1.027,0.821,-1.407,7.098,3.176,-1.584,3.125,2.811,-0.067,0.928,-0.425,-2.045,-1.343,0.946,60.000,81666.000,1.000
-2.258,-0.724,-1.669,7.077,3.400,-2.865,1.261,2.393,-0.067,0.928,-0.424,-2.014,-1.282,1.038,60.000,81667.000,1.000
-4.554,-4.263,-3.004,4.701,1.880,-4.676,-1.537,-0.777,-0.067,0.929,-0.427,-2.014,-1.221,1.007,60.000,81668.000,1.000
-6.451,-8.186,-4.750,1.290,-0.367,-6.600,-4.173,-4.724,-0.066,0.928,-0.429,-2.136,-1.221,0.946,60.000,81669.000,1.000
-6.554,-10.496,-5.955,-1.389,-1.968,-8.340,-5.964,-6.973,-0.066,0.927,-0.427,-1.892,-1.251,0.885,60.000,81670.000,1.000
-5.172,-10.509,-6.298,-2.520,-2.426,-9.954,-7.009,-6.425,-0.065,0.926,-0.428,-1.953,-1.068,0.793,60.000,81671.000,1.000
-3.379,-8.727,-5.983,-2.236,-2.106,-11.372,-7.565,-3.888,-0.064,0.926,-0.428,-1.892,-1.099,0.793,60.000,81672.000,1.000
-2.021,-6.107,-5.263,-1.131,-1.693,-12.195,-7.921,-1.203,-0.064,0.927,-0.425,-1.862,-1.068,0.763,60.000,81673.000,1.000
-1.226,-3.373,-4.051,0.211,-1.578,-11.902,-8.190,0.193,-0.063,0.924,-0.425,-1.923,-1.007,0.793,60.000,81674.000,1.000
-0.655,-0.893,-2.131,1.337,-1.653,-10.378,-8.216,0.105,-0.062,0.926,-0.427,-1.862,-1.007,0.702,60.000,81675.000,1.000
-0.283,0.890,0.178,1.826,-1.673,-8.238,-7.981,-0.674,-0.064,0.926,-0.430,-1.678,-0.946,0.732,60.000,81676.000,1.000
-0.017,1.701,2.015,1.535,-1.399,-6.359,-7.523,-1.314,-0.063,0.924,-0.424,-1.556,-0.854,0.610,60.000,81677.000,1.000
0.020,1.349,2.372,0.489,-0.848,-5.479,-7.114,-1.710,-0.064,0.923,-0.425,-1.434,-0.824,0.610,60.000,81678.000,1.000
-0.322,-0.121,0.983,-1.016,-0.082,-5.640,-6.809,-2.038,-0.065,0.922,-0.426,-1.282,-0.793,0.580,60.000,81679.000,1.000
-1.003,-2.350,-1.514,-2.502,0.841,-6.218,-6.345,-2.363,-0.065,0.924,-0.422,-1.221,-0.793,0.427,60.000,81680.000,1.000
-2.293,-5.105,-4.390,-3.772,1.464,-6.766,-6.033,-2.723,-0.066,0.924,-0.421,-1.251,-0.854,0.458,60.000,81681.000,1.000
-4.073,-7.922,-6.985,-4.675,1.385,-7.102,-6.325,-2.788,-0.064,0.925,-0.424,-1.160,-0.702,0.397,60.000,81682.000,1.000
-5.904,-10.176,-8.781,-5.155,0.532,-7.152,-7.260,-2.087,-0.066,0.927,-0.422,-1.038,-0.671,0.549,60.000,81683.000,1.000
-7.439,-11.592,-9.579,-5.468,-1.018,-7.028,-8.481,-0.708,-0.066,0.929,-0.427,-1.129,-0.763,0.549,60.000,81684.000,1.000
-8.705,-12.566,-9.671,-6.148,-3.254,-7.187,-9.666,0.580,-0.067,0.928,-0.425,-1.007,-0.824,0.519,60.000,81685.000,1.000
-10.049,-13.820,-9.599,-7.555,-6.103,-8.109,-10.757,1.119,-0.066,0.928,-0.421,-1.038,-0.793,0.580,60.000,81686.000,1.000
-11.099,-15.304,-9.468,-9.306,-8.950,-9.502,-11.336,0.944,-0.064,0.929,-0.421,-1.007,-0.763,0.610,60.000,81687.000,1.000
-11.442,-16.548,-9.238,-10.868,-11.171,-10.636,-11.030,0.157,-0.063,0.931,-0.419,-1.129,-0.854,0.793,60.000,81688.000,1.000
-11.062,-17.160,-8.971,-11.917,-12.461,-10.899,-9.806,-1.301,-0.067,0.932,-0.421,-1.068,-0.824,0.763,60.000,81689.000,1.000
-9.730,-16.556,-8.605,-12.046,-12.519,-9.822,-7.734,-3.218,-0.067,0.931,-0.420,-1.099,-0.702,0.793,60.000,81690.000,1.000
-7.089,-14.148,-7.883,-10.817,-11.087,-7.116,-4.923,-4.961,-0.065,0.933,-0.420,-1.038,-0.702,0.763,60.000,81691.000,1.000
-2.808,-9.697,-6.345,-7.986,-8.064,-2.714,-1.069,-5.531,-0.066,0.933,-0.420,-1.068,-0.793,0.793,60.000,81692.000,1.000
2.517,-3.949,-3.829,-4.007,-3.853,2.769,3.957,-4.156,-0.064,0.932,-0.419,-1.129,-0.824,0.824,60.000,81693.000,1.000
7.683,1.741,-0.600,0.221,0.795,8.103,9.437,-0.824,-0.064,0.935,-0.417,-1.343,-0.671,0.763,60.000,81694.000,1.000
11.572,6.081,2.742,3.808,4.976,11.934,13.852,3.446,-0.066,0.936,-0.419,-1.465,-0.671,0.732,60.000,81695.000,1.000
12.834,7.788,5.258,5.839,7.518,13.152,15.398,6.781,-0.068,0.937,-0.421,-1.587,-0.610,0.671,60.000,81696.000,1.000
10.832,6.422,6.373,5.972,7.795,11.646,13.450,7.647,-0.071,0.939,-0.419,-1.709,-0.671,0.702,60.000,81697.000,1.000
6.340,3.110,6.293,4.805,6.397,8.555,9.125,6.044,-0.069,0.936,-0.415,-1.862,-0.641,0.885,60.000,81698.000,1.000
1.394,0.164,5.819,3.557,4.870,5.820,4.842,3.505,-0.067,0.937,-0.417,-1.953,-0.610,0.793,60.000,81699.000,1.000
-2.020,-0.453,5.581,3.072,4.548,5.024,2.908,1.560,-0.067,0.936,-0.417,-2.075,-0.671,0.732,60.000,81700.000,1.000
-3.351,1.626,5.555,3.212,5.610,6.389,3.854,0.675,-0.066,0.935,-0.418,-2.167,-0.702,0.702,60.000,81701.000,1.000
-2.862,5.593,5.597,3.458,7.419,8.982,6.495,0.782,-0.067,0.934,-0.418,-2.136,-0.702,0.641,60.000,81702.000,1.000
-1.460,9.775,5.550,3.212,8.822,11.129,8.601,1.544,-0.065,0.933,-0.418,-2.319,-0.671,0.519,60.000,81703.000,1.000
-0.268,12.341,5.309,2.209,8.799,11.315,8.400,2.402,-0.063,0.934,-0.419,-2.319,-0.458,0.458,60.000,81704.000,1.000
0.041,12.368,4.956,0.810,7.212,9.161,5.845,2.919,-0.063,0.929,-0.416,-2.319,-0.427,0.549,60.000,81705.000,1.000
-0.888,10.072,4.539,-0.415,4.654,5.459,2.156,2.909,-0.064,0.926,-0.418,-2.350,-0.427,0.549,60.000,81706.000,1.000
-2.590,6.756,4.168,-0.887,2.172,1.767,-0.873,2.576,-0.062,0.924,-0.422,-2.167,-0.275,0.549,60.000,81707.000,1.000
-4.031,3.995,4.038,-0.298,0.780,-0.331,-1.851,2.561,-0.062,0.921,-0.422,-2.045,-0.183,0.488,60.000,81708.000,1.000
-3.900,3.074,4.581,1.353,1.199,0.300,-0.234,3.726,-0.060,0.921,-0.423,-1.740,-0.092,0.458,60.000,81709.000,1.000
-1.580,4.453,6.146,3.602,3.378,3.701,3.396,6.150,-0.060,0.919,-0.422,-1.526,-0.031,0.458,60.000,81710.000,1.000
1.527,7.092,8.350,5.328,6.027,8.312,7.105,8.566,-0.063,0.921,-0.424,-1.404,0.061,0.488,60.000,81711.000,1.000
3.541,9.472,10.492,5.698,7.739,12.123,9.175,9.620,-0.064,0.920,-0.423,-1.160,0.031,0.488,60.000,81712.000,1.000
4.191,11.041,12.140,4.983,8.201,14.112,9.483,9.154,-0.067,0.920,-0.422,-1.007,0.183,0.549,60.000,81713.000,1.000
5.032,12.437,13.247,4.316,8.113,14.619,9.402,8.038,-0.069,0.922,-0.426,-0.763,0.061,0.397,60.000,81714.000,1.000
6.724,13.752,13.495,4.214,7.718,14.248,9.966,6.864,-0.069,0.923,-0.423,-0.580,0.092,0.336,60.000,81715.000,1.000
6.868,13.241,11.938,3.661,5.913,12.755,10.193,5.269,-0.071,0.925,-0.421,-0.519,0.000,0.305,60.000,81716.000,1.000
3.158,9.489,8.239,1.642,1.854,9.862,8.638,2.936,-0.071,0.926,-0.426,-0.458,-0.122,0.214,60.000,81717.000,1.000
-3.158,3.648,3.478,-1.338,-3.559,6.227,5.524,0.333,-0.073,0.926,-0.424,-0.305,-0.214,0.183,60.000,81718.000,1.000
-7.917,-1.194,-0.479,-3.540,-8.155,3.142,2.864,-1.685,-0.077,0.926,-0.425,-0.214,-0.275,0.183,60.000,81719.000,1.000
-8.407,-3.022,-2.516,-3.815,-10.429,1.297,2.349,-2.777,-0.076,0.927,-0.423,-0.244,-0.458,0.092,60.000,81720.000,1.000
-6.469,-2.896,-3.068,-2.821,-10.854,0.132,3.325,-3.364,-0.077,0.928,-0.422,-0.397,-0.519,0.092,60.000,81721.000,1.000
-5.433,-2.937,-3.024,-1.847,-10.722,-1.189,3.893,-3.945,-0.075,0.928,-0.423,-0.336,-0.671,-0.061,60.000,81722.000,1.000
-6.020,-3.631,-2.632,-1.354,-10.571,-2.916,2.943,-4.643,-0.074,0.929,-0.423,-0.366,-0.793,-0.061,60.000,81723.000,1.000
-5.782,-3.536,-1.362,-0.666,-9.751,-4.582,1.060,-5.028,-0.073,0.930,-0.423,-0.366,-0.824,-0.092,60.000,81724.000,1.000
-2.578,-1.434,1.218,0.989,-7.430,-5.653,-0.554,-4.503,-0.074,0.928,-0.425,-0.397,-0.946,0.092,60.000,81725.000,1.000
2.250,1.830,4.645,3.377,-3.824,-6.102,-1.554,-2.930,-0.071,0.929,-0.426,-0.336,-0.977,0.031,60.000,81726.000,1.000
6.027,4.727,8.217,5.877,0.318,-5.860,-1.718,-0.540,-0.068,0.929,-0.424,-0.336,-1.007,0.092,60.000,81727.000,1.000
7.769,6.647,11.454,8.100,4.415,-4.781,-0.573,2.086,-0.068,0.929,-0.426,-0.305,-1.099,0.092,60.000,81728.000,1.000
8.548,7.815,13.854,9.679,7.965,-3.187,1.814,3.857,-0.067,0.929,-0.426,-0.275,-1.129,0.092,60.000,81729.000,1.000
9.394,8.284,14.655,9.892,10.158,-2.025,4.200,3.467,-0.066,0.931,-0.425,-0.336,-1.038,0.214,60.000,81730.000,1.000
9.540,7.394,13.288,8.079,10.184,-2.188,4.822,0.502,-0.064,0.930,-0.424,-0.427,-0.977,0.275,60.000,81731.000,1.000
8.096,4.934,10.368,4.818,8.418,-3.390,3.430,-3.676,-0.065,0.931,-0.423,-0.397,-1.007,0.336,60.000,81732.000,1.000
5.632,1.786,7.255,1.666,6.253,-4.472,1.345,-6.976,-0.064,0.930,-0.425,-0.305,-0.946,0.549,60.000,81733.000,1.000
4.129,-0.422,5.021,0.070,5.053,-4.427,0.065,-7.998,-0.064,0.930,-0.427,-0.366,-0.854,0.580,60.000,81734.000,1.000
5.268,-0.389,3.937,0.568,5.386,-2.972,0.283,-6.485,-0.063,0.929,-0.428,-0.397,-0.702,0.610,60.000,81735.000,1.000
8.292,1.547,3.460,2.425,6.691,-0.612,1.651,-3.130,-0.064,0.930,-0.427,-0.488,-0.641,0.549,60.000,81736.000,1.000
10.787,3.685,2.919,4.346,7.930,1.918,3.667,1.027,-0.066,0.928,-0.428,-0.580,-0.580,0.610,60.000,81737.000,1.000
10.580,4.191,1.838,5.216,8.220,3.956,5.859,4.798,-0.063,0.931,-0.427,-0.641,-0.488,0.702,60.000,81738.000,1.000
7.456,2.544,0.099,4.659,7.378,5.193,7.763,7.026,-0.062,0.929,-0.426,-0.763,-0.458,0.824,60.000,81739.000,1.000
2.830,-0.326,-2.081,2.988,5.993,5.696,8.995,7.082,-0.062,0.930,-0.426,-0.885,-0.305,0.854,60.000,81740.000,1.000
-2.169,-3.233,-4.435,0.678,4.828,5.665,9.269,5.303,-0.066,0.929,-0.424,-1.007,-0.305,0.885,60.000,81741.000,1.000
-6.726,-5.033,-6.466,-1.613,4.598,5.625,9.106,3.002,-0.066,0.930,-0.420,-1.007,-0.366,0.824,60.000,81742.000,1.000
-10.430,-5.249,-7.791,-3.466,5.400,5.972,9.118,1.474,-0.068,0.931,-0.425,-1.068,-0.366,0.854,60.000,81743.000,1.000
-13.323,-4.520,-8.470,-4.961,6.520,6.490,9.036,1.185,-0.068,0.930,-0.426,-1.282,-0.305,0.916,60.000,81744.000,1.000
-15.515,-3.960,-8.866,-6.307,7.076,6.681,8.145,1.826,-0.068,0.930,-0.424,-1.343,-0.336,0.854,60.000,81745.000,1.000
-17.294,-4.420,-9.410,-7.589,6.513,6.245,6.196,2.600,-0.070,0.930,-0.425,-1.465,-0.427,0.854,60.000,81746.000,1.000
-18.723,-5.947,-10.243,-8.645,4.814,5.319,3.993,2.585,-0.071,0.932,-0.426,-1.648,-0.610,0.824,60.000,81747.000,1.000
-19.870,-8.186,-11.289,-9.388,2.142,4.114,2.409,1.121,-0.072,0.931,-0.424,-1.740,-0.702,0.793,60.000,81748.000,1.000
-20.363,-10.346,-12.081,-9.649,-1.018,3.018,1.805,-1.469,-0.073,0.927,-0.423,-1.831,-0.854,0.824,60.000,81749.000,1.000
-19.164,-11.166,-11.837,-9.085,-3.697,2.731,2.387,-3.849,-0.074,0.928,-0.420,-1.801,-1.068,0.732,60.000,81750.000,1.000
-15.860,-9.954,-10.226,-7.750,-5.117,3.656,4.072,-4.852,-0.074,0.928,-0.419,-1.831,-1.129,0.702,60.000,81751.000,1.000
-11.074,-7.106,-7.671,-6.187,-5.056,5.478,6.427,-4.477,-0.073,0.927,-0.420,-1.862,-1.190,0.702,60.000,81752.000,1.000
-6.701,-4.265,-5.324,-5.352,-4.144,7.006,8.200,-3.767,-0.071,0.928,-0.420,-1.984,-1.404,0.671,60.000,81753.000,1.000
-4.741,-3.218,-4.298,-5.900,-3.362,7.007,7.999,-3.456,-0.070,0.928,-0.417,-2.014,-1.495,0.793,60.000,81754.000,1.000
-5.521,-4.337,-4.824,-7.515,-3.199,5.286,5.744,-3.343,-0.070,0.930,-0.421,-2.075,-1.556,0.793,60.000,81755.000,1.000
-7.919,-6.717,-6.409,-9.380,-3.750,2.541,2.429,-3.231,-0.069,0.927,-0.423,-2.136,-1.678,0.824,60.000,81756.000,1.000
-10.332,-9.193,-8.305,-10.852,-5.070,-0.501,-1.063,-3.529,-0.069,0.928,-0.422,-2.075,-1.740,0.916,60.000,81757.000,1.000
-12.399,-11.652,-10.203,-12.139,-7.559,-3.894,-4.955,-4.997,-0.067,0.926,-0.419,-2.167,-1.740,1.007,60.000,81758.000,1.000
-14.969,-14.893,-12.129,-13.938,-11.472,-7.948,-9.656,-7.773,-0.068,0.926,-0.417,-2.106,-1.862,0.885,60.000,81759.000,1.000
-18.267,-19.141,-13.858,-16.334,-16.111,-12.262,-14.454,-10.850,-0.069,0.925,-0.420,-2.045,-1.831,0.793,60.000,81760.000,1.000
-21.013,-23.253,-14.857,-18.424,-20.056,-15.857,-18.139,-12.806,-0.067,0.924,-0.422,-1.862,-1.892,0.977,60.000,81761.000,1.000
-20.878,-25.030,-14.532,-18.801,-21.869,-17.787,-19.952,-12.956,-0.068,0.926,-0.424,-1.831,-1.984,1.099,60.000,81762.000,1.000
-17.159,-23.226,-12.942,-16.908,-21.140,-17.892,-20.327,-12.091,-0.066,0.925,-0.421,-1.678,-1.984,1.190,60.000,81763.000,1.000
-11.687,-18.611,-10.729,-13.402,-18.557,-16.692,-20.240,-11.723,-0.064,0.926,-0.419,-1.648,-1.923,1.160,60.000,81764.000,1.000
-6.759,-12.905,-8.396,-9.322,-15.078,-14.799,-20.013,-12.648,-0.063,0.927,-0.424,-1.617,-1.953,1.190,60.000,81765.000,1.000
-3.515,-7.679,-6.109,-5.545,-11.409,-12.751,-19.387,-14.382,-0.063,0.929,-0.422,-1.617,-1.923,1.160,60.000,81766.000,1.000
-1.647,-3.875,-3.844,-2.510,-7.755,-10.907,-17.953,-15.523,-0.064,0.930,-0.422,-1.495,-1.892,1.038,60.000,81767.000,1.000
-1.000,-2.210,-1.951,-0.535,-4.340,-9.664,-15.946,-14.833,-0.063,0.932,-0.420,-1.526,-1.953,1.099,60.000,81768.000,1.000
-1.692,-2.721,-0.888,0.373,-1.456,-9.164,-13.889,-11.835,-0.065,0.935,-0.419,-1.709,-1.892,1.007,60.000,81769.000,1.000
-2.742,-4.026,-0.498,0.886,1.018,-8.914,-11.645,-6.836,-0.065,0.937,-0.418,-1.770,-1.801,0.824,60.000,81770.000,1.000
-2.450,-4.268,-0.239,1.833,3.409,-8.242,-8.786,-0.925,-0.065,0.936,-0.421,-1.892,-1.740,0.641,60.000,81771.000,1.000
0.377,-2.453,0.325,3.604,5.879,-6.755,-5.217,4.486,-0.063,0.935,-0.423,-1.984,-1.617,0.580,60.000,81772.000,1.000
4.586,0.472,0.942,5.586,7.845,-4.853,-1.999,8.182,-0.060,0.932,-0.426,-2.075,-1.617,0.488,60.000,81773.000,1.000
7.228,2.337,0.938,6.609,8.190,-3.535,-0.743,9.656,-0.059,0.927,-0.427,-2.045,-1.404,0.427,60.000,81774.000,1.000
6.479,1.917,0.070,6.134,6.422,-3.441,-1.885,9.287,-0.057,0.923,-0.426,-1.984,-1.221,0.244,60.000,81775.000,1.000
3.195,-0.026,-1.171,4.722,3.337,-4.269,-4.301,8.126,-0.058,0.923,-0.428,-1.862,-1.160,0.214,60.000,81776.000,1.000
0.272,-1.363,-1.828,3.685,0.704,-4.933,-6.124,7.636,-0.059,0.921,-0.424,-1.740,-0.916,0.275,60.000,81777.000,1.000
-0.516,-0.843,-1.492,3.738,-0.326,-4.666,-6.539,8.761,-0.059,0.925,-0.425,-1.678,-0.793,0.031,60.000,81778.000,1.000
-0.096,0.670,-0.650,4.402,-0.115,-3.548,-6.091,11.021,-0.059,0.926,-0.421,-1.678,-0.732,0.000,60.000,81779.000,1.000
-0.629,1.056,-0.171,4.590,0.043,-2.191,-5.543,12.560,-0.059,0.929,-0.423,-1.617,-0.549,0.061,60.000,81780.000,1.000
-3.463,-1.420,-0.792,3.407,-1.040,-1.376,-5.446,11.521,-0.059,0.931,-0.424,-1.678,-0.366,0.092,60.000,81781.000,1.000
-7.537,-6.331,-2.448,1.019,-3.316,-1.420,-5.722,7.836,-0.059,0.933,-0.423,-1.831,-0.244,0.000,60.000,81782.000,1.000
-10.694,-11.480,-4.409,-1.619,-5.729,-2.063,-5.899,3.164,-0.065,0.935,-0.423,-1.862,-0.214,0.092,60.000,81783.000,1.000
-11.353,-14.433,-5.657,-3.364,-7.043,-2.592,-5.383,-0.390,-0.069,0.935,-0.426,-1.892,-0.092,0.122,60.000,81784.000,1.000
-8.658,-13.642,-5.226,-3.281,-6.455,-2.134,-3.643,-1.472,-0.074,0.934,-0.423,-1.984,-0.183,0.092,60.000,81785.000,1.000
-2.616,-9.172,-2.790,-1.122,-4.092,-0.235,-0.699,-0.117,-0.077,0.935,-0.421,-1.892,-0.275,0.000,60.000,81786.000,1.000
6.070,-2.297,1.185,2.658,-0.762,3.065,3.198,2.589,-0.081,0.934,-0.420,-1.892,-0.519,-0.061,60.000,81787.000,1.000
15.090,4.726,5.356,6.710,2.152,6.903,7.229,5.052,-0.082,0.931,-0.422,-1.892,-0.702,-0.244,60.000,81788.000,1.000
20.962,9.307,8.106,9.223,3.094,9.622,9.812,5.825,-0.082,0.933,-0.420,-1.892,-1.038,-0.305,60.000,81789.000,1.000
21.593,10.029,8.491,9.030,1.260,9.605,9.455,4.055,-0.083,0.931,-0.421,-1.923,-1.221,-0.397,60.000,81790.000,1.000
17.777,7.490,6.636,6.275,-2.872,6.208,5.710,-0.260,-0.081,0.931,-0.419,-1.984,-1.282,-0.397,60.000,81791.000,1.000
12.600,3.935,3.719,2.392,-7.613,0.271,-0.108,-5.961,-0.080,0.932,-0.418,-1.984,-1.495,-0.458,60.000,81792.000,1.000
8.250,1.296,0.975,-1.105,-11.238,-6.524,-6.001,-11.359,-0.077,0.931,-0.418,-2.014,-1.587,-0.427,60.000,81793.000,1.000
4.822,0.324,-0.899,-3.258,-12.712,-12.238,-10.355,-15.048,-0.075,0.929,-0.421,-1.984,-1.770,-0.397,60.000,81794.000,1.000
2.111,1.316,-1.506,-3.442,-11.592,-15.025,-12.035,-16.187,-0.076,0.929,-0.422,-2.014,-1.953,-0.244,60.000,81795.000,1.000
0.569,4.253,-0.724,-1.539,-8.159,-13.945,-10.638,-14.684,-0.073,0.930,-0.418,-1.923,-2.014,-0.153,60.000,81796.000,1.000
1.069,8.710,1.232,1.926,-3.331,-9.367,-6.442,-11.230,-0.073,0.928,-0.419,-1.740,-2.045,-0.122,60.000,81797.000,1.000
3.220,13.368,3.495,5.621,1.293,-3.022,-0.899,-7.318,-0.070,0.928,-0.419,-1.617,-2.075,0.000,60.000,81798.000,1.000
5.446,16.554,5.083,8.126,4.168,2.882,3.797,-4.409,-0.068,0.928,-0.418,-1.617,-2.075,0.122,60.000,81799.000,1.000
7.054,17.668,5.901,9.118,5.152,7.033,6.538,-2.763,-0.066,0.927,-0.416,-1.587,-2.014,0.305,60.000,81800.000,1.000
8.713,17.419,6.614,9.316,5.488,9.340,7.955,-1.567,-0.066,0.927,-0.417,-1.556,-1.923,0.488,60.000,81801.000,1.000
11.578,17.104,7.790,9.571,6.544,10.344,9.354,-0.037,-0.066,0.928,-0.417,-1.434,-1.862,0.641,60.000,81802.000,1.000
15.411,17.195,9.067,9.872,8.402,10.263,10.706,1.713,-0.064,0.929,-0.414,-1.434,-1.678,0.793,60.000,81803.000,1.000
18.747,17.281,9.712,9.774,10.182,9.151,10.815,3.159,-0.064,0.931,-0.415,-1.404,-1.526,0.854,60.000,81804.000,1.000
20.759,17.248,9.556,9.256,11.258,7.434,9.064,4.087,-0.067,0.928,-0.415,-1.404,-1.404,0.916,60.000,81805.000,1.000
21.411,17.298,8.785,8.469,11.345,5.523,5.778,4.504,-0.066,0.925,-0.418,-1.343,-1.312,1.129,60.000,81806.000,1.000
21.051,17.582,7.699,7.667,10.533,3.751,2.178,4.643,-0.065,0.924,-0.418,-1.251,-1.190,1.099,60.000,81807.000,1.000
19.638,17.879,6.528,7.130,9.275,2.504,-0.324,4.953,-0.064,0.928,-0.421,-1.068,-1.129,1.099,60.000,81808.000,1.000
17.118,18.005,5.512,7.186,8.351,2.211,-0.850,6.101,-0.063,0.929,-0.418,-1.068,-0.977,1.068,60.000,81809.000,1.000
14.307,18.285,5.031,8.271,8.722,3.139,0.733,8.829,-0.063,0.930,-0.417,-1.068,-0.732,1.038,60.000,81810.000,1.000
12.093,18.916,5.220,10.415,10.753,4.962,3.556,13.179,-0.063,0.929,-0.417,-1.038,-0.610,1.099,60.000,81811.000,1.000
10.814,19.552,5.795,12.975,13.725,6.734,6.073,17.917,-0.060,0.928,-0.418,-1.099,-0.427,1.160,60.000,81812.000,1.000
9.748,19.249,6.066,14.742,15.916,7.150,6.445,20.960,-0.058,0.929,-0.416,-1.099,-0.061,1.099,60.000,81813.000,1.000
8.038,17.292,5.565,14.918,15.863,5.546,3.876,20.958,-0.057,0.927,-0.421,-1.068,0.122,0.946,60.000,81814.000,1.000
6.069,14.079,4.523,13.836,13.526,2.501,-0.445,18.323,-0.059,0.925,-0.420,-0.946,0.244,0.977,60.000,81815.000,1.000
4.985,10.696,3.457,12.373,9.921,-0.802,-4.531,14.667,-0.059,0.924,-0.420,-0.854,0.458,0.824,60.000,81816.000,1.000
5.883,8.302,2.911,11.349,6.407,-3.100,-6.726,11.699,-0.059,0.925,-0.419,-0.732,0.610,0.854,60.000,81817.000,1.000
8.299,7.019,3.060,10.857,3.739,-3.722,-6.646,10.088,-0.060,0.926,-0.420,-0.549,0.671,0.793,60.000,81818.000,1.000
10.233,5.668,3.656,10.239,1.767,-2.976,-5.171,9.331,-0.059,0.925,-0.419,-0.488,0.854,0.702,60.000,81819.000,1.000
10.224,3.060,4.383,8.835,0.025,-1.756,-3.451,8.640,-0.062,0.927,-0.419,-0.305,0.946,0.610,60.000,81820.000,1.000
8.568,-0.776,5.039,6.599,-1.728,-0.854,-2.323,7.693,-0.065,0.927,-0.420,-0.366,1.038,0.488,60.000,81821.000,1.000
7.197,-4.284,5.780,4.371,-3.188,-0.327,-1.735,6.700,-0.066,0.928,-0.419,-0.214,1.099,0.427,60.000,81822.000,1.000
7.233,-6.169,6.638,2.862,-4.205,0.034,-1.267,5.637,-0.068,0.928,-0.421,-0.275,1.129,0.397,60.000,81823.000,1.000
7.827,-6.719,7.235,1.891,-5.137,0.274,-0.538,4.136,-0.070,0.928,-0.421,-0.305,1.190,0.336,60.000,81824.000,1.000
7.879,-6.884,7.271,0.972,-6.147,0.551,0.944,2.137,-0.070,0.927,-0.421,-0.366,1.129,0.336,60.000,81825.000,1.000
7.145,-7.356,6.772,-0.133,-7.003,1.049,3.156,-0.033,-0.072,0.928,-0.422,-0.275,1.068,0.183,60.000,81826.000,1.000
6.106,-8.446,5.997,-1.433,-7.466,1.650,5.395,-2.071,-0.073,0.930,-0.422,-0.366,0.916,0.183,60.000,81827.000,1.000
4.542,-10.712,4.881,-3.233,-7.898,1.657,6.460,-4.208,-0.072,0.932,-0.422,-0.366,0.854,0.092,60.000,81828.000,1.000
1.715,-14.561,3.210,-5.764,-8.785,0.481,5.599,-6.824,-0.074,0.933,-0.418,-0.427,0.702,0.061,60.000,81829.000,1.000
-1.981,-19.182,1.246,-8.436,-9.780,-1.477,3.396,-9.633,-0.074,0.935,-0.418,-0.488,0.488,0.061,60.000,81830.000,1.000
-5.123,-22.938,-0.468,-10.251,-9.956,-3.143,1.144,-11.717,-0.073,0.934,-0.419,-0.610,0.427,0.122,60.000,81831.000,1.000
-6.135,-24.291,-1.457,-10.472,-8.499,-3.406,0.294,-12.122,-0.072,0.933,-0.422,-0.732,0.214,0.153,60.000,81832.000,1.000
-4.925,-22.840,-1.712,-9.277,-5.466,-1.880,1.691,-10.663,-0.073,0.934,-0.417,-0.763,0.122,0.153,60.000,81833.000,1.000
-3.009,-19.378,-1.532,-7.588,-1.770,0.914,5.168,-8.157,-0.073,0.936,-0.424,-0.946,0.031,0.244,60.000,81834.000,1.000
-1.947,-15.107,-1.139,-6.321,1.531,3.958,9.740,-6.096,-0.071,0.936,-0.423,-0.977,-0.122,0.336,60.000,81835.000,1.000
-2.567,-11.279,-0.740,-6.019,3.641,6.036,13.735,-5.862,-0.072,0.936,-0.420,-1.068,-0.275,0.275,60.000,81836.000,1.000
-4.633,-8.676,-0.418,-6.591,4.383,6.243,15.661,-7.562,-0.071,0.935,-0.418,-1.221,-0.366,0.366,60.000,81837.000,1.000
-7.977,-7.765,-0.340,-7.785,3.879,4.203,14.457,-9.975,-0.071,0.935,-0.421,-1.282,-0.488,0.397,60.000,81838.000,1.000
-12.558,-8.470,-0.570,-9.302,2.506,0.467,9.944,-11.253,-0.072,0.934,-0.420,-1.343,-0.580,0.427,60.000,81839.000,1.000
-17.131,-9.518,-0.654,-10.404,1.329,-3.306,3.772,-9.807,-0.071,0.930,-0.422,-1.373,-0.519,0.458,60.000,81840.000,1.000
-19.833,-9.361,-0.121,-10.340,1.438,-5.430,-1.474,-5.712,-0.070,0.930,-0.422,-1.251,-0.671,0.397,60.000,81841.000,1.000
-19.489,-7.382,0.919,-8.963,3.029,-5.312,-4.112,-1.222,-0.068,0.926,-0.425,-1.190,-0.793,0.458,60.000,81842.000,1.000
-16.994,-4.500,1.564,-7.132,5.056,-3.802,-4.677,0.539,-0.070,0.922,-0.421,-1.099,-0.854,0.488,60.000,81843.000,1.000
-14.658,-2.306,0.940,-6.000,6.147,-2.280,-4.852,-1.911,-0.070,0.920,-0.420,-0.824,-0.916,0.427,60.000,81844.000,1.000
-13.970,-1.590,-0.760,-5.862,5.817,-1.472,-5.377,-7.017,-0.070,0.920,-0.421,-0.671,-1.038,0.488,60.000,81845.000,1.000
-15.019,-2.264,-2.470,-6.200,4.477,-1.306,-5.803,-11.398,-0.069,0.919,-0.422,-0.580,-1.068,0.397,60.000,81846.000,1.000
-16.729,-3.726,-3.088,-6.291,2.966,-1.165,-5.235,-12.251,-0.069,0.917,-0.423,-0.397,-1.190,0.366,60.000,81847.000,1.000
-18.065,-5.420,-2.419,-5.905,1.805,-0.524,-3.490,-9.070,-0.067,0.917,-0.419,-0.183,-1.251,0.305,60.000,81848.000,1.000
-18.562,-6.951,-1.174,-5.239,0.973,0.672,-1.279,-3.531,-0.063,0.919,-0.416,-0.061,-1.312,0.275,60.000,81849.000,1.000
-17.971,-7.892,-0.256,-4.438,0.271,2.165,0.677,1.861,-0.065,0.922,-0.418,0.122,-1.251,0.214,60.000,81850.000,1.000
-16.467,-8.009,-0.222,-3.532,-0.423,3.728,2.168,5.391,-0.068,0.925,-0.419,0.122,-1.282,0.153,60.000,81851.000,1.000
-14.155,-7.036,-0.812,-2.269,-0.701,5.585,3.930,7.254,-0.072,0.928,-0.420,0.183,-1.282,0.092,60.000,81852.000,1.000
-11.362,-5.023,-1.457,-0.588,-0.124,7.740,6.604,8.651,-0.075,0.931,-0.417,0.061,-1.343,0.031,60.000,81853.000,1.000
-8.766,-2.628,-1.976,0.974,0.978,9.240,9.554,10.010,-0.076,0.933,-0.418,-0.031,-1.465,-0.153,60.000,81854.000,1.000
-6.916,-0.757,-2.642,1.618,1.563,8.702,11.205,10.524,-0.075,0.935,-0.420,-0.153,-1.587,-0.122,60.000,81855.000,1.000
-6.400,-0.296,-3.902,0.721,0.529,5.459,10.089,9.181,-0.074,0.935,-0.421,-0.153,-1.709,-0.153,60.000,81856.000,1.000
-7.080,-1.259,-5.726,-1.599,-2.276,0.413,6.174,5.940,-0.071,0.934,-0.423,-0.275,-1.831,-0.183,60.000,81857.000,1.000
-8.071,-2.706,-7.683,-4.679,-6.019,-4.592,0.641,1.667,-0.067,0.932,-0.421,-0.458,-1.801,-0.183,60.000,81858.000,1.000
-8.429,-3.596,-9.297,-7.706,-9.456,-7.859,-4.897,-2.405,-0.064,0.933,-0.422,-0.366,-1.801,-0.153,60.000,81859.000,1.000
-7.663,-3.454,-10.153,-9.955,-11.430,-8.495,-8.798,-5.154,-0.062,0.932,-0.419,-0.427,-1.740,-0.183,60.000,81860.000,1.000
-6.139,-2.425,-10.024,-11.064,-11.348,-6.748,-10.125,-5.945,-0.062,0.932,-0.420,-0.366,-1.709,-0.122,60.000,81861.000,1.000
-4.112,-0.400,-8.601,-10.701,-8.952,-3.453,-8.569,-4.548,-0.062,0.931,-0.418,-0.488,-1.495,-0.122,60.000,81862.000,1.000
-1.897,2.535,-5.874,-8.852,-4.588,0.208,-4.840,-1.471,-0.064,0.932,-0.419,-0.458,-1.343,-0.061,60.000,81863.000,1.000
-0.420,5.226,-2.629,-6.360,0.297,2.755,-0.979,1.891,-0.065,0.932,-0.424,-0.580,-1.282,-0.092,60.000,81864.000,1.000
-0.487,6.238,-0.047,-4.472,3.807,3.197,0.845,4.100,-0.068,0.932,-0.424,-0.519,-1.160,0.000,60.000,81865.000,1.000
-2.106,5.229,1.148,-3.831,4.953,1.858,-0.204,4.550,-0.069,0.930,-0.422,-0.519,-1.068,0.122,60.000,81866.000,1.000
-4.043,3.482,1.226,-3.900,4.390,0.319,-2.909,3.518,-0.069,0.928,-0.422,-0.397,-1.038,0.214,60.000,81867.000,1.000
-5.138,2.457,0.762,-3.858,3.341,0.028,-5.224,1.570,-0.069,0.926,-0.423,-0.336,-1.038,0.366,60.000,81868.000,1.000
-5.201,2.590,0.182,-3.291,2.596,1.506,-5.537,-0.625,-0.068,0.927,-0.420,-0.305,-1.007,0.458,60.000,81869.000,1.000
-4.535,3.510,-0.148,-2.122,2.433,4.493,-3.189,-2.479,-0.068,0.928,-0.417,-0.183,-0.977,0.488,60.000,81870.000,1.000
-3.845,4.399,-0.201,-0.690,2.524,7.994,0.945,-3.815,-0.067,0.931,-0.419,-0.183,-0.977,0.458,60.000,81871.000,1.000
-3.324,4.909,-0.115,0.738,2.433,10.984,5.388,-4.407,-0.069,0.932,-0.420,-0.122,-1.007,0.458,60.000,81872.000,1.000
-2.502,5.435,0.074,2.219,2.015,13.158,9.265,-3.795,-0.069,0.932,-0.420,-0.183,-0.916,0.671,60.000,81873.000,1.000
-0.700,6.615,0.529,3.945,1.476,14.980,12.596,-1.802,-0.068,0.931,-0.420,-0.183,-0.824,0.732,60.000,81874.000,1.000
2.335,8.567,1.298,5.807,1.104,16.763,15.459,0.826,-0.069,0.930,-0.420,-0.122,-0.763,0.732,60.000,81875.000,1.000
5.428,10.176,1.858,7.033,0.701,17.711,16.864,2.534,-0.068,0.931,-0.419,-0.122,-0.763,0.824,60.000,81876.000,1.000
7.025,10.015,1.622,6.897,-0.128,16.679,15.688,2.235,-0.066,0.930,-0.419,0.031,-0.763,0.946,60.000,81877.000,1.000
6.512,7.522,0.435,5.341,-1.546,13.376,11.822,0.078,-0.067,0.927,-0.421,-0.031,-0.641,1.038,60.000,81878.000,1.000
4.827,3.566,-1.254,3.141,-3.202,8.800,6.436,-2.893,-0.066,0.929,-0.419,0.031,-0.580,1.038,60.000,81879.000,1.000
3.825,0.035,-2.690,1.477,-4.347,4.564,1.425,-5.649,-0.066,0.931,-0.418,0.092,-0.580,0.946,60.000,81880.000,1.000
4.374,-1.614,-3.467,0.974,-4.582,1.607,-1.927,-7.687,-0.067,0.929,-0.423,0.183,-0.488,0.946,60.000,81881.000,1.000
6.387,-0.810,-3.356,1.728,-3.837,0.004,-3.060,-8.522,-0.067,0.931,-0.420,0.183,-0.488,0.885,60.000,81882.000,1.000
9.247,1.972,-2.229,3.458,-2.240,-0.786,-2.175,-7.733,-0.066,0.929,-0.424,0.244,-0.458,0.885,60.000,81883.000,1.000
12.201,5.414,-0.217,5.602,-0.092,-1.473,-0.316,-5.508,-0.066,0.930,-0.423,0.183,-0.427,0.793,60.000,81884.000,1.000
14.763,8.221,2.201,7.571,2.252,-2.302,1.352,-2.661,-0.065,0.929,-0.425,0.244,-0.305,0.732,60.000,81885.000,1.000
16.184,9.528,4.100,8.742,4.216,-3.085,2.134,-0.206,-0.065,0.926,-0.423,0.244,-0.183,0.732,60.000,81886.000,1.000
16.073,9.395,4.678,8.836,5.327,-3.530,2.046,1.318,-0.063,0.925,-0.423,0.275,-0.275,0.763,60.000,81887.000,1.000
14.738,8.463,3.640,7.964,5.370,-3.833,0.943,1.986,-0.062,0.926,-0.425,0.214,-0.244,0.702,60.000,81888.000,1.000
13.063,7.380,1.300,6.562,4.482,-4.539,-1.528,2.381,-0.063,0.924,-0.427,0.336,-0.153,0.519,60.000,81889.000,1.000
12.068,6.655,-1.506,5.322,3.173,-5.815,-4.937,3.301,-0.064,0.922,-0.423,0.549,-0.031,0.397,60.000,81890.000,1.000
11.573,6.195,-3.980,4.672,1.796,-7.393,-8.364,5.101,-0.065,0.920,-0.424,0.671,0.031,0.366,60.000,81891.000,1.000
10.660,5.606,-5.506,4.696,0.627,-8.759,-10.770,7.450,-0.066,0.921,-0.423,0.702,0.061,0.183,60.000,81892.000,1.000
8.720,4.615,-5.832,5.120,0.051,-9.535,-11.402,9.550,-0.068,0.924,-0.419,0.763,0.031,0.031,60.000,81893.000,1.000
6.221,3.400,-5.096,5.595,0.554,-9.593,-9.958,10.888,-0.068,0.925,-0.422,0.702,0.092,0.000,60.000,81894.000,1.000
4.401,2.584,-3.733,5.956,2.348,-9.046,-6.736,11.719,-0.069,0.926,-0.421,0.641,-0.031,-0.122,60.000,81895.000,1.000
3.558,2.349,-2.565,5.862,4.667,-8.471,-3.207,12.325,-0.071,0.928,-0.423,0.671,0.031,-0.092,60.000,81896.000,1.000
3.208,2.381,-2.268,4.989,6.236,-8.418,-1.141,12.394,-0.069,0.928,-0.423,0.580,0.031,-0.275,60.000,81897.000,1.000
2.961,2.185,-3.067,3.239,6.122,-9.016,-1.503,11.237,-0.069,0.930,-0.420,0.427,0.122,-0.275,60.000,81898.000,1.000
2.883,1.385,-4.779,0.795,4.171,-10.033,-4.002,8.411,-0.070,0.929,-0.418,0.427,0.092,-0.458,60.000,81899.000,1.000
3.001,-0.252,-6.965,-2.016,0.850,-11.134,-7.425,4.068,-0.068,0.928,-0.419,0.336,0.061,-0.427,60.000,81900.000,1.000
2.421,-3.034,-9.172,-4.945,-3.192,-12.033,-10.650,-0.861,-0.068,0.928,-0.421,0.183,0.061,-0.580,60.000,81901.000,1.000
0.745,-6.452,-10.679,-7.431,-6.900,-12.123,-12.559,-4.703,-0.069,0.929,-0.423,0.214,-0.031,-0.488,60.000,81902.000,1.000
-1.087,-9.043,-10.756,-8.823,-9.174,-10.821,-12.281,-6.232,-0.068,0.931,-0.423,0.275,0.031,-0.549,60.000,81903.000,1.000
-1.426,-9.228,-9.029,-8.784,-9.470,-8.039,-9.671,-5.441,-0.072,0.930,-0.423,0.214,0.000,-0.519,60.000,81904.000,1.000
0.773,-6.271,-5.635,-7.391,-7.957,-4.237,-5.407,-3.130,-0.069,0.930,-0.424,0.153,0.031,-0.458,60.000,81905.000,1.000
4.208,-1.335,-1.566,-5.415,-5.735,-0.561,-1.152,-0.554,-0.069,0.930,-0.421,0.061,0.031,-0.305,60.000,81906.000,1.000
6.410,3.329,1.849,-3.757,-4.091,1.796,1.635,1.132,-0.070,0.930,-0.422,-0.092,-0.061,-0.153,60.000,81907.000,1.000
6.210,6.209,3.762,-2.722,-3.491,2.388,2.733,1.384,-0.068,0.930,-0.422,-0.153,-0.031,-0.061,60.000,81908.000,1.000
4.826,7.564,4.220,-1.886,-3.294,1.781,2.923,0.315,-0.068,0.930,-0.424,-0.153,-0.031,0.000,60.000,81909.000,1.000
4.278,8.487,3.761,-0.825,-2.605,1.023,2.932,-1.686,-0.069,0.929,-0.425,-0.122,-0.061,0.092,60.000,81910.000,1.000
4.390,8.811,2.532,-0.089,-1.560,0.652,2.503,-4.315,-0.068,0.925,-0.427,-0.092,0.061,0.244,60.000,81911.000,1.000
3.458,7.406,0.553,-0.457,-0.899,0.746,1.442,-7.006,-0.070,0.927,-0.426,-0.092,-0.031,0.397,60.000,81912.000,1.000
0.813,4.075,-1.735,-1.762,-0.908,1.282,0.394,-8.783,-0.071,0.927,-0.427,-0.031,-0.031,0.458,60.000,81913.000,1.000
-2.006,0.519,-3.445,-2.800,-1.075,2.248,0.338,-8.679,-0.071,0.927,-0.429,-0.061,-0.031,0.641,60.000,81914.000,1.000
-2.809,-0.944,-3.867,-2.414,-0.690,3.515,1.836,-6.465,-0.072,0.926,-0.427,-0.031,-0.061,0.732,60.000,81915.000,1.000
-1.758,0.066,-3.243,-0.740,0.163,4.533,4.283,-3.131,-0.071,0.923,-0.428,0.122,-0.092,0.702,60.000,81916.000,1.000
-0.875,1.861,-2.343,1.192,0.860,4.637,6.359,-0.225,-0.073,0.922,-0.428,0.275,-0.153,0.793,60.000,81917.000,1.000
-1.512,2.584,-1.739,2.466,1.009,3.420,6.768,1.211,-0.073,0.921,-0.428,0.336,-0.214,0.977,60.000,81918.000,1.000
-2.809,1.988,-1.387,2.952,0.943,1.112,5.083,1.302,-0.073,0.920,-0.428,0.427,-0.275,0.885,60.000,81919.000,1.000
-2.950,1.270,-0.790,3.177,1.443,-1.367,2.116,0.912,-0.071,0.920,-0.427,0.519,-0.336,0.793,60.000,81920.000,1.000
-2.233,1.071,0.182,3.345,2.657,-3.156,-1.108,0.616,-0.072,0.918,-0.427,0.610,-0.305,0.763,60.000,81921.000,1.000
-2.615,0.947,1.258,3.258,4.001,-3.841,-3.868,0.660,-0.072,0.917,-0.428,0.732,-0.519,0.793,60.000,81922.000,1.000
-5.098,0.271,2.146,2.802,4.792,-3.553,-5.834,1.273,-0.073,0.917,-0.429,0.824,-0.488,0.702,60.000,81923.000,1.000
-8.251,-0.740,2.865,2.337,4.962,-2.732,-6.723,2.598,-0.074,0.918,-0.431,1.007,-0.641,0.549,60.000,81924.000,1.000
-9.720,-1.222,3.552,2.295,4.973,-1.962,-6.328,4.372,-0.075,0.919,-0.431,1.068,-0.793,0.549,60.000,81925.000,1.000
-9.422,-1.228,3.883,2.285,4.783,-2.007,-5.509,5.930,-0.073,0.922,-0.432,1.038,-0.824,0.458,60.000,81926.000,1.000
-8.803,-1.457,3.664,1.765,4.141,-2.926,-5.240,6.981,-0.074,0.924,-0.432,0.977,-0.854,0.427,60.000,81927.000,1.000
-8.158,-1.865,3.412,1.021,3.408,-3.672,-5.142,7.828,-0.073,0.926,-0.431,0.977,-1.007,0.458,60.000,81928.000,1.000
-6.055,-1.424,3.876,0.912,3.295,-3.134,-3.959,8.811,-0.071,0.926,-0.433,0.977,-1.099,0.183,60.000,81929.000,1.000
-1.612,0.458,4.991,1.614,3.708,-1.533,-1.549,9.572,-0.071,0.927,-0.431,0.854,-1.068,0.183,60.000,81930.000,1.000
2.975,2.393,5.522,1.869,3.235,-0.514,0.062,8.911,-0.071,0.927,-0.434,0.793,-0.946,0.061,60.000,81931.000,1.000
4.650,2.425,4.530,0.462,0.890,-1.240,-1.036,6.141,-0.068,0.926,-0.432,0.763,-0.977,0.092,60.000,81932.000,1.000
2.907,0.187,2.478,-2.311,-2.495,-3.194,-4.451,2.186,-0.068,0.927,-0.434,0.641,-1.099,0.031,60.000,81933.000,1.000
0.155,-2.829,0.829,-4.903,-4.968,-4.841,-7.850,-0.941,-0.065,0.928,-0.435,0.580,-1.038,-0.031,60.000,81934.000,1.000
-0.691,-4.572,0.868,-5.849,-5.078,-4.904,-8.938,-1.556,-0.064,0.930,-0.432,0.519,-1.038,-0.153,60.000,81935.000,1.000
0.879,-4.207,2.647,-4.992,-3.051,-3.332,-7.514,0.528,-0.064,0.929,-0.430,0.488,-0.977,-0.153,60.000,81936.000,1.000
3.603,-2.187,5.280,-3.122,-0.183,-0.934,-4.961,4.079,-0.063,0.930,-0.431,0.427,-0.824,-0.153,60.000,81937.000,1.000
6.229,0.514,7.637,-1.184,2.282,1.440,-2.569,7.192,-0.063,0.930,-0.432,0.336,-0.763,-0.153,60.000,81938.000,1.000
8.106,2.867,8.844,0.151,3.721,3.408,-0.676,8.365,-0.063,0.930,-0.435,0.244,-0.549,-0.183,60.000,81939.000,1.000
8.762,3.870,8.470,0.518,3.993,4.925,0.844,7.119,-0.064,0.929,-0.436,0.122,-0.336,-0.122,60.000,81940.000,1.000
7.201,2.528,6.407,-0.375,2.913,5.734,1.529,3.679,-0.063,0.930,-0.431,0.000,-0.183,-0.244,60.000,81941.000,1.000
3.348,-1.024,3.305,-2.209,0.667,5.624,1.117,-1.135,-0.063,0.930,-0.431,-0.031,-0.122,-0.031,60.000,81942.000,1.000
-1.345,-5.364,0.379,-4.004,-1.977,4.708,0.222,-6.005,-0.064,0.929,-0.433,-0.183,0.092,-0.061,60.000,81943.000,1.000
-5.041,-8.987,-1.404,-4.822,-4.094,3.410,-0.183,-9.565,-0.062,0.930,-0.435,-0.244,0.153,0.000,60.000,81944.000,1.000
-6.633,-11.137,-1.856,-4.393,-5.121,2.351,0.553,-11.071,-0.064,0.928,-0.434,-0.427,0.244,-0.061,60.000,81945.000,1.000
-6.472,-11.990,-1.585,-3.312,-5.287,1.941,2.201,-10.851,-0.065,0.928,-0.432,-0.549,0.336,0.031,60.000,81946.000,1.000
-5.268,-11.754,-1.126,-2.220,-5.056,2.424,4.289,-9.775,-0.067,0.927,-0.430,-0.519,0.427,0.061,60.000,81947.000,1.000
-3.745,-10.552,-0.626,-1.475,-4.725,3.710,6.328,-8.750,-0.068,0.927,-0.426,-0.763,0.580,0.092,60.000,81948.000,1.000
-2.774,-8.817,-0.054,-1.244,-4.405,5.298,7.795,-8.367,-0.068,0.927,-0.429,-0.824,0.671,0.183,60.000,81949.000,1.000
-2.624,-6.901,0.776,-1.335,-3.839,6.688,8.696,-8.454,-0.068,0.928,-0.428,-1.068,0.824,0.153,60.000,81950.000,1.000
-2.981,-4.981,1.910,-1.425,-2.731,7.543,9.319,-8.342,-0.069,0.926,-0.427,-1.160,0.824,0.244,60.000,81951.000,1.000
-3.064,-3.078,3.110,-1.287,-1.091,7.802,9.922,-7.688,-0.071,0.926,-0.427,-1.190,0.702,0.305,60.000,81952.000,1.000
-2.651,-1.525,3.722,-1.165,0.454,7.544,10.279,-7.148,-0.073,0.927,-0.428,-1.434,0.763,0.336,60.000,81953.000,1.000
-2.329,-0.809,3.247,-1.472,1.180,7.018,9.919,-7.762,-0.072,0.927,-0.433,-1.434,0.732,0.397,60.000,81954.000,1.000
-2.134,-0.686,2.141,-1.998,1.254,6.780,8.997,-9.697,-0.072,0.927,-0.431,-1.495,0.732,0.488,60.000,81955.000,1.000
-1.350,-0.415,1.454,-2.061,1.429,7.174,8.017,-12.044,-0.071,0.926,-0.429,-1.709,0.610,0.519,60.000,81956.000,1.000
1.042,0.710,2.045,-1.057,2.314,8.128,7.490,-13.447,-0.071,0.927,-0.426,-1.678,0.580,0.580,60.000,81957.000,1.000
4.710,2.555,3.764,0.787,3.705,9.096,7.339,-13.064,-0.071,0.927,-0.427,-1.709,0.519,0.519,60.000,81958.000,1.000
7.487,3.998,5.501,2.465,4.700,9.341,6.728,-10.937,-0.071,0.928,-0.428,-1.770,0.397,0.580,60.000,81959.000,1.000
7.808,4.264,6.301,3.297,4.758,8.710,5.254,-7.561,-0.072,0.928,-0.430,-1.953,0.275,0.793,60.000,81960.000,1.000
6.409,3.727,6.052,3.456,4.138,7.774,3.652,-3.615,-0.072,0.929,-0.430,-1.984,0.183,0.824,60.000,81961.000,1.000
5.624,3.390,5.334,3.523,3.430,7.171,3.153,0.054,-0.070,0.930,-0.431,-2.075,0.153,0.885,60.000,81962.000,1.000
6.177,3.196,4.378,3.359,2.399,6.470,3.378,2.331,-0.069,0.929,-0.433,-2.258,0.092,1.007,60.000,81963.000,1.000
6.094,1.787,2.850,2.123,0.044,4.425,2.231,2.490,-0.067,0.929,-0.430,-2.289,0.000,1.068,60.000,81964.000,1.000
3.627,-1.614,0.746,-0.355,-3.888,0.618,-1.328,0.990,-0.068,0.930,-0.431,-2.258,0.031,1.129,60.000,81965.000,1.000
-0.581,-6.172,-1.419,-3.078,-8.307,-4.021,-5.944,-0.874,-0.071,0.931,-0.429,-2.441,-0.031,1.221,60.000,81966.000,1.000
-3.751,-9.739,-2.907,-4.405,-11.345,-7.897,-9.009,-1.743,-0.071,0.933,-0.427,-2.411,-0.244,1.282,60.000,81967.000,1.000
-4.070,-10.550,-3.409,-3.445,-11.847,-10.018,-9.315,-1.072,-0.069,0.933,-0.429,-2.533,-0.275,1.312,60.000,81968.000,1.000
-2.719,-8.613,-3.176,-0.722,-10.212,-10.479,-8.035,0.674,-0.068,0.928,-0.427,-2.625,-0.488,1.373,60.000,81969.000,1.000
-1.935,-5.202,-2.336,2.741,-7.521,-9.732,-6.810,2.844,-0.068,0.927,-0.431,-2.625,-0.458,1.343,60.000,81970.000,1.000
-2.549,-1.730,-0.703,6.280,-4.487,-8.067,-6.134,5.231,-0.068,0.926,-0.427,-2.563,-0.580,1.404,60.000,81971.000,1.000
-3.180,1.314,1.850,9.767,-1.116,-5.545,-5.136,8.073,-0.069,0.926,-0.430,-2.533,-0.580,1.251,60.000,81972.000,1.000
-2.652,3.893,4.620,12.831,2.413,-2.550,-3.022,11.389,-0.068,0.927,-0.427,-2.502,-0.671,1.190,60.000,81973.000,1.000
-2.024,5.476,6.217,14.547,5.185,0.025,-0.169,14.568,-0.067,0.929,-0.425,-2.594,-0.610,1.160,60.000,81974.000,1.000
-2.996,5.482,5.746,14.275,6.350,1.429,2.478,16.628,-0.065,0.928,-0.429,-2.655,-0.641,1.099,60.000,81975.000,1.000
-5.576,4.244,3.528,12.383,5.937,1.520,4.082,16.825,-0.065,0.928,-0.424,-2.655,-0.519,0.977,60.000,81976.000,1.000
-7.334,3.534,1.104,10.347,5.047,0.952,4.511,15.397,-0.063,0.929,-0.427,-2.716,-0.458,0.885,60.000,81977.000,1.000
-6.327,4.884,-0.024,9.425,4.674,0.510,3.995,13.169,-0.065,0.927,-0.424,-2.655,-0.458,0.885,60.000,81978.000,1.000
-3.504,7.869,0.515,9.555,4.800,0.548,2.809,10.758,-0.065,0.925,-0.428,-2.716,-0.427,0.793,60.000,81979.000,1.000
-0.914,11.025,2.187,9.877,4.999,1.187,1.654,8.515,-0.067,0.924,-0.428,-2.563,-0.427,0.702,60.000,81980.000,1.000
0.498,13.150,3.995,9.435,4.949,2.284,1.140,6.553,-0.065,0.923,-0.427,-2.502,-0.336,0.519,60.000,81981.000,1.000
1.476,13.912,5.136,7.860,4.706,3.602,1.585,4.895,-0.065,0.923,-0.427,-2.411,-0.366,0.488,60.000,81982.000,1.000
2.617,13.351,5.230,5.422,4.449,4.862,2.879,3.587,-0.065,0.924,-0.423,-2.380,-0.275,0.336,60.000,81983.000,1.000
3.087,11.408,4.269,2.721,4.139,5.701,4.436,2.838,-0.065,0.926,-0.425,-2.289,-0.244,0.153,60.000,81984.000,1.000
2.166,8.509,2.727,0.541,3.788,5.986,5.819,2.986,-0.065,0.927,-0.426,-2.289,-0.275,0.061,60.000,81985.000,1.000
0.569,5.777,1.229,-0.652,3.535,5.841,6.791,3.881,-0.065,0.928,-0.423,-2.258,-0.153,-0.061,60.000,81986.000,1.000
0.253,4.529,0.162,-0.920,3.540,5.500,7.364,4.613,-0.065,0.927,-0.423,-2.106,-0.153,-0.153,60.000,81987.000,1.000
2.019,4.970,-0.697,-0.933,3.531,4.969,7.482,4.097,-0.066,0.926,-0.421,-2.258,0.000,-0.183,60.000,81988.000,1.000
4.302,5.926,-1.831,-1.476,2.877,4.099,6.895,2.082,-0.068,0.925,-0.420,-2.167,-0.061,-0.153,60.000,81989.000,1.000
5.161,6.179,-3.282,-2.754,1.262,2.938,5.683,-0.703,-0.068,0.926,-0.424,-2.136,0.061,-0.214,60.000,81990.000,1.000
3.913,5.081,-4.788,-4.603,-1.270,1.562,4.136,-3.379,-0.067,0.926,-0.423,-1.953,0.092,-0.214,60.000,81991.000,1.000
1.573,2.668,-5.944,-6.648,-4.243,0.149,2.712,-5.253,-0.069,0.923,-0.423,-1.740,0.031,-0.092,60.000,81992.000,1.000
-0.824,-0.901,-6.706,-8.646,-7.128,-1.232,1.412,-6.201,-0.068,0.925,-0.423,-1.709,0.061,-0.122,60.000,81993.000,1.000
-3.672,-5.691,-7.689,-10.764,-9.865,-2.885,-0.560,-6.956,-0.069,0.923,-0.423,-1.648,0.122,-0.092,60.000,81994.000,1.000
-7.542,-11.142,-9.423,-13.103,-12.486,-5.081,-3.715,-8.428,-0.070,0.922,-0.425,-1.617,0.061,0.092,60.000,81995.000,1.000
-11.793,-15.642,-11.553,-15.265,-14.555,-7.653,-7.522,-10.718,-0.070,0.920,-0.424,-1.465,0.031,0.153,60.000,81996.000,1.000
-14.266,-17.025,-12.774,-16.273,-14.967,-9.811,-10.373,-12.774,-0.070,0.919,-0.423,-1.343,0.031,0.275,60.000,81997.000,1.000
-13.499,-14.379,-12.122,-15.569,-12.974,-10.758,-10.954,-13.470,-0.069,0.919,-0.422,-1.221,0.031,0.244,60.000,81998.000,1.000
-10.485,-9.160,-9.886,-13.676,-9.131,-10.322,-9.516,-12.640,-0.070,0.921,-0.421,-1.068,-0.122,0.397,60.000,81999.000,1.000
-7.267,-3.885,-7.031,-11.444,-4.777,-8.898,-7.408,-10.827,-0.072,0.925,-0.423,-1.068,-0.061,0.397,60.000,82000.000,1.000
-5.160,-0.360,-4.475,-9.350,-1.212,-7.305,-6.111,-8.687,-0.071,0.927,-0.423,-0.977,-0.031,0.458,60.000,82001.000,1.000
-3.845,1.260,-2.579,-7.285,1.023,-6.182,-5.970,-6.507,-0.073,0.931,-0.425,-0.946,-0.061,0.549,60.000,82002.000,1.000
-2.596,1.714,-1.324,-5.078,2.108,-5.504,-6.083,-4.175,-0.075,0.933,-0.426,-1.068,-0.122,0.641,60.000,82003.000,1.000
-1.301,1.796,-0.617,-2.858,2.623,-4.621,-5.199,-1.373,-0.075,0.936,-0.424,-1.221,-0.214,0.702,60.000,82004.000,1.000
0.134,2.303,-0.371,-0.895,3.314,-2.927,-2.589,1.937,-0.075,0.937,-0.424,-1.221,-0.336,0.763,60.000,82005.000,1.000
1.566,3.373,-0.714,0.353,4.521,-0.784,1.058,5.006,-0.072,0.938,-0.423,-1.404,-0.305,0.793,60.000,82006.000,1.000
2.600,4.267,-1.717,0.576,6.116,0.800,4.258,6.832,-0.068,0.937,-0.426,-1.526,-0.244,0.793,60.000,82007.000,1.000
2.313,3.624,-3.345,-0.362,7.415,0.912,5.654,6.829,-0.065,0.933,-0.422,-1.617,-0.153,0.824,60.000,82008.000,1.000
-0.279,0.473,-5.396,-2.339,7.537,-0.616,4.847,5.255,-0.062,0.928,-0.423,-1.526,-0.122,1.007,60.000,82009.000,1.000
-4.652,-4.441,-7.246,-4.559,6.465,-2.849,2.976,3.408,-0.059,0.925,-0.427,-1.587,-0.061,1.038,60.000,82010.000,1.000
-9.179,-9.276,-8.333,-6.059,4.956,-4.666,1.381,2.744,-0.056,0.923,-0.426,-1.526,0.153,1.099,60.000,82011.000,1.000
-12.095,-12.325,-8.389,-6.257,3.891,-5.578,0.454,3.834,-0.057,0.924,-0.428,-1.373,0.214,1.190,60.000,82012.000,1.000
-12.666,-12.925,-7.401,-5.197,3.680,-5.807,-0.415,6.141,-0.057,0.926,-0.427,-1.312,0.366,1.221,60.000,82013.000,1.000
-11.630,-11.677,-5.614,-3.451,4.064,-5.893,-2.127,8.485,-0.058,0.928,-0.425,-1.282,0.549,1.221,60.000,82014.000,1.000
-10.041,-9.621,-3.422,-1.606,4.552,-6.161,-4.783,9.568,-0.060,0.930,-0.425,-1.343,0.641,1.251,60.000,82015.000,1.000
-8.470,-7.459,-1.278,0.034,4.830,-6.509,-7.543,8.690,-0.064,0.930,-0.425,-1.404,0.702,1.312,60.000,82016.000,1.000
-6.501,-5.060,0.708,1.651,5.108,-6.275,-8.824,6.518,-0.063,0.934,-0.425,-1.404,0.763,1.190,60.000,82017.000,1.000
-3.814,-2.269,2.447,3.332,5.615,-4.838,-7.368,4.416,-0.065,0.936,-0.424,-1.434,0.793,1.221,60.000,82018.000,1.000
-1.045,0.343,3.504,4.670,6.081,-2.257,-3.274,3.200,-0.071,0.935,-0.427,-1.556,0.702,1.221,60.000,82019.000,1.000
1.215,2.024,3.511,5.280,6.068,0.887,2.150,2.739,-0.074,0.936,-0.426,-1.740,0.641,1.099,60.000,82020.000,1.000
2.783,2.252,2.388,4.994,5.154,3.666,6.670,2.189,-0.080,0.934,-0.424,-1.678,0.519,1.038,60.000,82021.000,1.000
4.141,1.235,0.505,3.980,3.228,5.183,8.244,0.771,-0.082,0.932,-0.425,-1.709,0.336,0.916,60.000,82022.000,1.000
5.623,-0.404,-1.666,2.397,0.316,4.656,5.945,-1.886,-0.082,0.932,-0.425,-1.709,0.031,0.885,60.000,82023.000,1.000
6.661,-2.391,-3.799,0.213,-3.553,1.674,0.428,-5.664,-0.082,0.930,-0.420,-1.801,-0.244,0.610,60.000,82024.000,1.000
6.736,-4.616,-5.434,-2.214,-7.743,-3.112,-5.995,-9.577,-0.080,0.932,-0.423,-1.862,-0.488,0.549,60.000,82025.000,1.000
5.856,-6.878,-6.108,-4.050,-11.016,-8.099,-10.775,-12.073,-0.077,0.931,-0.423,-1.770,-0.732,0.366,60.000,82026.000,1.000
4.882,-8.402,-5.552,-4.358,-12.074,-11.416,-12.300,-12.077,-0.073,0.931,-0.423,-1.862,-1.068,0.275,60.000,82027.000,1.000
4.553,-8.319,-4.080,-2.979,-10.588,-12.070,-10.663,-10.148,-0.074,0.932,-0.425,-1.862,-1.190,0.275,60.000,82028.000,1.000
4.350,-6.806,-2.606,-0.823,-7.640,-10.574,-7.614,-8.232,-0.071,0.933,-0.425,-1.892,-1.282,0.336,60.000,82029.000,1.000
3.233,-5.036,-1.938,0.961,-4.785,-8.295,-5.075,-7.982,-0.067,0.933,-0.426,-1.923,-1.312,0.366,60.000,82030.000,1.000
0.630,-4.266,-2.357,1.624,-3.104,-6.392,-3.972,-9.573,-0.065,0.932,-0.426,-1.984,-1.373,0.397,60.000,82031.000,1.000
-2.411,-4.416,-3.287,1.320,-2.525,-4.843,-3.627,-11.689,-0.064,0.932,-0.424,-1.953,-1.495,0.336,60.000,82032.000,1.000
-3.993,-4.228,-3.700,0.803,-2.278,-2.881,-2.843,-12.645,-0.062,0.932,-0.426,-1.923,-1.495,0.336,60.000,82033.000,1.000
-3.157,-2.811,-2.864,0.688,-1.889,-0.201,-1.443,-11.554,-0.058,0.930,-0.426,-1.953,-1.343,0.427,60.000,82034.000,1.000
-0.151,-0.321,-0.562,1.284,-1.264,2.875,0.127,-8.588,-0.058,0.927,-0.425,-1.953,-1.312,0.549,60.000,82035.000,1.000
3.735,2.232,2.780,2.527,-0.531,5.770,1.601,-4.734,-0.060,0.925,-0.419,-1.831,-1.221,0.641,60.000,82036.000,1.000
7.258,4.023,6.384,4.233,0.255,7.965,3.125,-1.211,-0.060,0.921,-0.419,-1.709,-1.099,0.549,60.000,82037.000,1.000
9.676,4.804,9.321,6.104,1.062,8.873,4.425,1.016,-0.062,0.921,-0.418,-1.587,-0.977,0.549,60.000,82038.000,1.000
10.683,4.640,10.751,7.722,1.792,8.006,4.524,1.711,-0.064,0.920,-0.417,-1.434,-0.763,0.519,60.000,82039.000,1.000
10.708,3.952,10.344,8.792,2.414,5.542,2.754,1.361,-0.066,0.920,-0.422,-1.434,-0.732,0.488,60.000,82040.000,1.000
10.139,3.153,8.304,9.098,2.763,2.235,-0.803,0.520,-0.068,0.922,-0.423,-1.343,-0.793,0.336,60.000,82041.000,1.000
9.156,2.585,5.443,8.792,2.771,-0.880,-5.108,-0.296,-0.069,0.920,-0.424,-1.282,-0.702,0.244,60.000,82042.000,1.000
7.813,2.417,2.818,8.388,2.570,-2.998,-8.800,-0.492,-0.070,0.923,-0.425,-1.129,-0.793,0.092,60.000,82043.000,1.000
6.492,2.838,1.307,8.542,2.484,-3.719,-11.001,0.494,-0.069,0.923,-0.421,-1.160,-0.732,0.031,60.000,82044.000,1.000
6.253,4.368,1.330,9.727,2.962,-2.968,-11.280,2.799,-0.068,0.925,-0.422,-1.160,-0.702,-0.092,60.000,82045.000,1.000
7.289,6.970,2.361,11.503,3.901,-1.359,-9.917,5.749,-0.065,0.925,-0.423,-1.129,-0.671,-0.244,60.000,82046.000,1.000
8.843,9.928,3.461,12.973,4.856,0.283,-7.442,8.385,-0.064,0.927,-0.421,-1.129,-0.610,-0.366,60.000,82047.000,1.000
10.202,12.432,4.039,13.598,5.580,1.608,-4.268,9.928,-0.062,0.926,-0.419,-1.068,-0.458,-0.427,60.000,82048.000,1.000
11.321,14.011,4.106,13.405,6.084,2.765,-0.768,10.040,-0.060,0.926,-0.423,-1.068,-0.244,-0.580,60.000,82049.000,1.000
13.052,14.863,4.259,12.898,6.542,4.062,2.773,9.140,-0.060,0.927,-0.424,-1.068,-0.031,-0.549,60.000,82050.000,1.000
15.803,15.183,4.987,12.378,6.729,5.237,5.451,7.953,-0.061,0.930,-0.424,-1.038,0.031,-0.671,60.000,82051.000,1.000
19.132,14.876,6.329,11.705,6.021,5.511,5.960,6.949,-0.061,0.929,-0.424,-1.038,0.244,-0.488,60.000,82052.000,1.000
22.055,13.694,7.884,10.430,3.881,4.246,3.582,6.125,-0.063,0.930,-0.424,-1.099,0.397,-0.458,60.000,82053.000,1.000
23.649,11.565,9.177,8.240,0.449,1.683,-0.909,5.188,-0.062,0.928,-0.425,-1.068,0.488,-0.488,60.000,82054.000,1.000
24.041,9.126,10.210,5.492,-3.215,-0.856,-5.208,3.922,-0.063,0.928,-0.424,-1.007,0.610,-0.427,60.000,82055.000,1.000
23.892,7.228,11.198,2.849,-6.003,-1.974,-7.297,2.311,-0.064,0.932,-0.422,-1.099,0.793,-0.305,60.000,82056.000,1.000
23.811,6.316,12.185,0.836,-7.384,-1.119,-6.636,0.687,-0.064,0.933,-0.421,-1.129,0.824,-0.214,60.000,82057.000,1.000
23.564,5.868,12.742,-0.567,-7.617,1.048,-4.178,-0.549,-0.067,0.934,-0.419,-1.160,0.946,-0.183,60.000,82058.000,1.000
22.108,4.729,12.218,-1.798,-7.484,3.083,-1.641,-1.241,-0.071,0.935,-0.419,-1.160,1.007,-0.092,60.000,82059.000,1.000
19.109,2.477,10.516,-3.010,-7.508,3.886,-0.134,-1.326,-0.071,0.934,-0.418,-1.312,0.977,-0.061,60.000,82060.000,1.000
15.159,-0.330,8.120,-4.051,-7.792,3.215,0.242,-0.839,-0.071,0.936,-0.421,-1.343,1.038,0.061,60.000,82061.000,1.000
11.347,-2.739,5.750,-4.684,-8.120,1.657,0.314,0.056,-0.073,0.935,-0.422,-1.465,0.977,0.092,60.000,82062.000,1.000
7.988,-4.562,3.672,-5.113,-8.480,-0.133,0.762,0.712,-0.074,0.937,-0.421,-1.526,1.068,0.244,60.000,82063.000,1.000
4.288,-6.586,1.594,-5.969,-9.154,-1.956,1.270,0.092,-0.074,0.937,-0.421,-1.587,0.916,0.336,60.000,82064.000,1.000
-0.007,-9.148,-0.555,-7.386,-9.981,-3.570,1.446,-2.266,-0.072,0.936,-0.421,-1.587,0.824,0.549,60.000,82065.000,1.000
-4.479,-11.851,-2.515,-8.913,-10.455,-4.549,1.351,-5.898,-0.073,0.934,-0.422,-1.617,0.763,0.702,60.000,82066.000,1.000
-8.499,-14.015,-3.865,-9.783,-10.069,-4.473,1.476,-9.753,-0.072,0.931,-0.417,-1.801,0.702,0.763,60.000,82067.000,1.000
-11.735,-15.073,-4.340,-9.372,-8.564,-3.314,2.123,-12.731,-0.075,0.930,-0.417,-1.831,0.610,0.763,60.000,82068.000,1.000
-14.273,-14.764,-4.019,-7.624,-6.047,-1.519,2.977,-13.944,-0.074,0.928,-0.418,-1.648,0.580,0.793,60.000,82069.000,1.000
-16.142,-13.082,-3.138,-4.968,-2.798,0.404,3.780,-12.813,-0.073,0.929,-0.419,-1.617,0.427,0.885,60.000,82070.000,1.000
-17.857,-10.759,-2.258,-2.345,0.565,1.886,4.471,-9.559,-0.072,0.930,-0.421,-1.465,0.336,0.854,60.000,82071.000,1.000
-19.967,-8.836,-2.135,-0.750,3.343,2.448,5.132,-5.407,-0.072,0.928,-0.421,-1.495,0.214,1.129,60.000,82072.000,1.000
-22.420,-7.897,-3.367,-0.713,5.114,1.945,5.705,-2.054,-0.070,0.929,-0.419,-1.526,0.153,1.068,60.000,82073.000,1.000
-24.689,-7.862,-5.908,-2.010,5.904,0.699,6.038,-0.360,-0.069,0.928,-0.420,-1.556,0.183,1.160,60.000,82074.000,1.000
-26.004,-8.080,-8.862,-3.756,6.188,-0.627,6.415,0.300,-0.068,0.928,-0.423,-1.556,0.031,1.190,60.000,82075.000,1.000
-26.355,-8.148,-11.211,-5.306,6.206,-1.679,7.046,0.811,-0.066,0.925,-0.426,-1.495,0.000,1.160,60.000,82076.000,1.000
-26.060,-7.997,-12.123,-6.437,5.859,-2.392,7.855,1.175,-0.064,0.916,-0.427,-1.343,0.092,1.160,60.000,82077.000,1.000
-25.146,-7.688,-11.114,-7.124,4.946,-2.836,8.344,0.624,-0.064,0.910,-0.426,-1.221,0.122,1.038,60.000,82078.000,1.000
-23.675,-7.580,-8.353,-7.560,3.194,-3.349,7.552,-1.524,-0.062,0.908,-0.426,-1.129,0.214,0.885,60.000,82079.000,1.000
-22.018,-8.249,-4.597,-8.046,0.499,-4.308,4.903,-5.133,-0.058,0.904,-0.425,-0.946,0.397,0.763,60.000,82080.000,1.000
-21.216,-10.253,-0.992,-8.889,-2.842,-5.803,0.757,-9.121,-0.054,0.903,-0.427,-0.488,0.488,0.610,60.000,82081.000,1.000
-21.760,-13.165,1.574,-9.956,-5.798,-7.237,-3.283,-11.597,-0.050,0.904,-0.431,-0.153,0.702,0.519,60.000,82082.000,1.000
-22.868,-15.450,2.650,-10.796,-7.190,-7.796,-5.316,-10.899,-0.047,0.908,-0.429,0.214,0.824,0.275,60.000,82083.000,1.000
-23.169,-15.553,2.106,-11.048,-6.580,-7.242,-4.558,-6.815,-0.046,0.911,-0.431,0.610,0.854,0.031,60.000,82084.000,1.000
-21.600,-12.919,0.169,-10.572,-4.314,-5.993,-1.542,-0.714,-0.047,0.919,-0.423,1.007,1.038,-0.183,60.000,82085.000,1.000
-18.809,-8.744,-2.787,-9.723,-1.357,-4.878,2.216,5.366,-0.050,0.926,-0.423,1.160,1.373,-0.397,60.000,82086.000,1.000
-16.393,-4.987,-5.964,-8.876,1.474,-4.286,5.594,10.282,-0.055,0.930,-0.425,1.251,1.617,-0.732,60.000,82087.000,1.000
-15.248,-2.913,-8.277,-8.101,3.890,-3.903,8.511,14.157,-0.058,0.932,-0.426,1.282,1.801,-1.007,60.000,82088.000,1.000
-14.927,-2.516,-9.030,-7.416,5.757,-3.280,11.202,17.402,-0.061,0.933,-0.425,1.251,1.709,-1.251,60.000,82089.000,1.000
-13.997,-2.684,-8.170,-6.848,6.891,-2.159,13.627,19.954,-0.063,0.933,-0.423,1.251,1.617,-1.404,60.000,82090.000,1.000
-11.997,-2.533,-6.389,-6.603,6.832,-0.724,14.970,21.242,-0.066,0.933,-0.423,1.160,1.617,-1.526,60.000,82091.000,1.000
-9.601,-1.959,-4.619,-6.803,5.311,0.672,14.438,20.893,-0.066,0.935,-0.425,1.221,1.587,-1.740,60.000,82092.000,1.000
-7.444,-1.361,-3.527,-7.375,2.699,1.724,12.165,19.073,-0.070,0.937,-0.427,1.129,1.434,-1.770,60.000,82093.000,1.000
-5.307,-1.053,-3.262,-8.077,-0.079,2.254,9.086,16.266,-0.071,0.940,-0.426,0.916,1.373,-1.770,60.000,82094.000,1.000
-2.025,-0.484,-3.253,-8.299,-1.770,2.484,6.395,13.046,-0.073,0.942,-0.424,0.671,1.282,-1.801,60.000,82095.000,1.000
2.670,1.128,-2.796,-7.621,-1.695,2.769,4.461,9.745,-0.074,0.943,-0.423,0.488,1.129,-1.892,60.000,82096.000,1.000
7.639,4.057,-1.524,-6.147,-0.064,3.447,3.112,6.629,-0.076,0.945,-0.423,0.336,0.916,-1.862,60.000,82097.000,1.000
11.589,8.073,0.548,-4.332,2.506,4.899,2.671,4.210,-0.075,0.945,-0.424,0.000,0.732,-1.862,60.000,82098.000,1.000
14.121,12.623,3.133,-2.722,5.360,7.425,3.937,3.057,-0.077,0.943,-0.422,-0.244,0.458,-1.617,60.000,82099.000,1.000
15.718,16.852,5.799,-1.592,7.808,10.905,7.136,3.176,-0.079,0.944,-0.419,-0.458,0.214,-1.373,60.000,82100.000,1.000
16.463,19.419,7.985,-0.784,9.026,14.598,10.917,3.730,-0.080,0.942,-0.420,-0.763,-0.092,-1.099,60.000,82101.000,1.000
16.342,19.550,9.498,0.503,8.759,17.911,13.611,3.767,-0.082,0.941,-0.423,-0.885,-0.458,-0.946,60.000,82102.000,1.000
15.685,17.728,10.362,2.921,7.475,20.669,14.382,2.580,-0.080,0.939,-0.421,-1.190,-0.671,-0.702,60.000,82103.000,1.000
14.830,15.128,10.237,6.033,5.752,22.567,12.808,-0.374,-0.079,0.939,-0.421,-1.556,-0.885,-0.305,60.000,82104.000,1.000
13.902,12.698,8.522,8.540,3.893,23.039,8.816,-5.128,-0.079,0.939,-0.420,-1.770,-1.007,-0.183,60.000,82105.000,1.000
11.853,10.086,4.733,8.931,1.587,21.496,2.814,-10.990,-0.079,0.935,-0.420,-1.862,-1.190,0.000,60.000,82106.000,1.000
7.497,6.505,-0.629,6.809,-1.255,18.217,-3.744,-16.522,-0.077,0.932,-0.423,-1.892,-1.312,0.153,60.000,82107.000,1.000
1.185,2.267,-5.954,3.483,-3.677,14.555,-8.835,-20.149,-0.075,0.929,-0.420,-2.014,-1.465,0.488,60.000,82108.000,1.000
-5.288,-1.275,-9.468,1.081,-4.195,12.029,-11.209,-20.983,-0.073,0.926,-0.422,-2.075,-1.587,0.580,60.000,82109.000,1.000
-9.868,-2.730,-10.135,1.271,-1.812,11.575,-10.470,-19.014,-0.072,0.925,-0.424,-1.984,-1.678,0.854,60.000,82110.000,1.000
-12.088,-1.903,-8.224,4.114,3.084,13.108,-6.961,-14.987,-0.072,0.927,-0.426,-1.923,-1.831,1.038,60.000,82111.000,1.000
-12.745,0.318,-4.875,8.310,8.968,15.666,-1.673,-9.960,-0.070,0.930,-0.429,-1.801,-1.801,1.251,60.000,82112.000,1.000
-12.631,2.721,-1.434,12.195,13.948,17.641,3.545,-5.083,-0.066,0.932,-0.424,-1.801,-1.770,1.404,60.000,82113.000,1.000
-11.830,4.563,1.147,14.698,16.671,17.484,6.556,-1.266,-0.069,0.931,-0.422,-1.770,-1.740,1.495,60.000,82114.000,1.000
-9.642,6.164,2.703,15.733,17.099,14.787,6.486,1.295,-0.067,0.929,-0.421,-1.678,-1.587,1.587,60.000,82115.000,1.000
-6.314,7.857,3.292,15.371,15.784,10.057,3.570,2.759,-0.067,0.927,-0.424,-1.648,-1.587,1.801,60.000,82116.000,1.000
-2.984,9.487,3.168,13.767,13.332,4.241,-1.286,3.398,-0.066,0.923,-0.426,-1.678,-1.587,1.770,60.000,82117.000,1.000
0.027,11.040,3.249,11.804,10.729,-1.253,-6.444,3.834,-0.066,0.919,-0.428,-1.465,-1.526,1.831,60.000,82118.000,1.000
3.669,12.794,4.748,10.858,9.287,-4.830,-10.014,4.924,-0.065,0.916,-0.428,-1.312,-1.434,1.801,60.000,82119.000,1.000
8.828,14.720,8.010,11.641,9.708,-5.692,-10.939,6.938,-0.066,0.916,-0.429,-1.190,-1.404,1.831,60.000,82120.000,1.000
13.997,15.545,11.606,13.168,11.035,-4.873,-10.215,8.991,-0.068,0.918,-0.425,-0.946,-1.373,1.678,60.000,82121.000,1.000
16.396,13.716,13.509,13.761,11.529,-4.380,-9.828,10.024,-0.069,0.919,-0.426,-0.763,-1.404,1.678,60.000,82122.000,1.000
15.250,9.293,12.997,12.755,10.478,-5.307,-10.533,10.036,-0.068,0.920,-0.426,-0.549,-1.312,1.678,60.000,82123.000,1.000
13.053,4.515,11.201,11.081,8.884,-6.982,-11.104,10.219,-0.068,0.920,-0.427,-0.366,-1.282,1.587,60.000,82124.000,1.000
13.261,2.268,9.823,10.230,8.350,-7.953,-9.877,11.875,-0.068,0.923,-0.425,-0.275,-1.343,1.495,60.000,82125.000,1.000
15.756,2.985,9.008,10.141,8.775,-8.060,-7.564,14.660,-0.068,0.926,-0.427,-0.214,-1.312,1.312,60.000,82126.000,1.000
17.097,4.417,7.471,9.353,8.368,-8.398,-6.706,16.581,-0.068,0.926,-0.427,-0.214,-1.312,1.190,60.000,82127.000,1.000
15.009,4.391,4.451,7.115,5.893,-9.548,-8.476,16.006,-0.067,0.927,-0.427,-0.275,-1.312,1.099,60.000,82128.000,1.000
10.832,2.657,0.723,4.353,1.957,-10.748,-11.255,13.200,-0.068,0.928,-0.430,-0.244,-1.312,0.977,60.000,82129.000,1.000
7.670,0.407,-2.203,2.533,-1.788,-10.656,-12.300,9.691,-0.071,0.927,-0.429,-0.305,-1.312,0.854,60.000,82130.000,1.000
6.297,-1.692,-3.787,1.808,-4.555,-8.902,-10.982,6.502,-0.070,0.929,-0.429,-0.366,-1.343,0.641,60.000,82131.000,1.000
5.195,-3.671,-4.539,1.279,-6.691,-6.316,-8.981,3.957,-0.072,0.931,-0.427,-0.427,-1.343,0.580,60.000,82132.000,1.000
3.626,-5.166,-4.979,0.437,-8.624,-3.971,-7.677,2.404,-0.073,0.933,-0.428,-0.488,-1.343,0.458,60.000,82133.000,1.000
2.767,-5.402,-5.164,-0.418,-10.245,-2.418,-6.608,2.182,-0.075,0.934,-0.430,-0.580,-1.465,0.336,60.000,82134.000,1.000
4.208,-4.011,-4.987,-0.777,-11.099,-1.617,-4.560,2.965,-0.074,0.935,-0.429,-0.641,-1.587,0.183,60.000,82135.000,1.000
7.294,-1.890,-4.858,-0.972,-11.305,-1.690,-2.104,3.405,-0.071,0.933,-0.424,-0.854,-1.587,0.092,60.000,82136.000,1.000
9.763,-0.371,-5.327,-1.880,-11.565,-2.929,-1.196,2.078,-0.070,0.933,-0.426,-1.038,-1.495,0.061,60.000,82137.000,1.000
10.313,0.017,-6.312,-3.821,-12.411,-5.161,-2.609,-1.341,-0.070,0.933,-0.427,-0.977,-1.526,-0.031,60.000,82138.000,1.000
9.532,-0.364,-7.066,-6.107,-13.779,-7.472,-4.968,-5.900,-0.069,0.927,-0.427,-1.068,-1.495,-0.092,60.000,82139.000,1.000
8.971,-0.779,-6.813,-7.552,-15.076,-8.577,-6.100,-10.093,-0.067,0.929,-0.426,-1.160,-1.465,-0.122,60.000,82140.000,1.000
8.908,-1.086,-5.668,-7.717,-15.890,-7.791,-5.363,-12.893,-0.067,0.928,-0.424,-1.221,-1.373,-0.061,60.000,82141.000,1.000
8.463,-1.580,-4.394,-7.061,-16.069,-5.326,-3.525,-13.924,-0.066,0.928,-0.426,-1.343,-1.251,0.000,60.000,82142.000,1.000
7.146,-2.316,-3.635,-6.327,-15.507,-2.092,-1.211,-13.292,-0.066,0.930,-0.427,-1.465,-1.190,-0.031,60.000,82143.000,1.000
5.615,-2.820,-3.500,-5.991,-14.151,0.692,1.582,-11.590,-0.065,0.929,-0.428,-1.526,-1.007,0.000,60.000,82144.000,1.000
5.492,-2.100,-3.515,-5.953,-11.970,2.176,5.046,-9.785,-0.064,0.929,-0.427,-1.617,-0.946,0.092,60.000,82145.000,1.000
7.351,0.142,-3.310,-6.080,-9.390,2.011,8.472,-9.005,-0.065,0.927,-0.427,-1.709,-0.732,0.153,60.000,82146.000,1.000
9.943,2.829,-2.942,-6.514,-7.281,0.396,10.435,-9.920,-0.062,0.928,-0.429,-1.740,-0.641,0.153,60.000,82147.000,1.000
11.018,4.129,-2.860,-7.553,-6.526,-2.080,9.746,-12.362,-0.063,0.928,-0.428,-1.770,-0.488,0.214,60.000,82148.000,1.000
8.780,2.825,-3.541,-9.238,-7.427,-4.718,6.154,-15.285,-0.064,0.927,-0.427,-1.831,-0.336,0.244,60.000,82149.000,1.000
3.564,-0.497,-4.870,-10.959,-9.186,-6.742,1.083,-17.077,-0.064,0.926,-0.426,-1.892,-0.122,0.275,60.000,82150.000,1.000
-2.584,-4.100,-6.265,-11.910,-10.433,-7.582,-2.891,-16.538,-0.065,0.928,-0.425,-1.923,-0.031,0.336,60.000,82151.000,1.000
-7.133,-6.289,-7.079,-11.515,-10.030,-6.945,-3.302,-13.671,-0.066,0.931,-0.422,-1.923,0.122,0.366,60.000,82152.000,1.000
-8.973,-6.484,-7.289,-9.957,-7.984,-5.159,0.236,-9.857,-0.066,0.931,-0.425,-1.923,0.244,0.488,60.000,82153.000,1.000
-9.447,-5.523,-7.672,-8.310,-5.709,-3.399,5.109,-6.926,-0.065,0.931,-0.422,-2.045,0.305,0.671,60.000,82154.000,1.000
-10.302,-4.424,-8.681,-7.438,-4.581,-2.688,8.142,-5.476,-0.066,0.930,-0.420,-2.228,0.549,0.671,60.000,82155.000,1.000
-11.617,-3.386,-9.651,-7.146,-4.599,-2.907,8.358,-4.492,-0.067,0.931,-0.419,-2.319,0.671,0.641,60.000,82156.000,1.000
-11.426,-1.598,-9.188,-6.355,-4.431,-2.850,7.334,-2.696,-0.067,0.928,-0.421,-2.472,0.671,0.824,60.000,82157.000,1.000
-8.578,1.283,-6.793,-4.632,-3.278,-1.726,6.570,-0.292,-0.069,0.930,-0.422,-2.533,0.793,0.946,60.000,82158.000,1.000
-5.405,3.632,-3.727,-3.152,-2.248,-0.278,5.332,1.106,-0.068,0.929,-0.424,-2.502,0.732,1.099,60.000,82159.000,1.000
-5.147,3.386,-1.595,-3.217,-2.968,0.279,2.295,0.440,-0.069,0.930,-0.422,-2.441,0.732,1.160,60.000,82160.000,1.000
-7.943,0.512,-0.782,-4.620,-5.628,-0.312,-2.184,-1.614,-0.068,0.929,-0.419,-2.502,0.793,1.282,60.000,82161.000,1.000
-10.091,-2.446,-0.189,-5.622,-8.524,-1.031,-5.777,-3.102,-0.068,0.929,-0.420,-2.563,0.885,1.343,60.000,82162.000,1.000
-8.262,-2.918,1.341,-4.852,-9.720,-0.823,-6.473,-2.503,-0.069,0.931,-0.419,-2.533,0.732,1.465,60.000,82163.000,1.000
-3.552,-1.024,3.559,-2.956,-8.943,0.067,-4.697,-0.067,-0.069,0.930,-0.423,-2.625,0.580,1.465,60.000,82164.000,1.000
0.416,1.158,5.300,-1.664,-7.301,0.564,-2.231,2.655,-0.069,0.931,-0.421,-2.716,0.610,1.465,60.000,82165.000,1.000
1.756,2.015,5.900,-1.772,-5.748,0.070,-0.259,4.358,-0.069,0.933,-0.422,-2.899,0.519,1.587,60.000,82166.000,1.000
2.262,1.993,5.984,-2.219,-4.029,-0.778,1.399,5.132,-0.070,0.932,-0.420,-2.991,0.519,1.617,60.000,82167.000,1.000
4.154,2.270,6.349,-1.697,-1.675,-1.092,2.932,5.782,-0.069,0.931,-0.418,-3.082,0.427,1.801,60.000,82168.000,1.000
6.135,2.441,6.662,-0.542,0.452,-1.117,3.132,6.434,-0.069,0.930,-0.421,-2.930,0.366,1.801,60.000,82169.000,1.000
5.310,1.240,6.164,-0.009,0.919,-1.752,0.815,6.419,-0.069,0.929,-0.422,-3.021,0.244,1.801,60.000,82170.000,1.000
1.288,-1.322,4.828,-0.586,-0.474,-3.287,-3.369,5.160,-0.068,0.929,-0.419,-2.960,0.153,1.862,60.000,82171.000,1.000
-2.767,-3.413,3.562,-1.405,-2.120,-4.996,-6.968,3.087,-0.067,0.927,-0.415,-2.930,0.122,1.801,60.000,82172.000,1.000
-3.933,-3.440,3.091,-1.470,-2.275,-6.111,-7.930,1.254,-0.064,0.928,-0.416,-2.838,0.153,1.709,60.000,82173.000,1.000
-3.024,-1.814,3.164,-0.800,-0.670,-6.532,-6.226,0.391,-0.066,0.927,-0.416,-2.899,0.061,1.678,60.000,82174.000,1.000
-2.692,0.060,3.237,0.148,2.027,-6.322,-2.948,0.742,-0.066,0.928,-0.419,-2.777,0.061,1.648,60.000,82175.000,1.000
-4.239,1.175,3.005,1.092,5.046,-5.648,0.427,2.133,-0.065,0.928,-0.419,-2.716,-0.061,1.648,60.000,82176.000,1.000
-6.395,1.569,2.554,2.114,7.956,-4.807,2.722,4.114,-0.063,0.927,-0.421,-2.594,-0.092,1.495,60.000,82177.000,1.000
-7.452,1.617,2.011,3.224,10.482,-4.155,3.556,6.005,-0.065,0.928,-0.419,-2.625,-0.153,1.465,60.000,82178.000,1.000
-7.720,1.028,1.234,4.030,12.152,-4.042,3.167,7.128,-0.063,0.928,-0.420,-2.502,-0.214,1.343,60.000,82179.000,1.000
-8.243,-0.467,0.248,4.351,12.722,-4.453,2.490,7.262,-0.063,0.928,-0.420,-2.411,-0.244,1.251,60.000,82180.000,1.000
-8.968,-2.395,-0.619,4.412,12.388,-5.105,2.516,6.455,-0.063,0.930,-0.421,-2.350,-0.214,1.221,60.000,82181.000,1.000
-8.439,-3.655,-0.880,4.640,11.763,-5.615,3.722,4.928,-0.064,0.930,-0.417,-2.228,-0.244,1.007,60.000,82182.000,1.000
-5.866,-3.719,-0.340,5.194,11.376,-5.694,5.693,3.221,-0.063,0.928,-0.421,-2.167,-0.214,0.885,60.000,82183.000,1.000
-2.776,-3.432,0.639,5.753,11.142,-5.305,7.165,2.114,-0.062,0.928,-0.419,-2.106,-0.305,0.824,60.000,82184.000,1.000
-1.113,-3.730,1.561,6.032,10.759,-4.486,7.242,2.200,-0.060,0.928,-0.422,-2.075,-0.305,0.671,60.000,82185.000,1.000
-1.285,-4.527,2.005,5.888,10.058,-3.424,5.976,3.170,-0.059,0.931,-0.419,-2.014,-0.305,0.580,60.000,82186.000,1.000
-1.801,-4.750,1.877,5.396,9.236,-2.274,4.313,3.994,-0.060,0.931,-0.419,-1.923,-0.244,0.488,60.000,82187.000,1.000
-1.163,-3.640,1.275,4.639,8.512,-1.185,3.072,3.671,-0.060,0.930,-0.420,-1.831,-0.214,0.366,60.000,82188.000,1.000
0.262,-1.754,0.307,3.491,7.733,-0.374,2.086,1.953,-0.061,0.929,-0.417,-1.831,-0.122,0.275,60.000,82189.000,1.000
1.333,-0.006,-0.633,2.058,6.839,0.295,1.135,-0.325,-0.060,0.929,-0.419,-1.770,-0.122,0.183,60.000,82190.000,1.000
1.198,0.993,-1.271,0.520,5.738,0.995,0.231,-2.122,-0.062,0.928,-0.418,-1.648,-0.153,0.031,60.000,82191.000,1.000
-0.241,1.055,-1.730,-1.070,4.077,1.540,-0.698,-3.065,-0.063,0.925,-0.417,-1.709,-0.092,0.061,60.000,82192.000,1.000
-2.661,0.261,-2.312,-2.711,1.467,1.602,-1.953,-3.581,-0.063,0.925,-0.418,-1.587,-0.061,0.000,60.000,82193.000,1.000
-5.771,-1.243,-3.041,-4.252,-2.000,1.266,-3.798,-4.323,-0.062,0.924,-0.421,-1.434,-0.061,-0.092,60.000,82194.000,1.000
-8.627,-2.945,-3.295,-5.099,-5.323,1.360,-5.706,-5.293,-0.061,0.926,-0.420,-1.251,0.061,-0.061,60.000,82195.000,1.000
-10.153,-4.363,-2.506,-4.814,-7.360,2.613,-6.812,-5.811,-0.062,0.926,-0.417,-1.099,0.092,-0.183,60.000,82196.000,1.000
-9.751,-5.251,-0.734,-3.426,-7.538,4.990,-6.350,-4.949,-0.063,0.927,-0.419,-0.977,0.122,-0.244,60.000,82197.000,1.000
-7.746,-5.596,1.337,-1.295,-6.011,7.756,-4.027,-2.253,-0.063,0.928,-0.419,-0.885,-0.031,-0.153,60.000,82198.000,1.000
-5.302,-5.514,2.821,1.133,-3.446,9.926,-0.504,1.764,-0.061,0.927,-0.421,-0.916,0.153,-0.122,60.000,82199.000,1.000
-3.001,-4.611,3.376,3.683,-0.358,11.032,3.185,5.911,-0.062,0.929,-0.418,-0.763,0.092,-0.214,60.000,82200.000,1.000
-0.945,-2.551,3.164,6.087,2.769,11.035,5.818,8.890,-0.065,0.928,-0.422,-0.702,0.092,-0.092,60.000,82201.000,1.000
0.754,0.215,2.639,7.873,5.322,10.009,6.286,10.065,-0.064,0.927,-0.422,-0.610,0.092,-0.092,60.000,82202.000,1.000
1.722,2.521,2.175,8.463,6.653,8.024,4.113,9.548,-0.063,0.928,-0.424,-0.610,0.031,0.000,60.000,82203.000,1.000
1.505,3.208,1.739,7.317,6.265,5.264,-0.308,7.597,-0.064,0.925,-0.422,-0.488,0.000,0.092,60.000,82204.000,1.000
0.695,2.324,1.338,4.705,4.464,2.515,-5.305,4.667,-0.064,0.925,-0.423,-0.397,0.031,0.122,60.000,82205.000,1.000
0.288,0.763,1.303,1.806,2.333,0.959,-8.667,1.748,-0.066,0.929,-0.420,-0.275,0.092,0.244,60.000,82206.000,1.000
0.799,-0.623,2.248,0.124,1.213,1.533,-8.723,0.172,-0.066,0.930,-0.418,-0.214,-0.061,0.397,60.000,82207.000,1.000
2.122,-1.414,4.422,0.456,1.846,4.118,-5.234,0.528,-0.065,0.930,-0.422,-0.061,-0.122,0.519,60.000,82208.000,1.000
3.794,-1.605,7.101,2.302,3.750,7.278,0.332,2.011,-0.067,0.930,-0.419,-0.061,-0.153,0.458,60.000,82209.000,1.000
5.773,-1.189,9.152,4.596,5.748,9.251,5.900,3.284,-0.067,0.930,-0.420,-0.092,-0.305,0.549,60.000,82210.000,1.000
7.769,-0.477,9.712,6.362,6.626,8.856,9.504,3.484,-0.068,0.930,-0.420,-0.214,-0.336,0.580,60.000,82211.000,1.000
9.193,0.098,8.774,7.210,5.905,6.133,10.075,2.688,-0.069,0.931,-0.420,-0.183,-0.458,0.702,60.000,82212.000,1.000
9.717,0.473,7.129,7.295,4.128,2.333,7.853,1.526,-0.070,0.932,-0.421,-0.183,-0.488,0.763,60.000,82213.000,1.000
9.319,0.737,5.690,6.872,2.240,-0.927,3.850,0.455,-0.068,0.931,-0.420,-0.214,-0.641,0.763,60.000,82214.000,1.000
8.457,0.847,5.001,6.167,0.959,-2.606,-0.564,-0.447,-0.066,0.932,-0.417,-0.305,-0.702,0.793,60.000,82215.000,1.000
7.156,0.161,4.757,5.085,0.221,-2.969,-4.433,-1.433,-0.064,0.932,-0.420,-0.336,-0.702,0.946,60.000,82216.000,1.000
5.121,-1.847,4.240,3.526,-0.356,-2.953,-7.213,-2.699,-0.064,0.932,-0.422,-0.275,-0.732,0.946,60.000,82217.000,1.000
2.419,-4.685,2.969,1.732,-0.853,-3.170,-8.639,-4.122,-0.067,0.933,-0.421,-0.275,-0.763,1.038,60.000,82218.000,1.000
-0.551,-7.244,0.855,0.026,-1.193,-3.771,-9.026,-5.338,-0.065,0.932,-0.420,-0.336,-0.793,1.068,60.000,82219.000,1.000
-2.676,-8.316,-1.606,-1.186,-1.097,-4.414,-8.615,-5.836,-0.065,0.934,-0.420,-0.275,-1.007,1.068,60.000,82220.000,1.000
-2.915,-7.273,-3.624,-1.630,-0.314,-4.529,-7.308,-5.287,-0.065,0.934,-0.421,-0.549,-0.946,1.190,60.000,82221.000,1.000
-0.905,-4.168,-4.465,-1.146,1.287,-3.544,-4.781,-3.540,-0.064,0.934,-0.423,-0.610,-0.854,1.190,60.000,82222.000,1.000
2.710,0.224,-3.918,0.186,3.558,-1.331,-1.074,-0.801,-0.064,0.934,-0.420,-0.702,-0.946,1.068,60.000,82223.000,1.000
6.392,4.432,-2.450,1.881,5.926,1.496,2.989,2.141,-0.063,0.935,-0.420,-0.763,-0.824,1.007,60.000,82224.000,1.000
9.490,7.659,-0.383,3.713,8.184,4.390,6.961,4.577,-0.062,0.932,-0.421,-0.824,-0.946,0.946,60.000,82225.000,1.000
12.319,10.157,2.240,5.737,10.574,7.318,11.108,6.270,-0.064,0.932,-0.420,-0.977,-0.977,0.854,60.000,82226.000,1.000
14.962,12.280,5.165,7.787,13.065,10.485,15.791,7.270,-0.066,0.932,-0.418,-1.038,-0.977,0.824,60.000,82227.000,1.000
16.565,13.659,7.648,9.197,14.883,13.739,20.735,7.703,-0.065,0.931,-0.418,-1.190,-0.885,0.702,60.000,82228.000,1.000
15.827,13.377,8.789,9.160,14.921,16.143,24.483,7.719,-0.066,0.929,-0.422,-1.190,-0.916,0.519,60.000,82229.000,1.000
12.554,11.126,8.282,7.525,12.788,16.424,25.080,7.423,-0.066,0.928,-0.419,-1.190,-0.946,0.397,60.000,82230.000,1.000
7.420,7.389,6.321,4.684,8.895,13.690,21.006,6.587,-0.067,0.928,-0.421,-1.251,-0.916,0.305,60.000,82231.000,1.000
1.336,3.037,3.313,1.133,3.943,8.126,12.315,4.707,-0.065,0.927,-0.421,-1.282,-0.854,0.275,60.000,82232.000,1.000
-5.105,-1.444,-0.374,-2.912,-1.679,0.760,0.697,1.176,-0.065,0.925,-0.421,-1.251,-0.916,0.183,60.000,82233.000,1.000
-11.753,-6.250,-4.400,-7.409,-7.884,-7.175,-11.369,-4.152,-0.067,0.924,-0.425,-1.221,-0.946,0.122,60.000,82234.000,1.000
-17.426,-10.875,-7.943,-11.594,-13.827,-14.031,-20.746,-10.105,-0.065,0.924,-0.428,-1.099,-0.946,0.092,60.000,82235.000,1.000
-20.240,-13.857,-10.059,-14.219,-18.011,-18.137,-24.981,-14.703,-0.064,0.922,-0.421,-1.068,-0.824,0.122,60.000,82236.000,1.000
-19.051,-13.942,-10.336,-14.505,-19.316,-18.707,-23.784,-16.542,-0.064,0.923,-0.418,-1.038,-0.732,0.061,60.000,82237.000,1.000
-14.494,-11.313,-9.197,-12.834,-17.817,-16.334,-19.080,-15.722,-0.063,0.922,-0.422,-0.885,-0.702,0.061,60.000,82238.000,1.000
-8.991,-7.842,-7.721,-10.611,-14.923,-12.661,-13.850,-13.601,-0.063,0.923,-0.423,-0.854,-0.671,0.061,60.000,82239.000,1.000
-4.765,-5.516,-6.750,-8.956,-12.214,-9.143,-10.017,-11.536,-0.063,0.925,-0.425,-0.793,-0.702,0.061,60.000,82240.000,1.000
-2.710,-5.115,-6.480,-7.966,-10.385,-6.355,-7.671,-10.058,-0.063,0.927,-0.422,-0.732,-0.641,0.153,60.000,82241.000,1.000
-2.214,-5.879,-6.467,-6.870,-8.958,-4.014,-5.501,-8.786,-0.064,0.930,-0.423,-0.702,-0.549,0.122,60.000,82242.000,1.000
-1.916,-6.209,-6.043,-4.850,-7.032,-1.609,-2.040,-6.983,-0.065,0.933,-0.421,-0.702,-0.549,0.153,60.000,82243.000,1.000
-0.964,-5.005,-4.940,-1.908,-4.384,0.898,2.933,-4.262,-0.065,0.936,-0.420,-0.793,-0.641,0.092,60.000,82244.000,1.000
0.994,-2.140,-3.353,1.276,-1.513,3.127,8.455,-0.788,-0.066,0.938,-0.416,-1.007,-0.519,0.214,60.000,82245.000,1.000
3.511,1.391,-1.925,3.730,0.711,4.420,12.794,2.663,-0.067,0.937,-0.418,-1.129,-0.488,0.214,60.000,82246.000,1.000
5.610,4.148,-1.349,4.705,1.618,4.234,14.391,4.957,-0.068,0.934,-0.417,-1.312,-0.427,0.092,60.000,82247.000,1.000
6.318,5.185,-2.078,3.860,0.976,2.457,12.644,5.037,-0.068,0.929,-0.419,-1.343,-0.458,0.092,60.000,82248.000,1.000
4.980,4.396,-4.110,1.288,-1.049,-0.458,7.948,2.585,-0.067,0.924,-0.421,-1.343,-0.580,0.183,60.000,82249.000,1.000
2.117,2.695,-6.529,-2.087,-3.614,-3.347,1.853,-1.418,-0.066,0.922,-0.422,-1.373,-0.488,0.305,60.000,82250.000,1.000
-1.166,1.183,-8.052,-4.956,-5.666,-5.056,-3.767,-5.305,-0.070,0.922,-0.425,-1.312,-0.549,0.397,60.000,82251.000,1.000
-3.708,0.610,-7.859,-6.270,-6.529,-5.073,-7.498,-7.737,-0.072,0.923,-0.424,-1.129,-0.519,0.610,60.000,82252.000,1.000
-4.657,1.256,-6.020,-5.665,-6.124,-3.662,-8.842,-8.272,-0.069,0.927,-0.423,-1.007,-0.702,0.702,60.000,82253.000,1.000
-4.200,2.572,-3.434,-3.632,-4.960,-1.766,-8.551,-7.276,-0.068,0.931,-0.420,-1.007,-0.854,0.793,60.000,82254.000,1.000
-3.096,3.606,-1.166,-1.090,-3.570,-0.316,-7.655,-5.357,-0.066,0.934,-0.422,-1.129,-0.916,1.068,60.000,82255.000,1.000
-2.409,3.464,-0.152,0.773,-2.384,0.139,-6.835,-3.198,-0.067,0.937,-0.421,-1.251,-0.916,1.099,60.000,82256.000,1.000
-2.470,2.172,-0.642,1.152,-1.493,-0.325,-6.140,-1.264,-0.073,0.939,-0.423,-1.373,-1.099,1.282,60.000,82257.000,1.000
-2.106,1.058,-1.813,0.353,-0.451,-0.919,-5.021,0.515,-0.077,0.943,-0.420,-1.526,-1.282,1.373,60.000,82258.000,1.000
0.095,1.436,-2.384,-0.576,1.145,-0.653,-2.965,2.484,-0.082,0.945,-0.420,-1.740,-1.495,1.465,60.000,82259.000,1.000
4.394,3.316,-1.492,-0.760,3.092,1.115,0.320,4.727,-0.087,0.945,-0.419,-1.831,-1.801,1.556,60.000,82260.000,1.000
9.104,5.206,0.690,-0.357,4.350,4.151,4.418,6.660,-0.090,0.940,-0.417,-2.014,-2.441,1.495,60.000,82261.000,1.000
12.220,5.700,3.431,-0.089,3.892,7.572,8.396,7.499,-0.091,0.938,-0.419,-2.136,-2.747,1.343,60.000,82262.000,1.000
13.384,4.906,6.143,-0.246,1.783,10.472,11.632,6.992,-0.088,0.938,-0.416,-2.319,-3.326,1.129,60.000,82263.000,1.000
13.582,4.069,8.451,-0.518,-0.786,12.302,14.130,5.579,-0.087,0.934,-0.417,-2.441,-3.784,1.038,60.000,82264.000,1.000
14.044,4.590,10.080,-0.420,-2.324,12.963,16.138,4.012,-0.083,0.933,-0.418,-2.533,-4.181,0.916,60.000,82265.000,1.000
14.472,6.541,10.402,-0.240,-2.509,12.063,16.631,2.556,-0.081,0.932,-0.420,-2.625,-4.578,0.977,60.000,82266.000,1.000
13.283,8.542,8.821,-0.756,-2.151,9.005,13.712,1.078,-0.076,0.930,-0.420,-2.625,-4.913,0.885,60.000,82267.000,1.000
9.311,9.066,5.517,-2.203,-1.889,4.040,6.780,-0.297,-0.073,0.928,-0.421,-2.533,-5.157,0.854,60.000,82268.000,1.000
2.467,7.331,1.335,-4.244,-1.823,-1.496,-2.730,-1.152,-0.067,0.927,-0.426,-2.594,-5.188,0.824,60.000,82269.000,1.000
-6.063,3.769,-2.708,-6.375,-1.786,-5.875,-11.982,-1.152,-0.065,0.927,-0.420,-2.594,-5.371,0.763,60.000,82270.000,1.000
-14.871,-0.559,-6.010,-8.345,-1.722,-8.114,-18.469,-0.390,-0.065,0.928,-0.422,-2.533,-5.402,0.763,60.000,82271.000,1.000
-22.590,-4.415,-8.243,-9.828,-1.400,-8.094,-20.870,0.915,-0.060,0.927,-0.423,-2.502,-5.402,0.702,60.000,82272.000,1.000
-27.552,-6.570,-9.095,-10.220,-0.311,-6.111,-18.967,2.632,-0.057,0.928,-0.424,-2.441,-5.219,0.702,60.000,82273.000,1.000
-28.422,-6.374,-8.514,-9.174,1.695,-2.841,-13.712,4.560,-0.054,0.927,-0.426,-2.380,-5.066,0.702,60.000,82274.000,1.000
-24.726,-3.866,-6.756,-6.840,4.243,0.706,-6.818,6.424,-0.053,0.927,-0.424,-2.411,-4.730,0.732,60.000,82275.000,1.000
-17.968,-0.155,-4.632,-4.116,6.382,3.109,-0.706,7.526,-0.052,0.927,-0.423,-2.228,-4.517,0.732,60.000,82276.000,1.000
-11.120,2.891,-3.235,-2.253,6.988,3.067,2.294,6.871,-0.051,0.927,-0.419,-2.167,-4.333,0.732,60.000,82277.000,1.000
-6.667,3.708,-3.265,-2.063,5.384,0.209,1.196,4.019,-0.050,0.926,-0.423,-1.923,-4.089,0.580,60.000,82278.000,1.000
-5.293,1.922,-4.549,-3.321,1.774,-4.548,-3.139,-0.195,-0.052,0.925,-0.423,-1.862,-3.784,0.488,60.000,82279.000,1.000
-5.380,-1.027,-5.856,-4.522,-2.306,-9.049,-7.977,-3.737,-0.052,0.924,-0.424,-1.709,-3.448,0.427,60.000,82280.000,1.000
-5.003,-3.078,-5.911,-4.094,-4.891,-11.161,-10.492,-4.737,-0.052,0.923,-0.423,-1.617,-3.204,0.397,60.000,82281.000,1.000
-3.385,-2.900,-4.269,-1.502,-4.857,-9.996,-9.445,-2.543,-0.053,0.924,-0.426,-1.434,-3.021,0.275,60.000,82282.000,1.000
-0.453,-0.162,-1.286,2.792,-2.373,-6.116,-5.347,2.285,-0.053,0.926,-0.424,-1.282,-2.869,0.122,60.000,82283.000,1.000
3.484,4.396,2.177,7.732,1.231,-1.088,0.013,8.278,-0.056,0.923,-0.418,-1.282,-2.472,0.031,60.000,82284.000,1.000
7.913,9.317,5.224,12.148,4.286,3.421,4.674,13.438,-0.055,0.923,-0.421,-1.129,-2.228,-0.061,60.000,82285.000,1.000
11.477,12.804,7.017,14.856,5.393,6.170,7.030,15.807,-0.059,0.922,-0.421,-1.038,-2.106,-0.244,60.000,82286.000,1.000
12.906,13.941,7.275,15.312,4.155,6.948,6.613,14.614,-0.063,0.922,-0.418,-0.854,-1.923,-0.397,60.000,82287.000,1.000
12.435,13.351,6.588,14.117,1.513,6.684,4.562,10.785,-0.065,0.923,-0.420,-0.824,-1.801,-0.610,60.000,82288.000,1.000
11.257,12.058,5.731,12.317,-1.101,6.462,2.603,6.109,-0.064,0.924,-0.418,-0.702,-1.587,-0.854,60.000,82289.000,1.000
10.592,10.644,5.002,10.610,-2.684,6.759,2.066,2.141,-0.064,0.925,-0.419,-0.580,-1.465,-1.068,60.000,82290.000,1.000
10.441,8.916,3.982,8.914,-3.294,7.192,2.992,-0.581,-0.064,0.928,-0.419,-0.641,-1.434,-1.160,60.000,82291.000,1.000
9.992,6.456,2.196,6.967,-3.589,7.060,4.429,-2.448,-0.064,0.930,-0.417,-0.702,-1.312,-1.190,60.000,82292.000,1.000
8.935,3.396,-0.261,4.954,-3.994,6.076,5.544,-4.150,-0.065,0.932,-0.418,-0.854,-1.282,-1.312,60.000,82293.000,1.000
7.549,0.275,-2.809,3.290,-4.559,4.530,6.073,-5.964,-0.066,0.934,-0.417,-0.793,-1.251,-1.373,60.000,82294.000,1.000
6.433,-2.327,-4.610,2.417,-5.063,3.102,6.239,-7.414,-0.065,0.934,-0.419,-0.793,-1.160,-1.434,60.000,82295.000,1.000
5.502,-4.435,-5.238,2.383,-5.479,2.271,6.023,-7.955,-0.064,0.934,-0.419,-0.854,-1.007,-1.526,60.000,82296.000,1.000
4.441,-6.183,-4.696,2.980,-5.746,2.413,5.674,-7.383,-0.063,0.936,-0.419,-0.946,-0.793,-1.709,60.000,82297.000,1.000
3.636,-7.090,-3.133,3.944,-5.477,3.722,5.964,-5.879,-0.064,0.938,-0.416,-1.099,-0.702,-1.617,60.000,82298.000,1.000
3.481,-6.808,-0.982,4.728,-4.557,5.435,6.693,-4.194,-0.063,0.938,-0.415,-1.282,-0.580,-1.709,60.000,82299.000,1.000
4.016,-5.744,1.162,4.736,-3.417,6.075,6.523,-3.372,-0.064,0.938,-0.417,-1.465,-0.519,-1.526,60.000,82300.000,1.000
4.550,-5.193,2.642,3.404,-3.063,4.322,4.021,-4.253,-0.063,0.939,-0.416,-1.465,-0.397,-1.495,60.000,82301.000,1.000
4.389,-6.292,3.216,0.673,-4.224,-0.002,-0.946,-6.695,-0.063,0.935,-0.415,-1.495,-0.214,-1.373,60.000,82302.000,1.000
3.495,-9.048,3.208,-2.746,-6.543,-5.764,-6.980,-9.480,-0.065,0.933,-0.416,-1.526,-0.122,-1.160,60.000,82303.000,1.000
1.881,-12.719,2.920,-6.014,-9.012,-11.425,-12.434,-11.413,-0.066,0.932,-0.415,-1.465,-0.061,-0.885,60.000,82304.000,1.000
0.110,-15.886,2.709,-8.299,-10.362,-15.474,-15.679,-11.950,-0.066,0.935,-0.416,-1.434,0.061,-0.854,60.000,82305.000,1.000
-0.753,-17.032,3.103,-8.899,-9.635,-16.759,-15.384,-11.028,-0.071,0.935,-0.416,-1.404,0.031,-0.519,60.000,82306.000,1.000
0.245,-15.476,4.525,-7.599,-6.800,-15.060,-11.401,-8.836,-0.073,0.937,-0.415,-1.373,0.031,-0.397,60.000,82307.000,1.000
3.188,-11.799,6.835,-4.939,-2.878,-11.428,-5.443,-5.978,-0.073,0.937,-0.415,-1.404,0.153,-0.336,60.000,82308.000,1.000
6.817,-7.485,9.267,-2.007,0.607,-7.771,-0.526,-3.323,-0.075,0.937,-0.414,-1.465,0.092,-0.153,60.000,82309.000,1.000
9.746,-3.688,11.128,0.427,2.760,-5.523,1.352,-1.278,-0.075,0.936,-0.415,-1.617,0.122,0.000,60.000,82310.000,1.000
10.864,-1.164,11.971,2.031,3.476,-4.966,0.309,0.229,-0.076,0.935,-0.412,-1.648,0.092,0.061,60.000,82311.000,1.000
