EEG 1,EEG 2,EEG 3,EEG 4,EEG 5,EEG 6,EEG 7,EEG 8,Accelerometer X,Accelerometer Y,Accelerometer Z,Gyroscope X,Gyroscope Y,Gyroscope Z,Battery Level,Counter,Validation Indicator
21.039,19.212,15.073,7.856,4.484,1.102,-1.307,9.110,-0.110,0.895,-0.487,0.824,-1.801,1.404,60.000,51169.000,1.000
20.728,17.699,14.964,7.169,2.872,-1.271,-4.799,8.943,-0.110,0.896,-0.486,0.793,-1.923,1.434,60.000,51170.000,1.000
20.466,17.058,14.620,7.792,3.932,-1.804,-5.614,10.653,-0.108,0.896,-0.487,0.916,-2.075,1.434,60.000,51171.000,1.000
20.469,17.651,14.289,9.547,7.477,-0.207,-3.490,13.858,-0.108,0.897,-0.487,0.854,-2.106,1.343,60.000,51172.000,1.000
20.411,18.979,13.771,11.328,11.675,2.542,0.348,17.354,-0.106,0.900,-0.485,0.732,-2.045,1.282,60.000,51173.000,1.000
19.703,19.974,12.639,11.962,14.305,4.992,4.112,19.994,-0.105,0.899,-0.488,0.702,-2.014,1.221,60.000,51174.000,1.000
17.504,19.541,10.438,10.970,14.114,6.008,6.135,21.139,-0.102,0.898,-0.490,0.610,-2.075,1.221,60.000,51175.000,1.000
13.791,17.647,7.251,8.980,11.591,5.460,5.739,20.706,-0.102,0.898,-0.489,0.488,-2.136,1.190,60.000,51176.000,1.000
9.710,15.212,3.725,7.064,8.227,3.994,3.515,18.834,-0.102,0.899,-0.491,0.397,-2.075,1.099,60.000,51177.000,1.000
6.055,12.436,0.281,5.543,4.862,1.999,0.446,15.659,-0.101,0.898,-0.493,0.366,-1.984,1.099,60.000,51178.000,1.000
3.007,8.693,-2.921,4.203,1.578,-0.367,-2.275,11.889,-0.100,0.897,-0.491,0.336,-1.923,0.977,60.000,51179.000,1.000
0.199,3.582,-5.737,2.909,-1.620,-2.769,-3.831,8.917,-0.099,0.899,-0.493,0.336,-1.740,0.885,60.000,51180.000,1.000
-2.532,-2.068,-7.720,1.969,-4.252,-4.582,-4.165,7.747,-0.096,0.899,-0.493,0.183,-1.434,0.793,60.000,51181.000,1.000
-4.575,-6.460,-8.232,1.951,-5.598,-5.287,-3.591,7.802,-0.094,0.900,-0.491,0.122,-1.373,0.854,60.000,51182.000,1.000
-5.070,-8.260,-6.979,3.087,-5.418,-4.870,-2.333,7.385,-0.095,0.899,-0.493,0.153,-1.221,0.916,60.000,51183.000,1.000
-3.129,-7.162,-4.182,5.105,-3.966,-3.564,-0.199,5.313,-0.096,0.897,-0.486,0.031,-1.099,0.824,60.000,51184.000,1.000
1.016,-4.007,-0.674,7.117,-1.869,-1.688,2.638,1.608,-0.096,0.896,-0.488,0.000,-1.038,0.763,60.000,51185.000,1.000
5.876,-0.201,2.576,8.248,0.263,0.582,5.560,-2.573,-0.096,0.895,-0.490,0.061,-0.671,0.641,60.000,51186.000,1.000
9.750,2.934,4.977,8.281,2.045,3.145,7.962,-5.623,-0.099,0.894,-0.490,0.092,-0.549,0.427,60.000,51187.000,1.000
11.773,4.607,6.474,7.653,3.187,5.702,9.240,-6.485,-0.101,0.893,-0.489,0.092,-0.427,0.366,60.000,51188.000,1.000
12.860,5.276,7.533,7.203,3.736,7.929,9.157,-5.261,-0.102,0.894,-0.491,0.031,-0.366,0.183,60.000,51189.000,1.000
13.988,5.730,8.275,7.142,3.643,9.252,7.536,-3.468,-0.102,0.894,-0.489,0.122,-0.336,0.153,60.000,51190.000,1.000
14.814,5.957,8.189,6.784,2.561,8.988,4.435,-3.035,-0.105,0.893,-0.492,0.122,-0.275,0.153,60.000,51191.000,1.000
14.376,5.297,6.741,5.348,0.251,6.951,0.585,-4.778,-0.105,0.893,-0.492,0.153,-0.275,0.092,60.000,51192.000,1.000
12.268,3.286,3.962,2.706,-3.045,3.734,-2.903,-7.976,-0.104,0.892,-0.491,0.122,-0.305,-0.061,60.000,51193.000,1.000
9.543,0.489,0.700,-0.348,-6.462,0.576,-4.858,-11.233,-0.105,0.895,-0.488,0.122,-0.244,-0.092,60.000,51194.000,1.000
7.224,-2.239,-2.176,-3.020,-9.358,-1.666,-5.229,-13.857,-0.106,0.895,-0.485,0.092,-0.336,-0.153,60.000,51195.000,1.000
5.499,-4.300,-4.273,-4.950,-11.596,-2.985,-5.246,-15.793,-0.109,0.896,-0.487,0.031,-0.366,-0.122,60.000,51196.000,1.000
4.283,-5.238,-5.587,-5.976,-13.048,-3.752,-6.101,-16.787,-0.108,0.898,-0.487,-0.092,-0.397,-0.122,60.000,51197.000,1.000
3.360,-5.048,-6.336,-6.152,-13.552,-4.239,-7.938,-16.509,-0.108,0.899,-0.488,-0.061,-0.427,-0.061,60.000,51198.000,1.000
2.860,-4.042,-6.597,-5.669,-13.031,-4.344,-9.540,-15.145,-0.108,0.898,-0.489,-0.122,-0.397,-0.061,60.000,51199.000,1.000
2.516,-2.988,-6.544,-5.114,-11.997,-4.061,-9.687,-13.655,-0.106,0.898,-0.487,-0.153,-0.549,0.000,60.000,51200.000,1.000
1.624,-2.761,-6.470,-5.189,-11.340,-3.632,-8.205,-13.014,-0.106,0.899,-0.491,-0.214,-0.549,-0.031,60.000,51201.000,1.000
-0.104,-3.594,-6.452,-6.069,-11.450,-3.237,-5.813,-13.304,-0.105,0.898,-0.489,-0.244,-0.519,0.000,60.000,51202.000,1.000
-2.387,-5.017,-6.272,-7.279,-11.953,-2.916,-3.679,-13.653,-0.106,0.898,-0.486,-0.305,-0.427,0.092,60.000,51203.000,1.000
-4.232,-6.073,-5.513,-7.928,-11.943,-2.555,-2.474,-12.895,-0.104,0.898,-0.485,-0.488,-0.427,0.092,60.000,51204.000,1.000
-5.031,-6.262,-4.127,-7.498,-10.791,-2.191,-2.246,-10.537,-0.104,0.898,-0.483,-0.549,-0.549,0.122,60.000,51205.000,1.000
-4.937,-5.829,-2.466,-6.022,-8.363,-1.861,-2.397,-6.899,-0.104,0.901,-0.487,-0.732,-0.427,0.092,60.000,51206.000,1.000
-4.619,-5.399,-1.099,-4.016,-5.028,-1.555,-2.219,-2.827,-0.103,0.898,-0.490,-0.885,-0.488,0.244,60.000,51207.000,1.000
-5.207,-5.699,-0.695,-2.454,-1.784,-1.539,-1.995,0.667,-0.105,0.898,-0.489,-0.977,-0.488,0.275,60.000,51208.000,1.000
-7.004,-6.729,-1.427,-1.982,0.434,-2.063,-2.492,3.003,-0.107,0.896,-0.489,-0.916,-0.366,0.397,60.000,51209.000,1.000
-9.562,-7.989,-3.026,-2.667,1.051,-3.266,-4.283,3.924,-0.104,0.895,-0.489,-0.946,-0.336,0.305,60.000,51210.000,1.000
-12.152,-8.977,-4.971,-4.105,0.012,-5.061,-7.173,3.378,-0.107,0.895,-0.490,-1.007,-0.336,0.366,60.000,51211.000,1.000
-14.026,-9.314,-6.606,-5.607,-1.998,-6.949,-10.035,1.750,-0.104,0.895,-0.489,-1.129,-0.366,0.488,60.000,51212.000,1.000
-15.067,-9.031,-7.496,-6.561,-3.875,-8.185,-11.510,-0.084,-0.103,0.893,-0.490,-0.916,-0.427,0.458,60.000,51213.000,1.000
-15.316,-8.262,-7.416,-6.474,-4.476,-8.004,-10.473,-0.907,-0.104,0.894,-0.490,-0.916,-0.336,0.549,60.000,51214.000,1.000
-15.046,-7.274,-6.553,-5.304,-3.296,-6.210,-6.980,0.014,-0.106,0.895,-0.487,-1.068,-0.366,0.519,60.000,51215.000,1.000
-14.527,-6.300,-5.415,-3.413,-0.625,-3.305,-2.451,2.440,-0.107,0.895,-0.487,-1.190,-0.275,0.519,60.000,51216.000,1.000
-13.858,-5.352,-4.602,-1.389,2.602,-0.339,0.994,5.405,-0.109,0.898,-0.486,-1.282,-0.336,0.610,60.000,51217.000,1.000
-13.517,-4.495,-4.614,-0.039,5.056,1.418,1.521,7.716,-0.111,0.898,-0.485,-1.343,-0.397,0.458,60.000,51218.000,1.000
-13.603,-3.545,-5.241,0.229,6.057,1.493,-0.723,8.594,-0.110,0.897,-0.487,-1.373,-0.397,0.458,60.000,51219.000,1.000
-13.746,-2.362,-5.770,-0.465,5.802,0.455,-3.844,7.903,-0.109,0.895,-0.488,-1.495,-0.580,0.488,60.000,51220.000,1.000
-13.173,-1.074,-5.540,-1.642,4.929,-0.632,-5.698,6.143,-0.110,0.895,-0.489,-1.465,-0.641,0.549,60.000,51221.000,1.000
-11.180,-0.016,-4.358,-2.770,3.995,-0.919,-5.211,4.058,-0.110,0.896,-0.488,-1.251,-0.824,0.519,60.000,51222.000,1.000
-8.218,0.123,-2.565,-3.568,3.103,-0.185,-2.879,2.178,-0.108,0.896,-0.484,-1.160,-0.885,0.519,60.000,51223.000,1.000
-5.151,-0.963,-0.393,-3.647,2.384,1.528,0.310,0.936,-0.109,0.898,-0.486,-1.190,-1.007,0.519,60.000,51224.000,1.000
-2.548,-2.799,2.102,-2.715,2.085,3.900,3.267,0.556,-0.107,0.896,-0.485,-1.190,-0.977,0.549,60.000,51225.000,1.000
-0.227,-4.206,4.958,-0.842,2.461,6.350,5.108,0.961,-0.106,0.896,-0.484,-1.251,-1.038,0.458,60.000,51226.000,1.000
2.365,-4.019,8.194,1.563,3.652,8.317,5.658,1.809,-0.108,0.895,-0.487,-1.282,-1.038,0.427,60.000,51227.000,1.000
5.024,-2.111,11.490,3.834,5.413,9.361,5.211,2.623,-0.108,0.894,-0.483,-1.343,-1.160,0.427,60.000,51228.000,1.000
7.439,0.919,14.395,5.603,7.449,9.532,4.618,3.280,-0.109,0.896,-0.483,-1.282,-1.160,0.427,60.000,51229.000,1.000
9.625,4.314,16.518,6.912,9.551,9.339,4.886,4.071,-0.112,0.897,-0.484,-1.251,-1.282,0.305,60.000,51230.000,1.000
12.178,7.761,17.797,8.177,11.714,9.529,6.657,5.385,-0.112,0.896,-0.484,-1.190,-1.404,0.183,60.000,51231.000,1.000
15.659,11.250,18.366,9.788,13.979,10.541,9.560,7.220,-0.110,0.894,-0.485,-1.190,-1.465,0.153,60.000,51232.000,1.000
19.124,14.113,18.083,11.403,15.896,11.952,11.978,8.916,-0.111,0.894,-0.486,-1.282,-1.373,0.061,60.000,51233.000,1.000
20.767,15.210,16.601,12.069,16.642,12.737,12.479,9.539,-0.110,0.894,-0.487,-1.251,-1.404,0.000,60.000,51234.000,1.000
19.012,13.555,13.483,10.788,15.372,11.765,10.750,8.376,-0.107,0.896,-0.484,-1.251,-1.343,0.031,60.000,51235.000,1.000
13.901,9.330,8.778,7.560,12.133,8.766,7.826,5.632,-0.105,0.895,-0.485,-1.282,-1.343,0.000,60.000,51236.000,1.000
7.186,3.945,3.244,3.514,8.050,4.660,5.204,2.304,-0.105,0.897,-0.485,-1.221,-1.373,0.153,60.000,51237.000,1.000
0.516,-1.365,-2.287,-0.281,4.166,0.554,3.256,-0.814,-0.103,0.899,-0.487,-1.282,-1.312,0.092,60.000,51238.000,1.000
-4.880,-5.904,-7.095,-3.246,0.966,-2.980,1.430,-3.433,-0.103,0.901,-0.486,-1.312,-1.129,0.061,60.000,51239.000,1.000
-8.392,-9.480,-10.701,-5.298,-1.610,-6.154,-1.135,-5.595,-0.101,0.901,-0.482,-1.282,-1.038,0.153,60.000,51240.000,1.000
-9.993,-12.207,-12.799,-6.574,-3.813,-9.472,-4.797,-7.214,-0.102,0.899,-0.482,-1.343,-0.793,0.183,60.000,51241.000,1.000
-10.115,-14.261,-13.279,-7.253,-5.803,-12.998,-8.884,-7.866,-0.102,0.897,-0.482,-1.373,-0.671,0.183,60.000,51242.000,1.000
-9.668,-15.784,-12.506,-7.605,-7.675,-16.176,-12.284,-7.198,-0.103,0.895,-0.484,-1.404,-0.610,0.214,60.000,51243.000,1.000
-9.007,-16.417,-11.124,-7.715,-9.300,-18.109,-14.125,-5.471,-0.103,0.892,-0.484,-1.404,-0.519,0.183,60.000,51244.000,1.000
-8.215,-15.929,-10.014,-7.779,-10.680,-18.470,-14.624,-3.837,-0.103,0.889,-0.487,-1.160,-0.427,0.214,60.000,51245.000,1.000
-7.288,-14.566,-9.783,-8.018,-11.911,-17.574,-14.515,-3.425,-0.104,0.888,-0.489,-1.007,-0.397,0.275,60.000,51246.000,1.000
-5.947,-12.619,-10.243,-8.273,-12.819,-15.724,-13.902,-4.266,-0.107,0.887,-0.490,-0.885,-0.366,0.214,60.000,51247.000,1.000
-4.333,-10.396,-10.709,-8.098,-13.105,-13.096,-12.425,-5.313,-0.109,0.886,-0.491,-0.671,-0.366,0.183,60.000,51248.000,1.000
-2.699,-7.995,-10.429,-6.931,-12.360,-9.803,-9.654,-5.179,-0.112,0.888,-0.490,-0.519,-0.427,0.122,60.000,51249.000,1.000
-1.483,-5.664,-9.243,-4.772,-10.614,-6.335,-5.976,-3.280,-0.113,0.892,-0.485,-0.488,-0.427,0.122,60.000,51250.000,1.000
-1.111,-4.016,-7.649,-2.290,-8.534,-3.503,-2.503,-0.232,-0.113,0.892,-0.487,-0.488,-0.427,0.153,60.000,51251.000,1.000
-1.605,-3.567,-6.334,-0.229,-6.857,-1.870,0.011,2.781,-0.113,0.895,-0.488,-0.458,-0.641,0.183,60.000,51252.000,1.000
-2.776,-4.248,-5.718,1.086,-5.793,-1.269,1.842,5.041,-0.111,0.897,-0.487,-0.610,-0.580,0.214,60.000,51253.000,1.000
-3.832,-5.078,-5.497,1.980,-4.707,-0.643,4.399,6.721,-0.107,0.899,-0.486,-0.549,-0.549,0.275,60.000,51254.000,1.000
-4.198,-5.220,-5.195,2.717,-3.031,0.848,8.355,7.916,-0.104,0.902,-0.481,-0.793,-0.549,0.366,60.000,51255.000,1.000
-3.851,-4.590,-4.677,3.135,-0.923,2.962,12.386,8.105,-0.102,0.899,-0.482,-1.007,-0.427,0.458,60.000,51256.000,1.000
-3.123,-3.697,-4.190,2.830,0.893,4.674,14.256,6.764,-0.102,0.898,-0.481,-1.129,-0.427,0.458,60.000,51257.000,1.000
-2.964,-3.564,-4.174,1.367,1.462,4.935,12.441,4.033,-0.101,0.895,-0.487,-1.221,-0.336,0.549,60.000,51258.000,1.000
-3.715,-4.650,-4.652,-1.039,0.523,3.611,7.442,0.847,-0.104,0.896,-0.489,-1.251,-0.275,0.549,60.000,51259.000,1.000
-4.922,-6.514,-5.350,-3.694,-1.321,1.537,1.257,-1.868,-0.105,0.897,-0.486,-1.221,-0.366,0.702,60.000,51260.000,1.000
-5.872,-8.309,-5.988,-5.970,-3.067,-0.027,-3.731,-3.598,-0.104,0.899,-0.484,-1.251,-0.214,0.671,60.000,51261.000,1.000
-6.029,-9.330,-6.351,-7.554,-3.841,-0.233,-5.797,-4.095,-0.103,0.902,-0.482,-1.312,-0.061,0.732,60.000,51262.000,1.000
-5.541,-9.480,-6.395,-8.414,-3.366,0.671,-4.935,-3.390,-0.100,0.904,-0.486,-1.434,0.000,0.854,60.000,51263.000,1.000
-4.597,-8.929,-6.069,-8.414,-1.777,1.723,-2.405,-1.750,-0.101,0.904,-0.488,-1.434,0.153,0.671,60.000,51264.000,1.000
-4.038,-8.533,-5.742,-7.902,0.040,1.577,-0.199,0.067,-0.103,0.901,-0.492,-1.465,0.183,0.671,60.000,51265.000,1.000
-5.292,-9.625,-6.161,-7.895,0.613,-0.789,0.042,0.912,-0.109,0.897,-0.487,-1.404,0.153,0.641,60.000,51266.000,1.000
-8.461,-12.232,-7.437,-8.891,-0.749,-4.891,-1.485,0.051,-0.114,0.893,-0.490,-1.343,0.092,0.549,60.000,51267.000,1.000
-11.610,-14.433,-8.555,-10.097,-3.180,-8.673,-2.837,-2.028,-0.117,0.887,-0.487,-1.190,-0.214,0.488,60.000,51268.000,1.000
-11.858,-13.843,-8.068,-10.028,-4.896,-9.877,-1.761,-3.593,-0.120,0.881,-0.489,-1.068,-0.488,0.427,60.000,51269.000,1.000
-8.285,-10.074,-5.553,-8.129,-4.915,-7.934,2.013,-3.092,-0.124,0.878,-0.490,-0.885,-0.702,0.427,60.000,51270.000,1.000
-2.820,-5.023,-1.869,-5.126,-3.675,-4.284,6.400,-0.424,-0.126,0.874,-0.493,-0.549,-1.007,0.244,60.000,51271.000,1.000
1.308,-1.425,1.389,-2.395,-2.519,-1.405,8.509,2.666,-0.127,0.873,-0.493,-0.214,-1.373,0.153,60.000,51272.000,1.000
1.540,-1.358,2.548,-1.277,-2.836,-1.486,6.270,3.345,-0.128,0.873,-0.493,0.305,-1.678,0.092,60.000,51273.000,1.000
-1.710,-4.491,1.240,-1.805,-4.641,-4.718,0.242,-0.014,-0.129,0.872,-0.491,0.458,-2.167,0.061,60.000,51274.000,1.000
-6.113,-8.623,-1.425,-2.779,-6.689,-9.293,-6.855,-6.423,-0.128,0.876,-0.493,0.702,-2.563,0.000,60.000,51275.000,1.000
-9.710,-11.506,-3.895,-2.947,-7.724,-12.868,-12.060,-13.126,-0.127,0.879,-0.489,0.854,-2.960,0.031,60.000,51276.000,1.000
-11.591,-11.915,-5.257,-1.949,-7.280,-13.988,-13.706,-17.654,-0.124,0.883,-0.486,1.068,-3.326,-0.031,60.000,51277.000,1.000
-11.869,-10.109,-5.665,-0.488,-5.850,-12.666,-12.111,-19.178,-0.122,0.890,-0.489,1.038,-3.479,-0.183,60.000,51278.000,1.000
-10.593,-7.061,-5.512,0.726,-4.093,-9.631,-8.465,-18.031,-0.118,0.898,-0.485,1.038,-3.662,-0.214,60.000,51279.000,1.000
-7.782,-3.727,-4.883,1.572,-2.425,-5.703,-3.949,-14.896,-0.112,0.903,-0.481,1.038,-3.723,-0.214,60.000,51280.000,1.000
-3.496,-0.454,-3.548,2.419,-0.977,-1.555,0.632,-10.498,-0.109,0.907,-0.484,0.885,-3.815,0.000,60.000,51281.000,1.000
2.222,3.024,-1.352,3.525,0.175,2.191,4.696,-5.830,-0.106,0.907,-0.482,0.732,-3.845,0.153,60.000,51282.000,1.000
8.607,6.625,1.324,4.370,0.601,4.703,7.280,-2.228,-0.101,0.909,-0.480,0.519,-3.876,0.275,60.000,51283.000,1.000
14.833,10.078,4.058,4.283,0.140,5.586,7.869,-0.414,-0.099,0.908,-0.479,0.336,-3.815,0.305,60.000,51284.000,1.000
20.261,13.337,6.687,3.155,-0.662,5.311,7.003,0.152,-0.098,0.908,-0.482,0.183,-3.754,0.397,60.000,51285.000,1.000
24.553,16.640,9.291,1.680,-0.727,4.934,6.021,0.959,-0.098,0.908,-0.483,0.000,-3.601,0.458,60.000,51286.000,1.000
27.906,20.321,11.976,0.962,1.025,5.270,6.103,3.370,-0.098,0.909,-0.484,-0.122,-3.418,0.366,60.000,51287.000,1.000
30.516,24.314,14.545,1.641,4.877,6.115,7.113,7.577,-0.097,0.911,-0.485,-0.336,-3.265,0.305,60.000,51288.000,1.000
32.600,28.322,16.722,3.660,10.142,6.637,8.085,12.568,-0.098,0.911,-0.480,-0.488,-3.052,0.275,60.000,51289.000,1.000
33.604,31.574,18.087,6.272,15.271,6.019,7.995,16.689,-0.099,0.911,-0.480,-0.732,-2.869,0.305,60.000,51290.000,1.000
32.389,33.053,18.330,8.708,18.709,4.156,6.643,18.722,-0.098,0.910,-0.481,-1.007,-2.686,0.183,60.000,51291.000,1.000
28.583,32.289,17.693,10.822,19.898,1.933,4.932,18.646,-0.096,0.909,-0.480,-1.251,-2.411,0.061,60.000,51292.000,1.000
22.774,29.434,16.716,12.710,19.206,0.534,3.748,17.345,-0.097,0.903,-0.481,-1.434,-2.228,0.000,60.000,51293.000,1.000
16.447,25.356,15.848,14.345,17.512,0.670,3.364,15.837,-0.097,0.899,-0.487,-1.587,-1.923,-0.031,60.000,51294.000,1.000
10.803,21.160,15.007,15.362,15.486,2.008,3.129,14.431,-0.096,0.895,-0.486,-1.740,-1.587,-0.031,60.000,51295.000,1.000
6.325,17.763,13.960,15.517,13.528,3.691,2.127,12.851,-0.096,0.891,-0.488,-1.801,-1.404,-0.031,60.000,51296.000,1.000
3.214,15.633,12.856,15.134,12.003,5.303,0.173,10.934,-0.095,0.890,-0.486,-1.862,-1.099,-0.092,60.000,51297.000,1.000
1.261,14.401,12.004,14.830,11.029,6.970,-2.265,8.898,-0.094,0.888,-0.491,-1.709,-0.824,-0.122,60.000,51298.000,1.000
0.381,13.431,11.636,15.313,10.655,9.104,-4.193,7.228,-0.096,0.887,-0.492,-1.465,-0.519,-0.153,60.000,51299.000,1.000
0.151,12.023,11.495,16.702,10.665,11.731,-4.926,6.076,-0.098,0.887,-0.492,-1.190,-0.275,-0.275,60.000,51300.000,1.000
-0.284,9.604,11.039,18.274,10.365,14.286,-4.663,5.117,-0.101,0.888,-0.490,-1.099,-0.183,-0.305,60.000,51301.000,1.000
-1.667,5.956,9.906,18.866,8.748,15.887,-4.302,3.677,-0.100,0.891,-0.488,-0.977,0.122,-0.305,60.000,51302.000,1.000
-4.528,1.180,8.062,17.472,5.099,15.868,-4.901,1.080,-0.101,0.894,-0.486,-1.007,0.244,-0.366,60.000,51303.000,1.000
-8.163,-3.650,6.184,14.249,0.051,14.725,-6.365,-2.485,-0.102,0.895,-0.490,-1.038,0.397,-0.336,60.000,51304.000,1.000
-11.118,-7.059,5.165,10.324,-4.858,13.776,-7.704,-5.997,-0.104,0.895,-0.490,-1.038,0.519,-0.549,60.000,51305.000,1.000
-12.068,-8.235,5.426,6.965,-8.360,14.143,-7.931,-8.402,-0.105,0.895,-0.488,-0.946,0.641,-0.366,60.000,51306.000,1.000
-10.104,-7.254,6.685,4.900,-10.098,16.016,-6.489,-9.376,-0.106,0.898,-0.488,-1.007,0.732,-0.397,60.000,51307.000,1.000
-5.537,-5.010,8.001,3.878,-10.762,18.356,-3.796,-9.556,-0.106,0.900,-0.486,-0.977,0.702,-0.366,60.000,51308.000,1.000
0.415,-2.518,8.536,3.171,-11.295,19.716,-0.795,-9.919,-0.107,0.900,-0.488,-0.946,0.580,-0.397,60.000,51309.000,1.000
5.895,-0.748,8.015,1.949,-12.375,19.053,1.442,-11.271,-0.108,0.900,-0.484,-1.129,0.702,-0.488,60.000,51310.000,1.000
9.528,-0.212,6.923,-0.233,-13.982,16.213,2.387,-13.675,-0.109,0.898,-0.483,-1.068,0.732,-0.458,60.000,51311.000,1.000
11.149,-0.668,6.038,-3.203,-15.393,11.758,2.438,-16.315,-0.109,0.900,-0.482,-1.190,0.610,-0.427,60.000,51312.000,1.000
10.546,-1.984,5.418,-6.708,-16.084,6.265,1.907,-18.245,-0.109,0.899,-0.486,-1.251,0.671,-0.366,60.000,51313.000,1.000
7.715,-4.042,4.642,-10.292,-15.877,0.405,0.747,-18.886,-0.110,0.901,-0.486,-1.404,0.671,-0.183,60.000,51314.000,1.000
3.585,-6.199,3.554,-13.091,-14.637,-4.885,-1.030,-18.084,-0.109,0.901,-0.485,-1.526,0.610,-0.214,60.000,51315.000,1.000
0.203,-7.087,2.681,-13.943,-11.947,-8.445,-2.555,-15.760,-0.110,0.901,-0.482,-1.587,0.519,-0.153,60.000,51316.000,1.000
-0.663,-5.547,2.665,-12.155,-7.502,-9.540,-2.605,-11.963,-0.110,0.904,-0.482,-1.556,0.397,-0.092,60.000,51317.000,1.000
-0.072,-2.399,3.110,-8.543,-2.211,-8.806,-1.462,-7.460,-0.110,0.905,-0.481,-1.648,0.305,-0.031,60.000,51318.000,1.000
-1.106,-0.050,2.857,-4.948,2.117,-7.777,-0.487,-3.485,-0.109,0.903,-0.484,-1.678,0.305,0.061,60.000,51319.000,1.000
-6.011,-0.550,1.042,-2.999,4.066,-7.667,-0.490,-0.908,-0.109,0.901,-0.483,-1.770,0.275,0.122,60.000,51320.000,1.000
-13.779,-3.713,-1.970,-2.938,3.851,-8.425,-0.821,0.491,-0.108,0.898,-0.482,-1.801,0.183,0.336,60.000,51321.000,1.000
-20.869,-7.320,-4.854,-3.670,3.133,-8.998,-0.207,1.682,-0.106,0.894,-0.482,-1.831,0.214,0.397,60.000,51322.000,1.000
-24.940,-9.478,-6.704,-4.197,3.235,-8.663,1.382,3.297,-0.104,0.895,-0.483,-1.923,0.183,0.427,60.000,51323.000,1.000
-26.127,-9.780,-7.521,-4.284,4.217,-7.586,2.860,5.348,-0.106,0.893,-0.487,-1.831,0.122,0.488,60.000,51324.000,1.000
-26.104,-9.225,-7.921,-4.323,5.137,-6.663,3.047,7.467,-0.103,0.891,-0.486,-1.740,0.092,0.549,60.000,51325.000,1.000
-25.913,-9.017,-8.263,-4.519,5.325,-6.552,1.870,9.315,-0.102,0.892,-0.491,-1.587,0.153,0.671,60.000,51326.000,1.000
-24.972,-9.329,-8.289,-4.572,5.147,-6.944,0.538,10.636,-0.100,0.892,-0.488,-1.343,0.153,0.732,60.000,51327.000,1.000
-22.803,-9.611,-7.799,-4.344,5.209,-7.144,-0.067,11.156,-0.101,0.893,-0.487,-1.221,0.122,0.824,60.000,51328.000,1.000
-19.561,-8.998,-6.763,-3.835,5.925,-6.583,0.163,11.186,-0.103,0.893,-0.486,-1.160,0.183,0.854,60.000,51329.000,1.000
-16.099,-7.284,-5.373,-3.222,7.223,-5.226,0.742,11.506,-0.107,0.889,-0.484,-1.129,0.275,0.854,60.000,51330.000,1.000
-13.524,-5.451,-4.007,-2.937,8.401,-3.589,1.064,12.444,-0.111,0.886,-0.486,-0.977,0.244,0.793,60.000,51331.000,1.000
-12.273,-4.687,-2.920,-3.333,8.590,-2.186,1.107,13.449,-0.114,0.884,-0.487,-0.885,0.183,0.671,60.000,51332.000,1.000
-12.306,-5.514,-2.222,-4.497,7.236,-1.270,1.170,13.540,-0.115,0.885,-0.485,-0.763,-0.061,0.580,60.000,51333.000,1.000
-13.020,-7.473,-1.843,-6.094,4.532,-0.849,1.403,12.105,-0.113,0.885,-0.485,-0.610,-0.183,0.519,60.000,51334.000,1.000
-13.634,-9.748,-1.810,-7.676,1.156,-0.999,1.186,9.161,-0.111,0.885,-0.486,-0.580,-0.336,0.458,60.000,51335.000,1.000
-13.097,-11.375,-2.091,-8.681,-1.886,-1.614,-0.178,5.584,-0.110,0.887,-0.487,-0.427,-0.458,0.427,60.000,51336.000,1.000
-10.319,-11.335,-2.389,-8.436,-3.450,-2.136,-2.235,2.862,-0.108,0.887,-0.485,-0.305,-0.580,0.366,60.000,51337.000,1.000
-5.779,-9.474,-2.541,-6.831,-3.101,-2.097,-3.782,2.006,-0.106,0.889,-0.484,-0.153,-0.610,0.397,60.000,51338.000,1.000
-1.185,-6.406,-2.573,-4.419,-1.287,-1.351,-3.575,2.969,-0.107,0.892,-0.484,-0.031,-0.702,0.275,60.000,51339.000,1.000
1.673,-3.099,-2.785,-2.182,0.910,-0.222,-1.504,4.746,-0.109,0.895,-0.483,-0.031,-0.763,0.214,60.000,51340.000,1.000
2.256,-0.332,-3.543,-0.888,2.458,0.664,1.249,6.161,-0.110,0.897,-0.486,-0.153,-0.732,0.092,60.000,51341.000,1.000
1.558,1.626,-4.944,-0.714,2.948,0.722,3.395,6.593,-0.108,0.898,-0.489,-0.214,-0.671,0.092,60.000,51342.000,1.000
0.371,2.418,-6.891,-1.680,2.279,-0.547,4.130,5.924,-0.109,0.896,-0.488,-0.275,-0.793,0.122,60.000,51343.000,1.000
-1.020,1.783,-8.864,-3.513,0.683,-3.053,3.594,4.373,-0.110,0.898,-0.486,-0.336,-0.854,0.153,60.000,51344.000,1.000
-2.550,-0.115,-10.107,-5.517,-1.258,-5.918,2.513,2.293,-0.109,0.897,-0.486,-0.336,-0.824,0.275,60.000,51345.000,1.000
-3.845,-2.484,-10.012,-6.685,-2.654,-7.783,1.795,0.272,-0.108,0.898,-0.489,-0.458,-0.916,0.214,60.000,51346.000,1.000
-4.196,-4.227,-8.544,-6.270,-2.748,-7.752,2.169,-1.022,-0.107,0.901,-0.489,-0.458,-0.824,0.183,60.000,51347.000,1.000
-3.708,-4.978,-6.570,-4.617,-1.794,-6.348,3.361,-1.487,-0.105,0.901,-0.489,-0.458,-0.824,0.183,60.000,51348.000,1.000
-2.693,-4.802,-5.028,-2.708,-0.649,-4.806,4.647,-1.508,-0.105,0.900,-0.488,-0.549,-0.854,0.214,60.000,51349.000,1.000
-1.196,-3.730,-4.285,-1.428,0.051,-4.041,5.447,-1.496,-0.107,0.898,-0.488,-0.610,-0.763,0.275,60.000,51350.000,1.000
0.941,-1.721,-4.137,-1.071,0.384,-4.198,5.558,-1.500,-0.107,0.896,-0.488,-0.702,-0.671,0.275,60.000,51351.000,1.000
3.842,1.226,-4.143,-1.281,1.018,-4.752,5.378,-1.186,-0.108,0.893,-0.488,-0.580,-0.610,0.244,60.000,51352.000,1.000
6.888,4.714,-4.096,-1.593,2.416,-5.051,5.460,-0.341,-0.109,0.892,-0.489,-0.488,-0.580,0.214,60.000,51353.000,1.000
9.449,8.342,-3.934,-1.638,4.545,-4.608,6.172,0.796,-0.109,0.888,-0.490,-0.519,-0.641,0.275,60.000,51354.000,1.000
10.724,11.373,-4.023,-1.616,6.500,-3.681,6.803,1.410,-0.109,0.888,-0.490,-0.488,-0.641,0.336,60.000,51355.000,1.000
9.503,12.456,-5.170,-2.280,6.738,-3.249,5.819,0.702,-0.109,0.889,-0.489,-0.366,-0.641,0.305,60.000,51356.000,1.000
5.238,10.721,-7.831,-4.018,4.395,-3.966,2.479,-1.391,-0.108,0.889,-0.493,-0.275,-0.641,0.366,60.000,51357.000,1.000
-1.210,6.748,-11.470,-6.235,0.238,-5.404,-2.387,-4.162,-0.108,0.888,-0.494,-0.183,-0.580,0.397,60.000,51358.000,1.000
-7.328,2.571,-14.624,-7.554,-3.560,-6.209,-6.460,-6.460,-0.105,0.889,-0.495,-0.214,-0.580,0.488,60.000,51359.000,1.000
-10.837,0.064,-16.034,-7.060,-5.099,-5.445,-7.604,-7.396,-0.107,0.892,-0.490,-0.153,-0.488,0.641,60.000,51360.000,1.000
-11.091,-0.104,-15.221,-4.845,-3.880,-3.252,-5.232,-6.678,-0.106,0.895,-0.492,-0.183,-0.519,0.549,60.000,51361.000,1.000
-8.822,1.584,-12.479,-1.753,-0.887,-0.532,-0.553,-4.737,-0.108,0.895,-0.491,-0.153,-0.427,0.671,60.000,51362.000,1.000
-5.902,3.481,-9.084,0.793,1.721,1.331,3.674,-2.696,-0.108,0.896,-0.491,-0.122,-0.397,0.549,60.000,51363.000,1.000
-3.727,3.970,-6.581,1.770,2.128,1.370,5.202,-1.491,-0.106,0.900,-0.489,-0.183,-0.366,0.458,60.000,51364.000,1.000
-2.724,2.412,-6.012,0.965,-0.168,-0.506,3.702,-1.439,-0.106,0.900,-0.490,-0.214,-0.336,0.458,60.000,51365.000,1.000
-2.666,-0.659,-7.468,-1.191,-4.445,-3.587,0.491,-2.316,-0.105,0.901,-0.492,-0.244,-0.275,0.427,60.000,51366.000,1.000
-2.652,-3.797,-9.921,-3.726,-9.127,-6.640,-2.527,-3.401,-0.108,0.899,-0.491,-0.366,-0.183,0.397,60.000,51367.000,1.000
-1.835,-5.753,-11.797,-5.619,-12.656,-8.633,-4.332,-4.014,-0.109,0.899,-0.491,-0.580,-0.153,0.397,60.000,51368.000,1.000
0.462,-5.929,-11.714,-6.246,-14.094,-9.128,-4.825,-4.100,-0.109,0.898,-0.488,-0.610,-0.153,0.397,60.000,51369.000,1.000
4.060,-4.544,-9.373,-5.775,-13.543,-8.438,-4.477,-4.220,-0.109,0.897,-0.489,-0.610,-0.153,0.397,60.000,51370.000,1.000
7.869,-2.278,-5.581,-4.774,-11.842,-7.232,-3.905,-4.820,-0.110,0.894,-0.491,-0.763,-0.122,0.366,60.000,51371.000,1.000
10.665,0.149,-1.653,-3.715,-10.005,-6.174,-3.703,-5.997,-0.110,0.892,-0.492,-0.916,-0.061,0.366,60.000,51372.000,1.000
11.151,1.664,0.998,-3.158,-9.108,-6.065,-4.760,-7.812,-0.107,0.891,-0.489,-0.977,-0.031,0.366,60.000,51373.000,1.000
9.084,1.504,1.702,-3.379,-9.560,-7.339,-7.377,-9.979,-0.107,0.890,-0.490,-1.007,-0.061,0.305,60.000,51374.000,1.000
5.397,-0.246,0.686,-4.240,-10.817,-9.731,-10.963,-11.851,-0.109,0.889,-0.489,-1.038,-0.061,0.122,60.000,51375.000,1.000
1.478,-2.793,-1.375,-5.350,-11.880,-12.408,-14.504,-12.952,-0.109,0.891,-0.491,-1.007,-0.153,0.153,60.000,51376.000,1.000
-1.505,-5.231,-3.810,-6.326,-12.062,-14.424,-17.012,-13.330,-0.110,0.892,-0.491,-1.038,-0.122,0.153,60.000,51377.000,1.000
-3.458,-7.358,-6.219,-7.074,-11.528,-15.211,-18.040,-13.341,-0.111,0.891,-0.491,-0.977,-0.153,0.031,60.000,51378.000,1.000
-4.534,-9.221,-8.026,-7.345,-10.654,-14.361,-17.232,-12.948,-0.111,0.892,-0.490,-0.977,-0.092,0.031,60.000,51379.000,1.000
-4.755,-10.702,-8.521,-6.783,-9.544,-11.714,-14.523,-11.784,-0.112,0.896,-0.488,-0.977,-0.214,0.000,60.000,51380.000,1.000
-4.036,-11.408,-7.340,-5.308,-7.997,-7.600,-10.508,-9.577,-0.112,0.896,-0.488,-1.068,-0.214,-0.061,60.000,51381.000,1.000
-2.231,-10.896,-4.786,-3.308,-5.753,-2.798,-6.149,-6.474,-0.113,0.896,-0.489,-1.007,-0.214,-0.092,60.000,51382.000,1.000
0.294,-9.303,-1.709,-1.483,-2.914,1.782,-2.422,-3.175,-0.115,0.894,-0.492,-1.038,-0.336,-0.092,60.000,51383.000,1.000
3.429,-6.875,1.351,-0.017,0.371,5.881,0.611,-0.398,-0.117,0.893,-0.489,-1.038,-0.458,-0.183,60.000,51384.000,1.000
7.145,-3.858,4.190,1.332,3.823,9.694,3.431,1.443,-0.116,0.893,-0.489,-0.977,-0.488,-0.244,60.000,51385.000,1.000
11.080,-0.618,6.716,2.809,6.946,13.253,6.220,2.243,-0.115,0.893,-0.490,-0.916,-0.610,-0.275,60.000,51386.000,1.000
14.769,2.485,8.877,4.444,9.257,16.203,8.736,2.040,-0.116,0.893,-0.489,-0.916,-0.732,-0.305,60.000,51387.000,1.000
17.368,4.882,10.383,5.781,10.297,17.815,10.321,0.900,-0.115,0.892,-0.485,-0.977,-0.916,-0.397,60.000,51388.000,1.000
18.631,6.426,11.055,6.490,10.211,17.689,10.730,-0.690,-0.112,0.895,-0.484,-0.977,-0.885,-0.305,60.000,51389.000,1.000
19.042,7.541,11.020,6.713,9.737,16.117,10.251,-2.024,-0.111,0.895,-0.483,-1.038,-0.916,-0.244,60.000,51390.000,1.000
19.362,8.877,10.722,6.931,9.667,14.030,9.475,-2.619,-0.110,0.897,-0.482,-1.068,-0.916,-0.214,60.000,51391.000,1.000
20.370,10.939,10.757,7.647,10.383,12.502,9.077,-2.303,-0.112,0.896,-0.485,-1.129,-0.885,-0.122,60.000,51392.000,1.000
21.946,13.406,11.276,8.832,11.448,11.946,9.063,-1.232,-0.113,0.896,-0.485,-1.251,-0.916,-0.153,60.000,51393.000,1.000
23.588,15.590,12.094,10.181,12.228,12.293,9.230,0.330,-0.113,0.896,-0.489,-1.251,-1.007,0.000,60.000,51394.000,1.000
24.661,16.907,12.875,11.265,12.341,13.214,9.567,1.940,-0.115,0.896,-0.486,-1.160,-1.068,0.031,60.000,51395.000,1.000
24.531,17.045,13.368,11.648,11.710,14.227,10.222,3.088,-0.113,0.897,-0.487,-1.221,-1.129,0.183,60.000,51396.000,1.000
23.069,16.120,13.607,11.194,10.591,14.986,11.315,3.665,-0.112,0.898,-0.488,-1.099,-1.099,0.275,60.000,51397.000,1.000
20.504,14.525,13.703,10.159,9.449,15.415,12.481,4.206,-0.109,0.898,-0.485,-1.221,-1.160,0.366,60.000,51398.000,1.000
17.972,13.256,13.887,9.354,9.059,15.869,13.434,5.653,-0.109,0.897,-0.484,-1.221,-1.068,0.427,60.000,51399.000,1.000
16.541,13.137,14.113,9.367,9.752,16.538,14.084,8.333,-0.108,0.897,-0.488,-1.099,-0.977,0.519,60.000,51400.000,1.000
16.127,13.990,14.066,10.085,11.035,17.179,14.589,11.565,-0.107,0.894,-0.483,-1.129,-0.854,0.671,60.000,51401.000,1.000
16.011,15.084,13.737,11.229,12.322,17.652,15.279,14.324,-0.107,0.893,-0.487,-1.190,-0.885,0.702,60.000,51402.000,1.000
15.411,15.891,13.512,12.738,13.455,18.147,15.730,16.004,-0.107,0.889,-0.491,-1.190,-0.793,0.793,60.000,51403.000,1.000
14.855,17.248,14.094,15.094,15.082,19.248,15.400,16.983,-0.108,0.889,-0.488,-1.160,-0.732,0.916,60.000,51404.000,1.000
15.415,20.414,15.621,18.454,17.655,21.038,14.051,17.831,-0.109,0.886,-0.491,-1.038,-0.671,0.885,60.000,51405.000,1.000
16.581,24.618,17.030,21.567,19.911,22.286,11.261,18.093,-0.109,0.882,-0.490,-0.793,-0.732,0.916,60.000,51406.000,1.000
16.096,26.724,16.808,22.374,19.270,21.190,6.709,16.548,-0.110,0.880,-0.493,-0.336,-0.671,0.946,60.000,51407.000,1.000
11.145,23.123,13.996,19.440,13.550,16.604,0.566,12.448,-0.109,0.878,-0.493,0.000,-0.732,0.916,60.000,51408.000,1.000
0.743,12.446,8.908,13.071,2.620,8.832,-6.231,6.334,-0.108,0.878,-0.496,0.275,-0.641,0.885,60.000,51409.000,1.000
-13.151,-3.075,2.963,5.161,-11.241,-0.523,-12.481,-0.227,-0.106,0.883,-0.491,0.580,-0.641,0.854,60.000,51410.000,1.000
-26.007,-18.122,-1.826,-1.548,-23.959,-9.049,-16.942,-5.218,-0.105,0.886,-0.489,0.763,-0.549,0.854,60.000,51411.000,1.000
-32.787,-26.882,-3.765,-4.692,-31.387,-14.491,-18.366,-6.966,-0.104,0.888,-0.488,0.885,-0.336,0.824,60.000,51412.000,1.000
-31.483,-26.779,-2.716,-3.818,-31.792,-16.104,-16.501,-5.235,-0.104,0.893,-0.487,0.916,-0.214,0.732,60.000,51413.000,1.000
-23.852,-19.665,-0.036,-0.428,-26.593,-14.766,-12.304,-1.453,-0.107,0.896,-0.486,0.977,-0.183,0.671,60.000,51414.000,1.000
-13.830,-10.103,2.406,3.115,-19.136,-12.141,-7.651,2.070,-0.107,0.901,-0.488,0.854,-0.031,0.641,60.000,51415.000,1.000
-4.734,-1.988,3.635,5.261,-12.287,-9.393,-4.199,3.802,-0.107,0.901,-0.491,0.763,0.122,0.671,60.000,51416.000,1.000
2.506,3.534,4.128,6.078,-6.931,-6.581,-2.159,3.932,-0.108,0.903,-0.491,0.641,0.214,0.549,60.000,51417.000,1.000
8.017,6.924,4.685,6.200,-2.840,-3.530,-0.856,3.493,-0.106,0.904,-0.490,0.549,0.244,0.580,60.000,51418.000,1.000
12.082,8.895,5.570,5.988,0.237,-0.441,0.460,3.176,-0.108,0.903,-0.488,0.458,0.427,0.427,60.000,51419.000,1.000
14.506,9.616,6.294,5.272,2.068,2.014,1.665,2.734,-0.106,0.901,-0.485,0.366,0.397,0.427,60.000,51420.000,1.000
14.799,8.863,6.141,3.763,2.330,3.193,1.886,1.539,-0.107,0.900,-0.486,0.336,0.458,0.336,60.000,51421.000,1.000
13.367,7.003,4.940,1.673,1.416,3.148,0.813,-0.407,-0.109,0.899,-0.487,0.244,0.458,0.244,60.000,51422.000,1.000
11.325,5.086,3.095,-0.397,0.331,2.451,-0.974,-2.433,-0.111,0.897,-0.487,0.092,0.458,0.183,60.000,51423.000,1.000
10.029,4.308,1.442,-1.621,0.224,1.845,-2.216,-3.774,-0.111,0.898,-0.487,0.031,0.519,0.275,60.000,51424.000,1.000
9.665,4.724,0.626,-1.623,1.468,1.639,-2.111,-4.306,-0.111,0.896,-0.492,-0.061,0.458,0.244,60.000,51425.000,1.000
9.003,5.137,0.786,-0.847,3.310,1.558,-0.945,-4.505,-0.111,0.892,-0.493,-0.153,0.336,0.244,60.000,51426.000,1.000
7.137,4.668,1.857,-0.034,4.693,1.268,0.578,-4.740,-0.112,0.891,-0.494,-0.153,0.427,0.153,60.000,51427.000,1.000
4.145,3.399,3.617,0.301,4.972,0.680,1.736,-4.911,-0.113,0.891,-0.494,0.000,0.366,0.092,60.000,51428.000,1.000
0.912,1.840,5.636,0.147,4.205,0.085,2.290,-4.576,-0.114,0.890,-0.494,0.000,0.458,0.153,60.000,51429.000,1.000
-2.310,-0.347,6.777,-0.561,2.574,-0.330,2.125,-3.604,-0.114,0.892,-0.494,0.122,0.488,0.275,60.000,51430.000,1.000
-5.916,-3.976,5.567,-1.946,0.336,-0.578,1.161,-2.291,-0.114,0.892,-0.489,-0.031,0.397,0.427,60.000,51431.000,1.000
-9.558,-8.743,1.424,-3.655,-1.779,-0.582,-0.192,-1.079,-0.113,0.894,-0.485,0.031,0.214,0.519,60.000,51432.000,1.000
-12.674,-13.472,-4.920,-5.206,-3.130,-0.489,-1.556,-0.421,-0.113,0.896,-0.487,-0.122,0.214,0.549,60.000,51433.000,1.000
-14.682,-16.777,-11.334,-6.092,-3.303,-0.467,-2.406,-0.203,-0.112,0.896,-0.486,-0.275,0.061,0.671,60.000,51434.000,1.000
-15.214,-17.596,-15.110,-5.911,-2.087,-0.428,-2.120,0.226,-0.114,0.897,-0.488,-0.275,-0.031,0.671,60.000,51435.000,1.000
-14.283,-15.568,-14.423,-4.549,0.400,-0.074,-0.435,1.400,-0.115,0.899,-0.486,-0.458,-0.031,0.702,60.000,51436.000,1.000
-11.994,-11.202,-9.469,-2.181,3.795,0.858,2.463,3.290,-0.115,0.899,-0.491,-0.671,-0.092,0.763,60.000,51437.000,1.000
-8.887,-6.023,-2.611,0.618,7.489,2.223,5.824,5.315,-0.114,0.900,-0.488,-0.885,-0.183,0.824,60.000,51438.000,1.000
-5.311,-1.586,3.211,3.234,11.058,3.801,9.085,6.971,-0.115,0.900,-0.484,-0.946,-0.183,0.671,60.000,51439.000,1.000
-1.733,1.048,5.969,5.005,14.159,5.357,11.972,8.137,-0.114,0.900,-0.488,-1.190,-0.305,0.641,60.000,51440.000,1.000
0.879,1.412,5.238,5.303,16.336,6.446,14.032,9.024,-0.114,0.901,-0.486,-1.312,-0.336,0.793,60.000,51441.000,1.000
1.725,-0.127,2.073,3.887,17.148,6.414,14.568,9.771,-0.113,0.899,-0.485,-1.587,-0.366,0.702,60.000,51442.000,1.000
0.309,-2.824,-1.977,0.810,16.100,4.523,12.741,9.915,-0.115,0.896,-0.488,-1.678,-0.549,0.702,60.000,51443.000,1.000
-2.837,-5.676,-5.474,-3.373,13.120,0.666,8.568,8.777,-0.113,0.893,-0.488,-1.678,-0.549,0.732,60.000,51444.000,1.000
-6.796,-8.173,-7.713,-7.869,8.578,-4.565,2.735,6.002,-0.112,0.888,-0.489,-1.770,-0.641,0.793,60.000,51445.000,1.000
-11.285,-10.845,-8.987,-12.075,2.964,-10.375,-4.227,1.845,-0.110,0.887,-0.492,-1.617,-0.732,0.824,60.000,51446.000,1.000
-16.329,-14.489,-10.102,-15.604,-3.135,-16.121,-11.935,-2.901,-0.110,0.886,-0.490,-1.617,-0.793,0.885,60.000,51447.000,1.000
-21.957,-19.269,-11.765,-18.337,-9.115,-21.442,-19.993,-7.362,-0.111,0.887,-0.493,-1.556,-0.916,0.885,60.000,51448.000,1.000
-27.073,-23.797,-13.726,-19.939,-13.976,-25.729,-27.203,-10.608,-0.110,0.889,-0.491,-1.495,-0.946,0.916,60.000,51449.000,1.000
-29.902,-25.951,-14.976,-19.919,-16.605,-28.129,-31.838,-11.798,-0.111,0.889,-0.495,-1.282,-0.977,0.885,60.000,51450.000,1.000
-29.345,-24.576,-14.584,-17.973,-16.410,-27.953,-32.549,-10.477,-0.111,0.888,-0.493,-1.282,-0.977,0.916,60.000,51451.000,1.000
-25.313,-20.003,-12.236,-14.104,-13.485,-24.944,-28.915,-6.846,-0.114,0.890,-0.494,-1.221,-1.129,0.946,60.000,51452.000,1.000
-19.062,-13.889,-8.525,-8.975,-8.707,-19.709,-22.117,-2.050,-0.115,0.893,-0.494,-1.129,-1.251,0.977,60.000,51453.000,1.000
-12.223,-8.077,-4.438,-3.669,-3.265,-13.519,-14.245,2.285,-0.117,0.894,-0.492,-1.099,-1.373,0.977,60.000,51454.000,1.000
-6.317,-3.927,-1.072,0.509,1.475,-8.019,-7.514,4.633,-0.118,0.893,-0.490,-1.221,-1.465,0.977,60.000,51455.000,1.000
-2.392,-2.014,0.685,2.535,4.240,-4.536,-3.431,4.152,-0.116,0.894,-0.492,-1.251,-1.587,1.038,60.000,51456.000,1.000
-0.304,-1.802,0.690,2.395,4.642,-3.240,-1.920,1.176,-0.115,0.895,-0.490,-1.343,-1.617,1.007,60.000,51457.000,1.000
0.513,-2.270,-0.626,0.801,3.175,-3.438,-2.101,-2.977,-0.110,0.894,-0.493,-1.465,-1.709,0.885,60.000,51458.000,1.000
0.979,-2.165,-2.433,-1.157,1.022,-4.127,-3.058,-6.533,-0.107,0.893,-0.491,-1.465,-1.740,0.885,60.000,51459.000,1.000
2.005,-0.448,-3.974,-2.515,-0.493,-4.633,-4.411,-8.201,-0.104,0.893,-0.489,-1.495,-1.709,0.854,60.000,51460.000,1.000
3.863,2.996,-4.909,-2.791,-0.501,-4.838,-6.118,-7.797,-0.101,0.892,-0.491,-1.465,-1.678,0.977,60.000,51461.000,1.000
5.984,7.082,-5.217,-2.130,1.018,-4.905,-7.681,-6.121,-0.101,0.887,-0.490,-1.587,-1.587,1.038,60.000,51462.000,1.000
6.516,9.532,-5.296,-1.553,2.759,-5.268,-8.615,-4.563,-0.101,0.884,-0.490,-1.465,-1.556,1.160,60.000,51463.000,1.000
4.014,8.575,-5.545,-2.076,3.041,-6.201,-8.702,-4.169,-0.104,0.881,-0.493,-1.312,-1.526,1.129,60.000,51464.000,1.000
-0.965,4.534,-5.952,-3.684,1.290,-7.477,-7.973,-5.007,-0.106,0.882,-0.495,-1.099,-1.434,1.007,60.000,51465.000,1.000
-5.993,-0.354,-5.971,-5.243,-1.472,-8.420,-6.442,-6.190,-0.107,0.886,-0.497,-0.916,-1.404,0.977,60.000,51466.000,1.000
-8.172,-3.452,-4.851,-5.350,-3.434,-8.261,-3.855,-6.395,-0.107,0.890,-0.494,-0.977,-1.526,0.946,60.000,51467.000,1.000
-6.466,-3.591,-2.477,-3.498,-3.483,-6.794,-0.338,-4.756,-0.110,0.892,-0.492,-1.007,-1.556,0.977,60.000,51468.000,1.000
-1.844,-1.195,0.543,-0.109,-1.597,-4.376,3.641,-1.364,-0.112,0.894,-0.493,-0.977,-1.648,0.854,60.000,51469.000,1.000
3.471,2.271,3.131,3.751,1.321,-1.767,7.346,2.691,-0.113,0.897,-0.494,-1.129,-1.617,0.854,60.000,51470.000,1.000
7.337,5.224,4.329,6.835,4.048,0.233,10.149,5.938,-0.115,0.898,-0.491,-1.251,-1.740,0.763,60.000,51471.000,1.000
9.083,6.904,3.863,8.285,5.707,1.147,12.097,7.156,-0.117,0.900,-0.491,-1.648,-1.770,0.732,60.000,51472.000,1.000
8.799,7.076,2.008,7.715,5.645,0.739,13.434,5.727,-0.120,0.902,-0.488,-1.831,-2.045,0.610,60.000,51473.000,1.000
7.107,6.020,-0.436,5.515,3.699,-0.671,14.565,2.182,-0.120,0.902,-0.487,-2.014,-2.258,0.427,60.000,51474.000,1.000
4.802,4.310,-2.705,2.485,0.242,-2.486,15.255,-2.110,-0.120,0.902,-0.489,-2.289,-2.350,0.305,60.000,51475.000,1.000
2.610,2.540,-4.451,-0.617,-3.874,-4.224,14.169,-5.564,-0.120,0.902,-0.492,-2.625,-2.502,0.305,60.000,51476.000,1.000
1.385,1.505,-5.434,-3.012,-7.265,-5.276,10.376,-6.799,-0.118,0.900,-0.492,-2.838,-2.625,0.214,60.000,51477.000,1.000
1.189,1.664,-5.608,-4.329,-8.853,-5.143,4.327,-5.682,-0.115,0.898,-0.495,-2.869,-2.777,0.122,60.000,51478.000,1.000
1.513,2.944,-5.096,-4.709,-8.380,-3.706,-2.167,-3.662,-0.114,0.900,-0.494,-2.930,-2.838,0.122,60.000,51479.000,1.000
1.637,4.678,-4.219,-4.686,-6.421,-1.349,-7.010,-2.624,-0.113,0.898,-0.491,-2.838,-2.991,0.061,60.000,51480.000,1.000
1.167,6.213,-3.310,-4.697,-3.817,1.423,-8.686,-3.270,-0.109,0.899,-0.490,-2.930,-2.991,0.061,60.000,51481.000,1.000
0.644,7.698,-2.487,-4.666,-1.096,4.385,-6.638,-4.780,-0.107,0.900,-0.488,-2.960,-2.991,0.061,60.000,51482.000,1.000
0.367,9.297,-1.893,-4.471,1.227,7.301,-2.093,-5.826,-0.104,0.905,-0.488,-2.991,-2.838,0.000,60.000,51483.000,1.000
0.254,10.798,-1.432,-3.999,2.783,9.943,2.761,-5.343,-0.102,0.902,-0.485,-3.143,-2.655,0.061,60.000,51484.000,1.000
0.115,11.747,-0.795,-3.252,3.375,12.019,6.159,-3.163,-0.102,0.903,-0.487,-3.174,-2.441,0.031,60.000,51485.000,1.000
0.086,11.929,0.259,-2.341,2.885,13.238,7.573,-0.110,-0.102,0.904,-0.485,-3.326,-2.319,0.153,60.000,51486.000,1.000
0.968,11.827,1.753,-1.246,1.448,13.663,7.760,2.674,-0.101,0.899,-0.487,-3.296,-2.106,0.214,60.000,51487.000,1.000
2.762,11.734,3.143,-0.186,-0.790,13.464,7.502,4.239,-0.099,0.897,-0.486,-3.296,-1.862,0.214,60.000,51488.000,1.000
4.658,11.566,3.804,0.582,-3.404,12.968,7.313,4.372,-0.100,0.895,-0.487,-3.296,-1.617,0.336,60.000,51489.000,1.000
6.038,11.377,3.632,1.114,-5.548,12.668,7.438,3.726,-0.099,0.891,-0.487,-3.082,-1.312,0.366,60.000,51490.000,1.000
6.935,11.532,3.088,1.769,-6.396,12.982,7.724,3.280,-0.100,0.887,-0.486,-2.991,-1.160,0.549,60.000,51491.000,1.000
7.502,12.165,2.745,2.827,-5.662,13.950,7.866,3.551,-0.101,0.887,-0.486,-2.991,-1.007,0.488,60.000,51492.000,1.000
6.771,12.377,2.596,3.973,-3.984,14.958,7.305,4.256,-0.103,0.888,-0.485,-2.808,-0.854,0.458,60.000,51493.000,1.000
3.984,11.291,2.349,4.863,-2.161,15.328,5.947,4.980,-0.103,0.887,-0.488,-2.594,-0.641,0.488,60.000,51494.000,1.000
-0.328,8.910,1.749,5.509,-0.625,14.699,4.364,5.428,-0.104,0.886,-0.488,-2.441,-0.580,0.580,60.000,51495.000,1.000
-4.840,5.836,0.658,6.078,0.424,12.973,3.228,5.157,-0.105,0.888,-0.486,-2.228,-0.549,0.610,60.000,51496.000,1.000
-8.093,2.946,-0.833,6.728,0.940,10.392,2.916,3.773,-0.107,0.888,-0.489,-2.136,-0.519,0.732,60.000,51497.000,1.000
-9.771,0.702,-2.581,7.351,0.853,7.467,3.028,1.468,-0.107,0.887,-0.487,-1.984,-0.305,0.824,60.000,51498.000,1.000
-10.282,-0.870,-4.203,7.870,0.327,5.030,3.036,-0.672,-0.108,0.890,-0.487,-1.923,-0.153,0.763,60.000,51499.000,1.000
-10.128,-2.097,-5.231,8.133,-0.445,3.680,2.692,-1.598,-0.110,0.891,-0.485,-1.740,-0.244,0.763,60.000,51500.000,1.000
-9.478,-3.383,-5.308,7.818,-1.430,3.405,2.135,-1.227,-0.109,0.892,-0.481,-1.617,-0.275,0.793,60.000,51501.000,1.000
-7.883,-4.733,-4.195,6.775,-2.438,3.864,1.999,-0.205,-0.113,0.893,-0.483,-1.556,-0.336,0.885,60.000,51502.000,1.000
-5.531,-6.277,-2.212,4.920,-3.346,4.383,2.494,0.669,-0.111,0.896,-0.485,-1.556,-0.336,0.916,60.000,51503.000,1.000
-3.067,-8.122,0.022,2.475,-4.056,4.338,3.327,1.004,-0.111,0.899,-0.483,-1.587,-0.458,0.854,60.000,51504.000,1.000
-0.900,-10.067,2.007,-0.003,-4.510,3.443,3.935,0.808,-0.110,0.901,-0.483,-1.678,-0.397,0.946,60.000,51505.000,1.000
1.071,-11.660,3.607,-1.852,-4.693,1.865,3.900,0.339,-0.108,0.900,-0.483,-1.831,-0.397,1.007,60.000,51506.000,1.000
3.408,-12.347,5.107,-2.547,-4.444,0.246,3.479,0.081,-0.106,0.903,-0.487,-1.892,-0.427,1.007,60.000,51507.000,1.000
5.877,-12.218,6.579,-2.258,-3.899,-0.966,2.742,0.303,-0.104,0.902,-0.484,-2.045,-0.427,1.129,60.000,51508.000,1.000
7.742,-11.843,7.726,-1.658,-3.514,-1.846,1.231,0.785,-0.104,0.900,-0.482,-2.106,-0.397,1.190,60.000,51509.000,1.000
8.417,-11.788,8.107,-1.407,-3.762,-2.857,-1.544,0.803,-0.106,0.897,-0.481,-2.045,-0.305,1.160,60.000,51510.000,1.000
7.936,-12.091,7.683,-1.563,-4.633,-4.177,-5.160,-0.286,-0.104,0.895,-0.484,-2.075,-0.305,1.190,60.000,51511.000,1.000
7.242,-12.010,7.130,-1.431,-5.443,-5.269,-8.070,-2.374,-0.104,0.892,-0.485,-1.984,-0.214,1.160,60.000,51512.000,1.000
7.022,-10.930,7.173,-0.432,-5.617,-5.571,-9.200,-4.679,-0.105,0.891,-0.485,-1.892,-0.183,1.129,60.000,51513.000,1.000
7.664,-8.619,8.180,1.597,-4.829,-4.810,-8.368,-5.980,-0.105,0.890,-0.488,-1.709,-0.061,1.129,60.000,51514.000,1.000
8.964,-5.529,9.786,4.244,-3.120,-3.203,-6.074,-5.339,-0.105,0.889,-0.488,-1.831,-0.122,1.099,60.000,51515.000,1.000
9.832,-2.934,10.945,6.607,-1.149,-1.588,-3.454,-2.811,-0.105,0.890,-0.489,-1.862,-0.061,1.007,60.000,51516.000,1.000
9.232,-2.108,10.674,7.944,0.111,-1.025,-1.774,0.583,-0.107,0.889,-0.487,-1.678,-0.031,0.977,60.000,51517.000,1.000
6.325,-3.943,8.443,7.890,-0.322,-2.352,-2.165,3.260,-0.110,0.889,-0.489,-1.526,-0.092,0.885,60.000,51518.000,1.000
1.250,-8.230,4.663,6.765,-2.607,-5.335,-4.583,4.148,-0.109,0.890,-0.490,-1.343,-0.092,0.885,60.000,51519.000,1.000
-4.901,-13.665,0.408,5.260,-5.871,-8.670,-7.686,3.272,-0.110,0.891,-0.486,-1.373,-0.183,0.793,60.000,51520.000,1.000
-10.907,-18.789,-3.417,3.695,-9.018,-11.118,-10.070,1.276,-0.109,0.894,-0.489,-1.282,-0.244,0.732,60.000,51521.000,1.000
-15.399,-22.329,-6.235,2.056,-11.223,-12.151,-10.960,-1.122,-0.108,0.896,-0.490,-1.190,-0.244,0.763,60.000,51522.000,1.000
-17.338,-23.389,-7.644,0.424,-12.000,-11.810,-10.328,-3.257,-0.108,0.898,-0.488,-1.190,-0.183,0.702,60.000,51523.000,1.000
-16.059,-21.414,-7.196,-0.601,-10.885,-10.175,-8.185,-4.409,-0.108,0.901,-0.481,-1.251,-0.244,0.549,60.000,51524.000,1.000
-11.955,-16.752,-4.865,-0.484,-7.807,-7.602,-4.772,-4.107,-0.105,0.903,-0.484,-1.343,-0.244,0.580,60.000,51525.000,1.000
-6.518,-10.736,-1.318,0.666,-3.388,-4.867,-0.939,-2.390,-0.105,0.903,-0.482,-1.404,-0.153,0.458,60.000,51526.000,1.000
-0.970,-4.711,2.533,2.304,1.496,-2.606,2.473,0.188,-0.102,0.902,-0.483,-1.495,-0.092,0.610,60.000,51527.000,1.000
3.954,0.339,5.835,3.607,5.893,-1.079,4.920,2.594,-0.104,0.902,-0.486,-1.678,-0.092,0.427,60.000,51528.000,1.000
8.211,4.135,8.243,4.013,9.117,-0.066,6.611,3.833,-0.105,0.899,-0.486,-1.709,-0.031,0.488,60.000,51529.000,1.000
11.629,6.632,9.729,3.323,10.673,0.719,7.862,3.228,-0.103,0.895,-0.485,-1.770,0.000,0.458,60.000,51530.000,1.000
13.425,7.577,10.266,1.656,10.377,1.351,8.205,0.809,-0.101,0.896,-0.483,-1.740,0.061,0.427,60.000,51531.000,1.000
13.377,7.142,9.873,-0.463,8.809,1.820,6.873,-2.366,-0.101,0.895,-0.485,-1.801,0.183,0.366,60.000,51532.000,1.000
11.778,5.922,8.350,-2.706,6.763,1.844,3.356,-4.955,-0.102,0.894,-0.488,-1.770,0.397,0.275,60.000,51533.000,1.000
9.367,4.797,5.594,-4.972,4.855,1.204,-1.708,-6.096,-0.102,0.895,-0.489,-1.740,0.458,0.214,60.000,51534.000,1.000
6.568,4.198,1.811,-7.290,3.288,-0.037,-6.741,-5.736,-0.103,0.894,-0.489,-1.648,0.336,0.336,60.000,51535.000,1.000
3.072,3.706,-2.514,-9.645,1.932,-1.579,-10.154,-4.353,-0.103,0.895,-0.489,-1.495,0.397,0.488,60.000,51536.000,1.000
-1.193,2.873,-6.604,-11.646,0.885,-2.830,-10.768,-2.473,-0.106,0.896,-0.488,-1.434,0.366,0.580,60.000,51537.000,1.000
-6.315,1.270,-9.967,-13.039,0.148,-3.458,-8.802,-0.834,-0.110,0.894,-0.483,-1.495,0.458,0.580,60.000,51538.000,1.000
-12.204,-1.416,-12.552,-13.936,-0.614,-3.593,-5.756,-0.279,-0.113,0.896,-0.485,-1.465,0.366,0.519,60.000,51539.000,1.000
-18.373,-5.045,-14.572,-14.704,-1.886,-3.546,-3.351,-1.345,-0.115,0.897,-0.483,-1.556,0.122,0.549,60.000,51540.000,1.000
-23.933,-8.750,-16.104,-15.521,-3.689,-3.243,-2.251,-3.776,-0.117,0.897,-0.483,-1.648,0.061,0.519,60.000,51541.000,1.000
-27.731,-11.206,-16.850,-16.024,-5.279,-2.157,-1.588,-6.507,-0.115,0.897,-0.485,-1.770,-0.244,0.488,60.000,51542.000,1.000
-29.655,-11.974,-16.730,-15.926,-6.077,-0.301,-0.448,-8.543,-0.113,0.899,-0.481,-1.892,-0.397,0.549,60.000,51543.000,1.000
-30.165,-11.430,-15.933,-15.200,-5.958,1.639,1.481,-9.494,-0.107,0.898,-0.480,-1.984,-0.336,0.549,60.000,51544.000,1.000
-29.612,-10.061,-14.797,-14.029,-5.056,2.873,3.805,-9.552,-0.106,0.899,-0.479,-1.862,-0.275,0.549,60.000,51545.000,1.000
-28.390,-8.363,-13.746,-12.784,-3.704,2.880,5.325,-9.126,-0.104,0.898,-0.482,-1.953,-0.305,0.427,60.000,51546.000,1.000
-26.749,-6.767,-13.029,-11.807,-2.257,1.576,4.834,-8.561,-0.104,0.897,-0.482,-2.075,-0.366,0.427,60.000,51547.000,1.000
-24.975,-5.599,-12.670,-11.318,-1.018,-0.734,1.938,-8.125,-0.104,0.898,-0.484,-2.136,-0.336,0.458,60.000,51548.000,1.000
-22.733,-4.508,-12.206,-10.932,0.200,-3.117,-2.115,-7.639,-0.104,0.895,-0.486,-2.045,-0.366,0.519,60.000,51549.000,1.000
-19.754,-3.131,-11.203,-10.132,1.586,-4.603,-5.321,-6.636,-0.106,0.892,-0.483,-1.984,-0.275,0.641,60.000,51550.000,1.000
-16.722,-1.966,-9.824,-9.053,2.715,-4.976,-6.438,-4.871,-0.108,0.893,-0.488,-1.801,-0.397,0.641,60.000,51551.000,1.000
-14.213,-1.585,-8.425,-8.220,3.096,-4.597,-5.267,-2.488,-0.108,0.888,-0.487,-1.801,-0.397,0.702,60.000,51552.000,1.000
-12.326,-2.062,-7.244,-8.107,2.605,-4.049,-2.768,-0.027,-0.110,0.887,-0.486,-1.648,-0.397,0.763,60.000,51553.000,1.000
-10.382,-2.695,-6.036,-8.490,1.778,-3.629,-0.272,2.144,-0.111,0.888,-0.484,-1.495,-0.458,0.824,60.000,51554.000,1.000
-7.773,-2.595,-4.358,-8.720,1.251,-3.468,1.061,3.877,-0.113,0.890,-0.484,-1.373,-0.427,0.885,60.000,51555.000,1.000
-4.863,-1.450,-2.156,-8.452,0.996,-3.807,0.545,4.798,-0.115,0.889,-0.486,-1.129,-0.549,0.916,60.000,51556.000,1.000
-2.080,0.789,0.347,-7.558,0.726,-4.582,-1.294,4.571,-0.117,0.889,-0.486,-1.129,-0.702,1.007,60.000,51557.000,1.000
0.559,4.113,2.869,-5.876,0.586,-5.167,-3.003,3.472,-0.116,0.891,-0.485,-1.099,-0.885,1.038,60.000,51558.000,1.000
3.876,8.677,5.372,-3.006,1.515,-4.413,-2.696,2.536,-0.115,0.893,-0.485,-1.007,-1.190,1.007,60.000,51559.000,1.000
8.312,14.079,7.648,0.921,4.130,-1.680,0.523,2.555,-0.116,0.894,-0.483,-1.007,-1.282,1.038,60.000,51560.000,1.000
12.538,18.634,8.967,4.647,7.485,2.194,5.305,3.223,-0.115,0.898,-0.480,-1.007,-1.373,0.977,60.000,51561.000,1.000
14.605,20.367,8.646,6.719,9.777,5.436,9.019,3.667,-0.111,0.900,-0.483,-1.099,-1.434,1.038,60.000,51562.000,1.000
13.370,18.291,6.509,6.539,9.794,6.492,9.486,3.454,-0.108,0.902,-0.483,-1.221,-1.556,1.068,60.000,51563.000,1.000
9.812,13.443,3.215,4.894,7.997,5.108,6.677,3.139,-0.107,0.901,-0.482,-1.221,-1.556,0.977,60.000,51564.000,1.000
6.122,8.209,-0.207,3.188,5.945,2.188,2.430,3.492,-0.105,0.901,-0.481,-1.129,-1.556,1.038,60.000,51565.000,1.000
3.856,4.651,-2.879,2.526,5.083,-0.883,-0.987,4.705,-0.105,0.902,-0.479,-1.221,-1.587,1.038,60.000,51566.000,1.000
3.688,3.757,-4.053,3.541,6.218,-2.652,-1.737,6.538,-0.104,0.902,-0.482,-1.160,-1.465,1.038,60.000,51567.000,1.000
5.096,4.935,-3.579,5.922,8.911,-2.483,0.390,8.399,-0.105,0.900,-0.483,-1.282,-1.434,1.099,60.000,51568.000,1.000
7.007,6.604,-2.034,8.493,11.732,-0.883,3.981,9.645,-0.101,0.900,-0.483,-1.251,-1.404,0.916,60.000,51569.000,1.000
8.308,7.258,-0.400,9.885,13.198,0.948,6.912,10.046,-0.102,0.897,-0.481,-1.373,-1.099,0.885,60.000,51570.000,1.000
8.284,6.399,0.554,9.487,12.706,1.971,7.585,9.979,-0.104,0.895,-0.480,-1.343,-1.038,0.824,60.000,51571.000,1.000
7.444,4.847,0.760,7.847,10.855,1.935,6.078,9.979,-0.104,0.889,-0.482,-1.312,-1.007,0.702,60.000,51572.000,1.000
6.804,3.664,0.518,5.884,8.554,1.076,3.557,9.984,-0.108,0.888,-0.481,-1.221,-1.007,0.519,60.000,51573.000,1.000
7.456,3.572,0.394,4.458,6.491,-0.080,1.323,9.595,-0.109,0.885,-0.483,-1.129,-1.068,0.580,60.000,51574.000,1.000
9.619,4.562,0.868,4.045,4.861,-1.050,-0.192,8.625,-0.112,0.886,-0.488,-1.007,-1.068,0.458,60.000,51575.000,1.000
12.095,5.808,1.982,4.532,3.395,-1.606,-1.451,7.299,-0.113,0.886,-0.485,-0.824,-0.977,0.336,60.000,51576.000,1.000
13.536,6.471,3.440,5.464,1.829,-1.623,-2.701,6.024,-0.114,0.887,-0.482,-0.671,-1.068,0.336,60.000,51577.000,1.000
13.186,6.065,4.696,6.211,0.028,-1.083,-3.782,4.971,-0.113,0.889,-0.485,-0.549,-1.221,0.183,60.000,51578.000,1.000
11.837,5.091,5.585,6.700,-1.514,0.374,-3.851,4.401,-0.114,0.893,-0.481,-0.427,-1.190,0.244,60.000,51579.000,1.000
11.241,4.839,6.355,7.411,-1.920,3.155,-2.042,4.626,-0.112,0.895,-0.484,-0.458,-1.312,0.122,60.000,51580.000,1.000
12.267,6.104,7.109,8.519,-0.991,6.827,1.177,5.487,-0.111,0.897,-0.479,-0.488,-1.404,0.031,60.000,51581.000,1.000
14.333,8.246,7.605,9.496,0.388,10.046,4.082,6.224,-0.110,0.900,-0.480,-0.580,-1.373,0.214,60.000,51582.000,1.000
15.684,9.256,7.287,9.333,0.644,11.231,4.679,5.849,-0.112,0.901,-0.480,-0.702,-1.434,0.183,60.000,51583.000,1.000
15.555,7.910,6.117,7.770,-0.917,9.934,2.528,4.087,-0.113,0.902,-0.480,-0.671,-1.526,0.153,60.000,51584.000,1.000
14.870,5.008,4.908,5.682,-3.419,7.298,-0.842,1.666,-0.111,0.905,-0.479,-0.671,-1.434,0.214,60.000,51585.000,1.000
14.943,2.439,4.843,4.381,-5.161,5.345,-3.063,-0.096,-0.110,0.906,-0.485,-0.793,-1.465,0.244,60.000,51586.000,1.000
16.832,2.035,6.698,4.882,-4.713,5.738,-2.265,-0.035,-0.108,0.905,-0.485,-0.916,-1.495,0.336,60.000,51587.000,1.000
20.406,4.286,9.877,6.929,-2.254,8.327,1.215,1.689,-0.106,0.906,-0.484,-0.977,-1.343,0.305,60.000,51588.000,1.000
24.712,8.271,12.882,9.229,0.651,11.342,5.225,3.660,-0.105,0.907,-0.480,-1.038,-1.251,0.427,60.000,51589.000,1.000
28.437,12.378,14.486,10.460,2.403,12.807,7.607,4.436,-0.105,0.906,-0.478,-1.190,-1.190,0.336,60.000,51590.000,1.000
30.397,15.355,14.545,10.194,2.522,11.890,7.699,3.636,-0.108,0.903,-0.482,-1.343,-1.007,0.275,60.000,51591.000,1.000
30.605,17.238,14.053,9.179,1.957,9.401,6.682,1.980,-0.106,0.897,-0.480,-1.465,-0.854,0.305,60.000,51592.000,1.000
29.493,18.451,13.915,8.291,1.805,6.723,5.720,0.304,-0.108,0.895,-0.485,-1.404,-0.793,0.336,60.000,51593.000,1.000
27.444,19.006,14.190,7.870,2.346,4.845,4.995,-1.064,-0.106,0.891,-0.480,-1.282,-0.702,0.336,60.000,51594.000,1.000
24.607,18.450,14.189,7.705,2.953,3.986,4.081,-2.430,-0.107,0.890,-0.485,-1.251,-0.580,0.458,60.000,51595.000,1.000
20.947,16.397,13.139,7.434,2.739,3.715,2.582,-4.141,-0.108,0.889,-0.485,-1.221,-0.458,0.397,60.000,51596.000,1.000
16.961,13.317,11.038,7.171,1.565,3.561,0.822,-5.746,-0.111,0.888,-0.490,-1.068,-0.366,0.366,60.000,51597.000,1.000
13.189,10.201,8.578,7.309,0.091,3.363,-0.430,-6.259,-0.111,0.886,-0.485,-0.885,-0.336,0.458,60.000,51598.000,1.000
10.242,8.206,6.711,8.216,-0.654,3.390,-0.243,-4.975,-0.114,0.887,-0.488,-0.793,-0.366,0.458,60.000,51599.000,1.000
8.339,7.885,5.821,9.694,-0.206,3.805,1.510,-2.176,-0.115,0.886,-0.487,-0.793,-0.366,0.427,60.000,51600.000,1.000
6.755,8.491,5.424,10.872,0.883,4.359,3.749,1.050,-0.116,0.890,-0.484,-0.732,-0.427,0.519,60.000,51601.000,1.000
4.582,8.496,4.783,10.891,1.663,4.780,5.304,3.552,-0.118,0.894,-0.485,-0.793,-0.458,0.610,60.000,51602.000,1.000
1.062,6.469,3.319,9.234,1.216,4.700,5.297,4.417,-0.117,0.896,-0.484,-0.763,-0.641,0.641,60.000,51603.000,1.000
-3.260,2.561,1.204,6.304,-0.521,3.935,3.702,3.463,-0.116,0.899,-0.484,-0.824,-0.732,0.824,60.000,51604.000,1.000
-6.785,-1.594,-0.796,3.225,-2.664,2.606,1.389,1.356,-0.116,0.902,-0.483,-0.916,-0.824,0.854,60.000,51605.000,1.000
-8.430,-4.537,-2.087,0.976,-4.230,0.964,-0.535,-0.890,-0.112,0.907,-0.483,-0.946,-0.885,0.885,60.000,51606.000,1.000
-7.815,-5.676,-2.454,0.102,-4.590,-0.490,-0.862,-2.404,-0.109,0.909,-0.480,-1.190,-0.854,0.916,60.000,51607.000,1.000
-5.396,-5.344,-2.101,0.535,-3.788,-1.317,0.826,-2.836,-0.108,0.910,-0.479,-1.434,-0.793,1.007,60.000,51608.000,1.000
-1.745,-4.114,-1.272,1.807,-2.344,-1.485,3.568,-2.209,-0.105,0.909,-0.480,-1.709,-0.671,1.038,60.000,51609.000,1.000
2.473,-2.626,-0.241,3.114,-1.084,-1.581,5.360,-0.968,-0.105,0.908,-0.479,-1.862,-0.580,1.038,60.000,51610.000,1.000
6.205,-1.656,0.719,3.612,-0.771,-2.333,4.610,0.031,-0.104,0.904,-0.480,-2.075,-0.488,0.977,60.000,51611.000,1.000
8.838,-1.458,1.680,3.094,-1.383,-3.825,1.412,0.107,-0.102,0.901,-0.482,-2.228,-0.366,1.038,60.000,51612.000,1.000
9.892,-1.964,2.655,1.747,-2.433,-5.829,-3.228,-0.975,-0.100,0.899,-0.482,-2.289,-0.153,1.038,60.000,51613.000,1.000
9.242,-2.931,3.451,-0.001,-3.339,-8.006,-7.813,-2.868,-0.099,0.899,-0.482,-2.350,0.031,0.977,60.000,51614.000,1.000
7.315,-4.051,3.759,-1.568,-3.681,-9.876,-10.791,-4.816,-0.100,0.896,-0.481,-2.228,0.305,0.885,60.000,51615.000,1.000
4.872,-4.937,3.316,-2.350,-3.313,-10.937,-11.427,-5.957,-0.101,0.894,-0.480,-2.289,0.427,0.702,60.000,51616.000,1.000
2.898,-4.964,2.181,-1.786,-2.187,-10.837,-9.957,-5.519,-0.102,0.891,-0.483,-2.167,0.549,0.763,60.000,51617.000,1.000
1.196,-4.264,0.473,0.012,-0.673,-9.804,-7.602,-3.326,-0.101,0.887,-0.486,-2.106,0.824,0.702,60.000,51618.000,1.000
-1.373,-3.864,-1.644,2.206,0.565,-8.427,-5.572,-0.147,-0.106,0.885,-0.489,-1.984,0.732,0.610,60.000,51619.000,1.000
-5.728,-4.868,-4.070,3.581,0.829,-7.335,-4.445,2.322,-0.109,0.883,-0.489,-1.801,0.702,0.610,60.000,51620.000,1.000
-11.772,-7.590,-6.731,3.219,-0.187,-6.876,-4.168,2.578,-0.113,0.881,-0.488,-1.526,0.671,0.580,60.000,51621.000,1.000
-17.864,-10.982,-9.197,1.371,-1.761,-6.633,-3.890,0.710,-0.114,0.883,-0.487,-1.312,0.549,0.549,60.000,51622.000,1.000
-22.293,-13.667,-11.027,-0.916,-2.828,-5.833,-2.943,-1.866,-0.115,0.886,-0.484,-1.221,0.519,0.580,60.000,51623.000,1.000
-24.222,-14.908,-12.045,-2.557,-2.819,-3.939,-1.303,-3.536,-0.114,0.889,-0.480,-1.190,0.427,0.610,60.000,51624.000,1.000
-23.945,-14.972,-12.493,-3.196,-2.052,-1.146,0.496,-3.586,-0.116,0.892,-0.481,-1.038,0.305,0.488,60.000,51625.000,1.000
-22.354,-14.599,-12.773,-3.220,-1.360,1.796,1.813,-2.454,-0.117,0.896,-0.479,-1.068,0.031,0.519,60.000,51626.000,1.000
-19.638,-13.827,-12.864,-2.994,-1.159,4.358,2.724,-1.063,-0.115,0.898,-0.482,-0.977,-0.092,0.610,60.000,51627.000,1.000
-16.062,-12.481,-12.619,-2.912,-1.557,6.176,3.459,-0.307,-0.112,0.901,-0.485,-0.946,-0.153,0.580,60.000,51628.000,1.000
-12.270,-10.800,-11.956,-3.374,-2.559,6.917,4.059,-0.614,-0.108,0.904,-0.480,-1.038,-0.366,0.641,60.000,51629.000,1.000
-8.779,-9.314,-10.883,-4.610,-4.107,6.351,4.408,-1.945,-0.107,0.907,-0.478,-1.190,-0.427,0.732,60.000,51630.000,1.000
-5.614,-8.288,-9.413,-6.524,-6.050,4.597,4.299,-4.014,-0.104,0.906,-0.481,-1.373,-0.427,0.824,60.000,51631.000,1.000
-2.333,-7.358,-7.411,-8.550,-8.088,2.219,3.560,-6.382,-0.107,0.904,-0.481,-1.465,-0.427,0.824,60.000,51632.000,1.000
0.689,-6.251,-4.971,-10.164,-10.167,-0.365,1.698,-8.745,-0.104,0.905,-0.481,-1.617,-0.397,0.824,60.000,51633.000,1.000
3.013,-4.565,-2.134,-10.838,-11.972,-2.700,-1.063,-10.701,-0.103,0.901,-0.482,-1.587,-0.336,0.793,60.000,51634.000,1.000
4.867,-1.883,1.160,-10.243,-12.745,-4.161,-3.478,-11.625,-0.101,0.897,-0.481,-1.648,-0.397,0.793,60.000,51635.000,1.000
6.111,1.093,4.429,-8.903,-12.275,-4.646,-4.814,-11.155,-0.100,0.894,-0.482,-1.556,-0.244,0.885,60.000,51636.000,1.000
6.024,2.758,6.650,-7.926,-11.221,-4.835,-5.458,-9.556,-0.101,0.891,-0.485,-1.373,-0.183,0.854,60.000,51637.000,1.000
3.675,1.819,6.913,-8.172,-10.437,-5.637,-6.389,-7.609,-0.101,0.890,-0.485,-1.221,-0.061,0.946,60.000,51638.000,1.000
-0.670,-1.297,5.394,-9.326,-9.869,-7.068,-7.622,-5.847,-0.101,0.890,-0.486,-1.068,0.031,0.916,60.000,51639.000,1.000
-5.638,-4.769,3.030,-10.228,-8.744,-8.250,-7.991,-4.250,-0.103,0.889,-0.483,-1.129,0.031,0.946,60.000,51640.000,1.000
-10.116,-6.903,0.513,-9.890,-6.586,-8.428,-6.594,-2.577,-0.105,0.890,-0.485,-1.099,0.092,0.916,60.000,51641.000,1.000
-13.472,-6.906,-1.869,-7.918,-3.503,-7.471,-3.762,-0.704,-0.108,0.889,-0.487,-1.099,-0.031,1.007,60.000,51642.000,1.000
-15.888,-5.343,-4.101,-4.805,-0.232,-5.864,-1.093,1.070,-0.110,0.890,-0.485,-1.160,-0.122,1.068,60.000,51643.000,1.000
-17.661,-3.553,-6.075,-1.518,2.315,-4.196,0.042,2.337,-0.110,0.892,-0.486,-1.068,-0.214,1.038,60.000,51644.000,1.000
-19.129,-3.098,-7.809,0.827,3.174,-3.228,-0.883,2.716,-0.112,0.893,-0.484,-1.038,-0.244,0.977,60.000,51645.000,1.000
-20.962,-5.136,-9.558,1.373,1.662,-3.732,-3.804,1.936,-0.110,0.893,-0.481,-0.946,-0.366,1.007,60.000,51646.000,1.000
-22.971,-9.038,-11.128,0.399,-1.530,-5.410,-7.423,0.406,-0.113,0.895,-0.480,-0.854,-0.488,0.977,60.000,51647.000,1.000
-24.169,-12.762,-11.918,-0.949,-4.590,-6.888,-9.702,-0.821,-0.112,0.899,-0.482,-0.763,-0.702,0.946,60.000,51648.000,1.000
-23.047,-14.082,-11.264,-1.341,-5.648,-6.616,-9.009,-0.630,-0.112,0.903,-0.480,-0.793,-0.732,0.854,60.000,51649.000,1.000
-18.378,-11.731,-8.905,0.035,-3.759,-3.864,-5.184,1.427,-0.111,0.907,-0.481,-0.977,-0.854,0.671,60.000,51650.000,1.000
-10.500,-6.150,-5.247,2.909,0.591,0.877,0.376,4.837,-0.107,0.909,-0.480,-1.068,-0.916,0.580,60.000,51651.000,1.000
-1.319,0.711,-1.173,5.974,5.829,6.141,5.813,8.482,-0.106,0.911,-0.477,-1.221,-0.977,0.549,60.000,51652.000,1.000
6.217,6.076,2.116,7.341,9.932,9.904,9.483,11.219,-0.103,0.908,-0.478,-1.465,-0.916,0.519,60.000,51653.000,1.000
10.388,8.303,4.028,6.059,11.887,11.038,11.129,12.730,-0.101,0.904,-0.476,-1.587,-0.916,0.458,60.000,51654.000,1.000
11.565,7.722,4.899,2.750,12.119,10.050,11.759,13.329,-0.101,0.902,-0.478,-1.740,-0.824,0.397,60.000,51655.000,1.000
10.736,5.502,5.272,-1.372,11.353,8.122,12.058,12.997,-0.099,0.903,-0.479,-1.831,-0.763,0.427,60.000,51656.000,1.000
8.799,2.888,5.435,-5.353,9.902,6.068,11.907,11.197,-0.100,0.899,-0.482,-1.892,-0.732,0.336,60.000,51657.000,1.000
5.965,0.552,5.134,-8.910,7.488,3.781,10.406,7.356,-0.099,0.896,-0.482,-1.770,-0.641,0.397,60.000,51658.000,1.000
2.351,-1.368,4.032,-11.859,3.938,0.779,6.821,1.809,-0.102,0.892,-0.486,-1.770,-0.549,0.427,60.000,51659.000,1.000
-1.702,-3.092,2.158,-13.795,-0.293,-3.104,1.291,-4.018,-0.106,0.892,-0.484,-1.678,-0.519,0.488,60.000,51660.000,1.000
-5.876,-4.948,-0.044,-14.390,-4.257,-7.445,-5.235,-8.430,-0.107,0.886,-0.484,-1.617,-0.519,0.519,60.000,51661.000,1.000
-9.477,-6.657,-1.807,-13.517,-6.832,-11.172,-11.037,-10.426,-0.109,0.884,-0.481,-1.373,-0.580,0.458,60.000,51662.000,1.000
-12.029,-7.618,-2.622,-11.463,-7.419,-13.147,-14.479,-10.240,-0.109,0.883,-0.483,-1.221,-0.641,0.488,60.000,51663.000,1.000
-13.099,-7.127,-2.275,-8.486,-5.884,-12.561,-14.467,-8.707,-0.112,0.884,-0.481,-1.007,-0.702,0.549,60.000,51664.000,1.000
-12.578,-4.963,-0.948,-4.748,-2.546,-9.477,-11.138,-6.538,-0.112,0.887,-0.484,-0.916,-0.885,0.549,60.000,51665.000,1.000
-11.510,-2.163,0.621,-0.782,1.574,-5.051,-6.150,-4.162,-0.114,0.892,-0.487,-0.824,-0.977,0.641,60.000,51666.000,1.000
-11.093,-0.247,1.635,2.758,5.339,-0.660,-1.305,-1.780,-0.115,0.894,-0.482,-0.763,-1.190,0.702,60.000,51667.000,1.000
-11.928,-0.208,1.510,5.304,7.848,2.669,2.115,0.212,-0.115,0.898,-0.483,-0.916,-1.221,0.641,60.000,51668.000,1.000
-13.389,-1.741,0.213,6.648,8.672,4.476,3.717,1.298,-0.114,0.899,-0.481,-0.916,-1.404,0.610,60.000,51669.000,1.000
-14.137,-3.557,-1.742,6.917,7.942,4.730,3.927,1.256,-0.111,0.905,-0.481,-0.916,-1.465,0.671,60.000,51670.000,1.000
-13.164,-4.281,-3.545,6.515,6.370,3.717,3.481,0.463,-0.111,0.906,-0.481,-1.007,-1.587,0.610,60.000,51671.000,1.000
-9.785,-2.869,-4.293,6.150,5.188,2.215,3.432,-0.156,-0.109,0.906,-0.480,-1.068,-1.495,0.732,60.000,51672.000,1.000
-4.449,0.429,-3.733,6.058,5.161,1.024,4.404,0.077,-0.105,0.904,-0.479,-1.160,-1.495,0.763,60.000,51673.000,1.000
1.581,4.268,-2.195,5.904,6.224,0.635,6.270,1.154,-0.100,0.902,-0.479,-1.282,-1.434,0.763,60.000,51674.000,1.000
6.996,7.315,-0.064,5.283,7.786,1.029,8.153,2.495,-0.099,0.900,-0.480,-1.312,-1.373,0.763,60.000,51675.000,1.000
10.742,8.968,2.458,4.060,9.105,1.654,8.792,3.467,-0.101,0.896,-0.485,-1.404,-1.221,0.702,60.000,51676.000,1.000
12.674,9.498,5.366,2.542,9.764,1.885,7.621,3.986,-0.101,0.893,-0.482,-1.312,-1.068,0.763,60.000,51677.000,1.000
13.062,9.259,8.416,1.078,9.562,1.175,4.779,4.398,-0.103,0.892,-0.488,-1.190,-1.038,0.854,60.000,51678.000,1.000
12.768,8.818,11.299,0.133,8.734,-0.517,1.088,5.244,-0.102,0.892,-0.485,-1.160,-1.007,0.732,60.000,51679.000,1.000
12.754,8.900,13.617,0.020,7.788,-2.691,-2.446,6.671,-0.102,0.891,-0.487,-1.099,-1.007,0.824,60.000,51680.000,1.000
12.828,9.525,14.618,0.365,6.836,-4.771,-5.426,7.866,-0.103,0.892,-0.488,-1.007,-1.007,0.885,60.000,51681.000,1.000
12.290,10.218,13.732,0.539,5.718,-6.212,-7.851,7.622,-0.103,0.896,-0.486,-0.916,-0.977,0.854,60.000,51682.000,1.000
10.514,10.399,11.016,0.113,4.227,-6.727,-9.933,5.434,-0.108,0.898,-0.487,-0.916,-0.946,0.916,60.000,51683.000,1.000
7.657,9.867,7.349,-0.791,2.498,-6.137,-11.308,2.146,-0.110,0.898,-0.485,-0.916,-0.885,0.793,60.000,51684.000,1.000
4.438,8.809,3.954,-1.651,1.048,-4.274,-10.918,-0.617,-0.115,0.897,-0.487,-0.916,-0.977,0.732,60.000,51685.000,1.000
1.315,7.425,1.689,-1.874,0.458,-1.150,-7.983,-1.331,-0.119,0.899,-0.481,-0.916,-1.007,0.671,60.000,51686.000,1.000
-1.226,5.970,0.827,-0.914,1.136,2.853,-2.674,0.753,-0.121,0.902,-0.484,-0.946,-1.221,0.610,60.000,51687.000,1.000
-2.887,4.502,0.892,1.151,2.788,6.716,3.451,4.908,-0.121,0.902,-0.484,-1.068,-1.404,0.519,60.000,51688.000,1.000
-3.132,3.320,1.233,3.765,4.756,9.504,8.643,9.354,-0.121,0.904,-0.482,-1.190,-1.495,0.275,60.000,51689.000,1.000
-1.837,2.743,1.265,6.084,6.338,10.901,11.805,12.235,-0.121,0.902,-0.483,-1.129,-1.740,0.214,60.000,51690.000,1.000
-0.427,2.270,0.367,7.041,6.733,10.974,12.197,12.465,-0.123,0.902,-0.485,-1.251,-1.953,0.305,60.000,51691.000,1.000
-0.349,1.389,-1.528,6.213,5.709,10.229,10.058,10.417,-0.121,0.903,-0.488,-1.343,-2.228,0.244,60.000,51692.000,1.000
-1.708,0.282,-3.801,4.141,3.844,9.409,6.778,7.442,-0.118,0.903,-0.485,-1.434,-2.380,0.122,60.000,51693.000,1.000
-3.043,-0.301,-5.488,2.047,2.328,9.287,4.401,4.827,-0.115,0.901,-0.479,-1.587,-2.502,0.061,60.000,51694.000,1.000
-2.811,0.133,-6.007,0.959,2.212,10.267,4.229,3.094,-0.113,0.902,-0.483,-1.495,-2.594,0.122,60.000,51695.000,1.000
-0.939,1.338,-5.583,0.896,3.576,11.975,5.792,1.941,-0.110,0.904,-0.485,-1.648,-2.625,0.122,60.000,51696.000,1.000
1.773,2.759,-4.745,1.113,5.541,13.547,7.758,0.662,-0.110,0.902,-0.483,-1.831,-2.563,0.244,60.000,51697.000,1.000
4.189,3.627,-3.851,0.755,6.749,14.125,8.857,-1.289,-0.109,0.902,-0.479,-1.953,-2.502,0.397,60.000,51698.000,1.000
6.124,3.842,-2.626,-0.120,6.600,13.653,8.783,-3.525,-0.106,0.903,-0.479,-2.014,-2.350,0.580,60.000,51699.000,1.000
8.399,4.246,-0.628,-0.744,5.570,12.810,8.094,-5.078,-0.104,0.900,-0.480,-2.045,-2.289,0.702,60.000,51700.000,1.000
11.150,5.299,1.838,-0.837,4.191,12.030,7.185,-5.534,-0.104,0.898,-0.481,-2.045,-2.136,0.824,60.000,51701.000,1.000
13.648,6.538,3.882,-0.757,2.566,11.145,6.098,-5.379,-0.104,0.897,-0.479,-1.984,-1.984,0.977,60.000,51702.000,1.000
14.949,7.132,4.657,-0.975,0.521,9.622,4.450,-5.498,-0.107,0.896,-0.478,-1.923,-1.831,1.129,60.000,51703.000,1.000
15.238,7.156,4.184,-1.268,-1.708,7.367,2.071,-6.233,-0.105,0.895,-0.479,-1.831,-1.740,1.282,60.000,51704.000,1.000
15.460,7.383,3.255,-0.982,-3.552,4.843,-0.708,-7.241,-0.105,0.892,-0.479,-1.801,-1.465,1.312,60.000,51705.000,1.000
15.825,8.030,2.710,0.182,-4.698,2.653,-3.339,-7.924,-0.102,0.894,-0.481,-1.740,-1.343,1.312,60.000,51706.000,1.000
16.207,8.956,3.226,2.337,-4.821,1.569,-4.935,-7.502,-0.101,0.895,-0.483,-1.709,-1.190,1.404,60.000,51707.000,1.000
16.233,9.960,4.876,5.377,-3.632,2.067,-4.940,-5.411,-0.101,0.896,-0.481,-1.678,-0.977,1.373,60.000,51708.000,1.000
15.602,10.953,6.986,8.869,-1.151,3.835,-3.362,-1.796,-0.100,0.898,-0.478,-1.678,-0.793,1.434,60.000,51709.000,1.000
14.081,11.657,8.260,11.959,1.903,5.637,-0.800,2.175,-0.100,0.899,-0.479,-1.648,-0.549,1.495,60.000,51710.000,1.000
11.239,11.395,7.376,13.630,4.161,5.945,1.578,4.853,-0.102,0.899,-0.480,-1.770,-0.305,1.465,60.000,51711.000,1.000
7.248,9.818,4.021,13.415,4.580,4.165,2.800,5.367,-0.103,0.900,-0.481,-1.709,-0.214,1.343,60.000,51712.000,1.000
2.577,6.945,-1.021,11.302,2.836,0.818,2.249,4.010,-0.101,0.901,-0.481,-1.617,-0.061,1.343,60.000,51713.000,1.000
-2.008,3.208,-6.207,7.746,-0.527,-2.838,0.193,1.738,-0.102,0.897,-0.481,-1.678,0.031,1.312,60.000,51714.000,1.000
-5.629,-0.688,-9.919,3.637,-4.337,-5.511,-2.113,-0.532,-0.100,0.895,-0.480,-1.678,0.183,1.251,60.000,51715.000,1.000
-7.630,-3.979,-11.129,0.078,-7.274,-6.494,-3.203,-2.104,-0.101,0.897,-0.481,-1.831,0.366,1.068,60.000,51716.000,1.000
-7.072,-5.659,-9.549,-1.828,-8.164,-5.728,-2.122,-2.366,-0.103,0.897,-0.478,-1.831,0.488,0.916,60.000,51717.000,1.000
-4.001,-5.529,-6.029,-1.897,-6.951,-4.066,0.261,-1.255,-0.102,0.899,-0.479,-1.923,0.610,0.854,60.000,51718.000,1.000
0.100,-4.679,-2.123,-0.980,-4.819,-2.828,1.812,0.618,-0.099,0.897,-0.481,-1.801,0.763,0.732,60.000,51719.000,1.000
3.401,-4.595,0.863,-0.337,-3.345,-3.016,0.923,2.147,-0.100,0.897,-0.480,-1.770,0.885,0.671,60.000,51720.000,1.000
5.002,-5.869,2.468,-0.937,-3.548,-4.852,-2.498,2.231,-0.100,0.897,-0.483,-1.801,1.038,0.549,60.000,51721.000,1.000
5.808,-7.443,3.215,-2.791,-5.180,-7.495,-6.690,0.621,-0.101,0.897,-0.479,-1.862,1.129,0.519,60.000,51722.000,1.000
6.853,-7.993,3.743,-5.256,-7.316,-9.723,-9.477,-2.033,-0.100,0.896,-0.479,-1.831,1.251,0.397,60.000,51723.000,1.000
8.208,-7.242,4.301,-7.421,-9.047,-10.668,-9.797,-4.579,-0.101,0.895,-0.478,-1.953,1.373,0.366,60.000,51724.000,1.000
9.165,-6.121,4.690,-8.614,-9.992,-10.333,-8.421,-6.122,-0.106,0.896,-0.479,-1.923,1.465,0.214,60.000,51725.000,1.000
8.907,-6.016,4.444,-8.840,-10.545,-9.636,-7.414,-6.619,-0.105,0.899,-0.478,-1.892,1.556,0.275,60.000,51726.000,1.000
7.741,-7.349,3.462,-8.401,-11.215,-9.465,-8.091,-6.565,-0.108,0.897,-0.477,-1.770,1.495,0.153,60.000,51727.000,1.000
6.346,-9.550,2.138,-7.673,-12.157,-9.974,-10.127,-6.466,-0.108,0.897,-0.477,-1.831,1.465,0.153,60.000,51728.000,1.000
5.281,-11.452,1.335,-6.755,-12.898,-10.418,-11.834,-6.416,-0.110,0.896,-0.479,-1.709,1.404,0.153,60.000,51729.000,1.000
4.839,-12.043,1.747,-5.521,-12.827,-9.938,-11.693,-6.328,-0.108,0.897,-0.479,-1.617,1.190,0.153,60.000,51730.000,1.000
4.717,-11.317,3.120,-4.004,-11.896,-8.456,-9.772,-6.301,-0.108,0.897,-0.480,-1.495,1.099,0.122,60.000,51731.000,1.000
4.594,-9.832,4.503,-2.320,-10.352,-6.501,-7.062,-6.492,-0.109,0.896,-0.476,-1.495,0.977,0.153,60.000,51732.000,1.000
3.652,-8.362,4.711,-0.920,-8.686,-4.921,-4.784,-7.135,-0.112,0.898,-0.481,-1.495,0.885,0.153,60.000,51733.000,1.000
1.006,-7.425,3.114,-0.375,-7.437,-4.268,-3.638,-8.263,-0.111,0.901,-0.480,-1.526,0.702,0.153,60.000,51734.000,1.000
-3.373,-7.126,-0.013,-1.000,-7.001,-4.454,-3.492,-9.520,-0.113,0.900,-0.482,-1.465,0.641,0.275,60.000,51735.000,1.000
-8.531,-7.391,-3.763,-2.683,-7.519,-4.951,-3.741,-10.390,-0.115,0.898,-0.479,-1.404,0.458,0.305,60.000,51736.000,1.000
-12.635,-7.817,-6.892,-4.756,-8.535,-5.048,-3.502,-10.490,-0.116,0.900,-0.482,-1.373,0.153,0.488,60.000,51737.000,1.000
-14.822,-8.257,-8.713,-6.694,-9.484,-4.546,-2.604,-10.035,-0.117,0.902,-0.480,-1.404,-0.214,0.580,60.000,51738.000,1.000
-15.519,-8.649,-9.343,-8.239,-9.837,-3.687,-1.409,-9.447,-0.118,0.902,-0.479,-1.434,-0.366,0.732,60.000,51739.000,1.000
-15.308,-8.505,-9.283,-9.116,-9.045,-2.686,-0.054,-8.769,-0.117,0.902,-0.477,-1.465,-0.610,0.793,60.000,51740.000,1.000
-14.502,-7.347,-9.010,-9.143,-6.997,-1.706,1.442,-7.794,-0.116,0.901,-0.474,-1.526,-0.916,1.038,60.000,51741.000,1.000
-12.836,-4.924,-8.527,-8.117,-3.997,-0.767,3.117,-6.368,-0.115,0.902,-0.475,-1.678,-1.007,1.160,60.000,51742.000,1.000
-10.475,-1.563,-7.655,-6.070,-0.616,0.074,4.550,-4.691,-0.113,0.901,-0.477,-1.740,-1.312,1.251,60.000,51743.000,1.000
-8.320,1.812,-6.338,-3.443,2.534,0.637,5.020,-3.165,-0.108,0.904,-0.481,-1.709,-1.526,1.343,60.000,51744.000,1.000
-7.857,3.429,-5.069,-1.444,4.416,0.303,3.918,-2.335,-0.104,0.905,-0.481,-1.892,-1.648,1.465,60.000,51745.000,1.000
-10.861,0.781,-5.001,-1.929,3.352,-2.011,0.937,-2.780,-0.101,0.906,-0.481,-1.923,-1.862,1.526,60.000,51746.000,1.000
-17.738,-7.376,-6.930,-5.817,-1.515,-6.751,-3.267,-4.360,-0.097,0.906,-0.481,-2.014,-1.801,1.678,60.000,51747.000,1.000
-27.208,-19.529,-10.602,-12.062,-9.068,-13.047,-7.459,-5.936,-0.097,0.907,-0.477,-2.045,-1.678,1.617,60.000,51748.000,1.000
-36.624,-31.661,-14.656,-18.019,-16.473,-18.882,-10.291,-6.120,-0.100,0.908,-0.478,-2.167,-1.495,1.648,60.000,51749.000,1.000
-42.826,-39.210,-17.249,-20.900,-20.639,-22.046,-10.627,-4.388,-0.105,0.907,-0.478,-2.411,-1.556,1.587,60.000,51750.000,1.000
-43.425,-39.319,-16.902,-19.097,-19.657,-21.182,-7.900,-1.080,-0.108,0.906,-0.477,-2.502,-1.648,1.526,60.000,51751.000,1.000
-37.721,-32.012,-13.249,-12.850,-13.598,-16.469,-2.363,3.175,-0.108,0.900,-0.476,-2.686,-1.678,1.343,60.000,51752.000,1.000
-28.348,-20.827,-7.855,-4.773,-5.209,-10.157,3.778,7.170,-0.107,0.896,-0.478,-2.777,-1.801,1.190,60.000,51753.000,1.000
-19.849,-10.741,-3.176,1.673,1.625,-5.208,7.396,9.477,-0.106,0.893,-0.481,-2.869,-1.801,0.946,60.000,51754.000,1.000
-15.229,-4.791,-0.629,4.655,4.702,-3.164,6.954,9.592,-0.105,0.891,-0.479,-2.716,-1.801,0.702,60.000,51755.000,1.000
-14.451,-2.817,0.019,4.770,4.598,-3.535,3.316,8.365,-0.104,0.888,-0.480,-2.594,-1.801,0.580,60.000,51756.000,1.000
-15.193,-2.642,-0.089,4.055,3.632,-4.579,-1.085,7.217,-0.103,0.885,-0.476,-2.380,-1.770,0.488,60.000,51757.000,1.000
-15.802,-2.807,-0.363,3.936,3.568,-4.845,-4.253,6.837,-0.103,0.884,-0.476,-2.289,-1.678,0.275,60.000,51758.000,1.000
-16.095,-3.213,-0.927,4.588,4.726,-3.798,-5.421,7.256,-0.103,0.885,-0.477,-2.045,-1.678,0.061,60.000,51759.000,1.000
-16.195,-3.876,-1.869,5.583,6.591,-1.608,-4.846,8.521,-0.105,0.884,-0.477,-1.770,-1.617,-0.031,60.000,51760.000,1.000
-15.941,-4.289,-2.845,6.527,8.555,1.223,-3.441,10.536,-0.105,0.887,-0.479,-1.678,-1.556,0.031,60.000,51761.000,1.000
-14.390,-3.429,-3.081,7.434,10.369,4.396,-1.682,12.578,-0.105,0.890,-0.479,-1.495,-1.617,-0.061,60.000,51762.000,1.000
-11.031,-0.887,-2.176,8.210,11.586,7.599,0.536,13.322,-0.108,0.892,-0.475,-1.343,-1.709,0.092,60.000,51763.000,1.000
-6.333,2.605,-0.361,8.570,11.552,10.447,3.718,12.000,-0.112,0.894,-0.475,-1.312,-1.709,0.183,60.000,51764.000,1.000
-1.163,5.826,1.796,8.364,10.029,12.661,7.980,9.142,-0.114,0.898,-0.476,-1.404,-1.770,0.336,60.000,51765.000,1.000
3.948,8.127,3.799,7.755,7.572,14.147,12.260,6.062,-0.115,0.902,-0.475,-1.282,-1.923,0.458,60.000,51766.000,1.000
9.619,10.175,5.664,7.269,5.457,15.147,15.352,3.934,-0.115,0.905,-0.477,-1.373,-2.075,0.549,60.000,51767.000,1.000
16.244,12.812,7.470,7.028,4.504,15.734,16.719,2.893,-0.114,0.906,-0.474,-1.495,-2.106,0.732,60.000,51768.000,1.000
23.190,16.086,9.127,6.633,4.539,15.680,16.752,2.277,-0.112,0.909,-0.478,-1.526,-2.167,0.916,60.000,51769.000,1.000
29.201,19.257,10.472,5.588,4.868,14.710,16.182,1.479,-0.108,0.907,-0.477,-1.617,-2.197,1.038,60.000,51770.000,1.000
32.885,21.159,11.255,3.561,4.807,12.685,15.170,0.280,-0.106,0.908,-0.476,-1.740,-2.136,1.221,60.000,51771.000,1.000
33.877,21.240,11.354,0.793,4.236,9.846,13.632,-1.243,-0.108,0.911,-0.476,-1.770,-2.106,1.404,60.000,51772.000,1.000
32.437,19.670,10.571,-2.187,3.310,6.484,11.239,-3.089,-0.108,0.912,-0.476,-1.801,-2.075,1.556,60.000,51773.000,1.000
29.207,17.148,8.827,-4.767,2.346,3.010,7.888,-5.179,-0.107,0.909,-0.474,-1.892,-2.014,1.587,60.000,51774.000,1.000
25.293,14.782,6.611,-6.244,2.042,0.259,4.404,-6.995,-0.108,0.908,-0.470,-2.075,-2.136,1.678,60.000,51775.000,1.000
21.794,13.685,4.938,-5.937,3.359,-0.725,2.312,-7.587,-0.106,0.904,-0.472,-2.136,-1.984,1.678,60.000,51776.000,1.000
19.518,14.433,4.710,-3.516,6.944,0.618,2.895,-6.121,-0.102,0.902,-0.476,-2.106,-1.892,1.617,60.000,51777.000,1.000
17.746,15.979,5.546,0.153,11.980,3.423,5.572,-2.826,-0.097,0.898,-0.478,-2.106,-1.617,1.587,60.000,51778.000,1.000
14.843,16.320,6.045,3.377,16.469,5.911,8.397,1.097,-0.095,0.895,-0.477,-2.045,-1.404,1.556,60.000,51779.000,1.000
9.755,14.131,4.869,4.741,18.579,6.657,9.721,4.050,-0.093,0.894,-0.480,-1.892,-1.068,1.495,60.000,51780.000,1.000
2.375,9.374,1.501,3.843,17.615,5.240,8.806,4.725,-0.093,0.893,-0.480,-1.740,-0.916,1.404,60.000,51781.000,1.000
-5.928,3.477,-3.182,1.762,14.578,2.464,6.091,3.251,-0.093,0.892,-0.477,-1.556,-0.671,1.312,60.000,51782.000,1.000
-13.303,-1.727,-7.537,0.162,11.273,-0.424,2.406,1.255,-0.095,0.891,-0.477,-1.434,-0.366,1.099,60.000,51783.000,1.000
-18.275,-5.041,-10.166,0.169,9.133,-2.497,-1.370,0.734,-0.098,0.890,-0.479,-1.251,-0.183,0.977,60.000,51784.000,1.000
-20.280,-6.368,-10.638,1.847,8.623,-3.447,-4.272,2.701,-0.100,0.889,-0.483,-1.068,-0.092,0.793,60.000,51785.000,1.000
-20.081,-6.625,-9.668,4.227,9.180,-3.607,-5.735,6.608,-0.103,0.889,-0.478,-0.916,-0.031,0.702,60.000,51786.000,1.000
-18.581,-6.708,-8.374,6.052,9.813,-3.484,-5.768,10.892,-0.105,0.891,-0.477,-0.763,0.061,0.671,60.000,51787.000,1.000
-16.311,-7.061,-7.543,6.346,9.536,-3.410,-5.157,13.807,-0.105,0.893,-0.475,-0.732,0.122,0.275,60.000,51788.000,1.000
-13.056,-7.391,-7.028,5.054,7.998,-3.169,-4.735,14.425,-0.105,0.896,-0.476,-0.549,0.092,0.214,60.000,51789.000,1.000
-8.348,-6.965,-6.153,2.930,5.510,-2.423,-5.026,12.900,-0.107,0.899,-0.474,-0.397,0.092,0.092,60.000,51790.000,1.000
-2.498,-5.410,-4.488,0.881,2.603,-1.280,-6.327,10.082,-0.104,0.902,-0.476,-0.488,0.122,0.000,60.000,51791.000,1.000
4.144,-2.522,-1.680,-0.092,0.256,0.282,-7.758,7.320,-0.108,0.904,-0.476,-0.488,0.061,-0.122,60.000,51792.000,1.000
11.208,1.505,2.304,0.460,-0.578,2.451,-7.854,5.704,-0.108,0.905,-0.473,-0.641,0.000,-0.244,60.000,51793.000,1.000
18.380,6.111,6.916,2.018,0.347,5.132,-6.003,5.431,-0.104,0.905,-0.474,-0.732,0.061,-0.275,60.000,51794.000,1.000
25.429,10.775,11.141,3.447,2.296,7.742,-3.118,5.873,-0.105,0.905,-0.473,-0.885,0.122,-0.275,60.000,51795.000,1.000
31.638,14.943,13.956,3.589,3.726,9.459,-1.059,6.145,-0.103,0.904,-0.473,-0.916,0.122,-0.183,60.000,51796.000,1.000
36.220,18.099,15.089,2.057,3.296,9.913,-0.829,5.721,-0.104,0.909,-0.473,-1.068,0.153,-0.061,60.000,51797.000,1.000
38.206,19.531,14.826,-0.797,0.458,9.175,-2.196,4.296,-0.103,0.910,-0.473,-1.129,0.153,0.031,60.000,51798.000,1.000
37.138,18.873,13.671,-4.008,-4.189,7.640,-4.121,1.767,-0.104,0.905,-0.475,-1.282,0.122,0.183,60.000,51799.000,1.000
33.732,16.754,12.119,-6.331,-9.088,5.965,-5.428,-1.528,-0.104,0.905,-0.475,-1.373,0.214,0.305,60.000,51800.000,1.000
29.319,14.485,10.457,-6.913,-12.551,4.829,-5.489,-4.800,-0.106,0.904,-0.478,-1.312,0.305,0.214,60.000,51801.000,1.000
25.423,13.409,8.849,-5.602,-13.457,4.686,-4.149,-7.100,-0.105,0.901,-0.476,-1.343,0.244,0.336,60.000,51802.000,1.000
22.403,13.648,7.044,-3.285,-12.054,5.132,-2.244,-8.106,-0.104,0.898,-0.479,-1.404,0.275,0.427,60.000,51803.000,1.000
19.479,14.138,4.583,-1.256,-9.603,5.236,-1.179,-8.377,-0.105,0.896,-0.475,-1.373,0.214,0.427,60.000,51804.000,1.000
15.601,13.638,1.202,-0.300,-7.366,4.474,-1.705,-8.810,-0.107,0.893,-0.478,-1.312,0.244,0.580,60.000,51805.000,1.000
9.801,11.380,-2.960,-0.369,-6.013,3.148,-3.319,-9.758,-0.107,0.891,-0.480,-1.099,0.122,0.732,60.000,51806.000,1.000
2.189,7.622,-7.169,-0.604,-5.307,2.130,-4.385,-10.612,-0.107,0.892,-0.480,-1.038,0.000,0.824,60.000,51807.000,1.000
-6.414,3.031,-10.719,-0.253,-4.785,1.767,-3.858,-10.574,-0.110,0.893,-0.478,-0.854,-0.031,0.824,60.000,51808.000,1.000
-14.709,-1.686,-13.172,0.989,-4.131,1.734,-1.952,-9.137,-0.111,0.895,-0.479,-0.824,-0.092,0.916,60.000,51809.000,1.000
-21.167,-5.750,-14.295,3.078,-3.114,1.610,0.587,-6.235,-0.110,0.896,-0.479,-0.702,-0.183,0.916,60.000,51810.000,1.000
-24.928,-8.601,-14.266,5.482,-1.785,1.094,2.977,-2.579,-0.110,0.898,-0.478,-0.763,-0.275,1.068,60.000,51811.000,1.000
-25.607,-9.773,-13.485,7.505,-0.328,0.151,4.892,0.530,-0.110,0.899,-0.477,-0.732,-0.458,1.038,60.000,51812.000,1.000
-23.617,-9.295,-12.450,8.497,0.935,-1.131,6.046,1.860,-0.111,0.903,-0.476,-0.793,-0.549,0.946,60.000,51813.000,1.000
-19.819,-7.731,-11.325,8.250,1.812,-2.436,6.249,1.104,-0.109,0.904,-0.474,-0.854,-0.610,0.977,60.000,51814.000,1.000
-15.128,-5.923,-9.901,7.020,2.226,-3.375,5.633,-1.063,-0.107,0.904,-0.472,-1.007,-0.610,1.038,60.000,51815.000,1.000
-10.574,-4.656,-8.056,5.148,1.903,-3.929,4.295,-3.575,-0.105,0.904,-0.473,-1.221,-0.732,0.946,60.000,51816.000,1.000
-6.397,-3.880,-5.715,3.150,0.749,-4.250,2.448,-5.285,-0.105,0.905,-0.474,-1.221,-0.671,0.946,60.000,51817.000,1.000
-2.440,-3.132,-2.952,1.456,-1.078,-4.547,0.039,-5.465,-0.105,0.904,-0.473,-1.404,-0.793,0.916,60.000,51818.000,1.000
1.658,-1.946,0.206,0.446,-2.996,-4.790,-2.955,-4.171,-0.102,0.906,-0.479,-1.526,-0.732,0.916,60.000,51819.000,1.000
6.184,-0.105,3.775,0.358,-4.227,-4.760,-6.065,-2.408,-0.099,0.907,-0.476,-1.556,-0.732,0.946,60.000,51820.000,1.000
10.618,2.070,7.475,0.930,-4.451,-4.454,-8.638,-1.538,-0.098,0.905,-0.474,-1.617,-0.702,1.068,60.000,51821.000,1.000
14.550,4.507,10.942,1.843,-3.583,-3.775,-9.811,-1.973,-0.098,0.904,-0.476,-1.740,-0.671,0.946,60.000,51822.000,1.000
17.730,7.415,13.660,2.832,-1.785,-2.556,-9.225,-3.055,-0.098,0.903,-0.476,-1.678,-0.488,0.885,60.000,51823.000,1.000
19.868,10.753,15.080,3.620,0.351,-0.959,-7.434,-3.854,-0.097,0.901,-0.474,-1.801,-0.275,0.824,60.000,51824.000,1.000
20.392,13.756,14.796,3.834,1.743,0.268,-5.761,-3.843,-0.097,0.901,-0.474,-1.831,-0.183,0.793,60.000,51825.000,1.000
18.121,14.791,12.634,3.054,1.123,0.193,-5.776,-3.064,-0.100,0.899,-0.480,-1.770,-0.122,0.854,60.000,51826.000,1.000
12.529,12.495,9.045,1.412,-1.937,-1.284,-7.914,-1.850,-0.099,0.896,-0.479,-1.831,-0.061,0.824,60.000,51827.000,1.000
4.336,6.751,4.946,-0.373,-6.649,-3.319,-11.188,-0.736,-0.100,0.895,-0.481,-1.770,-0.061,0.824,60.000,51828.000,1.000
-4.171,-0.635,1.516,-1.162,-11.163,-4.517,-13.551,-0.034,-0.103,0.894,-0.481,-1.678,-0.122,0.793,60.000,51829.000,1.000
-10.144,-6.731,-0.345,-0.083,-13.474,-3.739,-13.158,0.472,-0.104,0.893,-0.483,-1.617,-0.092,0.793,60.000,51830.000,1.000
-12.341,-9.617,-0.655,2.614,-12.736,-0.936,-9.973,1.133,-0.105,0.894,-0.482,-1.434,-0.092,0.885,60.000,51831.000,1.000
-11.247,-9.150,-0.008,5.864,-9.486,3.019,-5.350,2.041,-0.106,0.894,-0.481,-1.404,-0.244,0.824,60.000,51832.000,1.000
-8.685,-6.782,0.770,8.333,-5.353,6.696,-1.001,2.855,-0.108,0.896,-0.481,-1.434,-0.336,0.732,60.000,51833.000,1.000
-6.581,-4.450,1.062,9.196,-2.042,8.858,2.093,3.286,-0.109,0.898,-0.478,-1.404,-0.397,0.702,60.000,51834.000,1.000
-5.969,-3.494,0.627,8.460,-0.477,9.080,3.866,3.331,-0.111,0.899,-0.476,-1.373,-0.458,0.732,60.000,51835.000,1.000
-7.154,-4.385,-0.527,6.606,-0.740,7.679,4.468,3.002,-0.111,0.901,-0.479,-1.404,-0.549,0.610,60.000,51836.000,1.000
-9.275,-6.445,-1.919,4.462,-2.018,5.544,4.395,2.302,-0.109,0.903,-0.474,-1.495,-0.671,0.610,60.000,51837.000,1.000
-11.101,-8.583,-3.001,2.601,-3.285,3.466,4.167,1.155,-0.108,0.903,-0.481,-1.617,-0.763,0.519,60.000,51838.000,1.000
-11.470,-9.758,-3.325,1.188,-3.782,1.910,4.235,-0.319,-0.107,0.906,-0.478,-1.801,-0.946,0.549,60.000,51839.000,1.000
-9.351,-9.023,-2.431,0.323,-3.018,1.131,4.945,-1.749,-0.105,0.904,-0.480,-1.862,-1.038,0.397,60.000,51840.000,1.000
-4.672,-6.187,-0.129,0.020,-1.030,1.055,5.978,-2.949,-0.102,0.905,-0.480,-2.075,-1.129,0.427,60.000,51841.000,1.000
1.796,-1.939,3.360,0.228,1.654,1.431,6.708,-3.956,-0.101,0.903,-0.479,-2.197,-1.068,0.519,60.000,51842.000,1.000
8.452,2.397,7.255,0.615,4.146,1.840,6.617,-4.927,-0.098,0.901,-0.477,-2.258,-1.068,0.488,60.000,51843.000,1.000
13.766,5.785,10.657,0.879,5.847,1.922,5.819,-5.833,-0.096,0.900,-0.478,-2.350,-0.824,0.366,60.000,51844.000,1.000
16.987,7.877,12.887,0.967,6.759,1.524,4.947,-6.359,-0.096,0.901,-0.477,-2.319,-0.793,0.305,60.000,51845.000,1.000
17.757,8.492,13.425,0.736,7.086,0.674,4.583,-6.277,-0.095,0.899,-0.478,-2.350,-0.793,0.275,60.000,51846.000,1.000
16.589,7.819,12.223,0.091,7.174,-0.296,5.199,-5.680,-0.095,0.897,-0.478,-2.258,-0.702,0.397,60.000,51847.000,1.000
14.297,6.267,9.550,-0.987,7.176,-1.227,6.226,-5.016,-0.099,0.898,-0.477,-2.167,-0.641,0.305,60.000,51848.000,1.000
11.479,4.218,5.957,-2.153,7.071,-2.168,6.328,-4.438,-0.102,0.896,-0.476,-2.136,-0.519,0.275,60.000,51849.000,1.000
8.387,1.857,2.284,-2.746,6.911,-3.053,5.007,-3.398,-0.107,0.896,-0.476,-2.075,-0.519,0.275,60.000,51850.000,1.000
4.927,-0.761,-0.606,-2.377,6.782,-3.686,3.146,-1.343,-0.111,0.894,-0.476,-2.075,-0.580,0.244,60.000,51851.000,1.000
1.765,-2.875,-1.945,-0.996,6.958,-3.659,2.423,1.455,-0.113,0.894,-0.476,-1.862,-0.763,0.122,60.000,51852.000,1.000
-0.265,-3.419,-1.600,0.984,7.483,-2.656,3.567,3.795,-0.116,0.897,-0.475,-1.862,-0.977,0.122,60.000,51853.000,1.000
-0.872,-1.869,-0.101,2.979,8.129,-0.527,5.977,4.630,-0.119,0.900,-0.471,-1.862,-1.160,0.122,60.000,51854.000,1.000
-0.468,1.232,1.660,4.488,8.614,2.577,8.557,3.885,-0.114,0.901,-0.471,-1.770,-1.404,0.092,60.000,51855.000,1.000
-0.230,4.241,2.667,5.097,8.607,5.891,10.307,2.435,-0.112,0.902,-0.472,-1.831,-1.434,0.061,60.000,51856.000,1.000
-0.696,5.826,2.476,4.937,8.189,8.598,11.166,1.864,-0.108,0.903,-0.473,-1.892,-1.587,-0.031,60.000,51857.000,1.000
-1.700,5.653,1.209,4.362,7.694,10.237,11.547,3.315,-0.106,0.906,-0.474,-1.953,-1.526,-0.061,60.000,51858.000,1.000
-3.028,4.045,-0.767,3.358,7.120,10.607,11.496,6.304,-0.104,0.906,-0.473,-2.014,-1.556,-0.061,60.000,51859.000,1.000
-4.875,1.271,-3.198,1.330,5.691,9.235,10.233,8.724,-0.104,0.905,-0.475,-1.953,-1.495,-0.031,60.000,51860.000,1.000
-7.765,-2.685,-6.066,-2.422,2.198,5.304,6.472,8.352,-0.102,0.906,-0.475,-2.167,-1.495,0.092,60.000,51861.000,1.000
-11.295,-7.304,-8.996,-7.552,-3.546,-1.156,0.106,4.740,-0.100,0.908,-0.471,-2.228,-1.343,0.092,60.000,51862.000,1.000
-14.488,-11.647,-11.153,-12.639,-10.211,-8.749,-7.335,-0.559,-0.098,0.906,-0.474,-2.228,-1.373,0.061,60.000,51863.000,1.000
-16.092,-14.619,-11.427,-15.874,-15.510,-15.271,-13.433,-5.090,-0.098,0.904,-0.473,-2.228,-1.221,0.092,60.000,51864.000,1.000
-14.815,-15.253,-9.150,-16.181,-17.566,-19.032,-16.461,-7.092,-0.100,0.901,-0.475,-2.228,-1.099,0.214,60.000,51865.000,1.000
-10.503,-13.473,-4.990,-14.115,-16.214,-19.881,-16.652,-6.529,-0.102,0.898,-0.474,-2.106,-1.007,0.214,60.000,51866.000,1.000
-4.132,-9.993,-0.497,-11.154,-12.655,-18.721,-15.238,-4.505,-0.102,0.896,-0.476,-2.045,-0.977,0.275,60.000,51867.000,1.000
2.219,-6.085,2.791,-8.688,-8.581,-16.856,-13.429,-2.284,-0.102,0.898,-0.479,-1.892,-0.824,0.244,60.000,51868.000,1.000
6.646,-2.730,4.325,-7.160,-5.142,-15.224,-11.717,-0.513,-0.103,0.900,-0.476,-1.740,-0.854,0.366,60.000,51869.000,1.000
8.736,-0.023,4.768,-5.945,-2.438,-13.888,-9.856,0.854,-0.104,0.899,-0.474,-1.678,-0.793,0.458,60.000,51870.000,1.000
8.894,2.097,5.080,-4.228,-0.148,-12.462,-7.751,2.042,-0.106,0.901,-0.474,-1.617,-0.793,0.610,60.000,51871.000,1.000
7.687,3.408,5.664,-1.777,1.818,-10.748,-5.617,3.128,-0.109,0.901,-0.472,-1.526,-0.763,0.793,60.000,51872.000,1.000
4.946,3.223,5.890,0.562,2.928,-9.177,-3.996,3.884,-0.111,0.901,-0.469,-1.434,-0.702,0.732,60.000,51873.000,1.000
0.379,1.098,4.868,1.706,2.720,-8.174,-3.006,4.117,-0.111,0.900,-0.473,-1.465,-0.763,0.732,60.000,51874.000,1.000
-5.483,-2.606,2.293,1.280,1.388,-7.662,-2.073,3.796,-0.111,0.905,-0.470,-1.404,-0.946,0.671,60.000,51875.000,1.000
-11.545,-6.992,-1.459,-0.349,-0.541,-7.329,-0.816,2.944,-0.107,0.906,-0.470,-1.373,-0.793,0.702,60.000,51876.000,1.000
-16.113,-10.658,-5.280,-2.051,-2.261,-6.614,0.907,1.963,-0.104,0.906,-0.470,-1.526,-0.793,0.793,60.000,51877.000,1.000
-18.414,-12.883,-8.206,-2.828,-3.308,-5.236,2.709,1.362,-0.099,0.905,-0.466,-1.556,-0.793,0.854,60.000,51878.000,1.000
-19.074,-14.112,-9.952,-2.524,-3.798,-3.469,3.996,1.447,-0.098,0.903,-0.470,-1.373,-0.580,0.824,60.000,51879.000,1.000
-18.707,-14.720,-10.531,-1.513,-3.830,-1.685,4.746,2.230,-0.098,0.902,-0.471,-1.465,-0.366,0.885,60.000,51880.000,1.000
-17.345,-14.320,-9.871,-0.158,-3.166,-0.042,5.432,3.275,-0.100,0.898,-0.470,-1.343,-0.244,0.885,60.000,51881.000,1.000
-14.703,-12.337,-7.717,1.490,-1.462,1.541,6.719,3.964,-0.101,0.897,-0.471,-1.251,-0.244,0.824,60.000,51882.000,1.000
-11.679,-9.499,-4.277,3.036,0.756,2.819,8.282,3.670,-0.104,0.897,-0.476,-1.129,-0.183,0.854,60.000,51883.000,1.000
-9.879,-7.368,-0.324,3.752,2.280,3.294,8.968,2.134,-0.102,0.894,-0.476,-1.221,-0.183,0.763,60.000,51884.000,1.000
-9.873,-6.681,3.268,3.303,2.475,2.812,8.370,-0.179,-0.103,0.895,-0.475,-1.129,-0.122,0.763,60.000,51885.000,1.000
-11.060,-7.091,5.778,1.951,1.741,1.711,7.159,-2.338,-0.103,0.895,-0.473,-1.099,-0.092,0.793,60.000,51886.000,1.000
-11.815,-7.433,6.991,0.540,1.258,0.683,6.206,-3.409,-0.104,0.899,-0.471,-0.946,-0.122,0.702,60.000,51887.000,1.000
-10.941,-6.733,6.983,-0.180,1.833,0.121,5.314,-2.970,-0.106,0.904,-0.473,-0.946,0.000,0.641,60.000,51888.000,1.000
-8.538,-4.921,5.912,0.003,3.235,-0.015,3.766,-1.211,-0.108,0.903,-0.472,-0.916,-0.061,0.610,60.000,51889.000,1.000
-5.639,-2.799,3.859,0.681,4.349,-0.004,1.318,1.038,-0.111,0.906,-0.471,-0.885,-0.244,0.641,60.000,51890.000,1.000
-3.587,-1.485,0.821,1.067,3.888,-0.237,-1.760,2.663,-0.116,0.903,-0.474,-0.916,-0.488,0.610,60.000,51891.000,1.000
-2.574,-1.168,-2.675,0.878,1.757,-0.620,-4.253,3.320,-0.118,0.904,-0.475,-0.946,-0.763,0.427,60.000,51892.000,1.000
-1.938,-1.232,-5.826,0.214,-1.001,-0.780,-4.851,3.371,-0.117,0.906,-0.480,-0.946,-0.854,0.275,60.000,51893.000,1.000
-0.890,-1.019,-8.092,-0.947,-3.252,-0.576,-3.317,3.074,-0.118,0.907,-0.477,-0.885,-1.038,0.305,60.000,51894.000,1.000
0.949,-0.447,-9.352,-2.756,-4.574,-0.188,-0.657,2.361,-0.114,0.906,-0.475,-0.854,-1.251,0.183,60.000,51895.000,1.000
2.874,-0.273,-9.769,-5.228,-5.356,0.114,1.362,1.254,-0.114,0.904,-0.479,-0.610,-1.373,0.214,60.000,51896.000,1.000
4.153,-0.953,-9.341,-7.753,-5.887,0.448,1.578,0.292,-0.113,0.903,-0.477,-0.641,-1.465,0.275,60.000,51897.000,1.000
4.471,-2.044,-8.157,-9.484,-6.048,1.113,-0.122,0.052,-0.110,0.902,-0.475,-0.549,-1.556,0.214,60.000,51898.000,1.000
4.104,-2.511,-6.482,-9.770,-5.372,2.401,-2.716,0.753,-0.110,0.901,-0.475,-0.519,-1.617,0.244,60.000,51899.000,1.000
3.759,-1.476,-4.547,-8.360,-3.282,4.526,-4.471,2.272,-0.108,0.902,-0.472,-0.549,-1.709,0.427,60.000,51900.000,1.000
3.796,1.181,-2.480,-5.557,0.386,7.438,-4.110,4.258,-0.107,0.903,-0.473,-0.427,-1.831,0.488,60.000,51901.000,1.000
4.469,5.205,-0.228,-1.971,5.210,10.912,-1.279,6.301,-0.106,0.904,-0.471,-0.397,-1.801,0.610,60.000,51902.000,1.000
5.104,9.436,1.652,1.144,9.646,14.091,2.758,7.545,-0.103,0.905,-0.473,-0.458,-1.740,0.702,60.000,51903.000,1.000
4.216,11.835,1.880,2.226,11.502,15.568,5.676,6.940,-0.101,0.903,-0.473,-0.458,-1.709,0.824,60.000,51904.000,1.000
1.134,11.086,-0.399,0.613,9.609,14.456,5.911,4.220,-0.100,0.903,-0.473,-0.549,-1.587,0.946,60.000,51905.000,1.000
-3.437,7.640,-4.782,-2.974,4.695,11.113,3.479,0.218,-0.098,0.901,-0.472,-0.610,-1.526,1.160,60.000,51906.000,1.000
-7.578,3.469,-9.709,-6.770,-0.984,6.993,-0.103,-3.590,-0.098,0.900,-0.473,-0.641,-1.373,1.160,60.000,51907.000,1.000
-9.719,0.432,-13.613,-9.153,-5.209,3.493,-3.140,-5.954,-0.098,0.901,-0.473,-0.641,-1.129,1.190,60.000,51908.000,1.000
-9.342,-0.584,-15.553,-9.290,-6.840,1.313,-4.652,-6.195,-0.096,0.902,-0.469,-0.671,-1.038,1.221,60.000,51909.000,1.000
-7.145,0.121,-15.464,-7.392,-6.132,0.281,-4.791,-4.441,-0.096,0.902,-0.476,-0.610,-0.854,1.251,60.000,51910.000,1.000
-5.337,1.007,-14.343,-4.826,-4.619,-0.603,-4.870,-1.889,-0.096,0.903,-0.475,-0.671,-0.702,1.190,60.000,51911.000,1.000
-5.641,0.813,-13.292,-3.067,-3.748,-2.135,-5.729,-0.133,-0.095,0.900,-0.471,-0.610,-0.488,1.129,60.000,51912.000,1.000
-7.894,-0.373,-12.622,-2.734,-3.827,-4.261,-7.048,-0.143,-0.096,0.899,-0.473,-0.580,-0.244,0.977,60.000,51913.000,1.000
-10.104,-1.245,-11.589,-3.160,-3.856,-6.104,-7.821,-1.552,-0.097,0.897,-0.475,-0.580,-0.122,0.885,60.000,51914.000,1.000
-10.129,-0.440,-9.148,-3.006,-2.472,-6.547,-7.224,-3.038,-0.100,0.897,-0.474,-0.671,-0.031,0.732,60.000,51915.000,1.000
-8.047,1.939,-5.280,-1.681,0.517,-5.219,-5.562,-3.525,-0.102,0.895,-0.472,-0.641,0.153,0.580,60.000,51916.000,1.000
-5.526,4.599,-1.062,0.394,3.956,-2.745,-3.721,-2.782,-0.103,0.893,-0.476,-0.549,0.153,0.458,60.000,51917.000,1.000
-4.018,6.189,2.214,2.422,6.259,-0.287,-2.414,-1.248,-0.104,0.892,-0.475,-0.488,0.366,0.305,60.000,51918.000,1.000
-3.085,6.589,4.285,4.272,6.843,1.589,-1.363,0.718,-0.103,0.891,-0.471,-0.397,0.305,0.153,60.000,51919.000,1.000
-1.084,6.690,5.812,6.322,6.337,3.175,0.382,2.900,-0.104,0.893,-0.472,-0.336,0.275,0.000,60.000,51920.000,1.000
2.125,6.633,7.013,8.193,5.255,4.511,2.778,4.621,-0.104,0.894,-0.472,-0.305,0.244,-0.031,60.000,51921.000,1.000
5.343,5.722,7.575,8.922,3.669,5.092,4.739,5.005,-0.107,0.896,-0.472,-0.305,0.244,-0.244,60.000,51922.000,1.000
7.505,3.407,7.324,7.928,1.632,4.421,5.103,3.652,-0.109,0.897,-0.469,-0.397,0.122,-0.244,60.000,51923.000,1.000
9.056,0.438,6.788,5.861,-0.179,2.892,3.995,1.172,-0.110,0.899,-0.472,-0.427,0.122,-0.244,60.000,51924.000,1.000
11.653,-1.180,6.905,4.279,-0.570,1.759,3.000,-1.063,-0.109,0.902,-0.470,-0.519,0.122,-0.336,60.000,51925.000,1.000
15.864,-0.138,7.990,4.127,0.905,1.869,3.351,-1.979,-0.110,0.903,-0.468,-0.641,0.031,-0.305,60.000,51926.000,1.000
20.579,2.941,9.545,5.012,3.329,3.003,4.986,-1.419,-0.110,0.904,-0.470,-0.671,-0.092,-0.366,60.000,51927.000,1.000
23.494,5.678,10.566,5.402,4.737,4.040,6.644,-0.260,-0.109,0.908,-0.472,-0.732,-0.153,-0.366,60.000,51928.000,1.000
22.916,5.834,10.421,3.981,3.557,3.994,7.047,0.253,-0.107,0.910,-0.471,-0.824,-0.275,-0.275,60.000,51929.000,1.000
19.466,3.306,9.551,0.996,0.020,3.001,6.014,-0.472,-0.107,0.911,-0.468,-0.946,-0.336,-0.275,60.000,51930.000,1.000
15.414,-0.062,8.995,-1.981,-4.117,1.975,4.076,-2.038,-0.107,0.913,-0.470,-1.129,-0.336,-0.214,60.000,51931.000,1.000
13.307,-1.943,9.463,-3.270,-6.859,1.600,1.877,-3.611,-0.105,0.912,-0.471,-1.282,-0.427,-0.153,60.000,51932.000,1.000
13.926,-1.435,10.646,-2.423,-7.342,1.587,-0.423,-4.841,-0.104,0.911,-0.471,-1.404,-0.397,0.061,60.000,51933.000,1.000
16.162,0.742,11.822,-0.133,-5.811,1.317,-2.678,-5.701,-0.106,0.911,-0.473,-1.404,-0.397,0.183,60.000,51934.000,1.000
18.484,3.385,12.617,2.582,-2.950,0.667,-4.270,-5.985,-0.106,0.909,-0.474,-1.526,-0.305,0.305,60.000,51935.000,1.000
19.477,5.328,12.880,4.724,0.271,-0.127,-4.735,-5.454,-0.107,0.908,-0.472,-1.648,-0.214,0.244,60.000,51936.000,1.000
18.542,5.943,12.668,5.796,3.103,-0.671,-3.857,-3.988,-0.106,0.907,-0.475,-1.678,-0.275,0.183,60.000,51937.000,1.000
15.756,5.304,12.050,5.816,5.234,-0.776,-2.023,-1.786,-0.108,0.905,-0.474,-1.648,-0.366,0.244,60.000,51938.000,1.000
11.892,4.313,11.060,5.143,6.720,-0.557,-0.161,0.628,-0.109,0.905,-0.475,-1.617,-0.397,0.244,60.000,51939.000,1.000
8.051,4.029,9.659,4.122,7.544,-0.420,0.853,2.420,-0.108,0.906,-0.477,-1.526,-0.427,0.244,60.000,51940.000,1.000
4.450,4.401,7.705,2.841,7.295,-0.846,0.693,2.721,-0.108,0.903,-0.473,-1.404,-0.336,0.244,60.000,51941.000,1.000
0.923,4.585,5.389,1.663,5.916,-1.704,0.131,1.428,-0.107,0.898,-0.472,-1.343,-0.458,0.397,60.000,51942.000,1.000
-2.963,3.533,2.891,0.961,3.749,-2.615,-0.183,-0.943,-0.106,0.896,-0.472,-1.343,-0.458,0.366,60.000,51943.000,1.000
-7.550,0.692,0.177,0.774,1.196,-3.489,-0.549,-3.800,-0.106,0.894,-0.473,-1.251,-0.458,0.305,60.000,51944.000,1.000
-12.395,-3.399,-2.535,1.051,-1.222,-4.309,-1.341,-6.531,-0.106,0.893,-0.477,-1.068,-0.488,0.336,60.000,51945.000,1.000
-16.641,-7.524,-4.654,1.801,-2.965,-4.922,-2.412,-8.467,-0.105,0.893,-0.478,-0.824,-0.519,0.336,60.000,51946.000,1.000
-19.205,-10.293,-5.540,3.146,-3.572,-5.032,-3.120,-8.977,-0.102,0.897,-0.473,-0.671,-0.488,0.366,60.000,51947.000,1.000
-19.995,-11.249,-5.355,4.726,-3.243,-4.710,-3.317,-8.006,-0.099,0.899,-0.475,-0.610,-0.366,0.336,60.000,51948.000,1.000
-20.025,-11.201,-4.961,5.730,-2.758,-4.388,-3.413,-6.161,-0.099,0.900,-0.473,-0.580,-0.275,0.458,60.000,51949.000,1.000
-20.181,-11.370,-5.065,5.576,-2.751,-4.468,-3.718,-4.247,-0.099,0.901,-0.474,-0.519,-0.305,0.519,60.000,51950.000,1.000
-20.669,-12.519,-5.765,4.252,-3.392,-5.160,-4.392,-2.764,-0.105,0.902,-0.469,-0.458,-0.244,0.488,60.000,51951.000,1.000
-20.494,-14.087,-6.323,2.484,-4.186,-6.111,-5.008,-1.570,-0.111,0.903,-0.469,-0.488,-0.122,0.366,60.000,51952.000,1.000
-18.565,-14.760,-5.872,1.056,-4.532,-6.697,-4.956,-0.391,-0.115,0.906,-0.472,-0.641,-0.305,0.244,60.000,51953.000,1.000
-14.537,-13.453,-4.137,0.285,-4.164,-6.534,-3.985,0.722,-0.117,0.906,-0.470,-0.702,-0.397,0.031,60.000,51954.000,1.000
-8.833,-10.018,-1.661,-0.086,-3.296,-5.787,-2.409,1.337,-0.116,0.903,-0.468,-0.732,-0.549,-0.061,60.000,51955.000,1.000
-2.886,-5.674,0.352,-0.814,-2.704,-5.130,-1.208,0.847,-0.111,0.905,-0.469,-0.732,-0.702,-0.183,60.000,51956.000,1.000
2.051,-1.910,0.988,-2.324,-2.898,-4.897,-0.953,-0.757,-0.107,0.906,-0.468,-0.885,-0.702,-0.214,60.000,51957.000,1.000
5.315,0.391,0.081,-4.431,-3.734,-4.843,-1.367,-2.795,-0.103,0.908,-0.469,-0.885,-0.671,-0.336,60.000,51958.000,1.000
6.872,1.224,-1.773,-6.484,-4.586,-4.449,-1.609,-4.370,-0.101,0.906,-0.469,-1.007,-0.671,-0.305,60.000,51959.000,1.000
7.177,1.153,-3.613,-7.712,-4.740,-3.357,-1.040,-4.810,-0.099,0.907,-0.468,-1.099,-0.763,-0.427,60.000,51960.000,1.000
6.338,0.462,-4.887,-7.869,-4.020,-1.766,-0.128,-3.973,-0.098,0.906,-0.471,-1.160,-0.671,-0.397,60.000,51961.000,1.000
4.658,-0.504,-5.472,-7.154,-2.680,-0.112,0.296,-2.149,-0.100,0.902,-0.470,-1.251,-0.458,-0.427,60.000,51962.000,1.000
2.545,-1.178,-5.631,-6.077,-1.261,1.155,-0.300,-0.034,-0.099,0.898,-0.470,-1.282,-0.305,-0.427,60.000,51963.000,1.000
0.222,-1.148,-5.789,-5.151,-0.268,1.878,-1.762,1.625,-0.100,0.895,-0.472,-1.190,-0.183,-0.397,60.000,51964.000,1.000
-2.196,-0.519,-6.188,-4.589,0.148,2.450,-3.036,2.517,-0.103,0.891,-0.471,-1.160,-0.183,-0.336,60.000,51965.000,1.000
-4.645,0.236,-6.690,-4.258,0.180,3.524,-2.751,2.929,-0.103,0.891,-0.470,-0.916,-0.031,-0.305,60.000,51966.000,1.000
-6.125,1.374,-6.580,-3.529,0.510,5.637,0.174,3.612,-0.107,0.892,-0.469,-0.702,-0.031,-0.366,60.000,51967.000,1.000
-5.669,3.458,-5.386,-2.032,1.614,8.488,5.275,4.968,-0.110,0.891,-0.472,-0.488,-0.031,-0.244,60.000,51968.000,1.000
-3.450,6.395,-3.371,-0.089,3.263,11.021,10.578,6.649,-0.114,0.893,-0.472,-0.275,-0.275,-0.305,60.000,51969.000,1.000
-0.593,9.252,-1.298,1.594,4.689,12.180,13.946,7.694,-0.115,0.893,-0.475,-0.061,-0.427,-0.244,60.000,51970.000,1.000
1.030,10.340,-0.246,2.109,4.783,11.286,13.939,6.848,-0.114,0.893,-0.473,0.031,-0.549,-0.214,60.000,51971.000,1.000
0.392,8.629,-0.816,1.097,3.067,8.588,10.870,3.690,-0.114,0.894,-0.472,0.061,-0.580,-0.061,60.000,51972.000,1.000
-1.957,4.866,-2.622,-0.883,0.314,5.259,6.590,-0.700,-0.112,0.896,-0.473,0.122,-0.702,-0.061,60.000,51973.000,1.000
-4.378,1.210,-4.579,-2.718,-1.917,2.692,3.246,-4.368,-0.113,0.897,-0.474,0.183,-0.854,-0.031,60.000,51974.000,1.000
-5.423,-0.419,-5.814,-3.657,-2.575,1.520,1.956,-5.924,-0.113,0.899,-0.476,0.366,-0.916,0.031,60.000,51975.000,1.000
-5.066,0.135,-6.203,-3.819,-1.962,1.322,2.242,-5.387,-0.115,0.899,-0.475,0.427,-1.068,0.153,60.000,51976.000,1.000
-3.716,1.879,-5.732,-3.405,-0.858,1.603,3.277,-3.586,-0.113,0.903,-0.476,0.336,-1.251,0.183,60.000,51977.000,1.000
-1.828,3.574,-4.418,-2.476,0.174,2.168,4.348,-1.535,-0.111,0.907,-0.475,0.336,-1.312,0.336,60.000,51978.000,1.000
0.310,4.584,-2.557,-1.145,0.956,2.946,4.898,0.025,-0.113,0.910,-0.473,0.366,-1.495,0.366,60.000,51979.000,1.000
3.050,5.470,-0.622,0.453,1.722,3.841,4.931,0.896,-0.110,0.911,-0.472,0.336,-1.556,0.366,60.000,51980.000,1.000
6.735,7.305,0.997,2.109,2.784,4.629,4.890,1.362,-0.107,0.913,-0.471,0.031,-1.617,0.519,60.000,51981.000,1.000
11.556,10.850,2.450,3.767,4.470,5.297,5.531,2.072,-0.105,0.911,-0.468,-0.092,-1.617,0.519,60.000,51982.000,1.000
16.770,15.557,3.954,5.216,6.647,5.864,6.959,3.283,-0.103,0.908,-0.470,-0.244,-1.495,0.641,60.000,51983.000,1.000
20.842,19.799,5.417,6.101,8.663,6.245,8.417,4.600,-0.101,0.906,-0.474,-0.275,-1.373,0.641,60.000,51984.000,1.000
22.612,22.192,6.624,6.313,9.888,6.330,9.088,5.607,-0.101,0.903,-0.477,-0.214,-1.221,0.763,60.000,51985.000,1.000
21.510,22.157,7.302,5.901,9.932,5.851,8.373,6.235,-0.103,0.899,-0.476,-0.183,-1.160,0.824,60.000,51986.000,1.000
18.108,20.219,7.493,5.232,9.057,4.804,6.432,6.814,-0.103,0.895,-0.471,-0.244,-1.068,0.824,60.000,51987.000,1.000
13.522,17.325,7.510,4.809,7.969,3.614,3.883,7.766,-0.104,0.895,-0.477,-0.031,-1.099,0.732,60.000,51988.000,1.000
8.745,14.131,7.700,4.969,7.283,2.867,1.373,9.344,-0.105,0.896,-0.480,0.122,-1.068,0.885,60.000,51989.000,1.000
4.384,10.913,8.167,5.600,7.106,2.843,-0.551,11.380,-0.107,0.895,-0.477,0.153,-1.007,0.763,60.000,51990.000,1.000
0.263,7.697,8.575,6.094,7.020,3.267,-1.715,13.225,-0.108,0.897,-0.479,0.214,-0.916,0.824,60.000,51991.000,1.000
-3.424,5.039,8.623,6.102,6.866,3.735,-2.002,14.259,-0.108,0.898,-0.480,0.183,-0.916,0.732,60.000,51992.000,1.000
-6.206,3.437,8.014,5.545,6.616,3.679,-1.832,14.034,-0.109,0.901,-0.478,0.183,-0.885,0.610,60.000,51993.000,1.000
-7.881,2.506,6.564,4.498,6.036,2.599,-2.061,12.515,-0.110,0.902,-0.477,0.183,-0.946,0.702,60.000,51994.000,1.000
-8.212,1.615,4.675,3.498,5.109,0.751,-2.978,10.409,-0.110,0.903,-0.474,0.092,-0.977,0.580,60.000,51995.000,1.000
-7.147,0.622,3.121,3.276,4.130,-0.926,-4.177,8.699,-0.108,0.902,-0.472,0.000,-0.977,0.519,60.000,51996.000,1.000
-4.645,0.046,2.648,4.294,3.500,-1.415,-4.615,7.928,-0.108,0.903,-0.470,-0.153,-0.946,0.458,60.000,51997.000,1.000
-1.246,0.029,3.401,6.090,3.106,-0.591,-3.588,7.730,-0.105,0.904,-0.475,-0.275,-0.885,0.366,60.000,51998.000,1.000
2.174,0.035,4.972,7.523,2.405,0.606,-1.536,7.235,-0.105,0.905,-0.475,-0.427,-0.732,0.397,60.000,51999.000,1.000
5.193,-0.365,6.700,7.556,0.982,0.888,0.021,5.715,-0.104,0.905,-0.479,-0.549,-0.488,0.336,60.000,52000.000,1.000
7.381,-1.340,7.688,5.653,-1.321,-0.568,-0.814,2.923,-0.102,0.905,-0.479,-0.610,-0.366,0.336,60.000,52001.000,1.000
8.710,-2.584,7.453,2.258,-4.029,-3.264,-4.303,-0.583,-0.101,0.905,-0.479,-0.610,-0.305,0.336,60.000,52002.000,1.000
9.409,-3.669,6.199,-1.604,-6.317,-5.824,-8.654,-3.911,-0.100,0.905,-0.479,-0.610,-0.122,0.305,60.000,52003.000,1.000
9.691,-4.408,4.577,-4.967,-7.568,-7.133,-11.574,-6.410,-0.098,0.906,-0.475,-0.641,-0.031,0.183,60.000,52004.000,1.000
9.632,-4.906,3.176,-7.262,-7.594,-7.007,-11.997,-7.907,-0.100,0.906,-0.476,-0.702,0.092,0.153,60.000,52005.000,1.000
8.823,-5.493,2.161,-8.434,-6.626,-6.102,-10.699,-8.791,-0.101,0.905,-0.476,-0.732,0.244,0.122,60.000,52006.000,1.000
7.432,-5.889,1.799,-8.357,-4.715,-4.907,-8.673,-9.367,-0.102,0.901,-0.477,-0.854,0.366,0.061,60.000,52007.000,1.000
6.057,-5.489,2.393,-6.900,-1.866,-3.418,-6.112,-9.441,-0.103,0.898,-0.479,-0.885,0.427,0.000,60.000,52008.000,1.000
5.110,-4.120,3.898,-4.292,1.567,-1.481,-2.654,-8.497,-0.106,0.897,-0.479,-0.793,0.336,0.000,60.000,52009.000,1.000
4.811,-2.011,5.891,-1.148,4.922,0.832,1.828,-6.346,-0.107,0.896,-0.480,-0.732,0.458,0.000,60.000,52010.000,1.000
4.779,0.278,7.675,1.680,7.423,3.046,6.338,-3.612,-0.107,0.893,-0.479,-0.641,0.488,0.000,60.000,52011.000,1.000
4.582,2.264,8.716,3.663,8.709,4.651,9.350,-1.365,-0.109,0.891,-0.478,-0.366,0.427,-0.122,60.000,52012.000,1.000
3.653,3.334,8.512,4.474,8.597,5.094,9.431,-0.791,-0.111,0.890,-0.478,-0.214,0.488,-0.092,60.000,52013.000,1.000
1.585,2.896,6.691,4.001,6.942,4.079,6.157,-2.582,-0.111,0.890,-0.478,-0.153,0.275,-0.092,60.000,52014.000,1.000
-1.266,0.942,3.429,2.730,4.096,2.104,0.874,-6.228,-0.112,0.890,-0.482,-0.122,0.244,0.000,60.000,52015.000,1.000
-4.583,-2.314,-0.699,1.446,0.786,0.095,-4.267,-10.234,-0.112,0.890,-0.480,0.031,0.092,0.061,60.000,52016.000,1.000
-8.164,-6.557,-4.928,0.817,-2.215,-1.176,-7.456,-12.943,-0.111,0.894,-0.477,0.122,-0.061,0.153,60.000,52017.000,1.000
-11.923,-11.379,-8.725,0.847,-4.662,-1.613,-8.227,-13.581,-0.112,0.896,-0.479,0.122,-0.244,0.153,60.000,52018.000,1.000
-15.130,-15.696,-11.589,1.255,-6.502,-1.497,-7.093,-12.331,-0.112,0.898,-0.477,0.122,-0.305,0.153,60.000,52019.000,1.000
-16.133,-17.728,-12.864,2.058,-7.374,-0.988,-4.591,-9.826,-0.111,0.899,-0.476,0.061,-0.275,0.244,60.000,52020.000,1.000
-14.288,-16.763,-12.443,2.997,-7.324,-0.442,-1.565,-7.120,-0.111,0.901,-0.476,0.092,-0.336,0.305,60.000,52021.000,1.000
-10.342,-13.684,-10.802,3.488,-6.943,-0.304,1.061,-5.240,-0.111,0.902,-0.475,0.061,-0.519,0.336,60.000,52022.000,1.000
-5.655,-10.037,-8.623,3.081,-6.815,-0.809,2.671,-4.557,-0.111,0.901,-0.472,0.000,-0.641,0.397,60.000,52023.000,1.000
-1.153,-6.859,-6.434,1.834,-6.978,-1.787,3.257,-4.586,-0.110,0.903,-0.475,-0.153,-0.793,0.458,60.000,52024.000,1.000
3.019,-4.338,-4.551,0.119,-7.075,-2.823,3.271,-4.562,-0.109,0.903,-0.476,-0.366,-0.824,0.641,60.000,52025.000,1.000
6.516,-2.467,-3.368,-1.968,-7.100,-3.875,2.622,-4.299,-0.105,0.902,-0.476,-0.397,-0.824,0.702,60.000,52026.000,1.000
9.002,-1.156,-3.132,-4.360,-7.321,-5.325,0.699,-4.117,-0.104,0.900,-0.478,-0.397,-0.793,0.824,60.000,52027.000,1.000
10.148,-0.451,-3.827,-6.818,-7.945,-7.646,-3.145,-4.339,-0.103,0.899,-0.477,-0.610,-0.885,0.824,60.000,52028.000,1.000
9.908,-0.326,-4.957,-8.784,-8.709,-10.709,-8.647,-4.865,-0.105,0.898,-0.479,-0.580,-0.732,0.824,60.000,52029.000,1.000
8.656,-0.408,-5.697,-9.578,-8.914,-13.681,-14.228,-5.214,-0.105,0.899,-0.479,-0.580,-0.641,0.793,60.000,52030.000,1.000
6.247,-0.590,-5.696,-9.088,-8.154,-15.802,-18.141,-4.899,-0.105,0.898,-0.482,-0.610,-0.580,0.763,60.000,52031.000,1.000
2.642,-0.876,-5.143,-7.611,-6.382,-16.633,-19.226,-3.427,-0.105,0.900,-0.481,-0.610,-0.458,0.793,60.000,52032.000,1.000
-1.750,-1.266,-4.602,-5.607,-3.993,-16.143,-17.531,-0.589,-0.105,0.899,-0.483,-0.610,-0.488,0.824,60.000,52033.000,1.000
-6.070,-1.696,-4.564,-3.451,-1.618,-14.554,-14.072,3.305,-0.106,0.897,-0.479,-0.702,-0.488,0.732,60.000,52034.000,1.000
-9.180,-1.910,-5.055,-1.298,0.372,-12.074,-9.983,7.533,-0.106,0.897,-0.478,-0.641,-0.427,0.885,60.000,52035.000,1.000
-10.785,-1.938,-5.873,0.623,1.803,-9.022,-6.395,11.128,-0.106,0.897,-0.483,-0.702,-0.458,0.824,60.000,52036.000,1.000
-11.211,-2.066,-6.665,2.128,2.607,-5.752,-3.980,13.221,-0.109,0.898,-0.480,-0.732,-0.427,0.824,60.000,52037.000,1.000
-11.222,-2.847,-7.283,2.950,2.434,-2.855,-3.057,13.134,-0.110,0.903,-0.480,-0.824,-0.427,0.732,60.000,52038.000,1.000
-11.463,-4.578,-7.769,2.917,0.971,-0.934,-3.558,10.829,-0.108,0.901,-0.478,-0.824,-0.458,0.763,60.000,52039.000,1.000
-11.748,-6.668,-7.981,2.333,-1.301,-0.019,-4.664,7.303,-0.108,0.902,-0.480,-0.763,-0.549,0.702,60.000,52040.000,1.000
-11.766,-8.323,-7.719,1.595,-3.450,0.265,-5.321,3.965,-0.108,0.903,-0.479,-0.854,-0.488,0.702,60.000,52041.000,1.000
-11.041,-8.958,-6.799,1.001,-4.598,0.476,-4.556,1.879,-0.105,0.903,-0.479,-0.946,-0.580,0.610,60.000,52042.000,1.000
-9.277,-8.457,-5.274,0.632,-4.391,1.059,-2.062,1.325,-0.105,0.906,-0.479,-1.099,-0.610,0.671,60.000,52043.000,1.000
-6.589,-7.091,-3.392,0.507,-3.063,2.275,1.771,2.013,-0.102,0.905,-0.477,-1.282,-0.427,0.610,60.000,52044.000,1.000
-3.409,-5.346,-1.552,0.554,-1.309,4.007,6.038,3.293,-0.103,0.903,-0.479,-1.282,-0.427,0.641,60.000,52045.000,1.000
-0.809,-4.036,-0.460,0.258,-0.269,5.447,9.061,4.189,-0.105,0.905,-0.478,-1.465,-0.336,0.671,60.000,52046.000,1.000
0.633,-3.480,-0.479,-0.729,-0.622,5.821,9.653,4.069,-0.106,0.901,-0.477,-1.617,-0.244,0.732,60.000,52047.000,1.000
0.946,-3.438,-1.366,-2.259,-2.186,4.989,8.048,2.995,-0.107,0.899,-0.481,-1.587,-0.092,0.732,60.000,52048.000,1.000
0.439,-3.552,-2.409,-3.824,-4.175,3.524,5.583,1.518,-0.105,0.898,-0.477,-1.587,-0.183,0.732,60.000,52049.000,1.000
-0.111,-3.406,-2.767,-4.895,-5.675,2.369,3.704,0.118,-0.106,0.899,-0.478,-1.587,-0.122,0.671,60.000,52050.000,1.000
-0.150,-2.904,-2.163,-5.517,-6.376,1.991,2.780,-1.312,-0.105,0.898,-0.478,-1.587,-0.092,0.732,60.000,52051.000,1.000
0.744,-2.003,-0.860,-6.000,-6.344,2.316,2.570,-3.021,-0.108,0.899,-0.473,-1.617,-0.092,0.732,60.000,52052.000,1.000
2.453,-0.702,0.550,-6.574,-5.698,2.975,2.827,-4.893,-0.108,0.902,-0.474,-1.617,-0.092,0.824,60.000,52053.000,1.000
4.277,0.960,1.551,-7.043,-4.449,3.725,3.706,-6.307,-0.109,0.901,-0.473,-1.678,-0.061,0.824,60.000,52054.000,1.000
5.652,3.009,1.978,-6.697,-2.472,4.681,5.807,-6.408,-0.108,0.902,-0.473,-1.709,-0.061,0.732,60.000,52055.000,1.000
6.051,5.095,1.783,-5.045,0.036,5.966,9.231,-4.664,-0.108,0.902,-0.476,-1.740,-0.061,0.671,60.000,52056.000,1.000
5.599,6.896,1.253,-2.119,2.648,7.615,13.475,-0.996,-0.108,0.901,-0.475,-1.770,-0.092,0.702,60.000,52057.000,1.000
4.548,8.146,0.788,1.352,4.686,9.266,17.318,3.786,-0.109,0.900,-0.477,-1.770,-0.122,0.641,60.000,52058.000,1.000
2.547,8.301,0.437,4.180,5.346,10.113,19.121,7.810,-0.107,0.898,-0.475,-1.862,-0.122,0.610,60.000,52059.000,1.000
-0.962,6.665,-0.252,5.237,4.051,9.339,17.875,9.011,-0.106,0.899,-0.479,-1.801,-0.061,0.763,60.000,52060.000,1.000
-6.580,2.503,-2.190,3.626,0.366,6.293,13.531,6.210,-0.105,0.899,-0.479,-1.709,-0.122,0.824,60.000,52061.000,1.000
-13.980,-4.165,-5.905,-0.608,-5.483,0.975,7.215,-0.086,-0.104,0.899,-0.478,-1.678,0.031,0.732,60.000,52062.000,1.000
-21.943,-12.242,-10.963,-6.165,-12.215,-5.747,0.504,-7.835,-0.105,0.897,-0.479,-1.648,0.000,0.824,60.000,52063.000,1.000
-28.736,-19.657,-15.878,-10.948,-17.749,-12.288,-5.332,-14.184,-0.104,0.898,-0.480,-1.587,0.153,0.732,60.000,52064.000,1.000
-32.141,-23.780,-18.525,-12.948,-19.948,-16.857,-9.275,-16.682,-0.106,0.896,-0.478,-1.465,0.183,0.671,60.000,52065.000,1.000
-30.557,-22.780,-17.291,-11.306,-17.736,-18.347,-10.809,-14.794,-0.106,0.897,-0.478,-1.495,0.153,0.824,60.000,52066.000,1.000
-23.726,-16.536,-11.912,-6.541,-11.558,-16.689,-10.008,-10.131,-0.105,0.896,-0.480,-1.465,0.122,0.793,60.000,52067.000,1.000
-13.696,-7.151,-3.963,-0.515,-3.482,-12.965,-7.939,-5.311,-0.106,0.898,-0.481,-1.312,0.183,0.885,60.000,52068.000,1.000
-3.996,1.995,3.915,4.483,3.722,-8.798,-6.054,-2.230,-0.107,0.897,-0.478,-1.251,0.214,0.763,60.000,52069.000,1.000
3.001,8.387,9.675,7.190,8.264,-5.318,-4.769,-1.055,-0.107,0.899,-0.478,-1.190,0.275,0.702,60.000,52070.000,1.000
6.939,11.343,12.610,7.685,9.898,-2.907,-3.524,-0.731,-0.108,0.899,-0.475,-1.068,0.214,0.610,60.000,52071.000,1.000
9.150,11.881,13.206,6.918,9.579,-1.364,-1.523,-0.055,-0.109,0.898,-0.475,-1.068,0.122,0.427,60.000,52072.000,1.000
10.786,11.416,12.205,5.667,8.349,-0.491,1.164,1.334,-0.108,0.901,-0.472,-1.038,0.092,0.366,60.000,52073.000,1.000
11.919,10.844,10.226,4.181,6.808,-0.256,3.559,3.000,-0.105,0.904,-0.472,-1.129,0.092,0.214,60.000,52074.000,1.000
12.492,10.606,8.035,2.663,5.417,-0.494,4.784,4.512,-0.100,0.905,-0.477,-1.099,0.183,0.275,60.000,52075.000,1.000
12.777,10.765,6.405,1.486,4.622,-0.807,4.654,5.927,-0.099,0.904,-0.478,-1.160,0.244,0.275,60.000,52076.000,1.000
13.790,11.649,6.024,1.354,5.090,-0.369,4.330,7.828,-0.099,0.900,-0.471,-1.190,0.366,0.336,60.000,52077.000,1.000
15.770,13.283,6.851,2.454,6.955,1.380,5.079,10.346,-0.098,0.895,-0.473,-1.251,0.458,0.336,60.000,52078.000,1.000
16.996,14.500,7.891,3.875,9.089,3.957,6.551,12.449,-0.100,0.894,-0.474,-1.160,0.549,0.305,60.000,52079.000,1.000
15.520,13.981,8.151,4.581,10.070,6.420,7.259,12.875,-0.103,0.895,-0.477,-1.129,0.671,0.397,60.000,52080.000,1.000
11.128,11.706,7.368,4.370,9.439,8.195,6.025,11.454,-0.106,0.895,-0.476,-1.007,0.732,0.366,60.000,52081.000,1.000
5.744,8.993,5.917,3.761,7.780,9.191,3.035,9.203,-0.107,0.896,-0.478,-0.916,0.671,0.427,60.000,52082.000,1.000
1.028,6.605,3.982,2.931,5.622,9.224,-0.592,7.085,-0.107,0.898,-0.480,-0.793,0.702,0.427,60.000,52083.000,1.000
-2.874,4.147,1.614,1.752,3.336,8.290,-3.164,5.369,-0.107,0.902,-0.478,-0.824,0.671,0.488,60.000,52084.000,1.000
-6.051,1.362,-0.720,0.577,1.630,6.952,-3.096,3.823,-0.108,0.903,-0.476,-0.824,0.671,0.427,60.000,52085.000,1.000
-8.227,-1.352,-2.350,0.035,0.990,5.685,-0.627,2.007,-0.109,0.905,-0.475,-0.854,0.580,0.549,60.000,52086.000,1.000
-8.384,-2.962,-2.541,0.738,1.467,4.723,2.608,-0.083,-0.106,0.907,-0.475,-1.068,0.458,0.580,60.000,52087.000,1.000
-5.788,-2.611,-0.959,2.775,2.748,4.196,5.013,-1.910,-0.109,0.906,-0.474,-1.160,0.458,0.549,60.000,52088.000,1.000
-0.914,-0.335,1.988,5.419,4.257,4.116,5.890,-2.813,-0.112,0.903,-0.477,-1.221,0.366,0.580,60.000,52089.000,1.000
4.944,2.994,5.326,7.423,5.367,4.341,5.602,-2.512,-0.114,0.901,-0.479,-1.160,0.214,0.519,60.000,52090.000,1.000
10.091,5.974,7.932,7.616,5.549,4.609,4.872,-1.344,-0.119,0.898,-0.480,-1.068,-0.092,0.397,60.000,52091.000,1.000
13.672,7.776,9.344,5.895,4.994,4.940,4.536,0.151,-0.118,0.897,-0.483,-0.977,-0.305,0.244,60.000,52092.000,1.000
15.436,8.253,9.734,3.084,4.421,5.437,4.807,1.435,-0.120,0.897,-0.479,-0.946,-0.519,0.122,60.000,52093.000,1.000
15.267,7.620,9.517,0.277,4.518,6.076,5.164,2.258,-0.120,0.896,-0.479,-0.763,-0.763,0.061,60.000,52094.000,1.000
13.645,6.550,9.126,-1.571,5.761,6.898,5.417,2.926,-0.121,0.896,-0.478,-0.824,-1.007,0.061,60.000,52095.000,1.000
11.142,5.673,8.617,-2.203,8.074,7.958,6.052,3.776,-0.122,0.895,-0.477,-0.763,-1.221,0.092,60.000,52096.000,1.000
8.507,5.496,7.896,-1.949,10.970,9.400,7.978,4.669,-0.119,0.896,-0.476,-0.671,-1.434,0.092,60.000,52097.000,1.000
6.302,6.243,6.752,-1.474,13.586,11.067,11.124,4.946,-0.116,0.898,-0.473,-0.732,-1.556,0.092,60.000,52098.000,1.000
4.693,7.750,4.910,-1.325,14.909,12.296,13.791,4.105,-0.113,0.901,-0.471,-0.885,-1.770,0.183,60.000,52099.000,1.000
3.763,9.578,2.284,-1.571,14.292,12.365,13.892,2.325,-0.110,0.901,-0.475,-1.007,-1.831,0.397,60.000,52100.000,1.000
2.980,10.695,-1.079,-2.222,11.430,10.859,10.262,0.111,-0.109,0.903,-0.477,-1.160,-1.923,0.519,60.000,52101.000,1.000
1.724,9.966,-4.816,-3.300,6.523,7.979,3.592,-1.999,-0.105,0.901,-0.477,-1.221,-1.892,0.549,60.000,52102.000,1.000
-0.274,6.842,-8.390,-4.807,0.318,4.304,-4.201,-3.686,-0.102,0.901,-0.476,-1.312,-1.862,0.977,60.000,52103.000,1.000
-2.505,2.057,-11.189,-6.502,-5.868,0.598,-10.906,-4.841,-0.102,0.902,-0.477,-1.282,-1.862,1.068,60.000,52104.000,1.000
-3.716,-2.510,-12.655,-7.873,-10.506,-2.326,-14.570,-5.440,-0.102,0.904,-0.479,-1.282,-1.770,1.221,60.000,52105.000,1.000
-3.327,-5.309,-12.625,-8.514,-12.761,-4.015,-14.469,-5.522,-0.102,0.904,-0.475,-1.190,-1.678,1.434,60.000,52106.000,1.000
-1.243,-5.501,-11.027,-7.899,-12.441,-4.234,-11.059,-4.872,-0.102,0.905,-0.473,-1.282,-1.617,1.434,60.000,52107.000,1.000
2.215,-3.062,-8.075,-5.795,-10.045,-3.196,-5.959,-3.351,-0.101,0.906,-0.476,-1.495,-1.465,1.495,60.000,52108.000,1.000
6.084,1.041,-4.552,-2.810,-6.815,-1.696,-1.485,-1.315,-0.100,0.906,-0.477,-1.526,-1.343,1.587,60.000,52109.000,1.000
9.141,5.258,-1.455,0.010,-4.093,-0.544,0.709,0.625,-0.099,0.903,-0.477,-1.617,-1.160,1.556,60.000,52110.000,1.000
10.021,8.030,0.477,1.840,-2.691,-0.133,0.135,1.970,-0.099,0.902,-0.473,-1.526,-1.038,1.587,60.000,52111.000,1.000
8.507,8.941,1.363,2.800,-2.283,-0.159,-2.342,2.782,-0.097,0.902,-0.474,-1.678,-0.793,1.404,60.000,52112.000,1.000
5.597,8.662,1.847,3.589,-1.909,-0.035,-5.164,3.488,-0.098,0.898,-0.478,-1.678,-0.549,1.221,60.000,52113.000,1.000
2.607,8.062,2.504,4.703,-0.904,0.696,-6.796,4.447,-0.097,0.896,-0.477,-1.770,-0.458,1.099,60.000,52114.000,1.000
0.479,7.624,3.603,6.067,0.744,2.140,-6.269,5.688,-0.096,0.895,-0.480,-1.801,-0.275,0.977,60.000,52115.000,1.000
-1.099,7.007,4.804,7.003,2.419,3.618,-4.183,6.760,-0.096,0.892,-0.476,-1.740,-0.153,0.793,60.000,52116.000,1.000
-2.663,5.798,5.605,7.130,3.699,4.357,-1.833,7.245,-0.096,0.891,-0.477,-1.617,0.122,0.763,60.000,52117.000,1.000
-4.340,3.927,5.765,6.703,4.636,4.548,0.235,7.085,-0.096,0.891,-0.477,-1.495,0.397,0.671,60.000,52118.000,1.000
-5.934,1.622,5.440,6.198,5.425,5.514,2.570,6.470,-0.098,0.894,-0.478,-1.465,0.488,0.610,60.000,52119.000,1.000
-7.171,-0.783,4.813,5.662,5.934,8.453,5.811,5.359,-0.100,0.892,-0.480,-1.465,0.732,0.671,60.000,52120.000,1.000
-8.810,-3.710,3.327,4.156,5.136,12.473,8.882,2.977,-0.104,0.889,-0.481,-1.495,0.946,0.580,60.000,52121.000,1.000
-11.584,-7.719,0.267,0.832,1.985,14.550,9.399,-1.416,-0.102,0.886,-0.481,-1.465,1.038,0.641,60.000,52122.000,1.000
-15.031,-12.487,-4.240,-3.941,-3.501,11.385,5.490,-7.483,-0.106,0.882,-0.479,-1.251,1.160,0.763,60.000,52123.000,1.000
-17.748,-16.882,-9.019,-8.777,-10.207,1.886,-2.523,-13.693,-0.108,0.879,-0.476,-0.977,1.129,0.977,60.000,52124.000,1.000
-18.105,-19.511,-12.313,-12.131,-16.383,-11.388,-11.640,-18.095,-0.110,0.877,-0.476,-0.824,1.007,1.282,60.000,52125.000,1.000
-15.342,-19.419,-12.591,-13.075,-20.326,-23.297,-17.946,-19.410,-0.111,0.877,-0.473,-0.580,1.007,1.587,60.000,52126.000,1.000
-9.466,-16.265,-9.050,-11.412,-20.861,-28.793,-18.563,-17.545,-0.111,0.878,-0.475,-0.153,0.793,1.953,60.000,52127.000,1.000
-1.739,-11.094,-2.482,-8.075,-18.237,-26.143,-13.482,-13.796,-0.111,0.884,-0.474,0.244,0.702,2.289,60.000,52128.000,1.000
5.312,-6.432,4.684,-4.962,-14.308,-18.148,-5.776,-10.296,-0.113,0.888,-0.474,0.519,0.641,2.411,60.000,52129.000,1.000
9.515,-4.585,9.891,-3.688,-11.179,-9.905,0.650,-8.753,-0.113,0.898,-0.474,0.824,0.580,2.716,60.000,52130.000,1.000
9.968,-6.151,11.918,-4.745,-9.867,-5.266,3.388,-9.542,-0.112,0.904,-0.478,1.007,0.366,3.052,60.000,52131.000,1.000
7.668,-9.528,11.427,-7.287,-9.726,-4.642,2.875,-11.573,-0.110,0.906,-0.476,1.038,0.183,3.296,60.000,52132.000,1.000
4.602,-12.290,10.005,-9.962,-9.349,-5.914,1.313,-13.319,-0.110,0.908,-0.474,1.190,0.061,3.387,60.000,52133.000,1.000
2.730,-12.737,9.111,-11.594,-7.659,-6.743,0.835,-13.803,-0.106,0.909,-0.474,1.282,0.031,3.571,60.000,52134.000,1.000
3.507,-10.383,9.536,-11.424,-4.435,-6.163,2.578,-12.879,-0.105,0.912,-0.472,1.190,0.031,3.784,60.000,52135.000,1.000
6.449,-6.394,10.843,-9.660,-0.695,-4.961,6.041,-11.181,-0.104,0.913,-0.470,1.251,-0.061,3.815,60.000,52136.000,1.000
9.542,-2.844,11.834,-7.199,2.149,-4.415,9.678,-9.485,-0.104,0.912,-0.477,1.190,-0.092,3.906,60.000,52137.000,1.000
10.586,-1.540,11.366,-5.026,3.352,-5.122,11.550,-8.233,-0.101,0.914,-0.476,1.160,-0.061,3.937,60.000,52138.000,1.000
8.654,-2.877,9.160,-3.556,3.427,-6.739,10.248,-7.269,-0.101,0.912,-0.474,1.038,-0.153,4.059,60.000,52139.000,1.000
4.703,-5.456,6.025,-2.400,3.977,-8.446,6.130,-5.920,-0.100,0.910,-0.471,1.099,-0.183,4.120,60.000,52140.000,1.000
-0.281,-7.588,2.839,-1.214,6.273,-9.828,1.027,-3.731,-0.098,0.911,-0.470,1.007,-0.214,4.181,60.000,52141.000,1.000
-6.052,-8.454,-0.035,-0.013,10.363,-10.843,-2.801,-0.820,-0.096,0.910,-0.472,1.038,-0.275,4.303,60.000,52142.000,1.000
-12.676,-8.395,-2.701,1.029,15.068,-11.528,-4.413,2.235,-0.097,0.910,-0.474,1.007,-0.244,4.303,60.000,52143.000,1.000
-19.579,-8.312,-5.224,2.018,18.902,-11.873,-4.864,4.963,-0.103,0.910,-0.471,0.854,-0.244,4.272,60.000,52144.000,1.000
-25.390,-8.772,-7.457,3.426,21.044,-11.990,-5.852,7.292,-0.111,0.910,-0.470,0.671,-0.427,4.303,60.000,52145.000,1.000
-29.661,-10.116,-9.568,5.275,21.204,-12.458,-8.537,9.128,-0.111,0.907,-0.473,0.427,-0.580,4.395,60.000,52146.000,1.000
-32.597,-12.161,-11.658,7.126,19.612,-13.662,-12.645,10.493,-0.110,0.904,-0.471,0.336,-0.793,4.272,60.000,52147.000,1.000
-33.894,-14.197,-13.244,8.516,16.864,-15.149,-16.799,11.666,-0.107,0.905,-0.477,0.458,-1.007,4.181,60.000,52148.000,1.000
-32.394,-15.448,-13.414,9.345,13.575,-15.763,-19.383,12.874,-0.103,0.903,-0.476,0.458,-1.190,4.150,60.000,52149.000,1.000
-27.021,-15.463,-11.564,9.885,10.106,-14.497,-19.339,13.894,-0.100,0.902,-0.479,0.458,-1.251,4.150,60.000,52150.000,1.000
-18.910,-14.780,-8.325,10.107,6.169,-11.594,-17.378,13.976,-0.096,0.902,-0.480,0.488,-1.373,4.089,60.000,52151.000,1.000
-10.752,-14.402,-5.166,9.726,1.390,-8.237,-15.425,12.494,-0.098,0.899,-0.481,0.458,-1.465,4.089,60.000,52152.000,1.000
-4.691,-14.914,-3.330,8.646,-3.961,-5.442,-14.919,9.470,-0.104,0.897,-0.475,0.519,-1.465,3.967,60.000,52153.000,1.000
-0.951,-16.029,-2.930,7.308,-8.818,-3.313,-15.616,5.804,-0.107,0.898,-0.474,0.458,-1.617,3.876,60.000,52154.000,1.000
1.840,-16.760,-3.059,6.463,-11.822,-1.257,-16.136,2.806,-0.108,0.901,-0.473,0.244,-1.953,3.845,60.000,52155.000,1.000
4.510,-16.330,-2.915,6.347,-12.303,1.124,-15.845,1.150,-0.104,0.901,-0.478,0.153,-2.167,3.815,60.000,52156.000,1.000
7.159,-14.199,-2.087,6.773,-10.329,3.987,-14.701,0.757,-0.103,0.902,-0.479,0.122,-2.441,3.693,60.000,52157.000,1.000
9.499,-10.469,-0.574,7.342,-6.739,7.232,-12.497,1.125,-0.101,0.907,-0.479,0.153,-2.502,3.479,60.000,52158.000,1.000
10.947,-6.427,1.159,7.615,-3.025,10.363,-9.080,1.586,-0.094,0.909,-0.476,0.122,-2.655,3.296,60.000,52159.000,1.000
11.213,-3.617,2.499,7.526,-0.408,12.852,-4.900,1.610,-0.090,0.909,-0.477,-0.092,-2.594,3.113,60.000,52160.000,1.000
10.198,-2.596,3.047,7.336,0.837,14.519,-1.332,0.996,-0.087,0.908,-0.477,-0.183,-2.625,2.960,60.000,52161.000,1.000
8.357,-2.398,3.082,7.496,1.432,15.758,0.659,0.039,-0.086,0.905,-0.476,-0.183,-2.441,2.716,60.000,52162.000,1.000
6.246,-1.830,3.166,8.062,2.049,16.915,1.286,-0.840,-0.086,0.902,-0.474,-0.397,-2.289,2.472,60.000,52163.000,1.000
4.176,-0.657,3.531,8.513,2.586,17.757,1.394,-1.384,-0.088,0.900,-0.476,-0.458,-2.167,2.289,60.000,52164.000,1.000
2.702,0.787,3.981,8.360,2.732,17.847,1.676,-1.440,-0.092,0.897,-0.479,-0.519,-2.106,2.075,60.000,52165.000,1.000
2.137,2.082,3.960,7.452,2.492,16.974,1.872,-0.995,-0.094,0.896,-0.481,-0.488,-2.045,1.862,60.000,52166.000,1.000
2.647,3.174,3.128,6.195,2.395,15.396,1.378,-0.025,-0.094,0.895,-0.482,-0.397,-2.075,1.740,60.000,52167.000,1.000
3.864,3.939,1.584,5.049,2.818,13.334,-0.111,1.323,-0.093,0.893,-0.481,-0.336,-2.075,1.587,60.000,52168.000,1.000
4.930,4.049,-0.085,4.175,3.584,10.812,-2.202,2.699,-0.094,0.893,-0.484,-0.183,-2.045,1.373,60.000,52169.000,1.000
5.571,3.774,-0.916,3.706,4.491,8.152,-3.616,3.836,-0.094,0.895,-0.483,-0.092,-1.984,1.221,60.000,52170.000,1.000
5.931,3.940,-0.304,3.715,5.549,5.941,-3.203,4.560,-0.096,0.897,-0.482,0.092,-1.953,1.160,60.000,52171.000,1.000
6.643,5.601,1.822,4.356,7.037,4.813,-0.509,4.978,-0.097,0.902,-0.480,0.092,-2.106,1.007,60.000,52172.000,1.000
8.024,8.962,4.839,5.457,8.844,4.829,3.750,5.292,-0.097,0.906,-0.480,0.061,-2.106,1.038,60.000,52173.000,1.000
9.664,12.896,7.575,6.423,10.223,5.382,8.039,5.600,-0.098,0.907,-0.478,-0.092,-2.106,0.916,60.000,52174.000,1.000
11.528,16.159,9.084,6.945,10.641,5.902,11.371,6.001,-0.099,0.906,-0.480,-0.183,-2.106,1.007,60.000,52175.000,1.000
13.733,17.970,8.961,6.997,9.998,6.061,13.484,6.490,-0.098,0.905,-0.479,-0.305,-2.136,1.007,60.000,52176.000,1.000
16.496,18.321,7.630,6.723,8.579,5.945,14.804,7.032,-0.098,0.904,-0.480,-0.305,-2.228,1.190,60.000,52177.000,1.000
20.035,18.032,6.115,6.291,6.813,5.903,15.968,7.532,-0.098,0.906,-0.481,-0.427,-2.228,1.129,60.000,52178.000,1.000
24.422,18.305,5.478,5.888,5.018,6.162,17.093,7.910,-0.098,0.907,-0.477,-0.549,-2.258,1.129,60.000,52179.000,1.000
29.521,19.775,6.256,5.699,3.289,6.662,17.619,8.131,-0.098,0.906,-0.478,-0.702,-2.289,1.251,60.000,52180.000,1.000
34.138,21.491,7.842,5.433,1.231,6.890,16.398,7.613,-0.095,0.905,-0.477,-0.793,-2.197,1.129,60.000,52181.000,1.000
36.897,22.056,9.005,4.679,-1.426,6.331,12.913,5.378,-0.094,0.905,-0.477,-0.854,-2.167,1.160,60.000,52182.000,1.000
37.097,21.141,8.736,3.354,-4.268,4.944,7.899,1.158,-0.093,0.901,-0.479,-0.977,-2.075,1.221,60.000,52183.000,1.000
34.573,19.404,6.772,1.696,-6.478,3.271,2.960,-3.960,-0.094,0.901,-0.478,-0.946,-1.953,1.190,60.000,52184.000,1.000
29.522,17.497,3.679,0.081,-7.542,2.059,-0.198,-8.261,-0.092,0.901,-0.479,-0.977,-1.892,1.099,60.000,52185.000,1.000
22.064,15.329,0.254,-1.277,-7.865,1.552,-1.051,-10.534,-0.091,0.902,-0.480,-0.977,-1.770,1.007,60.000,52186.000,1.000
13.160,12.949,-2.807,-2.063,-8.093,1.631,-0.162,-10.221,-0.092,0.903,-0.479,-1.129,-1.648,0.977,60.000,52187.000,1.000
4.392,10.939,-5.314,-2.006,-8.480,2.038,1.346,-7.476,-0.093,0.902,-0.481,-1.099,-1.465,0.916,60.000,52188.000,1.000
-3.059,9.939,-7.435,-1.121,-8.764,2.583,2.513,-3.136,-0.090,0.902,-0.477,-1.160,-1.343,0.854,60.000,52189.000,1.000
-8.367,10.406,-9.005,0.440,-8.243,3.480,3.386,1.698,-0.090,0.901,-0.480,-1.099,-1.221,0.793,60.000,52190.000,1.000
-11.339,12.154,-9.670,2.248,-6.511,4.955,4.476,5.944,-0.090,0.898,-0.484,-1.129,-1.190,0.641,60.000,52191.000,1.000
-12.154,14.398,-9.369,3.748,-3.898,6.725,6.130,8.823,-0.091,0.900,-0.483,-1.160,-1.038,0.519,60.000,52192.000,1.000
-11.749,15.730,-8.796,4.197,-1.594,7.660,7.904,9.820,-0.091,0.900,-0.482,-1.221,-0.824,0.427,60.000,52193.000,1.000
-11.547,14.768,-8.865,2.968,-0.944,6.484,8.719,8.768,-0.088,0.899,-0.482,-1.282,-0.641,0.427,60.000,52194.000,1.000
-11.958,11.392,-9.715,0.269,-2.286,3.032,7.959,6.163,-0.087,0.897,-0.482,-1.282,-0.580,0.397,60.000,52195.000,1.000
-12.580,6.446,-10.831,-3.018,-4.925,-1.742,5.625,2.993,-0.087,0.897,-0.480,-1.282,-0.305,0.244,60.000,52196.000,1.000
-12.593,1.126,-11.413,-5.745,-7.595,-6.433,2.327,0.322,-0.086,0.894,-0.478,-1.221,-0.122,0.153,60.000,52197.000,1.000
