EEG 1,EEG 2,EEG 3,EEG 4,EEG 5,EEG 6,EEG 7,EEG 8,Accelerometer X,Accelerometer Y,Accelerometer Z,Gyroscope X,Gyroscope Y,Gyroscope Z,Battery Level,Counter,Validation Indicator
-5.621,9.041,-6.789,-1.724,2.537,7.939,-3.816,-10.348,-0.130,0.895,-0.480,-1.556,-1.343,0.671,60.000,63249.000,1.000
-7.192,6.510,-7.825,-4.667,-0.528,7.858,-3.569,-10.975,-0.130,0.896,-0.479,-1.312,-1.282,0.732,60.000,63250.000,1.000
-7.925,3.655,-8.733,-6.915,-3.415,6.924,-3.777,-11.631,-0.129,0.896,-0.478,-1.312,-1.251,0.854,60.000,63251.000,1.000
-7.509,1.192,-9.587,-7.833,-5.780,5.156,-4.361,-12.035,-0.131,0.893,-0.480,-1.282,-1.160,0.946,60.000,63252.000,1.000
-5.963,-0.042,-10.094,-7.331,-7.193,3.077,-4.709,-11.734,-0.131,0.891,-0.481,-1.434,-1.038,1.038,60.000,63253.000,1.000
-3.688,0.259,-9.839,-5.821,-7.360,1.313,-4.406,-10.481,-0.129,0.892,-0.482,-1.312,-1.007,1.190,60.000,63254.000,1.000
-1.625,1.412,-8.844,-4.098,-6.432,0.052,-4.035,-8.647,-0.127,0.890,-0.481,-1.251,-0.916,1.221,60.000,63255.000,1.000
-0.695,2.416,-7.513,-2.722,-4.811,-0.871,-4.633,-6.925,-0.127,0.889,-0.483,-1.251,-0.763,1.190,60.000,63256.000,1.000
-0.683,3.131,-6.108,-1.464,-2.665,-1.449,-6.194,-5.477,-0.127,0.890,-0.484,-1.190,-0.763,1.129,60.000,63257.000,1.000
-1.226,3.692,-5.032,-0.087,-0.457,-1.827,-8.006,-4.055,-0.128,0.888,-0.482,-1.129,-0.732,1.099,60.000,63258.000,1.000
-2.373,3.914,-4.829,1.109,0.841,-2.474,-9.495,-2.731,-0.128,0.889,-0.479,-0.977,-0.671,1.099,60.000,63259.000,1.000
-4.429,3.420,-5.793,1.587,0.373,-3.806,-10.662,-2.047,-0.126,0.889,-0.481,-0.885,-0.458,0.946,60.000,63260.000,1.000
-7.439,2.052,-7.537,1.305,-1.719,-5.637,-11.697,-2.137,-0.127,0.892,-0.482,-0.854,-0.397,0.885,60.000,63261.000,1.000
-10.640,0.174,-9.112,0.995,-4.138,-7.153,-12.273,-2.228,-0.125,0.893,-0.483,-0.793,-0.275,0.702,60.000,63262.000,1.000
-13.315,-1.772,-9.923,1.284,-5.557,-7.735,-11.951,-1.435,-0.124,0.894,-0.481,-0.824,-0.122,0.610,60.000,63263.000,1.000
-14.935,-3.298,-9.955,2.208,-5.367,-7.259,-10.371,0.584,-0.124,0.895,-0.481,-0.916,0.031,0.580,60.000,63264.000,1.000
-15.411,-4.214,-9.550,3.194,-3.912,-6.097,-7.571,3.449,-0.122,0.895,-0.484,-1.068,0.061,0.519,60.000,63265.000,1.000
-15.025,-4.839,-8.968,3.572,-2.129,-4.889,-4.178,6.384,-0.123,0.893,-0.483,-1.099,0.244,0.427,60.000,63266.000,1.000
-13.669,-5.476,-8.102,3.182,-0.832,-4.095,-1.055,8.627,-0.123,0.891,-0.480,-1.190,0.427,0.336,60.000,63267.000,1.000
-11.406,-6.324,-6.905,2.095,-0.668,-3.914,0.785,9.488,-0.126,0.891,-0.484,-1.190,0.488,0.183,60.000,63268.000,1.000
-8.488,-7.146,-5.434,0.566,-1.838,-4.055,1.037,8.795,-0.126,0.893,-0.486,-1.129,0.641,0.000,60.000,63269.000,1.000
-5.540,-7.602,-3.921,-1.179,-4.108,-4.135,0.166,7.019,-0.125,0.891,-0.486,-1.007,0.732,0.031,60.000,63270.000,1.000
-3.539,-7.906,-2.753,-3.172,-7.085,-4.272,-1.310,4.890,-0.127,0.892,-0.486,-1.007,0.702,-0.031,60.000,63271.000,1.000
-2.776,-8.461,-2.080,-5.392,-10.133,-4.827,-2.891,2.993,-0.127,0.895,-0.482,-1.007,0.671,-0.092,60.000,63272.000,1.000
-2.914,-9.480,-1.817,-7.679,-12.608,-6.038,-4.416,1.448,-0.129,0.893,-0.484,-0.916,0.641,-0.153,60.000,63273.000,1.000
-3.094,-10.657,-1.698,-9.613,-14.016,-7.735,-5.857,0.124,-0.129,0.895,-0.483,-1.038,0.702,-0.183,60.000,63274.000,1.000
-2.826,-11.692,-1.678,-10.924,-14.430,-9.571,-7.182,-1.166,-0.133,0.895,-0.480,-1.007,0.763,-0.244,60.000,63275.000,1.000
-2.378,-12.606,-1.935,-11.707,-14.396,-11.127,-8.162,-2.514,-0.132,0.896,-0.479,-1.007,0.793,-0.275,60.000,63276.000,1.000
-1.790,-13.127,-2.286,-11.987,-14.056,-11.741,-8.160,-3.770,-0.133,0.896,-0.481,-1.007,0.854,-0.305,60.000,63277.000,1.000
-1.189,-13.138,-2.361,-11.821,-13.238,-11.047,-7.066,-4.753,-0.134,0.897,-0.480,-1.068,0.824,-0.275,60.000,63278.000,1.000
-0.953,-13.167,-1.989,-11.467,-12.040,-9.408,-5.552,-5.364,-0.134,0.897,-0.482,-1.038,0.732,-0.275,60.000,63279.000,1.000
-1.855,-14.223,-1.625,-11.619,-11.259,-7.935,-4.721,-5.971,-0.134,0.894,-0.480,-1.068,0.580,-0.183,60.000,63280.000,1.000
-4.572,-16.859,-2.094,-12.957,-11.766,-7.704,-5.337,-7.288,-0.137,0.893,-0.479,-1.190,0.488,-0.153,60.000,63281.000,1.000
-8.441,-20.207,-3.693,-15.153,-13.362,-8.731,-6.958,-9.511,-0.136,0.896,-0.482,-1.160,0.397,-0.122,60.000,63282.000,1.000
-12.036,-22.704,-6.017,-17.026,-14.918,-10.136,-8.515,-12.020,-0.136,0.896,-0.480,-1.160,0.275,-0.061,60.000,63283.000,1.000
-13.914,-23.041,-8.121,-17.234,-15.034,-10.734,-8.871,-13.604,-0.135,0.896,-0.478,-1.221,0.092,-0.031,60.000,63284.000,1.000
-13.813,-21.121,-9.305,-15.332,-13.054,-9.905,-7.585,-13.378,-0.135,0.895,-0.478,-1.068,0.000,0.061,60.000,63285.000,1.000
-13.235,-18.461,-9.743,-12.337,-9.754,-8.121,-5.444,-11.704,-0.136,0.897,-0.478,-1.007,0.031,0.183,60.000,63286.000,1.000
-13.965,-17.022,-10.025,-9.881,-6.674,-6.394,-3.645,-9.932,-0.136,0.896,-0.479,-1.038,-0.183,0.275,60.000,63287.000,1.000
-16.798,-17.848,-10.524,-9.045,-5.008,-5.520,-2.989,-9.307,-0.136,0.897,-0.479,-1.160,-0.183,0.275,60.000,63288.000,1.000
-20.607,-20.138,-10.906,-9.524,-4.675,-5.477,-3.237,-9.919,-0.138,0.897,-0.483,-1.251,-0.305,0.336,60.000,63289.000,1.000
-23.247,-21.885,-10.461,-10.085,-4.551,-5.635,-3.601,-10.773,-0.137,0.896,-0.484,-1.221,-0.549,0.427,60.000,63290.000,1.000
-23.118,-21.221,-8.628,-9.529,-3.367,-5.262,-3.448,-10.415,-0.136,0.896,-0.479,-1.251,-0.641,0.519,60.000,63291.000,1.000
-19.865,-17.483,-5.330,-7.409,-0.561,-3.915,-2.287,-7.893,-0.135,0.893,-0.479,-1.190,-0.702,0.610,60.000,63292.000,1.000
-15.057,-12.133,-1.368,-4.567,2.959,-2.013,-0.203,-3.828,-0.134,0.892,-0.484,-1.282,-0.763,0.610,60.000,63293.000,1.000
-10.787,-7.538,2.160,-2.316,5.601,-0.493,2.211,0.012,-0.132,0.891,-0.482,-1.190,-0.854,0.580,60.000,63294.000,1.000
-8.279,-5.157,4.513,-1.476,6.296,-0.173,3.819,2.028,-0.129,0.893,-0.481,-1.160,-0.854,0.549,60.000,63295.000,1.000
-7.750,-5.050,5.547,-2.092,4.983,-1.371,3.302,1.742,-0.129,0.892,-0.479,-1.099,-0.854,0.702,60.000,63296.000,1.000
-8.379,-6.268,5.770,-3.413,2.615,-3.650,0.549,0.015,-0.129,0.892,-0.483,-1.068,-0.824,0.702,60.000,63297.000,1.000
-9.111,-7.740,5.878,-4.357,0.484,-6.128,-3.047,-1.607,-0.125,0.895,-0.479,-1.099,-0.702,0.763,60.000,63298.000,1.000
-8.716,-8.325,6.486,-3.875,-0.263,-7.746,-5.325,-1.720,-0.125,0.894,-0.481,-1.038,-0.671,0.854,60.000,63299.000,1.000
-6.516,-7.204,7.749,-1.644,0.703,-7.785,-4.990,0.122,-0.126,0.891,-0.482,-1.038,-0.549,0.854,60.000,63300.000,1.000
-3.211,-4.570,9.222,1.556,2.570,-6.312,-2.545,3.251,-0.130,0.891,-0.482,-1.007,-0.549,0.854,60.000,63301.000,1.000
-0.077,-1.326,10.320,4.442,4.063,-4.022,0.610,6.552,-0.134,0.892,-0.478,-1.007,-0.488,0.732,60.000,63302.000,1.000
1.699,1.455,10.671,5.947,4.235,-1.789,3.217,9.136,-0.136,0.894,-0.477,-1.068,-0.549,0.641,60.000,63303.000,1.000
1.910,3.227,10.508,6.010,3.145,0.080,5.021,10.785,-0.138,0.894,-0.478,-1.190,-0.580,0.519,60.000,63304.000,1.000
0.908,3.715,10.236,5.371,1.480,1.639,6.267,11.608,-0.135,0.895,-0.478,-1.251,-0.641,0.397,60.000,63305.000,1.000
-0.933,2.699,9.853,4.857,-0.099,2.760,6.952,11.695,-0.133,0.894,-0.478,-1.251,-0.793,0.275,60.000,63306.000,1.000
-2.606,0.795,9.209,5.086,-0.965,3.344,7.039,11.269,-0.132,0.895,-0.476,-1.251,-0.854,0.031,60.000,63307.000,1.000
-3.204,-0.838,8.172,6.076,-0.839,3.399,6.226,10.601,-0.130,0.896,-0.475,-1.221,-0.763,0.031,60.000,63308.000,1.000
-2.388,-1.183,6.901,7.451,0.201,3.152,4.509,10.020,-0.130,0.894,-0.475,-1.282,-0.610,0.092,60.000,63309.000,1.000
-0.744,-0.127,5.664,8.674,1.752,2.865,2.588,9.663,-0.131,0.891,-0.481,-1.282,-0.610,0.061,60.000,63310.000,1.000
0.319,1.361,4.517,9.192,3.210,2.668,1.333,9.293,-0.127,0.891,-0.479,-1.282,-0.610,0.000,60.000,63311.000,1.000
-0.174,2.211,3.402,8.768,4.163,2.684,1.210,8.634,-0.129,0.890,-0.480,-1.282,-0.427,-0.031,60.000,63312.000,1.000
-2.360,1.882,2.118,7.359,4.281,2.788,1.718,7.598,-0.131,0.889,-0.481,-1.282,-0.427,-0.092,60.000,63313.000,1.000
-5.094,0.816,0.691,5.286,3.578,2.813,2.198,6.361,-0.133,0.890,-0.479,-1.190,-0.427,-0.031,60.000,63314.000,1.000
-6.711,-0.009,-0.526,3.142,2.528,2.847,2.610,5.047,-0.136,0.891,-0.479,-0.977,-0.427,0.061,60.000,63315.000,1.000
-6.101,0.204,-0.940,1.612,1.830,3.366,3.549,3.691,-0.134,0.892,-0.478,-1.007,-0.458,0.092,60.000,63316.000,1.000
-2.698,2.030,0.062,1.440,2.158,4.997,5.817,2.416,-0.134,0.894,-0.479,-0.916,-0.488,0.061,60.000,63317.000,1.000
2.854,5.339,2.356,2.778,3.559,7.738,9.202,1.080,-0.136,0.895,-0.480,-0.824,-0.549,0.092,60.000,63318.000,1.000
9.146,9.429,5.131,5.106,5.633,10.973,12.674,-0.607,-0.135,0.895,-0.482,-0.793,-0.610,0.214,60.000,63319.000,1.000
14.661,13.398,7.423,7.515,7.843,13.890,15.204,-2.596,-0.134,0.895,-0.481,-0.854,-0.519,0.275,60.000,63320.000,1.000
18.361,16.588,8.656,9.160,9.661,15.850,16.219,-4.328,-0.134,0.895,-0.481,-0.824,-0.488,0.397,60.000,63321.000,1.000
20.472,19.079,8.870,9.740,10.780,16.616,15.895,-5.126,-0.134,0.896,-0.480,-0.824,-0.549,0.458,60.000,63322.000,1.000
21.386,20.793,7.963,9.202,10.742,15.970,14.512,-4.957,-0.134,0.895,-0.482,-0.793,-0.549,0.519,60.000,63323.000,1.000
21.051,21.033,5.579,7.771,9.130,13.817,12.447,-4.314,-0.134,0.895,-0.482,-0.671,-0.549,0.549,60.000,63324.000,1.000
18.940,18.902,1.597,5.950,5.927,10.380,10.120,-3.767,-0.135,0.893,-0.480,-0.610,-0.519,0.580,60.000,63325.000,1.000
14.575,14.150,-3.501,4.225,1.532,6.093,7.660,-3.732,-0.135,0.894,-0.480,-0.702,-0.580,0.610,60.000,63326.000,1.000
8.788,8.032,-8.495,3.056,-3.043,1.699,5.279,-4.265,-0.137,0.895,-0.482,-0.519,-0.610,0.732,60.000,63327.000,1.000
3.219,2.539,-12.019,2.617,-6.481,-1.941,3.260,-5.131,-0.136,0.895,-0.479,-0.519,-0.702,0.763,60.000,63328.000,1.000
-0.772,-0.905,-13.285,2.691,-7.788,-4.207,1.831,-5.959,-0.137,0.893,-0.482,-0.549,-0.671,0.763,60.000,63329.000,1.000
-3.160,-2.264,-12.677,2.621,-7.000,-5.124,0.724,-6.465,-0.136,0.893,-0.484,-0.488,-0.854,0.854,60.000,63330.000,1.000
-4.946,-2.442,-11.402,1.825,-5.009,-5.073,-0.621,-6.335,-0.134,0.892,-0.483,-0.275,-0.885,1.038,60.000,63331.000,1.000
-6.457,-2.088,-10.456,0.445,-2.682,-4.260,-2.075,-5.191,-0.131,0.896,-0.482,-0.336,-0.946,0.946,60.000,63332.000,1.000
-7.077,-1.284,-10.156,-0.833,-0.520,-2.898,-2.883,-2.970,-0.131,0.895,-0.485,-0.397,-0.885,0.977,60.000,63333.000,1.000
-5.543,0.464,-9.969,-1.025,1.598,-1.127,-2.103,0.121,-0.132,0.894,-0.482,-0.366,-0.916,1.099,60.000,63334.000,1.000
-1.674,3.208,-9.273,0.233,3.773,0.829,0.178,3.425,-0.132,0.892,-0.480,-0.458,-0.885,1.007,60.000,63335.000,1.000
2.583,5.736,-8.126,2.074,5.406,2.407,2.389,5.868,-0.133,0.894,-0.484,-0.427,-0.763,1.099,60.000,63336.000,1.000
5.279,6.819,-6.782,3.403,5.934,3.180,3.161,6.847,-0.132,0.895,-0.483,-0.427,-0.763,0.946,60.000,63337.000,1.000
6.333,6.488,-5.202,3.842,5.527,3.097,2.348,6.694,-0.133,0.895,-0.479,-0.488,-0.732,0.885,60.000,63338.000,1.000
7.675,6.196,-3.066,3.848,5.079,2.429,0.860,6.364,-0.130,0.894,-0.483,-0.549,-0.732,0.854,60.000,63339.000,1.000
10.690,7.208,-0.477,3.784,5.186,1.366,-0.479,6.603,-0.129,0.893,-0.484,-0.580,-0.671,0.824,60.000,63340.000,1.000
14.300,9.243,1.860,3.458,5.525,0.043,-1.528,7.605,-0.127,0.894,-0.484,-0.580,-0.519,0.854,60.000,63341.000,1.000
16.716,11.306,3.481,2.883,5.713,-0.946,-2.129,9.336,-0.128,0.893,-0.486,-0.488,-0.488,0.732,60.000,63342.000,1.000
17.326,12.793,4.487,2.517,5.909,-0.839,-2.109,11.498,-0.128,0.892,-0.485,-0.519,-0.458,0.702,60.000,63343.000,1.000
17.232,14.043,5.373,2.918,6.653,0.693,-1.424,13.436,-0.132,0.892,-0.483,-0.671,-0.366,0.641,60.000,63344.000,1.000
17.339,15.349,6.331,3.935,7.907,2.972,-0.563,14.179,-0.131,0.895,-0.485,-0.641,-0.366,0.580,60.000,63345.000,1.000
16.793,15.943,6.984,4.630,8.750,4.564,-0.493,12.975,-0.134,0.896,-0.482,-0.702,-0.336,0.427,60.000,63346.000,1.000
14.648,15.099,7.056,4.368,8.472,4.551,-1.570,10.068,-0.133,0.896,-0.481,-0.793,-0.336,0.244,60.000,63347.000,1.000
11.385,13.285,6.687,3.345,7.273,3.167,-3.297,6.636,-0.129,0.899,-0.480,-0.885,-0.397,0.214,60.000,63348.000,1.000
8.871,11.989,6.328,2.391,6.100,1.558,-4.508,4.139,-0.128,0.902,-0.483,-1.007,-0.336,0.122,60.000,63349.000,1.000
8.208,11.946,6.121,2.018,5.503,0.674,-4.290,3.307,-0.126,0.899,-0.483,-1.221,-0.244,0.122,60.000,63350.000,1.000
8.555,12.299,5.793,2.030,5.093,0.693,-2.712,3.808,-0.125,0.897,-0.484,-1.221,-0.183,0.122,60.000,63351.000,1.000
8.857,12.077,5.299,2.245,4.482,1.521,-0.351,4.899,-0.126,0.897,-0.483,-1.251,-0.031,-0.061,60.000,63352.000,1.000
8.715,11.122,4.827,2.635,3.731,2.960,1.853,5.898,-0.129,0.897,-0.483,-1.373,0.061,-0.061,60.000,63353.000,1.000
8.652,10.207,4.748,3.293,3.344,4.836,3.262,6.581,-0.127,0.894,-0.483,-1.373,0.061,-0.061,60.000,63354.000,1.000
9.439,10.308,5.347,4.182,3.796,6.920,3.913,7.012,-0.132,0.892,-0.485,-1.343,0.061,-0.061,60.000,63355.000,1.000
11.149,11.618,6.469,4.905,5.017,8.782,4.158,7.049,-0.134,0.891,-0.480,-1.160,0.031,-0.153,60.000,63356.000,1.000
13.236,13.459,7.654,4.973,6.510,10.113,4.462,6.330,-0.136,0.890,-0.483,-1.099,0.092,-0.122,60.000,63357.000,1.000
14.317,14.400,8.250,3.950,7.459,10.881,4.941,4.504,-0.138,0.890,-0.481,-1.129,0.122,-0.244,60.000,63358.000,1.000
13.291,13.335,7.903,1.925,7.337,11.500,5.722,1.656,-0.139,0.888,-0.482,-1.099,0.000,-0.122,60.000,63359.000,1.000
10.299,10.372,6.711,-0.513,6.222,12.432,6.994,-1.775,-0.138,0.889,-0.478,-1.099,-0.061,-0.122,60.000,63360.000,1.000
6.491,6.661,4.941,-2.780,4.492,13.535,8.424,-5.389,-0.137,0.889,-0.484,-0.977,-0.214,0.000,60.000,63361.000,1.000
3.291,3.588,2.905,-4.536,2.473,14.092,9.254,-8.950,-0.137,0.888,-0.484,-0.885,-0.336,0.031,60.000,63362.000,1.000
0.905,1.510,0.768,-5.849,0.033,13.310,8.613,-12.352,-0.141,0.886,-0.483,-0.854,-0.427,0.092,60.000,63363.000,1.000
-1.008,0.201,-1.087,-6.600,-2.847,11.251,6.560,-15.148,-0.140,0.886,-0.487,-0.824,-0.641,0.214,60.000,63364.000,1.000
-2.143,-0.196,-2.037,-6.290,-5.563,8.856,4.139,-16.569,-0.140,0.889,-0.485,-0.763,-0.793,0.183,60.000,63365.000,1.000
-1.791,0.603,-1.702,-4.600,-7.253,6.988,2.273,-16.072,-0.136,0.892,-0.481,-0.488,-0.916,0.183,60.000,63366.000,1.000
0.309,2.330,-0.212,-1.877,-7.451,5.763,1.297,-13.684,-0.136,0.891,-0.482,-0.427,-1.038,0.275,60.000,63367.000,1.000
2.882,3.744,1.672,0.656,-6.695,4.548,0.884,-10.289,-0.138,0.894,-0.483,-0.427,-1.068,0.427,60.000,63368.000,1.000
4.572,3.983,3.262,1.913,-5.772,2.982,0.895,-7.176,-0.136,0.896,-0.481,-0.549,-1.068,0.427,60.000,63369.000,1.000
5.562,3.638,4.471,1.904,-4.834,1.440,1.440,-5.158,-0.136,0.896,-0.482,-0.610,-1.190,0.427,60.000,63370.000,1.000
7.066,3.995,5.583,1.489,-3.575,0.361,2.109,-4.189,-0.133,0.896,-0.481,-0.641,-1.282,0.519,60.000,63371.000,1.000
9.701,5.481,6.676,1.355,-1.993,-0.499,2.017,-3.918,-0.135,0.898,-0.481,-0.763,-1.251,0.610,60.000,63372.000,1.000
11.856,6.611,7.175,1.156,-0.945,-2.146,0.144,-4.261,-0.133,0.897,-0.478,-0.854,-1.221,0.702,60.000,63373.000,1.000
11.524,5.638,6.690,0.456,-1.013,-5.049,-3.472,-4.747,-0.130,0.897,-0.482,-0.854,-1.282,0.824,60.000,63374.000,1.000
8.667,2.493,5.605,-0.393,-1.580,-8.391,-7.419,-4.324,-0.128,0.897,-0.480,-0.946,-1.160,0.854,60.000,63375.000,1.000
5.064,-1.278,4.615,-0.638,-1.462,-10.771,-10.016,-2.249,-0.128,0.897,-0.479,-1.038,-1.129,0.916,60.000,63376.000,1.000
2.744,-3.686,4.150,0.193,0.089,-11.232,-10.322,1.288,-0.128,0.897,-0.483,-1.099,-0.977,0.854,60.000,63377.000,1.000
1.864,-4.042,3.946,1.690,2.633,-10.027,-8.923,5.286,-0.127,0.900,-0.486,-1.068,-0.885,0.885,60.000,63378.000,1.000
1.363,-3.051,3.559,3.085,5.089,-8.172,-7.157,8.805,-0.128,0.899,-0.484,-1.099,-0.702,0.854,60.000,63379.000,1.000
0.636,-1.838,2.801,3.901,6.583,-6.700,-5.954,11.406,-0.127,0.898,-0.481,-1.007,-0.580,0.824,60.000,63380.000,1.000
-0.096,-1.297,1.683,4.023,6.713,-6.264,-5.451,12.976,-0.123,0.899,-0.477,-1.251,-0.458,0.824,60.000,63381.000,1.000
-0.311,-1.770,0.370,3.556,5.571,-6.916,-5.243,13.595,-0.123,0.895,-0.479,-1.282,-0.244,0.793,60.000,63382.000,1.000
-0.634,-3.467,-1.088,2.423,3.388,-8.417,-5.555,13.353,-0.121,0.892,-0.482,-1.251,-0.153,0.702,60.000,63383.000,1.000
-2.165,-6.249,-2.533,0.678,0.669,-10.301,-6.996,12.454,-0.125,0.888,-0.482,-1.221,0.000,0.610,60.000,63384.000,1.000
-5.052,-9.385,-3.638,-1.199,-1.833,-11.933,-9.459,11.114,-0.128,0.886,-0.481,-1.190,0.122,0.580,60.000,63385.000,1.000
-8.191,-11.847,-4.114,-2.458,-3.462,-12.647,-11.801,9.410,-0.130,0.883,-0.486,-1.038,0.214,0.580,60.000,63386.000,1.000
-10.012,-12.759,-3.876,-2.473,-3.873,-11.917,-12.592,7.431,-0.133,0.884,-0.483,-0.977,0.244,0.610,60.000,63387.000,1.000
-10.466,-12.309,-3.304,-1.470,-3.443,-9.832,-11.678,5.370,-0.133,0.883,-0.481,-0.854,0.244,0.519,60.000,63388.000,1.000
-10.482,-11.211,-2.698,-0.171,-2.779,-6.845,-9.818,3.705,-0.135,0.882,-0.486,-0.610,0.183,0.397,60.000,63389.000,1.000
-10.463,-9.859,-2.043,0.784,-2.275,-3.565,-7.662,2.754,-0.136,0.884,-0.487,-0.397,0.061,0.427,60.000,63390.000,1.000
-10.184,-8.464,-1.481,0.979,-2.283,-0.861,-5.559,2.109,-0.137,0.885,-0.483,-0.336,0.031,0.427,60.000,63391.000,1.000
-9.261,-7.193,-1.394,0.424,-3.013,0.610,-3.489,0.966,-0.141,0.886,-0.485,-0.275,-0.092,0.488,60.000,63392.000,1.000
-8.377,-6.635,-2.280,-0.715,-4.627,0.731,-1.656,-1.321,-0.141,0.888,-0.486,-0.244,-0.275,0.488,60.000,63393.000,1.000
-8.613,-7.454,-4.226,-2.172,-7.058,-0.042,-0.401,-4.750,-0.141,0.890,-0.484,-0.153,-0.397,0.488,60.000,63394.000,1.000
-9.990,-9.718,-6.790,-3.705,-9.939,-1.146,0.180,-8.758,-0.140,0.892,-0.482,-0.275,-0.519,0.458,60.000,63395.000,1.000
-11.210,-12.703,-9.299,-5.269,-12.740,-2.322,0.257,-12.554,-0.140,0.897,-0.484,-0.305,-0.641,0.549,60.000,63396.000,1.000
-10.580,-15.069,-11.072,-6.795,-14.755,-3.436,0.215,-15.262,-0.136,0.899,-0.483,-0.305,-0.732,0.702,60.000,63397.000,1.000
-8.265,-16.034,-11.981,-8.348,-15.631,-4.487,-0.044,-16.481,-0.135,0.901,-0.484,-0.580,-0.824,0.702,60.000,63398.000,1.000
-6.007,-15.720,-12.335,-9.978,-15.397,-5.445,-0.742,-16.670,-0.136,0.901,-0.486,-0.641,-0.946,0.732,60.000,63399.000,1.000
-4.679,-14.296,-12.200,-11.317,-13.925,-6.027,-1.318,-16.597,-0.133,0.904,-0.488,-0.763,-1.099,0.885,60.000,63400.000,1.000
-2.864,-11.207,-11.037,-11.410,-10.670,-5.693,-0.473,-16.257,-0.130,0.905,-0.488,-0.916,-1.129,0.977,60.000,63401.000,1.000
1.346,-5.981,-8.434,-9.548,-5.518,-4.214,2.577,-15.027,-0.130,0.906,-0.486,-0.977,-1.099,1.099,60.000,63402.000,1.000
6.389,-0.271,-5.402,-6.708,-0.166,-2.530,6.419,-12.965,-0.131,0.906,-0.485,-1.221,-1.007,1.160,60.000,63403.000,1.000
8.312,3.145,-3.598,-4.689,3.005,-1.874,8.661,-10.612,-0.129,0.903,-0.485,-1.373,-1.007,0.977,60.000,63404.000,1.000
5.650,3.434,-3.480,-4.039,3.386,-2.274,8.413,-7.963,-0.129,0.901,-0.485,-1.587,-1.068,1.068,60.000,63405.000,1.000
1.288,2.508,-3.871,-3.624,2.693,-2.497,6.857,-4.514,-0.128,0.899,-0.482,-1.801,-0.946,1.099,60.000,63406.000,1.000
-0.895,2.646,-3.393,-2.230,3.027,-1.485,5.740,-0.286,-0.129,0.897,-0.481,-1.953,-0.885,1.038,60.000,63407.000,1.000
-1.300,3.421,-2.293,-0.468,4.305,0.033,5.000,3.428,-0.129,0.893,-0.479,-1.984,-0.793,1.007,60.000,63408.000,1.000
-3.878,2.313,-1.929,-0.021,4.662,0.231,3.141,5.077,-0.128,0.888,-0.480,-2.167,-0.732,0.916,60.000,63409.000,1.000
-10.716,-2.035,-2.969,-1.471,3.018,-1.740,-0.553,4.422,-0.131,0.888,-0.480,-2.045,-0.580,0.854,60.000,63410.000,1.000
-18.938,-7.830,-4.645,-3.504,0.518,-4.755,-4.896,2.915,-0.130,0.888,-0.483,-2.014,-0.549,0.641,60.000,63411.000,1.000
-23.625,-11.738,-5.786,-4.357,-0.751,-6.875,-7.811,2.371,-0.131,0.889,-0.481,-1.984,-0.458,0.610,60.000,63412.000,1.000
-24.261,-12.996,-6.505,-4.094,-0.545,-7.581,-8.818,3.115,-0.130,0.889,-0.482,-1.923,-0.458,0.580,60.000,63413.000,1.000
-24.748,-13.761,-7.692,-4.140,-0.488,-7.754,-8.926,4.210,-0.128,0.890,-0.484,-1.862,-0.366,0.488,60.000,63414.000,1.000
-27.417,-15.446,-9.373,-5.015,-1.584,-7.890,-8.655,5.049,-0.127,0.893,-0.481,-1.831,-0.305,0.336,60.000,63415.000,1.000
-29.931,-16.702,-10.528,-5.636,-3.024,-7.423,-7.475,5.931,-0.126,0.896,-0.483,-1.862,-0.183,0.275,60.000,63416.000,1.000
-28.545,-15.357,-10.312,-4.760,-3.485,-5.771,-4.990,7.202,-0.126,0.899,-0.481,-1.862,-0.031,0.214,60.000,63417.000,1.000
-23.331,-11.496,-9.065,-2.663,-3.083,-3.460,-2.380,8.448,-0.126,0.903,-0.479,-1.923,0.061,0.244,60.000,63418.000,1.000
-17.405,-7.052,-7.475,-0.496,-3.010,-1.408,-1.158,9.229,-0.124,0.903,-0.482,-2.136,0.244,0.153,60.000,63419.000,1.000
-12.882,-3.695,-5.648,1.053,-4.091,0.048,-1.285,9.674,-0.123,0.905,-0.479,-2.350,0.458,0.092,60.000,63420.000,1.000
-9.236,-1.902,-3.277,2.079,-6.153,1.154,-1.316,9.999,-0.122,0.903,-0.480,-2.411,0.580,0.122,60.000,63421.000,1.000
-4.683,-1.220,-0.275,2.872,-8.410,2.139,-0.142,9.849,-0.120,0.904,-0.480,-2.472,0.702,0.092,60.000,63422.000,1.000
0.644,-1.584,2.544,2.885,-10.691,2.452,1.062,8.126,-0.121,0.902,-0.479,-2.563,0.946,0.092,60.000,63423.000,1.000
4.944,-3.216,4.218,1.356,-13.249,1.410,0.180,4.090,-0.123,0.900,-0.479,-2.563,1.038,0.183,60.000,63424.000,1.000
7.411,-5.427,4.760,-1.410,-15.662,-0.746,-3.085,-1.589,-0.125,0.899,-0.481,-2.625,1.282,0.183,60.000,63425.000,1.000
9.185,-6.467,5.144,-4.007,-16.757,-2.924,-6.787,-7.069,-0.126,0.896,-0.479,-2.563,1.343,0.092,60.000,63426.000,1.000
11.821,-4.820,6.366,-5.014,-15.575,-3.928,-8.526,-10.523,-0.126,0.896,-0.480,-2.533,1.587,0.275,60.000,63427.000,1.000
14.605,-1.038,8.329,-4.321,-12.538,-3.363,-7.746,-11.459,-0.125,0.893,-0.480,-2.441,1.495,0.183,60.000,63428.000,1.000
15.486,2.922,10.208,-2.793,-8.874,-1.516,-5.407,-10.687,-0.131,0.890,-0.479,-2.258,1.526,0.183,60.000,63429.000,1.000
13.614,5.570,11.330,-1.210,-5.377,1.086,-2.437,-9.381,-0.132,0.886,-0.481,-2.136,1.526,0.244,60.000,63430.000,1.000
9.871,6.537,11.466,0.169,-2.176,3.878,0.769,-8.291,-0.135,0.886,-0.479,-1.892,1.526,0.275,60.000,63431.000,1.000
5.931,6.187,10.736,1.464,0.811,6.431,4.103,-7.663,-0.137,0.886,-0.482,-1.801,1.404,0.305,60.000,63432.000,1.000
2.219,4.486,9.069,2.474,3.177,8.285,6.935,-7.724,-0.138,0.883,-0.479,-1.556,1.312,0.244,60.000,63433.000,1.000
-1.740,1.363,6.435,2.917,4.473,9.271,8.661,-8.468,-0.140,0.883,-0.476,-1.343,1.099,0.366,60.000,63434.000,1.000
-5.831,-2.185,3.270,3.016,4.984,9.766,9.446,-9.328,-0.141,0.880,-0.478,-1.190,0.732,0.458,60.000,63435.000,1.000
-9.089,-4.272,0.400,3.417,5.641,10.416,9.952,-9.414,-0.142,0.881,-0.478,-0.916,0.519,0.397,60.000,63436.000,1.000
-10.262,-3.416,-1.330,4.637,7.314,11.683,10.944,-8.171,-0.144,0.883,-0.477,-0.763,0.214,0.427,60.000,63437.000,1.000
-9.359,-0.137,-1.772,6.283,9.751,13.243,12.442,-6.059,-0.145,0.884,-0.476,-0.671,0.000,0.580,60.000,63438.000,1.000
-7.329,3.591,-1.363,7.483,11.854,14.309,13.916,-4.038,-0.144,0.886,-0.476,-0.488,-0.275,0.641,60.000,63439.000,1.000
-5.119,6.018,-0.748,7.622,12.647,14.268,14.851,-2.651,-0.144,0.889,-0.476,-0.366,-0.610,0.763,60.000,63440.000,1.000
-3.493,6.468,-0.486,6.590,11.896,13.031,15.005,-1.655,-0.145,0.890,-0.476,-0.244,-0.824,0.702,60.000,63441.000,1.000
-2.509,5.426,-0.644,4.849,10.274,11.074,14.789,-0.289,-0.141,0.894,-0.479,-0.214,-1.099,0.732,60.000,63442.000,1.000
-1.958,3.488,-1.043,2.787,8.452,8.720,14.673,1.727,-0.141,0.897,-0.479,-0.183,-1.343,0.854,60.000,63443.000,1.000
-1.335,1.017,-1.405,0.541,6.672,5.992,14.769,3.739,-0.139,0.897,-0.481,-0.397,-1.465,0.885,60.000,63444.000,1.000
-0.406,-1.904,-1.666,-1.996,4.780,2.788,14.267,4.506,-0.135,0.897,-0.479,-0.427,-1.678,1.068,60.000,63445.000,1.000
-0.174,-5.749,-2.273,-5.219,2.231,-1.211,11.286,3.041,-0.132,0.897,-0.481,-0.427,-1.740,1.160,60.000,63446.000,1.000
-1.461,-10.544,-3.507,-9.117,-1.166,-6.140,4.809,-0.349,-0.131,0.896,-0.481,-0.488,-1.831,1.129,60.000,63447.000,1.000
-3.443,-14.902,-4.891,-12.781,-4.659,-11.496,-3.906,-4.044,-0.129,0.899,-0.479,-0.427,-1.831,1.099,60.000,63448.000,1.000
-3.806,-16.532,-5.302,-14.575,-6.742,-16.052,-11.933,-6.122,-0.126,0.896,-0.481,-0.488,-1.831,1.129,60.000,63449.000,1.000
-1.389,-14.475,-4.088,-13.477,-6.510,-18.770,-17.170,-5.752,-0.126,0.895,-0.481,-0.488,-1.892,1.221,60.000,63450.000,1.000
2.218,-10.200,-1.649,-9.996,-4.466,-19.483,-19.768,-3.519,-0.126,0.894,-0.481,-0.610,-1.862,1.221,60.000,63451.000,1.000
5.063,-5.708,1.451,-5.261,-1.381,-18.291,-20.544,-0.318,-0.126,0.893,-0.483,-0.549,-1.831,1.129,60.000,63452.000,1.000
6.688,-1.900,4.888,-0.203,2.468,-15.335,-19.730,3.396,-0.128,0.892,-0.484,-0.549,-1.770,0.977,60.000,63453.000,1.000
7.833,1.385,8.198,4.480,6.878,-11.230,-17.288,7.414,-0.132,0.892,-0.482,-0.397,-1.770,0.885,60.000,63454.000,1.000
8.323,4.002,10.320,7.898,10.821,-7.365,-14.113,11.154,-0.133,0.895,-0.479,-0.366,-1.678,0.732,60.000,63455.000,1.000
6.460,5.051,10.157,9.256,12.708,-5.069,-11.916,13.803,-0.132,0.893,-0.482,-0.366,-1.709,0.702,60.000,63456.000,1.000
1.796,4.459,7.769,8.867,12.038,-4.276,-11.247,15.093,-0.130,0.891,-0.485,-0.458,-1.740,0.641,60.000,63457.000,1.000
-3.616,3.581,4.314,8.029,9.954,-3.732,-11.093,15.444,-0.130,0.892,-0.482,-0.427,-1.709,0.397,60.000,63458.000,1.000
-6.619,4.230,1.233,8.110,8.348,-2.170,-9.948,15.603,-0.127,0.891,-0.481,-0.336,-1.678,0.336,60.000,63459.000,1.000
-6.251,6.612,-0.850,9.212,8.063,0.474,-7.371,15.752,-0.125,0.891,-0.482,-0.336,-1.617,0.244,60.000,63460.000,1.000
-5.119,8.548,-2.370,9.950,8.153,3.023,-4.405,15.184,-0.125,0.887,-0.480,-0.397,-1.434,0.214,60.000,63461.000,1.000
-5.825,8.045,-3.665,9.253,7.492,4.525,-2.074,13.351,-0.125,0.887,-0.482,-0.397,-1.343,0.183,60.000,63462.000,1.000
-7.836,5.638,-4.441,7.505,6.123,5.024,-0.687,10.629,-0.123,0.885,-0.486,-0.214,-1.282,0.214,60.000,63463.000,1.000
-8.012,3.882,-4.034,6.043,5.123,5.334,0.158,8.028,-0.127,0.882,-0.487,-0.153,-1.129,0.244,60.000,63464.000,1.000
-4.491,4.482,-2.175,5.592,5.211,6.132,1.040,6.145,-0.128,0.885,-0.490,0.031,-1.038,0.214,60.000,63465.000,1.000
1.049,6.669,0.630,5.558,5.834,7.341,2.131,4.736,-0.130,0.887,-0.489,0.092,-1.068,0.275,60.000,63466.000,1.000
6.270,9.022,3.758,5.189,6.222,8.677,3.636,3.448,-0.131,0.892,-0.486,0.122,-1.068,0.244,60.000,63467.000,1.000
10.881,11.156,6.854,4.465,6.416,10.088,5.734,2.281,-0.129,0.896,-0.485,0.153,-1.007,0.397,60.000,63468.000,1.000
16.126,13.400,9.686,3.800,6.911,11.551,8.327,1.379,-0.131,0.900,-0.484,0.092,-0.885,0.427,60.000,63469.000,1.000
21.655,15.076,11.565,2.933,7.264,12.368,10.507,0.362,-0.130,0.904,-0.482,-0.183,-0.885,0.549,60.000,63470.000,1.000
24.559,14.329,11.521,0.916,6.017,11.407,10.804,-1.673,-0.129,0.905,-0.483,-0.397,-0.885,0.519,60.000,63471.000,1.000
23.078,10.592,9.547,-2.374,2.648,8.566,8.972,-5.138,-0.134,0.907,-0.485,-0.671,-0.916,0.610,60.000,63472.000,1.000
19.168,5.893,6.875,-5.700,-1.480,5.219,6.523,-9.298,-0.137,0.909,-0.481,-0.916,-0.916,0.702,60.000,63473.000,1.000
17.288,3.705,5.173,-7.311,-3.984,3.337,5.720,-12.492,-0.140,0.908,-0.482,-1.099,-1.007,0.580,60.000,63474.000,1.000
19.688,5.748,5.003,-6.754,-3.656,3.718,7.383,-13.468,-0.139,0.908,-0.483,-1.190,-1.038,0.519,60.000,63475.000,1.000
23.406,9.874,5.133,-5.521,-1.771,5.151,9.754,-12.532,-0.138,0.906,-0.481,-1.556,-1.068,0.549,60.000,63476.000,1.000
23.927,12.323,4.005,-5.141,-0.444,5.832,10.627,-11.044,-0.138,0.904,-0.483,-1.801,-1.282,0.519,60.000,63477.000,1.000
20.170,11.414,1.323,-5.472,-0.336,5.100,9.561,-10.065,-0.137,0.900,-0.484,-1.892,-1.373,0.549,60.000,63478.000,1.000
15.439,8.907,-1.747,-5.018,-0.110,3.901,8.014,-9.529,-0.135,0.898,-0.480,-1.923,-1.404,0.488,60.000,63479.000,1.000
12.795,7.298,-4.102,-3.060,1.536,3.396,7.121,-9.023,-0.135,0.894,-0.489,-2.014,-1.526,0.519,60.000,63480.000,1.000
10.921,6.668,-5.825,-0.779,4.018,3.651,6.162,-8.663,-0.134,0.893,-0.484,-1.892,-1.434,0.488,60.000,63481.000,1.000
6.754,5.645,-7.308,0.381,5.894,4.216,4.257,-8.593,-0.132,0.890,-0.484,-1.923,-1.465,0.458,60.000,63482.000,1.000
-0.163,3.830,-8.423,0.307,6.574,4.860,1.884,-8.553,-0.131,0.890,-0.485,-1.953,-1.373,0.427,60.000,63483.000,1.000
-6.886,2.432,-8.702,0.043,6.610,5.596,0.422,-8.088,-0.131,0.890,-0.486,-1.953,-1.282,0.458,60.000,63484.000,1.000
-10.986,2.252,-8.341,0.117,6.289,6.107,0.070,-7.181,-0.130,0.888,-0.483,-1.862,-1.221,0.519,60.000,63485.000,1.000
-13.545,2.166,-8.302,-0.090,4.834,5.731,-0.869,-6.233,-0.129,0.893,-0.484,-1.770,-1.099,0.519,60.000,63486.000,1.000
-16.229,1.003,-8.839,-0.780,1.942,4.537,-3.413,-5.210,-0.129,0.893,-0.482,-1.740,-1.068,0.641,60.000,63487.000,1.000
-17.976,-0.488,-8.970,-0.962,-1.158,3.471,-6.216,-3.529,-0.128,0.891,-0.482,-1.495,-0.977,0.671,60.000,63488.000,1.000
-15.685,-0.254,-7.495,0.570,-2.687,3.361,-6.832,-0.845,-0.127,0.891,-0.482,-1.434,-0.916,0.641,60.000,63489.000,1.000
-8.666,2.185,-4.611,3.465,-2.479,3.671,-4.719,2.002,-0.130,0.888,-0.480,-1.343,-0.793,0.763,60.000,63490.000,1.000
-0.767,4.547,-1.919,5.769,-2.363,2.815,-2.117,3.456,-0.131,0.890,-0.482,-1.343,-0.671,0.732,60.000,63491.000,1.000
3.759,4.572,-0.555,6.145,-3.833,0.076,-1.198,3.034,-0.129,0.891,-0.480,-1.312,-0.580,0.763,60.000,63492.000,1.000
4.173,2.388,-0.280,5.004,-6.595,-3.668,-2.046,1.836,-0.130,0.894,-0.477,-1.312,-0.488,0.916,60.000,63493.000,1.000
3.383,0.302,0.058,3.954,-9.003,-6.606,-2.940,1.536,-0.131,0.894,-0.476,-1.495,-0.458,0.824,60.000,63494.000,1.000
4.560,0.666,1.386,4.384,-9.518,-7.288,-2.325,2.981,-0.128,0.895,-0.476,-1.526,-0.427,0.824,60.000,63495.000,1.000
8.034,3.932,3.645,6.424,-7.952,-5.707,-0.506,5.700,-0.130,0.896,-0.479,-1.526,-0.366,0.793,60.000,63496.000,1.000
12.155,8.848,6.164,9.219,-5.255,-3.112,1.029,8.685,-0.125,0.898,-0.478,-1.648,-0.244,0.732,60.000,63497.000,1.000
15.234,13.516,8.207,11.661,-2.618,-1.011,0.966,11.120,-0.125,0.898,-0.479,-1.678,-0.122,0.671,60.000,63498.000,1.000
17.050,16.795,9.563,13.314,-0.455,0.014,-0.644,12.656,-0.126,0.898,-0.477,-1.801,-0.122,0.732,60.000,63499.000,1.000
18.140,18.541,10.329,14.302,1.419,0.254,-2.653,13.060,-0.126,0.895,-0.481,-1.831,0.031,0.641,60.000,63500.000,1.000
18.125,18.757,10.318,14.501,2.873,0.041,-4.069,12.072,-0.126,0.893,-0.479,-1.892,0.153,0.641,60.000,63501.000,1.000
16.311,17.531,9.323,13.650,3.533,-0.325,-4.324,9.928,-0.126,0.893,-0.480,-1.831,0.244,0.641,60.000,63502.000,1.000
12.627,15.162,7.434,11.783,3.197,-0.553,-3.492,7.489,-0.124,0.892,-0.479,-1.770,0.366,0.610,60.000,63503.000,1.000
8.349,12.461,5.257,9.609,2.272,-0.342,-1.950,5.855,-0.125,0.893,-0.478,-1.740,0.519,0.641,60.000,63504.000,1.000
4.998,10.144,3.411,7.901,1.339,0.217,-0.209,5.513,-0.125,0.892,-0.475,-1.801,0.580,0.580,60.000,63505.000,1.000
2.570,7.887,1.917,6.587,0.386,0.417,0.972,5.867,-0.126,0.893,-0.475,-1.709,0.580,0.549,60.000,63506.000,1.000
0.372,5.093,0.584,5.141,-0.773,-0.275,1.375,5.849,-0.126,0.894,-0.479,-1.617,0.702,0.519,60.000,63507.000,1.000
-1.981,1.677,-0.722,3.204,-2.098,-1.800,1.310,4.606,-0.127,0.896,-0.482,-1.648,0.854,0.519,60.000,63508.000,1.000
-4.038,-1.751,-1.879,1.051,-3.242,-3.626,1.265,2.005,-0.127,0.896,-0.479,-1.587,0.946,0.610,60.000,63509.000,1.000
-5.150,-4.523,-2.618,-0.679,-3.896,-5.194,1.544,-1.351,-0.127,0.894,-0.481,-1.434,1.099,0.427,60.000,63510.000,1.000
-5.440,-6.625,-2.839,-1.713,-4.168,-6.250,2.069,-4.552,-0.127,0.895,-0.480,-1.404,1.068,0.519,60.000,63511.000,1.000
-5.226,-8.252,-2.620,-2.297,-4.388,-6.714,2.755,-6.855,-0.129,0.895,-0.479,-1.404,1.129,0.580,60.000,63512.000,1.000
-5.040,-9.738,-2.359,-3.191,-5.126,-6.876,3.168,-8.209,-0.128,0.895,-0.478,-1.282,1.099,0.549,60.000,63513.000,1.000
-5.188,-11.329,-2.425,-4.969,-6.718,-7.178,2.902,-8.940,-0.128,0.897,-0.477,-1.251,1.129,0.458,60.000,63514.000,1.000
-5.484,-12.933,-2.883,-7.568,-8.885,-7.844,2.070,-9.312,-0.130,0.898,-0.476,-1.160,1.038,0.488,60.000,63515.000,1.000
-5.794,-14.315,-3.578,-10.526,-11.051,-8.926,0.905,-9.542,-0.130,0.897,-0.476,-1.099,1.068,0.488,60.000,63516.000,1.000
-5.904,-15.130,-4.038,-13.089,-12.544,-10.304,-0.419,-9.698,-0.131,0.896,-0.475,-1.099,0.977,0.580,60.000,63517.000,1.000
-6.180,-15.600,-3.929,-14.778,-13.187,-11.959,-2.158,-9.780,-0.134,0.894,-0.475,-1.068,0.916,0.580,60.000,63518.000,1.000
-7.326,-16.466,-3.261,-15.531,-13.348,-13.787,-4.530,-9.667,-0.135,0.895,-0.475,-1.099,0.793,0.397,60.000,63519.000,1.000
-9.451,-18.086,-2.188,-15.355,-13.324,-15.255,-7.069,-9.095,-0.136,0.896,-0.477,-1.038,0.580,0.427,60.000,63520.000,1.000
-11.850,-19.994,-0.824,-14.202,-13.004,-15.604,-8.872,-7.835,-0.134,0.897,-0.476,-1.099,0.549,0.458,60.000,63521.000,1.000
-13.468,-21.308,0.684,-12.189,-12.177,-14.483,-9.116,-5.898,-0.136,0.895,-0.476,-1.007,0.366,0.397,60.000,63522.000,1.000
-14.638,-22.070,1.613,-10.180,-11.350,-12.615,-7.995,-3.825,-0.136,0.895,-0.474,-0.854,0.214,0.427,60.000,63523.000,1.000
-16.512,-22.977,1.211,-9.140,-11.185,-11.079,-6.312,-2.265,-0.136,0.894,-0.478,-0.946,0.122,0.305,60.000,63524.000,1.000
-19.036,-23.995,-0.371,-9.106,-11.427,-10.238,-4.621,-1.378,-0.138,0.895,-0.474,-0.946,0.000,0.336,60.000,63525.000,1.000
-20.685,-24.094,-2.162,-9.252,-11.036,-9.675,-3.211,-0.813,-0.138,0.898,-0.476,-0.916,-0.244,0.488,60.000,63526.000,1.000
-19.768,-22.161,-3.100,-8.654,-9.057,-8.658,-2.080,-0.069,-0.138,0.896,-0.479,-0.671,-0.519,0.427,60.000,63527.000,1.000
-16.753,-18.541,-2.890,-7.285,-5.695,-6.912,-1.376,1.018,-0.139,0.896,-0.477,-0.671,-0.641,0.488,60.000,63528.000,1.000
-13.828,-14.810,-1.896,-5.757,-2.090,-4.709,-1.214,2.380,-0.138,0.892,-0.481,-0.610,-0.793,0.336,60.000,63529.000,1.000
-12.630,-12.323,-0.685,-4.559,0.641,-2.521,-1.381,3.817,-0.136,0.888,-0.478,-0.549,-1.007,0.488,60.000,63530.000,1.000
-12.966,-11.225,0.354,-3.693,2.047,-0.693,-1.534,5.018,-0.137,0.887,-0.479,-0.488,-1.160,0.488,60.000,63531.000,1.000
-13.079,-10.466,1.316,-2.728,2.506,0.781,-1.297,5.750,-0.135,0.888,-0.479,-0.397,-1.343,0.580,60.000,63532.000,1.000
-12.316,-9.588,2.134,-1.704,2.333,1.735,-1.080,5.619,-0.131,0.890,-0.479,-0.336,-1.404,0.641,60.000,63533.000,1.000
-11.706,-9.341,2.426,-1.128,1.570,1.804,-1.751,4.345,-0.128,0.891,-0.481,-0.183,-1.526,0.702,60.000,63534.000,1.000
-11.945,-10.320,2.023,-1.136,0.623,0.963,-3.374,2.353,-0.125,0.893,-0.482,-0.061,-1.495,0.671,60.000,63535.000,1.000
-12.256,-12.019,1.147,-1.297,0.304,-0.344,-5.004,0.658,-0.124,0.894,-0.479,0.000,-1.556,0.763,60.000,63536.000,1.000
-11.175,-13.261,0.191,-1.090,1.230,-1.507,-5.520,0.070,-0.122,0.896,-0.481,0.183,-1.495,0.763,60.000,63537.000,1.000
-8.978,-13.739,-0.892,-0.722,2.923,-2.386,-5.035,0.418,-0.122,0.896,-0.479,0.244,-1.404,0.854,60.000,63538.000,1.000
-7.354,-13.965,-2.351,-0.777,4.280,-3.108,-4.484,0.971,-0.126,0.894,-0.481,0.305,-1.312,0.793,60.000,63539.000,1.000
-6.984,-14.026,-4.040,-1.366,4.813,-3.516,-4.156,1.375,-0.128,0.896,-0.479,0.214,-1.282,0.671,60.000,63540.000,1.000
-6.652,-13.154,-5.325,-1.963,5.086,-3.158,-3.314,1.990,-0.133,0.895,-0.480,0.153,-1.251,0.641,60.000,63541.000,1.000
-4.576,-10.459,-5.505,-1.867,6.059,-1.711,-1.027,3.405,-0.134,0.894,-0.479,0.031,-1.343,0.397,60.000,63542.000,1.000
-1.435,-6.658,-4.761,-1.278,7.668,0.212,2.060,5.406,-0.134,0.893,-0.476,0.000,-1.404,0.397,60.000,63543.000,1.000
0.003,-3.724,-3.972,-1.184,8.804,1.393,4.012,6.959,-0.134,0.892,-0.480,0.122,-1.465,0.214,60.000,63544.000,1.000
-1.810,-2.814,-3.749,-2.247,8.572,1.104,3.556,7.016,-0.133,0.891,-0.484,0.061,-1.495,0.031,60.000,63545.000,1.000
-5.403,-3.234,-3.950,-4.068,7.245,-0.242,1.222,5.305,-0.131,0.887,-0.485,0.122,-1.587,-0.061,60.000,63546.000,1.000
-7.643,-3.290,-4.004,-5.537,6.053,-1.346,-1.031,2.497,-0.133,0.888,-0.481,0.183,-1.587,-0.214,60.000,63547.000,1.000
-7.860,-2.582,-4.004,-6.311,5.529,-1.354,-1.945,-0.602,-0.132,0.889,-0.484,0.092,-1.648,-0.244,60.000,63548.000,1.000
-8.307,-2.127,-4.535,-6.898,5.115,-0.336,-1.672,-3.322,-0.132,0.889,-0.482,0.153,-1.587,-0.336,60.000,63549.000,1.000
-10.689,-2.555,-5.718,-7.531,4.299,1.275,-0.740,-4.976,-0.133,0.890,-0.483,0.092,-1.526,-0.397,60.000,63550.000,1.000
-13.845,-3.306,-7.012,-7.703,3.300,3.120,0.677,-5.059,-0.136,0.891,-0.484,0.122,-1.556,-0.366,60.000,63551.000,1.000
-14.698,-3.213,-7.694,-6.670,2.793,5.078,2.798,-3.533,-0.136,0.892,-0.486,0.092,-1.678,-0.244,60.000,63552.000,1.000
-12.281,-2.198,-7.700,-4.650,2.765,6.856,5.208,-1.152,-0.136,0.891,-0.485,0.061,-1.740,-0.366,60.000,63553.000,1.000
-8.571,-1.222,-7.321,-2.626,2.578,8.190,7.080,0.975,-0.135,0.895,-0.481,0.092,-1.801,-0.336,60.000,63554.000,1.000
-5.308,-0.601,-6.483,-1.140,1.997,9.258,8.246,2.181,-0.136,0.897,-0.482,0.031,-1.770,-0.275,60.000,63555.000,1.000
-1.997,0.383,-4.980,-0.039,1.306,10.345,9.119,2.357,-0.136,0.897,-0.480,-0.031,-1.892,-0.183,60.000,63556.000,1.000
2.813,2.418,-3.009,0.908,0.665,11.390,10.023,1.509,-0.135,0.899,-0.479,-0.244,-1.923,0.000,60.000,63557.000,1.000
8.148,4.740,-1.405,1.251,-0.506,11.855,10.448,-0.535,-0.132,0.898,-0.480,-0.397,-1.831,0.061,60.000,63558.000,1.000
11.059,5.843,-0.786,0.514,-2.699,11.500,9.848,-3.437,-0.130,0.897,-0.484,-0.427,-1.801,0.183,60.000,63559.000,1.000
10.431,5.424,-0.802,-0.778,-5.195,10.926,8.686,-5.855,-0.131,0.897,-0.485,-0.519,-1.648,0.153,60.000,63560.000,1.000
8.849,5.098,-0.455,-1.174,-6.200,11.151,8.145,-6.133,-0.130,0.898,-0.485,-0.610,-1.648,0.092,60.000,63561.000,1.000
10.374,7.116,0.966,0.530,-4.173,12.768,9.181,-3.688,-0.129,0.898,-0.484,-0.671,-1.617,0.214,60.000,63562.000,1.000
15.552,11.670,2.881,3.703,0.365,15.048,11.040,0.132,-0.128,0.898,-0.483,-0.916,-1.495,0.305,60.000,63563.000,1.000
20.849,16.677,4.097,6.453,5.213,16.576,11.898,3.342,-0.128,0.901,-0.486,-0.885,-1.312,0.366,60.000,63564.000,1.000
22.672,20.065,4.145,7.581,8.575,16.570,10.911,5.096,-0.127,0.901,-0.481,-1.038,-1.190,0.519,60.000,63565.000,1.000
20.493,21.468,3.536,7.432,10.248,15.305,8.962,5.892,-0.127,0.899,-0.483,-1.068,-0.916,0.519,60.000,63566.000,1.000
16.602,22.022,3.117,7.318,11.212,13.635,7.821,6.609,-0.127,0.899,-0.484,-1.099,-0.763,0.610,60.000,63567.000,1.000
12.490,22.222,2.880,7.878,11.887,11.810,7.888,7.345,-0.127,0.896,-0.482,-1.099,-0.610,0.519,60.000,63568.000,1.000
7.727,21.363,2.123,8.650,11.664,9.403,7.824,7.442,-0.126,0.894,-0.482,-1.282,-0.549,0.458,60.000,63569.000,1.000
2.012,18.999,0.538,8.946,10.003,6.233,6.301,6.310,-0.128,0.893,-0.482,-1.373,-0.366,0.519,60.000,63570.000,1.000
-3.435,15.901,-1.318,8.612,7.330,2.840,3.334,4.132,-0.129,0.891,-0.484,-1.343,-0.214,0.427,60.000,63571.000,1.000
-6.371,13.676,-2.391,8.183,4.937,0.256,0.440,1.872,-0.129,0.893,-0.483,-1.251,-0.031,0.336,60.000,63572.000,1.000
-6.209,12.955,-2.214,8.008,3.673,-0.873,-1.015,0.308,-0.132,0.891,-0.483,-1.282,0.092,0.397,60.000,63573.000,1.000
-4.407,13.040,-1.006,8.029,3.500,-0.485,-0.753,-0.341,-0.132,0.890,-0.485,-1.190,0.183,0.244,60.000,63574.000,1.000
-2.484,13.171,0.855,8.168,4.062,1.119,0.723,-0.073,-0.131,0.890,-0.487,-1.160,0.275,0.183,60.000,63575.000,1.000
-0.795,13.337,2.961,8.364,5.047,3.231,2.497,1.073,-0.134,0.890,-0.485,-1.129,0.275,0.183,60.000,63576.000,1.000
1.555,14.223,4.917,8.572,6.255,4.944,3.761,2.810,-0.134,0.887,-0.482,-1.160,0.214,0.214,60.000,63577.000,1.000
4.686,15.735,6.116,8.331,6.970,5.295,3.582,4.099,-0.134,0.887,-0.481,-1.007,0.244,0.122,60.000,63578.000,1.000
7.239,16.418,6.130,6.986,6.043,3.904,1.457,3.609,-0.137,0.885,-0.482,-1.007,0.244,0.092,60.000,63579.000,1.000
7.818,14.761,5.256,4.421,2.872,1.519,-1.890,0.866,-0.137,0.886,-0.483,-0.854,0.244,0.031,60.000,63580.000,1.000
6.465,10.806,4.425,1.401,-1.893,-0.353,-4.936,-3.176,-0.139,0.886,-0.483,-0.732,0.000,0.031,60.000,63581.000,1.000
5.228,6.571,4.667,-0.700,-6.515,-0.312,-6.238,-6.627,-0.139,0.890,-0.483,-0.793,-0.031,0.031,60.000,63582.000,1.000
6.217,4.224,6.199,-1.032,-9.446,1.875,-5.593,-7.966,-0.142,0.890,-0.480,-0.763,-0.122,0.031,60.000,63583.000,1.000
10.212,4.629,8.405,0.325,-9.957,5.312,-3.663,-6.752,-0.140,0.892,-0.479,-0.732,-0.214,0.000,60.000,63584.000,1.000
16.288,7.030,10.285,2.501,-8.262,8.622,-1.107,-3.732,-0.140,0.895,-0.482,-0.610,-0.305,0.061,60.000,63585.000,1.000
21.995,9.451,10.850,4.126,-5.594,10.459,1.308,-0.564,-0.140,0.895,-0.479,-0.702,-0.397,0.153,60.000,63586.000,1.000
25.422,10.375,9.817,4.257,-3.413,10.181,2.881,1.216,-0.140,0.896,-0.480,-0.732,-0.610,0.244,60.000,63587.000,1.000
26.236,9.642,7.586,2.795,-2.683,7.951,3.032,1.023,-0.142,0.895,-0.477,-0.793,-0.702,0.244,60.000,63588.000,1.000
25.461,8.171,4.897,0.427,-3.463,4.576,1.698,-0.648,-0.140,0.895,-0.483,-0.702,-0.824,0.336,60.000,63589.000,1.000
23.988,6.804,2.366,-1.995,-5.209,0.984,-0.778,-3.008,-0.141,0.896,-0.481,-0.671,-1.007,0.458,60.000,63590.000,1.000
21.331,5.476,0.275,-4.026,-7.324,-2.214,-4.081,-5.582,-0.140,0.895,-0.485,-0.793,-1.068,0.519,60.000,63591.000,1.000
17.070,4.042,-0.989,-5.245,-8.912,-4.425,-7.296,-7.746,-0.138,0.896,-0.484,-0.854,-1.160,0.519,60.000,63592.000,1.000
11.965,2.835,-1.027,-5.237,-8.934,-5.195,-9.060,-8.569,-0.136,0.894,-0.477,-0.854,-1.190,0.671,60.000,63593.000,1.000
8.069,2.746,0.305,-3.759,-6.617,-4.446,-8.230,-7.290,-0.135,0.892,-0.480,-0.916,-1.312,0.671,60.000,63594.000,1.000
6.802,4.140,2.423,-1.237,-2.227,-2.791,-4.994,-4.185,-0.132,0.893,-0.485,-0.763,-1.373,0.671,60.000,63595.000,1.000
6.702,5.538,3.924,0.946,2.475,-1.568,-1.533,-0.738,-0.133,0.892,-0.487,-0.824,-1.282,0.763,60.000,63596.000,1.000
5.338,5.086,3.859,1.709,5.667,-1.683,-0.074,1.665,-0.131,0.890,-0.483,-0.854,-1.312,0.854,60.000,63597.000,1.000
2.114,2.654,2.549,1.266,6.917,-2.833,-0.954,2.763,-0.131,0.891,-0.483,-0.885,-1.129,0.946,60.000,63598.000,1.000
-1.015,0.126,1.198,0.872,7.241,-3.920,-2.587,3.212,-0.133,0.891,-0.482,-0.824,-1.038,0.885,60.000,63599.000,1.000
-1.933,-0.565,0.685,1.490,7.697,-4.245,-3.390,3.500,-0.132,0.888,-0.482,-0.763,-1.007,0.763,60.000,63600.000,1.000
-1.293,0.299,0.760,2.708,8.050,-4.228,-3.623,3.420,-0.132,0.889,-0.483,-0.580,-1.160,0.732,60.000,63601.000,1.000
-1.402,0.742,0.676,3.327,7.314,-4.713,-4.525,2.736,-0.133,0.888,-0.485,-0.610,-1.068,0.793,60.000,63602.000,1.000
-3.384,-0.735,0.010,2.494,4.988,-6.131,-6.731,1.696,-0.134,0.889,-0.485,-0.519,-1.068,0.793,60.000,63603.000,1.000
-5.612,-3.481,-0.876,0.634,1.880,-8.056,-9.409,1.135,-0.131,0.890,-0.484,-0.519,-0.916,0.824,60.000,63604.000,1.000
-5.866,-5.674,-1.362,-1.064,-0.636,-9.761,-11.157,1.843,-0.132,0.892,-0.484,-0.397,-0.885,0.763,60.000,63605.000,1.000
-4.501,-6.598,-1.337,-1.954,-2.037,-11.033,-11.550,3.743,-0.131,0.891,-0.482,-0.336,-0.763,0.732,60.000,63606.000,1.000
-3.230,-6.549,-0.845,-1.941,-2.513,-11.886,-10.782,6.054,-0.132,0.893,-0.482,-0.427,-0.580,0.610,60.000,63607.000,1.000
-2.634,-5.747,0.180,-1.100,-2.242,-12.180,-9.067,7.887,-0.130,0.893,-0.486,-0.458,-0.580,0.702,60.000,63608.000,1.000
-1.421,-3.874,1.847,0.512,-1.084,-11.549,-6.487,8.759,-0.132,0.893,-0.484,-0.427,-0.580,0.671,60.000,63609.000,1.000
1.400,-0.978,3.779,2.396,0.655,-9.981,-3.666,8.419,-0.132,0.892,-0.485,-0.488,-0.519,0.641,60.000,63610.000,1.000
4.372,1.679,4.973,3.350,1.652,-8.199,-2.060,6.664,-0.133,0.894,-0.483,-0.458,-0.458,0.671,60.000,63611.000,1.000
5.680,3.036,4.963,2.708,0.997,-6.644,-2.169,3.993,-0.132,0.894,-0.483,-0.519,-0.397,0.702,60.000,63612.000,1.000
5.329,3.303,4.336,1.096,-0.762,-4.983,-2.879,1.599,-0.130,0.896,-0.481,-0.488,-0.366,0.732,60.000,63613.000,1.000
4.939,3.456,4.004,-0.199,-2.298,-2.838,-2.709,0.453,-0.130,0.894,-0.483,-0.488,-0.305,0.793,60.000,63614.000,1.000
5.438,3.752,4.050,-0.632,-3.062,-0.764,-1.529,0.447,-0.130,0.896,-0.486,-0.610,-0.244,0.854,60.000,63615.000,1.000
5.529,3.067,3.527,-0.881,-3.843,-0.092,-0.777,0.600,-0.129,0.896,-0.488,-0.610,-0.214,0.854,60.000,63616.000,1.000
3.974,0.630,1.758,-1.515,-5.348,-1.477,-1.440,0.133,-0.128,0.897,-0.488,-0.641,-0.214,0.732,60.000,63617.000,1.000
1.531,-2.667,-0.921,-2.228,-7.253,-4.309,-3.179,-1.115,-0.132,0.895,-0.486,-0.732,-0.153,0.793,60.000,63618.000,1.000
0.473,-4.804,-3.409,-2.273,-8.527,-7.172,-4.746,-2.767,-0.131,0.897,-0.487,-0.732,-0.183,0.885,60.000,63619.000,1.000
1.892,-4.662,-4.863,-1.515,-8.556,-8.837,-4.971,-4.282,-0.131,0.897,-0.486,-0.854,-0.214,0.854,60.000,63620.000,1.000
3.760,-3.437,-5.437,-0.804,-7.814,-9.004,-3.758,-5.362,-0.133,0.898,-0.485,-0.916,-0.122,0.824,60.000,63621.000,1.000
3.394,-3.063,-5.630,-0.785,-6.922,-7.926,-1.679,-5.898,-0.131,0.896,-0.481,-0.946,-0.061,0.824,60.000,63622.000,1.000
0.316,-4.150,-5.701,-1.183,-5.912,-6.033,0.428,-5.960,-0.131,0.896,-0.482,-1.160,-0.092,0.793,60.000,63623.000,1.000
-3.354,-5.564,-5.640,-1.166,-4.420,-3.828,1.893,-5.626,-0.132,0.896,-0.481,-1.160,-0.122,0.854,60.000,63624.000,1.000
-5.629,-6.159,-5.711,-0.494,-2.638,-2.117,2.227,-5.136,-0.132,0.894,-0.483,-1.282,-0.061,0.946,60.000,63625.000,1.000
-7.151,-6.337,-6.563,-0.003,-1.621,-1.807,1.045,-5.051,-0.130,0.891,-0.484,-1.465,-0.061,0.854,60.000,63626.000,1.000
-9.419,-7.061,-8.316,-0.436,-1.919,-2.932,-0.956,-5.700,-0.131,0.893,-0.486,-1.495,-0.061,0.824,60.000,63627.000,1.000
-12.714,-8.827,-10.424,-1.793,-2.998,-4.807,-2.407,-6.945,-0.132,0.889,-0.486,-1.465,0.092,0.854,60.000,63628.000,1.000
-15.599,-11.207,-12.038,-3.361,-3.702,-6.656,-2.400,-8.249,-0.131,0.889,-0.489,-1.404,0.061,0.885,60.000,63629.000,1.000
-16.604,-13.283,-12.513,-4.302,-3.149,-7.901,-1.095,-8.935,-0.129,0.888,-0.490,-1.495,0.061,0.885,60.000,63630.000,1.000
-16.469,-14.855,-11.887,-4.472,-1.550,-8.311,0.434,-8.645,-0.129,0.888,-0.490,-1.312,0.031,0.854,60.000,63631.000,1.000
-16.705,-16.062,-10.475,-4.146,0.334,-7.712,1.619,-7.442,-0.130,0.889,-0.486,-1.221,0.000,0.916,60.000,63632.000,1.000
-17.524,-16.725,-8.635,-3.580,1.911,-6.129,2.722,-5.812,-0.133,0.891,-0.484,-1.221,0.061,0.885,60.000,63633.000,1.000
-17.543,-16.385,-6.717,-2.840,3.033,-3.965,4.110,-4.394,-0.133,0.893,-0.483,-1.312,0.061,0.916,60.000,63634.000,1.000
-15.661,-14.993,-5.109,-2.057,3.703,-1.875,5.460,-3.720,-0.135,0.896,-0.483,-1.434,-0.061,0.885,60.000,63635.000,1.000
-12.786,-13.383,-4.144,-1.578,3.718,-0.385,5.706,-3.899,-0.134,0.897,-0.485,-1.587,-0.183,0.946,60.000,63636.000,1.000
-10.196,-12.059,-3.613,-1.343,3.203,0.646,4.496,-4.262,-0.135,0.901,-0.483,-1.709,-0.183,0.916,60.000,63637.000,1.000
-8.067,-10.560,-3.051,-0.990,2.621,1.687,2.557,-3.886,-0.131,0.901,-0.484,-1.770,-0.214,0.885,60.000,63638.000,1.000
-5.583,-8.077,-2.184,-0.330,2.397,2.985,1.029,-2.401,-0.127,0.899,-0.480,-1.862,-0.275,0.854,60.000,63639.000,1.000
-2.333,-4.516,-1.149,0.399,2.556,4.321,0.518,-0.410,-0.127,0.899,-0.481,-1.984,-0.244,0.854,60.000,63640.000,1.000
0.641,-0.851,-0.317,0.789,2.712,5.231,0.656,1.046,-0.125,0.898,-0.481,-2.045,-0.122,0.732,60.000,63641.000,1.000
2.312,2.019,0.439,1.027,2.773,5.692,1.140,1.690,-0.127,0.896,-0.482,-2.075,-0.153,0.732,60.000,63642.000,1.000
2.618,3.787,1.646,1.669,2.883,5.960,1.924,2.176,-0.126,0.894,-0.484,-2.075,-0.153,0.793,60.000,63643.000,1.000
2.529,4.797,3.778,3.077,3.111,6.261,2.935,3.320,-0.127,0.894,-0.480,-2.045,-0.153,0.702,60.000,63644.000,1.000
2.941,5.562,6.714,4.967,3.236,6.607,3.864,5.129,-0.128,0.892,-0.480,-2.106,-0.153,0.671,60.000,63645.000,1.000
3.290,5.943,9.514,6.374,2.775,6.694,4.035,6.674,-0.127,0.893,-0.483,-2.045,-0.122,0.610,60.000,63646.000,1.000
2.710,5.683,11.228,6.630,1.762,6.436,3.283,7.260,-0.130,0.892,-0.483,-2.045,-0.092,0.641,60.000,63647.000,1.000
1.044,4.839,11.421,5.832,0.873,6.154,2.154,7.129,-0.130,0.894,-0.480,-2.075,-0.153,0.641,60.000,63648.000,1.000
-0.957,3.827,10.225,4.657,0.926,6.338,1.566,7.096,-0.129,0.894,-0.481,-2.014,-0.122,0.549,60.000,63649.000,1.000
-2.639,2.783,7.845,3.516,1.894,6.942,1.858,7.455,-0.128,0.893,-0.480,-2.045,-0.214,0.580,60.000,63650.000,1.000
-4.664,0.909,4.236,1.991,2.450,7.072,2.074,7.495,-0.131,0.894,-0.480,-2.014,-0.214,0.702,60.000,63651.000,1.000
-7.470,-2.160,-0.131,-0.194,1.402,6.056,1.261,6.534,-0.132,0.894,-0.482,-1.984,-0.183,0.732,60.000,63652.000,1.000
-10.236,-5.435,-4.120,-2.578,-1.184,4.089,-0.630,4.744,-0.133,0.894,-0.479,-2.045,-0.214,0.824,60.000,63653.000,1.000
-11.252,-7.163,-6.417,-4.134,-3.961,2.165,-2.584,3.082,-0.133,0.894,-0.481,-2.014,-0.427,0.702,60.000,63654.000,1.000
-9.195,-6.106,-6.222,-3.941,-5.132,1.554,-2.957,2.516,-0.130,0.894,-0.482,-1.984,-0.458,0.671,60.000,63655.000,1.000
-4.469,-2.471,-3.858,-2.066,-3.824,2.807,-0.927,3.100,-0.130,0.892,-0.481,-1.984,-0.488,0.732,60.000,63656.000,1.000
1.398,2.475,-0.537,0.441,-0.602,5.228,2.705,3.976,-0.131,0.894,-0.480,-2.014,-0.549,0.824,60.000,63657.000,1.000
6.176,6.699,2.195,2.054,2.819,7.148,5.689,4.023,-0.128,0.895,-0.480,-2.014,-0.519,0.732,60.000,63658.000,1.000
8.148,8.436,3.491,1.929,4.894,7.317,6.241,2.859,-0.128,0.893,-0.477,-1.923,-0.671,0.732,60.000,63659.000,1.000
7.428,7.553,3.635,0.486,5.213,5.840,4.502,1.006,-0.129,0.892,-0.482,-1.831,-0.702,0.763,60.000,63660.000,1.000
5.361,5.321,3.314,-1.325,4.155,3.633,1.726,-0.892,-0.130,0.891,-0.482,-1.770,-0.763,0.854,60.000,63661.000,1.000
3.485,3.285,3.090,-2.690,2.473,1.725,-0.667,-2.522,-0.131,0.892,-0.482,-1.770,-0.885,0.916,60.000,63662.000,1.000
2.028,1.846,3.053,-3.449,0.682,0.585,-1.998,-4.053,-0.130,0.891,-0.479,-1.648,-0.885,0.885,60.000,63663.000,1.000
0.401,0.541,3.126,-3.780,-0.940,0.203,-2.249,-5.680,-0.132,0.891,-0.478,-1.617,-0.824,0.916,60.000,63664.000,1.000
-1.192,-0.614,3.455,-3.579,-1.924,0.525,-1.508,-7.040,-0.134,0.893,-0.478,-1.617,-0.916,0.916,60.000,63665.000,1.000
-1.852,-0.958,4.158,-2.545,-1.822,1.371,-0.160,-7.353,-0.133,0.893,-0.479,-1.556,-1.007,0.854,60.000,63666.000,1.000
-0.772,0.163,5.058,-0.533,-0.626,2.348,1.274,-6.037,-0.135,0.892,-0.479,-1.556,-1.068,0.854,60.000,63667.000,1.000
1.276,2.159,5.449,1.798,0.752,2.735,2.056,-3.390,-0.136,0.893,-0.478,-1.465,-1.221,0.824,60.000,63668.000,1.000
2.459,3.435,4.664,3.291,1.111,1.994,1.624,-0.499,-0.135,0.891,-0.479,-1.404,-1.282,0.824,60.000,63669.000,1.000
1.905,2.938,2.731,3.281,0.096,0.340,0.138,1.396,-0.136,0.891,-0.481,-1.312,-1.465,0.854,60.000,63670.000,1.000
0.289,0.894,0.285,2.053,-1.560,-1.371,-1.619,1.672,-0.136,0.890,-0.482,-1.282,-1.556,0.854,60.000,63671.000,1.000
-0.721,-1.409,-1.859,0.601,-2.610,-2.165,-2.500,0.720,-0.137,0.893,-0.482,-1.282,-1.648,0.824,60.000,63672.000,1.000
-0.722,-3.142,-3.614,-0.721,-2.786,-2.019,-2.327,-0.924,-0.137,0.894,-0.480,-1.251,-1.862,0.885,60.000,63673.000,1.000
-1.053,-4.601,-5.527,-2.512,-3.053,-1.855,-2.079,-3.095,-0.136,0.897,-0.479,-1.221,-2.106,0.793,60.000,63674.000,1.000
-2.853,-6.294,-7.807,-5.141,-4.180,-2.473,-2.547,-5.507,-0.135,0.899,-0.479,-1.221,-2.106,0.732,60.000,63675.000,1.000
-5.855,-8.222,-10.000,-8.014,-5.844,-4.012,-3.697,-7.422,-0.133,0.901,-0.480,-1.282,-2.136,0.732,60.000,63676.000,1.000
-8.533,-9.779,-11.341,-9.886,-6.968,-6.003,-4.735,-8.011,-0.131,0.901,-0.478,-1.434,-2.258,0.732,60.000,63677.000,1.000
-9.949,-10.510,-11.429,-9.945,-6.817,-7.778,-5.020,-7.013,-0.131,0.900,-0.478,-1.465,-2.289,0.641,60.000,63678.000,1.000
-10.007,-10.099,-10.027,-7.954,-5.036,-8.362,-4.105,-4.471,-0.131,0.898,-0.480,-1.617,-2.319,0.732,60.000,63679.000,1.000
-8.422,-8.138,-6.911,-4.057,-1.392,-6.722,-1.430,-0.408,-0.129,0.897,-0.482,-1.617,-2.350,0.732,60.000,63680.000,1.000
-4.836,-4.701,-2.460,0.905,3.678,-2.774,2.966,4.719,-0.127,0.899,-0.479,-1.526,-2.289,0.641,60.000,63681.000,1.000
0.694,-0.458,2.249,5.540,8.937,2.317,8.123,9.801,-0.127,0.897,-0.483,-1.495,-2.228,0.580,60.000,63682.000,1.000
6.177,3.006,5.621,8.164,12.538,6.482,12.013,13.304,-0.126,0.896,-0.482,-1.617,-2.167,0.641,60.000,63683.000,1.000
8.511,3.986,6.465,7.749,13.041,7.964,12.741,14.214,-0.125,0.895,-0.482,-1.587,-1.953,0.702,60.000,63684.000,1.000
6.573,2.310,5.004,4.848,10.609,6.556,10.340,12.783,-0.126,0.892,-0.478,-1.526,-1.831,0.671,60.000,63685.000,1.000
2.143,-0.593,2.631,1.147,6.819,3.472,6.713,10.187,-0.128,0.891,-0.478,-1.434,-1.831,0.610,60.000,63686.000,1.000
-1.938,-3.054,0.804,-1.759,3.442,0.251,4.052,7.623,-0.129,0.890,-0.477,-1.465,-1.740,0.519,60.000,63687.000,1.000
-5.325,-5.088,-0.276,-3.705,0.809,-2.603,2.596,5.355,-0.132,0.889,-0.479,-1.495,-1.648,0.519,60.000,63688.000,1.000
-10.082,-8.051,-1.426,-5.544,-2.037,-5.540,0.716,2.925,-0.134,0.887,-0.479,-1.373,-1.678,0.458,60.000,63689.000,1.000
-16.745,-12.175,-3.095,-7.496,-5.565,-8.801,-2.770,0.206,-0.134,0.888,-0.480,-1.373,-1.617,0.580,60.000,63690.000,1.000
-22.343,-15.488,-4.701,-8.539,-8.838,-11.835,-7.155,-2.144,-0.134,0.887,-0.479,-1.343,-1.587,0.488,60.000,63691.000,1.000
-22.713,-15.369,-5.112,-7.322,-10.198,-13.503,-10.300,-3.277,-0.134,0.888,-0.479,-1.190,-1.678,0.519,60.000,63692.000,1.000
-17.675,-11.700,-4.063,-3.986,-9.231,-13.210,-11.143,-3.416,-0.135,0.892,-0.480,-1.221,-1.709,0.427,60.000,63693.000,1.000
-11.449,-7.101,-2.379,-0.226,-7.217,-11.285,-10.438,-3.741,-0.134,0.898,-0.481,-1.160,-1.648,0.427,60.000,63694.000,1.000
-7.516,-3.786,-0.889,2.462,-5.510,-8.284,-8.922,-4.880,-0.135,0.903,-0.477,-1.129,-1.587,0.397,60.000,63695.000,1.000
-5.258,-1.526,0.215,3.874,-4.289,-4.615,-6.337,-6.101,-0.131,0.903,-0.477,-1.221,-1.526,0.397,60.000,63696.000,1.000
-1.697,1.202,1.107,4.607,-2.946,-0.757,-2.281,-6.218,-0.131,0.903,-0.476,-1.434,-1.404,0.427,60.000,63697.000,1.000
3.434,4.134,1.382,4.534,-1.708,2.172,1.961,-5.308,-0.129,0.905,-0.476,-1.740,-1.312,0.488,60.000,63698.000,1.000
7.171,5.217,0.470,3.014,-1.496,3.138,4.255,-4.499,-0.126,0.911,-0.476,-1.862,-1.221,0.427,60.000,63699.000,1.000
7.884,3.746,-1.073,0.426,-2.261,2.481,4.190,-4.287,-0.122,0.911,-0.479,-1.953,-0.885,0.397,60.000,63700.000,1.000
7.773,1.740,-1.564,-1.608,-2.642,1.787,3.433,-3.969,-0.119,0.911,-0.479,-2.197,-0.610,0.488,60.000,63701.000,1.000
10.735,2.144,0.465,-1.492,-1.253,2.567,4.022,-2.576,-0.113,0.909,-0.479,-2.502,-0.427,0.488,60.000,63702.000,1.000
17.342,5.576,4.696,0.652,1.549,4.730,5.968,-0.198,-0.109,0.906,-0.479,-2.625,-0.031,0.488,60.000,63703.000,1.000
24.004,9.942,9.294,3.204,3.904,6.775,7.321,2.042,-0.108,0.899,-0.480,-2.655,0.427,0.427,60.000,63704.000,1.000
26.940,12.860,12.473,4.668,4.349,7.266,6.382,2.969,-0.110,0.896,-0.482,-2.686,0.824,0.397,60.000,63705.000,1.000
25.333,13.484,13.606,4.715,3.017,5.900,3.123,2.297,-0.114,0.891,-0.482,-2.625,1.190,0.397,60.000,63706.000,1.000
21.467,12.713,13.380,4.210,1.456,3.715,-0.707,0.995,-0.118,0.891,-0.487,-2.441,1.495,0.397,60.000,63707.000,1.000
17.360,11.447,12.579,3.919,0.950,1.987,-3.304,0.332,-0.121,0.890,-0.481,-2.319,1.709,0.397,60.000,63708.000,1.000
13.202,9.731,11.426,3.876,1.650,1.416,-3.820,0.959,-0.124,0.889,-0.482,-2.136,1.770,0.305,60.000,63709.000,1.000
8.967,7.599,10.000,3.885,3.095,2.126,-2.234,2.803,-0.126,0.891,-0.479,-1.953,1.892,0.275,60.000,63710.000,1.000
5.418,5.624,8.535,3.955,4.740,3.787,0.509,5.350,-0.129,0.890,-0.479,-1.801,1.984,0.183,60.000,63711.000,1.000
3.879,4.858,7.435,4.419,6.332,5.982,3.149,7.960,-0.132,0.890,-0.479,-1.831,1.984,0.092,60.000,63712.000,1.000
4.355,5.662,6.626,5.216,7.532,8.134,4.554,9.840,-0.139,0.892,-0.477,-1.678,1.831,0.122,60.000,63713.000,1.000
5.403,7.439,5.644,5.860,7.900,9.694,4.388,10.520,-0.147,0.891,-0.477,-1.556,1.709,0.122,60.000,63714.000,1.000
5.811,9.422,4.267,6.134,7.346,10.539,3.490,10.180,-0.152,0.889,-0.477,-1.434,1.434,0.000,60.000,63715.000,1.000
5.240,10.939,2.558,6.179,6.136,10.956,3.038,9.162,-0.156,0.888,-0.477,-1.312,0.977,0.031,60.000,63716.000,1.000
4.356,11.703,0.849,6.269,4.839,11.516,3.930,7.723,-0.159,0.886,-0.476,-1.160,0.519,-0.183,60.000,63717.000,1.000
3.601,11.507,-0.635,6.171,3.677,12.397,5.948,5.919,-0.159,0.888,-0.477,-1.129,0.031,-0.183,60.000,63718.000,1.000
2.957,10.362,-1.774,5.385,2.478,13.261,7.977,3.856,-0.160,0.887,-0.477,-0.977,-0.458,-0.061,60.000,63719.000,1.000
2.572,8.756,-2.468,3.772,1.187,13.649,8.957,1.850,-0.156,0.891,-0.479,-0.854,-0.977,0.031,60.000,63720.000,1.000
2.255,6.984,-2.958,1.386,-0.218,13.034,8.131,-0.008,-0.154,0.894,-0.477,-0.854,-1.343,0.153,60.000,63721.000,1.000
1.914,5.349,-3.560,-1.451,-1.578,11.242,5.691,-1.915,-0.151,0.895,-0.476,-0.671,-1.862,0.275,60.000,63722.000,1.000
1.733,4.432,-4.381,-4.137,-2.549,8.699,2.707,-3.994,-0.149,0.895,-0.477,-0.580,-2.197,0.305,60.000,63723.000,1.000
2.203,4.928,-5.014,-5.783,-2.554,6.450,0.594,-5.724,-0.144,0.896,-0.475,-0.671,-2.441,0.488,60.000,63724.000,1.000
3.824,7.140,-4.735,-5.608,-1.026,5.625,0.370,-6.192,-0.141,0.899,-0.473,-0.763,-2.625,0.763,60.000,63725.000,1.000
6.191,10.480,-3.239,-3.757,1.794,6.436,1.738,-5.088,-0.138,0.899,-0.474,-0.732,-2.777,0.885,60.000,63726.000,1.000
8.538,13.961,-0.876,-1.276,4.828,8.042,3.479,-3.074,-0.137,0.900,-0.475,-0.854,-2.869,1.160,60.000,63727.000,1.000
9.862,16.219,1.184,0.214,6.461,8.833,3.941,-1.514,-0.133,0.903,-0.471,-0.946,-2.869,1.373,60.000,63728.000,1.000
9.384,15.848,1.573,-0.526,5.504,7.374,2.043,-1.437,-0.128,0.902,-0.476,-0.916,-2.808,1.587,60.000,63729.000,1.000
7.243,12.434,-0.171,-3.334,2.231,3.487,-1.800,-2.677,-0.127,0.901,-0.475,-1.007,-2.777,1.740,60.000,63730.000,1.000
4.149,6.967,-3.333,-6.766,-1.751,-1.681,-6.171,-4.194,-0.125,0.898,-0.475,-1.007,-2.808,1.801,60.000,63731.000,1.000
1.528,1.790,-6.373,-8.798,-4.217,-6.198,-9.177,-4.859,-0.125,0.896,-0.472,-1.038,-2.655,1.862,60.000,63732.000,1.000
0.551,-0.858,-7.977,-8.169,-3.682,-8.559,-9.512,-4.196,-0.123,0.895,-0.477,-1.068,-2.502,2.014,60.000,63733.000,1.000
1.181,-0.285,-7.734,-5.062,-0.211,-8.466,-7.205,-2.414,-0.123,0.891,-0.478,-1.099,-2.228,1.892,60.000,63734.000,1.000
1.901,2.252,-6.344,-0.937,4.656,-6.949,-3.776,-0.129,-0.121,0.890,-0.479,-1.068,-2.075,2.014,60.000,63735.000,1.000
0.087,4.143,-5.365,2.123,8.575,-5.927,-1.778,1.939,-0.120,0.890,-0.481,-1.007,-1.862,1.923,60.000,63736.000,1.000
-5.353,3.620,-5.856,3.064,10.220,-6.660,-2.589,3.699,-0.122,0.889,-0.483,-1.038,-1.678,1.709,60.000,63737.000,1.000
-12.735,0.985,-7.639,2.603,10.144,-8.891,-5.423,5.617,-0.121,0.892,-0.482,-1.038,-1.465,1.526,60.000,63738.000,1.000
-18.698,-1.859,-9.654,2.481,9.956,-11.189,-8.154,7.956,-0.120,0.893,-0.484,-0.977,-1.221,1.465,60.000,63739.000,1.000
-20.756,-3.038,-10.865,3.976,10.699,-12.001,-8.805,10.373,-0.120,0.896,-0.480,-0.824,-0.854,1.343,60.000,63740.000,1.000
-19.485,-2.479,-10.983,6.845,11.859,-10.720,-6.959,12.241,-0.121,0.896,-0.482,-0.885,-0.641,1.312,60.000,63741.000,1.000
-16.822,-1.281,-10.143,9.970,12.325,-7.746,-3.495,13.344,-0.120,0.897,-0.480,-0.916,-0.366,1.160,60.000,63742.000,1.000
-13.800,-0.262,-8.668,12.159,11.414,-4.276,-0.001,13.806,-0.121,0.897,-0.483,-0.946,-0.061,0.885,60.000,63743.000,1.000
-10.076,0.574,-6.901,12.564,9.055,-1.704,2.036,13.629,-0.117,0.897,-0.479,-1.068,0.122,0.732,60.000,63744.000,1.000
-5.438,1.177,-5.238,10.603,5.263,-1.029,1.741,12.212,-0.118,0.897,-0.481,-1.129,0.366,0.610,60.000,63745.000,1.000
-1.441,0.421,-4.207,5.833,-0.330,-2.766,-1.266,8.544,-0.119,0.896,-0.479,-1.221,0.641,0.519,60.000,63746.000,1.000
0.459,-2.552,-3.705,-1.050,-7.499,-6.492,-6.103,2.523,-0.121,0.898,-0.480,-1.221,0.885,0.366,60.000,63747.000,1.000
0.964,-6.766,-2.750,-7.857,-14.760,-10.774,-10.874,-4.543,-0.120,0.896,-0.484,-1.190,1.068,0.122,60.000,63748.000,1.000
2.684,-9.694,-0.126,-11.928,-19.946,-13.709,-13.734,-10.679,-0.121,0.897,-0.483,-1.282,1.160,0.031,60.000,63749.000,1.000
7.203,-9.604,4.385,-12.051,-21.823,-14.054,-13.833,-14.506,-0.124,0.896,-0.483,-1.251,1.373,0.031,60.000,63750.000,1.000
12.469,-7.553,9.390,-9.497,-21.252,-12.119,-11.827,-16.009,-0.126,0.897,-0.480,-1.190,1.434,0.000,60.000,63751.000,1.000
15.451,-5.687,13.237,-6.442,-19.915,-8.944,-8.662,-15.926,-0.127,0.897,-0.478,-1.129,1.648,-0.061,60.000,63752.000,1.000
15.653,-4.808,15.287,-4.191,-18.672,-5.278,-4.789,-14.956,-0.129,0.898,-0.478,-1.312,1.556,-0.031,60.000,63753.000,1.000
15.344,-4.001,15.902,-2.791,-17.263,-1.514,-0.447,-13.522,-0.132,0.897,-0.479,-1.343,1.526,-0.122,60.000,63754.000,1.000
16.291,-2.455,15.461,-1.972,-15.380,1.647,3.544,-12.176,-0.135,0.895,-0.479,-1.404,1.495,-0.122,60.000,63755.000,1.000
16.689,-1.323,13.706,-2.136,-13.737,3.042,5.501,-11.854,-0.138,0.892,-0.479,-1.495,1.434,-0.092,60.000,63756.000,1.000
13.625,-2.449,10.644,-3.627,-13.263,2.252,4.627,-13.060,-0.142,0.892,-0.482,-1.526,1.312,-0.061,60.000,63757.000,1.000
7.088,-6.135,7.113,-5.834,-13.934,0.123,2.037,-15.207,-0.143,0.891,-0.481,-1.434,1.099,0.061,60.000,63758.000,1.000
0.665,-10.531,4.322,-7.252,-14.535,-1.931,0.040,-16.881,-0.144,0.890,-0.478,-1.312,0.885,-0.061,60.000,63759.000,1.000
-2.547,-13.684,2.670,-6.874,-13.910,-3.180,0.102,-17.143,-0.144,0.895,-0.479,-1.373,0.763,0.061,60.000,63760.000,1.000
-4.174,-16.022,1.210,-5.407,-12.365,-4.107,1.276,-16.427,-0.143,0.898,-0.479,-1.343,0.458,0.214,60.000,63761.000,1.000
-7.515,-18.808,-0.737,-3.939,-10.576,-4.995,2.162,-15.439,-0.138,0.900,-0.474,-1.312,0.305,0.427,60.000,63762.000,1.000
-12.180,-21.258,-2.304,-2.329,-8.061,-4.999,3.182,-14.003,-0.134,0.906,-0.478,-1.434,0.122,0.519,60.000,63763.000,1.000
-13.863,-20.697,-1.940,0.428,-3.640,-3.167,5.918,-11.511,-0.135,0.909,-0.478,-1.556,-0.031,0.641,60.000,63764.000,1.000
-10.085,-16.121,0.313,4.139,2.348,-0.290,10.132,-8.444,-0.132,0.908,-0.478,-1.648,-0.061,0.671,60.000,63765.000,1.000
-4.550,-10.510,2.054,6.555,7.108,0.992,12.605,-6.615,-0.130,0.908,-0.476,-1.923,-0.183,0.854,60.000,63766.000,1.000
-2.674,-7.648,1.075,5.795,8.060,-1.189,10.781,-7.206,-0.130,0.909,-0.473,-1.984,-0.183,0.885,60.000,63767.000,1.000
-5.395,-8.370,-2.462,2.359,5.389,-6.331,5.728,-9.487,-0.130,0.912,-0.474,-2.167,-0.336,0.885,60.000,63768.000,1.000
-8.866,-10.619,-6.473,-1.542,1.657,-12.392,0.878,-11.468,-0.131,0.913,-0.477,-2.258,-0.305,0.885,60.000,63769.000,1.000
-9.535,-12.292,-8.974,-4.226,-0.661,-17.555,-1.638,-11.610,-0.125,0.912,-0.473,-2.472,-0.275,0.885,60.000,63770.000,1.000
-8.397,-13.473,-9.499,-5.892,-1.104,-21.281,-3.118,-9.934,-0.123,0.910,-0.471,-2.777,-0.153,0.854,60.000,63771.000,1.000
-8.316,-15.020,-8.447,-7.332,-0.412,-23.647,-5.781,-7.267,-0.119,0.905,-0.474,-3.021,0.000,0.732,60.000,63772.000,1.000
-9.807,-16.595,-6.268,-8.560,0.839,-24.681,-9.794,-4.251,-0.114,0.901,-0.475,-3.143,0.061,0.671,60.000,63773.000,1.000
-10.734,-16.891,-3.456,-8.938,2.462,-24.381,-13.401,-1.215,-0.113,0.896,-0.477,-3.113,0.336,0.519,60.000,63774.000,1.000
-9.766,-15.563,-1.021,-8.312,3.963,-23.106,-15.402,1.426,-0.110,0.895,-0.477,-2.991,0.580,0.519,60.000,63775.000,1.000
-9.071,-14.292,-0.487,-7.629,4.177,-21.661,-16.741,3.063,-0.110,0.891,-0.476,-2.991,0.854,0.427,60.000,63776.000,1.000
-11.541,-14.793,-2.504,-7.636,2.587,-20.346,-18.521,3.638,-0.112,0.889,-0.477,-2.808,1.129,0.366,60.000,63777.000,1.000
-17.370,-16.897,-6.047,-7.847,0.170,-18.672,-20.239,3.974,-0.114,0.886,-0.476,-2.563,1.251,0.366,60.000,63778.000,1.000
-23.651,-18.614,-9.078,-6.954,-1.269,-15.998,-20.309,5.284,-0.120,0.884,-0.475,-2.350,1.434,0.153,60.000,63779.000,1.000
-27.067,-17.966,-10.109,-4.225,-0.656,-12.282,-17.748,8.158,-0.127,0.884,-0.476,-2.075,1.495,0.061,60.000,63780.000,1.000
-27.290,-15.203,-9.344,-0.576,1.139,-8.349,-13.382,11.853,-0.133,0.882,-0.474,-1.892,1.434,-0.031,60.000,63781.000,1.000
-26.404,-12.388,-7.925,2.365,2.237,-4.993,-8.773,14.908,-0.136,0.882,-0.472,-1.770,1.343,-0.214,60.000,63782.000,1.000
-26.393,-11.390,-6.714,3.689,1.486,-2.196,-5.048,16.232,-0.141,0.883,-0.474,-1.648,1.190,-0.275,60.000,63783.000,1.000
-27.142,-12.146,-5.633,3.813,-0.609,0.885,-2.325,15.796,-0.138,0.884,-0.472,-1.312,1.038,-0.366,60.000,63784.000,1.000
-26.818,-12.895,-4.113,3.777,-2.598,5.032,0.134,14.239,-0.140,0.885,-0.473,-1.007,0.732,-0.458,60.000,63785.000,1.000
-24.222,-12.094,-2.105,4.069,-3.605,9.953,2.918,12.031,-0.139,0.887,-0.474,-0.824,0.519,-0.458,60.000,63786.000,1.000
-19.055,-9.036,-0.025,4.709,-3.482,14.693,6.295,9.507,-0.139,0.889,-0.475,-0.641,0.275,-0.458,60.000,63787.000,1.000
-11.838,-4.059,1.520,5.422,-2.604,18.374,9.680,6.929,-0.137,0.889,-0.471,-0.397,0.031,-0.397,60.000,63788.000,1.000
-3.787,1.449,2.073,5.767,-1.630,20.651,11.841,4.516,-0.136,0.892,-0.469,-0.427,-0.153,-0.092,60.000,63789.000,1.000
3.890,5.894,1.679,5.445,-1.088,21.758,12.321,2.511,-0.138,0.893,-0.471,-0.305,-0.336,-0.031,60.000,63790.000,1.000
10.415,8.501,0.862,4.433,-1.152,22.096,11.852,1.068,-0.136,0.896,-0.474,-0.305,-0.549,0.122,60.000,63791.000,1.000
16.129,10.025,0.637,3.228,-1.292,22.165,11.839,0.282,-0.136,0.897,-0.474,-0.244,-0.732,0.244,60.000,63792.000,1.000
21.312,11.516,1.732,2.206,-0.928,22.175,12.890,-0.076,-0.136,0.897,-0.478,-0.214,-1.099,0.366,60.000,63793.000,1.000
25.354,13.095,3.985,1.176,-0.113,21.883,14.430,-0.512,-0.136,0.898,-0.477,-0.153,-1.373,0.519,60.000,63794.000,1.000
27.828,14.540,6.779,-0.009,0.989,21.134,15.856,-1.245,-0.137,0.900,-0.477,-0.214,-1.465,0.671,60.000,63795.000,1.000
29.200,16.187,9.619,-0.923,2.795,20.192,17.152,-1.903,-0.135,0.903,-0.476,-0.122,-1.678,0.885,60.000,63796.000,1.000
30.735,19.071,12.299,-0.769,6.156,19.578,18.758,-1.802,-0.134,0.903,-0.476,-0.183,-1.862,0.885,60.000,63797.000,1.000
32.369,23.242,14.272,0.517,10.977,19.267,20.478,-0.730,-0.132,0.902,-0.478,-0.214,-2.014,0.916,60.000,63798.000,1.000
32.191,27.107,14.798,2.248,16.058,18.789,21.609,1.210,-0.131,0.901,-0.479,-0.244,-1.953,0.977,60.000,63799.000,1.000
28.897,29.163,13.769,4.004,20.492,17.979,21.907,4.203,-0.130,0.901,-0.483,-0.275,-2.075,1.160,60.000,63800.000,1.000
23.212,29.288,11.646,5.740,24.155,16.870,21.181,8.330,-0.129,0.899,-0.478,-0.275,-2.167,1.160,60.000,63801.000,1.000
17.134,28.354,8.863,7.286,27.117,15.370,19.110,12.868,-0.129,0.897,-0.479,-0.244,-2.167,1.099,60.000,63802.000,1.000
11.232,26.551,5.274,7.885,28.794,13.170,15.505,16.336,-0.130,0.897,-0.477,-0.214,-2.228,1.068,60.000,63803.000,1.000
4.485,23.409,0.805,6.987,28.475,10.431,11.076,17.715,-0.130,0.897,-0.476,-0.275,-2.258,1.038,60.000,63804.000,1.000
-3.204,19.194,-3.751,5.147,26.306,8.066,7.320,17.142,-0.127,0.897,-0.479,-0.214,-2.167,1.007,60.000,63805.000,1.000
-10.255,14.917,-7.240,3.514,23.094,6.838,5.010,15.378,-0.127,0.897,-0.479,-0.305,-2.258,0.946,60.000,63806.000,1.000
-14.407,11.711,-8.846,3.105,19.844,6.817,4.011,13.480,-0.127,0.895,-0.480,-0.275,-2.319,0.793,60.000,63807.000,1.000
-15.478,9.657,-8.875,3.848,16.853,7.140,3.485,12.223,-0.127,0.896,-0.479,-0.305,-2.289,0.702,60.000,63808.000,1.000
-15.882,7.651,-8.522,4.569,13.555,6.611,2.434,11.581,-0.123,0.896,-0.478,-0.305,-2.228,0.610,60.000,63809.000,1.000
-17.625,4.848,-8.587,4.310,9.600,4.921,0.690,11.140,-0.122,0.896,-0.477,-0.275,-2.136,0.397,60.000,63810.000,1.000
-20.031,1.682,-8.804,3.235,5.479,2.883,-1.161,10.835,-0.122,0.896,-0.478,-0.366,-2.014,0.366,60.000,63811.000,1.000
-20.053,-0.144,-8.152,2.469,2.231,1.623,-2.374,11.063,-0.121,0.897,-0.476,-0.458,-1.953,0.275,60.000,63812.000,1.000
-15.941,0.443,-6.172,2.611,0.113,1.276,-3.308,11.713,-0.120,0.898,-0.478,-0.427,-1.831,0.153,60.000,63813.000,1.000
-9.211,2.672,-3.388,3.119,-1.779,0.975,-5.231,11.912,-0.119,0.899,-0.479,-0.427,-1.587,-0.061,60.000,63814.000,1.000
-2.373,5.064,-0.476,3.218,-4.397,0.025,-8.540,10.975,-0.121,0.899,-0.478,-0.519,-1.495,-0.092,60.000,63815.000,1.000
3.408,6.693,2.248,2.620,-7.991,-1.528,-12.113,9.061,-0.121,0.899,-0.479,-0.580,-1.434,-0.183,60.000,63816.000,1.000
8.717,7.613,4.872,1.710,-11.906,-3.001,-13.978,7.047,-0.122,0.899,-0.481,-0.488,-1.343,-0.305,60.000,63817.000,1.000
13.360,7.741,7.183,0.733,-15.376,-3.878,-13.386,5.523,-0.124,0.898,-0.480,-0.580,-1.160,-0.458,60.000,63818.000,1.000
15.575,6.620,8.585,-0.471,-18.012,-4.098,-11.454,4.338,-0.123,0.895,-0.479,-0.641,-1.129,-0.519,60.000,63819.000,1.000
14.715,4.786,8.898,-1.712,-19.391,-3.630,-9.412,3.118,-0.126,0.895,-0.478,-0.519,-1.129,-0.641,60.000,63820.000,1.000
12.692,3.981,8.672,-2.232,-18.875,-2.363,-7.364,1.806,-0.127,0.895,-0.477,-0.519,-0.946,-0.702,60.000,63821.000,1.000
12.612,5.891,8.812,-1.239,-15.862,-0.092,-4.539,0.746,-0.131,0.891,-0.474,-0.519,-0.977,-0.671,60.000,63822.000,1.000
14.846,9.977,9.413,0.844,-10.900,2.978,-1.138,-0.063,-0.131,0.889,-0.479,-0.458,-0.977,-0.580,60.000,63823.000,1.000
16.275,13.517,9.609,2.473,-5.765,6.112,1.372,-1.162,-0.133,0.885,-0.480,-0.458,-1.007,-0.519,60.000,63824.000,1.000
14.405,14.481,8.822,2.605,-1.925,8.606,2.179,-2.813,-0.136,0.887,-0.481,-0.427,-1.007,-0.702,60.000,63825.000,1.000
10.117,13.100,7.295,1.413,0.267,9.977,1.910,-4.631,-0.138,0.889,-0.479,-0.275,-1.099,-0.641,60.000,63826.000,1.000
6.246,10.730,5.482,-0.401,1.032,9.922,1.665,-6.167,-0.139,0.892,-0.475,-0.244,-1.251,-0.641,60.000,63827.000,1.000
3.309,7.528,3.017,-2.863,0.033,8.074,1.176,-7.694,-0.137,0.892,-0.475,-0.275,-1.404,-0.641,60.000,63828.000,1.000
-0.975,2.625,-0.721,-6.327,-3.163,4.578,-0.636,-9.665,-0.137,0.896,-0.476,-0.244,-1.465,-0.488,60.000,63829.000,1.000
-7.493,-3.578,-5.223,-10.042,-7.527,0.807,-3.202,-11.805,-0.137,0.899,-0.476,-0.336,-1.495,-0.397,60.000,63830.000,1.000
-13.458,-8.789,-8.892,-12.199,-10.627,-1.304,-4.100,-13.395,-0.136,0.901,-0.477,-0.458,-1.617,-0.305,60.000,63831.000,1.000
-14.378,-10.376,-10.080,-11.275,-10.257,-0.476,-1.027,-13.990,-0.135,0.901,-0.476,-0.397,-1.678,-0.275,60.000,63832.000,1.000
-9.174,-8.080,-8.416,-7.688,-6.498,2.826,5.559,-13.910,-0.133,0.902,-0.472,-0.488,-1.556,-0.153,60.000,63833.000,1.000
-1.449,-4.213,-4.900,-3.485,-1.557,6.699,12.456,-13.762,-0.131,0.900,-0.475,-0.702,-1.617,-0.031,60.000,63834.000,1.000
4.991,-0.867,-0.851,-0.308,2.533,9.337,16.578,-13.588,-0.130,0.901,-0.478,-0.946,-1.617,0.031,60.000,63835.000,1.000
9.726,1.876,2.882,1.695,5.372,10.117,16.950,-12.840,-0.126,0.903,-0.476,-1.038,-1.495,0.031,60.000,63836.000,1.000
14.990,5.271,6.048,3.348,7.780,9.469,14.697,-11.005,-0.125,0.901,-0.479,-1.099,-1.373,0.092,60.000,63837.000,1.000
21.142,9.397,8.150,4.734,9.851,7.509,11.110,-8.542,-0.126,0.902,-0.478,-1.129,-1.404,0.153,60.000,63838.000,1.000
25.301,12.538,8.558,4.988,10.540,3.925,6.899,-6.604,-0.125,0.902,-0.477,-1.221,-1.282,0.092,60.000,63839.000,1.000
25.019,13.262,7.619,3.766,9.330,-0.719,2.928,-5.747,-0.126,0.900,-0.476,-1.221,-1.099,0.031,60.000,63840.000,1.000
21.011,11.893,6.598,1.848,7.132,-4.772,0.011,-5.361,-0.126,0.899,-0.479,-1.251,-0.824,0.000,60.000,63841.000,1.000
16.756,10.497,6.709,0.708,5.793,-6.427,-1.175,-4.103,-0.126,0.899,-0.479,-1.282,-0.702,0.061,60.000,63842.000,1.000
14.655,10.745,7.887,1.060,6.309,-5.190,-0.606,-1.187,-0.126,0.896,-0.478,-1.465,-0.519,-0.061,60.000,63843.000,1.000
13.629,12.056,8.728,2.027,7.694,-2.361,0.759,2.761,-0.128,0.894,-0.482,-1.465,-0.366,-0.153,60.000,63844.000,1.000
11.146,12.456,7.759,2.004,7.888,-0.006,1.586,6.172,-0.128,0.893,-0.483,-1.404,-0.244,-0.092,60.000,63845.000,1.000
6.153,10.707,4.641,0.198,5.619,0.422,0.832,7.813,-0.130,0.892,-0.479,-1.404,-0.183,-0.153,60.000,63846.000,1.000
0.244,7.604,0.513,-2.487,1.619,-1.006,-1.395,7.738,-0.130,0.893,-0.478,-1.282,-0.153,-0.153,60.000,63847.000,1.000
-5.027,4.355,-3.301,-4.692,-2.548,-3.394,-4.417,6.723,-0.132,0.893,-0.479,-1.251,-0.092,-0.244,60.000,63848.000,1.000
-9.995,1.028,-6.233,-5.870,-5.966,-5.937,-7.707,5.525,-0.134,0.890,-0.482,-1.190,-0.092,-0.275,60.000,63849.000,1.000
-15.026,-2.501,-8.048,-6.013,-8.320,-7.961,-10.529,4.762,-0.136,0.891,-0.484,-0.977,-0.122,-0.183,60.000,63850.000,1.000
-19.134,-5.571,-8.551,-5.177,-9.606,-9.004,-12.072,4.723,-0.138,0.890,-0.483,-0.885,-0.153,-0.336,60.000,63851.000,1.000
-20.456,-6.964,-7.698,-3.336,-9.933,-8.882,-11.760,5.288,-0.138,0.887,-0.481,-0.916,-0.214,-0.336,60.000,63852.000,1.000
-18.619,-6.409,-6.135,-1.005,-9.850,-7.977,-10.155,5.792,-0.140,0.887,-0.477,-0.793,-0.336,-0.275,60.000,63853.000,1.000
-15.128,-4.874,-4.881,0.788,-10.145,-6.959,-8.742,5.412,-0.140,0.888,-0.480,-0.610,-0.427,-0.183,60.000,63854.000,1.000
-11.429,-3.421,-4.460,1.331,-11.081,-6.191,-8.379,3.833,-0.142,0.889,-0.481,-0.671,-0.610,-0.092,60.000,63855.000,1.000
-8.527,-2.975,-4.875,0.416,-12.485,-5.855,-8.912,1.330,-0.141,0.891,-0.476,-0.610,-0.671,-0.031,60.000,63856.000,1.000
-6.848,-4.039,-5.720,-1.554,-13.948,-5.937,-9.525,-1.384,-0.142,0.893,-0.476,-0.610,-0.854,0.092,60.000,63857.000,1.000
-6.417,-6.522,-6.519,-3.875,-15.204,-6.355,-9.902,-3.740,-0.140,0.893,-0.478,-0.610,-0.977,0.244,60.000,63858.000,1.000
-6.562,-9.603,-6.849,-5.823,-16.097,-6.976,-10.382,-5.650,-0.138,0.894,-0.479,-0.549,-1.160,0.305,60.000,63859.000,1.000
-5.832,-11.981,-6.369,-6.824,-16.196,-7.511,-10.845,-7.269,-0.140,0.896,-0.480,-0.549,-1.221,0.427,60.000,63860.000,1.000
-3.541,-13.003,-5.210,-6.909,-15.154,-7.835,-10.686,-8.774,-0.137,0.897,-0.479,-0.610,-1.312,0.610,60.000,63861.000,1.000
0.140,-12.634,-3.736,-6.440,-12.878,-7.895,-9.234,-10.210,-0.140,0.898,-0.476,-0.671,-1.465,0.732,60.000,63862.000,1.000
4.494,-11.193,-2.331,-5.812,-9.696,-7.694,-6.612,-11.581,-0.138,0.901,-0.476,-0.763,-1.556,0.793,60.000,63863.000,1.000
8.539,-9.377,-1.242,-5.145,-6.204,-7.266,-3.690,-12.642,-0.136,0.901,-0.475,-0.793,-1.587,0.885,60.000,63864.000,1.000
11.298,-8.113,-0.567,-4.269,-2.954,-6.741,-1.230,-12.952,-0.134,0.900,-0.478,-0.916,-1.678,1.007,60.000,63865.000,1.000
11.535,-8.372,-0.593,-3.287,-0.598,-6.690,0.105,-12.570,-0.134,0.898,-0.476,-0.977,-1.709,1.038,60.000,63866.000,1.000
9.021,-10.154,-1.432,-2.408,0.572,-7.634,0.159,-12.077,-0.133,0.899,-0.476,-1.068,-1.678,1.068,60.000,63867.000,1.000
4.639,-12.729,-2.944,-1.882,0.699,-9.748,-0.893,-12.204,-0.131,0.899,-0.476,-1.129,-1.617,1.068,60.000,63868.000,1.000
-0.633,-15.715,-4.972,-1.998,0.060,-12.935,-2.943,-13.337,-0.130,0.895,-0.477,-1.190,-1.526,1.068,60.000,63869.000,1.000
-5.930,-18.930,-7.209,-2.657,-0.733,-16.568,-5.647,-14.988,-0.128,0.894,-0.480,-1.251,-1.526,1.038,60.000,63870.000,1.000
-10.735,-21.882,-9.112,-3.296,-0.786,-19.404,-8.441,-15.972,-0.126,0.892,-0.479,-1.160,-1.404,0.946,60.000,63871.000,1.000
-14.298,-23.527,-9.884,-3.052,0.789,-19.884,-10.238,-15.047,-0.128,0.890,-0.477,-1.038,-1.190,0.916,60.000,63872.000,1.000
-15.913,-23.148,-9.092,-1.445,4.170,-17.223,-9.838,-11.723,-0.127,0.892,-0.480,-1.038,-1.160,0.824,60.000,63873.000,1.000
-15.364,-20.928,-7.019,1.363,8.585,-12.049,-6.834,-6.511,-0.128,0.893,-0.482,-0.916,-0.977,0.763,60.000,63874.000,1.000
-13.152,-17.772,-4.505,4.702,12.620,-6.048,-2.341,-0.748,-0.126,0.893,-0.479,-0.946,-0.946,0.610,60.000,63875.000,1.000
-11.168,-15.390,-2.757,7.389,14.533,-1.259,1.009,3.844,-0.129,0.893,-0.480,-0.885,-0.732,0.458,60.000,63876.000,1.000
-11.129,-15.196,-2.426,8.590,13.532,1.138,1.392,6.332,-0.128,0.893,-0.480,-0.977,-0.641,0.366,60.000,63877.000,1.000
-12.874,-17.094,-3.122,8.423,10.438,1.255,-0.698,7.037,-0.129,0.893,-0.479,-0.977,-0.610,0.336,60.000,63878.000,1.000
-14.112,-19.186,-3.734,7.759,7.004,0.116,-3.205,6.959,-0.129,0.894,-0.478,-0.885,-0.549,0.244,60.000,63879.000,1.000
-12.218,-19.108,-3.251,7.398,4.557,-1.003,-4.281,6.860,-0.128,0.897,-0.476,-0.885,-0.397,0.214,60.000,63880.000,1.000
-7.342,-16.511,-1.696,7.094,2.810,-1.494,-3.920,6.631,-0.130,0.895,-0.478,-0.916,-0.244,0.000,60.000,63881.000,1.000
-1.713,-13.001,0.277,6.134,0.661,-1.466,-3.279,5.791,-0.130,0.893,-0.476,-0.916,-0.214,-0.031,60.000,63882.000,1.000
3.121,-10.134,2.215,4.380,-2.333,-1.325,-3.330,4.238,-0.130,0.893,-0.479,-0.854,-0.122,-0.092,60.000,63883.000,1.000
7.688,-7.884,4.237,2.639,-5.345,-1.255,-4.015,2.516,-0.131,0.891,-0.482,-0.793,0.061,-0.183,60.000,63884.000,1.000
13.008,-5.233,6.563,1.872,-7.196,-1.217,-4.527,1.185,-0.133,0.892,-0.482,-0.824,0.061,-0.092,60.000,63885.000,1.000
17.559,-2.368,8.645,1.830,-8.041,-1.623,-4.853,-0.093,-0.135,0.894,-0.481,-0.702,0.122,-0.031,60.000,63886.000,1.000
18.612,-0.517,9.676,1.558,-9.011,-3.024,-5.642,-2.066,-0.135,0.894,-0.476,-0.671,0.122,-0.031,60.000,63887.000,1.000
15.595,-0.165,9.478,0.671,-10.637,-5.369,-7.225,-4.883,-0.135,0.892,-0.477,-0.549,0.092,0.000,60.000,63888.000,1.000
11.144,-0.090,8.667,-0.166,-12.073,-7.720,-9.016,-7.707,-0.135,0.892,-0.477,-0.519,0.092,0.031,60.000,63889.000,1.000
8.423,1.402,7.896,-0.113,-12.044,-8.917,-9.957,-9.386,-0.136,0.892,-0.477,-0.427,0.092,0.061,60.000,63890.000,1.000
6.956,3.799,6.831,0.418,-10.729,-8.823,-9.996,-9.590,-0.137,0.894,-0.478,-0.366,0.061,0.122,60.000,63891.000,1.000
3.835,4.711,4.861,0.283,-9.535,-8.061,-9.629,-8.729,-0.138,0.894,-0.479,-0.305,0.092,0.336,60.000,63892.000,1.000
-1.687,2.905,2.319,-0.784,-9.253,-6.960,-8.660,-7.174,-0.139,0.895,-0.476,-0.275,-0.031,0.366,60.000,63893.000,1.000
-6.464,0.035,0.421,-1.581,-9.045,-5.283,-6.169,-4.916,-0.140,0.897,-0.475,-0.427,-0.153,0.488,60.000,63894.000,1.000
-7.290,-1.468,-0.258,-0.933,-7.778,-3.158,-1.981,-2.209,-0.138,0.895,-0.475,-0.488,-0.305,0.580,60.000,63895.000,1.000
-5.671,-1.600,-0.820,0.534,-5.943,-1.713,2.150,-0.090,-0.137,0.896,-0.477,-0.366,-0.214,0.732,60.000,63896.000,1.000
-5.360,-1.683,-2.482,1.481,-4.640,-1.651,4.558,0.699,-0.136,0.897,-0.477,-0.366,-0.336,0.824,60.000,63897.000,1.000
-7.175,-1.728,-4.979,1.656,-3.738,-2.160,5.603,0.607,-0.134,0.898,-0.481,-0.519,-0.458,0.946,60.000,63898.000,1.000
-8.212,-0.325,-6.874,1.953,-1.943,-1.726,7.081,0.788,-0.132,0.901,-0.480,-0.610,-0.336,1.007,60.000,63899.000,1.000
-6.071,3.120,-7.214,2.894,1.484,0.176,10.010,1.896,-0.131,0.902,-0.479,-0.610,-0.458,1.099,60.000,63900.000,1.000
-3.097,6.543,-6.777,3.427,5.380,2.291,12.967,3.354,-0.129,0.905,-0.483,-0.854,-0.366,1.129,60.000,63901.000,1.000
-3.480,7.195,-6.899,2.314,8.066,3.149,14.060,4.185,-0.128,0.904,-0.479,-0.977,-0.366,1.190,60.000,63902.000,1.000
-7.690,4.698,-7.868,-0.166,9.235,2.655,13.417,4.053,-0.126,0.903,-0.481,-1.099,-0.366,1.068,60.000,63903.000,1.000
-11.490,1.458,-8.804,-2.466,10.024,1.942,12.991,3.420,-0.128,0.901,-0.477,-1.221,-0.214,1.038,60.000,63904.000,1.000
-10.652,0.091,-8.870,-3.495,11.424,1.986,14.071,2.813,-0.127,0.901,-0.477,-1.312,-0.183,1.099,60.000,63905.000,1.000
-6.084,0.601,-8.350,-3.873,12.784,2.446,15.162,2.153,-0.127,0.900,-0.475,-1.465,-0.122,0.977,60.000,63906.000,1.000
-1.757,1.398,-7.804,-4.700,12.876,2.430,13.872,1.418,-0.129,0.897,-0.477,-1.526,-0.031,0.854,60.000,63907.000,1.000
0.345,1.845,-7.063,-6.012,11.629,1.672,9.858,1.239,-0.130,0.895,-0.479,-1.617,-0.031,0.641,60.000,63908.000,1.000
1.717,2.934,-5.366,-6.719,10.282,0.782,5.185,2.427,-0.132,0.893,-0.478,-1.556,-0.061,0.519,60.000,63909.000,1.000
4.332,5.634,-2.376,-5.876,10.016,0.616,2.146,4.932,-0.132,0.890,-0.476,-1.617,-0.061,0.366,60.000,63910.000,1.000
7.038,8.978,1.010,-3.853,10.580,1.414,0.946,7.574,-0.135,0.890,-0.474,-1.526,-0.153,0.183,60.000,63911.000,1.000
7.529,11.463,3.660,-1.412,11.145,3.105,0.771,9.349,-0.136,0.889,-0.472,-1.648,-0.244,0.031,60.000,63912.000,1.000
5.634,12.935,5.201,1.248,11.412,5.544,1.424,10.238,-0.135,0.888,-0.473,-1.556,-0.214,-0.183,60.000,63913.000,1.000
3.054,13.883,5.743,3.981,11.312,8.159,2.975,10.696,-0.136,0.887,-0.474,-1.526,-0.336,-0.275,60.000,63914.000,1.000
0.857,13.884,5.194,5.940,10.312,9.946,4.774,10.982,-0.135,0.887,-0.478,-1.434,-0.366,-0.397,60.000,63915.000,1.000
-2.083,11.534,3.179,5.863,7.497,10.083,5.523,11.104,-0.136,0.888,-0.479,-1.312,-0.366,-0.275,60.000,63916.000,1.000
-6.808,6.514,-0.049,3.570,2.855,8.909,4.959,11.279,-0.135,0.889,-0.479,-1.160,-0.519,-0.214,60.000,63917.000,1.000
-12.498,0.341,-3.605,0.196,-2.542,7.421,3.765,11.601,-0.134,0.888,-0.480,-1.068,-0.519,-0.244,60.000,63918.000,1.000
-17.060,-4.888,-6.653,-2.862,-7.530,6.152,2.329,11.623,-0.134,0.892,-0.481,-1.007,-0.610,-0.122,60.000,63919.000,1.000
-18.587,-7.862,-8.710,-4.813,-11.558,4.935,0.560,10.614,-0.132,0.895,-0.475,-0.977,-0.580,0.031,60.000,63920.000,1.000
-16.972,-8.835,-9.723,-5.876,-14.903,3.105,-2.010,8.061,-0.133,0.895,-0.476,-0.916,-0.458,0.183,60.000,63921.000,1.000
-13.113,-8.655,-9.579,-6.561,-17.797,0.370,-5.296,4.249,-0.131,0.895,-0.475,-0.946,-0.488,0.366,60.000,63922.000,1.000
-7.929,-7.882,-8.011,-7.094,-19.802,-2.629,-8.412,0.165,-0.132,0.896,-0.478,-0.885,-0.549,0.519,60.000,63923.000,1.000
-1.971,-6.546,-4.787,-7.231,-20.037,-4.679,-10.221,-2.980,-0.132,0.894,-0.479,-0.763,-0.458,0.732,60.000,63924.000,1.000
4.716,-4.161,0.042,-6.415,-17.853,-4.963,-9.948,-4.298,-0.134,0.894,-0.482,-0.763,-0.458,0.824,60.000,63925.000,1.000
11.543,-0.554,5.694,-4.501,-13.640,-3.786,-7.950,-3.767,-0.135,0.893,-0.483,-0.641,-0.549,0.824,60.000,63926.000,1.000
17.561,3.955,11.033,-1.776,-8.393,-1.911,-5.119,-2.030,-0.135,0.893,-0.481,-0.519,-0.671,0.916,60.000,63927.000,1.000
21.634,8.524,14.962,1.142,-3.158,0.092,-2.337,0.016,-0.138,0.893,-0.481,-0.427,-0.702,1.038,60.000,63928.000,1.000
22.948,12.239,16.816,3.630,1.330,2.046,-0.105,1.786,-0.136,0.895,-0.478,-0.366,-0.793,1.129,60.000,63929.000,1.000
22.110,14.945,16.832,5.630,5.090,4.190,1.945,3.389,-0.136,0.897,-0.475,-0.305,-0.793,1.251,60.000,63930.000,1.000
20.302,16.755,15.685,7.322,8.495,6.525,4.299,5.085,-0.137,0.897,-0.481,-0.397,-0.916,1.251,60.000,63931.000,1.000
18.246,17.503,13.927,8.715,11.798,8.568,7.056,6.815,-0.137,0.895,-0.479,-0.519,-0.977,1.251,60.000,63932.000,1.000
15.419,16.717,11.699,9.446,14.797,9.633,9.666,8.288,-0.135,0.893,-0.479,-0.458,-1.038,1.221,60.000,63933.000,1.000
10.947,14.486,9.208,9.420,17.283,9.591,11.512,9.618,-0.134,0.895,-0.482,-0.488,-1.129,1.282,60.000,63934.000,1.000
5.453,12.118,7.181,9.454,19.747,9.281,12.905,11.421,-0.131,0.896,-0.486,-0.336,-1.221,1.221,60.000,63935.000,1.000
0.450,10.799,6.150,10.348,22.693,9.588,14.496,13.813,-0.129,0.890,-0.482,-0.397,-1.221,1.221,60.000,63936.000,1.000
-2.950,10.461,5.937,12.000,25.773,10.671,16.535,16.003,-0.127,0.889,-0.478,-0.397,-1.190,1.282,60.000,63937.000,1.000
-5.340,9.696,5.642,13.313,27.577,11.787,18.293,16.691,-0.128,0.889,-0.482,-0.366,-1.099,1.221,60.000,63938.000,1.000
-8.426,7.031,4.333,13.139,26.594,11.891,18.401,14.999,-0.130,0.887,-0.482,-0.366,-1.038,1.160,60.000,63939.000,1.000
-12.534,2.639,2.023,11.405,22.614,10.642,16.185,11.307,-0.134,0.890,-0.484,-0.275,-1.007,1.221,60.000,63940.000,1.000
-15.952,-1.669,-0.320,9.050,16.924,8.640,12.164,7.190,-0.133,0.893,-0.483,-0.397,-1.099,1.160,60.000,63941.000,1.000
-16.081,-3.630,-1.437,7.351,11.618,7.033,7.997,4.564,-0.132,0.896,-0.483,-0.458,-1.068,1.068,60.000,63942.000,1.000
-12.459,-2.572,-1.085,6.667,7.979,6.424,5.105,4.094,-0.130,0.899,-0.483,-0.549,-1.038,1.068,60.000,63943.000,1.000
-7.510,0.131,-0.274,6.166,5.734,6.537,3.680,4.682,-0.129,0.901,-0.483,-0.671,-0.977,0.977,60.000,63944.000,1.000
-3.464,2.918,-0.005,5.057,4.071,7.034,3.460,4.769,-0.126,0.901,-0.481,-0.793,-1.068,0.885,60.000,63945.000,1.000
-0.460,5.137,-0.405,3.427,2.491,7.855,4.209,3.658,-0.125,0.903,-0.479,-0.854,-0.946,0.732,60.000,63946.000,1.000
3.132,7.130,-0.679,2.164,1.034,9.102,5.765,1.765,-0.127,0.902,-0.482,-0.977,-0.916,0.702,60.000,63947.000,1.000
8.050,9.144,-0.163,1.686,-0.446,10.445,7.199,-0.345,-0.130,0.901,-0.483,-1.038,-0.824,0.641,60.000,63948.000,1.000
12.892,10.732,1.069,1.440,-2.433,11.238,7.096,-2.432,-0.134,0.900,-0.482,-1.160,-0.885,0.519,60.000,63949.000,1.000
16.361,11.639,2.807,0.946,-4.775,11.382,5.287,-4.150,-0.137,0.900,-0.482,-1.221,-0.854,0.366,60.000,63950.000,1.000
18.812,12.135,4.926,0.323,-6.613,11.233,2.895,-5.099,-0.140,0.898,-0.481,-1.251,-0.824,0.122,60.000,63951.000,1.000
21.771,12.765,7.266,0.057,-7.109,11.137,1.303,-5.161,-0.139,0.896,-0.482,-1.190,-0.916,0.000,60.000,63952.000,1.000
25.099,13.267,9.123,0.047,-6.490,10.934,0.639,-4.885,-0.140,0.893,-0.482,-1.129,-1.068,-0.031,60.000,63953.000,1.000
26.050,12.378,9.501,-0.515,-5.935,10.131,-0.313,-5.152,-0.139,0.892,-0.483,-1.038,-1.190,-0.061,60.000,63954.000,1.000
22.653,9.610,8.277,-1.897,-6.010,8.727,-2.159,-6.184,-0.140,0.891,-0.485,-1.007,-1.221,-0.214,60.000,63955.000,1.000
16.295,6.340,6.362,-3.300,-6.011,7.289,-4.029,-7.339,-0.139,0.889,-0.479,-1.038,-1.373,-0.214,60.000,63956.000,1.000
10.816,5.029,4.875,-3.534,-4.735,6.491,-4.393,-7.738,-0.139,0.891,-0.481,-0.977,-1.465,-0.031,60.000,63957.000,1.000
7.942,6.435,3.871,-2.559,-2.252,6.269,-3.195,-7.241,-0.139,0.893,-0.480,-0.946,-1.526,-0.031,60.000,63958.000,1.000
5.395,8.531,2.418,-1.632,-0.182,5.865,-2.189,-6.523,-0.139,0.896,-0.482,-0.977,-1.526,0.031,60.000,63959.000,1.000
1.064,9.185,0.173,-1.578,0.337,5.039,-2.336,-6.175,-0.138,0.898,-0.483,-1.068,-1.495,0.092,60.000,63960.000,1.000
-3.632,8.331,-2.096,-2.048,-0.167,4.336,-2.643,-6.272,-0.135,0.899,-0.480,-1.190,-1.556,0.183,60.000,63961.000,1.000
-5.144,7.348,-3.434,-2.322,-0.386,4.265,-1.599,-6.638,-0.134,0.902,-0.475,-1.343,-1.495,0.427,60.000,63962.000,1.000
-2.774,6.508,-3.963,-2.564,-0.115,4.391,0.544,-7.425,-0.129,0.902,-0.475,-1.373,-1.434,0.519,60.000,63963.000,1.000
-0.097,4.354,-4.620,-3.558,-0.373,3.819,1.983,-8.878,-0.127,0.903,-0.474,-1.556,-1.221,0.610,60.000,63964.000,1.000
-0.259,0.215,-5.651,-5.230,-1.615,2.501,1.767,-10.619,-0.123,0.905,-0.476,-1.740,-1.099,0.702,60.000,63965.000,1.000
-2.229,-4.086,-6.147,-6.294,-2.839,1.432,0.624,-11.716,-0.121,0.904,-0.479,-1.892,-0.793,0.732,60.000,63966.000,1.000
-1.927,-5.326,-4.879,-5.191,-2.356,1.791,0.103,-11.356,-0.119,0.905,-0.476,-1.984,-0.519,0.854,60.000,63967.000,1.000
2.419,-2.232,-1.845,-1.916,0.228,3.551,0.624,-9.721,-0.119,0.903,-0.477,-2.075,-0.244,0.916,60.000,63968.000,1.000
7.915,3.201,1.587,1.640,3.373,5.365,1.041,-7.776,-0.119,0.902,-0.477,-2.106,-0.061,0.977,60.000,63969.000,1.000
10.805,8.082,4.132,3.542,5.289,5.963,0.414,-6.144,-0.117,0.901,-0.475,-2.228,0.214,0.946,60.000,63970.000,1.000
10.081,10.911,5.361,3.308,5.391,4.988,-1.181,-4.839,-0.117,0.900,-0.476,-2.289,0.519,0.977,60.000,63971.000,1.000
7.712,12.020,5.595,2.009,4.464,2.912,-2.898,-3.712,-0.115,0.897,-0.479,-2.380,0.885,0.977,60.000,63972.000,1.000
5.181,11.782,5.052,0.711,3.251,0.010,-4.408,-3.083,-0.117,0.897,-0.481,-2.441,1.160,0.793,60.000,63973.000,1.000
1.598,9.570,3.597,-0.516,1.581,-3.942,-6.301,-3.478,-0.118,0.895,-0.479,-2.533,1.373,0.732,60.000,63974.000,1.000
-3.689,5.319,1.514,-1.697,-0.639,-8.619,-8.783,-4.643,-0.119,0.894,-0.478,-2.655,1.678,0.610,60.000,63975.000,1.000
-9.290,0.482,-0.402,-2.337,-2.807,-12.811,-11.355,-5.441,-0.123,0.892,-0.478,-2.625,1.801,0.458,60.000,63976.000,1.000
-12.699,-2.828,-1.345,-1.789,-4.009,-15.164,-13.231,-4.741,-0.126,0.887,-0.476,-2.594,1.923,0.366,60.000,63977.000,1.000
-13.322,-3.985,-1.364,-0.270,-4.107,-15.399,-14.181,-2.627,-0.126,0.887,-0.473,-2.441,2.075,0.244,60.000,63978.000,1.000
-13.186,-4.424,-1.382,1.115,-3.972,-14.474,-14.624,-0.350,-0.130,0.886,-0.479,-2.258,2.136,0.031,60.000,63979.000,1.000
-14.083,-5.707,-2.169,1.573,-4.490,-13.533,-14.720,0.956,-0.129,0.886,-0.477,-2.106,2.167,0.031,60.000,63980.000,1.000
-16.025,-8.119,-3.737,1.140,-5.899,-13.207,-14.320,1.022,-0.131,0.885,-0.479,-1.923,2.228,-0.092,60.000,63981.000,1.000
-17.418,-10.513,-5.247,0.570,-7.537,-13.313,-13.031,0.432,-0.135,0.888,-0.474,-1.892,2.075,-0.153,60.000,63982.000,1.000
-16.898,-11.665,-5.818,0.413,-8.576,-13.346,-10.878,-0.064,-0.138,0.890,-0.475,-1.709,1.892,-0.214,60.000,63983.000,1.000
-14.495,-11.554,-5.232,0.404,-8.900,-13.107,-8.667,-0.268,-0.140,0.891,-0.473,-1.678,1.740,-0.214,60.000,63984.000,1.000
-11.059,-11.256,-3.947,-0.240,-9.172,-12.846,-7.245,-0.774,-0.141,0.896,-0.475,-1.617,1.526,-0.244,60.000,63985.000,1.000
-8.062,-12.323,-2.900,-2.337,-10.466,-13.113,-7.105,-2.538,-0.145,0.897,-0.476,-1.587,1.221,-0.183,60.000,63986.000,1.000
-6.242,-15.161,-2.601,-5.780,-13.078,-13.934,-7.780,-5.664,-0.143,0.899,-0.477,-1.495,1.068,-0.061,60.000,63987.000,1.000
-5.136,-18.735,-2.822,-9.597,-16.340,-14.763,-8.425,-9.179,-0.140,0.899,-0.476,-1.556,0.946,0.000,60.000,63988.000,1.000
-3.736,-21.749,-2.987,-12.745,-19.345,-15.068,-8.701,-11.888,-0.141,0.902,-0.474,-1.587,0.641,0.092,60.000,63989.000,1.000
-0.890,-23.268,-2.538,-14.475,-21.210,-14.565,-8.451,-13.120,-0.140,0.903,-0.476,-1.648,0.366,0.183,60.000,63990.000,1.000
3.482,-23.093,-1.506,-14.719,-21.525,-13.553,-7.762,-13.103,-0.140,0.905,-0.472,-1.770,0.183,0.275,60.000,63991.000,1.000
8.514,-21.413,-0.320,-13.926,-20.487,-12.744,-6.778,-12.479,-0.140,0.907,-0.472,-1.770,0.000,0.427,60.000,63992.000,1.000
12.810,-18.881,0.546,-12.814,-18.852,-12.905,-5.766,-11.760,-0.142,0.903,-0.474,-1.892,-0.305,0.488,60.000,63993.000,1.000
15.032,-16.675,0.845,-11.947,-17.414,-14.339,-5.093,-11.124,-0.141,0.902,-0.471,-1.892,-0.488,0.519,60.000,63994.000,1.000
14.934,-15.583,0.655,-11.293,-16.251,-16.541,-4.812,-10.519,-0.139,0.903,-0.470,-2.014,-0.580,0.549,60.000,63995.000,1.000
12.766,-15.641,-0.059,-10.683,-14.991,-18.730,-5.011,-9.990,-0.138,0.902,-0.472,-2.014,-0.824,0.641,60.000,63996.000,1.000
9.204,-16.033,-1.222,-9.894,-13.033,-20.031,-5.428,-9.435,-0.136,0.902,-0.472,-2.014,-1.099,0.793,60.000,63997.000,1.000
5.086,-15.896,-2.523,-8.716,-9.940,-19.761,-5.471,-8.552,-0.136,0.902,-0.479,-2.014,-1.160,0.763,60.000,63998.000,1.000
1.014,-15.137,-3.550,-7.006,-5.733,-17.839,-4.755,-6.992,-0.134,0.899,-0.478,-2.045,-1.160,0.854,60.000,63999.000,1.000
-2.536,-14.152,-3.945,-4.615,-0.728,-14.766,-3.227,-4.520,-0.134,0.899,-0.477,-1.984,-1.312,0.854,60.000,64000.000,1.000
-6.157,-13.773,-3.992,-1.895,4.194,-11.651,-1.794,-1.470,-0.132,0.898,-0.476,-1.862,-1.343,0.916,60.000,64001.000,1.000
-10.783,-14.527,-4.363,0.493,7.982,-9.589,-1.693,1.397,-0.133,0.895,-0.475,-1.801,-1.434,1.038,60.000,64002.000,1.000
-16.440,-16.063,-5.494,2.036,10.005,-9.047,-3.303,3.460,-0.129,0.893,-0.477,-1.648,-1.404,0.885,60.000,64003.000,1.000
-22.095,-17.539,-7.237,2.591,10.238,-9.742,-5.760,4.761,-0.124,0.889,-0.479,-1.617,-1.282,0.824,60.000,64004.000,1.000
-26.375,-18.307,-8.929,2.413,9.196,-10.835,-7.569,5.899,-0.121,0.889,-0.479,-1.373,-1.190,0.854,60.000,64005.000,1.000
-29.065,-18.530,-10.023,1.770,7.502,-11.513,-8.128,7.116,-0.121,0.891,-0.479,-1.190,-1.160,0.916,60.000,64006.000,1.000
-30.488,-18.445,-10.157,1.096,5.963,-11.107,-7.682,8.078,-0.121,0.891,-0.477,-1.007,-0.977,0.885,60.000,64007.000,1.000
-30.692,-17.948,-9.277,0.789,5.279,-9.432,-6.724,8.324,-0.120,0.891,-0.474,-0.916,-0.885,0.793,60.000,64008.000,1.000
-29.367,-16.802,-7.695,0.909,5.645,-6.980,-5.596,7.807,-0.121,0.891,-0.479,-0.793,-0.549,0.702,60.000,64009.000,1.000
-25.913,-14.649,-5.745,1.326,6.830,-4.395,-4.159,7.080,-0.123,0.890,-0.476,-0.793,-0.519,0.702,60.000,64010.000,1.000
-20.840,-11.687,-3.787,1.588,8.018,-2.223,-2.429,6.809,-0.128,0.892,-0.478,-0.671,-0.366,0.519,60.000,64011.000,1.000
-15.545,-8.674,-1.985,1.298,8.293,-0.671,-0.591,7.361,-0.134,0.893,-0.478,-0.549,-0.336,0.366,60.000,64012.000,1.000
-11.199,-6.495,-0.367,0.384,7.153,0.235,0.998,8.437,-0.138,0.894,-0.479,-0.397,-0.275,0.153,60.000,64013.000,1.000
-7.895,-5.456,1.031,-0.869,4.731,0.548,1.965,9.140,-0.137,0.895,-0.476,-0.305,-0.305,0.000,60.000,64014.000,1.000
-4.710,-4.795,2.207,-1.939,1.832,0.672,2.592,8.630,-0.135,0.899,-0.475,-0.336,-0.458,-0.061,60.000,64015.000,1.000
-1.750,-3.850,2.939,-2.737,-0.858,1.062,3.269,6.683,-0.132,0.899,-0.473,-0.397,-0.641,-0.214,60.000,64016.000,1.000
0.062,-2.511,3.235,-3.307,-2.873,2.096,4.155,4.135,-0.130,0.901,-0.475,-0.397,-0.641,-0.214,60.000,64017.000,1.000
0.768,-0.724,3.574,-3.293,-3.628,3.975,5.163,2.381,-0.126,0.900,-0.477,-0.488,-0.366,-0.214,60.000,64018.000,1.000
1.865,1.806,4.407,-2.178,-2.568,6.573,6.133,2.306,-0.124,0.899,-0.479,-0.427,-0.336,-0.275,60.000,64019.000,1.000
4.493,4.969,5.467,-0.156,0.018,9.152,6.833,3.582,-0.124,0.896,-0.478,-0.519,-0.366,-0.305,60.000,64020.000,1.000
6.537,6.900,5.433,1.132,2.183,10.131,6.231,4.665,-0.124,0.895,-0.479,-0.519,-0.244,-0.336,60.000,64021.000,1.000
4.695,5.497,3.266,0.070,1.886,8.535,3.684,4.195,-0.126,0.892,-0.479,-0.366,-0.122,-0.214,60.000,64022.000,1.000
-0.976,1.320,-0.398,-2.948,-0.702,5.513,0.485,2.389,-0.128,0.890,-0.478,-0.244,-0.061,-0.244,60.000,64023.000,1.000
-6.179,-2.081,-3.505,-5.576,-3.030,3.756,-0.712,0.828,-0.133,0.889,-0.478,-0.122,-0.031,-0.092,60.000,64024.000,1.000
-6.424,-1.177,-4.340,-5.687,-2.513,5.188,1.856,0.800,-0.135,0.888,-0.476,-0.031,-0.122,-0.031,60.000,64025.000,1.000
-2.531,3.596,-3.270,-3.710,0.607,9.027,6.861,1.846,-0.139,0.887,-0.478,0.092,-0.122,0.031,60.000,64026.000,1.000
0.478,8.287,-2.010,-1.846,3.724,12.818,11.257,2.422,-0.144,0.886,-0.478,0.183,-0.275,0.000,60.000,64027.000,1.000
-0.464,9.760,-1.630,-1.417,4.820,14.873,13.301,1.564,-0.146,0.886,-0.476,0.275,-0.305,0.092,60.000,64028.000,1.000
-3.104,8.684,-1.734,-1.602,4.331,15.405,13.684,-0.189,-0.145,0.890,-0.480,0.305,-0.519,0.183,60.000,64029.000,1.000
-3.433,7.695,-1.513,-0.862,3.964,15.520,13.907,-1.523,-0.143,0.894,-0.479,0.305,-0.732,0.275,60.000,64030.000,1.000
-1.808,7.310,-1.238,0.751,4.165,15.471,13.773,-1.953,-0.140,0.895,-0.476,0.397,-0.916,0.458,60.000,64031.000,1.000
-1.440,6.310,-1.520,2.166,4.411,15.040,12.592,-1.803,-0.137,0.900,-0.479,0.519,-1.038,0.519,60.000,64032.000,1.000
-2.517,4.911,-1.981,3.219,5.075,14.727,11.644,-1.094,-0.133,0.902,-0.481,0.427,-1.129,0.763,60.000,64033.000,1.000
-1.131,5.299,-1.505,4.906,7.480,15.450,13.470,0.611,-0.131,0.906,-0.480,0.244,-1.068,0.732,60.000,64034.000,1.000
5.589,8.774,0.221,7.715,11.913,17.077,18.508,3.157,-0.129,0.908,-0.480,0.061,-1.038,0.885,60.000,64035.000,1.000
14.471,13.115,1.738,10.165,16.117,17.786,23.150,5.235,-0.131,0.912,-0.479,-0.214,-0.977,1.038,60.000,64036.000,1.000
19.825,14.959,1.537,10.415,17.352,16.042,23.272,5.826,-0.130,0.916,-0.478,-0.427,-0.916,1.038,60.000,64037.000,1.000
20.153,13.719,-0.065,8.550,15.255,12.349,18.547,5.406,-0.127,0.920,-0.476,-0.793,-0.916,1.068,60.000,64038.000,1.000
19.129,11.891,-1.403,6.447,11.903,8.576,12.328,5.277,-0.126,0.917,-0.476,-1.099,-0.885,0.977,60.000,64039.000,1.000
20.612,11.981,-1.424,5.543,9.444,6.052,8.016,6.012,-0.123,0.916,-0.474,-1.434,-0.671,0.946,60.000,64040.000,1.000
23.375,13.372,-1.001,4.988,7.804,4.309,5.619,6.705,-0.120,0.914,-0.477,-1.678,-0.549,0.916,60.000,64041.000,1.000
23.250,13.567,-1.481,3.156,5.666,2.239,3.030,6.284,-0.115,0.911,-0.479,-1.801,-0.305,0.824,60.000,64042.000,1.000
18.781,11.696,-2.724,0.108,2.883,-0.175,-0.616,4.996,-0.113,0.907,-0.479,-2.075,-0.092,0.671,60.000,64043.000,1.000
12.899,9.683,-3.077,-2.129,1.072,-1.634,-3.919,4.303,-0.115,0.903,-0.480,-2.136,0.061,0.519,60.000,64044.000,1.000
9.450,10.051,-1.035,-1.525,1.872,-0.849,-5.066,5.432,-0.118,0.901,-0.476,-2.228,0.366,0.427,60.000,64045.000,1.000
8.434,12.693,2.974,1.747,4.730,1.845,-4.427,8.096,-0.120,0.900,-0.478,-2.289,0.488,0.397,60.000,64046.000,1.000
6.930,15.252,7.057,5.789,7.466,4.924,-3.808,11.073,-0.121,0.895,-0.477,-2.289,0.916,0.275,60.000,64047.000,1.000
3.036,15.775,9.406,8.808,8.333,7.101,-4.323,13.393,-0.123,0.892,-0.478,-2.228,1.068,0.122,60.000,64048.000,1.000
-2.376,14.287,9.383,10.139,7.096,8.073,-5.668,14.706,-0.122,0.890,-0.478,-2.075,1.190,0.061,60.000,64049.000,1.000
-6.836,12.311,7.686,10.209,4.746,8.387,-6.637,14.970,-0.125,0.888,-0.477,-1.892,1.312,-0.122,60.000,64050.000,1.000
-9.120,10.971,5.448,9.669,2.242,8.614,-6.495,14.049,-0.126,0.887,-0.476,-1.862,1.434,-0.122,60.000,64051.000,1.000
-9.450,10.550,3.572,9.097,0.062,9.065,-5.206,11.919,-0.128,0.887,-0.476,-1.556,1.556,-0.214,60.000,64052.000,1.000
-8.823,10.514,2.130,8.573,-2.015,9.533,-3.508,8.562,-0.129,0.886,-0.473,-1.373,1.556,-0.214,60.000,64053.000,1.000
-8.453,9.789,0.534,7.656,-4.623,9.504,-2.549,4.035,-0.132,0.885,-0.475,-1.221,1.526,-0.122,60.000,64054.000,1.000
-8.421,8.059,-1.300,6.303,-7.618,9.152,-2.336,-0.854,-0.135,0.883,-0.476,-1.007,1.404,-0.183,60.000,64055.000,1.000
-8.001,5.938,-2.777,4.918,-10.033,9.237,-1.713,-4.780,-0.136,0.883,-0.475,-0.763,1.251,-0.183,60.000,64056.000,1.000
-6.257,4.470,-3.078,3.998,-10.866,10.359,0.573,-6.725,-0.137,0.881,-0.473,-0.519,1.221,0.031,60.000,64057.000,1.000
-2.968,4.262,-1.792,3.645,-10.019,12.304,4.422,-6.645,-0.136,0.883,-0.473,-0.214,1.190,0.153,60.000,64058.000,1.000
1.010,4.985,0.763,3.438,-8.492,14.099,8.153,-5.413,-0.136,0.889,-0.473,0.122,0.885,0.183,60.000,64059.000,1.000
5.113,6.160,3.815,3.031,-7.363,14.813,10.291,-4.122,-0.136,0.891,-0.476,0.244,0.824,0.275,60.000,64060.000,1.000
9.306,7.526,6.341,2.354,-7.051,14.006,10.578,-3.604,-0.136,0.889,-0.475,0.427,0.702,0.397,60.000,64061.000,1.000
13.763,9.143,7.666,1.711,-7.083,11.999,9.919,-4.089,-0.137,0.891,-0.478,0.580,0.427,0.549,60.000,64062.000,1.000
17.807,10.914,7.646,1.333,-6.839,9.442,9.182,-5.358,-0.137,0.893,-0.479,0.549,0.305,0.671,60.000,64063.000,1.000
19.815,12.328,6.536,1.017,-6.249,6.787,8.502,-6.945,-0.137,0.890,-0.478,0.671,0.031,0.854,60.000,64064.000,1.000
19.248,13.196,5.063,0.556,-5.295,4.402,7.997,-8.134,-0.139,0.890,-0.480,0.763,-0.122,0.946,60.000,64065.000,1.000
17.207,13.658,3.953,-0.129,-3.779,2.412,7.653,-8.429,-0.138,0.891,-0.480,0.946,-0.275,1.038,60.000,64066.000,1.000
15.595,13.936,3.530,-0.943,-1.437,0.628,7.207,-7.870,-0.140,0.891,-0.481,1.007,-0.488,1.129,60.000,64067.000,1.000
14.926,13.712,3.353,-1.976,1.469,-1.440,6.185,-7.018,-0.139,0.892,-0.480,1.068,-0.793,1.129,60.000,64068.000,1.000
13.542,12.090,2.550,-3.436,4.138,-4.100,4.235,-6.372,-0.140,0.891,-0.481,1.068,-1.038,1.129,60.000,64069.000,1.000
10.148,8.861,0.816,-4.950,6.161,-6.892,1.749,-5.744,-0.140,0.892,-0.484,1.160,-1.129,1.251,60.000,64070.000,1.000
5.324,4.844,-1.570,-5.876,7.618,-9.157,-0.722,-4.702,-0.141,0.893,-0.485,1.129,-1.465,1.282,60.000,64071.000,1.000
1.030,1.328,-4.097,-5.873,8.765,-10.603,-2.679,-3.125,-0.140,0.893,-0.484,1.251,-1.709,1.251,60.000,64072.000,1.000
-1.909,-1.170,-6.560,-5.355,9.509,-11.550,-3.910,-1.408,-0.139,0.892,-0.482,1.343,-1.892,1.190,60.000,64073.000,1.000
-5.022,-3.378,-9.156,-5.218,9.333,-12.690,-4.808,-0.092,-0.138,0.896,-0.483,1.251,-2.106,1.160,60.000,64074.000,1.000
-9.598,-5.898,-11.803,-5.783,8.086,-14.311,-5.913,0.734,-0.137,0.896,-0.483,1.129,-2.411,1.129,60.000,64075.000,1.000
-14.547,-8.235,-13.853,-6.459,6.298,-16.033,-7.590,1.390,-0.136,0.896,-0.483,1.007,-2.533,1.068,60.000,64076.000,1.000
-16.663,-8.856,-14.309,-6.093,5.072,-16.933,-9.358,2.449,-0.134,0.898,-0.487,0.916,-2.686,0.946,60.000,64077.000,1.000
-14.329,-7.072,-12.914,-4.294,4.980,-16.534,-10.533,4.115,-0.130,0.900,-0.485,0.793,-2.808,0.885,60.000,64078.000,1.000
-10.083,-4.455,-10.696,-2.174,5.165,-15.469,-11.343,5.741,-0.128,0.903,-0.487,0.610,-2.808,0.732,60.000,64079.000,1.000
-7.420,-3.019,-8.760,-1.021,4.383,-14.562,-12.159,6.590,-0.128,0.904,-0.485,0.458,-2.747,0.702,60.000,64080.000,1.000
-6.745,-2.928,-7.171,-0.833,2.457,-13.827,-12.561,6.870,-0.127,0.904,-0.483,0.214,-2.777,0.641,60.000,64081.000,1.000
-5.038,-2.427,-4.987,-0.272,0.672,-12.440,-11.428,7.702,-0.126,0.906,-0.485,0.153,-2.808,0.610,60.000,64082.000,1.000
-0.419,-0.552,-1.819,1.357,0.032,-10.126,-8.894,9.406,-0.123,0.905,-0.484,-0.122,-2.655,0.458,60.000,64083.000,1.000
4.863,1.364,1.346,2.920,-0.173,-7.877,-7.179,10.610,-0.122,0.904,-0.489,-0.397,-2.472,0.366,60.000,64084.000,1.000
7.712,1.740,3.451,3.010,-1.169,-6.649,-8.010,9.727,-0.121,0.900,-0.485,-0.702,-2.258,0.305,60.000,64085.000,1.000
7.746,0.497,4.466,1.478,-3.236,-6.398,-10.668,6.497,-0.121,0.898,-0.482,-0.824,-2.197,0.244,60.000,64086.000,1.000
7.463,-1.014,5.275,-0.545,-5.501,-6.272,-12.658,2.147,-0.124,0.897,-0.483,-1.007,-1.984,0.031,60.000,64087.000,1.000
8.525,-1.870,6.331,-2.173,-7.267,-5.750,-12.629,-1.904,-0.124,0.896,-0.484,-1.038,-1.831,-0.092,60.000,64088.000,1.000
9.252,-2.759,7.032,-3.638,-8.841,-5.128,-11.740,-5.039,-0.123,0.895,-0.485,-1.068,-1.587,-0.153,60.000,64089.000,1.000
7.537,-4.371,6.869,-5.184,-10.440,-4.577,-11.295,-6.987,-0.125,0.894,-0.485,-1.160,-1.556,-0.214,60.000,64090.000,1.000
3.880,-6.059,6.127,-6.300,-11.449,-3.740,-10.942,-7.458,-0.126,0.891,-0.484,-1.251,-1.343,-0.275,60.000,64091.000,1.000
1.094,-6.322,5.589,-6.067,-10.856,-2.087,-9.277,-6.386,-0.129,0.891,-0.481,-1.282,-1.190,-0.305,60.000,64092.000,1.000
0.487,-4.962,5.488,-4.424,-8.656,0.245,-6.231,-4.517,-0.131,0.890,-0.480,-1.343,-1.190,-0.336,60.000,64093.000,1.000
-0.234,-3.968,5.158,-2.551,-6.341,2.323,-3.729,-3.283,-0.132,0.888,-0.484,-1.343,-1.129,-0.275,60.000,64094.000,1.000
-3.479,-5.158,4.099,-1.453,-5.243,3.574,-2.937,-3.670,-0.135,0.889,-0.484,-1.282,-1.068,-0.214,60.000,64095.000,1.000
-8.459,-8.114,2.567,-0.992,-5.199,4.382,-2.635,-5.444,-0.135,0.891,-0.482,-1.373,-1.068,-0.275,60.000,64096.000,1.000
-11.617,-10.539,1.268,-0.235,-4.921,5.569,-0.609,-7.485,-0.134,0.890,-0.481,-1.434,-1.007,-0.153,60.000,64097.000,1.000
-10.966,-11.049,0.302,0.977,-3.936,7.054,3.254,-9.235,-0.134,0.893,-0.481,-1.495,-0.916,-0.122,60.000,64098.000,1.000
-8.561,-10.812,-1.016,1.489,-3.420,7.651,6.397,-11.172,-0.132,0.895,-0.481,-1.587,-0.732,-0.092,60.000,64099.000,1.000
-7.048,-11.359,-2.838,0.539,-4.318,6.687,6.894,-13.558,-0.132,0.898,-0.483,-1.770,-0.702,0.031,60.000,64100.000,1.000
-6.427,-12.455,-4.303,-1.144,-5.908,4.810,5.468,-15.716,-0.130,0.898,-0.479,-1.984,-0.641,0.275,60.000,64101.000,1.000
-4.297,-12.259,-4.172,-1.910,-6.329,3.404,4.688,-16.489,-0.129,0.900,-0.481,-1.923,-0.488,0.336,60.000,64102.000,1.000
0.840,-9.414,-2.035,-0.887,-4.423,3.275,6.385,-15.256,-0.127,0.903,-0.477,-1.923,-0.519,0.397,60.000,64103.000,1.000
7.497,-4.552,1.249,1.220,-0.710,4.004,10.081,-12.345,-0.128,0.903,-0.478,-2.075,-0.488,0.458,60.000,64104.000,1.000
13.148,0.530,4.483,3.171,3.485,4.641,14.075,-8.618,-0.128,0.904,-0.478,-2.258,-0.305,0.580,60.000,64105.000,1.000
16.322,4.169,6.854,4.163,6.937,4.427,16.652,-5.107,-0.125,0.907,-0.481,-2.411,-0.153,0.610,60.000,64106.000,1.000
17.555,6.021,8.275,4.269,9.096,3.311,17.121,-2.557,-0.125,0.906,-0.480,-2.502,0.122,0.702,60.000,64107.000,1.000
17.934,6.671,9.014,3.918,9.845,1.745,15.910,-1.260,-0.124,0.906,-0.478,-2.563,0.214,0.702,60.000,64108.000,1.000
17.416,6.464,9.286,3.389,9.149,0.208,13.937,-1.039,-0.125,0.900,-0.478,-2.686,0.397,0.824,60.000,64109.000,1.000
15.712,5.582,9.324,2.988,7.294,-0.963,11.981,-1.270,-0.128,0.899,-0.480,-2.838,0.580,0.854,60.000,64110.000,1.000
12.803,4.158,9.129,2.816,4.711,-1.906,9.651,-1.323,-0.128,0.897,-0.480,-2.838,0.732,0.702,60.000,64111.000,1.000
9.327,2.644,8.717,2.978,2.156,-2.767,6.243,-0.643,-0.129,0.895,-0.478,-2.777,0.732,0.763,60.000,64112.000,1.000
6.040,1.581,8.218,3.729,0.542,-3.385,2.060,1.131,-0.131,0.894,-0.476,-2.716,0.732,0.702,60.000,64113.000,1.000
3.097,1.035,7.616,5.235,0.252,-3.658,-1.772,3.813,-0.130,0.893,-0.477,-2.625,0.732,0.671,60.000,64114.000,1.000
0.666,0.982,6.946,7.589,1.137,-3.564,-4.117,6.727,-0.134,0.891,-0.478,-2.533,0.732,0.671,60.000,64115.000,1.000
-1.435,1.246,6.281,10.484,2.525,-3.221,-5.073,9.063,-0.134,0.891,-0.479,-2.502,0.824,0.671,60.000,64116.000,1.000
-3.614,1.529,5.685,13.177,3.510,-2.859,-5.729,10.340,-0.136,0.889,-0.476,-2.350,0.763,0.641,60.000,64117.000,1.000
-6.139,1.422,4.922,14.600,3.251,-2.976,-7.174,10.289,-0.137,0.888,-0.477,-2.258,0.641,0.549,60.000,64118.000,1.000
-8.735,0.639,3.685,14.031,1.485,-4.028,-9.597,8.976,-0.135,0.887,-0.480,-2.106,0.580,0.519,60.000,64119.000,1.000
-9.918,-0.235,2.411,12.081,-0.784,-5.524,-11.659,7.305,-0.139,0.887,-0.475,-1.892,0.427,0.458,60.000,64120.000,1.000
-8.672,-0.497,1.849,10.028,-2.221,-6.417,-11.869,6.320,-0.142,0.888,-0.476,-1.892,0.244,0.458,60.000,64121.000,1.000
-5.815,-0.444,2.158,8.550,-2.558,-6.193,-10.073,6.069,-0.142,0.889,-0.479,-1.648,0.061,0.427,60.000,64122.000,1.000
-3.491,-1.392,2.659,7.261,-2.860,-5.353,-7.761,5.532,-0.142,0.892,-0.478,-1.617,-0.122,0.488,60.000,64123.000,1.000
-3.074,-4.224,2.663,5.535,-4.288,-4.684,-6.750,3.896,-0.143,0.891,-0.475,-1.465,-0.305,0.519,60.000,64124.000,1.000
-3.680,-8.119,2.303,3.446,-6.822,-4.386,-7.382,1.446,-0.141,0.893,-0.475,-1.343,-0.488,0.488,60.000,64125.000,1.000
-4.206,-11.760,1.895,1.276,-9.802,-4.493,-8.995,-1.122,-0.138,0.896,-0.471,-1.343,-0.732,0.519,60.000,64126.000,1.000
-4.277,-14.179,1.627,-0.629,-12.328,-4.882,-10.550,-3.155,-0.138,0.896,-0.471,-1.343,-0.824,0.641,60.000,64127.000,1.000
-3.347,-14.515,1.733,-1.749,-13.325,-4.945,-10.975,-4.074,-0.137,0.898,-0.470,-1.190,-0.885,0.610,60.000,64128.000,1.000
-0.477,-12.185,2.337,-1.795,-12.163,-4.028,-9.980,-3.646,-0.137,0.899,-0.473,-1.251,-1.068,0.580,60.000,64129.000,1.000
4.889,-7.379,3.175,-1.100,-9.200,-2.221,-8.201,-2.233,-0.134,0.900,-0.475,-1.221,-1.129,0.641,60.000,64130.000,1.000
11.049,-1.817,3.331,-0.820,-5.967,-0.737,-6.900,-0.877,-0.133,0.900,-0.474,-1.373,-1.129,0.763,60.000,64131.000,1.000
14.964,2.164,2.072,-1.968,-3.992,-0.795,-6.707,-0.596,-0.131,0.901,-0.475,-1.373,-1.099,0.763,60.000,64132.000,1.000
14.876,3.244,-0.394,-4.536,-3.626,-2.552,-7.215,-1.721,-0.132,0.900,-0.473,-1.373,-1.221,0.824,60.000,64133.000,1.000
11.555,1.842,-3.132,-7.611,-4.034,-5.162,-7.656,-3.742,-0.132,0.897,-0.475,-1.434,-1.129,0.824,60.000,64134.000,1.000
7.484,-0.242,-5.137,-9.973,-3.881,-7.383,-7.253,-5.586,-0.132,0.897,-0.475,-1.404,-1.160,0.916,60.000,64135.000,1.000
3.753,-1.727,-6.301,-11.166,-2.605,-8.591,-6.099,-6.561,-0.134,0.897,-0.478,-1.343,-1.068,0.916,60.000,64136.000,1.000
-0.358,-2.615,-7.209,-11.456,-0.560,-8.874,-4.855,-6.640,-0.135,0.893,-0.476,-1.343,-1.160,0.824,60.000,64137.000,1.000
-5.204,-3.326,-8.245,-11.071,1.750,-8.456,-3.669,-5.974,-0.136,0.893,-0.476,-1.221,-1.282,0.824,60.000,64138.000,1.000
-9.542,-3.757,-9.174,-9.844,4.233,-7.256,-1.907,-4.472,-0.135,0.895,-0.476,-1.251,-1.343,0.732,60.000,64139.000,1.000
-11.459,-3.236,-9.439,-7.550,7.156,-4.895,1.162,-1.954,-0.134,0.895,-0.476,-1.160,-1.343,0.671,60.000,64140.000,1.000
-11.189,-1.881,-9.109,-4.835,10.282,-1.450,4.954,1.238,-0.132,0.896,-0.476,-1.099,-1.404,0.610,60.000,64141.000,1.000
-10.728,-0.577,-8.761,-2.778,12.969,2.536,8.306,4.319,-0.133,0.896,-0.474,-1.160,-1.404,0.580,60.000,64142.000,1.000
-11.239,0.180,-8.857,-1.918,14.843,6.447,10.980,6.466,-0.130,0.896,-0.475,-1.129,-1.465,0.519,60.000,64143.000,1.000
-12.019,0.690,-9.500,-2.027,15.930,9.763,13.640,7.248,-0.133,0.897,-0.476,-1.099,-1.465,0.397,60.000,64144.000,1.000
-11.704,1.369,-10.493,-2.544,16.326,12.173,16.823,6.891,-0.130,0.896,-0.476,-1.190,-1.312,0.336,60.000,64145.000,1.000
-11.116,1.231,-11.989,-3.607,15.259,13.208,19.460,5.760,-0.130,0.897,-0.475,-1.251,-1.099,0.366,60.000,64146.000,1.000
-12.618,-1.413,-14.318,-5.906,11.496,12.386,19.607,4.003,-0.127,0.899,-0.477,-1.282,-1.038,0.336,60.000,64147.000,1.000
-17.036,-6.968,-17.415,-9.749,4.731,9.588,16.300,1.536,-0.125,0.899,-0.478,-1.190,-1.007,0.244,60.000,64148.000,1.000
-22.531,-14.046,-20.684,-14.587,-3.778,5.131,10.159,-1.768,-0.125,0.896,-0.477,-1.221,-0.824,0.183,60.000,64149.000,1.000
-26.290,-20.554,-23.301,-19.381,-11.941,-0.340,2.648,-5.850,-0.126,0.896,-0.476,-1.251,-0.671,0.214,60.000,64150.000,1.000
-27.819,-25.397,-24.869,-23.589,-18.445,-6.205,-5.379,-10.460,-0.125,0.896,-0.476,-1.221,-0.366,0.305,60.000,64151.000,1.000
-28.098,-27.887,-24.851,-26.646,-22.587,-11.265,-12.988,-14.496,-0.126,0.896,-0.476,-1.160,-0.214,0.366,60.000,64152.000,1.000
-26.453,-26.513,-21.996,-27.111,-23.233,-13.461,-18.048,-15.847,-0.127,0.896,-0.474,-1.190,-0.183,0.397,60.000,64153.000,1.000
-20.612,-19.962,-15.352,-23.540,-19.349,-11.204,-18.314,-12.863,-0.127,0.897,-0.478,-1.190,-0.092,0.427,60.000,64154.000,1.000
-9.975,-9.165,-5.868,-16.314,-11.668,-5.034,-13.569,-6.209,-0.129,0.895,-0.476,-1.190,-0.031,0.397,60.000,64155.000,1.000
1.163,1.758,3.225,-8.432,-3.580,1.957,-7.018,0.954,-0.129,0.898,-0.476,-1.129,0.031,0.458,60.000,64156.000,1.000
6.771,8.312,8.812,-3.174,1.223,6.361,-2.888,5.529,-0.130,0.898,-0.476,-1.038,0.214,0.458,60.000,64157.000,1.000
5.400,9.526,10.391,-1.222,1.879,7.104,-2.702,6.954,-0.131,0.899,-0.476,-1.038,0.366,0.488,60.000,64158.000,1.000
1.704,8.469,9.917,-0.593,0.686,5.794,-4.454,6.986,-0.133,0.901,-0.477,-1.038,0.305,0.580,60.000,64159.000,1.000
1.414,8.851,9.546,0.906,0.535,4.767,-5.008,7.519,-0.132,0.902,-0.471,-1.099,0.366,0.610,60.000,64160.000,1.000
4.572,10.822,9.563,3.220,1.910,4.776,-3.434,8.780,-0.132,0.898,-0.475,-1.068,0.366,0.671,60.000,64161.000,1.000
6.570,11.717,9.146,4.914,3.332,5.316,-0.835,9.892,-0.130,0.899,-0.476,-1.068,0.336,0.671,60.000,64162.000,1.000
4.692,10.109,8.205,5.491,3.925,6.124,1.817,10.241,-0.128,0.898,-0.475,-0.946,0.488,0.763,60.000,64163.000,1.000
1.089,7.516,7.689,5.934,4.412,7.411,4.504,9.918,-0.128,0.894,-0.475,-0.824,0.427,0.824,60.000,64164.000,1.000
-0.285,6.444,8.479,7.343,5.910,9.087,7.513,9.278,-0.127,0.889,-0.477,-0.824,0.458,0.916,60.000,64165.000,1.000
0.841,7.128,10.022,9.176,7.962,10.042,9.930,8.073,-0.127,0.884,-0.478,-0.610,0.519,0.946,60.000,64166.000,1.000
1.329,7.741,10.956,9.934,8.929,9.163,10.385,5.702,-0.131,0.877,-0.479,-0.305,0.549,0.916,60.000,64167.000,1.000
-0.815,7.060,10.660,9.120,8.018,6.683,8.904,2.249,-0.131,0.874,-0.481,0.000,0.519,1.068,60.000,64168.000,1.000
-4.359,5.580,9.566,7.670,6.033,3.977,6.958,-1.250,-0.135,0.875,-0.482,0.305,0.397,1.068,60.000,64169.000,1.000
-6.979,4.265,8.144,6.668,4.208,2.228,5.932,-3.716,-0.137,0.879,-0.482,0.549,0.244,1.160,60.000,64170.000,1.000
-9.088,2.511,5.847,5.907,2.555,1.347,5.493,-5.043,-0.139,0.881,-0.479,0.763,0.092,1.190,60.000,64171.000,1.000
-12.719,-0.936,2.069,4.725,0.535,0.810,4.840,-5.552,-0.140,0.885,-0.478,0.763,-0.122,1.221,60.000,64172.000,1.000
-17.694,-5.634,-2.593,3.311,-1.497,0.670,4.503,-5.100,-0.139,0.889,-0.481,0.854,-0.336,1.282,60.000,64173.000,1.000
-20.922,-9.183,-6.621,2.525,-2.410,1.321,5.905,-3.197,-0.142,0.895,-0.481,0.885,-0.641,1.221,60.000,64174.000,1.000
-18.922,-8.934,-8.599,3.049,-1.295,3.012,9.932,0.273,-0.143,0.897,-0.479,0.885,-0.885,1.160,60.000,64175.000,1.000
-11.466,-4.450,-8.303,4.460,1.470,5.378,15.578,4.320,-0.146,0.897,-0.478,0.854,-1.221,1.221,60.000,64176.000,1.000
-1.523,2.198,-6.565,5.569,4.526,7.677,20.750,7.380,-0.149,0.900,-0.477,0.732,-1.556,1.099,60.000,64177.000,1.000
7.110,7.879,-4.611,5.263,6.396,9.097,23.735,8.390,-0.150,0.903,-0.476,0.549,-2.045,1.038,60.000,64178.000,1.000
11.851,10.254,-3.415,3.097,6.187,9.016,23.746,7.403,-0.149,0.907,-0.476,0.336,-2.380,1.068,60.000,64179.000,1.000
12.905,9.426,-3.008,-0.205,4.333,7.603,21.229,5.491,-0.146,0.912,-0.478,0.122,-2.716,0.824,60.000,64180.000,1.000
12.258,7.271,-2.748,-3.269,2.228,5.676,17.205,3.880,-0.142,0.917,-0.477,-0.305,-2.899,0.763,60.000,64181.000,1.000
12.222,5.912,-1.889,-4.800,1.398,4.129,12.855,3.396,-0.136,0.917,-0.477,-0.580,-3.082,0.671,60.000,64182.000,1.000
13.878,6.453,-0.247,-4.322,2.520,3.212,9.056,4.168,-0.129,0.918,-0.477,-1.007,-3.082,0.610,60.000,64183.000,1.000
16.091,8.519,1.635,-2.396,5.055,2.466,6.013,5.631,-0.122,0.918,-0.479,-1.312,-2.960,0.610,60.000,64184.000,1.000
17.063,11.077,3.166,0.056,7.963,1.493,3.709,7.027,-0.115,0.916,-0.478,-1.709,-2.777,0.702,60.000,64185.000,1.000
15.816,12.939,3.924,2.010,10.045,0.032,1.619,7.513,-0.112,0.914,-0.479,-2.075,-2.502,0.519,60.000,64186.000,1.000
13.243,13.595,3.989,2.864,10.560,-1.838,-0.834,6.521,-0.109,0.909,-0.476,-2.197,-2.136,0.580,60.000,64187.000,1.000
11.115,13.464,3.985,2.799,9.657,-3.480,-3.565,4.371,-0.110,0.904,-0.478,-2.319,-1.770,0.549,60.000,64188.000,1.000
9.926,13.019,4.448,2.394,7.913,-4.216,-6.146,2.183,-0.113,0.898,-0.480,-2.350,-1.495,0.519,60.000,64189.000,1.000
9.358,12.618,5.503,2.339,5.961,-3.904,-8.095,1.020,-0.114,0.892,-0.480,-2.472,-1.099,0.519,60.000,64190.000,1.000
9.323,12.460,6.832,3.068,4.203,-3.118,-9.221,1.111,-0.115,0.889,-0.477,-2.380,-0.732,0.427,60.000,64191.000,1.000
10.337,12.600,8.036,4.729,2.928,-2.473,-9.393,2.126,-0.118,0.887,-0.478,-2.319,-0.336,0.366,60.000,64192.000,1.000
12.034,12.506,8.534,6.830,2.059,-2.355,-9.004,3.250,-0.122,0.885,-0.480,-2.167,-0.031,0.366,60.000,64193.000,1.000
12.275,11.015,7.576,8.226,0.982,-3.017,-9.373,3.257,-0.124,0.883,-0.479,-2.106,0.183,0.488,60.000,64194.000,1.000
9.785,7.921,5.247,8.377,-0.526,-4.044,-11.127,1.607,-0.126,0.880,-0.480,-1.831,0.214,0.427,60.000,64195.000,1.000
5.860,4.555,2.659,7.899,-1.928,-4.444,-13.162,-0.909,-0.128,0.881,-0.475,-1.648,0.427,0.214,60.000,64196.000,1.000
3.416,2.909,1.174,8.001,-2.376,-3.290,-13.268,-2.747,-0.130,0.882,-0.475,-1.465,0.458,0.305,60.000,64197.000,1.000
3.842,3.776,1.176,9.097,-1.831,-0.607,-10.413,-3.093,-0.133,0.882,-0.477,-1.343,0.641,0.305,60.000,64198.000,1.000
5.109,5.625,1.698,10.102,-1.747,2.435,-6.281,-2.707,-0.131,0.885,-0.474,-1.251,0.641,0.397,60.000,64199.000,1.000
4.592,6.235,1.711,9.791,-3.697,4.720,-3.289,-2.927,-0.131,0.889,-0.475,-0.946,0.641,0.519,60.000,64200.000,1.000
2.242,4.842,1.113,8.193,-7.772,6.024,-2.177,-4.254,-0.131,0.893,-0.476,-0.916,0.549,0.458,60.000,64201.000,1.000
0.879,2.725,0.620,6.556,-12.403,6.783,-1.764,-6.031,-0.132,0.894,-0.473,-0.793,0.610,0.580,60.000,64202.000,1.000
2.755,1.327,0.727,5.794,-15.892,7.148,-1.078,-7.556,-0.129,0.902,-0.475,-0.885,0.641,0.580,60.000,64203.000,1.000
6.913,0.554,1.271,5.641,-17.595,6.778,-0.612,-8.799,-0.128,0.905,-0.476,-0.824,0.641,0.671,60.000,64204.000,1.000
11.500,-0.034,2.179,5.666,-17.357,5.696,-0.765,-9.924,-0.127,0.906,-0.477,-0.977,0.702,0.824,60.000,64205.000,1.000
16.199,0.032,3.604,5.866,-15.136,4.404,-0.991,-11.037,-0.125,0.906,-0.480,-1.099,0.610,0.885,60.000,64206.000,1.000
22.101,1.795,5.651,6.451,-11.104,3.533,-0.278,-12.108,-0.123,0.907,-0.477,-1.190,0.732,0.946,60.000,64207.000,1.000
28.897,4.999,7.873,7.017,-6.298,3.135,1.411,-13.151,-0.124,0.906,-0.476,-1.251,0.854,0.977,60.000,64208.000,1.000
33.433,7.321,9.330,6.446,-2.677,2.460,2.641,-14.249,-0.124,0.905,-0.477,-1.373,0.854,1.038,60.000,64209.000,1.000
33.188,6.918,9.748,4.424,-1.414,1.041,2.460,-14.939,-0.124,0.904,-0.477,-1.404,0.977,1.007,60.000,64210.000,1.000
29.124,4.444,9.783,2.044,-1.853,-0.824,1.284,-14.356,-0.125,0.901,-0.477,-1.526,0.977,0.854,60.000,64211.000,1.000
24.624,2.201,10.126,0.782,-2.351,-2.646,-0.017,-12.185,-0.125,0.899,-0.478,-1.434,1.038,0.916,60.000,64212.000,1.000
21.350,1.267,10.388,0.877,-2.202,-4.523,-1.427,-9.416,-0.127,0.895,-0.476,-1.434,0.946,0.854,60.000,64213.000,1.000
17.248,0.276,9.347,1.182,-2.149,-6.877,-3.581,-7.696,-0.130,0.893,-0.475,-1.404,0.885,0.854,60.000,64214.000,1.000
10.258,-2.166,6.701,0.999,-2.527,-9.254,-6.031,-7.554,-0.131,0.891,-0.478,-1.434,0.793,0.854,60.000,64215.000,1.000
1.656,-5.461,3.599,0.927,-2.317,-10.510,-7.493,-7.780,-0.131,0.891,-0.476,-1.312,0.763,0.671,60.000,64216.000,1.000
-4.696,-7.520,1.593,2.003,-0.117,-9.979,-7.188,-6.484,-0.132,0.892,-0.474,-1.190,0.671,0.519,60.000,64217.000,1.000
-7.133,-7.501,0.934,4.021,3.875,-8.499,-5.881,-3.042,-0.131,0.890,-0.477,-1.099,0.610,0.427,60.000,64218.000,1.000
-9.090,-7.454,0.112,5.179,7.265,-8.026,-5.581,1.173,-0.131,0.891,-0.478,-1.129,0.427,0.275,60.000,64219.000,1.000
-14.574,-9.816,-2.281,4.140,7.844,-9.578,-7.144,4.368,-0.130,0.893,-0.477,-1.068,0.397,0.183,60.000,64220.000,1.000
-22.831,-14.486,-5.982,1.521,5.760,-12.234,-9.267,5.993,-0.130,0.895,-0.476,-1.099,0.244,0.122,60.000,64221.000,1.000
-28.676,-18.850,-9.291,-0.672,3.168,-14.065,-9.792,6.848,-0.130,0.894,-0.480,-1.129,0.122,0.000,60.000,64222.000,1.000
-28.729,-20.969,-10.995,-1.273,1.682,-14.120,-8.154,7.692,-0.130,0.895,-0.478,-1.068,0.153,-0.122,60.000,64223.000,1.000
-25.651,-21.874,-11.446,-1.204,0.743,-13.199,-6.142,8.370,-0.130,0.896,-0.473,-1.007,0.061,-0.122,60.000,64224.000,1.000
-23.782,-23.336,-11.130,-1.759,-0.699,-12.316,-5.323,8.681,-0.129,0.896,-0.475,-0.885,0.122,-0.214,60.000,64225.000,1.000
-23.362,-24.985,-9.608,-2.896,-2.242,-11.479,-5.258,9.063,-0.129,0.897,-0.474,-0.977,-0.031,-0.305,60.000,64226.000,1.000
-20.434,-24.373,-6.244,-3.567,-2.373,-10.007,-4.322,10.026,-0.126,0.897,-0.478,-0.916,0.061,-0.427,60.000,64227.000,1.000
-12.877,-20.238,-1.789,-3.646,-0.751,-7.935,-2.286,11.058,-0.126,0.899,-0.478,-0.885,0.031,-0.427,60.000,64228.000,1.000
-4.591,-14.848,1.545,-4.623,0.751,-6.550,-1.355,10.836,-0.127,0.900,-0.478,-0.916,0.061,-0.519,60.000,64229.000,1.000
-0.875,-11.388,2.301,-7.533,0.341,-6.880,-3.345,8.912,-0.130,0.901,-0.479,-0.885,0.092,-0.519,60.000,64230.000,1.000
-2.105,-10.314,1.220,-11.306,-1.436,-8.392,-7.185,6.330,-0.128,0.901,-0.477,-1.007,0.122,-0.458,60.000,64231.000,1.000
-3.546,-9.173,0.414,-13.546,-2.184,-9.376,-9.701,4.512,-0.130,0.902,-0.476,-0.916,0.092,-0.397,60.000,64232.000,1.000
-1.723,-6.223,1.038,-13.147,-0.640,-8.791,-9.201,3.639,-0.128,0.900,-0.477,-0.885,0.153,-0.397,60.000,64233.000,1.000
1.253,-2.830,2.284,-11.442,1.673,-7.259,-7.319,2.533,-0.131,0.900,-0.473,-1.007,0.122,-0.275,60.000,64234.000,1.000
1.619,-1.172,2.994,-10.141,2.604,-5.823,-6.210,0.334,-0.131,0.899,-0.476,-1.007,0.122,-0.214,60.000,64235.000,1.000
-1.128,-1.585,2.954,-9.535,1.727,-4.827,-6.004,-2.478,-0.127,0.900,-0.476,-1.129,0.061,-0.183,60.000,64236.000,1.000
-3.879,-2.356,2.753,-8.651,0.423,-3.823,-5.117,-4.496,-0.125,0.901,-0.478,-1.099,0.153,-0.183,60.000,64237.000,1.000
-4.165,-1.881,2.658,-6.847,-0.042,-2.436,-2.726,-4.754,-0.122,0.903,-0.479,-1.099,0.305,-0.092,60.000,64238.000,1.000
-3.521,-0.631,2.018,-4.767,0.103,-0.994,-0.148,-3.645,-0.123,0.903,-0.476,-1.190,0.336,0.031,60.000,64239.000,1.000
-4.888,-0.159,0.230,-3.287,0.156,0.205,1.148,-2.355,-0.122,0.902,-0.473,-1.251,0.366,0.153,60.000,64240.000,1.000
-9.081,-1.376,-2.587,-2.601,-0.002,1.268,1.209,-1.883,-0.124,0.901,-0.475,-1.190,0.458,0.244,60.000,64241.000,1.000
-14.052,-3.718,-5.683,-2.173,0.103,2.438,1.345,-2.360,-0.125,0.899,-0.477,-1.129,0.427,0.275,60.000,64242.000,1.000
-17.719,-6.164,-8.490,-1.629,0.649,3.523,2.406,-3.366,-0.128,0.898,-0.477,-1.038,0.488,0.336,60.000,64243.000,1.000
-20.707,-8.720,-11.105,-1.470,0.956,3.829,3.717,-4.648,-0.133,0.895,-0.475,-1.007,0.427,0.244,60.000,64244.000,1.000
-24.366,-11.545,-13.449,-2.150,0.584,3.111,4.544,-5.890,-0.135,0.893,-0.477,-1.007,0.305,0.183,60.000,64245.000,1.000
-28.153,-13.703,-14.843,-3.223,0.147,1.935,5.042,-6.398,-0.137,0.891,-0.473,-0.916,0.153,0.061,60.000,64246.000,1.000
-29.620,-13.549,-14.500,-3.645,0.788,1.199,5.820,-5.491,-0.137,0.889,-0.475,-0.854,-0.092,-0.031,60.000,64247.000,1.000
-27.451,-10.822,-12.520,-3.109,2.671,1.155,6.671,-3.477,-0.137,0.889,-0.476,-0.702,-0.092,-0.061,60.000,64248.000,1.000
-23.379,-7.441,-10.018,-2.547,4.500,1.172,6.259,-1.671,-0.135,0.888,-0.476,-0.549,-0.183,-0.061,60.000,64249.000,1.000
-19.696,-5.281,-7.927,-2.767,5.093,0.898,3.866,-1.147,-0.136,0.888,-0.478,-0.580,-0.458,-0.275,60.000,64250.000,1.000
-17.301,-4.620,-6.452,-3.624,4.447,0.804,0.197,-2.025,-0.135,0.886,-0.475,-0.427,-0.610,-0.183,60.000,64251.000,1.000
-15.440,-4.268,-5.145,-4.225,3.605,1.805,-2.879,-3.516,-0.135,0.886,-0.474,-0.275,-0.763,-0.244,60.000,64252.000,1.000
-12.798,-2.868,-3.496,-3.924,3.557,4.296,-3.514,-4.666,-0.136,0.887,-0.475,-0.153,-0.916,-0.153,60.000,64253.000,1.000
-8.954,-0.225,-1.580,-3.091,4.215,7.558,-1.435,-5.081,-0.137,0.889,-0.475,-0.031,-0.977,-0.122,60.000,64254.000,1.000
-4.317,2.898,0.161,-2.621,4.748,10.425,2.030,-4.772,-0.136,0.892,-0.478,0.153,-1.038,-0.092,60.000,64255.000,1.000
-0.226,5.308,1.228,-3.324,4.254,12.008,4.645,-3.948,-0.138,0.892,-0.477,0.244,-1.129,-0.092,60.000,64256.000,1.000
2.326,6.543,1.633,-5.143,2.726,12.392,5.057,-2.730,-0.137,0.894,-0.475,0.214,-1.373,-0.092,60.000,64257.000,1.000
4.007,7.416,1.962,-7.039,1.272,12.571,4.068,-1.098,-0.135,0.896,-0.478,0.214,-1.587,-0.061,60.000,64258.000,1.000
6.486,9.121,2.748,-7.851,1.128,13.540,3.811,0.917,-0.133,0.895,-0.476,0.153,-1.709,-0.031,60.000,64259.000,1.000
11.080,12.288,4.030,-7.049,2.677,15.499,5.828,3.160,-0.131,0.896,-0.476,0.214,-1.770,0.000,60.000,64260.000,1.000
16.427,15.711,4.867,-5.442,4.610,17.200,8.911,4.988,-0.131,0.897,-0.475,0.183,-1.831,0.092,60.000,64261.000,1.000
19.088,16.771,3.987,-4.567,4.706,16.725,10.042,5.573,-0.129,0.897,-0.477,0.183,-1.801,0.122,60.000,64262.000,1.000
17.027,13.777,1.082,-5.235,1.828,13.213,7.444,4.794,-0.129,0.898,-0.478,0.183,-1.709,0.214,60.000,64263.000,1.000
11.759,7.749,-2.803,-6.781,-2.901,7.745,2.098,3.656,-0.128,0.896,-0.480,0.153,-1.678,0.305,60.000,64264.000,1.000
6.980,1.781,-6.082,-7.677,-6.864,2.618,-3.178,3.548,-0.127,0.897,-0.476,0.153,-1.678,0.366,60.000,64265.000,1.000
3.994,-2.186,-8.203,-7.395,-8.509,-0.666,-6.624,4.710,-0.129,0.894,-0.479,0.244,-1.648,0.336,60.000,64266.000,1.000
1.185,-4.286,-9.485,-6.548,-8.022,-1.971,-8.263,6.317,-0.129,0.894,-0.477,0.214,-1.587,0.397,60.000,64267.000,1.000
-2.217,-4.769,-9.888,-5.460,-5.895,-1.647,-8.385,7.794,-0.131,0.893,-0.478,0.214,-1.587,0.549,60.000,64268.000,1.000
-4.538,-3.133,-8.922,-3.690,-2.257,-0.093,-6.866,9.289,-0.133,0.892,-0.482,0.244,-1.465,0.580,60.000,64269.000,1.000
-3.872,0.763,-6.553,-0.895,2.436,2.074,-3.662,11.010,-0.132,0.890,-0.482,0.305,-1.465,0.610,60.000,64270.000,1.000
-1.796,4.991,-4.021,1.910,6.361,3.586,0.005,12.352,-0.132,0.889,-0.484,0.366,-1.495,0.702,60.000,64271.000,1.000
-1.995,6.770,-2.714,3.241,7.482,3.359,2.595,12.474,-0.133,0.890,-0.484,0.549,-1.526,0.641,60.000,64272.000,1.000
-5.473,5.377,-2.602,3.070,5.706,1.658,3.946,11.352,-0.134,0.890,-0.487,0.549,-1.434,0.641,60.000,64273.000,1.000
-9.159,2.872,-2.355,2.989,3.007,-0.172,4.972,9.760,-0.134,0.892,-0.484,0.580,-1.404,0.671,60.000,64274.000,1.000
-9.104,2.048,-0.696,4.581,1.551,-0.923,6.458,8.378,-0.135,0.892,-0.487,0.549,-1.434,0.732,60.000,64275.000,1.000
-5.563,3.138,2.017,7.339,1.406,-0.813,7.716,6.859,-0.137,0.894,-0.486,0.671,-1.465,0.885,60.000,64276.000,1.000
