EEG 1,EEG 2,EEG 3,EEG 4,EEG 5,EEG 6,EEG 7,EEG 8,Accelerometer X,Accelerometer Y,Accelerometer Z,Gyroscope X,Gyroscope Y,Gyroscope Z,Battery Level,Counter,Validation Indicator
8.533,5.324,5.277,0.068,7.461,1.560,5.365,-1.219,-0.133,0.893,-0.481,-0.763,-0.671,0.397,60.000,66905.000,1.000
8.154,5.081,4.797,0.499,7.076,1.667,4.157,-2.732,-0.134,0.894,-0.481,-0.885,-0.641,0.427,60.000,66906.000,1.000
6.844,4.674,3.672,0.851,6.558,1.682,2.975,-3.580,-0.134,0.892,-0.481,-0.977,-0.641,0.366,60.000,66907.000,1.000
4.998,4.241,2.410,1.167,6.132,1.868,2.722,-3.057,-0.133,0.890,-0.480,-0.946,-0.549,0.458,60.000,66908.000,1.000
3.106,3.816,1.356,1.330,5.866,2.345,3.942,-1.181,-0.134,0.890,-0.484,-0.885,-0.671,0.397,60.000,66909.000,1.000
1.573,3.387,0.480,1.111,5.593,2.966,6.417,1.443,-0.134,0.892,-0.481,-0.671,-0.641,0.336,60.000,66910.000,1.000
-0.313,2.083,-0.879,-0.091,4.457,2.990,8.753,3.662,-0.132,0.893,-0.480,-0.641,-0.549,0.366,60.000,66911.000,1.000
-3.714,-1.464,-3.438,-2.837,1.292,1.442,9.190,4.103,-0.131,0.893,-0.479,-0.641,-0.580,0.397,60.000,66912.000,1.000
-9.090,-7.835,-7.294,-7.124,-4.514,-2.293,6.399,1.805,-0.132,0.893,-0.482,-0.671,-0.610,0.458,60.000,66913.000,1.000
-15.038,-15.575,-11.454,-11.918,-12.007,-7.689,0.534,-2.997,-0.131,0.891,-0.483,-0.702,-0.549,0.549,60.000,66914.000,1.000
-19.268,-22.051,-14.471,-15.760,-19.021,-13.203,-6.759,-9.093,-0.130,0.891,-0.480,-0.732,-0.580,0.519,60.000,66915.000,1.000
-20.370,-25.260,-15.391,-17.682,-23.404,-17.071,-13.357,-14.963,-0.131,0.893,-0.481,-0.671,-0.580,0.519,60.000,66916.000,1.000
-17.582,-24.157,-13.717,-17.161,-23.588,-17.732,-17.127,-18.923,-0.132,0.891,-0.480,-0.580,-0.488,0.549,60.000,66917.000,1.000
-11.245,-19.050,-9.538,-14.289,-19.403,-14.593,-16.885,-19.666,-0.134,0.888,-0.483,-0.519,-0.427,0.580,60.000,66918.000,1.000
-2.832,-11.490,-3.639,-9.801,-12.319,-8.431,-12.785,-16.905,-0.134,0.891,-0.485,-0.458,-0.519,0.671,60.000,66919.000,1.000
5.580,-3.548,2.556,-4.923,-4.720,-1.111,-6.190,-11.781,-0.134,0.893,-0.480,-0.275,-0.549,0.641,60.000,66920.000,1.000
12.105,3.105,7.571,-0.870,1.384,5.356,0.828,-6.341,-0.137,0.894,-0.483,-0.244,-0.488,0.549,60.000,66921.000,1.000
16.354,8.124,10.782,1.919,5.391,9.890,6.577,-2.182,-0.135,0.895,-0.483,-0.427,-0.519,0.610,60.000,66922.000,1.000
18.858,11.879,12.282,3.538,7.557,12.303,9.901,0.186,-0.134,0.895,-0.480,-0.397,-0.580,0.519,60.000,66923.000,1.000
20.328,14.616,12.561,4.286,8.303,13.057,10.559,1.235,-0.131,0.898,-0.481,-0.488,-0.641,0.641,60.000,66924.000,1.000
20.839,15.979,12.055,4.364,7.866,12.793,9.212,1.795,-0.129,0.900,-0.484,-0.427,-0.580,0.580,60.000,66925.000,1.000
19.752,15.531,10.967,3.905,6.459,12.010,6.994,2.576,-0.128,0.900,-0.482,-0.580,-0.427,0.610,60.000,66926.000,1.000
17.271,14.046,9.660,3.440,4.835,11.279,5.489,3.999,-0.127,0.898,-0.480,-0.610,-0.427,0.702,60.000,66927.000,1.000
14.235,12.878,8.401,3.430,3.729,10.900,5.684,5.756,-0.124,0.894,-0.480,-0.610,-0.275,0.732,60.000,66928.000,1.000
11.629,12.875,7.354,4.061,3.501,10.937,7.648,7.172,-0.124,0.891,-0.486,-0.641,-0.275,0.763,60.000,66929.000,1.000
9.992,13.881,6.666,5.298,4.163,11.417,10.809,7.925,-0.123,0.887,-0.483,-0.732,-0.061,0.763,60.000,66930.000,1.000
8.891,14.917,6.334,6.835,5.362,12.174,13.953,8.154,-0.125,0.888,-0.485,-0.580,0.061,0.702,60.000,66931.000,1.000
7.942,15.321,6.413,8.456,6.744,12.924,15.881,8.210,-0.128,0.888,-0.483,-0.519,0.153,0.763,60.000,66932.000,1.000
6.945,14.931,6.865,9.941,7.898,13.240,15.797,8.232,-0.129,0.892,-0.485,-0.458,0.183,0.732,60.000,66933.000,1.000
5.975,13.911,7.537,11.013,8.427,12.822,13.861,8.238,-0.130,0.894,-0.489,-0.519,0.061,0.732,60.000,66934.000,1.000
5.113,12.408,8.117,11.327,8.052,11.614,10.946,8.312,-0.129,0.894,-0.487,-0.488,0.122,0.763,60.000,66935.000,1.000
4.090,10.389,8.277,10.755,6.792,9.855,7.848,8.594,-0.127,0.895,-0.482,-0.610,0.244,0.763,60.000,66936.000,1.000
3.132,8.256,8.174,9.826,5.321,8.271,5.418,9.177,-0.130,0.897,-0.480,-0.793,0.183,0.702,60.000,66937.000,1.000
2.713,6.629,8.190,9.141,4.374,7.473,4.210,9.787,-0.133,0.898,-0.484,-0.763,0.244,0.610,60.000,66938.000,1.000
3.426,6.138,8.631,9.011,4.339,7.554,4.322,10.092,-0.136,0.901,-0.484,-0.916,0.183,0.610,60.000,66939.000,1.000
5.529,7.042,9.498,9.416,5.075,8.090,5.231,10.006,-0.139,0.902,-0.482,-1.007,0.092,0.580,60.000,66940.000,1.000
8.371,8.877,10.473,10.025,5.866,8.459,5.929,9.635,-0.142,0.901,-0.478,-1.099,-0.092,0.488,60.000,66941.000,1.000
11.313,11.091,11.307,10.540,6.051,8.448,6.016,9.223,-0.143,0.900,-0.483,-1.221,-0.244,0.427,60.000,66942.000,1.000
13.709,13.054,11.638,10.547,5.286,8.084,5.624,8.790,-0.144,0.898,-0.487,-1.343,-0.458,0.336,60.000,66943.000,1.000
15.291,14.325,11.192,9.776,3.838,7.529,5.107,8.181,-0.144,0.897,-0.482,-1.495,-0.671,0.244,60.000,66944.000,1.000
16.252,14.913,10.033,8.265,2.345,6.986,4.691,7.149,-0.142,0.897,-0.484,-1.526,-0.977,0.214,60.000,66945.000,1.000
16.515,14.938,8.425,6.135,1.147,6.538,4.213,5.375,-0.138,0.898,-0.480,-1.587,-1.160,0.153,60.000,66946.000,1.000
16.061,14.641,6.772,3.786,0.393,6.315,3.757,2.932,-0.136,0.897,-0.482,-1.648,-1.343,0.214,60.000,66947.000,1.000
14.799,14.046,5.220,1.666,0.062,6.283,3.508,0.400,-0.137,0.899,-0.477,-1.709,-1.434,0.244,60.000,66948.000,1.000
13.000,13.160,3.739,0.164,0.115,6.296,3.569,-1.388,-0.134,0.898,-0.480,-1.770,-1.434,0.366,60.000,66949.000,1.000
11.166,12.096,2.283,-0.623,0.428,6.136,3.725,-1.955,-0.134,0.899,-0.483,-1.801,-1.434,0.275,60.000,66950.000,1.000
9.263,10.879,0.795,-1.000,0.702,5.593,3.530,-1.510,-0.133,0.900,-0.484,-1.801,-1.556,0.458,60.000,66951.000,1.000
7.302,9.844,-0.545,-1.163,0.954,4.864,3.138,-0.612,-0.130,0.899,-0.483,-1.831,-1.526,0.641,60.000,66952.000,1.000
5.368,9.390,-1.591,-1.184,1.378,4.285,2.822,0.053,-0.131,0.896,-0.480,-1.740,-1.526,0.732,60.000,66953.000,1.000
3.832,9.765,-2.202,-0.899,2.186,4.201,2.754,0.141,-0.130,0.895,-0.482,-1.801,-1.465,0.854,60.000,66954.000,1.000
2.890,10.613,-2.303,-0.133,3.293,4.737,3.004,-0.187,-0.129,0.893,-0.484,-1.831,-1.373,0.916,60.000,66955.000,1.000
1.977,10.846,-2.118,0.908,4.155,5.476,3.248,-0.538,-0.127,0.893,-0.479,-1.862,-1.373,1.038,60.000,66956.000,1.000
0.979,9.966,-1.800,2.037,4.597,5.985,3.348,-0.396,-0.128,0.889,-0.479,-1.831,-1.190,1.160,60.000,66957.000,1.000
0.270,8.451,-1.397,3.093,4.987,6.093,3.332,0.522,-0.127,0.890,-0.480,-1.678,-1.160,1.221,60.000,66958.000,1.000
0.315,7.321,-0.884,3.917,5.860,5.845,3.276,2.045,-0.125,0.890,-0.481,-1.648,-0.946,1.343,60.000,66959.000,1.000
0.982,7.249,-0.433,4.279,7.306,5.208,3.064,3.502,-0.125,0.888,-0.481,-1.526,-0.854,1.404,60.000,66960.000,1.000
1.089,7.852,-0.483,3.965,8.737,4.018,2.237,4.198,-0.124,0.887,-0.479,-1.434,-0.702,1.373,60.000,66961.000,1.000
-0.182,8.330,-1.094,3.332,9.677,2.543,0.855,4.294,-0.127,0.888,-0.479,-1.343,-0.610,1.282,60.000,66962.000,1.000
-2.733,8.008,-1.929,3.026,10.042,1.294,-0.536,4.637,-0.124,0.888,-0.479,-1.343,-0.488,1.221,60.000,66963.000,1.000
-5.397,6.990,-2.529,3.602,10.098,0.603,-1.294,5.980,-0.124,0.890,-0.480,-1.160,-0.336,1.282,60.000,66964.000,1.000
-6.835,5.977,-2.790,5.068,10.027,0.279,-1.320,8.229,-0.125,0.891,-0.480,-1.190,-0.244,1.099,60.000,66965.000,1.000
-7.015,5.141,-3.222,6.582,9.414,-0.446,-1.438,10.281,-0.123,0.892,-0.479,-1.282,-0.092,1.038,60.000,66966.000,1.000
-6.539,4.182,-4.276,7.200,7.738,-2.143,-2.321,10.925,-0.124,0.894,-0.482,-1.373,0.122,1.007,60.000,66967.000,1.000
-5.869,2.853,-5.874,6.551,4.941,-4.670,-3.854,9.713,-0.121,0.894,-0.484,-1.343,0.183,0.977,60.000,66968.000,1.000
-4.777,1.426,-7.299,5.117,1.757,-7.128,-5.184,7.304,-0.121,0.896,-0.484,-1.373,0.519,0.824,60.000,66969.000,1.000
-3.045,0.214,-7.824,3.644,-0.838,-8.587,-5.681,4.795,-0.120,0.896,-0.483,-1.404,0.549,0.702,60.000,66970.000,1.000
-1.330,-1.020,-7.338,2.436,-2.385,-8.770,-5.541,2.818,-0.118,0.898,-0.481,-1.434,0.702,0.671,60.000,66971.000,1.000
-0.032,-2.353,-6.062,1.537,-2.886,-7.904,-4.983,1.437,-0.118,0.900,-0.482,-1.373,0.824,0.519,60.000,66972.000,1.000
0.900,-3.624,-4.463,0.734,-2.909,-6.763,-4.354,0.289,-0.119,0.896,-0.486,-1.373,1.129,0.397,60.000,66973.000,1.000
1.879,-4.556,-3.013,-0.219,-3.209,-6.241,-4.122,-0.966,-0.121,0.895,-0.483,-1.526,1.221,0.275,60.000,66974.000,1.000
3.121,-5.145,-2.156,-1.611,-4.304,-6.930,-4.759,-2.459,-0.124,0.893,-0.484,-1.495,1.343,0.305,60.000,66975.000,1.000
4.080,-5.989,-2.278,-3.859,-6.420,-8.998,-6.718,-4.189,-0.126,0.891,-0.486,-1.343,1.343,0.275,60.000,66976.000,1.000
4.509,-7.428,-3.069,-6.789,-9.053,-11.708,-9.472,-5.775,-0.128,0.891,-0.485,-1.282,1.343,0.183,60.000,66977.000,1.000
4.412,-9.310,-3.609,-9.521,-11.179,-13.635,-11.571,-6.682,-0.133,0.890,-0.480,-1.160,1.343,0.061,60.000,66978.000,1.000
3.803,-11.219,-2.959,-10.988,-11.868,-13.507,-11.483,-6.694,-0.133,0.889,-0.482,-1.007,1.343,-0.122,60.000,66979.000,1.000
2.393,-13.065,-1.044,-10.928,-11.092,-11.290,-8.884,-6.264,-0.134,0.892,-0.484,-1.068,1.190,-0.122,60.000,66980.000,1.000
-0.495,-15.375,1.081,-10.243,-9.882,-8.389,-5.183,-6.180,-0.133,0.893,-0.483,-1.129,1.068,0.000,60.000,66981.000,1.000
-4.588,-18.259,2.269,-9.857,-9.237,-6.393,-2.133,-6.815,-0.134,0.893,-0.480,-1.129,0.946,-0.061,60.000,66982.000,1.000
-8.995,-21.346,1.839,-10.141,-9.637,-6.192,-0.992,-8.252,-0.137,0.891,-0.482,-1.099,0.702,-0.061,60.000,66983.000,1.000
-12.730,-24.070,-0.148,-10.807,-10.863,-7.583,-1.888,-10.397,-0.137,0.893,-0.480,-0.885,0.641,0.031,60.000,66984.000,1.000
-14.798,-25.717,-2.899,-11.129,-12.063,-9.471,-3.760,-12.830,-0.137,0.890,-0.482,-0.885,0.488,0.000,60.000,66985.000,1.000
-14.679,-25.771,-5.345,-10.513,-12.422,-10.613,-5.376,-14.879,-0.139,0.892,-0.483,-0.793,0.275,0.061,60.000,66986.000,1.000
-12.632,-24.287,-6.705,-8.906,-11.722,-10.246,-6.048,-15.958,-0.136,0.891,-0.485,-0.793,0.153,0.183,60.000,66987.000,1.000
-10.662,-22.562,-7.283,-7.286,-10.818,-8.783,-6.362,-16.246,-0.134,0.888,-0.483,-0.793,0.000,0.122,60.000,66988.000,1.000
-10.954,-22.001,-7.970,-6.819,-10.769,-7.309,-7.302,-16.412,-0.134,0.891,-0.484,-0.824,-0.214,0.092,60.000,66989.000,1.000
-13.299,-22.379,-9.041,-7.530,-11.557,-6.402,-8.707,-16.685,-0.137,0.892,-0.481,-0.824,-0.305,0.214,60.000,66990.000,1.000
-15.447,-22.259,-9.954,-8.358,-12.108,-5.819,-9.306,-16.549,-0.135,0.894,-0.481,-0.732,-0.336,0.244,60.000,66991.000,1.000
-15.572,-20.740,-10.087,-8.295,-11.302,-5.013,-7.971,-15.307,-0.137,0.894,-0.481,-0.793,-0.488,0.336,60.000,66992.000,1.000
-14.996,-18.942,-9.719,-7.723,-9.318,-4.066,-5.404,-13.028,-0.139,0.894,-0.483,-0.793,-0.671,0.366,60.000,66993.000,1.000
-16.472,-18.604,-9.453,-7.785,-7.239,-3.482,-3.323,-10.299,-0.142,0.894,-0.485,-0.885,-0.763,0.366,60.000,66994.000,1.000
-20.210,-19.599,-9.160,-8.771,-5.556,-3.387,-2.320,-7.407,-0.145,0.892,-0.481,-0.946,-1.007,0.336,60.000,66995.000,1.000
-23.427,-19.980,-8.185,-9.849,-3.846,-3.425,-1.517,-4.374,-0.146,0.890,-0.481,-0.885,-1.251,0.427,60.000,66996.000,1.000
-23.495,-18.218,-6.389,-10.195,-1.807,-3.349,-0.009,-1.626,-0.146,0.889,-0.477,-1.007,-1.556,0.427,60.000,66997.000,1.000
-21.597,-15.343,-4.920,-10.255,-0.445,-3.721,1.239,-0.286,-0.146,0.887,-0.479,-1.068,-1.831,0.397,60.000,66998.000,1.000
-20.946,-13.586,-4.938,-10.784,-1.003,-5.009,0.644,-0.975,-0.144,0.886,-0.479,-1.160,-2.014,0.305,60.000,66999.000,1.000
-22.216,-13.491,-6.033,-11.246,-3.035,-6.419,-1.380,-2.710,-0.143,0.889,-0.479,-1.190,-2.197,0.427,60.000,67000.000,1.000
-22.718,-13.403,-6.658,-10.097,-4.441,-6.426,-2.578,-3.411,-0.138,0.894,-0.478,-1.221,-2.289,0.427,60.000,67001.000,1.000
-19.506,-11.300,-5.686,-6.353,-3.181,-4.217,-1.306,-1.385,-0.133,0.895,-0.483,-1.343,-2.380,0.458,60.000,67002.000,1.000
-13.500,-7.326,-3.581,-1.052,0.663,-0.728,1.208,3.238,-0.130,0.899,-0.479,-1.495,-2.441,0.580,60.000,67003.000,1.000
-8.538,-3.630,-1.676,3.520,5.079,2.230,2.362,8.722,-0.126,0.900,-0.477,-1.740,-2.350,0.641,60.000,67004.000,1.000
-6.903,-2.015,-0.878,5.833,8.011,3.404,1.229,13.067,-0.128,0.900,-0.478,-1.892,-2.319,0.702,60.000,67005.000,1.000
-7.291,-2.344,-1.242,6.001,8.644,2.520,-0.924,15.144,-0.131,0.902,-0.474,-2.136,-2.258,0.824,60.000,67006.000,1.000
-7.084,-3.226,-2.392,4.913,7.154,-0.173,-2.552,14.870,-0.135,0.904,-0.475,-2.289,-2.167,0.793,60.000,67007.000,1.000
-7.002,-4.695,-4.515,2.534,3.357,-4.706,-4.282,12.396,-0.136,0.907,-0.478,-2.502,-2.075,0.824,60.000,67008.000,1.000
-9.996,-7.898,-7.664,-1.427,-2.658,-10.571,-7.597,8.191,-0.136,0.906,-0.479,-2.747,-2.106,0.916,60.000,67009.000,1.000
-15.636,-12.055,-10.430,-5.679,-8.924,-15.662,-11.680,3.661,-0.131,0.909,-0.475,-3.082,-2.167,0.916,60.000,67010.000,1.000
-18.986,-14.120,-10.663,-7.792,-12.408,-17.503,-13.692,0.595,-0.125,0.912,-0.478,-3.296,-2.075,0.824,60.000,67011.000,1.000
-15.724,-11.938,-7.620,-6.540,-11.681,-15.550,-11.929,-0.203,-0.120,0.915,-0.479,-3.571,-1.923,0.885,60.000,67012.000,1.000
-8.155,-7.379,-3.334,-3.620,-8.775,-12.174,-8.389,0.133,-0.116,0.913,-0.478,-3.815,-1.617,0.977,60.000,67013.000,1.000
-3.125,-4.634,-0.894,-1.977,-7.320,-10.556,-6.807,-0.436,-0.113,0.914,-0.479,-4.059,-1.312,0.885,60.000,67014.000,1.000
-4.395,-5.766,-1.579,-2.767,-8.938,-11.819,-8.802,-2.853,-0.111,0.913,-0.478,-4.395,-0.977,0.854,60.000,67015.000,1.000
-9.095,-8.824,-4.023,-4.533,-12.000,-14.460,-12.756,-6.085,-0.112,0.913,-0.476,-4.639,-0.580,0.824,60.000,67016.000,1.000
-11.470,-10.071,-5.791,-4.986,-13.640,-16.077,-15.572,-8.190,-0.112,0.912,-0.474,-4.852,-0.122,0.580,60.000,67017.000,1.000
-10.203,-8.411,-5.986,-3.725,-13.060,-15.752,-15.769,-8.499,-0.115,0.909,-0.475,-4.974,0.275,0.549,60.000,67018.000,1.000
-8.971,-5.906,-5.423,-2.166,-11.712,-14.081,-13.848,-7.900,-0.116,0.907,-0.473,-5.127,0.641,0.488,60.000,67019.000,1.000
-10.276,-4.244,-4.745,-1.218,-10.692,-11.595,-10.536,-7.268,-0.115,0.904,-0.474,-5.096,0.977,0.488,60.000,67020.000,1.000
-11.961,-2.778,-3.577,-0.284,-9.432,-8.212,-6.127,-6.579,-0.114,0.903,-0.473,-5.035,1.160,0.366,60.000,67021.000,1.000
-10.150,-0.079,-1.459,1.523,-6.862,-3.959,-1.044,-5.546,-0.113,0.899,-0.468,-5.005,1.465,0.305,60.000,67022.000,1.000
-4.999,3.314,0.890,3.617,-3.372,0.138,3.121,-4.589,-0.113,0.897,-0.469,-4.944,1.801,0.244,60.000,67023.000,1.000
-0.432,5.491,2.481,4.695,-0.250,3.040,4.853,-4.224,-0.113,0.896,-0.467,-4.883,1.953,0.214,60.000,67024.000,1.000
1.101,5.906,3.598,4.680,2.172,5.148,4.725,-4.130,-0.116,0.892,-0.467,-4.669,2.106,0.000,60.000,67025.000,1.000
1.292,6.173,5.548,4.920,4.728,7.951,4.998,-3.521,-0.118,0.888,-0.467,-4.517,2.350,0.031,60.000,67026.000,1.000
3.889,8.493,9.252,6.852,8.255,12.567,7.687,-2.072,-0.122,0.884,-0.468,-4.120,2.594,0.000,60.000,67027.000,1.000
9.842,13.116,14.011,10.436,12.254,18.542,12.557,-0.402,-0.125,0.882,-0.470,-3.845,2.747,-0.031,60.000,67028.000,1.000
16.460,18.198,18.214,14.473,15.327,24.381,17.781,0.690,-0.125,0.880,-0.472,-3.479,2.869,-0.061,60.000,67029.000,1.000
20.720,21.677,20.809,17.756,16.448,28.666,21.873,0.965,-0.128,0.880,-0.469,-2.716,2.747,0.000,60.000,67030.000,1.000
22.072,22.800,21.791,19.558,15.469,30.572,24.318,0.585,-0.130,0.880,-0.471,-2.319,2.594,0.061,60.000,67031.000,1.000
22.740,22.625,21.902,19.863,13.194,30.237,25.391,-0.168,-0.133,0.881,-0.466,-1.923,2.502,0.153,60.000,67032.000,1.000
24.520,22.470,21.554,18.846,10.573,28.340,25.076,-1.172,-0.134,0.880,-0.468,-1.434,2.411,0.336,60.000,67033.000,1.000
27.006,22.663,20.537,16.667,8.166,25.640,23.174,-2.277,-0.137,0.884,-0.469,-0.977,2.197,0.427,60.000,67034.000,1.000
28.826,22.844,18.589,13.704,6.290,22.802,20.147,-3.104,-0.138,0.885,-0.469,-0.610,1.923,0.519,60.000,67035.000,1.000
29.268,22.708,15.780,10.520,5.122,20.266,16.932,-3.269,-0.137,0.887,-0.472,-0.305,1.678,0.641,60.000,67036.000,1.000
29.132,22.568,12.624,7.742,4.831,18.345,14.509,-2.540,-0.137,0.886,-0.477,0.031,1.434,0.732,60.000,67037.000,1.000
29.288,22.761,9.627,5.701,5.335,17.002,13.065,-0.923,-0.138,0.885,-0.475,0.397,1.221,0.793,60.000,67038.000,1.000
29.814,23.388,7.259,4.596,6.495,16.035,12.257,1.565,-0.140,0.883,-0.473,0.824,0.885,0.946,60.000,67039.000,1.000
29.957,24.218,5.873,4.428,8.223,15.275,11.905,4.793,-0.142,0.883,-0.471,1.221,0.458,0.977,60.000,67040.000,1.000
28.396,24.509,5.408,4.714,10.223,14.444,11.872,8.274,-0.145,0.885,-0.470,1.404,0.061,1.007,60.000,67041.000,1.000
25.033,23.863,5.676,5.110,12.273,13.300,11.964,11.549,-0.144,0.885,-0.474,1.770,-0.305,1.007,60.000,67042.000,1.000
21.242,22.519,6.429,5.680,14.304,11.642,11.516,14.313,-0.145,0.884,-0.474,1.892,-0.671,0.946,60.000,67043.000,1.000
18.745,21.088,7.364,6.686,16.422,9.483,9.837,16.345,-0.145,0.884,-0.476,2.106,-1.160,0.946,60.000,67044.000,1.000
17.808,19.866,7.881,7.943,18.584,6.979,6.765,17.430,-0.147,0.884,-0.474,2.350,-1.556,0.793,60.000,67045.000,1.000
16.442,18.357,7.087,8.574,20.270,4.232,2.730,17.510,-0.148,0.881,-0.477,2.563,-2.045,0.885,60.000,67046.000,1.000
12.997,16.312,4.781,8.075,21.243,1.713,-0.813,17.161,-0.148,0.883,-0.478,2.686,-2.441,0.793,60.000,67047.000,1.000
8.283,14.375,1.811,6.895,21.949,0.124,-2.310,17.272,-0.147,0.884,-0.478,2.808,-2.960,0.702,60.000,67048.000,1.000
5.199,13.779,-0.588,6.038,23.075,-0.157,-1.354,18.380,-0.145,0.887,-0.476,2.991,-3.296,0.702,60.000,67049.000,1.000
5.298,14.801,-2.105,5.873,24.433,0.284,0.647,20.214,-0.145,0.888,-0.479,2.960,-3.601,0.641,60.000,67050.000,1.000
6.068,15.622,-3.729,5.546,24.530,0.082,1.150,21.811,-0.145,0.890,-0.480,2.930,-4.181,0.488,60.000,67051.000,1.000
4.169,14.217,-6.141,4.323,22.193,-1.414,-0.950,22.307,-0.143,0.894,-0.479,2.869,-4.425,0.458,60.000,67052.000,1.000
-0.077,10.711,-8.555,2.670,17.921,-3.481,-4.146,21.573,-0.138,0.899,-0.480,2.869,-4.639,0.427,60.000,67053.000,1.000
-2.175,7.729,-9.180,1.963,13.716,-4.607,-5.448,20.441,-0.135,0.899,-0.481,2.625,-4.761,0.336,60.000,67054.000,1.000
1.406,7.693,-7.134,2.804,11.185,-3.998,-3.464,19.670,-0.132,0.901,-0.479,2.502,-4.913,0.366,60.000,67055.000,1.000
8.336,9.860,-3.672,3.870,9.851,-2.559,-0.363,18.726,-0.131,0.904,-0.481,2.167,-4.974,0.305,60.000,67056.000,1.000
13.507,11.595,-0.654,3.526,8.322,-1.640,0.918,16.641,-0.128,0.906,-0.484,1.984,-5.005,0.305,60.000,67057.000,1.000
15.141,11.565,1.354,1.755,6.223,-1.536,-0.004,13.597,-0.127,0.907,-0.489,1.740,-4.913,0.122,60.000,67058.000,1.000
16.385,10.994,3.177,0.108,4.448,-1.492,-1.073,10.966,-0.123,0.907,-0.484,1.495,-4.761,0.000,60.000,67059.000,1.000
20.141,11.342,5.270,-0.437,3.415,-1.127,-1.049,9.441,-0.122,0.906,-0.487,1.343,-4.700,-0.031,60.000,67060.000,1.000
24.119,11.730,6.684,-0.852,1.906,-1.130,-1.439,7.987,-0.121,0.906,-0.485,1.129,-4.517,-0.031,60.000,67061.000,1.000
24.216,10.573,6.594,-2.432,-1.185,-1.913,-3.772,5.466,-0.122,0.905,-0.485,0.885,-4.395,-0.153,60.000,67062.000,1.000
20.244,8.159,5.573,-5.094,-5.187,-2.814,-7.009,2.202,-0.124,0.903,-0.487,0.702,-4.181,-0.336,60.000,67063.000,1.000
16.386,6.452,4.987,-7.650,-8.263,-2.840,-8.552,-0.587,-0.125,0.901,-0.489,0.427,-3.876,-0.366,60.000,67064.000,1.000
15.658,6.355,5.276,-9.466,-9.537,-1.866,-7.578,-2.597,-0.124,0.899,-0.487,0.244,-3.632,-0.458,60.000,67065.000,1.000
15.718,6.305,5.373,-11.162,-9.932,-0.674,-6.226,-4.942,-0.125,0.898,-0.483,0.061,-3.418,-0.641,60.000,67066.000,1.000
12.542,4.618,4.297,-13.137,-10.405,0.422,-6.367,-8.596,-0.127,0.897,-0.488,-0.031,-3.174,-0.671,60.000,67067.000,1.000
5.747,1.613,2.378,-14.591,-10.595,2.072,-7.085,-13.045,-0.125,0.898,-0.490,-0.183,-2.869,-0.824,60.000,67068.000,1.000
-0.704,-0.719,0.937,-14.058,-9.317,5.168,-5.762,-16.474,-0.126,0.897,-0.487,-0.427,-2.625,-0.854,60.000,67069.000,1.000
-3.366,-1.072,0.700,-11.057,-6.360,9.517,-1.507,-17.473,-0.124,0.898,-0.483,-0.610,-2.441,-0.824,60.000,67070.000,1.000
-3.720,-0.572,0.809,-6.994,-3.441,13.403,3.239,-16.497,-0.123,0.896,-0.487,-0.763,-2.258,-0.763,60.000,67071.000,1.000
-5.388,-1.148,0.010,-3.769,-2.563,15.101,5.558,-15.165,-0.125,0.896,-0.486,-0.885,-1.892,-0.824,60.000,67072.000,1.000
-9.178,-3.310,-2.032,-2.250,-4.195,14.191,4.900,-14.734,-0.127,0.893,-0.486,-0.946,-1.587,-0.763,60.000,67073.000,1.000
-12.050,-5.725,-4.456,-1.899,-6.969,11.674,3.238,-15.333,-0.127,0.893,-0.486,-0.946,-1.282,-0.641,60.000,67074.000,1.000
-11.411,-7.026,-6.111,-1.792,-9.120,9.068,2.813,-16.434,-0.129,0.894,-0.488,-1.007,-1.038,-0.519,60.000,67075.000,1.000
-8.956,-7.424,-6.443,-1.676,-10.002,7.501,4.115,-17.421,-0.127,0.892,-0.484,-1.068,-0.854,-0.366,60.000,67076.000,1.000
-7.777,-7.476,-5.191,-1.526,-9.799,7.652,6.535,-17.581,-0.129,0.890,-0.484,-1.099,-0.671,-0.214,60.000,67077.000,1.000
-8.169,-6.894,-2.352,-1.163,-8.861,9.452,9.229,-16.550,-0.129,0.891,-0.489,-1.129,-0.397,-0.183,60.000,67078.000,1.000
-7.291,-4.864,1.637,-0.319,-7.316,11.992,11.484,-14.579,-0.128,0.891,-0.481,-1.129,-0.275,-0.031,60.000,67079.000,1.000
-3.443,-1.735,5.639,0.702,-5.487,13.699,12.416,-12.451,-0.127,0.892,-0.483,-1.251,-0.031,0.122,60.000,67080.000,1.000
0.512,0.151,8.105,0.778,-4.366,12.952,10.885,-11.074,-0.130,0.894,-0.483,-1.251,0.092,0.183,60.000,67081.000,1.000
0.868,-0.865,8.522,-0.521,-4.417,9.567,7.242,-10.477,-0.134,0.894,-0.484,-1.282,0.366,0.336,60.000,67082.000,1.000
-1.940,-3.328,7.987,-1.991,-4.698,5.177,3.811,-9.606,-0.135,0.896,-0.482,-1.404,0.427,0.458,60.000,67083.000,1.000
-3.478,-3.796,8.232,-1.691,-3.616,2.020,3.250,-7.179,-0.137,0.898,-0.480,-1.495,0.458,0.488,60.000,67084.000,1.000
-1.040,-0.854,9.659,0.844,-1.024,0.890,5.891,-3.072,-0.138,0.897,-0.478,-1.740,0.488,0.488,60.000,67085.000,1.000
2.139,2.613,10.537,3.631,0.814,0.271,8.666,1.096,-0.141,0.897,-0.477,-1.984,0.580,0.488,60.000,67086.000,1.000
1.352,2.907,9.125,4.624,-0.208,-1.590,8.236,3.435,-0.141,0.899,-0.479,-2.045,0.580,0.580,60.000,67087.000,1.000
-3.326,-0.132,5.670,4.024,-3.363,-4.590,4.214,3.559,-0.141,0.900,-0.479,-2.289,0.580,0.641,60.000,67088.000,1.000
-7.081,-3.293,1.878,3.659,-5.806,-7.218,-0.948,2.654,-0.137,0.900,-0.477,-2.533,0.427,0.488,60.000,67089.000,1.000
-6.827,-4.319,-1.321,4.277,-5.970,-8.761,-5.015,1.798,-0.136,0.901,-0.478,-2.563,0.458,0.458,60.000,67090.000,1.000
-5.713,-4.757,-4.709,4.418,-5.358,-10.252,-8.248,0.991,-0.135,0.904,-0.477,-2.838,0.610,0.397,60.000,67091.000,1.000
-8.592,-7.248,-9.037,2.706,-6.117,-12.776,-11.729,0.197,-0.131,0.907,-0.477,-3.021,0.580,0.275,60.000,67092.000,1.000
-15.660,-11.762,-13.613,-0.121,-8.248,-15.971,-15.220,0.129,-0.129,0.908,-0.478,-3.113,0.702,0.336,60.000,67093.000,1.000
-22.036,-15.388,-16.836,-1.910,-9.772,-18.398,-17.269,1.565,-0.127,0.909,-0.476,-3.387,0.854,0.305,60.000,67094.000,1.000
-23.938,-16.134,-18.070,-1.814,-9.547,-19.353,-17.431,3.996,-0.123,0.908,-0.479,-3.540,1.038,0.244,60.000,67095.000,1.000
-23.517,-15.925,-18.432,-1.551,-8.988,-19.802,-17.377,5.592,-0.122,0.905,-0.479,-3.601,1.221,0.153,60.000,67096.000,1.000
-24.947,-18.013,-19.036,-3.054,-10.004,-20.808,-18.441,5.090,-0.125,0.902,-0.478,-3.632,1.404,0.031,60.000,67097.000,1.000
-28.552,-22.879,-19.556,-6.092,-12.536,-22.112,-19.809,3.051,-0.125,0.899,-0.479,-3.723,1.587,0.092,60.000,67098.000,1.000
-30.257,-27.523,-18.711,-8.562,-14.634,-22.494,-19.541,1.186,-0.128,0.897,-0.475,-3.784,1.770,0.122,60.000,67099.000,1.000
-26.891,-28.918,-16.059,-8.969,-14.892,-21.372,-17.220,0.530,-0.128,0.894,-0.475,-3.632,1.953,-0.061,60.000,67100.000,1.000
-20.516,-27.359,-12.844,-8.050,-14.158,-19.645,-15.013,0.543,-0.129,0.892,-0.474,-3.571,1.984,-0.183,60.000,67101.000,1.000
-15.240,-25.096,-10.469,-7.300,-13.927,-18.444,-14.904,0.165,-0.131,0.890,-0.477,-3.418,2.136,-0.153,60.000,67102.000,1.000
-12.455,-23.327,-9.060,-7.103,-14.236,-17.849,-16.323,-1.006,-0.135,0.885,-0.475,-3.265,2.045,-0.092,60.000,67103.000,1.000
-10.351,-21.445,-7.664,-6.666,-13.727,-16.973,-16.851,-2.529,-0.138,0.885,-0.478,-2.960,2.136,-0.122,60.000,67104.000,1.000
-7.588,-19.035,-5.795,-5.671,-11.710,-15.317,-15.183,-4.017,-0.137,0.882,-0.475,-2.747,2.136,-0.061,60.000,67105.000,1.000
-5.530,-17.133,-4.045,-4.997,-9.243,-13.398,-12.536,-5.568,-0.137,0.882,-0.473,-2.441,1.984,0.061,60.000,67106.000,1.000
-5.253,-16.284,-2.769,-5.041,-7.405,-11.495,-10.169,-6.909,-0.138,0.883,-0.476,-2.106,1.801,0.122,60.000,67107.000,1.000
-5.721,-15.515,-1.740,-5.017,-6.198,-9.225,-7.802,-7.461,-0.141,0.883,-0.477,-1.862,1.678,0.244,60.000,67108.000,1.000
-5.337,-13.719,-1.003,-4.153,-5.360,-6.420,-4.657,-7.388,-0.144,0.884,-0.476,-1.556,1.373,0.366,60.000,67109.000,1.000
-4.378,-11.511,-1.314,-2.954,-5.475,-3.843,-1.126,-7.881,-0.145,0.884,-0.477,-1.282,1.190,0.610,60.000,67110.000,1.000
-5.003,-11.021,-3.344,-2.749,-7.500,-2.603,1.321,-9.921,-0.145,0.884,-0.478,-1.068,0.885,0.732,60.000,67111.000,1.000
-7.778,-13.063,-6.365,-3.761,-10.894,-2.644,2.340,-12.928,-0.145,0.887,-0.477,-0.793,0.610,0.732,60.000,67112.000,1.000
-10.804,-16.062,-8.721,-4.862,-13.578,-2.814,3.064,-15.352,-0.147,0.889,-0.477,-0.488,0.183,0.977,60.000,67113.000,1.000
-11.819,-17.535,-9.193,-4.773,-13.582,-2.039,4.727,-16.032,-0.147,0.891,-0.476,-0.366,-0.214,1.190,60.000,67114.000,1.000
-10.320,-16.178,-7.905,-3.225,-10.565,-0.269,7.417,-14.940,-0.147,0.892,-0.474,-0.305,-0.488,1.373,60.000,67115.000,1.000
-7.930,-12.828,-6.212,-1.177,-6.026,1.480,9.886,-12.938,-0.144,0.891,-0.479,-0.122,-0.854,1.434,60.000,67116.000,1.000
-6.288,-9.252,-5.473,0.297,-1.832,2.080,10.894,-10.875,-0.144,0.892,-0.475,0.092,-1.129,1.465,60.000,67117.000,1.000
-6.354,-7.060,-6.323,0.621,0.835,0.802,9.663,-9.299,-0.144,0.893,-0.475,0.214,-1.648,1.617,60.000,67118.000,1.000
-8.227,-6.830,-8.389,-0.100,1.880,-2.280,6.221,-8.247,-0.141,0.894,-0.481,0.183,-1.953,1.740,60.000,67119.000,1.000
-10.926,-7.877,-10.670,-1.333,1.978,-6.295,1.668,-7.287,-0.139,0.891,-0.480,0.214,-2.106,1.709,60.000,67120.000,1.000
-13.147,-9.178,-12.461,-2.709,1.665,-10.324,-2.579,-6.089,-0.139,0.892,-0.479,0.336,-2.350,1.831,60.000,67121.000,1.000
-13.618,-9.836,-13.464,-3.874,1.306,-13.675,-5.427,-4.570,-0.138,0.891,-0.480,0.336,-2.747,1.801,60.000,67122.000,1.000
-12.457,-9.720,-13.739,-4.604,1.083,-16.048,-7.075,-2.785,-0.139,0.889,-0.479,0.458,-2.960,1.740,60.000,67123.000,1.000
-11.200,-9.409,-13.386,-4.843,1.100,-17.355,-8.569,-0.616,-0.139,0.887,-0.483,0.519,-3.174,1.617,60.000,67124.000,1.000
-10.878,-9.186,-12.215,-4.455,1.664,-17.431,-10.109,2.244,-0.138,0.887,-0.481,0.641,-3.418,1.587,60.000,67125.000,1.000
-10.916,-8.534,-9.899,-3.211,3.227,-16.183,-10.661,5.856,-0.136,0.889,-0.481,0.702,-3.632,1.526,60.000,67126.000,1.000
-9.691,-6.518,-6.282,-0.939,6.020,-13.815,-9.016,9.886,-0.135,0.890,-0.480,0.702,-3.784,1.434,60.000,67127.000,1.000
-7.246,-3.409,-2.098,1.815,9.217,-11.228,-5.680,13.551,-0.134,0.890,-0.481,0.702,-3.876,1.373,60.000,67128.000,1.000
-5.416,-0.701,1.344,4.137,11.429,-9.525,-2.570,16.106,-0.131,0.891,-0.482,0.854,-4.059,1.251,60.000,67129.000,1.000
-5.106,0.671,3.223,5.665,12.064,-9.144,-1.049,17.358,-0.131,0.893,-0.483,0.793,-4.120,1.221,60.000,67130.000,1.000
-5.178,1.220,3.646,6.599,11.639,-9.684,-1.166,17.611,-0.129,0.894,-0.479,0.702,-3.998,1.007,60.000,67131.000,1.000
-3.607,2.304,3.488,7.263,11.197,-10.096,-1.909,17.469,-0.128,0.895,-0.480,0.580,-3.967,0.946,60.000,67132.000,1.000
-0.551,4.046,3.481,7.332,11.011,-9.577,-2.585,17.331,-0.125,0.894,-0.485,0.549,-3.876,0.885,60.000,67133.000,1.000
1.799,5.154,4.004,6.253,10.590,-7.941,-3.088,17.389,-0.126,0.896,-0.483,0.427,-3.754,0.793,60.000,67134.000,1.000
2.793,5.236,5.608,4.526,10.063,-5.169,-3.032,17.946,-0.124,0.895,-0.486,0.366,-3.479,0.763,60.000,67135.000,1.000
4.591,5.792,8.902,3.699,10.598,-1.112,-1.666,19.272,-0.124,0.896,-0.487,0.214,-3.418,0.763,60.000,67136.000,1.000
9.726,8.563,13.785,4.935,13.187,4.203,1.579,21.106,-0.125,0.897,-0.485,0.214,-3.326,0.641,60.000,67137.000,1.000
17.097,12.923,18.579,7.299,16.735,9.641,5.820,22.200,-0.127,0.896,-0.484,-0.031,-3.052,0.519,60.000,67138.000,1.000
22.849,16.476,21.246,8.650,18.742,13.522,9.267,21.229,-0.127,0.898,-0.487,-0.366,-2.869,0.519,60.000,67139.000,1.000
25.161,18.097,21.481,8.111,18.060,15.363,11.114,18.138,-0.128,0.899,-0.484,-0.610,-2.747,0.427,60.000,67140.000,1.000
26.171,19.257,20.883,6.861,16.044,16.364,12.044,14.171,-0.128,0.901,-0.484,-0.854,-2.533,0.458,60.000,67141.000,1.000
29.489,22.499,21.319,6.726,15.045,18.236,13.411,10.674,-0.128,0.900,-0.485,-1.099,-2.441,0.305,60.000,67142.000,1.000
35.148,27.933,22.880,7.792,15.569,21.256,15.400,7.724,-0.126,0.902,-0.483,-1.343,-2.258,0.214,60.000,67143.000,1.000
39.301,32.654,24.070,8.460,16.010,24.268,17.095,4.610,-0.127,0.901,-0.483,-1.709,-2.045,0.061,60.000,67144.000,1.000
39.075,33.983,23.575,7.642,15.002,26.322,18.049,1.202,-0.127,0.900,-0.487,-1.953,-1.862,0.183,60.000,67145.000,1.000
35.442,31.911,21.152,5.743,12.830,27.392,18.514,-1.889,-0.124,0.905,-0.487,-2.106,-1.587,0.122,60.000,67146.000,1.000
31.340,28.413,17.370,3.683,10.636,27.779,18.775,-4.079,-0.122,0.905,-0.488,-2.258,-1.404,0.122,60.000,67147.000,1.000
26.752,24.236,12.475,1.070,8.267,26.921,17.922,-5.746,-0.119,0.906,-0.485,-2.533,-1.099,0.092,60.000,67148.000,1.000
18.821,18.347,6.465,-3.261,4.375,23.837,14.638,-7.934,-0.119,0.906,-0.488,-2.686,-0.885,0.183,60.000,67149.000,1.000
7.421,10.916,0.247,-8.913,-1.158,18.819,9.421,-11.092,-0.117,0.906,-0.487,-2.960,-0.427,0.275,60.000,67150.000,1.000
-2.772,4.549,-4.500,-13.630,-6.429,13.601,4.491,-14.613,-0.117,0.903,-0.484,-3.174,-0.153,0.366,60.000,67151.000,1.000
-6.732,1.809,-6.780,-15.405,-9.335,9.871,1.751,-17.537,-0.115,0.902,-0.487,-3.296,0.244,0.519,60.000,67152.000,1.000
-5.520,1.790,-7.498,-14.637,-9.921,7.761,0.805,-19.706,-0.117,0.903,-0.485,-3.601,0.732,0.610,60.000,67153.000,1.000
-5.010,1.269,-8.223,-13.152,-9.809,6.460,0.045,-21.492,-0.119,0.898,-0.486,-3.601,1.129,0.671,60.000,67154.000,1.000
-7.922,-0.645,-8.966,-11.497,-9.525,5.813,-0.592,-22.425,-0.121,0.897,-0.484,-3.662,1.434,0.732,60.000,67155.000,1.000
-10.408,-1.159,-8.153,-8.420,-7.726,6.481,0.638,-21.106,-0.125,0.895,-0.480,-3.632,1.587,0.732,60.000,67156.000,1.000
-7.249,2.511,-4.780,-2.998,-3.271,8.724,4.818,-16.946,-0.128,0.891,-0.485,-3.632,1.801,0.793,60.000,67157.000,1.000
0.245,8.684,-0.443,3.057,2.168,11.174,9.587,-11.670,-0.129,0.891,-0.484,-3.601,1.862,0.854,60.000,67158.000,1.000
5.026,12.438,1.920,6.565,5.113,11.851,10.924,-7.907,-0.133,0.891,-0.481,-3.510,1.984,0.854,60.000,67159.000,1.000
2.752,10.873,1.020,6.084,3.841,10.212,7.785,-6.774,-0.139,0.889,-0.481,-3.448,2.045,0.885,60.000,67160.000,1.000
-3.651,5.679,-1.913,3.034,-0.160,7.415,3.228,-7.387,-0.142,0.890,-0.481,-3.418,1.984,0.824,60.000,67161.000,1.000
-7.881,0.927,-4.688,0.055,-3.966,5.004,1.085,-7.994,-0.143,0.890,-0.478,-3.357,1.892,0.793,60.000,67162.000,1.000
-8.330,-1.548,-6.291,-1.693,-6.234,3.470,1.713,-7.544,-0.144,0.892,-0.474,-3.204,1.617,0.702,60.000,67163.000,1.000
-9.012,-3.009,-6.866,-2.693,-7.498,2.660,2.648,-6.071,-0.143,0.891,-0.474,-3.204,1.434,0.732,60.000,67164.000,1.000
-12.599,-4.453,-6.375,-3.135,-8.111,2.950,2.801,-3.905,-0.143,0.889,-0.478,-3.204,1.129,0.702,60.000,67165.000,1.000
-16.318,-4.803,-4.435,-2.223,-7.444,4.950,3.677,-1.002,-0.142,0.887,-0.478,-3.174,1.007,0.732,60.000,67166.000,1.000
-15.560,-2.755,-1.331,0.483,-5.167,8.195,6.519,2.638,-0.143,0.886,-0.475,-3.052,0.824,0.854,60.000,67167.000,1.000
-11.073,0.159,1.021,3.286,-2.999,10.344,8.920,5.784,-0.145,0.888,-0.473,-2.960,0.580,0.977,60.000,67168.000,1.000
-8.736,0.538,0.596,3.601,-3.464,9.048,6.790,6.665,-0.144,0.890,-0.477,-2.747,0.427,1.160,60.000,67169.000,1.000
-11.784,-2.850,-2.274,1.039,-6.797,4.562,-0.430,5.105,-0.143,0.895,-0.478,-2.808,0.183,1.190,60.000,67170.000,1.000
-16.491,-7.635,-5.064,-2.052,-10.444,-0.492,-8.695,2.977,-0.143,0.898,-0.477,-2.869,-0.183,1.343,60.000,67171.000,1.000
-16.118,-10.105,-5.471,-2.938,-11.501,-3.563,-13.138,2.451,-0.139,0.902,-0.475,-2.808,-0.458,1.404,60.000,67172.000,1.000
-9.383,-9.273,-3.736,-1.381,-9.680,-4.414,-12.830,3.864,-0.135,0.908,-0.474,-2.960,-0.549,1.465,60.000,67173.000,1.000
-2.046,-7.663,-1.895,0.669,-7.097,-4.569,-10.648,5.995,-0.133,0.910,-0.474,-3.143,-0.702,1.556,60.000,67174.000,1.000
0.733,-7.601,-0.994,2.012,-5.232,-4.979,-8.915,8.093,-0.135,0.911,-0.470,-3.326,-0.824,1.587,60.000,67175.000,1.000
0.581,-8.116,-0.007,3.549,-3.306,-5.151,-7.170,10.651,-0.135,0.914,-0.468,-3.479,-0.916,1.526,60.000,67176.000,1.000
3.319,-6.197,2.592,6.649,0.152,-4.344,-3.966,14.166,-0.135,0.915,-0.470,-3.632,-1.068,1.465,60.000,67177.000,1.000
10.302,-1.348,6.328,10.423,4.376,-3.316,-0.160,17.548,-0.139,0.914,-0.470,-3.876,-1.251,1.526,60.000,67178.000,1.000
16.319,3.359,8.994,12.224,6.676,-3.718,1.515,18.857,-0.135,0.914,-0.467,-3.998,-1.343,1.343,60.000,67179.000,1.000
16.718,5.286,9.247,10.812,5.794,-5.946,-0.143,17.470,-0.133,0.914,-0.467,-4.303,-1.373,1.160,60.000,67180.000,1.000
13.091,5.282,7.906,7.785,3.540,-8.586,-3.508,14.782,-0.130,0.915,-0.466,-4.517,-1.434,1.068,60.000,67181.000,1.000
11.061,6.272,6.936,5.965,3.096,-9.854,-5.732,12.932,-0.126,0.914,-0.469,-4.669,-1.404,0.916,60.000,67182.000,1.000
12.717,9.018,7.154,6.341,5.670,-9.543,-5.750,12.797,-0.123,0.913,-0.471,-4.700,-1.404,0.641,60.000,67183.000,1.000
14.429,11.212,7.732,7.562,9.719,-8.880,-4.783,13.611,-0.120,0.911,-0.470,-4.822,-1.251,0.549,60.000,67184.000,1.000
12.161,10.712,7.685,8.127,13.220,-8.802,-4.292,14.270,-0.118,0.908,-0.466,-4.913,-1.099,0.336,60.000,67185.000,1.000
5.924,7.796,6.933,7.941,15.486,-9.122,-4.719,14.337,-0.116,0.903,-0.466,-4.761,-0.732,0.092,60.000,67186.000,1.000
-0.560,4.662,6.214,8.054,17.118,-8.796,-5.357,13.930,-0.118,0.896,-0.466,-4.700,-0.427,-0.092,60.000,67187.000,1.000
-4.298,2.976,5.912,9.011,18.443,-7.053,-5.595,12.897,-0.116,0.891,-0.467,-4.608,-0.214,-0.214,60.000,67188.000,1.000
-5.605,2.533,5.610,10.137,18.744,-4.077,-5.661,10.778,-0.116,0.884,-0.469,-4.303,0.031,-0.397,60.000,67189.000,1.000
-6.711,2.012,4.739,10.307,16.965,-0.744,-6.150,7.434,-0.120,0.878,-0.468,-3.906,0.214,-0.366,60.000,67190.000,1.000
-9.284,0.340,3.268,8.978,12.743,2.050,-7.348,3.364,-0.121,0.876,-0.469,-3.448,0.488,-0.519,60.000,67191.000,1.000
-12.473,-2.093,1.939,6.857,7.072,4.117,-8.456,-0.378,-0.125,0.876,-0.466,-2.960,0.580,-0.580,60.000,67192.000,1.000
-14.071,-4.010,1.412,5.206,1.536,5.746,-8.316,-2.959,-0.127,0.876,-0.466,-2.441,0.732,-0.549,60.000,67193.000,1.000
-12.613,-4.447,1.679,4.861,-2.727,7.203,-6.453,-4.343,-0.128,0.874,-0.468,-2.197,0.793,-0.519,60.000,67194.000,1.000
-8.545,-3.590,2.129,5.593,-5.623,8.302,-3.559,-5.323,-0.130,0.874,-0.466,-1.770,0.824,-0.458,60.000,67195.000,1.000
-4.193,-2.872,1.853,6.058,-8.146,8.344,-1.330,-7.078,-0.131,0.875,-0.467,-1.312,0.793,-0.427,60.000,67196.000,1.000
-1.188,-3.301,0.566,5.162,-11.110,7.165,-0.701,-10.205,-0.136,0.878,-0.468,-0.824,0.671,-0.275,60.000,67197.000,1.000
1.077,-4.278,-1.103,3.120,-14.183,5.742,-0.933,-14.222,-0.138,0.878,-0.466,-0.549,0.580,-0.183,60.000,67198.000,1.000
4.770,-3.976,-2.023,1.330,-16.122,5.660,-0.301,-17.772,-0.141,0.882,-0.467,-0.153,0.336,-0.031,60.000,67199.000,1.000
11.025,-1.219,-1.555,0.925,-16.230,7.635,2.143,-19.706,-0.144,0.885,-0.473,0.214,0.153,-0.031,60.000,67200.000,1.000
17.814,2.776,-0.288,1.480,-15.447,10.467,5.332,-20.105,-0.145,0.890,-0.473,0.458,-0.153,0.153,60.000,67201.000,1.000
22.544,5.903,0.903,1.999,-14.954,12.233,7.772,-19.607,-0.148,0.895,-0.471,0.641,-0.488,0.244,60.000,67202.000,1.000
25.112,7.399,1.759,2.242,-14.643,11.833,8.994,-18.431,-0.148,0.899,-0.467,0.732,-0.854,0.549,60.000,67203.000,1.000
27.716,8.187,2.584,2.748,-13.322,9.432,9.468,-16.271,-0.147,0.902,-0.466,0.763,-1.221,0.671,60.000,67204.000,1.000
31.588,9.179,3.480,3.709,-10.252,5.853,9.584,-13.000,-0.146,0.905,-0.465,0.641,-1.526,0.824,60.000,67205.000,1.000
34.400,9.589,3.786,4.144,-6.333,1.637,8.707,-9.334,-0.142,0.905,-0.466,0.671,-1.862,0.916,60.000,67206.000,1.000
33.227,8.176,2.915,3.064,-3.058,-2.892,6.235,-6.310,-0.142,0.908,-0.470,0.488,-2.136,0.946,60.000,67207.000,1.000
28.526,5.200,1.127,0.799,-0.973,-7.373,2.590,-4.338,-0.141,0.906,-0.468,0.336,-2.441,0.977,60.000,67208.000,1.000
24.143,2.539,-0.591,-1.109,0.661,-11.356,-1.034,-2.781,-0.138,0.907,-0.469,0.153,-2.625,1.129,60.000,67209.000,1.000
22.777,1.526,-1.678,-1.669,2.538,-14.729,-3.852,-0.948,-0.135,0.907,-0.468,0.000,-2.869,1.282,60.000,67210.000,1.000
22.189,1.106,-2.789,-1.731,4.110,-17.978,-6.347,0.705,-0.135,0.906,-0.473,-0.122,-2.991,1.221,60.000,67211.000,1.000
18.657,-0.237,-4.498,-2.430,4.816,-21.176,-8.884,1.425,-0.132,0.905,-0.475,-0.244,-3.082,1.312,60.000,67212.000,1.000
12.060,-2.203,-6.223,-3.565,5.280,-23.516,-10.805,1.542,-0.129,0.906,-0.476,-0.336,-3.174,1.404,60.000,67213.000,1.000
6.160,-3.047,-6.806,-3.974,6.665,-24.120,-11.155,2.271,-0.128,0.904,-0.479,-0.336,-3.113,1.282,60.000,67214.000,1.000
3.935,-1.880,-6.041,-3.228,8.993,-23.248,-10.160,4.124,-0.125,0.902,-0.478,-0.427,-3.052,1.160,60.000,67215.000,1.000
3.522,-0.244,-5.257,-2.457,10.488,-22.380,-9.743,6.176,-0.124,0.900,-0.478,-0.488,-2.991,1.190,60.000,67216.000,1.000
1.226,-0.203,-5.577,-2.724,9.583,-22.391,-11.121,7.439,-0.124,0.899,-0.473,-0.580,-2.960,1.038,60.000,67217.000,1.000
-3.408,-1.907,-6.505,-3.655,6.800,-22.547,-13.052,7.930,-0.127,0.897,-0.472,-0.580,-2.777,0.946,60.000,67218.000,1.000
-6.905,-3.638,-6.572,-4.004,4.257,-21.457,-12.956,8.214,-0.129,0.897,-0.475,-0.671,-2.686,0.671,60.000,67219.000,1.000
-6.583,-4.295,-5.252,-3.542,3.295,-18.786,-9.966,8.300,-0.127,0.896,-0.475,-0.610,-2.472,0.519,60.000,67220.000,1.000
-5.019,-5.453,-3.938,-3.994,2.766,-15.879,-6.714,7.284,-0.128,0.896,-0.474,-0.610,-2.380,0.427,60.000,67221.000,1.000
-6.829,-9.283,-4.245,-7.022,0.697,-14.091,-6.464,4.502,-0.128,0.895,-0.475,-0.641,-2.289,0.305,60.000,67222.000,1.000
-12.619,-15.318,-6.107,-12.027,-3.168,-13.266,-9.373,0.631,-0.125,0.897,-0.479,-0.580,-2.106,0.061,60.000,67223.000,1.000
-17.765,-20.223,-7.777,-16.356,-6.993,-11.979,-12.208,-2.556,-0.124,0.899,-0.477,-0.702,-1.984,-0.061,60.000,67224.000,1.000
-17.674,-21.030,-7.615,-17.675,-8.806,-9.094,-11.773,-3.644,-0.124,0.901,-0.478,-0.702,-1.740,-0.153,60.000,67225.000,1.000
-13.397,-18.243,-5.628,-15.958,-8.472,-4.884,-8.172,-2.684,-0.124,0.900,-0.478,-0.793,-1.587,-0.183,60.000,67226.000,1.000
-9.610,-14.652,-2.883,-12.852,-7.294,-0.396,-3.727,-0.790,-0.122,0.904,-0.480,-0.885,-1.404,-0.336,60.000,67227.000,1.000
-9.041,-12.352,-0.464,-10.161,-6.697,3.293,-0.353,0.577,-0.124,0.905,-0.476,-0.946,-1.160,-0.488,60.000,67228.000,1.000
-9.975,-11.232,1.131,-8.779,-7.196,5.574,1.659,0.273,-0.124,0.903,-0.479,-0.977,-0.946,-0.519,60.000,67229.000,1.000
-9.357,-10.152,1.875,-8.753,-8.453,6.522,2.764,-2.163,-0.123,0.903,-0.480,-0.977,-0.671,-0.488,60.000,67230.000,1.000
-7.529,-9.235,1.726,-10.095,-10.253,6.549,2.637,-6.575,-0.125,0.905,-0.480,-1.007,-0.366,-0.519,60.000,67231.000,1.000
-7.069,-9.419,1.107,-12.396,-12.333,6.279,1.063,-12.003,-0.127,0.903,-0.477,-1.099,-0.305,-0.549,60.000,67232.000,1.000
-8.633,-10.599,1.097,-14.423,-13.937,6.276,-0.868,-16.869,-0.129,0.900,-0.475,-1.007,-0.153,-0.458,60.000,67233.000,1.000
-9.530,-11.101,2.753,-14.646,-14.066,6.852,-1.188,-19.679,-0.130,0.896,-0.474,-1.007,0.000,-0.458,60.000,67234.000,1.000
-7.041,-9.327,5.998,-12.519,-12.407,7.859,1.024,-19.974,-0.132,0.893,-0.478,-1.007,0.122,-0.397,60.000,67235.000,1.000
-2.686,-5.923,9.241,-9.244,-10.021,8.573,4.369,-18.632,-0.134,0.890,-0.477,-1.007,0.122,-0.397,60.000,67236.000,1.000
-0.629,-3.121,10.843,-6.534,-8.216,8.547,7.038,-16.904,-0.134,0.889,-0.477,-0.946,0.244,-0.427,60.000,67237.000,1.000
-3.029,-2.492,10.415,-5.144,-7.206,8.033,8.671,-15.602,-0.135,0.889,-0.479,-0.854,0.275,-0.336,60.000,67238.000,1.000
-7.765,-3.420,8.785,-4.448,-5.926,7.585,10.148,-14.896,-0.134,0.889,-0.479,-0.702,0.153,-0.183,60.000,67239.000,1.000
-11.388,-4.190,6.740,-3.528,-3.444,7.307,11.981,-14.628,-0.133,0.891,-0.479,-0.671,0.153,-0.092,60.000,67240.000,1.000
-13.893,-4.574,3.996,-2.578,-0.562,6.453,13.080,-14.819,-0.135,0.895,-0.476,-0.671,0.122,0.061,60.000,67241.000,1.000
-17.455,-5.532,0.207,-2.202,1.173,4.461,12.263,-15.231,-0.138,0.898,-0.475,-0.671,0.122,0.183,60.000,67242.000,1.000
-21.987,-7.157,-3.850,-2.129,1.473,1.893,9.946,-14.891,-0.140,0.900,-0.474,-0.763,0.183,0.122,60.000,67243.000,1.000
-24.056,-8.132,-6.647,-1.290,1.665,0.049,7.924,-12.651,-0.141,0.903,-0.471,-0.885,0.000,0.122,60.000,67244.000,1.000
-21.310,-7.720,-7.573,0.567,2.803,-0.584,7.370,-8.565,-0.145,0.904,-0.468,-0.977,0.000,0.122,60.000,67245.000,1.000
-16.791,-7.482,-7.723,1.977,4.089,-1.006,7.479,-4.196,-0.143,0.906,-0.464,-1.099,-0.183,0.214,60.000,67246.000,1.000
-15.278,-8.953,-8.163,1.731,4.532,-1.918,7.366,-0.850,-0.138,0.906,-0.468,-1.343,-0.336,0.092,60.000,67247.000,1.000
-17.119,-10.898,-8.528,0.627,4.887,-2.474,7.524,1.703,-0.137,0.910,-0.469,-1.526,-0.366,-0.122,60.000,67248.000,1.000
-17.722,-10.236,-7.660,0.580,6.853,-1.370,8.799,4.589,-0.133,0.911,-0.467,-1.801,-0.336,-0.183,60.000,67249.000,1.000
-13.735,-6.033,-5.472,2.081,10.400,1.064,10.529,8.057,-0.125,0.915,-0.468,-2.136,-0.275,-0.244,60.000,67250.000,1.000
-8.270,-1.647,-3.629,3.233,12.865,2.552,10.463,10.794,-0.121,0.915,-0.468,-2.289,-0.092,-0.275,60.000,67251.000,1.000
-6.672,-0.837,-3.395,2.332,12.072,1.562,7.642,11.710,-0.120,0.913,-0.468,-2.563,0.092,-0.397,60.000,67252.000,1.000
-9.550,-3.234,-3.999,0.065,9.018,-0.917,3.764,11.398,-0.116,0.910,-0.469,-2.808,0.458,-0.427,60.000,67253.000,1.000
-12.065,-4.827,-3.572,-1.271,6.851,-2.524,1.546,11.500,-0.115,0.908,-0.467,-2.960,0.732,-0.610,60.000,67254.000,1.000
-9.995,-2.576,-1.355,-0.344,7.585,-1.924,2.087,13.013,-0.116,0.904,-0.469,-3.113,0.977,-0.610,60.000,67255.000,1.000
-5.222,2.152,1.256,1.645,9.977,-0.048,3.441,15.406,-0.115,0.902,-0.469,-3.235,1.404,-0.610,60.000,67256.000,1.000
-2.763,5.711,2.321,2.573,11.227,1.287,2.840,17.500,-0.118,0.898,-0.471,-3.113,1.740,-0.671,60.000,67257.000,1.000
-4.597,6.237,1.237,1.660,9.898,1.262,-0.437,18.579,-0.121,0.895,-0.471,-2.991,1.984,-0.671,60.000,67258.000,1.000
-7.725,5.116,-0.829,0.080,7.016,0.686,-4.472,18.871,-0.122,0.895,-0.472,-2.899,2.167,-0.763,60.000,67259.000,1.000
-8.305,4.726,-2.251,-0.621,4.431,0.912,-6.971,18.967,-0.124,0.893,-0.470,-2.747,2.319,-0.824,60.000,67260.000,1.000
-6.730,5.232,-2.645,-0.434,2.415,2.187,-7.887,18.820,-0.125,0.892,-0.471,-2.502,2.533,-0.793,60.000,67261.000,1.000
-5.969,5.276,-2.511,-0.212,0.105,3.916,-8.215,18.071,-0.130,0.890,-0.471,-2.289,2.594,-0.793,60.000,67262.000,1.000
-7.182,4.520,-2.190,-0.157,-2.669,5.741,-7.711,16.719,-0.135,0.887,-0.474,-2.014,2.716,-0.732,60.000,67263.000,1.000
-8.482,4.400,-1.616,0.389,-4.834,7.946,-4.884,15.141,-0.137,0.884,-0.471,-1.862,2.625,-0.702,60.000,67264.000,1.000
-7.847,6.208,-0.956,1.798,-5.431,10.796,0.859,13.545,-0.135,0.885,-0.471,-1.465,2.502,-0.610,60.000,67265.000,1.000
-6.481,8.759,-1.102,3.169,-5.139,13.687,7.484,11.522,-0.138,0.886,-0.470,-1.129,2.411,-0.549,60.000,67266.000,1.000
-7.004,9.571,-2.674,3.372,-5.380,15.739,12.132,8.675,-0.140,0.887,-0.471,-0.916,2.167,-0.397,60.000,67267.000,1.000
-10.096,7.635,-5.237,2.224,-6.695,16.570,13.559,5.240,-0.145,0.889,-0.470,-0.702,1.923,-0.153,60.000,67268.000,1.000
-13.607,4.617,-7.569,0.550,-8.264,16.406,12.684,1.964,-0.146,0.889,-0.472,-0.458,1.678,-0.031,60.000,67269.000,1.000
-14.747,3.248,-8.558,-0.677,-8.855,15.696,11.195,-0.542,-0.148,0.887,-0.471,-0.275,1.404,0.061,60.000,67270.000,1.000
-13.092,4.432,-8.015,-1.244,-8.123,14.693,9.795,-2.209,-0.148,0.889,-0.473,0.000,1.099,0.336,60.000,67271.000,1.000
-9.855,7.052,-6.371,-1.327,-6.351,13.715,8.685,-3.125,-0.149,0.888,-0.471,0.183,0.671,0.580,60.000,67272.000,1.000
-6.186,9.662,-4.338,-1.142,-3.822,13.055,8.249,-3.449,-0.150,0.890,-0.469,0.366,0.275,0.702,60.000,67273.000,1.000
-2.737,11.612,-2.657,-0.994,-0.787,12.646,8.719,-3.647,-0.148,0.889,-0.468,0.519,-0.244,0.793,60.000,67274.000,1.000
-0.251,12.616,-1.873,-1.414,2.080,11.851,9.498,-4.545,-0.150,0.890,-0.468,0.732,-0.702,0.977,60.000,67275.000,1.000
0.193,12.124,-2.203,-2.927,3.692,9.787,9.318,-6.760,-0.148,0.893,-0.472,0.854,-1.038,1.007,60.000,67276.000,1.000
-1.109,10.298,-3.132,-5.140,3.836,6.475,7.870,-9.752,-0.149,0.894,-0.473,0.916,-1.404,1.221,60.000,67277.000,1.000
-2.936,7.811,-4.057,-7.097,3.226,2.719,5.579,-12.270,-0.148,0.897,-0.472,1.038,-1.831,1.373,60.000,67278.000,1.000
-4.543,5.112,-4.902,-8.138,2.657,-0.715,2.657,-13.297,-0.144,0.898,-0.474,1.068,-2.167,1.465,60.000,67279.000,1.000
-5.302,2.945,-5.810,-8.007,2.832,-3.214,-0.296,-12.301,-0.142,0.901,-0.470,1.068,-2.686,1.495,60.000,67280.000,1.000
-4.679,2.328,-6.938,-6.908,4.130,-4.469,-2.105,-9.351,-0.140,0.901,-0.474,0.977,-2.960,1.465,60.000,67281.000,1.000
-2.518,3.832,-8.240,-5.252,6.430,-4.604,-1.841,-4.957,-0.137,0.903,-0.472,0.854,-3.143,1.373,60.000,67282.000,1.000
-0.079,6.637,-9.612,-3.598,8.887,-4.287,-0.218,0.072,-0.133,0.902,-0.473,0.793,-3.296,1.312,60.000,67283.000,1.000
0.615,9.074,-10.780,-2.251,10.546,-4.143,0.914,4.961,-0.133,0.901,-0.473,0.702,-3.448,1.251,60.000,67284.000,1.000
-0.948,10.258,-11.101,-0.820,11.386,-4.153,0.651,9.230,-0.132,0.898,-0.473,0.549,-3.479,1.221,60.000,67285.000,1.000
-3.467,10.458,-10.164,1.261,12.137,-4.151,-0.467,12.482,-0.130,0.898,-0.473,0.580,-3.571,1.099,60.000,67286.000,1.000
-5.065,10.433,-8.277,4.126,13.393,-4.241,-1.299,14.408,-0.131,0.896,-0.474,0.519,-3.571,0.916,60.000,67287.000,1.000
-5.673,10.014,-6.529,6.984,14.649,-4.834,-1.706,14.897,-0.129,0.895,-0.477,0.488,-3.754,0.641,60.000,67288.000,1.000
-7.020,8.090,-5.979,8.648,14.668,-6.165,-2.714,14.390,-0.128,0.894,-0.479,0.458,-3.723,0.427,60.000,67289.000,1.000
-9.804,4.347,-6.735,8.705,12.885,-7.954,-5.153,13.897,-0.128,0.894,-0.478,0.397,-3.632,0.244,60.000,67290.000,1.000
-12.392,0.100,-7.941,7.875,10.024,-9.598,-8.886,14.363,-0.129,0.892,-0.477,0.336,-3.540,0.000,60.000,67291.000,1.000
-11.885,-2.405,-8.152,7.551,7.662,-10.261,-12.687,16.181,-0.131,0.893,-0.480,0.305,-3.448,-0.214,60.000,67292.000,1.000
-7.605,-2.359,-6.507,8.282,6.558,-9.591,-15.571,18.698,-0.130,0.892,-0.478,0.275,-3.418,-0.366,60.000,67293.000,1.000
-2.020,-1.221,-3.273,9.368,6.107,-7.921,-17.340,20.654,-0.132,0.891,-0.478,0.305,-3.235,-0.519,60.000,67294.000,1.000
2.797,-0.382,0.833,10.191,5.762,-5.423,-17.575,21.395,-0.132,0.891,-0.476,0.244,-3.113,-0.519,60.000,67295.000,1.000
7.480,0.649,5.114,10.830,5.726,-1.883,-15.756,21.071,-0.133,0.896,-0.476,0.183,-3.082,-0.610,60.000,67296.000,1.000
13.923,3.309,8.952,11.425,6.178,2.653,-12.023,19.942,-0.131,0.898,-0.476,0.214,-3.052,-0.610,60.000,67297.000,1.000
21.357,7.198,11.436,11.104,6.001,7.032,-7.757,17.711,-0.131,0.898,-0.479,0.183,-2.899,-0.641,60.000,67298.000,1.000
26.311,9.921,11.905,8.714,3.537,9.693,-4.538,14.047,-0.130,0.901,-0.478,0.092,-2.838,-0.763,60.000,67299.000,1.000
27.133,10.106,10.988,4.683,-1.190,10.365,-2.576,9.470,-0.130,0.903,-0.477,-0.061,-2.747,-0.641,60.000,67300.000,1.000
26.242,9.136,10.275,1.117,-5.994,10.365,-0.984,5.174,-0.132,0.903,-0.479,-0.275,-2.594,-0.519,60.000,67301.000,1.000
27.861,9.855,10.997,0.051,-8.295,11.283,1.214,2.100,-0.131,0.904,-0.476,-0.458,-2.441,-0.427,60.000,67302.000,1.000
32.720,13.018,12.573,1.219,-7.819,13.009,3.685,-0.162,-0.132,0.903,-0.478,-0.580,-2.258,-0.305,60.000,67303.000,1.000
36.990,16.124,13.187,2.329,-6.861,13.834,5.055,-3.117,-0.132,0.902,-0.481,-0.641,-2.106,-0.275,60.000,67304.000,1.000
37.334,16.464,11.983,1.705,-7.541,12.712,4.917,-7.686,-0.134,0.901,-0.480,-0.763,-1.953,-0.153,60.000,67305.000,1.000
34.728,14.098,9.893,-0.241,-9.720,10.445,4.443,-13.183,-0.132,0.903,-0.481,-0.946,-1.740,0.031,60.000,67306.000,1.000
33.050,11.644,8.542,-1.795,-11.515,8.680,5.315,-18.039,-0.132,0.904,-0.480,-1.099,-1.770,0.183,60.000,67307.000,1.000
33.567,10.807,8.360,-2.193,-11.896,7.880,7.538,-21.573,-0.132,0.904,-0.477,-1.129,-1.526,0.275,60.000,67308.000,1.000
33.327,10.574,8.476,-2.188,-11.645,7.131,9.336,-24.247,-0.133,0.902,-0.478,-1.190,-1.373,0.427,60.000,67309.000,1.000
29.801,9.361,8.291,-2.364,-11.586,5.782,9.616,-26.385,-0.132,0.904,-0.478,-1.434,-1.190,0.610,60.000,67310.000,1.000
24.357,7.222,8.174,-2.093,-11.226,4.162,9.068,-27.620,-0.129,0.903,-0.476,-1.526,-0.946,0.824,60.000,67311.000,1.000
20.578,5.486,8.721,-0.346,-9.403,2.885,9.052,-27.547,-0.130,0.899,-0.478,-1.556,-0.854,0.916,60.000,67312.000,1.000
18.753,4.039,9.293,2.339,-6.367,1.586,9.244,-26.711,-0.133,0.899,-0.480,-1.648,-0.702,1.007,60.000,67313.000,1.000
14.992,0.931,8.384,4.056,-3.896,-0.665,7.799,-26.011,-0.134,0.898,-0.480,-1.648,-0.580,1.190,60.000,67314.000,1.000
7.032,-4.459,5.709,4.045,-2.874,-3.571,4.521,-25.118,-0.132,0.897,-0.478,-1.648,-0.610,1.343,60.000,67315.000,1.000
-2.053,-9.726,2.787,3.648,-2.144,-5.390,2.054,-22.612,-0.134,0.895,-0.478,-1.801,-0.427,1.312,60.000,67316.000,1.000
-6.662,-11.509,1.416,4.681,-0.012,-4.713,3.126,-17.914,-0.134,0.896,-0.480,-1.740,-0.336,1.373,60.000,67317.000,1.000
-5.408,-9.492,1.583,6.948,3.162,-2.458,6.398,-12.717,-0.134,0.894,-0.481,-1.740,-0.336,1.404,60.000,67318.000,1.000
-2.718,-7.063,1.680,8.246,4.889,-1.267,7.130,-9.633,-0.135,0.894,-0.480,-1.801,-0.366,1.465,60.000,67319.000,1.000
-3.067,-7.515,0.692,6.932,3.335,-2.928,2.530,-9.638,-0.138,0.894,-0.478,-1.770,-0.366,1.373,60.000,67320.000,1.000
-5.871,-10.594,-0.603,3.816,-0.574,-6.913,-5.209,-11.218,-0.139,0.892,-0.473,-1.801,-0.397,1.343,60.000,67321.000,1.000
-6.536,-12.983,-0.486,1.477,-3.902,-10.992,-11.125,-11.647,-0.141,0.891,-0.474,-1.678,-0.427,1.282,60.000,67322.000,1.000
-3.154,-12.682,1.449,1.303,-4.934,-13.503,-12.806,-9.499,-0.140,0.892,-0.475,-1.617,-0.397,1.160,60.000,67323.000,1.000
1.008,-11.017,3.946,2.510,-4.444,-14.303,-11.945,-5.444,-0.138,0.896,-0.477,-1.526,-0.458,1.099,60.000,67324.000,1.000
2.817,-9.639,5.982,4.138,-3.617,-13.695,-10.789,-0.754,-0.135,0.895,-0.475,-1.617,-0.519,1.007,60.000,67325.000,1.000
3.541,-8.015,7.710,6.255,-2.501,-11.782,-9.534,3.942,-0.137,0.896,-0.476,-1.648,-0.549,0.977,60.000,67326.000,1.000
6.933,-4.513,9.696,9.168,-0.597,-8.794,-7.145,8.566,-0.137,0.896,-0.475,-1.709,-0.580,0.854,60.000,67327.000,1.000
13.009,0.100,11.344,11.797,1.262,-5.995,-4.295,12.467,-0.136,0.896,-0.474,-1.648,-0.610,0.824,60.000,67328.000,1.000
16.708,2.206,11.047,12.067,0.952,-5.348,-3.719,14.258,-0.136,0.897,-0.471,-1.678,-0.580,0.732,60.000,67329.000,1.000
14.088,-0.570,8.227,9.348,-2.381,-7.641,-6.942,13.276,-0.134,0.898,-0.472,-1.892,-0.610,0.671,60.000,67330.000,1.000
7.081,-6.535,4.223,5.409,-6.929,-11.528,-12.365,10.622,-0.133,0.901,-0.473,-1.892,-0.610,0.580,60.000,67331.000,1.000
1.480,-11.551,1.100,2.779,-9.737,-14.547,-16.666,8.393,-0.134,0.901,-0.473,-1.831,-0.610,0.671,60.000,67332.000,1.000
0.194,-13.263,-0.426,2.133,-9.693,-15.266,-18.020,7.767,-0.130,0.901,-0.473,-1.984,-0.427,0.549,60.000,67333.000,1.000
0.744,-12.632,-1.118,2.143,-8.157,-13.925,-16.999,8.406,-0.129,0.901,-0.472,-1.984,-0.244,0.549,60.000,67334.000,1.000
-0.207,-11.624,-1.625,1.657,-6.758,-11.288,-14.765,9.420,-0.127,0.902,-0.472,-2.045,-0.214,0.580,60.000,67335.000,1.000
-2.422,-10.819,-1.719,0.985,-5.668,-7.854,-11.945,10.251,-0.128,0.903,-0.473,-2.106,0.000,0.519,60.000,67336.000,1.000
-2.476,-9.124,-0.788,1.306,-3.861,-3.984,-8.663,10.916,-0.128,0.902,-0.474,-2.167,0.153,0.519,60.000,67337.000,1.000
0.907,-6.144,0.924,2.766,-1.076,-0.665,-5.692,11.401,-0.127,0.900,-0.476,-2.136,0.214,0.427,60.000,67338.000,1.000
4.386,-3.498,2.311,4.002,1.437,0.848,-4.309,11.393,-0.128,0.898,-0.476,-2.106,0.305,0.336,60.000,67339.000,1.000
4.216,-2.934,2.734,3.739,2.462,0.292,-4.713,10.516,-0.128,0.898,-0.475,-2.167,0.427,0.366,60.000,67340.000,1.000
0.748,-4.222,2.659,2.069,2.148,-1.428,-5.903,8.480,-0.128,0.898,-0.473,-2.197,0.549,0.427,60.000,67341.000,1.000
-1.970,-5.316,3.069,0.196,1.670,-3.151,-6.610,5.340,-0.130,0.900,-0.472,-2.136,0.610,0.305,60.000,67342.000,1.000
-1.827,-5.202,3.981,-1.293,1.321,-4.722,-6.669,1.363,-0.131,0.901,-0.471,-2.136,0.671,0.275,60.000,67343.000,1.000
-1.153,-5.089,4.533,-2.735,0.219,-6.721,-6.779,-2.998,-0.133,0.904,-0.470,-2.136,0.793,0.244,60.000,67344.000,1.000
-2.595,-6.166,4.445,-4.013,-1.916,-9.141,-7.017,-7.096,-0.132,0.906,-0.469,-2.106,0.671,0.214,60.000,67345.000,1.000
-5.487,-7.979,4.178,-4.458,-4.232,-11.404,-6.905,-10.587,-0.133,0.906,-0.471,-2.258,0.763,0.183,60.000,67346.000,1.000
-6.446,-8.816,4.194,-3.720,-5.603,-13.017,-5.914,-13.482,-0.132,0.904,-0.465,-2.319,0.671,0.092,60.000,67347.000,1.000
-3.666,-7.592,4.346,-2.390,-5.628,-13.804,-4.014,-15.900,-0.133,0.904,-0.467,-2.350,0.580,0.061,60.000,67348.000,1.000
1.008,-4.800,4.167,-1.415,-4.586,-13.543,-1.612,-17.777,-0.133,0.904,-0.466,-2.289,0.641,0.000,60.000,67349.000,1.000
4.643,-1.649,3.504,-1.178,-2.821,-11.936,1.047,-18.681,-0.131,0.901,-0.469,-2.289,0.549,-0.092,60.000,67350.000,1.000
5.936,0.814,2.516,-1.536,-0.742,-9.217,3.793,-18.169,-0.129,0.900,-0.467,-2.289,0.580,-0.092,60.000,67351.000,1.000
5.855,2.226,1.531,-2.112,1.148,-6.079,6.482,-16.344,-0.127,0.899,-0.468,-2.136,0.641,-0.153,60.000,67352.000,1.000
5.244,2.297,0.522,-2.906,2.067,-3.423,8.438,-14.306,-0.126,0.899,-0.471,-2.197,0.702,-0.122,60.000,67353.000,1.000
3.609,0.763,-0.855,-4.220,1.388,-1.923,8.704,-13.450,-0.123,0.895,-0.470,-1.984,0.732,-0.214,60.000,67354.000,1.000
0.888,-1.553,-2.532,-5.856,-0.494,-1.467,7.451,-14.032,-0.125,0.896,-0.471,-1.953,0.793,-0.122,60.000,67355.000,1.000
-1.894,-3.119,-3.917,-7.067,-2.382,-1.263,6.155,-14.754,-0.127,0.893,-0.472,-1.770,0.854,-0.183,60.000,67356.000,1.000
-3.221,-2.812,-4.200,-7.025,-2.974,-0.247,6.653,-13.711,-0.131,0.893,-0.468,-1.678,0.946,-0.092,60.000,67357.000,1.000
-2.566,-0.672,-3.160,-5.659,-1.782,2.069,9.394,-10.140,-0.136,0.894,-0.466,-1.526,0.854,-0.214,60.000,67358.000,1.000
-0.751,2.476,-1.460,-3.768,0.546,5.198,12.996,-4.933,-0.140,0.890,-0.464,-1.404,0.824,-0.183,60.000,67359.000,1.000
0.778,5.592,-0.192,-2.424,2.630,8.048,15.589,0.213,-0.143,0.886,-0.468,-1.221,0.732,-0.153,60.000,67360.000,1.000
0.052,7.203,-0.454,-2.611,2.885,9.434,15.822,3.610,-0.146,0.884,-0.468,-1.099,0.458,-0.183,60.000,67361.000,1.000
-3.869,6.238,-2.595,-4.490,0.688,8.974,13.594,4.426,-0.148,0.882,-0.468,-0.824,0.153,-0.244,60.000,67362.000,1.000
-9.739,3.010,-5.919,-7.139,-3.007,7.345,9.803,3.174,-0.151,0.880,-0.468,-0.641,-0.061,-0.153,60.000,67363.000,1.000
-14.647,-0.720,-8.983,-8.952,-6.131,5.852,5.833,1.517,-0.151,0.882,-0.468,-0.366,-0.427,-0.214,60.000,67364.000,1.000
-16.359,-3.113,-10.506,-8.781,-6.990,5.468,2.831,1.199,-0.150,0.883,-0.471,-0.092,-0.671,-0.153,60.000,67365.000,1.000
-16.034,-4.248,-10.390,-7.093,-5.787,5.918,0.629,2.804,-0.150,0.881,-0.471,0.244,-1.068,-0.061,60.000,67366.000,1.000
-16.444,-5.388,-9.234,-5.058,-3.795,6.391,-1.404,5.863,-0.149,0.886,-0.470,0.366,-1.343,-0.122,60.000,67367.000,1.000
-18.611,-6.982,-7.654,-3.278,-1.831,6.490,-3.253,9.523,-0.148,0.887,-0.473,0.671,-1.556,0.000,60.000,67368.000,1.000
-20.897,-8.066,-6.229,-1.760,0.150,6.338,-4.220,12.999,-0.147,0.892,-0.475,0.763,-1.923,0.153,60.000,67369.000,1.000
-21.227,-7.559,-5.640,-0.705,2.304,6.108,-3.705,15.630,-0.147,0.893,-0.472,0.824,-2.106,0.214,60.000,67370.000,1.000
-20.204,-6.089,-6.629,-1.025,3.932,5.439,-2.367,16.814,-0.145,0.898,-0.472,0.977,-2.258,0.305,60.000,67371.000,1.000
-19.870,-5.180,-9.171,-3.311,4.184,3.876,-1.346,16.463,-0.144,0.902,-0.476,1.007,-2.533,0.244,60.000,67372.000,1.000
-20.674,-5.471,-12.264,-7.076,3.096,1.358,-1.101,14.976,-0.140,0.905,-0.471,0.916,-2.594,0.366,60.000,67373.000,1.000
-20.760,-6.363,-14.571,-11.083,1.570,-1.771,-1.330,12.824,-0.138,0.906,-0.472,0.946,-2.747,0.397,60.000,67374.000,1.000
-18.385,-7.162,-15.282,-14.275,0.458,-5.105,-1.872,10.322,-0.137,0.907,-0.470,0.824,-2.838,0.488,60.000,67375.000,1.000
-14.838,-8.300,-14.694,-16.541,-0.335,-8.577,-3.601,7.573,-0.135,0.905,-0.475,0.671,-2.808,0.427,60.000,67376.000,1.000
-12.561,-10.121,-13.379,-17.949,-1.026,-11.814,-6.937,4.976,-0.134,0.904,-0.474,0.580,-2.655,0.427,60.000,67377.000,1.000
-11.759,-11.457,-11.377,-17.950,-1.014,-13.728,-10.451,3.403,-0.131,0.906,-0.475,0.427,-2.625,0.519,60.000,67378.000,1.000
-10.113,-10.283,-8.444,-15.751,0.728,-13.183,-11.751,3.776,-0.130,0.906,-0.473,0.305,-2.563,0.488,60.000,67379.000,1.000
-5.893,-5.776,-4.911,-11.449,4.345,-10.075,-9.731,6.341,-0.128,0.907,-0.476,0.214,-2.502,0.397,60.000,67380.000,1.000
-1.108,0.329,-2.107,-6.677,8.327,-5.754,-6.043,10.010,-0.128,0.908,-0.475,0.183,-2.319,0.336,60.000,67381.000,1.000
0.770,5.504,-1.142,-3.196,10.891,-1.806,-3.109,12.847,-0.127,0.906,-0.477,0.000,-2.228,0.366,60.000,67382.000,1.000
-1.090,8.749,-1.813,-1.422,11.621,1.055,-1.578,13.349,-0.129,0.907,-0.475,-0.153,-2.014,0.244,60.000,67383.000,1.000
-3.957,11.015,-2.821,-0.443,11.601,3.059,-0.098,11.486,-0.131,0.905,-0.472,-0.305,-1.801,0.092,60.000,67384.000,1.000
-4.819,13.475,-3.155,0.568,11.924,4.508,2.591,8.246,-0.127,0.902,-0.472,-0.427,-1.556,-0.092,60.000,67385.000,1.000
-4.620,15.148,-3.329,0.977,11.922,4.926,5.432,4.242,-0.130,0.898,-0.469,-0.488,-1.282,-0.244,60.000,67386.000,1.000
-6.599,13.831,-4.331,-0.211,10.050,3.952,6.446,-0.174,-0.130,0.896,-0.472,-0.488,-1.221,-0.305,60.000,67387.000,1.000
-11.718,8.855,-6.086,-2.657,5.991,2.398,5.316,-4.064,-0.130,0.895,-0.475,-0.488,-0.977,-0.488,60.000,67388.000,1.000
-17.128,2.156,-7.453,-4.658,1.198,1.833,3.726,-6.168,-0.128,0.896,-0.472,-0.549,-0.854,-0.549,60.000,67389.000,1.000
-19.097,-3.246,-7.487,-4.631,-2.464,3.269,3.434,-6.134,-0.128,0.896,-0.473,-0.549,-0.702,-0.641,60.000,67390.000,1.000
-17.267,-5.898,-6.483,-2.615,-4.412,6.250,4.202,-5.051,-0.126,0.894,-0.474,-0.549,-0.427,-0.580,60.000,67391.000,1.000
-14.088,-6.275,-5.227,0.206,-5.102,9.589,4.687,-4.309,-0.126,0.892,-0.477,-0.488,-0.244,-0.549,60.000,67392.000,1.000
-11.444,-5.457,-3.988,2.706,-5.040,12.362,4.245,-4.514,-0.129,0.889,-0.479,-0.366,0.092,-0.488,60.000,67393.000,1.000
-8.863,-3.978,-2.353,4.425,-4.397,14.265,3.425,-5.432,-0.130,0.890,-0.477,-0.305,0.244,-0.427,60.000,67394.000,1.000
-5.059,-2.032,0.134,5.273,-3.369,15.307,3.012,-6.651,-0.133,0.893,-0.474,-0.275,0.336,-0.427,60.000,67395.000,1.000
-0.836,-0.582,3.154,4.961,-2.729,15.345,2.799,-8.064,-0.134,0.897,-0.477,-0.305,0.427,-0.366,60.000,67396.000,1.000
2.071,-0.591,6.039,3.559,-3.109,14.530,2.469,-9.424,-0.134,0.898,-0.474,-0.183,0.458,-0.275,60.000,67397.000,1.000
3.559,-1.795,8.328,1.846,-4.324,13.475,2.505,-10.150,-0.134,0.901,-0.473,-0.275,0.580,-0.244,60.000,67398.000,1.000
5.484,-2.787,9.906,0.863,-5.492,12.849,3.845,-9.757,-0.135,0.902,-0.476,-0.366,0.610,-0.092,60.000,67399.000,1.000
9.580,-2.232,10.809,1.089,-5.842,12.875,6.873,-8.513,-0.137,0.901,-0.475,-0.336,0.671,0.000,60.000,67400.000,1.000
14.833,-0.318,10.860,1.886,-5.642,12.922,10.420,-7.535,-0.140,0.901,-0.476,-0.366,0.763,0.122,60.000,67401.000,1.000
18.797,1.939,10.195,2.507,-5.498,12.226,12.879,-7.477,-0.143,0.898,-0.477,-0.458,0.610,0.183,60.000,67402.000,1.000
20.325,4.023,9.488,3.026,-5.350,10.640,13.563,-7.757,-0.146,0.896,-0.475,-0.427,0.580,0.214,60.000,67403.000,1.000
20.490,6.221,9.461,4.082,-4.525,8.599,12.757,-7.324,-0.150,0.894,-0.477,-0.458,0.305,0.275,60.000,67404.000,1.000
20.949,8.809,10.209,5.946,-2.593,6.559,11.090,-5.771,-0.150,0.891,-0.477,-0.305,0.000,0.366,60.000,67405.000,1.000
21.256,10.962,10.911,7.913,-0.071,4.576,8.927,-3.575,-0.152,0.889,-0.478,-0.122,-0.153,0.427,60.000,67406.000,1.000
19.961,11.748,10.836,9.307,2.441,2.909,7.048,-1.221,-0.150,0.889,-0.477,0.031,-0.397,0.519,60.000,67407.000,1.000
17.065,11.412,10.004,10.252,5.061,2.157,6.443,1.218,-0.150,0.888,-0.476,0.153,-0.763,0.580,60.000,67408.000,1.000
14.358,11.197,8.927,11.280,8.350,2.675,7.252,3.840,-0.152,0.888,-0.475,0.275,-1.007,0.671,60.000,67409.000,1.000
13.209,11.941,7.915,12.452,12.414,4.134,8.640,6.458,-0.150,0.889,-0.477,0.458,-1.251,0.702,60.000,67410.000,1.000
11.873,12.579,6.507,12.746,16.049,5.505,9.304,8.320,-0.149,0.890,-0.476,0.580,-1.404,0.793,60.000,67411.000,1.000
7.543,11.442,4.219,11.239,17.746,6.021,8.739,8.853,-0.144,0.893,-0.478,0.549,-1.556,0.885,60.000,67412.000,1.000
0.290,8.609,1.380,8.414,17.256,5.871,7.484,8.420,-0.144,0.893,-0.480,0.580,-1.678,1.068,60.000,67413.000,1.000
-6.211,6.180,-1.001,5.902,15.783,5.942,6.451,8.090,-0.141,0.894,-0.483,0.702,-1.770,1.099,60.000,67414.000,1.000
-8.226,5.982,-2.260,4.899,14.586,6.827,6.078,8.537,-0.138,0.894,-0.480,0.671,-1.923,1.160,60.000,67415.000,1.000
-6.450,7.043,-2.987,4.851,13.455,7.898,5.444,9.280,-0.137,0.896,-0.477,0.702,-1.892,1.221,60.000,67416.000,1.000
-4.417,7.015,-4.024,4.502,11.540,8.172,3.586,9.502,-0.137,0.896,-0.478,0.732,-1.862,1.373,60.000,67417.000,1.000
-3.550,5.443,-5.221,3.557,9.020,7.574,1.030,8.897,-0.134,0.898,-0.478,0.702,-1.892,1.404,60.000,67418.000,1.000
-1.371,4.603,-5.547,2.947,7.303,6.975,-0.649,7.706,-0.134,0.901,-0.475,0.488,-1.801,1.373,60.000,67419.000,1.000
5.008,7.035,-4.191,3.646,7.612,7.162,-0.511,6.484,-0.132,0.903,-0.477,0.336,-1.709,1.282,60.000,67420.000,1.000
13.840,12.281,-1.612,5.239,9.335,7.804,0.396,5.732,-0.131,0.904,-0.477,0.153,-1.556,1.221,60.000,67421.000,1.000
19.965,17.320,0.984,6.447,10.639,7.946,0.336,5.818,-0.130,0.904,-0.476,-0.122,-1.312,1.068,60.000,67422.000,1.000
20.310,19.605,2.804,6.572,10.334,6.940,-1.226,6.923,-0.128,0.903,-0.474,-0.244,-1.160,0.916,60.000,67423.000,1.000
16.837,19.089,3.954,6.117,8.855,4.835,-3.319,8.944,-0.128,0.902,-0.477,-0.519,-0.977,0.732,60.000,67424.000,1.000
13.646,17.386,4.712,5.844,7.365,2.061,-4.864,11.167,-0.128,0.902,-0.475,-0.641,-0.854,0.549,60.000,67425.000,1.000
11.512,15.279,4.571,5.382,6.037,-1.195,-6.371,12.204,-0.128,0.900,-0.474,-0.854,-0.610,0.397,60.000,67426.000,1.000
8.324,12.635,3.138,4.029,4.458,-4.616,-8.707,11.261,-0.125,0.901,-0.475,-0.916,-0.336,0.336,60.000,67427.000,1.000
3.621,9.947,1.243,2.289,2.992,-7.362,-11.208,9.115,-0.122,0.903,-0.478,-1.129,-0.092,0.031,60.000,67428.000,1.000
0.518,8.778,0.582,1.874,2.860,-8.415,-11.909,7.656,-0.120,0.905,-0.481,-1.160,0.153,-0.153,60.000,67429.000,1.000
2.133,10.084,2.058,3.965,4.706,-7.436,-9.675,8.246,-0.118,0.906,-0.478,-1.312,0.549,-0.305,60.000,67430.000,1.000
6.619,12.198,4.468,7.507,7.196,-5.399,-6.113,10.300,-0.118,0.908,-0.479,-1.495,0.946,-0.397,60.000,67431.000,1.000
9.393,12.574,5.981,10.379,8.348,-3.475,-3.667,12.084,-0.115,0.908,-0.477,-1.709,1.343,-0.519,60.000,67432.000,1.000
9.049,10.904,6.284,11.587,7.711,-1.759,-2.624,12.492,-0.115,0.904,-0.479,-1.862,1.801,-0.580,60.000,67433.000,1.000
8.740,9.337,6.612,11.712,6.495,0.425,-1.159,11.573,-0.118,0.901,-0.477,-2.045,2.136,-0.641,60.000,67434.000,1.000
11.573,9.608,7.931,11.482,5.688,3.139,1.788,9.591,-0.120,0.897,-0.480,-1.984,2.533,-0.793,60.000,67435.000,1.000
15.835,10.505,9.728,10.482,4.575,5.140,4.359,6.304,-0.124,0.894,-0.478,-2.075,2.777,-0.885,60.000,67436.000,1.000
17.563,9.684,11.276,8.274,2.114,5.377,4.216,1.846,-0.127,0.893,-0.479,-1.984,3.052,-0.854,60.000,67437.000,1.000
15.541,6.565,12.658,5.490,-1.485,4.125,1.559,-2.931,-0.130,0.889,-0.475,-1.801,3.174,-1.038,60.000,67438.000,1.000
11.961,2.452,13.936,3.019,-5.344,2.188,-1.475,-7.480,-0.134,0.888,-0.477,-1.709,3.265,-1.099,60.000,67439.000,1.000
9.115,-1.419,14.179,0.703,-9.286,-0.317,-3.653,-12.156,-0.135,0.887,-0.479,-1.556,3.296,-0.977,60.000,67440.000,1.000
6.288,-5.500,11.935,-2.661,-14.067,-3.987,-6.102,-17.454,-0.137,0.887,-0.475,-1.282,3.296,-0.793,60.000,67441.000,1.000
1.696,-10.726,7.005,-7.540,-19.837,-8.810,-10.029,-22.816,-0.138,0.889,-0.476,-1.160,3.265,-0.641,60.000,67442.000,1.000
-4.458,-16.736,0.917,-12.748,-25.335,-13.667,-14.618,-26.831,-0.139,0.889,-0.476,-1.038,3.143,-0.427,60.000,67443.000,1.000
-9.810,-21.695,-4.205,-16.266,-28.692,-17.006,-17.548,-28.355,-0.140,0.888,-0.480,-0.824,3.052,-0.244,60.000,67444.000,1.000
-12.256,-23.923,-7.082,-16.923,-28.986,-17.908,-17.006,-27.455,-0.140,0.890,-0.480,-0.641,2.991,-0.031,60.000,67445.000,1.000
-12.730,-24.162,-8.166,-15.699,-27.388,-16.978,-13.544,-25.636,-0.142,0.890,-0.474,-0.427,2.869,0.183,60.000,67446.000,1.000
-13.486,-24.679,-8.631,-14.531,-25.879,-15.594,-9.172,-24.513,-0.143,0.891,-0.473,-0.427,2.686,0.458,60.000,67447.000,1.000
-15.215,-26.674,-9.103,-14.466,-25.403,-14.801,-5.740,-24.570,-0.145,0.892,-0.477,-0.183,2.441,0.793,60.000,67448.000,1.000
-16.965,-29.542,-9.461,-15.198,-25.606,-14.992,-4.213,-25.117,-0.149,0.893,-0.476,0.031,2.167,0.946,60.000,67449.000,1.000
-17.816,-32.103,-9.381,-15.819,-25.723,-16.097,-4.462,-25.062,-0.154,0.892,-0.476,0.031,1.770,1.221,60.000,67450.000,1.000
-18.162,-33.937,-8.966,-15.830,-25.535,-17.996,-5.851,-23.824,-0.155,0.893,-0.475,0.122,1.556,1.465,60.000,67451.000,1.000
-18.285,-34.831,-8.479,-15.092,-25.029,-20.377,-7.477,-21.465,-0.156,0.894,-0.474,0.275,0.977,1.587,60.000,67452.000,1.000
-18.017,-34.674,-8.220,-13.752,-24.115,-22.899,-8.981,-18.664,-0.155,0.896,-0.474,0.366,0.549,1.770,60.000,67453.000,1.000
-17.743,-33.926,-8.439,-12.195,-22.684,-25.332,-10.898,-16.297,-0.155,0.898,-0.476,0.366,0.183,1.862,60.000,67454.000,1.000
-17.918,-32.950,-8.937,-10.571,-20.351,-27.253,-13.316,-14.522,-0.153,0.898,-0.474,0.397,-0.366,1.862,60.000,67455.000,1.000
-18.498,-31.559,-9.339,-8.867,-16.734,-28.221,-15.256,-12.670,-0.149,0.898,-0.471,0.336,-0.763,1.923,60.000,67456.000,1.000
-18.682,-29.238,-9.536,-7.087,-11.893,-28.063,-15.425,-9.967,-0.145,0.896,-0.476,0.244,-1.068,1.984,60.000,67457.000,1.000
-18.468,-26.354,-10.115,-5.633,-6.939,-27.261,-14.074,-6.459,-0.144,0.897,-0.473,0.092,-1.373,2.014,60.000,67458.000,1.000
-19.460,-24.486,-11.853,-5.097,-3.680,-26.789,-13.159,-2.923,-0.141,0.896,-0.477,0.092,-1.648,2.045,60.000,67459.000,1.000
-22.588,-24.601,-14.507,-5.320,-2.961,-27.085,-13.850,0.157,-0.138,0.896,-0.477,0.153,-1.770,1.953,60.000,67460.000,1.000
-26.429,-25.715,-16.727,-5.289,-3.756,-27.521,-15.175,3.097,-0.135,0.896,-0.479,0.122,-2.014,2.106,60.000,67461.000,1.000
-27.776,-25.361,-16.861,-3.743,-3.713,-26.690,-14.891,6.741,-0.129,0.896,-0.477,0.092,-2.045,1.923,60.000,67462.000,1.000
-24.970,-21.949,-14.290,-0.445,-1.121,-23.611,-11.907,11.421,-0.129,0.894,-0.480,0.092,-2.075,1.923,60.000,67463.000,1.000
-19.906,-16.356,-9.915,3.332,3.712,-18.583,-7.354,16.522,-0.127,0.896,-0.478,0.031,-2.045,1.831,60.000,67464.000,1.000
-15.610,-10.731,-5.290,5.983,9.203,-12.786,-3.142,21.192,-0.130,0.894,-0.475,0.122,-2.106,1.770,60.000,67465.000,1.000
-13.150,-6.476,-1.618,6.939,13.992,-7.479,-0.473,24.946,-0.132,0.895,-0.480,0.031,-2.075,1.526,60.000,67466.000,1.000
-10.833,-3.234,0.898,7.114,17.894,-3.178,0.966,27.883,-0.135,0.894,-0.478,-0.061,-2.045,1.373,60.000,67467.000,1.000
-7.469,-0.414,2.472,7.459,21.009,0.141,2.050,30.265,-0.136,0.892,-0.478,-0.122,-2.106,1.160,60.000,67468.000,1.000
-4.546,1.598,3.222,7.852,22.887,2.703,3.147,32.173,-0.136,0.893,-0.476,-0.183,-2.106,0.977,60.000,67469.000,1.000
-3.521,2.701,3.663,7.951,23.360,5.187,4.496,33.581,-0.133,0.892,-0.478,-0.275,-2.106,0.732,60.000,67470.000,1.000
-3.412,3.885,4.678,7.963,23.073,8.426,6.252,34.167,-0.130,0.893,-0.482,-0.214,-1.984,0.610,60.000,67471.000,1.000
-1.569,6.557,6.854,8.364,22.889,12.724,8.411,33.247,-0.129,0.891,-0.481,-0.183,-1.953,0.427,60.000,67472.000,1.000
2.559,10.718,9.570,8.796,22.666,17.251,10.462,30.029,-0.127,0.891,-0.479,-0.153,-1.770,0.427,60.000,67473.000,1.000
6.181,14.581,11.438,8.175,21.446,20.725,11.811,24.534,-0.127,0.891,-0.478,-0.122,-1.556,0.397,60.000,67474.000,1.000
6.986,16.691,11.804,6.194,19.076,22.840,12.869,18.145,-0.126,0.894,-0.478,-0.122,-1.312,0.305,60.000,67475.000,1.000
6.075,17.486,11.079,3.770,16.603,24.305,14.614,12.572,-0.125,0.897,-0.479,-0.153,-1.068,0.275,60.000,67476.000,1.000
6.861,18.792,10.110,2.182,15.304,25.939,17.682,8.579,-0.127,0.894,-0.478,-0.153,-0.885,0.305,60.000,67477.000,1.000
10.304,21.184,9.166,1.460,15.066,27.622,21.257,5.463,-0.127,0.896,-0.480,-0.183,-0.641,0.305,60.000,67478.000,1.000
13.355,22.958,8.089,0.454,14.408,28.556,23.493,2.072,-0.126,0.898,-0.481,-0.183,-0.580,0.397,60.000,67479.000,1.000
13.707,22.783,7.511,-1.057,12.708,28.794,23.898,-1.583,-0.128,0.897,-0.478,-0.305,-0.488,0.519,60.000,67480.000,1.000
13.140,21.644,8.623,-1.695,11.137,29.403,23.874,-4.313,-0.130,0.899,-0.478,-0.427,-0.244,0.580,60.000,67481.000,1.000
15.392,21.688,11.723,-0.051,11.172,31.092,25.059,-5.010,-0.129,0.897,-0.475,-0.488,0.031,0.641,60.000,67482.000,1.000
20.604,23.153,15.166,3.222,12.339,32.881,27.108,-4.015,-0.128,0.899,-0.475,-0.519,0.183,0.671,60.000,67483.000,1.000
24.136,23.731,16.493,5.741,12.441,32.850,27.927,-3.046,-0.130,0.899,-0.475,-0.702,0.183,0.671,60.000,67484.000,1.000
22.411,21.758,14.899,6.065,10.360,30.375,26.481,-3.542,-0.130,0.900,-0.477,-0.763,0.305,0.732,60.000,67485.000,1.000
17.398,18.525,11.901,5.050,7.511,26.811,23.966,-5.442,-0.130,0.899,-0.477,-0.977,0.427,0.824,60.000,67486.000,1.000
14.508,17.027,9.807,4.703,6.469,24.217,22.443,-7.507,-0.130,0.899,-0.479,-1.099,0.732,0.885,60.000,67487.000,1.000
15.525,18.090,9.223,5.564,7.908,23.279,22.074,-8.862,-0.131,0.899,-0.477,-1.190,0.824,1.038,60.000,67488.000,1.000
16.220,19.129,8.691,6.134,9.749,22.971,20.811,-9.576,-0.129,0.898,-0.480,-1.099,0.854,1.160,60.000,67489.000,1.000
12.866,17.969,7.074,5.367,10.011,22.373,17.656,-9.695,-0.127,0.897,-0.479,-1.099,0.977,1.251,60.000,67490.000,1.000
7.714,15.932,5.018,4.205,9.056,21.634,14.214,-8.893,-0.127,0.897,-0.483,-1.129,1.038,1.312,60.000,67491.000,1.000
6.492,16.216,3.922,4.316,8.616,21.126,12.669,-7.168,-0.129,0.893,-0.481,-1.099,1.099,1.404,60.000,67492.000,1.000
10.381,19.225,3.768,5.585,8.911,20.049,12.476,-5.573,-0.131,0.891,-0.482,-1.038,1.221,1.404,60.000,67493.000,1.000
13.497,21.204,2.962,5.934,7.939,16.729,10.481,-5.551,-0.136,0.889,-0.480,-0.946,1.160,1.434,60.000,67494.000,1.000
10.194,18.649,0.600,4.013,4.166,10.592,4.985,-7.259,-0.139,0.887,-0.481,-0.946,1.099,1.465,60.000,67495.000,1.000
1.888,12.468,-2.207,0.894,-1.385,3.098,-2.034,-9.133,-0.143,0.886,-0.483,-0.793,0.916,1.434,60.000,67496.000,1.000
-4.567,7.069,-3.453,-1.078,-6.108,-3.265,-6.978,-9.366,-0.144,0.886,-0.481,-0.732,0.671,1.373,60.000,67497.000,1.000
-5.241,5.210,-2.670,-1.082,-8.806,-7.093,-8.806,-7.928,-0.146,0.890,-0.480,-0.580,0.366,1.373,60.000,67498.000,1.000
-2.915,5.534,-1.296,-0.344,-10.537,-8.684,-9.717,-6.316,-0.146,0.889,-0.479,-0.580,0.092,1.343,60.000,67499.000,1.000
-1.570,5.778,-0.614,0.129,-12.326,-8.744,-11.447,-5.373,-0.147,0.892,-0.478,-0.610,-0.092,1.190,60.000,67500.000,1.000
-1.168,5.776,-0.646,0.748,-13.717,-7.715,-13.113,-4.410,-0.144,0.894,-0.477,-0.610,-0.336,1.221,60.000,67501.000,1.000
1.307,6.834,-0.777,2.417,-13.551,-5.979,-12.592,-2.183,-0.143,0.897,-0.479,-0.671,-0.610,1.190,60.000,67502.000,1.000
6.354,8.766,-1.135,4.704,-11.950,-4.479,-9.770,1.325,-0.142,0.900,-0.478,-0.763,-0.793,1.068,60.000,67503.000,1.000
10.208,9.171,-2.623,5.732,-10.715,-4.456,-7.254,4.457,-0.140,0.899,-0.477,-0.916,-0.885,1.007,60.000,67504.000,1.000
9.837,6.489,-5.314,4.361,-11.169,-6.060,-7.116,5.653,-0.135,0.904,-0.469,-1.007,-1.038,0.977,60.000,67505.000,1.000
6.822,2.156,-7.862,1.487,-12.603,-7.941,-8.703,5.009,-0.132,0.906,-0.473,-1.190,-1.160,1.007,60.000,67506.000,1.000
5.734,-0.603,-8.583,-0.867,-13.111,-8.451,-9.781,3.883,-0.128,0.908,-0.475,-1.465,-1.160,0.977,60.000,67507.000,1.000
8.502,-0.253,-7.264,-1.776,-12.007,-7.478,-9.540,3.209,-0.127,0.908,-0.475,-1.648,-1.129,0.793,60.000,67508.000,1.000
12.177,1.654,-5.283,-2.005,-10.466,-6.432,-9.242,2.981,-0.126,0.907,-0.476,-1.831,-1.068,0.763,60.000,67509.000,1.000
13.302,3.030,-3.839,-2.336,-9.542,-6.340,-9.846,3.039,-0.122,0.909,-0.477,-2.045,-0.885,0.641,60.000,67510.000,1.000
11.997,3.731,-2.994,-2.563,-8.867,-6.916,-10.882,3.352,-0.118,0.906,-0.478,-2.197,-0.671,0.549,60.000,67511.000,1.000
11.443,5.319,-2.068,-1.919,-7.205,-7.118,-11.084,3.934,-0.117,0.906,-0.475,-2.289,-0.519,0.580,60.000,67512.000,1.000
13.051,8.180,-0.933,-0.515,-4.288,-6.562,-10.009,4.547,-0.120,0.906,-0.478,-2.350,-0.366,0.488,60.000,67513.000,1.000
14.143,10.204,-0.385,0.338,-1.458,-6.009,-8.701,4.708,-0.119,0.905,-0.480,-2.441,-0.122,0.427,60.000,67514.000,1.000
11.834,9.340,-0.952,-0.255,-0.020,-6.172,-8.248,4.249,-0.120,0.903,-0.479,-2.411,0.031,0.336,60.000,67515.000,1.000
6.667,5.911,-2.142,-1.739,0.095,-6.848,-8.665,3.564,-0.122,0.900,-0.477,-2.502,0.305,0.305,60.000,67516.000,1.000
2.197,2.271,-2.806,-2.600,0.122,-7.166,-8.832,3.301,-0.123,0.899,-0.477,-2.472,0.458,0.122,60.000,67517.000,1.000
0.899,0.357,-2.400,-1.994,0.937,-6.661,-7.885,3.540,-0.123,0.897,-0.479,-2.502,0.641,0.092,60.000,67518.000,1.000
1.786,0.254,-1.472,-0.443,2.238,-5.707,-6.158,3.645,-0.126,0.896,-0.477,-2.441,0.732,0.031,60.000,67519.000,1.000
2.594,1.130,-0.834,1.116,3.393,-4.839,-4.351,3.114,-0.128,0.894,-0.475,-2.258,0.793,-0.061,60.000,67520.000,1.000
2.062,2.057,-1.025,2.066,4.093,-4.336,-3.008,1.886,-0.130,0.892,-0.472,-2.167,0.793,-0.183,60.000,67521.000,1.000
0.737,2.501,-2.108,2.338,4.417,-4.064,-2.195,0.128,-0.132,0.890,-0.471,-2.106,0.916,-0.153,60.000,67522.000,1.000
-0.603,2.097,-3.930,1.972,4.304,-3.827,-1.715,-2.079,-0.131,0.892,-0.474,-2.014,0.824,-0.244,60.000,67523.000,1.000
-2.296,0.478,-6.181,0.936,3.422,-3.555,-1.335,-4.644,-0.131,0.887,-0.473,-1.801,0.732,-0.244,60.000,67524.000,1.000
-4.675,-2.112,-8.049,-0.388,1.818,-2.929,-0.487,-7.230,-0.131,0.887,-0.472,-1.648,0.702,-0.244,60.000,67525.000,1.000
-7.477,-5.042,-8.711,-1.467,-0.235,-1.701,1.106,-9.572,-0.133,0.887,-0.474,-1.465,0.671,-0.336,60.000,67526.000,1.000
-10.004,-7.876,-8.079,-2.247,-2.766,-0.242,2.900,-11.844,-0.131,0.888,-0.474,-1.160,0.641,-0.183,60.000,67527.000,1.000
-12.090,-10.761,-7.150,-3.454,-6.250,0.435,3.546,-14.697,-0.134,0.888,-0.471,-0.946,0.610,-0.092,60.000,67528.000,1.000
-14.103,-13.838,-7.184,-5.752,-10.764,-0.387,1.989,-18.489,-0.135,0.889,-0.473,-0.732,0.519,-0.031,60.000,67529.000,1.000
-15.917,-16.519,-8.541,-8.781,-15.360,-2.317,-1.273,-22.612,-0.139,0.891,-0.473,-0.519,0.336,0.061,60.000,67530.000,1.000
-17.462,-18.371,-10.711,-11.675,-19.024,-4.489,-4.909,-26.002,-0.143,0.892,-0.471,-0.305,0.153,0.214,60.000,67531.000,1.000
-18.347,-19.172,-12.516,-13.427,-21.083,-6.015,-7.461,-27.548,-0.144,0.890,-0.469,-0.122,-0.183,0.336,60.000,67532.000,1.000
-17.423,-18.361,-12.750,-13.188,-21.033,-6.147,-7.882,-26.410,-0.144,0.888,-0.471,-0.061,-0.427,0.488,60.000,67533.000,1.000
-13.743,-15.541,-11.140,-10.916,-18.832,-4.738,-6.155,-22.630,-0.143,0.891,-0.472,-0.031,-0.702,0.580,60.000,67534.000,1.000
-7.846,-11.470,-8.576,-7.694,-15.309,-2.532,-3.122,-17.434,-0.140,0.890,-0.475,0.183,-0.854,0.580,60.000,67535.000,1.000
-2.607,-8.477,-6.612,-5.483,-12.187,-0.942,-0.169,-12.708,-0.139,0.891,-0.478,0.305,-1.038,0.610,60.000,67536.000,1.000
-0.742,-8.435,-6.135,-5.556,-10.758,-0.897,1.713,-9.545,-0.140,0.892,-0.474,0.397,-1.221,0.763,60.000,67537.000,1.000
-2.027,-10.717,-6.727,-7.363,-10.757,-2.279,2.178,-7.626,-0.138,0.892,-0.475,0.610,-1.526,0.824,60.000,67538.000,1.000
-3.822,-12.831,-7.390,-9.201,-10.882,-4.503,1.067,-5.957,-0.139,0.892,-0.475,0.641,-1.617,0.885,60.000,67539.000,1.000
-4.066,-12.855,-7.638,-9.860,-10.183,-7.248,-1.659,-3.882,-0.139,0.892,-0.474,0.702,-1.801,0.946,60.000,67540.000,1.000
-3.969,-11.339,-7.952,-9.697,-9.003,-10.646,-5.941,-1.473,-0.139,0.891,-0.478,0.702,-1.984,0.977,60.000,67541.000,1.000
-5.966,-10.082,-8.704,-9.573,-7.973,-14.416,-10.740,1.138,-0.138,0.892,-0.479,0.885,-2.197,1.068,60.000,67542.000,1.000
-10.227,-9.962,-9.417,-9.560,-6.856,-17.500,-14.058,4.198,-0.138,0.893,-0.479,0.824,-2.350,1.099,60.000,67543.000,1.000
-13.927,-10.170,-9.196,-8.854,-4.611,-18.653,-14.254,8.027,-0.134,0.894,-0.479,0.793,-2.472,1.038,60.000,67544.000,1.000
-13.794,-9.210,-7.574,-6.701,-0.478,-17.367,-11.271,12.284,-0.132,0.893,-0.481,0.824,-2.441,1.068,60.000,67545.000,1.000
-10.182,-7.124,-5.286,-3.724,4.563,-14.776,-7.464,15.529,-0.131,0.895,-0.481,0.854,-2.502,1.038,60.000,67546.000,1.000
-6.527,-5.433,-3.492,-1.403,8.488,-12.839,-5.816,16.470,-0.132,0.896,-0.481,0.763,-2.502,0.916,60.000,67547.000,1.000
-5.370,-5.157,-2.529,-0.498,10.224,-12.610,-7.240,15.313,-0.131,0.898,-0.482,0.671,-2.563,0.824,60.000,67548.000,1.000
-5.952,-5.642,-1.729,-0.415,10.414,-13.536,-10.047,13.610,-0.129,0.898,-0.481,0.519,-2.441,0.702,60.000,67549.000,1.000
-5.622,-5.369,-0.381,-0.018,10.433,-14.282,-11.831,12.957,-0.130,0.898,-0.483,0.427,-2.411,0.549,60.000,67550.000,1.000
-3.808,-4.108,1.121,0.932,10.808,-14.166,-12.011,13.672,-0.131,0.901,-0.480,0.336,-2.228,0.427,60.000,67551.000,1.000
-2.145,-2.888,1.920,1.981,11.335,-13.183,-11.410,14.979,-0.128,0.903,-0.479,0.183,-2.167,0.214,60.000,67552.000,1.000
-1.549,-2.365,1.859,2.852,11.852,-11.359,-10.397,15.945,-0.126,0.905,-0.477,-0.061,-2.014,0.061,60.000,67553.000,1.000
-0.777,-2.044,1.603,3.612,12.347,-8.623,-8.404,16.113,-0.126,0.904,-0.476,-0.244,-1.953,-0.153,60.000,67554.000,1.000
1.884,-1.075,1.874,4.292,12.688,-5.103,-4.975,15.525,-0.126,0.903,-0.478,-0.336,-1.831,-0.427,60.000,67555.000,1.000
5.363,0.057,2.535,4.372,12.262,-1.466,-1.216,14.210,-0.125,0.903,-0.477,-0.488,-1.678,-0.580,60.000,67556.000,1.000
6.859,0.096,3.031,3.465,10.667,1.699,1.299,12.299,-0.123,0.902,-0.479,-0.580,-1.495,-0.671,60.000,67557.000,1.000
5.430,-1.192,3.178,1.966,8.349,4.372,2.395,10.259,-0.123,0.900,-0.480,-0.854,-1.343,-0.763,60.000,67558.000,1.000
3.115,-2.671,3.256,0.698,6.211,6.826,3.282,8.575,-0.124,0.898,-0.479,-1.068,-1.038,-0.671,60.000,67559.000,1.000
2.494,-3.232,3.561,0.094,4.696,9.080,4.941,7.198,-0.126,0.897,-0.483,-1.038,-0.793,-0.702,60.000,67560.000,1.000
3.143,-3.469,3.782,-0.414,3.106,10.536,6.489,5.403,-0.125,0.897,-0.484,-1.129,-0.641,-0.702,60.000,67561.000,1.000
2.923,-4.509,3.581,-1.466,0.662,10.830,6.573,2.644,-0.127,0.896,-0.482,-1.038,-0.336,-0.732,60.000,67562.000,1.000
1.342,-6.137,3.215,-2.882,-2.359,10.492,5.501,-1.040,-0.126,0.893,-0.481,-1.129,-0.061,-0.641,60.000,67563.000,1.000
0.018,-7.138,3.299,-3.953,-4.887,10.501,5.091,-5.383,-0.126,0.891,-0.480,-1.221,0.000,-0.641,60.000,67564.000,1.000
0.658,-6.666,4.264,-4.144,-6.015,11.546,6.827,-10.002,-0.131,0.890,-0.481,-1.160,0.092,-0.519,60.000,67565.000,1.000
2.663,-5.189,5.818,-3.675,-5.922,13.377,10.053,-14.354,-0.135,0.889,-0.479,-1.038,0.305,-0.458,60.000,67566.000,1.000
4.252,-3.654,7.435,-2.922,-5.356,15.229,12.960,-17.589,-0.136,0.889,-0.478,-1.068,0.366,-0.397,60.000,67567.000,1.000
4.763,-2.452,8.903,-1.792,-4.734,16.484,14.385,-18.886,-0.138,0.891,-0.481,-0.977,0.336,-0.183,60.000,67568.000,1.000
5.203,-1.269,10.330,0.089,-3.962,16.916,14.353,-17.944,-0.140,0.894,-0.481,-0.977,0.427,-0.092,60.000,67569.000,1.000
6.959,0.407,11.836,2.774,-2.850,16.633,13.706,-15.183,-0.137,0.894,-0.483,-0.916,0.427,0.153,60.000,67570.000,1.000
9.251,2.056,12.970,5.279,-1.923,15.587,12.871,-11.795,-0.136,0.895,-0.483,-0.854,0.366,0.275,60.000,67571.000,1.000
9.881,2.601,13.134,6.395,-1.854,13.801,11.902,-8.996,-0.135,0.893,-0.477,-0.824,0.275,0.397,60.000,67572.000,1.000
7.972,1.853,12.354,5.959,-2.401,11.728,11.012,-7.321,-0.135,0.894,-0.480,-0.763,0.183,0.488,60.000,67573.000,1.000
5.124,0.987,11.395,5.033,-2.327,10.069,10.541,-6.496,-0.135,0.896,-0.481,-0.854,0.214,0.732,60.000,67574.000,1.000
3.961,1.637,11.094,4.908,-0.444,9.259,10.787,-5.779,-0.136,0.894,-0.481,-0.763,0.183,0.885,60.000,67575.000,1.000
4.870,3.905,11.380,5.722,2.923,8.875,11.326,-4.808,-0.137,0.895,-0.482,-0.793,0.061,0.946,60.000,67576.000,1.000
6.239,6.447,11.702,6.782,6.328,8.115,11.383,-3.773,-0.138,0.893,-0.482,-0.885,0.122,1.038,60.000,67577.000,1.000
6.806,7.941,11.723,7.460,8.440,6.362,10.251,-3.054,-0.137,0.893,-0.483,-0.671,0.061,1.160,60.000,67578.000,1.000
6.548,7.832,11.301,7.460,8.669,3.300,7.363,-2.795,-0.138,0.892,-0.481,-0.671,-0.061,1.160,60.000,67579.000,1.000
6.104,6.473,10.360,6.835,7.406,-0.878,2.989,-2.642,-0.138,0.892,-0.480,-0.702,-0.183,1.190,60.000,67580.000,1.000
4.940,4.310,8.661,5.519,5.405,-5.649,-1.892,-2.166,-0.140,0.892,-0.476,-0.702,-0.214,1.190,60.000,67581.000,1.000
1.867,1.679,6.156,3.522,3.434,-10.103,-5.943,-1.125,-0.139,0.890,-0.480,-0.641,-0.336,1.129,60.000,67582.000,1.000
-2.963,-0.766,3.314,1.418,2.364,-13.008,-8.058,0.606,-0.139,0.890,-0.480,-0.580,-0.519,1.129,60.000,67583.000,1.000
-7.437,-1.918,0.958,0.277,3.020,-13.403,-7.970,3.127,-0.138,0.891,-0.480,-0.488,-0.549,1.160,60.000,67584.000,1.000
-9.276,-0.961,-0.283,0.890,5.515,-11.337,-6.332,6.342,-0.139,0.890,-0.478,-0.488,-0.641,1.007,60.000,67585.000,1.000
-9.257,1.160,-0.741,2.666,8.442,-8.207,-4.748,9.574,-0.140,0.889,-0.478,-0.458,-0.671,0.916,60.000,67586.000,1.000
-10.165,2.578,-1.249,4.163,9.898,-5.659,-4.402,12.059,-0.140,0.891,-0.479,-0.488,-0.671,0.763,60.000,67587.000,1.000
-12.885,2.731,-2.160,4.531,9.245,-4.337,-4.831,13.665,-0.139,0.890,-0.479,-0.549,-0.854,0.702,60.000,67588.000,1.000
-14.869,3.020,-2.985,4.242,7.639,-3.639,-4.373,15.083,-0.138,0.892,-0.476,-0.610,-0.946,0.610,60.000,67589.000,1.000
-12.865,5.138,-2.960,4.351,6.841,-2.485,-1.832,17.089,-0.137,0.895,-0.480,-0.671,-1.038,0.610,60.000,67590.000,1.000
-7.521,8.604,-2.225,4.807,7.142,-0.568,1.673,19.204,-0.135,0.894,-0.481,-0.671,-1.068,0.458,60.000,67591.000,1.000
-2.503,11.524,-1.379,4.727,7.581,1.874,4.047,20.118,-0.134,0.895,-0.480,-0.763,-1.068,0.305,60.000,67592.000,1.000
0.304,13.219,-0.315,3.955,7.776,4.932,4.986,19.432,-0.137,0.898,-0.484,-0.763,-1.099,0.183,60.000,67593.000,1.000
2.808,14.909,1.666,3.386,8.440,8.864,6.269,18.159,-0.136,0.900,-0.481,-0.946,-1.007,0.092,60.000,67594.000,1.000
7.554,17.683,4.511,3.619,10.006,13.164,9.303,17.361,-0.136,0.900,-0.483,-0.946,-1.160,-0.061,60.000,67595.000,1.000
12.750,19.909,6.502,3.645,11.097,16.098,12.512,16.803,-0.136,0.902,-0.481,-1.251,-1.007,-0.244,60.000,67596.000,1.000
13.954,18.804,5.949,2.183,9.840,16.220,13.024,15.661,-0.135,0.905,-0.479,-1.495,-1.038,-0.214,60.000,67597.000,1.000
10.117,14.182,3.193,-0.397,6.246,13.887,10.285,13.707,-0.134,0.905,-0.478,-1.770,-1.007,-0.244,60.000,67598.000,1.000
5.246,8.833,0.131,-2.482,2.227,10.672,6.473,11.177,-0.130,0.908,-0.476,-2.045,-0.946,-0.214,60.000,67599.000,1.000
3.591,5.142,-2.010,-3.374,-0.775,7.511,3.547,7.821,-0.126,0.906,-0.476,-2.258,-0.702,-0.153,60.000,67600.000,1.000
3.934,2.080,-4.063,-4.610,-3.708,3.699,0.462,2.673,-0.124,0.906,-0.480,-2.411,-0.427,-0.183,60.000,67601.000,1.000
1.784,-2.751,-7.249,-7.936,-8.189,-1.518,-4.840,-4.408,-0.123,0.903,-0.481,-2.563,-0.122,-0.153,60.000,67602.000,1.000
-3.972,-9.021,-10.908,-12.582,-13.575,-7.041,-11.626,-11.579,-0.122,0.900,-0.478,-2.655,0.214,-0.122,60.000,67603.000,1.000
-8.886,-12.974,-12.603,-15.354,-16.773,-10.238,-16.090,-15.922,-0.119,0.898,-0.480,-2.563,0.458,-0.061,60.000,67604.000,1.000
-7.691,-11.033,-10.429,-13.577,-15.121,-9.196,-14.967,-15.721,-0.122,0.898,-0.479,-2.533,0.763,0.031,60.000,67605.000,1.000
-1.069,-4.138,-5.243,-7.995,-9.452,-4.784,-9.247,-12.190,-0.122,0.897,-0.478,-2.502,1.038,0.153,60.000,67606.000,1.000
5.214,3.153,0.211,-1.766,-3.210,0.240,-2.755,-8.319,-0.125,0.897,-0.479,-2.563,1.282,0.000,60.000,67607.000,1.000
6.956,7.320,3.863,2.708,0.954,3.735,1.903,-6.215,-0.128,0.896,-0.478,-2.502,1.587,0.092,60.000,67608.000,1.000
5.260,8.584,5.548,5.315,2.995,5.477,4.911,-5.810,-0.131,0.896,-0.479,-2.289,1.648,0.122,60.000,67609.000,1.000
3.853,9.232,6.031,7.107,4.305,6.346,7.563,-5.883,-0.133,0.895,-0.473,-2.350,1.831,0.214,60.000,67610.000,1.000
3.355,9.723,5.295,8.166,5.195,6.570,9.649,-5.795,-0.135,0.892,-0.478,-2.319,1.984,0.244,60.000,67611.000,1.000
1.266,8.294,2.922,7.760,4.766,5.727,9.995,-5.546,-0.135,0.889,-0.478,-2.197,2.106,0.275,60.000,67612.000,1.000
-3.645,3.834,-0.641,5.866,2.576,3.855,8.461,-5.143,-0.135,0.886,-0.478,-2.014,2.167,0.305,60.000,67613.000,1.000
-9.265,-2.255,-3.950,3.653,-0.489,1.886,6.329,-4.610,-0.136,0.884,-0.478,-1.801,2.075,0.458,60.000,67614.000,1.000
-12.284,-7.090,-5.552,2.492,-2.977,0.992,5.134,-4.273,-0.135,0.881,-0.479,-1.556,2.136,0.519,60.000,67615.000,1.000
-12.321,-9.369,-5.294,2.418,-4.575,1.291,4.925,-4.801,-0.136,0.879,-0.479,-1.282,2.045,0.763,60.000,67616.000,1.000
-11.751,-10.176,-4.032,2.482,-6.017,2.011,4.782,-6.415,-0.136,0.877,-0.482,-0.977,2.045,0.854,60.000,67617.000,1.000
-12.407,-11.057,-2.553,2.153,-7.672,2.576,4.237,-8.425,-0.140,0.878,-0.484,-0.549,1.953,0.916,60.000,67618.000,1.000
-13.807,-12.148,-1.140,1.787,-8.942,3.001,3.444,-9.730,-0.141,0.882,-0.481,-0.427,1.770,1.099,60.000,67619.000,1.000
-14.070,-12.224,0.187,2.012,-8.957,3.416,2.711,-9.668,-0.140,0.886,-0.480,-0.061,1.617,1.190,60.000,67620.000,1.000
-12.599,-10.647,1.109,2.718,-7.807,3.395,1.906,-8.498,-0.141,0.891,-0.481,0.092,1.434,1.343,60.000,67621.000,1.000
-9.963,-7.897,1.352,3.445,-6.237,2.467,1.085,-6.863,-0.140,0.896,-0.482,0.122,1.160,1.465,60.000,67622.000,1.000
-6.755,-5.102,0.921,3.913,-4.919,0.607,0.552,-5.339,-0.138,0.900,-0.480,0.092,0.946,1.617,60.000,67623.000,1.000
-3.708,-3.705,-0.146,3.893,-4.441,-1.982,0.003,-4.356,-0.139,0.901,-0.481,0.061,0.793,1.709,60.000,67624.000,1.000
-1.403,-4.436,-1.606,3.354,-5.095,-4.932,-1.153,-3.921,-0.139,0.903,-0.476,0.000,0.671,1.831,60.000,67625.000,1.000
-0.245,-6.836,-3.007,2.458,-6.787,-7.899,-3.240,-3.632,-0.144,0.901,-0.478,-0.031,0.397,1.862,60.000,67626.000,1.000
0.065,-9.535,-3.754,1.632,-8.878,-10.621,-5.863,-2.860,-0.145,0.901,-0.479,-0.061,0.061,1.801,60.000,67627.000,1.000
0.128,-11.355,-3.661,1.203,-10.576,-13.093,-8.415,-1.226,-0.147,0.900,-0.481,-0.092,-0.275,1.831,60.000,67628.000,1.000
-0.042,-12.069,-3.236,1.076,-11.442,-15.519,-10.725,1.157,-0.151,0.898,-0.480,-0.183,-0.732,1.678,60.000,67629.000,1.000
-0.404,-11.811,-3.105,1.075,-11.166,-17.848,-12.573,3.940,-0.152,0.898,-0.484,-0.244,-1.068,1.587,60.000,67630.000,1.000
-0.754,-10.891,-3.686,0.985,-9.592,-19.851,-13.746,6.557,-0.151,0.898,-0.479,-0.153,-1.495,1.587,60.000,67631.000,1.000
-0.574,-9.654,-4.880,0.770,-6.650,-21.170,-14.088,8.399,-0.149,0.898,-0.478,-0.214,-1.801,1.526,60.000,67632.000,1.000
0.163,-8.552,-6.296,0.475,-2.691,-21.646,-13.776,9.015,-0.146,0.900,-0.480,-0.305,-2.258,1.373,60.000,67633.000,1.000
0.109,-8.277,-7.737,-0.037,1.148,-21.606,-13.548,8.320,-0.146,0.897,-0.479,-0.397,-2.380,1.251,60.000,67634.000,1.000
-2.022,-9.049,-9.059,-0.688,3.801,-21.282,-13.888,6.871,-0.141,0.898,-0.478,-0.427,-2.625,1.221,60.000,67635.000,1.000
-6.129,-10.318,-10.156,-1.091,5.078,-20.414,-14.751,5.509,-0.139,0.898,-0.479,-0.671,-2.838,1.160,60.000,67636.000,1.000
-10.321,-10.857,-10.918,-0.745,5.651,-18.363,-15.546,4.782,-0.136,0.896,-0.478,-0.763,-2.838,1.129,60.000,67637.000,1.000
-12.730,-9.851,-11.479,0.237,5.960,-14.897,-15.634,4.556,-0.133,0.896,-0.478,-0.916,-2.899,1.038,60.000,67638.000,1.000
-13.473,-7.992,-12.326,0.820,5.525,-10.759,-14.922,4.192,-0.129,0.896,-0.479,-0.885,-2.960,1.068,60.000,67639.000,1.000
-13.280,-6.423,-13.667,0.130,3.917,-7.028,-13.524,3.146,-0.127,0.895,-0.479,-0.854,-2.930,1.068,60.000,67640.000,1.000
-11.610,-5.105,-15.000,-1.604,1.659,-4.250,-11.665,1.359,-0.127,0.897,-0.483,-0.946,-2.716,1.038,60.000,67641.000,1.000
-6.631,-2.578,-15.234,-3.155,0.065,-2.048,-9.373,-0.585,-0.126,0.897,-0.483,-1.007,-2.625,0.946,60.000,67642.000,1.000
1.536,1.651,-13.869,-3.848,-0.317,0.029,-6.793,-2.154,-0.125,0.896,-0.481,-1.038,-2.563,1.038,60.000,67643.000,1.000
9.106,5.532,-11.497,-4.279,-0.430,1.854,-4.458,-3.285,-0.124,0.892,-0.481,-1.160,-2.197,1.007,60.000,67644.000,1.000
12.647,6.960,-8.686,-4.831,-1.138,3.381,-2.425,-3.853,-0.124,0.894,-0.479,-1.221,-1.984,1.038,60.000,67645.000,1.000
12.578,6.199,-5.585,-4.955,-2.218,4.729,-0.479,-3.787,-0.125,0.894,-0.482,-1.251,-1.740,1.190,60.000,67646.000,1.000
12.281,5.443,-2.363,-3.898,-2.868,5.853,1.315,-3.485,-0.123,0.893,-0.481,-1.312,-1.526,1.129,60.000,67647.000,1.000
13.696,6.115,0.390,-1.894,-2.983,6.395,2.278,-3.771,-0.124,0.895,-0.480,-1.343,-1.312,1.129,60.000,67648.000,1.000
15.040,7.388,1.982,-0.266,-3.486,5.987,1.502,-5.273,-0.124,0.893,-0.479,-1.373,-1.068,1.038,60.000,67649.000,1.000
14.075,7.878,2.484,-0.030,-5.002,4.889,-0.641,-7.758,-0.123,0.895,-0.481,-1.434,-0.824,1.007,60.000,67650.000,1.000
11.409,7.475,2.713,-0.930,-6.846,3.968,-2.214,-10.262,-0.121,0.895,-0.485,-1.465,-0.519,1.007,60.000,67651.000,1.000
10.288,7.559,3.614,-1.575,-7.301,4.247,-0.904,-11.567,-0.120,0.897,-0.481,-1.617,-0.244,0.977,60.000,67652.000,1.000
12.198,8.807,5.092,-1.122,-5.544,5.811,3.471,-11.227,-0.118,0.898,-0.482,-1.678,0.061,0.946,60.000,67653.000,1.000
14.023,9.477,5.781,-0.395,-2.917,7.389,8.039,-10.065,-0.117,0.899,-0.481,-1.709,0.397,1.007,60.000,67654.000,1.000
12.523,7.944,4.915,-0.234,-0.995,7.981,10.170,-8.903,-0.115,0.900,-0.480,-1.862,0.763,1.068,60.000,67655.000,1.000
9.359,5.522,3.600,0.045,0.494,8.096,10.340,-7.482,-0.113,0.900,-0.480,-1.862,1.129,1.190,60.000,67656.000,1.000
9.394,5.091,3.634,1.653,2.788,8.706,10.755,-5.231,-0.115,0.899,-0.481,-2.045,1.465,1.129,60.000,67657.000,1.000
13.339,6.693,5.040,3.860,5.314,9.169,11.362,-2.935,-0.116,0.898,-0.479,-2.136,1.801,1.221,60.000,67658.000,1.000
15.408,6.714,6.001,4.169,5.559,7.574,9.410,-2.383,-0.116,0.897,-0.480,-2.014,2.045,1.160,60.000,67659.000,1.000
10.994,2.831,5.663,1.709,2.537,3.621,4.011,-3.947,-0.119,0.895,-0.483,-2.014,2.289,1.129,60.000,67660.000,1.000
3.269,-2.451,5.407,-1.204,-1.275,-0.393,-1.531,-5.612,-0.123,0.892,-0.480,-2.045,2.502,1.129,60.000,67661.000,1.000
0.304,-4.050,7.155,-1.336,-2.064,-1.686,-2.723,-4.772,-0.127,0.892,-0.480,-2.045,2.563,1.129,60.000,67662.000,1.000
5.390,-0.111,10.673,1.672,1.164,0.074,1.003,-1.224,-0.128,0.891,-0.479,-1.862,2.655,1.038,60.000,67663.000,1.000
12.721,5.539,13.455,4.738,5.423,2.560,5.469,2.369,-0.130,0.893,-0.480,-1.923,2.838,0.977,60.000,67664.000,1.000
14.721,7.739,13.693,5.034,7.331,3.557,6.761,3.413,-0.131,0.892,-0.479,-1.831,2.808,1.160,60.000,67665.000,1.000
10.569,5.291,12.139,2.813,6.472,2.877,5.084,1.726,-0.134,0.892,-0.481,-1.831,2.563,1.160,60.000,67666.000,1.000
6.190,1.629,11.009,0.577,5.070,1.806,3.517,-0.853,-0.135,0.893,-0.478,-1.770,2.441,1.099,60.000,67667.000,1.000
5.885,0.113,11.198,-0.158,4.730,1.039,3.444,-2.634,-0.137,0.896,-0.480,-1.801,2.350,1.038,60.000,67668.000,1.000
6.814,0.057,11.349,-0.334,4.563,-0.083,2.873,-3.323,-0.136,0.897,-0.479,-1.709,2.289,1.099,60.000,67669.000,1.000
4.408,-0.992,10.176,-1.128,3.220,-1.913,0.226,-3.158,-0.135,0.899,-0.477,-1.831,2.106,1.190,60.000,67670.000,1.000
-0.305,-3.088,8.404,-1.843,1.231,-3.413,-2.875,-2.005,-0.135,0.902,-0.476,-1.953,1.892,1.312,60.000,67671.000,1.000
-1.239,-3.553,7.948,-0.689,0.554,-3.086,-3.390,0.256,-0.134,0.903,-0.476,-1.953,1.709,1.312,60.000,67672.000,1.000
4.387,-1.066,9.237,2.323,1.699,-1.017,-0.977,2.589,-0.134,0.903,-0.478,-2.045,1.526,1.312,60.000,67673.000,1.000
11.304,1.783,10.407,4.550,2.502,0.706,1.131,3.075,-0.131,0.905,-0.479,-2.167,1.312,1.343,60.000,67674.000,1.000
12.603,1.620,9.689,3.694,0.850,0.241,0.244,0.918,-0.129,0.907,-0.476,-2.258,1.221,1.343,60.000,67675.000,1.000
7.702,-1.826,7.324,0.231,-2.695,-2.232,-2.778,-2.543,-0.129,0.908,-0.475,-2.380,1.068,1.221,60.000,67676.000,1.000
2.296,-5.654,4.972,-3.341,-5.423,-4.988,-4.820,-4.914,-0.128,0.908,-0.473,-2.472,0.977,1.129,60.000,67677.000,1.000
0.473,-7.562,3.413,-5.454,-5.618,-6.884,-4.571,-4.951,-0.125,0.909,-0.474,-2.625,0.977,1.160,60.000,67678.000,1.000
-0.230,-8.322,1.745,-6.795,-4.232,-8.268,-4.078,-3.412,-0.123,0.910,-0.475,-2.777,0.946,1.099,60.000,67679.000,1.000
-3.656,-9.248,-0.617,-8.214,-2.734,-9.375,-5.174,-1.445,-0.124,0.910,-0.474,-2.991,0.824,1.007,60.000,67680.000,1.000
-8.714,-9.368,-2.571,-8.934,-0.930,-9.262,-6.604,0.925,-0.122,0.910,-0.476,-3.082,0.885,1.099,60.000,67681.000,1.000
-10.282,-6.292,-2.422,-7.428,2.408,-6.838,-5.563,4.432,-0.120,0.911,-0.469,-3.235,0.946,0.946,60.000,67682.000,1.000
-6.423,0.011,-0.231,-3.934,6.986,-2.826,-1.765,8.859,-0.117,0.908,-0.469,-3.387,0.946,0.824,60.000,67683.000,1.000
-2.041,5.733,1.875,-0.935,10.294,0.303,1.610,12.572,-0.115,0.906,-0.468,-3.418,0.977,0.793,60.000,67684.000,1.000
-3.017,7.029,2.219,-0.365,10.373,0.992,1.901,14.122,-0.114,0.903,-0.469,-3.540,1.099,0.641,60.000,67685.000,1.000
-9.474,3.872,1.170,-1.602,7.979,0.101,-0.198,13.568,-0.111,0.901,-0.472,-3.662,1.160,0.519,60.000,67686.000,1.000
-15.806,-0.277,0.343,-2.314,5.760,-0.181,-1.656,12.257,-0.110,0.898,-0.472,-3.479,1.404,0.458,60.000,67687.000,1.000
-17.267,-2.402,0.558,-1.082,5.477,1.413,-0.394,11.285,-0.109,0.895,-0.469,-3.387,1.556,0.214,60.000,67688.000,1.000
-14.756,-2.544,1.143,1.386,6.569,4.309,2.907,10.613,-0.108,0.898,-0.469,-3.235,1.709,0.031,60.000,67689.000,1.000
-12.067,-2.211,1.247,3.671,7.583,7.231,6.353,9.833,-0.108,0.894,-0.470,-3.052,1.953,-0.031,60.000,67690.000,1.000
-11.578,-2.293,0.706,4.939,7.670,9.209,8.479,8.895,-0.109,0.889,-0.471,-2.991,2.045,-0.153,60.000,67691.000,1.000
-12.749,-2.437,-0.016,5.194,7.013,9.932,9.001,8.139,-0.113,0.885,-0.469,-2.716,2.228,-0.122,60.000,67692.000,1.000
-14.066,-1.926,-0.512,4.671,6.226,9.554,8.523,7.785,-0.115,0.882,-0.469,-2.350,2.380,-0.214,60.000,67693.000,1.000
-15.086,-0.557,-0.802,3.441,5.687,8.504,7.836,7.750,-0.123,0.879,-0.469,-1.770,2.319,-0.244,60.000,67694.000,1.000
-15.667,1.720,-0.860,1.818,5.637,7.573,7.765,7.942,-0.128,0.878,-0.469,-1.465,2.167,-0.397,60.000,67695.000,1.000
-15.565,4.676,-0.624,0.258,6.005,7.346,8.405,8.066,-0.131,0.875,-0.474,-1.068,1.984,-0.519,60.000,67696.000,1.000
-14.246,7.838,-0.098,-0.738,6.459,7.914,9.189,7.664,-0.134,0.877,-0.474,-0.580,1.709,-0.549,60.000,67697.000,1.000
-11.259,10.676,0.478,-0.941,6.516,8.979,9.549,6.353,-0.139,0.875,-0.473,-0.122,1.343,-0.580,60.000,67698.000,1.000
-7.248,12.327,0.439,-0.937,5.427,9.888,8.974,3.801,-0.139,0.874,-0.477,0.244,1.007,-0.610,60.000,67699.000,1.000
-3.873,11.781,-0.941,-1.871,2.468,9.870,7.119,-0.115,-0.140,0.875,-0.475,0.671,0.702,-0.641,60.000,67700.000,1.000
-3.403,8.284,-3.999,-4.674,-2.689,8.369,3.753,-5.017,-0.140,0.874,-0.472,1.282,0.305,-0.702,60.000,67701.000,1.000
-6.688,2.457,-8.032,-8.946,-9.135,5.812,-0.408,-9.738,-0.139,0.876,-0.474,1.678,-0.061,-0.641,60.000,67702.000,1.000
-11.659,-3.329,-11.447,-12.848,-14.613,3.709,-3.432,-12.878,-0.137,0.878,-0.477,2.045,-0.305,-0.641,60.000,67703.000,1.000
-14.551,-6.176,-12.837,-14.268,-16.734,3.596,-3.470,-13.687,-0.138,0.881,-0.477,2.502,-0.519,-0.641,60.000,67704.000,1.000
-12.702,-4.515,-11.970,-12.271,-14.510,5.847,-0.203,-12.391,-0.141,0.884,-0.478,2.747,-0.793,-0.610,60.000,67705.000,1.000
-7.871,-0.097,-10.371,-8.346,-9.589,8.895,4.147,-10.214,-0.141,0.889,-0.474,3.021,-1.129,-0.671,60.000,67706.000,1.000
-4.855,3.039,-10.046,-5.283,-5.107,10.425,6.617,-8.453,-0.143,0.891,-0.477,3.174,-1.556,-0.458,60.000,67707.000,1.000
-6.314,2.249,-11.535,-4.548,-2.900,9.414,6.434,-7.321,-0.145,0.892,-0.480,3.296,-1.923,-0.580,60.000,67708.000,1.000
-10.088,-1.547,-13.608,-5.268,-2.251,6.644,5.299,-5.900,-0.145,0.895,-0.480,3.265,-2.350,-0.397,60.000,67709.000,1.000
-11.829,-5.278,-14.692,-5.646,-1.271,3.503,5.167,-3.178,-0.145,0.902,-0.475,3.235,-2.716,-0.427,60.000,67710.000,1.000
-10.619,-7.337,-14.625,-5.255,0.544,0.419,5.776,0.593,-0.145,0.903,-0.476,3.021,-3.113,-0.458,60.000,67711.000,1.000
-9.297,-8.344,-14.338,-4.972,2.178,-2.918,5.501,3.931,-0.143,0.906,-0.473,2.991,-3.418,-0.366,60.000,67712.000,1.000
-9.622,-8.865,-14.305,-5.214,2.986,-6.377,3.756,5.553,-0.142,0.907,-0.478,2.899,-3.723,-0.336,60.000,67713.000,1.000
-9.490,-8.010,-13.953,-5.184,3.707,-9.075,1.565,5.605,-0.140,0.910,-0.473,2.594,-3.937,-0.305,60.000,67714.000,1.000
-5.587,-4.611,-12.552,-3.934,5.534,-10.136,0.396,5.382,-0.137,0.912,-0.477,2.289,-4.150,-0.153,60.000,67715.000,1.000
1.057,0.170,-10.689,-2.110,8.186,-9.940,0.098,5.862,-0.135,0.914,-0.479,2.075,-4.211,-0.092,60.000,67716.000,1.000
5.547,3.423,-9.668,-1.364,10.144,-9.746,-0.843,7.263,-0.130,0.914,-0.480,1.831,-4.242,0.031,60.000,67717.000,1.000
5.210,3.772,-9.735,-2.300,10.601,-10.244,-3.178,9.521,-0.127,0.914,-0.479,1.465,-4.181,0.122,60.000,67718.000,1.000
2.795,2.792,-9.693,-3.858,10.307,-10.961,-5.965,12.461,-0.125,0.915,-0.483,1.129,-4.028,0.244,60.000,67719.000,1.000
3.188,3.179,-8.174,-4.560,10.594,-10.947,-7.623,15.543,-0.124,0.913,-0.481,0.854,-3.967,0.214,60.000,67720.000,1.000
7.071,5.553,-5.263,-4.276,11.551,-10.037,-8.058,17.617,-0.124,0.911,-0.483,0.580,-3.815,0.214,60.000,67721.000,1.000
10.583,8.235,-2.083,-3.877,12.107,-8.658,-8.325,17.688,-0.121,0.909,-0.484,0.336,-3.571,0.214,60.000,67722.000,1.000
10.553,9.479,0.567,-3.828,11.442,-6.997,-8.815,15.762,-0.116,0.908,-0.482,0.061,-3.357,0.183,60.000,67723.000,1.000
8.046,9.008,2.601,-3.779,9.628,-5.003,-8.900,12.687,-0.113,0.906,-0.482,-0.275,-3.021,0.214,60.000,67724.000,1.000
6.796,7.905,4.188,-3.074,7.320,-2.699,-7.888,9.390,-0.112,0.905,-0.482,-0.519,-2.686,0.153,60.000,67725.000,1.000
7.825,6.683,5.007,-1.794,4.750,-0.485,-6.484,6.234,-0.112,0.900,-0.481,-0.641,-2.258,0.031,60.000,67726.000,1.000
8.413,4.852,4.755,-0.509,1.875,1.377,-5.929,3.487,-0.112,0.898,-0.482,-0.885,-1.862,-0.183,60.000,67727.000,1.000
6.290,2.401,4.032,0.674,-0.745,3.238,-6.051,1.729,-0.113,0.895,-0.480,-0.946,-1.526,-0.214,60.000,67728.000,1.000
2.592,0.448,4.044,2.172,-2.067,5.629,-5.317,1.252,-0.114,0.890,-0.483,-0.946,-1.068,-0.366,60.000,67729.000,1.000
0.317,0.219,5.438,4.222,-1.635,8.605,-2.653,1.458,-0.114,0.889,-0.484,-0.946,-0.580,-0.641,60.000,67730.000,1.000
-0.150,1.234,7.351,6.094,-0.638,11.374,0.680,0.998,-0.117,0.887,-0.486,-0.977,-0.275,-0.824,60.000,67731.000,1.000
-1.186,1.840,8.401,6.968,-0.905,13.209,2.506,-0.991,-0.120,0.886,-0.484,-0.885,0.061,-0.885,60.000,67732.000,1.000
-4.099,1.245,8.224,7.115,-3.037,14.309,2.569,-3.980,-0.120,0.885,-0.481,-0.885,0.366,-0.977,60.000,67733.000,1.000
-7.081,0.271,7.684,7.712,-5.934,15.443,2.789,-6.448,-0.121,0.887,-0.482,-0.793,0.580,-1.129,60.000,67734.000,1.000
-6.942,0.479,7.926,9.723,-7.841,17.082,5.089,-7.155,-0.126,0.891,-0.482,-0.763,0.824,-1.221,60.000,67735.000,1.000
-3.542,1.887,8.972,12.459,-8.296,18.531,8.722,-6.453,-0.123,0.889,-0.482,-0.824,1.129,-1.190,60.000,67736.000,1.000
0.001,2.802,9.985,14.084,-8.267,18.612,11.118,-5.866,-0.128,0.890,-0.481,-0.763,1.282,-1.038,60.000,67737.000,1.000
1.713,2.293,10.670,13.631,-8.454,17.137,11.086,-6.476,-0.130,0.889,-0.482,-0.763,1.587,-1.038,60.000,67738.000,1.000
3.372,1.769,11.744,11.967,-8.298,15.234,10.034,-8.024,-0.131,0.888,-0.482,-0.702,1.648,-0.946,60.000,67739.000,1.000
8.291,3.545,14.039,10.805,-6.808,14.279,10.352,-9.472,-0.136,0.887,-0.481,-0.610,1.495,-0.824,60.000,67740.000,1.000
16.312,7.529,17.071,10.638,-4.401,14.368,12.609,-10.404,-0.142,0.887,-0.482,-0.519,1.526,-0.763,60.000,67741.000,1.000
23.691,11.124,19.399,10.556,-2.704,14.473,15.505,-11.234,-0.143,0.887,-0.477,-0.458,1.373,-0.549,60.000,67742.000,1.000
27.498,12.271,20.047,9.626,-2.704,13.597,17.537,-12.368,-0.144,0.888,-0.477,-0.366,1.312,-0.397,60.000,67743.000,1.000
28.313,11.379,19.140,7.786,-3.856,11.340,17.709,-13.577,-0.145,0.891,-0.478,-0.305,1.068,-0.275,60.000,67744.000,1.000
29.012,10.521,17.577,5.736,-4.674,8.001,15.893,-14.190,-0.148,0.890,-0.479,-0.183,0.793,-0.031,60.000,67745.000,1.000
30.654,10.730,15.946,3.916,-4.359,4.128,12.604,-13.945,-0.147,0.893,-0.480,-0.214,0.549,0.153,60.000,67746.000,1.000
31.605,11.273,14.318,2.393,-3.278,0.347,8.923,-12.989,-0.147,0.890,-0.482,-0.183,0.336,0.366,60.000,67747.000,1.000
30.180,11.127,12.636,1.369,-2.175,-2.728,5.945,-11.494,-0.146,0.892,-0.481,-0.122,0.031,0.610,60.000,67748.000,1.000
26.543,10.086,10.861,1.218,-1.412,-4.680,4.000,-9.721,-0.146,0.894,-0.479,-0.061,-0.305,0.763,60.000,67749.000,1.000
22.287,8.646,9.016,2.135,-0.805,-5.386,2.941,-8.063,-0.146,0.894,-0.476,0.061,-0.702,0.885,60.000,67750.000,1.000
17.573,6.564,6.807,3.375,-0.558,-5.531,2.059,-7.158,-0.144,0.895,-0.479,0.031,-0.885,1.007,60.000,67751.000,1.000
11.131,3.126,4.019,3.885,-1.172,-6.134,0.589,-7.354,-0.145,0.896,-0.482,-0.092,-1.068,1.160,60.000,67752.000,1.000
3.166,-1.086,1.163,3.676,-2.285,-7.426,-1.468,-7.937,-0.145,0.898,-0.482,-0.244,-1.282,1.160,60.000,67753.000,1.000
-3.537,-3.930,-0.787,3.892,-2.513,-8.742,-3.484,-7.276,-0.144,0.898,-0.482,-0.336,-1.465,1.160,60.000,67754.000,1.000
-5.825,-3.471,-1.258,5.588,-0.687,-9.402,-4.709,-4.095,-0.141,0.899,-0.484,-0.458,-1.648,1.190,60.000,67755.000,1.000
-4.461,-0.642,-1.058,8.160,2.428,-9.849,-5.374,1.057,-0.137,0.899,-0.482,-0.549,-1.770,1.190,60.000,67756.000,1.000
-3.822,1.204,-1.706,9.877,4.719,-11.144,-6.427,6.244,-0.137,0.901,-0.481,-0.488,-1.953,1.160,60.000,67757.000,1.000
-6.907,-0.277,-3.783,9.857,5.045,-13.489,-8.229,9.987,-0.135,0.902,-0.481,-0.732,-2.014,0.946,60.000,67758.000,1.000
-12.136,-4.231,-6.295,8.969,4.351,-15.786,-10.050,12.378,-0.132,0.900,-0.482,-0.854,-1.984,0.793,60.000,67759.000,1.000
-15.165,-7.647,-7.622,8.785,4.550,-16.574,-10.691,14.401,-0.127,0.900,-0.480,-1.068,-1.831,0.702,60.000,67760.000,1.000
-14.353,-8.774,-7.365,9.373,6.033,-15.765,-10.439,16.241,-0.124,0.901,-0.479,-1.190,-1.709,0.671,60.000,67761.000,1.000
-12.030,-8.316,-6.435,9.262,7.322,-14.717,-11.101,17.157,-0.122,0.904,-0.477,-1.434,-1.556,0.488,60.000,67762.000,1.000
-10.614,-7.564,-5.602,7.496,7.125,-14.622,-13.660,16.780,-0.118,0.903,-0.480,-1.648,-1.343,0.275,60.000,67763.000,1.000
-9.503,-6.509,-4.705,4.821,5.802,-15.373,-16.838,15.756,-0.115,0.903,-0.480,-1.831,-0.977,0.183,60.000,67764.000,1.000
-6.112,-4.102,-3.218,2.747,4.658,-15.965,-18.267,14.991,-0.113,0.901,-0.481,-1.923,-0.641,0.031,60.000,67765.000,1.000
-0.394,-0.734,-1.543,1.517,3.848,-15.960,-17.477,14.484,-0.113,0.898,-0.479,-1.984,-0.305,-0.061,60.000,67766.000,1.000
4.522,1.407,-0.664,0.171,2.240,-15.636,-16.122,13.612,-0.113,0.896,-0.489,-1.984,0.031,-0.244,60.000,67767.000,1.000
6.254,0.729,-0.876,-1.838,-0.948,-15.158,-15.512,11.886,-0.114,0.893,-0.487,-1.984,0.336,-0.275,60.000,67768.000,1.000
5.749,-2.110,-1.483,-3.963,-5.205,-14.257,-15.180,9.081,-0.117,0.890,-0.485,-1.953,0.763,-0.366,60.000,67769.000,1.000
5.885,-4.923,-1.534,-5.238,-9.193,-12.538,-13.803,5.254,-0.118,0.887,-0.488,-1.678,1.068,-0.458,60.000,67770.000,1.000
7.173,-6.616,-1.110,-5.744,-12.351,-10.316,-11.763,0.490,-0.124,0.885,-0.488,-1.587,1.282,-0.488,60.000,67771.000,1.000
7.448,-7.722,-1.089,-6.387,-15.008,-8.329,-10.892,-4.839,-0.126,0.885,-0.485,-1.526,1.434,-0.458,60.000,67772.000,1.000
5.685,-8.489,-1.804,-7.359,-16.952,-6.635,-11.575,-9.488,-0.128,0.886,-0.485,-1.404,1.495,-0.458,60.000,67773.000,1.000
3.908,-7.906,-2.557,-7.668,-16.996,-4.437,-11.716,-11.659,-0.133,0.887,-0.482,-1.251,1.526,-0.488,60.000,67774.000,1.000
5.022,-4.844,-2.414,-6.228,-14.254,-0.996,-8.838,-10.432,-0.135,0.888,-0.481,-1.160,1.556,-0.488,60.000,67775.000,1.000
8.402,-0.521,-1.660,-3.601,-10.050,3.096,-3.485,-7.173,-0.135,0.891,-0.480,-1.099,1.617,-0.458,60.000,67776.000,1.000
10.131,1.779,-1.584,-1.645,-7.356,6.325,1.281,-4.689,-0.137,0.891,-0.482,-1.099,1.556,-0.427,60.000,67777.000,1.000
7.589,-0.035,-2.969,-1.549,-8.086,7.856,3.669,-4.854,-0.138,0.891,-0.481,-0.977,1.495,-0.366,60.000,67778.000,1.000
2.062,-4.761,-5.328,-2.851,-11.530,8.188,4.775,-7.348,-0.138,0.892,-0.484,-0.824,1.404,-0.214,60.000,67779.000,1.000
-2.936,-9.212,-7.507,-4.245,-15.351,8.332,6.529,-10.562,-0.137,0.893,-0.479,-0.946,1.190,0.000,60.000,67780.000,1.000
-5.809,-11.617,-8.987,-5.230,-17.977,8.459,8.741,-13.454,-0.140,0.893,-0.481,-0.854,1.129,0.244,60.000,67781.000,1.000
-7.169,-12.191,-9.752,-6.005,-19.001,8.209,9.862,-15.852,-0.138,0.893,-0.484,-0.824,1.038,0.305,60.000,67782.000,1.000
-7.548,-11.505,-9.685,-6.592,-18.330,7.558,9.279,-17.782,-0.136,0.893,-0.484,-0.580,0.793,0.458,60.000,67783.000,1.000
-6.978,-9.963,-8.833,-6.932,-16.220,6.660,7.506,-19.254,-0.136,0.894,-0.485,-0.641,0.641,0.763,60.000,67784.000,1.000
-5.330,-7.863,-7.507,-7.057,-13.300,5.637,5.716,-20.142,-0.135,0.895,-0.484,-0.610,0.519,1.038,60.000,67785.000,1.000
-3.136,-5.730,-6.209,-7.219,-10.374,4.512,4.965,-20.248,-0.134,0.895,-0.483,-0.488,0.336,1.129,60.000,67786.000,1.000
-1.008,-3.894,-5.146,-7.471,-7.761,3.508,5.806,-19.288,-0.133,0.893,-0.485,-0.397,0.183,1.282,60.000,67787.000,1.000
1.061,-2.123,-4.112,-7.459,-5.062,3.056,7.909,-17.096,-0.133,0.893,-0.482,-0.336,0.061,1.465,60.000,67788.000,1.000
2.860,-0.380,-3.053,-7.001,-1.952,3.267,9.750,-14.032,-0.134,0.893,-0.484,-0.305,0.000,1.587,60.000,67789.000,1.000
3.911,0.964,-2.196,-6.329,1.380,3.794,9.958,-10.907,-0.134,0.891,-0.481,-0.275,-0.214,1.831,60.000,67790.000,1.000
3.729,1.537,-1.888,-5.959,4.376,4.003,8.574,-8.450,-0.135,0.891,-0.483,-0.183,-0.244,1.801,60.000,67791.000,1.000
2.668,1.733,-2.039,-5.980,6.860,3.628,7.085,-6.542,-0.133,0.889,-0.483,0.000,-0.458,1.770,60.000,67792.000,1.000
1.472,2.307,-2.205,-5.985,9.047,2.825,6.622,-4.497,-0.133,0.886,-0.489,0.122,-0.763,1.770,60.000,67793.000,1.000
-0.341,2.972,-2.324,-5.801,10.679,1.472,6.165,-1.995,-0.133,0.885,-0.488,0.153,-0.824,1.678,60.000,67794.000,1.000
-3.761,2.680,-2.676,-5.444,11.235,-0.734,3.973,0.860,-0.134,0.885,-0.492,0.336,-0.946,1.709,60.000,67795.000,1.000
-8.979,0.802,-3.500,-4.856,10.665,-3.789,-0.257,3.875,-0.135,0.885,-0.490,0.488,-1.099,1.556,60.000,67796.000,1.000
-14.656,-1.995,-4.603,-3.666,9.810,-7.026,-4.883,7.094,-0.135,0.886,-0.486,0.519,-1.282,1.495,60.000,67797.000,1.000
-19.179,-4.504,-5.695,-1.670,9.590,-9.641,-8.178,10.529,-0.135,0.887,-0.486,0.610,-1.465,1.282,60.000,67798.000,1.000
-22.531,-6.426,-6.919,0.547,9.902,-11.434,-10.138,13.760,-0.136,0.888,-0.488,0.732,-1.648,1.160,60.000,67799.000,1.000
-25.251,-7.907,-8.304,2.296,10.250,-12.384,-11.360,16.434,-0.135,0.891,-0.487,0.671,-1.831,1.007,60.000,67800.000,1.000
-27.200,-8.688,-9.465,3.431,10.589,-12.277,-11.837,18.657,-0.132,0.895,-0.487,0.549,-1.892,0.763,60.000,67801.000,1.000
-27.409,-8.008,-9.968,4.257,11.225,-10.945,-11.172,20.722,-0.132,0.897,-0.487,0.580,-2.075,0.610,60.000,67802.000,1.000
-25.651,-5.867,-10.018,4.705,11.845,-8.868,-9.741,22.420,-0.129,0.898,-0.489,0.397,-2.136,0.671,60.000,67803.000,1.000
-23.841,-4.109,-10.427,4.007,11.158,-7.147,-8.949,23.005,-0.128,0.899,-0.485,0.244,-2.106,0.610,60.000,67804.000,1.000
-23.557,-4.475,-11.310,1.937,8.537,-6.181,-9.290,22.255,-0.130,0.904,-0.485,0.061,-2.167,0.519,60.000,67805.000,1.000
-23.443,-6.223,-11.452,-0.413,5.242,-5.012,-9.600,20.983,-0.129,0.904,-0.488,-0.214,-2.167,0.458,60.000,67806.000,1.000
-19.763,-6.338,-9.010,-1.271,3.661,-2.142,-8.235,20.459,-0.125,0.906,-0.485,-0.397,-2.014,0.488,60.000,67807.000,1.000
-10.679,-2.869,-3.383,-0.042,4.841,2.650,-4.934,20.977,-0.122,0.904,-0.487,-0.793,-1.953,0.519,60.000,67808.000,1.000
0.585,2.385,3.657,1.654,7.031,7.462,-1.463,21.166,-0.119,0.902,-0.487,-0.977,-1.831,0.458,60.000,67809.000,1.000
9.088,5.912,9.386,1.655,7.547,9.908,0.181,19.143,-0.119,0.902,-0.487,-1.190,-1.678,0.366,60.000,67810.000,1.000
12.966,6.014,12.050,-0.746,5.308,8.978,-0.888,13.863,-0.120,0.900,-0.488,-1.343,-1.526,0.458,60.000,67811.000,1.000
14.549,4.045,11.700,-4.304,1.560,5.570,-3.991,5.884,-0.119,0.896,-0.485,-1.495,-1.312,0.488,60.000,67812.000,1.000
16.559,2.286,9.472,-7.245,-1.798,1.422,-7.551,-2.925,-0.124,0.895,-0.486,-1.495,-1.251,0.580,60.000,67813.000,1.000
18.214,1.237,6.576,-8.821,-4.104,-2.183,-10.491,-10.563,-0.125,0.893,-0.484,-1.617,-1.160,0.580,60.000,67814.000,1.000
17.398,0.267,4.418,-8.859,-5.415,-4.271,-12.147,-15.620,-0.125,0.891,-0.484,-1.709,-1.099,0.610,60.000,67815.000,1.000
14.475,-0.470,4.407,-7.020,-5.407,-3.985,-11.921,-17.452,-0.124,0.892,-0.489,-1.801,-0.885,0.610,60.000,67816.000,1.000
12.529,0.330,7.081,-3.021,-3.390,-1.025,-9.202,-16.200,-0.124,0.889,-0.488,-1.831,-0.824,0.763,60.000,67817.000,1.000
13.101,3.078,11.104,2.198,0.359,3.635,-4.093,-13.180,-0.122,0.889,-0.485,-1.892,-0.702,0.824,60.000,67818.000,1.000
13.162,5.655,13.735,6.315,3.902,7.996,1.971,-10.525,-0.123,0.889,-0.483,-1.892,-0.549,0.854,60.000,67819.000,1.000
9.153,5.620,13.257,7.816,5.526,10.741,7.650,-9.481,-0.123,0.890,-0.485,-1.862,-0.549,0.854,60.000,67820.000,1.000
1.917,2.964,10.305,7.427,5.473,12.002,12.662,-9.683,-0.125,0.889,-0.489,-1.953,-0.458,0.854,60.000,67821.000,1.000
-3.776,0.059,6.975,7.143,5.446,12.678,17.282,-10.100,-0.126,0.889,-0.485,-2.014,-0.275,0.885,60.000,67822.000,1.000
-5.254,-1.532,4.671,7.807,6.251,12.990,20.727,-10.556,-0.126,0.888,-0.481,-1.953,-0.092,0.946,60.000,67823.000,1.000
-6.037,-3.566,2.914,7.991,6.301,11.811,20.480,-12.041,-0.130,0.891,-0.480,-2.045,-0.031,0.854,60.000,67824.000,1.000
-10.928,-8.569,0.733,6.108,3.606,8.120,15.025,-15.119,-0.133,0.889,-0.481,-2.136,0.000,0.977,60.000,67825.000,1.000
-19.232,-15.907,-1.773,2.602,-1.590,2.446,6.234,-18.777,-0.133,0.889,-0.482,-2.258,-0.153,0.854,60.000,67826.000,1.000
-24.821,-21.726,-3.471,-0.412,-6.763,-3.287,-1.615,-21.103,-0.135,0.891,-0.484,-2.197,-0.214,0.793,60.000,67827.000,1.000
-23.419,-23.154,-3.804,-1.745,-9.803,-7.453,-5.648,-21.147,-0.135,0.893,-0.480,-2.319,-0.275,0.854,60.000,67828.000,1.000
-17.710,-21.209,-3.645,-2.473,-10.984,-9.881,-6.793,-19.767,-0.136,0.896,-0.483,-2.319,-0.397,0.946,60.000,67829.000,1.000
-12.635,-18.150,-3.743,-3.741,-11.338,-10.840,-7.173,-18.209,-0.134,0.900,-0.481,-2.502,-0.458,1.007,60.000,67830.000,1.000
-8.919,-14.175,-3.487,-4.760,-10.628,-10.154,-6.996,-16.571,-0.133,0.903,-0.482,-2.655,-0.458,0.977,60.000,67831.000,1.000
-2.997,-7.696,-1.699,-3.711,-7.734,-7.659,-4.945,-13.959,-0.129,0.907,-0.481,-2.899,-0.519,0.977,60.000,67832.000,1.000
6.881,1.461,1.393,-0.453,-2.939,-4.237,-1.291,-10.044,-0.129,0.913,-0.482,-3.174,-0.488,0.916,60.000,67833.000,1.000
16.555,10.193,3.749,2.659,1.181,-1.756,0.945,-5.702,-0.128,0.914,-0.479,-3.479,-0.397,0.977,60.000,67834.000,1.000
20.791,15.176,3.950,3.478,2.401,-1.163,-0.279,-1.695,-0.126,0.912,-0.481,-3.815,-0.366,1.038,60.000,67835.000,1.000
19.767,16.507,2.943,2.317,1.305,-1.451,-3.031,2.211,-0.123,0.913,-0.479,-4.059,-0.183,1.007,60.000,67836.000,1.000
18.933,17.338,2.949,1.200,0.518,-0.773,-3.204,6.558,-0.121,0.915,-0.473,-4.333,0.000,0.977,60.000,67837.000,1.000
22.163,19.986,4.912,1.252,1.706,1.551,0.880,11.029,-0.115,0.915,-0.474,-4.547,0.183,0.977,60.000,67838.000,1.000
26.867,23.454,7.748,1.674,4.112,4.598,6.603,14.638,-0.112,0.913,-0.477,-4.791,0.366,0.946,60.000,67839.000,1.000
28.191,25.727,10.218,1.661,6.452,7.417,10.495,17.205,-0.108,0.908,-0.474,-4.913,0.763,0.946,60.000,67840.000,1.000
25.245,26.547,12.057,1.720,8.659,9.801,11.508,19.607,-0.107,0.902,-0.474,-5.005,1.038,0.946,60.000,67841.000,1.000
21.500,27.124,13.348,2.750,11.350,11.638,10.749,22.524,-0.107,0.899,-0.476,-5.035,1.434,0.824,60.000,67842.000,1.000
18.915,27.315,13.360,4.207,13.958,12.042,8.918,25.183,-0.110,0.895,-0.476,-5.066,1.923,0.702,60.000,67843.000,1.000
14.042,24.523,10.807,4.118,14.483,9.863,5.318,25.852,-0.112,0.896,-0.476,-4.944,2.136,0.732,60.000,67844.000,1.000
3.035,17.125,5.742,1.685,12.072,5.610,0.225,23.948,-0.111,0.898,-0.476,-4.883,2.319,0.641,60.000,67845.000,1.000
-12.152,7.367,0.097,-1.397,8.511,1.692,-4.091,20.897,-0.113,0.901,-0.475,-4.852,2.686,0.549,60.000,67846.000,1.000
-24.240,0.102,-3.722,-2.327,6.808,0.655,-5.006,18.868,-0.115,0.900,-0.473,-4.761,2.960,0.549,60.000,67847.000,1.000
-27.763,-1.491,-4.918,0.054,8.230,3.094,-1.894,18.664,-0.116,0.898,-0.471,-4.700,3.052,0.427,60.000,67848.000,1.000
-24.783,1.171,-4.992,3.881,10.835,7.129,3.096,18.988,-0.119,0.897,-0.473,-4.608,3.204,0.305,60.000,67849.000,1.000
-21.465,4.178,-5.863,6.180,11.556,10.307,7.248,17.988,-0.122,0.895,-0.470,-4.517,3.357,0.305,60.000,67850.000,1.000
-21.149,4.955,-7.905,5.461,8.997,11.486,9.265,14.864,-0.126,0.896,-0.472,-4.303,3.387,0.214,60.000,67851.000,1.000
-21.600,3.982,-9.694,2.611,4.264,11.180,9.707,10.300,-0.132,0.895,-0.471,-4.150,3.296,0.183,60.000,67852.000,1.000
-18.894,3.203,-9.641,-0.507,-0.531,10.455,10.007,5.593,-0.139,0.893,-0.469,-3.967,3.021,0.000,60.000,67853.000,1.000
-12.697,3.424,-7.597,-2.881,-4.122,9.836,11.056,1.405,-0.142,0.891,-0.472,-3.693,2.777,-0.092,60.000,67854.000,1.000
-5.718,4.229,-4.448,-4.371,-6.108,9.569,13.161,-2.352,-0.143,0.889,-0.473,-3.418,2.472,-0.061,60.000,67855.000,1.000
-0.250,5.082,-1.068,-5.090,-6.415,9.921,16.060,-5.785,-0.142,0.890,-0.474,-3.143,2.075,-0.122,60.000,67856.000,1.000
3.975,6.088,2.278,-4.970,-5.059,11.042,19.138,-8.426,-0.143,0.891,-0.473,-2.869,1.740,-0.122,60.000,67857.000,1.000
8.317,7.485,5.465,-4.080,-2.445,12.541,21.511,-9.881,-0.143,0.893,-0.471,-2.594,1.373,-0.061,60.000,67858.000,1.000
12.653,8.912,7.943,-2.947,0.553,13.635,22.122,-10.481,-0.140,0.891,-0.470,-2.411,1.099,-0.092,60.000,67859.000,1.000
15.978,10.124,9.265,-1.976,3.381,14.119,20.864,-10.671,-0.140,0.889,-0.469,-2.197,0.763,-0.122,60.000,67860.000,1.000
17.184,10.866,9.228,-1.501,5.633,14.220,18.552,-10.740,-0.141,0.892,-0.464,-2.075,0.488,-0.061,60.000,67861.000,1.000
15.679,10.503,7.865,-1.758,6.838,14.154,16.390,-10.914,-0.139,0.889,-0.469,-1.831,0.153,0.031,60.000,67862.000,1.000
12.040,8.641,5.544,-2.501,6.852,14.117,15.415,-11.170,-0.139,0.887,-0.467,-1.556,-0.214,0.092,60.000,67863.000,1.000
7.543,5.672,2.694,-3.233,5.841,14.069,15.532,-11.149,-0.138,0.887,-0.465,-1.251,-0.549,0.244,60.000,67864.000,1.000
3.524,2.660,-0.385,-3.634,4.056,13.620,15.584,-10.422,-0.135,0.886,-0.468,-0.977,-0.854,0.488,60.000,67865.000,1.000
0.059,0.140,-3.720,-3.926,1.511,12.066,14.056,-8.931,-0.133,0.885,-0.467,-0.580,-0.977,0.519,60.000,67866.000,1.000
-3.439,-1.858,-7.066,-4.227,-1.406,9.222,10.564,-6.679,-0.136,0.884,-0.469,-0.305,-1.343,0.610,60.000,67867.000,1.000
-6.430,-2.790,-9.484,-3.898,-3.340,5.929,6.353,-3.534,-0.139,0.886,-0.471,-0.061,-1.740,0.763,60.000,67868.000,1.000
-7.527,-1.933,-10.142,-2.209,-2.932,3.195,2.791,0.241,-0.138,0.887,-0.472,0.153,-1.892,0.977,60.000,67869.000,1.000
-6.168,0.473,-9.225,0.701,-0.183,1.205,0.338,3.790,-0.135,0.886,-0.473,0.366,-2.167,1.038,60.000,67870.000,1.000
-4.526,2.414,-8.187,3.352,2.953,-1.049,-1.759,6.025,-0.135,0.886,-0.474,0.580,-2.411,1.160,60.000,67871.000,1.000
-5.521,1.942,-8.329,4.331,4.255,-4.528,-4.305,6.650,-0.134,0.886,-0.473,0.824,-2.686,1.282,60.000,67872.000,1.000
-8.901,-0.313,-9.319,4.037,3.456,-8.722,-6.883,6.614,-0.130,0.889,-0.474,1.007,-2.869,1.312,60.000,67873.000,1.000
-11.151,-1.665,-9.654,4.279,2.153,-12.136,-8.456,7.302,-0.130,0.891,-0.477,1.190,-2.899,1.343,60.000,67874.000,1.000
-8.834,0.073,-8.153,6.506,2.049,-13.737,-8.435,9.553,-0.128,0.892,-0.477,1.373,-3.021,1.404,60.000,67875.000,1.000
-2.821,4.108,-5.382,10.071,3.046,-14.057,-7.737,12.850,-0.129,0.895,-0.477,1.495,-3.143,1.404,60.000,67876.000,1.000
2.391,7.303,-3.163,12.761,3.537,-14.607,-8.125,15.654,-0.128,0.896,-0.477,1.465,-3.204,1.343,60.000,67877.000,1.000
4.015,7.502,-2.595,13.104,2.570,-16.236,-10.222,16.917,-0.125,0.898,-0.478,1.587,-3.235,1.099,60.000,67878.000,1.000
4.060,5.571,-3.005,11.653,1.026,-18.469,-12.872,17.066,-0.124,0.898,-0.480,1.556,-3.143,0.977,60.000,67879.000,1.000
6.795,4.138,-2.825,10.082,0.616,-20.304,-14.352,17.299,-0.123,0.900,-0.481,1.404,-3.082,0.854,60.000,67880.000,1.000
12.554,3.957,-1.612,8.937,1.553,-21.653,-14.740,17.915,-0.119,0.901,-0.480,1.282,-3.021,0.641,60.000,67881.000,1.000
16.951,3.216,-0.231,7.347,2.331,-23.074,-15.693,18.093,-0.118,0.902,-0.479,1.160,-3.052,0.519,60.000,67882.000,1.000
16.650,0.507,0.616,4.665,1.724,-24.484,-17.878,17.065,-0.115,0.903,-0.479,1.068,-2.869,0.488,60.000,67883.000,1.000
13.323,-3.289,1.142,1.474,0.065,-25.000,-19.966,15.022,-0.114,0.902,-0.482,0.916,-2.716,0.214,60.000,67884.000,1.000
11.619,-6.007,1.955,-0.915,-1.286,-23.745,-19.997,12.930,-0.111,0.902,-0.479,0.854,-2.472,0.061,60.000,67885.000,1.000
13.035,-7.053,2.710,-2.197,-1.919,-20.995,-18.161,11.220,-0.113,0.902,-0.480,0.641,-2.106,-0.092,60.000,67886.000,1.000
14.409,-7.952,2.302,-3.291,-2.827,-17.927,-16.735,9.418,-0.114,0.903,-0.484,0.458,-1.862,-0.244,60.000,67887.000,1.000
12.602,-10.087,0.377,-4.882,-4.865,-15.378,-17.022,7.043,-0.117,0.901,-0.482,0.305,-1.648,-0.336,60.000,67888.000,1.000
8.259,-13.117,-2.143,-6.709,-7.795,-13.437,-17.833,4.153,-0.116,0.902,-0.484,0.214,-1.373,-0.458,60.000,67889.000,1.000
4.753,-15.508,-3.945,-8.047,-10.686,-11.859,-17.071,1.058,-0.118,0.900,-0.483,-0.031,-1.068,-0.610,60.000,67890.000,1.000
3.183,-16.857,-4.813,-8.969,-13.253,-10.833,-14.906,-2.399,-0.121,0.903,-0.479,-0.031,-1.007,-0.824,60.000,67891.000,1.000
1.194,-18.355,-5.484,-10.262,-15.924,-10.651,-13.601,-6.733,-0.122,0.901,-0.479,-0.122,-0.732,-0.854,60.000,67892.000,1.000
-2.915,-20.800,-6.278,-12.157,-18.766,-10.894,-14.297,-12.077,-0.123,0.899,-0.480,-0.275,-0.610,-0.977,60.000,67893.000,1.000
-7.384,-23.437,-6.614,-13.832,-21.174,-10.665,-15.652,-17.751,-0.124,0.898,-0.481,-0.397,-0.427,-1.038,60.000,67894.000,1.000
-8.539,-24.675,-5.540,-14.032,-22.326,-9.220,-15.250,-22.481,-0.126,0.899,-0.483,-0.610,-0.366,-1.007,60.000,67895.000,1.000
-5.637,-24.233,-2.930,-12.574,-22.253,-6.686,-12.416,-25.564,-0.126,0.900,-0.481,-0.732,-0.244,-1.038,60.000,67896.000,1.000
-1.749,-23.337,0.436,-10.468,-21.758,-3.832,-8.551,-27.340,-0.127,0.901,-0.482,-0.702,-0.305,-1.038,60.000,67897.000,1.000
0.334,-22.823,3.723,-8.660,-21.272,-1.329,-5.103,-28.513,-0.127,0.901,-0.480,-0.793,-0.214,-0.916,60.000,67898.000,1.000
0.841,-22.349,6.361,-7.450,-20.541,0.460,-2.529,-29.563,-0.127,0.900,-0.480,-0.854,-0.061,-0.885,60.000,67899.000,1.000
2.111,-20.988,8.054,-6.645,-19.046,1.550,-0.462,-30.633,-0.125,0.901,-0.481,-1.007,-0.092,-0.702,60.000,67900.000,1.000
4.641,-18.858,8.501,-6.285,-16.943,2.046,1.157,-31.859,-0.126,0.900,-0.484,-1.007,-0.031,-0.580,60.000,67901.000,1.000
6.124,-17.264,7.690,-6.515,-14.993,2.174,2.185,-33.169,-0.126,0.901,-0.484,-0.977,0.000,-0.458,60.000,67902.000,1.000
4.802,-16.930,6.272,-6.996,-13.517,2.398,3.098,-33.979,-0.127,0.901,-0.486,-1.007,0.092,-0.366,60.000,67903.000,1.000
1.895,-17.038,5.194,-7.085,-11.974,3.087,4.476,-33.600,-0.126,0.901,-0.484,-1.068,0.183,-0.305,60.000,67904.000,1.000
0.714,-15.809,5.208,-6.312,-9.399,4.351,6.437,-31.764,-0.126,0.899,-0.485,-1.007,0.183,-0.092,60.000,67905.000,1.000
2.459,-12.663,6.103,-5.142,-5.870,5.658,8.227,-29.004,-0.130,0.896,-0.482,-1.099,0.244,0.031,60.000,67906.000,1.000
4.680,-9.004,6.913,-4.586,-2.724,6.126,8.996,-26.127,-0.131,0.891,-0.480,-0.977,0.244,0.214,60.000,67907.000,1.000
4.481,-6.558,7.011,-4.846,-0.929,5.496,8.811,-23.325,-0.135,0.889,-0.480,-1.068,0.061,0.244,60.000,67908.000,1.000
1.636,-5.749,6.545,-4.984,-0.043,4.292,8.022,-20.181,-0.136,0.885,-0.483,-0.946,0.061,0.366,60.000,67909.000,1.000
-1.576,-5.612,5.997,-3.884,1.100,3.195,6.753,-16.330,-0.136,0.883,-0.480,-0.732,-0.092,0.458,60.000,67910.000,1.000
-4.242,-5.660,5.178,-1.843,2.604,2.091,4.698,-12.169,-0.135,0.881,-0.480,-0.519,-0.244,0.336,60.000,67911.000,1.000
-8.030,-6.469,3.429,-0.298,3.476,0.380,1.637,-8.413,-0.133,0.883,-0.484,-0.397,-0.427,0.397,60.000,67912.000,1.000
-13.876,-7.977,0.783,0.101,3.415,-1.826,-1.886,-5.020,-0.134,0.885,-0.483,-0.336,-0.519,0.427,60.000,67913.000,1.000
-19.662,-8.548,-1.794,0.300,3.626,-3.485,-4.682,-0.982,-0.131,0.887,-0.484,-0.244,-0.702,0.549,60.000,67914.000,1.000
-21.910,-6.319,-3.309,1.746,5.660,-3.588,-5.434,4.562,-0.128,0.887,-0.480,-0.153,-0.763,0.610,60.000,67915.000,1.000
-20.660,-2.076,-4.082,4.319,9.122,-2.597,-4.262,10.712,-0.129,0.890,-0.481,-0.122,-0.763,0.610,60.000,67916.000,1.000
-19.899,0.970,-5.259,6.420,11.727,-2.023,-2.723,15.370,-0.130,0.894,-0.480,-0.183,-0.824,0.641,60.000,67917.000,1.000
-22.228,0.848,-7.017,7.119,11.941,-2.557,-1.838,17.473,-0.133,0.898,-0.478,-0.214,-0.824,0.671,60.000,67918.000,1.000
-25.354,-1.019,-8.141,7.160,10.478,-3.439,-1.208,17.851,-0.135,0.899,-0.477,-0.458,-1.007,0.519,60.000,67919.000,1.000
-24.527,-1.487,-7.402,7.737,8.985,-3.625,-0.032,17.934,-0.137,0.903,-0.476,-0.671,-1.129,0.519,60.000,67920.000,1.000
-19.108,0.236,-5.359,8.349,7.471,-3.474,0.751,17.910,-0.137,0.903,-0.479,-0.824,-1.221,0.244,60.000,67921.000,1.000
-13.745,1.785,-3.768,7.314,4.599,-4.199,-0.835,17.072,-0.135,0.904,-0.479,-1.068,-1.373,0.061,60.000,67922.000,1.000
-12.266,1.184,-3.369,4.241,0.314,-5.945,-4.765,15.553,-0.133,0.907,-0.477,-1.343,-1.556,-0.061,60.000,67923.000,1.000
-12.853,-0.345,-3.105,0.902,-3.202,-7.373,-8.291,14.758,-0.132,0.906,-0.473,-1.556,-1.617,-0.244,60.000,67924.000,1.000
-9.979,0.634,-1.263,-0.221,-3.130,-6.770,-8.209,16.116,-0.129,0.903,-0.476,-1.801,-1.648,-0.427,60.000,67925.000,1.000
-1.949,5.308,2.280,1.373,0.986,-3.848,-4.550,19.269,-0.127,0.903,-0.478,-2.075,-1.526,-0.671,60.000,67926.000,1.000
6.425,10.801,5.775,3.794,6.625,-0.016,-0.798,22.140,-0.125,0.903,-0.480,-2.258,-1.587,-0.732,60.000,67927.000,1.000
